timestamps,TP9,AF7,AF8,TP10,Right AUX,Marker0
1542732809.996,41.992,28.320,26.855,47.363,61.035,0
1542732810.000,37.598,32.715,25.879,41.992,24.414,0
1542732810.004,42.969,38.086,27.344,38.086,29.297,0
1542732810.008,44.922,40.039,31.738,42.480,46.387,0
1542732810.012,34.180,36.133,30.273,37.598,60.059,0
1542732810.016,35.156,33.203,24.902,29.297,55.176,0
1542732810.020,37.598,35.156,22.461,29.785,21.484,0
1542732810.024,30.762,35.156,23.438,31.738,-3.418,0
1542732810.028,27.344,35.645,23.926,32.227,-20.996,0
1542732810.032,32.227,39.062,24.414,37.598,-2.930,0
1542732810.035,31.738,38.086,26.367,42.480,25.879,0
1542732810.039,32.227,32.715,29.297,37.598,7.812,0
1542732810.043,30.273,35.156,28.809,38.574,18.555,0
1542732810.047,22.461,38.086,27.344,32.715,-5.371,0
1542732810.051,16.113,35.645,26.855,14.648,9.766,0
1542732810.055,23.438,36.621,25.391,15.625,16.113,0
1542732810.059,29.297,37.598,21.484,17.578,-2.930,0
1542732810.063,27.344,36.133,19.531,15.625,-4.395,0
1542732810.067,33.203,32.227,25.391,25.391,-24.902,0
1542732810.071,45.898,34.180,26.855,13.672,41.992,0
1542732810.074,54.688,35.156,17.090,13.672,37.109,0
1542732810.078,39.551,33.203,22.949,31.738,67.871,0
1542732810.082,9.277,36.133,35.645,15.137,80.078,0
1542732810.086,16.602,34.668,37.109,6.348,41.504,0
1542732810.090,38.574,26.855,36.621,16.113,19.531,0
1542732810.094,41.992,23.926,37.598,14.648,9.766,0
1542732810.098,25.391,22.949,39.062,13.672,40.039,0
1542732810.102,14.160,21.973,39.551,19.043,35.156,0
1542732810.106,18.066,19.531,39.062,14.648,41.992,0
1542732810.110,21.973,19.531,34.180,20.020,18.555,0
1542732810.114,19.531,21.973,31.738,20.996,-32.715,0
1542732810.117,17.578,23.926,29.297,11.230,-5.859,0
1542732810.121,31.250,25.391,29.785,13.672,88.379,0
1542732810.125,31.250,23.438,25.391,21.973,88.379,0
1542732810.129,22.461,22.949,23.926,23.926,-21.484,0
1542732810.133,30.762,21.973,28.320,20.020,-20.020,0
1542732810.137,25.391,19.531,32.227,11.230,75.684,0
1542732810.141,18.066,19.043,32.715,14.648,39.062,0
1542732810.145,22.461,22.949,32.227,17.578,34.180,0
1542732810.149,22.949,23.438,37.598,16.113,83.984,0
1542732810.153,21.973,20.508,37.598,16.602,55.664,0
1542732810.157,35.645,26.855,38.086,19.531,77.637,0
1542732810.160,35.645,27.832,41.992,15.137,75.195,0
1542732810.164,8.789,25.391,36.621,9.277,46.875,0
1542732810.168,11.719,25.879,32.715,17.090,42.969,0
1542732810.172,33.203,24.414,32.715,21.973,-5.371,0
1542732810.176,29.297,24.414,34.668,20.508,-31.738,0
1542732810.180,18.555,23.926,34.180,21.484,20.508,0
1542732810.184,20.508,25.879,29.785,13.672,-5.371,0
1542732810.188,28.320,28.809,31.250,14.160,-15.137,0
1542732810.192,34.180,29.297,36.133,24.414,23.438,0
1542732810.196,24.414,27.344,34.668,23.438,-24.414,0
1542732810.199,19.043,26.367,34.180,16.113,27.832,0
1542732810.203,27.832,27.344,32.227,16.602,57.617,0
1542732810.207,33.691,31.738,33.203,22.949,27.344,0
1542732810.211,24.414,31.738,32.227,25.391,46.875,0
1542732810.215,22.949,29.785,31.250,24.902,43.945,0
1542732810.219,32.715,29.785,34.668,20.996,-1.465,0
1542732810.223,35.156,29.785,28.320,22.461,6.836,0
1542732810.227,40.039,29.785,24.902,20.508,38.086,0
1542732810.231,39.551,31.250,26.855,20.020,44.434,0
1542732810.235,29.785,30.762,25.391,25.391,24.902,0
1542732810.239,30.273,29.297,28.809,20.996,23.438,0
1542732810.242,35.645,30.762,27.832,22.949,53.711,0
1542732810.246,22.949,32.227,23.438,25.879,62.012,0
1542732810.250,25.391,31.250,24.414,19.531,-2.930,0
1542732810.254,31.250,30.762,23.438,15.137,-22.461,0
1542732810.258,25.879,29.297,20.020,20.996,12.207,0
1542732810.262,24.414,29.785,22.461,15.625,16.602,0
1542732810.266,22.949,23.926,24.902,8.789,38.574,0
1542732810.270,42.969,8.301,32.227,34.180,73.730,0
1542732810.274,59.570,19.043,31.250,40.527,51.270,0
1542732810.278,31.250,48.340,20.996,0.977,32.227,0
1542732810.282,9.277,47.852,18.555,-12.695,28.320,0
1542732810.285,18.066,45.410,14.648,-0.977,41.504,0
1542732810.289,21.484,50.781,13.184,-2.930,50.293,0
1542732810.293,20.508,52.246,12.207,-6.836,19.043,0
1542732810.297,13.672,62.500,6.348,-11.230,13.184,0
1542732810.301,19.043,65.430,3.906,-2.441,44.434,0
1542732810.305,31.250,60.547,0.488,1.465,49.805,0
1542732810.309,18.066,53.711,-4.395,1.953,21.484,0
1542732810.313,22.461,48.340,1.465,-0.488,16.113,0
1542732810.317,37.598,49.805,8.301,0.488,36.133,0
1542732810.321,17.578,51.758,8.789,13.672,-10.254,0
1542732810.324,13.672,47.852,13.672,11.230,-35.645,0
1542732810.328,20.020,44.434,16.113,3.418,20.996,0
1542732810.332,24.414,44.922,13.672,10.254,77.637,0
1542732810.336,24.414,43.457,14.648,15.625,77.148,0
1542732810.340,28.320,46.875,17.090,16.113,-0.977,0
1542732810.344,31.738,50.781,16.113,21.484,-10.254,0
1542732810.348,38.086,44.922,19.043,20.508,-49.316,0
1542732810.352,40.039,43.457,21.973,21.484,-56.152,0
1542732810.356,34.180,46.387,20.508,27.344,-12.695,0
1542732810.360,36.621,44.434,19.531,15.625,2.930,0
1542732810.364,43.457,39.062,17.578,3.906,22.949,0
1542732810.367,41.992,40.039,20.020,14.160,30.762,0
1542732810.371,33.203,41.992,19.531,17.578,63.965,0
1542732810.375,26.367,40.527,17.578,7.324,3.906,0
1542732810.379,30.762,36.621,21.973,14.160,-9.277,0
1542732810.383,28.809,39.551,20.508,17.090,20.508,0
1542732810.387,29.297,38.574,18.555,10.254,-15.625,0
1542732810.391,17.578,34.668,24.902,10.742,14.160,0
1542732810.395,14.648,39.062,27.832,19.043,42.969,0
1542732810.399,33.691,40.039,27.344,16.113,14.160,0
1542732810.403,28.320,41.016,29.297,9.277,77.148,0
1542732810.407,18.555,43.945,26.855,6.836,96.191,0
1542732810.410,26.367,37.109,26.367,10.254,62.500,0
1542732810.414,27.832,32.227,29.785,15.137,53.711,0
1542732810.418,36.133,40.527,29.297,18.066,7.812,0
1542732810.422,46.875,42.969,29.785,28.320,18.555,0
1542732810.426,45.898,41.016,29.297,22.461,-9.277,0
1542732810.430,42.480,41.992,26.855,13.184,-27.832,0
1542732810.434,46.387,41.504,25.391,21.973,33.691,0
1542732810.438,64.941,39.062,25.879,26.367,44.434,0
1542732810.442,65.918,39.551,26.367,28.809,24.414,0
1542732810.446,46.387,41.992,26.367,36.621,59.570,0
1542732810.449,39.062,41.504,29.785,45.898,89.355,0
1542732810.453,31.738,39.551,28.320,36.621,67.871,0
1542732810.457,24.414,39.551,29.297,30.273,80.078,0
1542732810.461,34.180,40.039,27.344,28.809,88.379,0
1542732810.465,35.156,34.668,23.926,29.785,46.387,0
1542732810.469,22.461,35.156,25.391,32.227,66.895,0
1542732810.473,17.578,34.180,25.391,34.180,97.168,0
1542732810.477,28.320,26.367,29.785,35.156,18.555,0
1542732810.481,34.180,28.809,30.762,39.551,0.977,0
1542732810.485,31.250,29.785,29.785,41.992,55.176,0
1542732810.489,23.438,26.855,29.297,43.945,54.199,0
1542732810.492,27.344,30.273,25.879,44.434,70.312,0
1542732810.496,29.785,31.738,25.879,45.898,83.008,0
1542732810.500,36.133,25.879,30.273,44.434,62.988,0
1542732810.504,42.480,27.832,32.227,44.434,18.555,0
1542732810.508,32.715,32.715,31.738,50.293,29.297,0
1542732810.512,32.715,29.785,30.273,45.898,65.918,0
1542732810.516,35.645,34.668,30.762,46.387,28.320,0
1542732810.520,34.668,34.180,26.855,50.781,2.441,0
1542732810.524,32.715,28.809,23.926,48.340,31.250,0
1542732810.528,22.949,32.715,25.879,41.992,26.855,0
1542732810.532,30.273,33.691,25.391,42.480,-4.883,0
1542732810.535,31.250,34.180,25.391,51.270,5.371,0
1542732810.539,29.297,30.762,28.320,47.363,-25.391,0
1542732810.543,25.391,26.855,31.250,42.480,-10.742,0
1542732810.547,11.719,32.715,30.273,43.457,10.742,0
1542732810.551,20.996,35.156,30.273,45.410,10.254,0
1542732810.555,26.855,36.621,31.738,40.527,19.531,0
1542732810.559,28.320,37.109,28.809,40.039,8.789,0
1542732810.563,38.086,38.574,29.297,49.316,52.246,0
1542732810.567,40.527,41.504,32.715,52.734,45.898,0
1542732810.571,35.156,41.504,34.180,56.152,-21.973,0
1542732810.574,40.527,38.086,33.203,57.129,3.418,0
1542732810.578,34.180,35.645,30.762,50.293,38.574,0
1542732810.582,30.273,38.086,29.297,45.410,-3.906,0
1542732810.586,35.156,38.086,30.762,51.758,20.508,0
1542732810.590,24.902,34.180,34.668,48.828,53.711,0
1542732810.594,20.020,32.227,30.273,45.898,40.527,0
1542732810.598,18.555,30.273,25.879,49.805,-35.645,0
1542732810.602,21.484,30.273,26.855,51.758,-23.438,0
1542732810.606,31.250,34.668,23.438,47.852,57.129,0
1542732810.610,35.156,38.086,21.973,44.434,39.551,0
1542732810.614,35.156,35.156,23.926,47.852,46.387,0
1542732810.617,30.273,32.715,24.902,47.852,115.234,0
1542732810.621,20.508,38.086,23.438,50.293,86.426,0
1542732810.625,13.184,36.621,21.484,47.852,40.527,0
1542732810.629,12.695,31.738,23.926,43.945,38.574,0
1542732810.633,16.113,33.691,25.391,40.039,20.508,0
1542732810.637,19.531,33.691,25.391,39.551,13.184,0
1542732810.641,23.926,33.691,29.785,36.133,40.527,0
1542732810.645,19.043,33.203,32.227,37.109,65.918,0
1542732810.649,27.344,30.762,33.203,45.898,-8.301,0
1542732810.653,28.809,34.668,34.668,44.922,-2.441,0
1542732810.657,18.555,34.668,31.738,43.457,79.102,0
1542732810.660,17.578,28.320,30.762,42.480,8.301,0
1542732810.664,12.695,25.879,32.227,34.668,-15.625,0
1542732810.668,10.254,28.320,28.809,19.043,19.043,0
1542732810.672,10.742,31.250,26.367,14.648,5.859,0
1542732810.676,31.738,32.715,29.297,7.812,28.809,0
1542732810.680,33.691,33.203,31.250,11.719,10.254,0
1542732810.684,14.648,32.227,28.809,21.484,15.137,0
1542732810.688,12.207,25.391,28.809,12.695,37.598,0
1542732810.692,11.230,27.344,29.785,8.301,7.812,0
1542732810.696,22.949,34.180,26.367,10.254,15.625,0
1542732810.699,31.738,31.250,26.855,8.789,0.000,0
1542732810.703,28.320,28.809,29.297,12.695,22.461,0
1542732810.707,19.043,30.762,30.273,17.090,69.824,0
1542732810.711,19.043,33.203,28.320,17.578,62.500,0
1542732810.715,35.156,35.645,24.902,21.484,44.434,0
1542732810.719,26.855,31.738,27.832,26.367,42.969,0
1542732810.723,13.184,26.367,27.832,27.344,35.156,0
1542732810.727,43.457,24.902,19.043,47.363,28.809,0
1542732810.731,40.039,32.227,32.715,41.504,92.773,0
1542732810.735,-20.020,39.062,49.316,-8.301,43.945,0
1542732810.739,-39.062,33.203,42.969,-23.438,6.348,0
1542732810.742,-28.809,33.691,44.922,-16.602,31.738,0
1542732810.746,-45.410,32.715,52.246,-31.250,37.598,0
1542732810.750,-62.988,26.855,60.059,-45.898,31.250,0
1542732810.754,-63.965,35.645,61.523,-54.199,-1.465,0
1542732810.758,-64.941,36.133,60.547,-51.270,-1.465,0
1542732810.762,-78.613,29.785,63.477,-55.664,3.906,0
1542732810.766,-59.570,34.668,56.641,-58.105,10.742,0
1542732810.770,-47.363,39.551,50.293,-41.504,37.598,0
1542732810.774,-48.828,38.574,50.293,-43.457,81.055,0
1542732810.778,-35.645,32.715,50.781,-46.387,22.949,0
1542732810.782,-32.227,29.785,49.316,-28.809,0.488,0
1542732810.785,-22.949,26.367,46.387,-19.531,23.438,0
1542732810.789,-17.090,22.461,46.387,-12.207,18.066,0
1542732810.793,-11.719,23.438,43.457,-5.371,42.480,0
1542732810.797,-2.930,24.902,39.551,-4.395,39.551,0
1542732810.801,12.207,28.320,39.551,2.441,21.484,0
1542732810.805,8.301,28.809,41.016,2.930,27.832,0
1542732810.809,-5.859,21.484,43.457,4.883,71.289,0
1542732810.813,4.395,19.043,37.598,8.789,23.926,0
1542732810.817,18.066,23.438,33.203,8.301,-28.809,0
1542732810.821,26.855,24.414,35.156,7.324,-21.973,0
1542732810.824,14.648,22.461,31.250,4.883,-34.668,0
1542732810.828,16.113,21.484,32.227,4.883,-18.066,0
1542732810.832,25.391,23.926,31.250,10.742,42.969,0
1542732810.836,21.484,25.391,22.949,13.672,79.102,0
1542732810.840,18.555,22.949,22.461,9.766,86.914,0
1542732810.844,14.648,23.438,27.832,12.207,40.039,0
1542732810.848,26.367,24.902,33.203,20.996,17.090,0
1542732810.852,24.902,16.113,35.645,20.508,49.805,0
1542732810.856,19.043,14.648,34.180,16.113,32.227,0
1542732810.860,20.020,20.020,33.691,14.648,11.230,0
1542732810.864,19.043,25.879,34.180,17.090,25.879,0
1542732810.867,29.297,30.762,31.250,20.996,41.016,0
1542732810.871,43.945,32.715,29.297,22.461,54.688,0
1542732810.875,38.574,28.809,30.273,22.949,28.809,0
1542732810.879,34.668,22.949,35.156,21.484,14.648,0
1542732810.883,50.293,29.297,32.715,16.602,-9.766,0
1542732810.887,42.969,36.621,27.344,19.531,29.785,0
1542732810.891,30.273,33.691,33.203,19.531,58.594,0
1542732810.895,32.227,28.320,33.691,18.066,15.137,0
1542732810.899,39.062,28.320,34.668,21.484,-2.930,0
1542732810.903,40.527,31.738,41.016,26.367,2.441,0
1542732810.907,36.133,32.227,40.039,21.973,30.273,0
1542732810.910,35.156,29.785,39.062,26.367,40.527,0
1542732810.914,32.715,28.809,41.016,26.855,-3.906,0
1542732810.918,38.086,27.832,38.086,16.602,-13.184,0
1542732810.922,51.270,27.832,36.621,18.066,47.852,0
1542732810.926,52.734,32.715,37.109,12.207,40.527,0
1542732810.930,35.645,34.180,35.645,5.859,41.016,0
1542732810.934,37.109,29.297,34.180,16.602,38.574,0
1542732810.938,45.410,30.273,33.203,26.855,33.691,0
1542732810.942,34.180,29.785,36.621,20.996,48.828,0
1542732810.946,23.438,26.855,41.992,15.137,30.273,0
1542732810.949,27.832,29.297,41.016,14.648,31.250,0
1542732810.953,39.062,32.227,37.598,13.672,15.137,0
1542732810.957,41.504,35.156,40.527,13.672,7.324,0
1542732810.961,36.133,41.504,42.480,9.277,51.270,0
1542732810.965,30.762,39.551,43.457,3.418,53.711,0
1542732810.969,17.578,40.527,43.945,0.977,97.168,0
1542732810.973,19.043,51.758,44.922,9.277,119.629,0
1542732810.977,24.414,53.711,41.992,6.348,33.203,0
1542732810.981,11.719,55.664,41.016,-13.184,57.129,0
1542732810.985,-8.301,51.758,51.270,-31.738,67.383,0
1542732810.989,-29.785,40.527,55.664,-52.246,9.766,0
1542732810.992,-41.504,51.758,63.965,-64.453,23.438,0
1542732810.996,-59.570,64.453,75.195,-83.496,16.602,0
1542732811.000,-96.191,67.383,95.215,-115.234,-8.301,0
1542732811.004,-116.211,70.801,121.582,-134.277,21.484,0
1542732811.008,-122.070,73.242,143.555,-144.043,23.926,0
1542732811.012,-182.617,63.477,176.758,-194.824,27.832,0
1542732811.016,-227.539,56.152,199.707,-230.957,55.664,0
1542732811.020,-229.492,65.430,216.797,-235.840,82.520,0
1542732811.024,-248.047,70.801,231.445,-244.141,79.102,0
1542732811.028,-260.742,75.684,232.422,-249.512,90.332,0
1542732811.032,-259.766,83.496,235.352,-255.371,102.539,0
1542732811.035,-254.883,85.938,237.305,-249.512,37.109,0
1542732811.039,-255.859,93.262,222.168,-240.723,-6.348,0
1542732811.043,-250.977,96.680,207.031,-242.188,1.953,0
1542732811.047,-243.164,84.473,197.754,-228.027,5.859,0
1542732811.051,-219.238,78.613,184.082,-204.590,-33.691,0
1542732811.055,-191.895,80.566,167.969,-190.918,-58.594,0
1542732811.059,-181.152,72.266,150.391,-168.457,-0.977,0
1542732811.063,-153.320,61.523,137.695,-135.254,10.742,0
1542732811.067,-104.004,62.988,125.000,-113.281,2.441,0
1542732811.071,-81.055,60.547,101.074,-99.121,45.898,0
1542732811.074,-60.547,50.293,86.426,-70.801,-1.465,0
1542732811.078,-41.992,48.828,74.707,-52.246,3.418,0
1542732811.082,-47.852,48.828,62.012,-41.992,44.922,0
1542732811.086,-33.691,41.504,53.223,-22.949,35.156,0
1542732811.090,-13.184,32.715,42.480,-10.742,19.531,0
1542732811.094,3.906,23.926,35.645,-1.953,-24.414,0
1542732811.098,24.414,22.461,25.879,17.090,13.672,0
1542732811.102,32.227,29.297,15.137,24.414,32.227,0
1542732811.106,50.781,28.809,10.742,28.320,31.250,0
1542732811.110,59.082,18.066,11.719,43.945,36.621,0
1542732811.114,60.547,12.207,6.836,54.199,-6.836,0
1542732811.117,60.547,14.160,-0.488,62.012,-3.418,0
1542732811.121,46.387,11.719,-1.953,64.453,55.664,0
1542732811.125,46.387,7.324,-5.859,69.824,58.594,0
1542732811.129,54.199,4.883,-10.742,84.473,10.254,0
1542732811.133,57.129,2.441,-14.160,87.402,6.836,0
1542732811.137,66.895,7.324,-16.113,92.285,8.301,0
1542732811.141,80.566,7.812,-18.066,101.074,68.848,0
1542732811.145,88.379,5.859,-21.973,104.004,117.676,0
1542732811.149,87.402,5.859,-23.438,102.051,56.641,0
1542732811.153,84.473,6.348,-26.855,98.633,11.230,0
1542732811.157,111.816,5.859,-23.926,112.305,46.875,0
1542732811.160,127.441,2.930,-20.508,125.488,54.688,0
1542732811.164,121.582,4.395,-26.367,124.023,-18.066,0
1542732811.168,116.211,8.301,-27.832,124.512,49.316,0
1542732811.172,109.863,4.883,-24.902,129.883,78.125,0
1542732811.176,118.652,5.859,-29.297,125.977,-53.711,0
1542732811.180,114.746,7.812,-33.203,131.348,56.641,0
1542732811.184,109.375,9.766,-33.203,132.812,65.430,0
1542732811.188,108.887,15.625,-29.785,129.395,14.648,0
1542732811.192,115.723,15.625,-32.715,134.277,65.430,0
1542732811.196,118.652,14.648,-33.203,137.207,69.336,0
1542732811.199,107.910,12.207,-27.344,132.812,45.410,0
1542732811.203,105.957,7.812,-26.855,127.930,5.371,0
1542732811.207,107.422,6.348,-28.320,131.836,25.391,0
1542732811.211,103.027,3.906,-26.367,127.930,-24.414,0
1542732811.215,113.281,7.324,-24.902,128.418,-46.387,0
1542732811.219,120.605,12.695,-20.508,135.742,0.000,0
1542732811.223,104.004,8.301,-20.020,130.859,-13.184,0
1542732811.227,103.516,4.395,-24.414,127.441,6.348,0
1542732811.231,104.980,11.230,-23.926,129.395,-3.418,0
1542732811.235,101.562,12.695,-22.461,129.395,-25.879,0
1542732811.239,100.098,13.184,-17.578,127.930,46.387,0
1542732811.242,97.168,15.625,-13.184,117.676,64.941,0
1542732811.246,105.469,12.207,-12.207,114.746,46.387,0
1542732811.250,115.234,6.348,-9.766,131.836,46.387,0
1542732811.254,101.562,14.160,-11.230,118.652,85.938,0
1542732811.258,71.777,27.344,-15.137,90.820,84.473,0
1542732811.262,84.473,26.855,-18.066,94.238,56.152,0
1542732811.266,99.121,23.926,-17.090,100.098,47.852,0
1542732811.270,89.844,21.484,-15.625,103.027,37.598,0
1542732811.274,99.121,20.996,-15.625,102.539,34.668,0
1542732811.278,99.609,16.602,-10.254,101.562,18.066,0
1542732811.282,86.914,17.090,-7.812,103.027,49.805,0
1542732811.285,83.496,21.973,-4.395,97.656,44.922,0
1542732811.289,84.961,22.461,1.465,93.750,4.883,0
1542732811.293,89.355,22.949,3.418,94.238,-0.488,0
1542732811.297,85.938,20.508,4.395,91.797,-18.555,0
1542732811.301,83.984,17.090,8.789,91.309,-60.059,0
1542732811.305,92.773,19.531,9.766,88.867,-34.668,0
1542732811.309,87.402,21.973,7.812,89.355,12.695,0
1542732811.313,69.336,24.414,10.254,88.867,48.340,0
1542732811.317,68.359,23.926,9.277,85.449,21.973,0
1542732811.321,80.078,23.926,11.719,84.473,-32.227,0
1542732811.324,78.613,24.414,13.184,79.102,-30.273,0
1542732811.328,66.895,20.508,10.742,77.637,26.367,0
1542732811.332,77.148,24.902,9.277,82.520,35.156,0
1542732811.336,87.891,29.785,8.301,82.520,-4.395,0
1542732811.340,73.242,32.227,9.277,73.242,-26.367,0
1542732811.344,71.289,31.738,9.766,65.430,22.949,0
1542732811.348,89.844,30.273,8.301,62.500,68.359,0
1542732811.352,83.984,30.273,10.254,62.988,61.523,0
1542732811.356,80.078,26.367,11.719,59.082,60.547,0
1542732811.360,83.984,24.414,14.160,58.105,4.395,0
1542732811.364,74.219,28.320,19.043,62.500,13.184,0
1542732811.367,68.848,33.203,20.508,58.594,41.992,0
1542732811.371,65.430,34.668,17.578,53.223,14.160,0
1542732811.375,66.406,32.715,16.602,43.945,61.035,0
1542732811.379,64.453,33.203,15.625,37.109,85.449,0
1542732811.383,49.316,30.273,11.230,41.016,62.012,0
1542732811.387,39.062,28.320,11.230,39.551,31.738,0
1542732811.391,41.504,32.715,15.137,34.180,28.809,0
1542732811.395,48.340,37.598,19.043,37.109,81.543,0
1542732811.399,60.059,37.598,20.996,49.316,53.711,0
1542732811.403,58.594,35.156,20.508,52.734,17.578,0
1542732811.407,38.574,32.715,19.531,40.527,44.434,0
1542732811.410,36.621,32.715,19.531,27.832,23.438,0
1542732811.414,38.574,34.668,19.043,29.297,48.340,0
1542732811.418,39.062,31.250,21.484,32.227,54.688,0
1542732811.422,52.246,30.273,21.973,30.273,-29.785,0
1542732811.426,43.457,32.715,21.973,37.598,-7.812,0
1542732811.430,41.504,31.738,26.855,33.691,45.410,0
1542732811.434,51.758,28.809,26.855,28.320,45.410,0
1542732811.438,40.527,29.297,24.902,32.227,37.598,0
1542732811.442,32.715,24.902,24.902,30.762,51.270,0
1542732811.446,39.551,23.438,22.461,36.133,104.004,0
1542732811.449,40.039,28.809,21.484,36.133,89.355,0
1542732811.453,32.715,32.227,21.973,31.738,4.395,0
1542732811.457,41.016,34.180,18.555,27.344,30.762,0
1542732811.461,41.992,34.180,19.531,30.762,41.992,0
1542732811.465,30.273,30.762,26.855,38.086,-0.977,0
1542732811.469,44.434,28.320,28.809,34.180,-6.348,0
1542732811.473,50.781,28.320,24.902,27.344,10.742,0
1542732811.477,30.273,27.344,24.902,29.297,28.809,0
1542732811.481,30.273,26.855,27.832,33.691,43.457,0
1542732811.485,28.809,28.320,26.367,24.414,1.953,0
1542732811.489,27.832,30.762,27.344,28.809,0.000,0
1542732811.492,37.109,29.297,28.320,38.574,53.223,0
1542732811.496,38.574,26.855,29.785,39.062,32.715,0
1542732811.500,40.527,23.926,31.738,31.738,36.621,0
1542732811.504,33.691,22.949,28.320,28.809,105.469,0
1542732811.508,22.949,25.391,23.438,30.762,82.031,0
1542732811.512,28.320,27.832,26.367,26.855,-15.137,0
1542732811.516,38.086,31.250,29.785,30.273,18.555,0
1542732811.520,39.551,30.273,27.344,31.250,41.016,0
1542732811.524,47.363,32.227,26.855,35.156,-16.602,0
1542732811.528,45.898,37.598,30.273,34.180,-45.410,0
1542732811.532,39.551,35.645,31.250,31.250,-49.316,0
1542732811.535,36.133,33.691,30.273,32.715,-15.137,0
1542732811.539,38.574,38.574,28.320,33.203,3.418,0
1542732811.543,41.504,37.109,28.320,35.156,6.836,0
1542732811.547,37.109,33.203,27.832,27.344,46.875,0
1542732811.551,29.785,35.156,27.344,27.344,41.504,0
1542732811.555,28.809,33.203,31.250,36.621,12.207,0
1542732811.559,37.109,28.320,32.715,35.156,45.898,0
1542732811.563,30.762,28.320,31.250,28.809,73.730,0
1542732811.567,27.344,29.785,31.738,32.227,19.531,0
1542732811.571,26.855,30.762,33.691,30.273,2.441,0
1542732811.574,30.762,31.250,34.180,24.414,43.945,0
1542732811.578,39.062,30.273,34.180,31.250,69.336,0
1542732811.582,21.484,34.180,34.180,32.227,17.090,0
1542732811.586,15.625,35.645,34.180,27.832,-5.859,0
1542732811.590,20.020,31.250,33.203,36.133,19.531,0
1542732811.594,15.625,30.273,35.156,39.551,1.465,0
1542732811.598,19.531,28.320,39.551,30.273,24.414,0
1542732811.602,27.344,27.344,33.691,32.715,36.621,0
1542732811.606,34.668,29.785,29.785,36.621,7.812,0
1542732811.610,33.691,30.273,30.273,28.809,-11.230,0
1542732811.614,23.926,30.762,31.738,32.715,58.594,0
1542732811.617,27.832,33.203,32.715,32.227,100.098,0
1542732811.621,30.762,32.227,32.227,25.391,45.898,0
1542732811.625,31.738,34.180,33.203,36.133,4.395,0
1542732811.629,31.250,35.156,31.738,37.109,55.176,0
1542732811.633,29.785,31.738,30.762,28.809,47.852,0
1542732811.637,25.879,33.691,30.762,28.809,-23.438,0
1542732811.641,26.367,39.062,28.809,25.879,31.738,0
1542732811.645,22.949,38.574,27.832,24.414,37.598,0
1542732811.649,20.508,36.133,28.320,28.809,-32.715,0
1542732811.653,18.555,31.250,28.320,30.762,-18.555,0
1542732811.657,24.902,29.785,27.344,29.297,37.598,0
1542732811.660,29.785,28.809,30.273,32.227,32.715,0
1542732811.664,20.508,24.414,34.180,31.738,27.832,0
1542732811.668,20.996,27.832,35.645,28.809,20.020,0
1542732811.672,19.043,27.832,36.621,26.367,-24.414,0
1542732811.676,23.438,27.832,37.598,23.438,-5.859,0
1542732811.680,29.297,30.762,39.551,20.996,0.000,0
1542732811.684,30.762,33.203,39.062,20.508,28.809,0
1542732811.688,24.902,31.738,36.621,20.996,76.660,0
1542732811.692,28.320,30.273,36.621,22.461,48.340,0
1542732811.696,40.039,26.855,35.156,35.156,70.312,0
1542732811.699,53.711,19.043,31.250,53.223,78.613,0
1542732811.703,36.621,17.090,37.109,47.852,58.105,0
1542732811.707,19.043,26.855,36.133,19.043,44.434,0
1542732811.711,32.715,32.227,28.320,21.484,20.508,0
1542732811.715,39.062,24.414,25.879,46.875,35.645,0
1542732811.719,53.711,18.066,20.508,63.965,28.809,0
1542732811.723,65.918,20.996,24.414,70.801,-1.465,0
1542732811.727,61.035,22.949,31.738,68.359,18.066,0
1542732811.731,62.500,23.926,25.879,68.848,12.695,0
1542732811.735,64.453,22.949,19.043,72.266,-2.441,0
1542732811.739,57.617,27.344,19.043,62.988,12.207,0
1542732811.742,65.430,31.250,17.090,63.477,83.496,0
1542732811.746,62.500,28.320,16.602,77.637,101.074,0
1542732811.750,62.988,25.391,21.973,67.871,-6.836,0
1542732811.754,61.523,21.973,20.996,64.453,12.207,0
1542732811.758,56.641,20.996,21.484,59.570,47.363,0
1542732811.762,54.199,29.785,22.949,53.711,30.762,0
1542732811.766,54.688,33.203,19.531,53.711,40.527,0
1542732811.770,57.617,34.180,25.391,52.246,21.973,0
1542732811.774,54.688,37.598,25.879,60.059,50.781,0
1542732811.778,59.570,35.645,21.484,52.734,42.969,0
1542732811.782,54.199,37.109,20.020,49.316,60.059,0
1542732811.785,49.805,36.133,20.996,56.152,114.746,0
1542732811.789,53.223,34.180,26.855,55.176,70.312,0
1542732811.793,41.504,28.809,29.297,53.711,2.930,0
1542732811.797,45.898,25.879,27.344,45.410,21.973,0
1542732811.801,49.316,30.273,24.414,36.621,35.645,0
1542732811.805,29.785,33.203,21.973,37.109,27.344,0
1542732811.809,20.020,34.180,23.438,39.062,32.227,0
1542732811.813,23.926,31.738,25.879,34.180,26.855,0
1542732811.817,43.457,30.273,30.762,35.645,32.715,0
1542732811.821,44.434,29.785,31.738,40.527,18.066,0
1542732811.824,35.645,31.250,27.832,38.086,34.668,0
1542732811.828,38.574,30.273,30.762,42.969,29.785,0
1542732811.832,43.457,30.762,31.738,42.480,18.066,0
1542732811.836,46.387,32.227,32.227,36.133,6.836,0
1542732811.840,39.062,28.809,38.086,33.203,-14.160,0
1542732811.844,35.156,29.785,31.250,34.668,-0.488,0
1542732811.848,29.785,35.645,26.367,35.156,19.531,0
1542732811.852,39.062,37.598,29.785,33.691,16.602,0
1542732811.856,30.762,34.668,31.250,32.227,8.789,0
1542732811.860,27.832,33.691,31.738,25.879,5.371,0
1542732811.864,30.762,35.645,32.227,27.344,33.691,0
1542732811.867,25.879,39.062,33.203,33.691,13.184,0
1542732811.871,22.949,37.598,31.250,34.180,5.371,0
1542732811.875,22.461,35.645,27.344,32.227,57.617,0
1542732811.879,29.297,30.762,28.320,39.551,68.848,0
1542732811.883,40.039,29.297,33.691,39.062,62.012,0
1542732811.887,33.691,32.227,35.156,33.203,52.246,0
1542732811.891,25.879,31.250,33.691,41.992,-0.977,0
1542732811.895,30.762,34.180,35.645,45.410,-6.836,0
1542732811.899,27.832,34.180,34.180,38.086,16.602,0
1542732811.903,32.227,27.832,30.762,27.832,28.809,0
1542732811.907,27.832,25.879,32.715,37.109,82.031,0
1542732811.910,28.809,24.902,33.691,47.363,69.824,0
1542732811.914,24.414,23.438,32.715,40.039,21.484,0
1542732811.918,20.508,23.438,37.598,34.180,34.668,0
1542732811.922,31.250,26.855,42.480,37.598,34.180,0
1542732811.926,28.320,30.273,35.156,42.480,40.039,0
1542732811.930,22.461,31.738,30.273,54.688,42.480,0
1542732811.934,31.250,34.180,30.762,60.547,-0.488,0
1542732811.938,37.598,34.180,32.715,49.805,-25.879,0
1542732811.942,38.086,33.203,33.203,47.363,9.277,0
1542732811.946,40.527,33.203,31.250,41.016,55.664,0
1542732811.949,27.832,34.668,32.227,35.645,26.855,0
1542732811.953,25.879,36.621,35.156,39.062,32.227,0
1542732811.957,27.344,35.156,31.738,38.574,-10.742,0
1542732811.961,20.020,31.250,31.250,44.434,-0.977,0
1542732811.965,25.879,28.809,33.691,55.176,70.312,0
1542732811.969,31.250,31.738,33.691,53.223,71.289,0
1542732811.973,32.715,35.645,29.297,39.062,33.691,0
1542732811.977,37.109,39.062,25.879,30.273,26.367,0
1542732811.981,33.691,36.621,26.855,30.273,23.438,0
1542732811.985,21.484,30.762,29.297,35.645,49.805,0
1542732811.989,28.809,35.645,30.273,28.320,17.578,0
1542732811.992,56.152,40.527,29.785,23.438,23.438,0
1542732811.996,52.246,37.598,34.180,27.832,31.250,0
1542732812.000,35.156,37.598,37.598,28.320,1.465,0
1542732812.004,23.926,34.668,38.574,32.715,69.824,0
1542732812.008,14.648,27.344,39.551,31.250,54.199,0
1542732812.012,11.719,29.785,33.203,29.297,23.926,0
1542732812.016,22.461,21.484,33.691,48.340,24.902,0
1542732812.020,30.273,21.973,39.062,65.430,59.570,0
1542732812.024,24.414,42.969,33.691,43.945,57.617,0
1542732812.028,24.414,48.828,29.785,28.320,57.617,0
1542732812.032,32.227,46.875,26.855,30.762,61.523,0
1542732812.035,26.855,45.898,26.855,23.438,68.359,0
1542732812.039,17.090,45.898,27.832,14.160,18.555,0
1542732812.043,11.230,47.852,24.902,12.207,-13.184,0
1542732812.047,10.254,50.293,23.926,22.949,29.297,0
1542732812.051,13.184,51.270,20.508,18.066,39.062,0
1542732812.055,2.441,51.758,17.578,7.812,80.078,0
1542732812.059,11.230,45.898,23.438,10.742,64.453,0
1542732812.063,29.785,43.457,26.367,19.043,43.945,0
1542732812.067,28.809,45.410,22.949,18.555,82.031,0
1542732812.071,18.555,48.340,20.996,19.531,43.457,0
1542732812.074,24.902,47.852,21.484,28.809,-22.461,0
1542732812.078,29.297,42.480,18.066,28.809,28.809,0
1542732812.082,27.344,38.574,14.648,24.902,65.430,0
1542732812.086,31.250,32.715,19.531,25.879,3.418,0
1542732812.090,35.156,35.156,25.879,26.367,20.996,0
1542732812.094,30.273,37.109,28.809,27.832,45.410,0
1542732812.098,24.902,36.133,31.250,26.367,63.965,0
1542732812.102,34.180,41.504,30.762,34.668,50.781,0
1542732812.106,31.250,40.039,31.738,33.691,-7.324,0
1542732812.110,5.371,34.668,34.180,29.297,-31.250,0
1542732812.114,8.789,35.645,32.227,34.668,-20.996,0
1542732812.117,21.973,37.598,28.809,28.809,34.668,0
1542732812.121,27.832,38.086,28.809,30.273,17.090,0
1542732812.125,22.949,38.574,30.762,31.250,-18.555,0
1542732812.129,18.555,38.086,31.250,26.367,12.695,0
1542732812.133,20.996,32.715,33.691,21.973,-10.254,0
1542732812.137,34.180,27.344,34.668,26.367,57.129,0
1542732812.141,41.992,35.645,28.809,32.715,74.707,0
1542732812.145,30.273,42.480,29.785,28.809,8.789,0
1542732812.149,34.180,42.969,26.855,22.461,23.926,0
1542732812.153,37.109,39.551,25.391,21.484,7.324,0
1542732812.157,27.832,37.598,28.809,18.555,43.945,0
1542732812.160,15.137,37.109,28.320,15.625,80.078,0
1542732812.164,6.836,35.645,31.738,23.438,32.715,0
1542732812.168,18.555,36.133,30.273,26.855,16.602,0
1542732812.172,28.809,38.086,23.926,29.297,88.867,0
1542732812.176,26.855,42.480,31.738,33.203,107.910,0
1542732812.180,36.621,37.598,37.598,34.180,68.359,0
1542732812.184,29.297,35.645,37.598,22.461,-6.348,0
1542732812.188,6.348,40.527,41.504,11.719,-21.973,0
1542732812.192,11.719,38.574,41.992,13.672,14.160,0
1542732812.196,26.367,34.180,37.109,20.508,29.785,0
1542732812.199,26.367,34.180,32.227,24.414,80.078,0
1542732812.203,31.250,32.715,32.227,30.762,83.984,0
1542732812.207,24.902,33.691,31.250,22.461,44.434,0
1542732812.211,31.738,39.551,29.297,15.137,3.906,0
1542732812.215,41.504,38.086,32.227,21.973,6.836,0
1542732812.219,31.738,39.551,33.691,30.273,37.109,0
1542732812.223,34.668,42.480,34.180,35.156,14.160,0
1542732812.227,41.016,36.621,38.574,37.109,-7.324,0
1542732812.231,33.203,34.668,36.621,33.691,52.246,0
1542732812.235,29.785,41.016,33.691,29.785,5.859,0
1542732812.239,32.715,43.945,32.715,27.344,-0.977,0
1542732812.242,26.855,42.480,30.273,30.273,19.531,0
1542732812.246,13.184,41.016,27.832,29.785,11.719,0
1542732812.250,25.879,42.969,31.250,27.832,62.012,0
1542732812.254,38.574,44.922,36.621,41.992,55.176,0
1542732812.258,33.691,41.992,34.180,39.551,-15.137,0
1542732812.262,32.715,40.039,30.762,31.250,-7.324,0
1542732812.266,29.785,39.551,32.227,38.086,20.020,0
1542732812.270,36.133,39.551,37.109,45.410,-10.742,0
1542732812.274,36.621,41.992,40.527,43.457,-20.996,0
1542732812.278,36.621,41.016,39.062,31.250,18.066,0
1542732812.282,42.969,37.598,37.598,30.273,44.922,0
1542732812.285,25.879,33.691,34.180,31.250,60.547,0
1542732812.289,22.461,36.621,35.645,26.367,78.125,0
1542732812.293,33.691,38.574,39.062,24.414,25.879,0
1542732812.297,20.508,35.645,39.551,21.973,20.508,0
1542732812.301,11.230,32.715,38.574,23.926,14.160,0
1542732812.305,19.531,33.203,38.086,25.879,14.160,0
1542732812.309,26.367,32.715,40.527,25.391,43.457,0
1542732812.313,22.949,29.297,41.992,20.996,-1.465,0
1542732812.317,22.461,31.250,40.527,19.043,-6.836,0
1542732812.321,22.461,29.297,41.504,20.508,2.930,0
1542732812.324,14.648,28.809,41.016,19.531,0.488,0
1542732812.328,18.555,28.809,40.039,22.461,38.086,0
1542732812.332,28.320,27.344,37.598,29.297,8.301,0
1542732812.336,20.508,35.156,33.691,26.855,2.930,0
1542732812.340,18.555,35.156,30.273,25.391,55.664,0
1542732812.344,32.715,32.715,21.973,50.293,-1.953,0
1542732812.348,23.438,35.156,29.297,40.527,18.555,0
1542732812.352,-8.301,34.668,39.062,7.324,44.922,0
1542732812.356,11.230,30.273,28.809,18.066,27.344,0
1542732812.360,16.113,22.461,28.320,19.043,53.711,0
1542732812.364,3.418,21.484,35.156,17.578,26.367,0
1542732812.367,17.578,18.555,38.086,26.855,6.348,0
1542732812.371,14.648,14.160,43.945,24.414,30.273,0
1542732812.375,24.902,17.578,42.969,39.551,-1.953,0
1542732812.379,34.180,20.020,42.969,40.527,36.133,0
1542732812.383,20.996,16.113,43.457,27.832,64.453,0
1542732812.387,20.020,19.531,39.551,31.738,10.742,0
1542732812.391,19.531,23.926,38.574,36.621,39.551,0
1542732812.395,15.625,22.461,39.062,33.691,17.578,0
1542732812.399,20.508,22.949,40.527,33.691,26.855,0
1542732812.403,18.066,22.949,39.062,36.621,52.734,0
1542732812.407,9.277,22.461,38.086,29.785,-7.324,0
1542732812.410,-0.488,20.996,39.551,22.949,9.766,0
1542732812.414,9.277,22.461,43.457,23.438,-18.066,0
1542732812.418,23.926,26.367,48.828,27.832,-7.324,0
1542732812.422,24.902,23.438,45.898,31.738,51.270,0
1542732812.426,27.344,24.902,41.016,30.273,48.340,0
1542732812.430,25.391,28.320,41.992,24.414,1.465,0
1542732812.434,31.738,23.926,39.551,32.227,37.598,0
1542732812.438,24.414,27.344,36.621,41.016,55.176,0
1542732812.442,19.043,28.809,36.133,33.691,7.324,0
1542732812.446,32.715,28.809,38.086,26.855,46.387,0
1542732812.449,37.109,27.832,35.156,23.926,40.039,0
1542732812.453,32.227,26.367,33.691,24.414,18.555,0
1542732812.457,24.414,31.250,37.598,21.973,46.387,0
1542732812.461,29.785,35.156,38.574,26.367,53.711,0
1542732812.465,28.809,33.691,35.156,26.855,28.320,0
1542732812.469,22.461,34.180,33.203,22.949,0.977,0
1542732812.473,34.180,36.621,29.297,16.113,-21.973,0
1542732812.477,39.062,34.180,31.738,16.602,-22.949,0
1542732812.481,28.320,34.180,34.180,25.391,43.945,0
1542732812.485,27.832,35.645,29.785,30.762,110.352,0
1542732812.489,28.809,36.133,26.855,19.043,54.199,0
1542732812.492,27.344,35.645,25.879,12.207,32.227,0
1542732812.496,29.297,32.715,22.949,15.137,30.762,0
1542732812.500,31.738,37.109,20.996,13.184,-12.695,0
1542732812.504,22.461,39.551,26.855,13.672,-6.348,0
1542732812.508,26.367,35.156,27.344,13.184,13.184,0
1542732812.512,21.484,31.738,30.273,6.348,41.016,0
1542732812.516,13.672,34.668,36.133,7.324,47.852,0
1542732812.520,22.949,36.621,36.133,15.137,2.441,0
1542732812.524,19.531,33.203,37.598,19.043,-29.785,0
1542732812.528,27.832,34.668,40.039,16.602,5.371,0
1542732812.532,37.598,35.645,38.086,12.695,-10.742,0
1542732812.535,25.391,32.715,35.645,17.090,-27.832,0
1542732812.539,20.508,30.273,38.574,21.973,-8.301,0
1542732812.543,23.438,32.227,41.504,25.879,45.410,0
1542732812.547,29.297,33.691,38.574,25.391,52.734,0
1542732812.551,33.691,30.273,38.574,29.297,54.199,0
1542732812.555,20.020,32.715,41.992,35.156,44.922,0
1542732812.559,11.719,35.645,41.016,27.344,83.496,0
1542732812.563,19.043,38.574,37.598,22.949,105.469,0
1542732812.567,19.531,40.039,38.574,22.461,20.508,0
1542732812.571,18.066,35.645,40.039,11.719,15.625,0
1542732812.574,5.859,31.738,39.062,14.648,29.297,0
1542732812.578,-0.977,30.762,37.598,23.926,28.809,0
1542732812.582,8.789,28.320,38.574,22.949,-7.324,0
1542732812.586,6.836,28.320,38.086,17.578,-72.754,0
1542732812.590,2.930,29.297,36.133,13.184,-38.574,0
1542732812.594,8.789,28.809,36.621,24.414,11.719,0
1542732812.598,20.508,32.715,34.180,33.203,-19.531,0
1542732812.602,29.785,33.203,30.762,24.414,-7.812,0
1542732812.606,23.926,30.762,29.297,21.973,17.090,0
1542732812.610,15.625,31.738,30.762,20.996,-31.250,0
1542732812.614,17.578,34.180,30.273,23.926,27.832,0
1542732812.617,10.742,31.738,28.809,22.949,91.797,0
1542732812.621,17.090,30.762,29.785,29.297,30.762,0
1542732812.625,31.250,33.691,30.762,34.180,50.781,0
1542732812.629,29.785,32.227,32.715,39.551,46.387,0
1542732812.633,29.785,35.156,34.668,44.922,-3.906,0
1542732812.637,31.250,37.109,34.180,35.156,58.105,0
1542732812.641,20.020,28.809,33.203,33.203,109.863,0
1542732812.645,20.996,29.297,31.250,32.715,83.008,0
1542732812.649,27.832,35.645,30.273,19.043,21.973,0
1542732812.653,43.457,37.109,35.156,16.113,28.809,0
1542732812.657,23.926,38.086,33.203,17.090,65.430,0
1542732812.660,10.742,35.645,28.809,15.625,11.719,0
1542732812.664,18.555,33.203,31.250,19.531,-4.883,0
1542732812.668,4.395,37.598,33.203,14.160,4.395,0
1542732812.672,7.812,36.621,35.156,13.672,36.133,0
1542732812.676,10.254,35.645,35.645,15.137,42.480,0
1542732812.680,0.488,38.574,36.621,14.160,18.066,0
1542732812.684,-1.465,41.016,37.598,7.812,-24.902,0
1542732812.688,0.488,42.969,37.598,5.859,13.672,0
1542732812.692,6.836,42.480,41.016,1.465,101.562,0
1542732812.696,-1.953,38.574,38.574,-10.254,70.801,0
1542732812.699,-1.465,38.574,40.039,-7.324,29.297,0
1542732812.703,2.441,40.527,48.340,-1.465,77.148,0
1542732812.707,-16.113,44.434,48.340,2.930,97.168,0
1542732812.711,-18.555,46.387,47.852,-8.301,31.738,0
1542732812.715,-17.090,45.898,56.152,-20.020,46.387,0
1542732812.719,-14.160,51.270,58.594,-17.090,78.125,0
1542732812.723,-18.066,48.340,56.152,-19.531,40.039,0
1542732812.727,-7.812,51.758,57.129,-19.043,21.973,0
1542732812.731,-6.348,60.547,58.594,-19.531,100.098,0
1542732812.735,-18.066,55.176,56.152,-27.344,82.520,0
1542732812.739,-22.949,49.805,49.805,-28.320,24.414,0
1542732812.742,-22.461,48.828,48.340,-29.785,11.230,0
1542732812.746,-23.926,58.105,61.035,-26.367,0.977,0
1542732812.750,-19.043,68.848,72.266,-19.043,-1.953,0
1542732812.754,-24.902,68.848,69.824,-25.391,7.812,0
1542732812.758,-46.387,60.547,70.312,-43.457,13.672,0
1542732812.762,-35.156,62.988,73.730,-30.273,12.207,0
1542732812.766,-44.922,78.125,76.172,-41.992,21.484,0
1542732812.770,-90.332,89.355,84.961,-85.938,41.992,0
1542732812.774,-84.961,83.496,94.238,-87.891,45.898,0
1542732812.778,-92.285,89.355,101.074,-95.703,55.664,0
1542732812.782,-144.043,105.469,105.957,-132.812,60.547,0
1542732812.785,-152.832,102.051,114.258,-150.879,29.785,0
1542732812.789,-148.926,101.562,125.977,-169.922,44.922,0
1542732812.793,-168.457,115.723,125.000,-189.453,19.531,0
1542732812.797,-189.453,121.094,128.418,-193.848,28.809,0
1542732812.801,-200.195,110.352,137.207,-201.660,-1.953,0
1542732812.805,-192.383,106.445,124.023,-199.219,-43.945,0
1542732812.809,-180.664,113.770,113.281,-191.406,-15.137,0
1542732812.813,-168.457,123.047,106.445,-180.664,36.133,0
1542732812.817,-169.922,112.305,90.820,-175.293,77.637,0
1542732812.821,-148.438,96.680,84.961,-162.109,72.266,0
1542732812.824,-124.512,94.238,80.566,-142.090,50.781,0
1542732812.828,-116.699,94.727,63.965,-121.582,39.551,0
1542732812.832,-99.609,89.844,45.898,-110.352,1.953,0
1542732812.836,-83.008,81.543,39.551,-99.609,9.277,0
1542732812.840,-71.289,76.172,28.809,-80.566,73.730,0
1542732812.844,-56.641,70.312,15.137,-65.430,35.156,0
1542732812.848,-23.438,60.547,7.812,-49.805,13.672,0
1542732812.852,-1.465,50.781,2.930,-23.438,22.949,0
1542732812.856,1.953,41.992,-4.395,-4.395,2.930,0
1542732812.860,7.324,33.691,-10.742,0.488,-12.695,0
1542732812.864,26.367,28.320,-13.184,18.066,10.742,0
1542732812.867,41.992,20.996,-16.602,27.832,41.992,0
1542732812.871,62.988,20.020,-20.996,35.645,15.625,0
1542732812.875,76.172,18.555,-22.461,55.664,-3.418,0
1542732812.879,86.426,10.742,-22.461,67.383,30.273,0
1542732812.883,90.332,8.301,-25.879,71.289,42.480,0
1542732812.887,81.543,5.859,-23.926,88.867,-27.832,0
1542732812.891,87.891,-1.953,-20.020,92.285,-25.879,0
1542732812.895,91.309,-2.441,-18.066,92.285,41.992,0
1542732812.899,96.191,-2.930,-17.578,103.027,18.555,0
1542732812.903,105.469,-3.418,-19.531,100.098,16.113,0
1542732812.907,112.305,0.488,-18.066,100.586,64.453,0
1542732812.910,118.652,2.441,-19.043,104.980,63.965,0
1542732812.914,110.840,2.930,-19.531,105.469,27.832,0
1542732812.918,107.422,-1.465,-14.648,105.469,-2.930,0
1542732812.922,110.352,-2.441,-11.230,107.910,-4.883,0
1542732812.926,96.680,0.488,-9.277,105.469,16.602,0
1542732812.930,98.145,1.953,-8.789,105.957,53.223,0
1542732812.934,104.004,3.418,-6.836,102.539,12.207,0
1542732812.938,97.168,2.441,-3.906,100.098,19.043,0
1542732812.942,93.750,3.906,-3.906,97.656,51.758,0
1542732812.946,88.379,7.324,-6.348,94.727,30.273,0
1542732812.949,84.473,8.789,-5.371,93.262,22.461,0
1542732812.953,92.285,9.766,-0.977,89.355,27.344,0
1542732812.957,89.355,11.230,0.488,80.078,16.113,0
1542732812.961,86.914,10.254,-0.977,79.590,60.059,0
1542732812.965,88.379,10.742,2.930,82.031,38.086,0
1542732812.969,70.801,11.230,5.859,75.195,4.395,0
1542732812.973,61.523,8.789,5.371,74.707,1.465,0
1542732812.977,63.965,12.207,7.812,72.266,-5.859,0
1542732812.981,68.848,14.160,8.789,64.453,43.945,0
1542732812.985,65.918,15.137,6.348,62.500,30.762,0
1542732812.989,62.012,14.648,6.348,66.406,10.254,0
1542732812.992,64.453,16.113,9.277,68.359,55.664,0
1542732812.996,58.105,18.066,11.230,70.801,34.668,0
1542732813.000,55.664,16.113,13.672,63.477,21.484,0
1542732813.004,58.105,19.043,15.137,63.965,-19.043,0
1542732813.008,60.059,17.090,14.160,63.477,-2.930,0
1542732813.012,51.270,18.555,16.113,54.199,26.367,0
1542732813.016,47.852,24.902,21.484,57.129,13.184,0
1542732813.020,65.430,23.926,23.438,61.523,4.395,0
1542732813.024,60.547,25.879,23.438,57.617,27.832,0
1542732813.028,43.457,30.273,23.438,54.199,58.594,0
1542732813.032,39.551,34.180,27.344,44.922,66.406,0
1542732813.035,47.852,36.621,33.203,40.527,78.613,0
1542732813.039,50.293,37.109,34.180,39.551,23.438,0
1542732813.043,36.133,38.086,35.156,33.691,35.645,0
1542732813.047,20.996,30.762,31.738,35.156,49.805,0
1542732813.051,24.414,27.832,27.832,40.527,21.484,0
1542732813.055,40.039,31.250,27.344,40.527,11.230,0
1542732813.059,54.688,22.949,28.320,43.457,24.902,0
1542732813.063,47.852,20.996,24.414,51.270,24.414,0
1542732813.067,24.902,39.062,13.672,29.297,-3.418,0
1542732813.071,11.230,47.852,10.254,4.883,58.105,0
1542732813.074,11.719,43.945,9.766,11.230,64.453,0
1542732813.078,30.762,46.387,2.441,23.438,35.156,0
1542732813.082,42.969,45.898,-5.371,28.320,-4.883,0
1542732813.086,39.551,40.527,-14.648,18.555,-0.977,0
1542732813.090,41.992,37.109,-15.137,24.414,30.273,0
1542732813.094,41.016,39.551,-15.137,37.109,20.020,0
1542732813.098,42.480,35.645,-15.137,43.945,56.152,0
1542732813.102,49.316,27.832,-7.324,40.527,32.715,0
1542732813.106,47.852,30.762,-9.766,34.180,-7.324,0
1542732813.110,49.805,28.320,-6.836,38.086,54.199,0
1542732813.114,55.176,24.414,-4.395,42.480,33.691,0
1542732813.117,52.246,27.832,-5.371,42.969,51.758,0
1542732813.121,58.594,32.715,-0.977,43.945,78.125,0
1542732813.125,67.383,29.297,2.930,56.641,58.105,0
1542732813.129,48.828,25.391,3.418,51.270,42.969,0
1542732813.133,40.039,23.438,4.395,36.621,51.758,0
1542732813.137,51.758,17.578,6.836,41.504,44.434,0
1542732813.141,54.688,20.020,6.348,44.922,20.996,0
1542732813.145,53.223,28.809,5.859,40.527,12.695,0
1542732813.149,46.875,27.832,11.719,37.109,41.016,0
1542732813.153,51.270,24.902,15.137,37.598,50.293,0
1542732813.157,43.945,25.391,11.719,33.203,-11.230,0
1542732813.160,57.617,29.297,13.184,32.227,22.461,0
1542732813.164,57.129,27.344,16.602,35.156,50.781,0
1542732813.168,23.926,23.926,18.066,36.133,31.250,0
1542732813.172,29.297,24.902,20.020,36.621,57.129,0
1542732813.176,34.668,27.344,20.020,26.855,83.984,0
1542732813.180,39.062,21.973,19.043,20.020,17.578,0
1542732813.184,39.062,17.090,16.602,19.043,-24.902,0
1542732813.188,38.086,25.391,12.207,18.555,12.695,0
1542732813.192,40.527,33.203,15.137,22.461,39.551,0
1542732813.196,34.668,35.645,20.020,25.391,39.551,0
1542732813.199,31.250,35.156,20.508,39.551,64.453,0
1542732813.203,30.762,33.203,20.020,27.832,44.434,0
1542732813.207,31.250,33.691,20.020,12.207,33.691,0
1542732813.211,40.527,34.668,17.578,20.996,25.391,0
1542732813.215,46.875,31.738,15.625,29.297,6.836,0
1542732813.219,32.715,30.273,17.578,32.715,41.016,0
1542732813.223,20.996,31.738,17.090,33.203,33.203,0
1542732813.227,27.832,31.738,20.508,35.156,40.039,0
1542732813.231,41.992,31.738,21.484,27.832,9.277,0
1542732813.235,47.363,33.203,22.461,22.461,-15.625,0
1542732813.239,30.273,32.227,29.297,20.508,47.363,0
1542732813.242,18.555,26.367,25.391,28.320,28.809,0
1542732813.246,18.066,23.926,21.484,29.297,34.180,0
1542732813.250,24.414,25.879,21.484,19.043,86.426,0
1542732813.254,33.203,25.879,22.461,20.996,36.621,0
1542732813.258,26.855,26.855,21.973,22.461,28.809,0
1542732813.262,32.227,30.762,21.973,17.090,26.367,0
1542732813.266,36.621,29.785,20.020,15.625,46.875,0
1542732813.270,24.902,26.855,21.484,16.113,26.855,0
1542732813.274,26.367,28.809,26.855,20.508,66.895,0
1542732813.278,34.180,29.785,24.902,24.414,53.711,0
1542732813.282,23.438,27.832,24.414,21.484,-22.461,0
1542732813.285,6.836,27.344,24.414,16.113,41.992,0
1542732813.289,21.484,32.715,21.973,18.066,14.160,0
1542732813.293,36.621,35.645,22.461,20.020,3.418,0
1542732813.297,22.949,34.668,25.879,20.508,32.715,0
1542732813.301,12.695,35.645,28.320,20.996,35.156,0
1542732813.305,12.207,34.668,27.832,12.207,34.180,0
1542732813.309,13.184,30.273,29.785,4.395,81.055,0
1542732813.313,18.066,30.273,29.785,13.672,85.449,0
1542732813.317,7.324,33.203,27.344,11.230,59.082,0
1542732813.321,5.371,30.273,26.855,3.906,42.969,0
1542732813.324,16.602,29.297,25.391,5.371,-16.602,0
1542732813.328,22.949,28.809,23.926,7.812,14.648,0
1542732813.332,24.414,27.344,28.320,11.719,39.062,0
1542732813.336,24.414,30.273,29.785,19.531,17.578,0
1542732813.340,20.508,34.180,28.809,27.344,-10.254,0
1542732813.344,18.066,29.297,32.227,26.855,17.578,0
1542732813.348,23.926,27.832,33.203,25.879,41.504,0
1542732813.352,32.227,31.250,32.227,31.250,4.395,0
1542732813.356,25.391,31.738,30.273,28.809,-5.371,0
1542732813.360,21.484,30.762,24.414,19.531,-9.766,0
1542732813.364,36.133,30.273,23.438,30.273,-7.324,0
1542732813.367,33.691,29.785,24.902,35.645,34.180,0
1542732813.371,22.461,28.320,23.438,33.691,26.855,0
1542732813.375,24.414,30.273,25.879,41.016,8.789,0
1542732813.379,24.902,26.367,24.414,32.715,32.715,0
1542732813.383,21.484,20.508,24.902,25.391,18.555,0
1542732813.387,30.273,25.391,28.809,23.926,-20.996,0
1542732813.391,39.551,28.320,26.367,23.438,23.926,0
1542732813.395,23.438,26.367,23.926,28.320,-1.465,0
1542732813.399,12.695,28.809,22.949,22.461,-77.148,0
1542732813.403,23.438,32.227,24.902,22.949,-30.273,0
1542732813.407,25.879,27.832,30.762,30.762,18.066,0
1542732813.410,25.391,29.785,31.250,32.715,31.738,0
1542732813.414,33.691,33.203,30.762,27.832,24.902,0
1542732813.418,41.504,30.273,31.738,28.809,34.668,0
1542732813.422,43.945,28.320,33.691,36.621,34.180,0
1542732813.426,40.527,32.227,34.668,40.039,-2.930,0
1542732813.430,38.574,30.762,32.715,37.109,28.320,0
1542732813.434,41.992,23.926,30.762,37.598,27.344,0
1542732813.438,39.551,29.785,26.367,38.574,51.270,0
1542732813.442,30.273,36.621,19.531,32.227,72.266,0
1542732813.446,29.785,36.621,16.113,28.809,5.371,0
1542732813.449,33.691,37.598,17.090,34.668,-31.250,0
1542732813.453,34.180,38.574,19.043,34.668,5.859,0
1542732813.457,45.898,41.504,17.578,31.250,40.039,0
1542732813.461,41.992,37.109,20.996,33.203,-8.301,0
1542732813.465,31.738,33.691,22.949,36.621,-27.344,0
1542732813.469,35.156,38.086,21.973,30.273,13.184,0
1542732813.473,42.480,36.133,26.855,28.320,41.504,0
1542732813.477,34.668,32.227,29.297,30.273,61.523,0
1542732813.481,26.367,31.738,24.902,26.855,59.570,0
1542732813.485,38.574,29.297,28.809,24.414,72.754,0
1542732813.489,40.527,32.715,31.738,29.785,82.520,0
1542732813.492,37.598,37.598,31.738,34.668,31.738,0
1542732813.496,37.598,35.156,36.133,36.621,33.203,0
1542732813.500,32.715,34.180,36.621,40.527,37.109,0
1542732813.504,34.668,36.133,34.668,39.551,-23.438,0
1542732813.508,39.551,36.133,36.621,33.203,-4.883,0
1542732813.512,30.273,32.227,36.133,31.250,62.500,0
1542732813.516,31.250,29.785,29.785,43.945,53.711,0
1542732813.520,34.668,29.297,27.832,39.551,7.324,0
1542732813.524,33.691,27.832,33.203,28.320,-4.883,0
1542732813.528,39.062,26.855,34.668,32.715,10.254,0
1542732813.532,28.809,25.879,32.227,34.668,9.277,0
1542732813.535,23.926,28.809,31.738,25.879,18.555,0
1542732813.539,29.785,30.762,31.738,24.414,11.230,0
1542732813.543,32.227,32.227,31.250,30.762,20.508,0
1542732813.547,32.227,32.715,30.762,32.227,52.246,0
1542732813.551,37.109,33.203,28.320,32.227,71.289,0
1542732813.555,41.504,36.621,26.855,29.297,66.895,0
1542732813.559,40.527,37.109,26.855,34.668,24.414,0
1542732813.563,39.062,38.086,24.902,35.156,-21.973,0
1542732813.567,38.086,33.691,22.461,36.133,-4.883,0
1542732813.571,39.062,30.273,21.484,32.715,48.340,0
1542732813.574,36.621,37.598,24.414,24.902,30.762,0
1542732813.578,32.227,37.598,26.855,22.461,13.184,0
1542732813.582,41.504,32.715,23.926,21.484,56.641,0
1542732813.586,35.645,33.691,23.926,27.832,35.645,0
1542732813.590,17.090,28.809,27.344,31.738,-5.859,0
1542732813.594,18.066,29.297,24.414,18.066,20.020,0
1542732813.598,21.484,34.668,22.461,20.508,20.508,0
1542732813.602,30.762,34.668,25.879,27.832,60.547,0
1542732813.606,30.762,27.832,29.297,28.320,69.824,0
1542732813.610,24.414,22.949,29.297,25.879,6.836,0
1542732813.614,32.715,27.832,30.762,22.949,-4.395,0
1542732813.617,33.203,27.832,32.227,25.391,46.387,0
1542732813.621,32.715,24.902,28.809,17.578,48.340,0
1542732813.625,35.156,28.809,26.367,11.230,26.855,0
1542732813.629,34.668,30.762,29.297,12.207,43.945,0
1542732813.633,24.902,27.832,30.762,14.160,88.867,0
1542732813.637,24.902,29.297,30.273,25.879,48.828,0
1542732813.641,30.273,31.250,32.715,25.879,-1.465,0
1542732813.645,32.715,29.297,36.133,6.836,50.781,0
1542732813.649,35.156,32.715,30.762,10.742,73.730,0
1542732813.653,39.551,37.109,25.391,21.484,35.156,0
1542732813.657,44.434,37.598,20.020,19.043,38.574,0
1542732813.660,38.086,35.645,20.508,28.320,37.109,0
1542732813.664,32.227,34.180,27.344,31.738,93.262,0
1542732813.668,29.297,33.691,31.250,20.996,107.910,0
1542732813.672,20.996,28.320,33.691,30.762,73.242,0
1542732813.676,24.414,25.879,33.203,41.504,-3.418,0
1542732813.680,30.762,32.715,30.762,32.227,3.906,0
1542732813.684,30.273,35.156,28.320,20.020,55.664,0
1542732813.688,24.902,35.156,29.297,14.160,46.875,0
1542732813.692,24.414,35.645,31.738,20.020,37.109,0
1542732813.696,22.949,30.762,30.762,19.531,48.340,0
1542732813.699,26.367,29.785,33.203,15.137,89.844,0
1542732813.703,38.574,32.715,34.180,18.555,61.523,0
1542732813.707,38.086,34.180,33.691,26.855,50.293,0
1542732813.711,37.109,31.738,37.109,33.691,15.137,0
1542732813.715,50.293,35.156,40.039,27.832,-5.859,0
1542732813.719,41.016,40.039,41.504,29.297,0.488,0
1542732813.723,30.762,40.039,41.992,30.273,-8.789,0
1542732813.727,26.855,38.574,40.527,24.902,8.301,0
1542732813.731,26.855,38.574,40.039,19.531,5.859,0
1542732813.735,36.133,42.969,39.551,6.836,17.090,0
1542732813.739,39.062,43.457,38.574,8.789,6.836,0
1542732813.742,22.461,42.480,37.598,16.113,-9.277,0
1542732813.746,14.160,42.480,35.156,18.555,32.227,0
1542732813.750,20.996,41.504,33.691,11.230,3.906,0
1542732813.754,18.066,31.738,33.203,16.602,17.090,0
1542732813.758,15.625,27.832,33.203,17.090,31.738,0
1542732813.762,16.602,34.668,34.180,6.836,0.000,0
1542732813.766,24.414,41.016,32.715,9.277,-46.875,0
1542732813.770,22.461,43.457,31.738,6.348,-6.836,0
1542732813.774,11.719,39.062,31.738,-5.859,87.891,0
1542732813.778,16.602,40.527,31.250,-10.742,61.035,0
1542732813.782,15.625,43.457,33.691,-6.836,3.418,0
1542732813.785,10.742,36.133,39.062,2.441,12.207,0
1542732813.789,9.766,31.250,40.527,-8.789,18.066,0
1542732813.793,11.719,36.621,39.062,-9.766,30.273,0
1542732813.797,12.207,38.574,46.875,0.977,58.594,0
1542732813.801,10.254,38.086,47.852,8.301,75.195,0
1542732813.805,12.695,41.016,45.898,-2.930,25.879,0
1542732813.809,4.883,52.734,48.828,-3.418,14.648,0
1542732813.813,16.113,66.895,56.152,13.672,18.066,0
1542732813.817,-9.766,61.035,44.922,-21.973,-35.645,0
1542732813.821,-35.645,63.965,32.227,-50.781,-4.395,0
1542732813.824,-47.852,80.566,46.875,-60.547,37.598,0
1542732813.828,-83.008,86.426,55.664,-89.355,24.414,0
1542732813.832,-83.496,86.426,50.293,-95.215,17.090,0
1542732813.836,-102.539,97.168,84.473,-115.723,-15.625,0
1542732813.840,-178.223,107.910,124.512,-190.430,75.195,0
1542732813.844,-225.098,112.793,134.766,-237.793,116.211,0
1542732813.848,-242.676,120.605,150.391,-257.324,31.738,0
1542732813.852,-261.719,125.488,165.039,-276.367,26.367,0
1542732813.856,-286.133,122.070,173.828,-289.551,5.371,0
1542732813.860,-292.480,125.488,183.594,-284.668,-11.719,0
1542732813.864,-290.039,126.953,190.430,-283.203,-17.578,0
1542732813.867,-290.039,127.441,190.918,-295.898,-33.203,0
1542732813.871,-269.043,129.395,184.570,-289.062,21.973,0
1542732813.875,-259.277,125.000,182.129,-277.832,69.824,0
1542732813.879,-252.930,116.699,185.547,-272.949,36.621,0
1542732813.883,-258.301,106.445,184.570,-272.949,48.340,0
1542732813.887,-253.418,96.191,181.641,-253.906,60.059,0
1542732813.891,-223.633,88.867,177.734,-215.332,21.484,0
1542732813.895,-209.961,82.520,183.594,-190.918,28.809,0
1542732813.899,-197.266,69.336,178.711,-173.340,76.172,0
1542732813.903,-168.457,58.594,163.574,-158.203,62.012,0
1542732813.907,-142.090,46.387,157.227,-137.207,23.926,0
1542732813.910,-125.977,35.156,147.949,-111.816,52.246,0
1542732813.914,-96.191,32.227,132.324,-99.121,57.129,0
1542732813.918,-63.965,25.391,124.023,-76.172,35.156,0
1542732813.922,-57.129,20.508,113.281,-49.805,47.852,0
1542732813.926,-39.551,19.043,97.168,-30.762,50.781,0
1542732813.930,-20.020,6.836,90.332,-4.883,8.301,0
1542732813.934,3.418,5.859,76.172,17.090,-15.137,0
1542732813.938,16.113,6.836,63.965,26.855,65.918,0
1542732813.942,25.391,0.000,55.664,47.363,68.848,0
1542732813.946,45.898,9.766,41.504,53.223,62.500,0
1542732813.949,61.035,20.508,26.367,47.363,45.898,0
1542732813.953,75.195,20.996,14.648,65.918,-4.395,0
1542732813.957,82.031,17.578,13.672,83.496,44.922,0
1542732813.961,98.145,10.742,15.625,91.797,72.266,0
1542732813.965,97.168,9.766,10.742,92.773,20.508,0
1542732813.969,89.355,2.441,10.254,105.957,15.137,0
1542732813.973,95.215,-2.441,13.184,121.582,24.902,0
1542732813.977,114.746,0.488,12.207,119.141,28.809,0
1542732813.981,120.605,6.348,2.930,123.535,0.488,0
1542732813.985,112.793,10.742,-0.977,123.535,-21.484,0
1542732813.989,127.441,7.812,3.906,122.070,4.883,0
1542732813.992,132.324,4.395,5.371,131.836,21.484,0
1542732813.996,123.047,6.348,0.000,129.395,-6.836,0
1542732814.000,111.816,7.324,-2.930,135.254,4.395,0
1542732814.004,121.582,9.277,-2.441,128.418,72.754,0
1542732814.008,142.090,11.230,-4.395,117.676,77.637,0
1542732814.012,136.230,6.836,-3.418,133.789,55.664,0
1542732814.016,127.441,6.836,-1.465,141.113,62.012,0
1542732814.020,139.160,8.789,-8.301,137.695,32.227,0
1542732814.024,138.184,5.859,-6.348,139.160,-9.277,0
1542732814.028,133.301,6.836,-3.906,144.531,22.461,0
1542732814.032,136.719,10.254,-9.766,140.625,19.043,0
1542732814.035,140.137,10.742,-6.836,143.555,1.953,0
1542732814.039,139.160,15.137,-8.301,143.555,72.754,0
1542732814.043,134.766,16.113,-12.207,140.625,54.199,0
1542732814.047,140.137,13.184,-7.324,145.508,-25.391,0
1542732814.051,133.789,14.160,-3.418,136.230,-12.207,0
1542732814.055,129.395,13.672,-2.930,137.207,6.348,0
1542732814.059,130.859,15.625,-8.789,141.113,60.547,0
1542732814.063,125.488,16.113,-5.371,133.301,53.223,0
1542732814.067,119.629,10.742,0.977,120.117,31.250,0
1542732814.071,121.582,11.719,-1.465,116.699,81.055,0
1542732814.074,123.047,13.184,-2.441,121.094,71.777,0
1542732814.078,129.395,15.625,-1.465,113.770,56.152,0
1542732814.082,116.211,17.578,1.465,121.582,65.918,0
1542732814.086,111.816,16.602,2.441,126.465,25.391,0
1542732814.090,116.211,17.578,0.000,114.258,18.555,0
1542732814.094,108.887,17.578,2.441,111.816,49.805,0
1542732814.098,117.676,17.090,6.836,117.676,63.477,0
1542732814.102,113.770,17.578,5.371,119.141,17.578,0
1542732814.106,117.188,14.648,2.441,112.793,-17.090,0
1542732814.110,130.371,15.625,0.488,105.469,53.223,0
1542732814.114,123.047,17.090,5.371,125.000,41.016,0
1542732814.117,99.121,16.113,6.348,121.582,0.000,0
1542732814.121,104.980,18.555,4.395,109.863,13.672,0
1542732814.125,111.328,15.625,8.301,114.746,11.230,0
1542732814.129,103.516,16.602,6.836,112.305,51.270,0
1542732814.133,102.051,20.508,6.836,115.234,51.758,0
1542732814.137,98.145,18.066,7.324,105.957,58.594,0
1542732814.141,94.727,18.555,5.371,101.562,61.035,0
1542732814.145,108.398,20.020,5.859,98.145,41.992,0
1542732814.149,101.562,19.043,9.766,91.309,56.152,0
1542732814.153,87.402,18.555,13.184,89.844,29.297,0
1542732814.157,90.820,18.555,7.324,88.867,47.852,0
1542732814.160,88.379,19.043,7.812,104.980,73.242,0
1542732814.164,94.727,18.555,10.254,107.422,40.527,0
1542732814.168,91.797,19.043,10.254,79.102,41.016,0
1542732814.172,85.449,21.973,11.230,82.031,59.082,0
1542732814.176,79.590,20.996,12.207,99.121,7.324,0
1542732814.180,78.613,17.578,14.160,92.285,-22.949,0
1542732814.184,87.891,19.043,17.578,83.008,39.551,0
1542732814.188,88.379,25.879,15.625,84.961,47.363,0
1542732814.192,90.332,27.832,9.766,84.961,-21.973,0
1542732814.196,87.402,22.949,9.766,77.637,-16.602,0
1542732814.199,71.289,22.949,14.160,77.148,19.043,0
1542732814.203,64.941,25.879,13.184,77.148,34.180,0
1542732814.207,61.523,26.367,11.230,72.754,20.508,0
1542732814.211,76.660,33.203,13.184,77.148,34.668,0
1542732814.215,79.102,35.156,11.719,71.289,55.176,0
1542732814.219,60.547,29.297,12.695,71.777,49.805,0
1542732814.223,61.523,29.785,12.695,70.312,24.902,0
1542732814.227,69.336,35.645,12.207,61.523,-22.949,0
1542732814.231,70.801,31.738,17.090,67.871,-22.461,0
1542732814.235,66.406,29.297,21.484,61.035,81.543,0
1542732814.239,56.641,30.273,21.973,62.988,96.680,0
1542732814.242,47.363,27.344,22.949,60.059,40.527,0
1542732814.246,41.016,26.367,23.926,58.594,73.730,0
1542732814.250,46.387,27.344,23.438,74.219,83.496,0
1542732814.254,47.852,30.273,22.949,70.312,18.555,0
1542732814.258,52.734,30.273,22.461,57.129,30.273,0
1542732814.262,52.246,27.344,20.996,57.617,49.805,0
1542732814.266,50.293,27.832,19.531,53.711,20.508,0
1542732814.270,58.105,29.785,20.996,41.016,-41.504,0
1542732814.274,52.734,28.809,21.484,46.875,-92.773,0
1542732814.278,41.016,25.879,22.949,61.035,11.230,0
1542732814.282,40.039,27.832,24.414,56.641,81.055,0
1542732814.285,43.457,33.691,26.855,49.316,87.891,0
1542732814.289,44.434,35.645,30.273,50.293,34.668,0
1542732814.293,40.527,34.668,33.203,49.805,-24.902,0
1542732814.297,35.156,32.715,32.715,49.316,36.621,0
1542732814.301,39.551,32.715,30.762,55.664,51.758,0
1542732814.305,48.828,36.133,31.250,56.641,0.488,0
1542732814.309,56.152,38.086,32.227,50.781,11.230,0
1542732814.313,50.293,42.480,31.738,52.734,-7.324,0
1542732814.317,33.203,43.945,31.738,52.734,-6.348,0
1542732814.321,32.715,43.457,33.203,52.246,37.598,0
1542732814.324,36.621,41.016,33.691,51.270,12.695,0
1542732814.328,28.809,38.086,34.668,38.574,34.180,0
1542732814.332,18.066,38.086,34.668,27.344,77.637,0
1542732814.336,22.461,39.551,34.668,37.598,20.020,0
1542732814.340,29.297,43.457,35.645,43.457,-35.645,0
1542732814.344,23.438,42.480,38.086,40.039,16.113,0
1542732814.348,20.508,43.945,33.691,28.320,20.508,0
1542732814.352,32.227,46.387,30.762,28.809,-17.090,0
1542732814.356,26.855,43.945,37.109,25.879,20.020,0
1542732814.360,22.461,42.969,36.621,20.020,57.617,0
1542732814.364,24.902,39.062,36.133,27.832,85.449,0
1542732814.367,17.090,37.109,37.109,23.926,37.598,0
1542732814.371,19.531,42.969,35.645,20.020,-9.277,0
1542732814.375,31.250,46.387,38.086,21.973,21.484,0
1542732814.379,34.180,43.945,35.156,17.578,-8.301,0
1542732814.383,14.648,45.410,38.574,15.625,-34.668,0
1542732814.387,9.277,51.270,44.922,18.555,-11.230,0
1542732814.391,16.602,53.223,42.480,22.949,2.930,0
1542732814.395,12.695,54.199,47.363,24.414,43.945,0
1542732814.399,20.508,64.453,49.316,18.555,17.090,0
1542732814.403,1.953,67.383,46.875,8.789,-20.508,0
1542732814.407,-32.715,66.895,52.246,-18.066,29.785,0
1542732814.410,-52.246,63.477,60.547,-48.828,-2.930,0
1542732814.414,-51.758,63.965,80.566,-53.711,-20.996,0
1542732814.418,-72.266,76.172,84.961,-63.965,-0.488,0
1542732814.422,-98.145,81.543,91.309,-102.051,-54.688,0
1542732814.426,-107.422,95.215,121.582,-125.488,-15.625,0
1542732814.430,-135.254,101.074,128.906,-143.066,33.203,0
1542732814.434,-165.039,102.539,131.836,-162.598,19.531,0
1542732814.438,-199.707,104.980,164.062,-189.453,69.336,0
1542732814.442,-246.582,109.863,186.035,-238.281,62.012,0
1542732814.446,-265.625,121.582,187.988,-255.371,19.531,0
1542732814.449,-254.395,132.812,184.082,-250.488,47.852,0
1542732814.453,-266.113,137.695,187.988,-268.066,47.852,0
1542732814.457,-276.367,134.277,197.754,-283.203,41.504,0
1542732814.461,-250.488,127.441,197.266,-260.742,26.855,0
1542732814.465,-253.906,120.605,191.895,-245.605,60.547,0
1542732814.469,-269.531,131.348,177.734,-252.930,33.203,0
1542732814.473,-245.117,138.184,166.504,-243.652,-8.301,0
1542732814.477,-221.191,137.207,163.574,-238.770,45.898,0
1542732814.481,-224.609,130.371,157.227,-220.703,28.809,0
1542732814.485,-215.820,126.465,154.785,-205.078,15.625,0
1542732814.489,-192.871,128.418,145.020,-195.801,9.277,0
1542732814.492,-155.273,128.906,121.094,-172.852,26.855,0
1542732814.496,-137.695,127.930,108.887,-155.273,50.781,0
1542732814.500,-151.855,123.535,112.793,-146.973,18.066,0
1542732814.504,-141.113,112.793,109.863,-131.348,9.766,0
1542732814.508,-111.328,99.121,102.051,-110.352,53.223,0
1542732814.512,-99.121,96.680,92.285,-95.215,58.105,0
1542732814.516,-91.309,89.844,79.102,-80.078,20.020,0
1542732814.520,-57.617,76.172,65.430,-56.641,-3.418,0
1542732814.524,-37.598,72.266,51.758,-35.645,14.648,0
1542732814.528,-34.668,67.383,41.016,-32.227,28.809,0
1542732814.532,-5.371,59.570,29.785,-14.160,-19.043,0
1542732814.535,28.320,58.594,17.090,15.625,-22.949,0
1542732814.539,37.598,55.176,8.301,21.484,51.758,0
1542732814.543,34.180,47.852,5.859,26.855,82.520,0
1542732814.547,34.668,41.504,7.324,48.828,68.848,0
1542732814.551,43.457,38.086,-0.977,50.781,24.902,0
1542732814.555,67.871,34.668,-10.254,50.781,22.949,0
1542732814.559,79.590,31.250,-7.324,66.895,25.879,0
1542732814.563,81.543,27.344,-7.324,81.543,1.953,0
1542732814.567,91.797,24.902,-13.672,81.543,34.668,0
1542732814.571,86.426,22.949,-15.137,76.660,52.246,0
1542732814.574,99.609,22.461,-17.090,76.172,49.316,0
1542732814.578,110.352,24.414,-13.672,96.191,38.086,0
1542732814.582,103.516,24.902,-8.301,106.445,37.598,0
1542732814.586,110.840,22.949,-6.348,104.004,78.125,0
1542732814.590,101.074,20.508,-12.207,90.820,80.078,0
1542732814.594,87.891,14.160,-16.602,88.867,31.250,0
1542732814.598,94.238,12.695,-16.602,97.656,26.367,0
1542732814.602,103.027,15.625,-20.508,97.656,11.719,0
1542732814.606,97.656,16.602,-19.531,112.793,0.488,0
1542732814.610,104.004,17.090,-15.137,116.211,70.312,0
1542732814.614,99.121,17.578,-15.137,109.375,53.711,0
1542732814.617,86.914,17.090,-17.578,104.492,43.457,0
1542732814.621,102.051,9.766,-16.113,98.633,45.410,0
1542732814.625,102.051,7.812,-17.578,95.703,39.062,0
1542732814.629,102.051,10.742,-20.996,94.727,36.133,0
1542732814.633,97.656,7.324,-19.043,83.496,-15.625,0
1542732814.637,96.680,5.371,-15.625,101.074,-10.254,0
1542732814.641,106.934,13.184,-13.672,102.539,-3.418,0
1542732814.645,106.934,17.090,-17.578,91.309,24.414,0
1542732814.649,113.770,12.207,-22.949,105.957,31.738,0
1542732814.653,116.699,13.184,-21.973,113.281,-12.207,0
1542732814.657,112.305,12.207,-17.578,120.117,11.230,0
1542732814.660,119.629,8.789,-15.625,120.605,39.062,0
1542732814.664,127.930,9.277,-11.230,118.164,40.527,0
1542732814.668,127.930,10.254,-4.883,112.793,65.918,0
1542732814.672,127.930,10.742,-1.953,118.652,62.012,0
1542732814.676,112.793,12.695,-2.441,113.281,18.066,0
1542732814.680,96.191,9.766,-4.395,104.004,-5.859,0
1542732814.684,102.539,7.812,-11.230,114.258,19.531,0
1542732814.688,100.586,6.348,-10.254,107.910,-4.883,0
1542732814.692,97.656,6.348,-4.395,99.609,-22.461,0
1542732814.696,109.375,10.254,-3.418,110.840,53.223,0
1542732814.699,108.887,10.742,-1.953,107.910,35.156,0
1542732814.703,101.074,6.836,-1.953,102.051,-12.207,0
1542732814.707,97.656,9.766,-1.953,100.098,-3.418,0
1542732814.711,106.445,12.207,1.465,97.168,8.301,0
1542732814.715,104.980,8.789,-1.953,110.352,8.301,0
1542732814.719,98.633,8.789,-5.859,114.746,17.090,0
1542732814.723,94.727,9.766,-3.418,103.027,58.105,0
1542732814.727,96.680,10.742,0.000,99.121,80.566,0
1542732814.731,92.773,9.766,1.465,99.609,35.645,0
1542732814.735,88.379,8.789,3.906,88.867,42.969,0
1542732814.739,83.496,15.137,4.395,81.055,42.480,0
1542732814.742,71.777,21.484,5.371,75.195,38.086,0
1542732814.746,63.965,18.066,10.742,78.125,10.742,0
1542732814.750,59.570,17.090,17.090,73.242,45.410,0
1542732814.754,66.406,23.438,24.414,65.430,109.375,0
1542732814.758,57.617,26.855,31.738,70.801,61.035,0
1542732814.762,39.062,33.691,42.480,73.730,12.207,0
1542732814.766,44.434,37.598,41.016,49.805,24.414,0
1542732814.770,35.156,39.062,33.691,19.043,2.930,0
1542732814.774,15.137,50.781,33.691,13.184,-1.953,0
1542732814.778,6.348,59.082,37.598,13.672,-10.742,0
1542732814.782,0.977,71.777,41.016,4.883,12.695,0
1542732814.785,0.000,86.426,42.480,-10.742,75.684,0
1542732814.789,-23.926,83.496,47.363,-11.719,19.043,0
1542732814.793,-40.039,84.961,40.527,-27.832,15.137,0
1542732814.797,-40.527,98.633,33.691,-44.434,18.555,0
1542732814.801,-91.309,104.004,54.688,-80.566,22.461,0
1542732814.805,-131.348,108.398,70.312,-123.047,21.484,0
1542732814.809,-143.555,122.070,70.801,-134.277,-22.461,0
1542732814.813,-157.227,122.070,83.008,-155.762,16.113,0
1542732814.817,-178.223,118.164,100.586,-184.082,53.711,0
1542732814.821,-217.773,114.258,116.699,-198.730,28.320,0
1542732814.824,-208.984,107.910,123.535,-205.566,15.137,0
1542732814.828,-195.312,108.887,131.836,-209.473,-17.090,0
1542732814.832,-218.262,106.445,149.902,-216.309,29.297,0
1542732814.836,-219.727,97.656,151.855,-215.820,93.262,0
1542732814.840,-192.871,89.355,145.996,-199.707,34.180,0
1542732814.844,-196.777,88.867,153.809,-205.078,9.277,0
1542732814.848,-221.191,88.379,162.109,-220.703,47.363,0
1542732814.852,-216.309,80.078,160.645,-205.566,76.172,0
1542732814.856,-198.242,68.848,159.668,-187.988,46.387,0
1542732814.860,-192.871,56.641,153.809,-194.824,36.133,0
1542732814.864,-192.871,55.664,155.273,-191.895,48.828,0
1542732814.867,-181.152,60.547,166.504,-164.062,48.828,0
1542732814.871,-174.805,48.340,174.316,-150.879,19.531,0
1542732814.875,-168.457,38.574,169.434,-153.320,8.789,0
1542732814.879,-148.438,37.598,164.551,-136.230,25.391,0
1542732814.883,-141.602,39.062,162.109,-126.953,61.035,0
1542732814.887,-143.555,31.738,158.203,-132.324,39.062,0
1542732814.891,-135.742,22.461,155.762,-120.117,-2.930,0
1542732814.895,-118.652,23.438,150.391,-104.004,47.363,0
1542732814.899,-95.215,23.926,139.648,-91.309,55.664,0
1542732814.903,-95.215,32.715,134.277,-102.539,37.598,0
1542732814.907,-99.121,34.668,133.301,-103.516,54.688,0
1542732814.910,-94.238,29.785,123.047,-76.172,16.602,0
1542732814.914,-91.309,25.879,119.141,-80.078,18.555,0
1542732814.918,-77.148,17.578,119.629,-79.590,64.453,0
1542732814.922,-65.918,16.113,114.258,-67.871,48.828,0
1542732814.926,-57.617,19.043,108.398,-54.688,54.688,0
1542732814.930,-60.547,14.160,102.539,-40.527,54.688,0
1542732814.934,-58.105,11.230,101.074,-48.828,42.480,0
1542732814.938,-46.875,9.766,97.656,-38.574,47.852,0
1542732814.942,-46.875,4.395,92.285,-18.555,52.734,0
1542732814.946,-43.457,11.230,86.426,-21.484,26.367,0
1542732814.949,-40.527,15.137,80.078,-24.902,5.859,0
1542732814.953,-34.668,9.277,76.660,-31.738,51.758,0
1542732814.957,-26.367,5.859,70.312,-26.855,43.945,0
1542732814.961,-20.996,4.883,69.336,-20.508,8.789,0
1542732814.965,-24.902,3.906,70.801,-19.531,33.691,0
1542732814.969,-21.484,2.930,69.336,-4.395,68.359,0
1542732814.973,-21.484,-2.930,64.941,8.301,36.133,0
1542732814.977,-2.930,0.000,63.965,15.625,29.297,0
1542732814.981,5.859,13.672,57.129,15.625,27.344,0
1542732814.985,-1.465,14.160,48.340,8.301,-20.020,0
1542732814.989,-1.953,14.648,49.805,-1.465,-15.137,0
1542732814.992,-14.648,28.809,42.969,-23.926,24.414,0
1542732814.996,-17.090,32.715,30.273,-36.621,17.090,0
1542732815.000,-6.348,39.551,18.555,-20.020,8.789,0
1542732815.004,0.977,50.293,13.184,-13.184,18.066,0
1542732815.008,-8.301,36.621,26.367,-9.766,48.340,0
1542732815.012,2.930,30.762,31.738,-1.953,71.777,0
1542732815.016,18.066,41.992,21.973,6.836,80.078,0
1542732815.020,14.160,46.875,13.672,9.277,16.602,0
1542732815.024,-4.883,41.016,20.020,-4.395,27.832,0
1542732815.028,-0.488,35.645,24.902,2.930,34.180,0
1542732815.032,23.438,29.297,24.902,22.461,-11.230,0
1542732815.035,6.348,25.879,25.879,19.531,-20.020,0
1542732815.039,0.977,34.180,17.578,12.207,17.090,0
1542732815.043,20.020,44.922,5.371,23.438,10.742,0
1542732815.047,37.598,43.457,-1.953,19.531,-15.137,0
1542732815.051,47.852,38.086,-12.695,24.414,-2.930,0
1542732815.055,48.828,37.109,-25.879,43.945,12.695,0
1542732815.059,59.082,31.250,-21.484,44.434,58.105,0
1542732815.063,64.453,31.250,-19.043,43.945,42.480,0
1542732815.067,68.848,38.086,-22.949,48.340,17.578,0
1542732815.071,76.660,38.574,-24.414,65.918,5.371,0
1542732815.074,70.312,37.598,-30.762,74.219,29.785,0
1542732815.078,79.590,32.227,-32.715,79.590,54.199,0
1542732815.082,83.984,31.250,-32.715,72.754,-0.977,0
1542732815.086,98.145,41.992,-41.504,62.988,6.836,0
1542732815.090,106.934,41.504,-41.504,75.195,22.949,0
1542732815.094,71.777,34.180,-37.598,59.082,24.414,0
1542732815.098,61.523,34.668,-36.621,57.129,13.184,0
1542732815.102,63.965,41.016,-35.156,58.594,-7.324,0
1542732815.106,71.289,43.457,-40.039,52.734,0.000,0
1542732815.110,79.102,41.016,-41.504,62.500,11.230,0
1542732815.114,83.496,36.621,-44.922,65.918,38.086,0
1542732815.117,88.867,31.250,-49.316,83.496,38.086,0
1542732815.121,95.703,33.691,-47.852,81.055,62.988,0
1542732815.125,86.426,34.180,-46.875,67.383,19.531,0
1542732815.129,80.078,34.668,-44.922,76.172,29.297,0
1542732815.133,83.496,39.062,-44.434,87.402,52.246,0
1542732815.137,86.914,38.574,-46.875,93.750,24.902,0
1542732815.141,107.422,38.086,-52.246,102.051,73.242,0
1542732815.145,111.816,38.574,-49.316,106.445,41.504,0
1542732815.149,97.656,41.504,-45.410,105.469,0.977,0
1542732815.153,94.238,42.480,-53.223,97.656,48.828,0
1542732815.157,87.891,38.574,-54.199,87.402,50.781,0
1542732815.160,80.566,44.434,-47.363,79.102,58.594,0
1542732815.164,77.637,49.316,-43.457,70.312,66.406,0
1542732815.168,78.125,41.504,-44.434,72.754,25.391,0
1542732815.172,87.891,37.598,-45.410,89.355,1.953,0
1542732815.176,87.891,43.457,-43.945,97.168,15.625,0
1542732815.180,87.402,43.945,-42.969,91.309,7.812,0
1542732815.184,103.516,32.715,-40.527,104.492,19.043,0
1542732815.188,124.023,28.809,-36.133,135.254,28.320,0
1542732815.192,110.840,46.387,-37.109,112.305,13.672,0
1542732815.196,95.215,53.223,-47.852,81.055,-22.461,0
1542732815.199,98.145,51.270,-56.152,100.586,36.133,0
1542732815.203,107.422,51.758,-58.105,118.652,71.289,0
1542732815.207,146.484,44.434,-62.988,130.371,35.645,0
1542732815.211,134.766,38.086,-73.242,123.047,67.383,0
1542732815.215,123.047,45.410,-77.637,125.488,99.609,0
1542732815.219,150.879,62.988,-78.613,122.559,108.398,0
1542732815.223,158.203,62.012,-78.613,120.605,61.035,0
1542732815.227,171.875,50.781,-78.613,139.160,28.320,0
1542732815.231,177.246,45.898,-81.543,138.184,-11.719,0
1542732815.235,171.387,42.969,-80.566,134.766,-16.113,0
1542732815.239,166.992,37.598,-76.660,150.879,40.039,0
1542732815.242,169.922,29.785,-72.266,156.738,53.711,0
1542732815.246,160.156,31.250,-66.895,145.508,11.230,0
1542732815.250,155.273,28.809,-66.895,147.461,-0.977,0
1542732815.254,166.992,18.066,-60.059,155.273,46.875,0
1542732815.258,166.504,8.789,-54.199,158.203,62.500,0
1542732815.262,157.715,7.324,-52.246,158.203,34.668,0
1542732815.266,164.062,5.859,-43.945,163.086,-17.578,0
1542732815.270,178.223,-10.742,-39.062,175.293,17.090,0
1542732815.274,183.105,-17.090,-35.156,180.176,52.734,0
1542732815.278,175.781,-6.836,-32.715,161.133,26.855,0
1542732815.282,167.969,-2.930,-27.832,161.621,82.520,0
1542732815.285,161.133,-5.371,-26.855,166.016,81.543,0
1542732815.289,155.273,-6.348,-30.762,150.879,24.902,0
1542732815.293,154.297,-14.648,-26.855,145.996,67.383,0
1542732815.297,154.785,-27.832,-20.508,146.973,59.082,0
1542732815.301,162.598,-23.926,-20.996,142.090,42.480,0
1542732815.305,154.785,-14.648,-17.090,139.160,75.684,0
1542732815.309,154.785,-15.625,-7.324,140.137,75.684,0
1542732815.313,159.668,-21.484,-4.395,150.879,69.824,0
1542732815.317,156.738,-20.996,-1.465,154.297,-8.789,0
1542732815.321,161.133,-18.555,2.441,147.949,-25.879,0
1542732815.324,148.438,-18.555,10.742,153.320,38.086,0
1542732815.328,144.531,-20.508,16.113,156.738,37.598,0
1542732815.332,147.461,-24.902,13.672,142.578,28.320,0
1542732815.336,141.602,-21.973,11.719,129.395,-18.555,0
1542732815.340,142.578,-13.672,12.695,124.512,-12.207,0
1542732815.344,139.160,-11.719,17.090,121.094,42.480,0
1542732815.348,124.023,-7.324,19.043,122.559,39.551,0
1542732815.352,123.047,-0.488,22.461,118.164,13.672,0
1542732815.356,105.469,2.441,27.832,100.098,29.785,0
1542732815.360,99.121,11.230,31.250,98.145,71.289,0
1542732815.364,110.840,20.508,31.738,96.191,69.824,0
1542732815.367,89.355,22.461,28.809,77.148,22.461,0
1542732815.371,74.707,33.203,30.762,55.664,-6.836,0
1542732815.375,70.312,41.992,37.109,41.992,3.906,0
1542732815.379,58.594,49.805,37.598,33.691,-10.254,0
1542732815.383,47.363,67.383,46.387,22.949,24.414,0
1542732815.387,22.461,67.383,59.570,-1.465,39.551,0
1542732815.391,-14.160,70.312,62.500,-30.273,-11.719,0
1542732815.395,-41.992,78.125,71.289,-57.617,-34.668,0
1542732815.399,-88.379,85.938,92.773,-87.402,10.254,0
1542732815.403,-123.535,103.027,113.770,-116.211,22.461,0
1542732815.407,-137.695,115.723,130.859,-148.438,0.000,0
1542732815.410,-167.969,111.328,144.043,-184.570,42.480,0
1542732815.414,-181.641,116.699,152.832,-197.266,33.203,0
1542732815.418,-207.031,125.000,161.621,-219.238,11.230,0
1542732815.422,-226.074,126.465,164.551,-232.910,3.906,0
1542732815.426,-212.402,119.629,168.457,-216.309,12.695,0
1542732815.430,-200.684,103.516,172.363,-202.148,65.918,0
1542732815.434,-192.871,103.027,163.574,-198.730,20.020,0
1542732815.438,-170.410,109.863,151.855,-194.336,-16.602,0
1542732815.442,-137.695,114.258,137.695,-163.574,13.672,0
1542732815.446,-133.301,104.980,131.836,-150.879,48.340,0
1542732815.449,-124.023,84.473,117.188,-140.625,53.223,0
1542732815.453,-96.680,80.566,91.797,-112.305,19.531,0
1542732815.457,-54.688,78.613,69.336,-90.820,30.273,0
1542732815.461,-40.527,65.918,71.289,-62.988,50.781,0
1542732815.465,-59.082,48.828,77.637,-51.758,17.090,0
1542732815.469,-40.527,36.133,60.059,-35.156,1.465,0
1542732815.473,-1.953,25.391,47.852,-3.906,27.344,0
1542732815.477,21.973,19.043,34.180,20.020,-5.371,0
1542732815.481,41.016,19.531,23.926,35.156,19.043,0
1542732815.485,43.457,13.672,23.926,42.969,39.551,0
1542732815.489,55.664,5.371,20.996,54.199,3.906,0
1542732815.492,78.613,1.465,15.625,70.801,-13.672,0
1542732815.496,76.660,0.977,10.254,80.566,73.730,0
1542732815.500,78.613,-0.977,6.836,82.520,61.523,0
1542732815.504,93.262,-1.465,6.836,98.145,52.246,0
1542732815.508,100.586,-0.977,5.371,109.863,76.660,0
1542732815.512,97.168,-6.348,2.441,115.723,48.340,0
1542732815.516,97.168,-7.812,-2.441,114.746,-36.133,0
1542732815.520,116.211,-8.301,-3.906,107.910,2.930,0
1542732815.524,125.488,-10.742,-7.324,113.281,31.738,0
1542732815.528,133.301,-11.230,-12.207,120.605,-1.465,0
1542732815.532,131.836,-8.789,-11.719,127.441,79.590,0
1542732815.535,140.625,-3.418,-9.277,128.418,2.930,0
1542732815.539,152.344,0.000,-7.324,127.930,-32.227,0
1542732815.543,141.602,-2.930,-8.789,130.371,61.035,0
1542732815.547,133.301,-8.301,-12.695,137.207,47.363,0
1542732815.551,136.719,-8.789,-10.742,146.484,7.812,0
1542732815.555,137.695,-5.371,-10.742,130.859,22.461,0
1542732815.559,135.742,-3.906,-14.160,113.770,29.297,0
1542732815.563,139.160,-2.441,-11.230,120.117,31.738,0
1542732815.567,143.555,-0.977,-11.230,122.070,32.227,0
1542732815.571,136.230,-1.953,-9.766,114.258,65.430,0
1542732815.574,132.324,-9.277,-3.906,120.605,96.680,0
1542732815.578,120.605,-13.184,-3.906,116.699,88.867,0
1542732815.582,119.141,-7.324,-5.371,108.887,81.543,0
1542732815.586,128.906,-9.766,-5.859,115.723,56.152,0
1542732815.590,126.953,-8.301,-5.371,121.094,47.852,0
1542732815.594,121.582,-4.395,-2.441,122.070,42.969,0
1542732815.598,117.188,-5.371,-0.977,112.305,73.730,0
1542732815.602,121.582,-2.930,-2.930,108.887,60.059,0
1542732815.606,118.164,-2.441,-0.977,113.281,24.902,0
1542732815.610,116.699,-4.883,2.441,108.398,33.203,0
1542732815.614,124.023,-7.812,0.977,109.375,43.945,0
1542732815.617,114.746,-5.371,3.906,112.793,23.438,0
1542732815.621,111.816,-1.465,11.230,101.562,5.371,0
1542732815.625,116.211,-0.488,14.648,98.145,-11.230,0
1542732815.629,112.305,3.906,11.230,99.609,-24.902,0
1542732815.633,102.539,6.348,11.719,84.961,-87.402,0
1542732815.637,101.562,3.906,16.602,90.332,-33.203,0
1542732815.641,100.098,4.395,17.090,96.680,65.430,0
1542732815.645,93.262,9.766,17.090,97.168,44.434,0
1542732815.649,86.426,9.766,15.625,86.426,11.719,0
1542732815.653,100.098,8.789,12.207,72.754,-3.906,0
1542732815.657,104.004,8.789,16.113,76.660,-17.090,0
1542732815.660,91.797,10.742,19.043,84.961,3.418,0
1542732815.664,82.031,11.230,18.555,85.938,31.250,0
1542732815.668,77.148,10.254,20.508,95.215,27.832,0
1542732815.672,69.336,10.742,23.438,88.379,-18.066,0
1542732815.676,70.801,15.137,24.902,84.473,-9.277,0
1542732815.680,79.102,20.020,26.367,94.238,31.738,0
1542732815.684,86.426,20.996,24.414,92.773,29.297,0
1542732815.688,78.125,18.066,22.461,83.496,33.691,0
1542732815.692,59.570,14.160,27.344,68.848,88.379,0
1542732815.696,61.523,17.578,31.250,54.199,139.160,0
1542732815.699,64.941,24.414,31.250,51.270,60.059,0
1542732815.703,71.289,27.344,32.227,62.012,-25.391,0
1542732815.707,68.359,27.832,30.762,66.406,-23.438,0
1542732815.711,58.105,23.926,29.297,62.988,13.672,0
1542732815.715,60.059,18.555,29.297,59.570,5.859,0
1542732815.719,71.289,25.879,26.855,55.664,13.672,0
1542732815.723,67.871,32.715,24.902,54.688,9.277,0
1542732815.727,47.852,30.273,28.809,59.570,45.898,0
1542732815.731,47.852,27.832,27.832,64.453,33.691,0
1542732815.735,61.523,28.320,22.461,56.641,-28.320,0
1542732815.739,54.199,30.762,17.578,56.152,-29.785,0
1542732815.742,36.133,28.809,21.973,53.223,1.953,0
1542732815.746,39.062,26.855,32.227,43.457,47.852,0
1542732815.750,51.270,28.809,27.832,48.340,41.992,0
1542732815.754,47.852,30.762,22.949,49.316,13.184,0
1542732815.758,43.457,33.203,27.344,43.945,-7.324,0
1542732815.762,49.316,32.227,27.832,39.551,-1.465,0
1542732815.766,48.340,32.715,24.414,44.434,28.320,0
1542732815.770,55.664,36.133,25.879,40.039,3.418,0
1542732815.774,56.641,35.156,26.367,36.133,14.648,0
1542732815.778,33.203,35.156,27.832,35.645,44.922,0
1542732815.782,23.926,32.227,31.250,32.715,39.062,0
1542732815.785,30.273,30.762,32.227,35.645,62.012,0
1542732815.789,30.273,30.273,29.785,28.320,29.785,0
1542732815.793,32.227,33.203,27.344,25.391,32.715,0
1542732815.797,43.945,37.598,28.809,30.762,53.711,0
1542732815.801,39.062,36.133,30.273,29.785,15.625,0
1542732815.805,37.598,32.715,30.762,37.598,21.973,0
1542732815.809,40.039,28.320,31.738,45.898,15.137,0
1542732815.813,45.898,30.762,31.738,40.039,42.480,0
1542732815.817,43.945,37.598,32.715,38.086,58.594,0
1542732815.821,38.086,37.598,35.645,35.645,30.762,0
1542732815.824,48.828,34.668,34.180,40.039,62.500,0
1542732815.828,46.387,37.109,34.180,42.969,26.855,0
1542732815.832,33.203,36.133,38.086,35.645,28.320,0
1542732815.836,26.855,30.273,41.016,34.180,70.801,0
1542732815.840,32.715,33.203,40.527,39.551,31.250,0
1542732815.844,37.109,43.457,38.086,44.434,36.133,0
1542732815.848,32.715,42.969,36.621,36.133,35.156,0
1542732815.852,37.598,41.016,38.086,33.203,68.848,0
1542732815.856,42.480,42.480,36.621,42.969,62.988,0
1542732815.860,39.551,38.086,35.156,33.203,23.926,0
1542732815.864,43.945,40.039,37.598,32.715,-0.977,0
1542732815.867,38.086,45.410,41.504,27.344,-25.879,0
1542732815.871,35.156,43.457,41.016,23.926,25.391,0
1542732815.875,45.410,40.039,38.574,28.809,20.508,0
1542732815.879,38.574,43.945,39.551,26.855,-20.996,0
1542732815.883,36.621,45.410,37.598,32.227,18.555,0
1542732815.887,44.922,42.969,35.156,28.320,25.391,0
1542732815.891,38.574,42.480,40.039,27.344,41.504,0
1542732815.895,37.598,41.992,41.016,29.785,37.109,0
1542732815.899,43.945,40.527,39.551,33.203,-7.324,0
1542732815.903,43.457,41.016,41.504,41.504,71.777,0
1542732815.907,41.016,45.410,43.945,36.621,62.012,0
1542732815.910,39.551,43.457,36.133,35.156,42.480,0
1542732815.914,38.086,27.344,35.645,42.480,87.402,0
1542732815.918,34.180,29.297,38.086,47.363,41.992,0
1542732815.922,43.457,36.133,30.273,49.805,31.738,0
1542732815.926,69.824,27.832,24.902,62.500,42.969,0
1542732815.930,56.641,37.598,28.809,57.617,23.926,0
1542732815.934,15.137,44.922,33.203,26.855,-2.930,0
1542732815.938,25.391,35.156,29.297,24.902,-39.062,0
1542732815.942,60.547,25.391,25.879,53.223,-4.883,0
1542732815.946,51.758,18.066,32.715,56.641,101.562,0
1542732815.949,40.039,9.766,39.062,55.664,47.363,0
1542732815.953,48.340,7.812,34.668,67.871,-11.719,0
1542732815.957,57.617,15.137,32.227,62.988,28.809,0
1542732815.961,57.617,18.555,30.273,63.965,33.691,0
1542732815.965,57.129,13.672,29.785,61.523,20.996,0
1542732815.969,56.152,14.160,32.227,59.082,-23.926,0
1542732815.973,52.246,22.461,29.297,60.547,-28.809,0
1542732815.977,58.594,28.320,26.855,62.988,40.039,0
1542732815.981,46.387,24.414,32.227,62.500,110.840,0
1542732815.985,43.945,23.438,29.785,63.965,71.777,0
1542732815.989,69.824,28.809,20.996,57.617,44.434,0
1542732815.992,62.500,28.809,21.484,55.176,17.578,0
1542732815.996,49.805,24.414,25.879,66.406,40.039,0
1542732816.000,57.617,20.996,27.344,58.105,47.852,0
1542732816.004,51.758,26.855,25.391,61.523,49.805,0
1542732816.008,50.293,33.203,23.926,52.246,63.477,0
1542732816.012,43.945,35.645,26.367,35.156,15.625,0
1542732816.016,31.250,38.086,27.832,38.574,-1.953,0
1542732816.020,41.016,36.621,30.762,37.109,25.391,0
1542732816.024,43.945,26.367,26.855,35.645,24.902,0
1542732816.028,41.016,25.879,23.438,30.273,-9.766,0
1542732816.032,36.621,36.621,33.203,42.480,27.832,0
1542732816.035,32.715,36.133,31.738,36.621,62.988,0
1542732816.039,38.086,33.203,21.484,23.926,11.719,0
1542732816.043,32.715,36.621,27.832,38.574,24.414,0
1542732816.047,28.809,36.621,41.016,45.410,57.617,0
1542732816.051,27.832,33.203,39.062,45.898,42.969,0
1542732816.055,29.785,33.691,36.621,41.504,81.055,0
1542732816.059,26.367,34.180,38.574,38.086,76.660,0
1542732816.063,24.902,29.297,34.180,37.598,12.207,0
1542732816.067,34.668,24.414,35.156,40.527,-8.301,0
1542732816.071,24.902,29.297,37.109,37.109,17.090,0
1542732816.074,21.484,35.156,37.598,30.273,-20.508,0
1542732816.078,26.367,33.691,38.574,35.156,-15.625,0
1542732816.082,38.086,27.344,38.086,39.551,15.625,0
1542732816.086,37.598,31.250,38.574,41.016,20.020,0
1542732816.090,23.926,35.156,38.574,37.109,51.758,0
1542732816.094,32.715,31.738,40.039,38.086,12.695,0
1542732816.098,32.715,33.203,40.039,37.109,13.184,0
1542732816.102,27.832,35.645,40.039,29.297,47.363,0
1542732816.106,34.180,38.086,37.598,24.902,-1.953,0
1542732816.110,36.133,41.992,29.297,21.973,-20.508,0
1542732816.114,37.109,40.527,27.832,21.484,13.184,0
1542732816.117,34.180,38.574,28.320,15.625,53.223,0
1542732816.121,25.879,44.922,26.855,22.949,71.289,0
1542732816.125,15.137,46.387,33.691,33.203,30.762,0
1542732816.129,15.137,43.945,33.691,29.785,-2.930,0
1542732816.133,16.602,40.527,34.180,33.203,44.434,0
1542732816.137,3.906,38.086,39.551,37.109,65.430,0
1542732816.141,5.371,36.133,37.109,31.738,52.246,0
1542732816.145,18.066,33.203,32.715,30.273,40.527,0
1542732816.149,17.578,35.645,32.227,26.367,56.641,0
1542732816.153,15.625,36.621,35.156,23.926,49.316,0
1542732816.157,15.625,33.203,37.598,31.250,68.848,0
1542732816.160,14.648,32.227,38.574,36.133,75.195,0
1542732816.164,16.602,35.156,36.621,28.320,42.969,0
1542732816.168,13.184,41.504,35.156,23.438,32.715,0
1542732816.172,11.719,43.457,36.621,26.367,32.227,0
1542732816.176,18.555,40.527,37.109,29.297,39.551,0
1542732816.180,18.066,40.527,38.574,27.344,8.301,0
1542732816.184,10.254,40.527,37.598,24.414,23.438,0
1542732816.188,20.020,43.457,35.645,29.297,66.406,0
1542732816.192,22.461,32.715,37.109,40.527,29.297,0
1542732816.196,28.809,20.020,39.062,47.363,-9.766,0
1542732816.199,28.809,37.109,37.109,39.551,33.203,0
1542732816.203,2.441,56.641,36.621,19.043,31.738,0
1542732816.207,10.254,54.688,35.156,20.020,26.855,0
1542732816.211,39.062,55.176,25.391,27.344,31.250,0
1542732816.215,29.297,57.617,24.902,20.996,15.137,0
1542732816.219,25.879,49.316,23.438,21.973,-31.738,0
1542732816.223,41.016,52.246,13.184,31.250,24.902,0
1542732816.227,53.223,58.105,10.742,43.945,34.668,0
1542732816.231,59.570,56.641,18.066,47.363,29.785,0
1542732816.235,45.898,55.176,20.996,31.250,92.285,0
1542732816.239,30.273,52.246,20.508,20.996,19.043,0
1542732816.242,33.203,51.758,23.438,30.762,-13.672,0
1542732816.246,35.156,52.246,26.855,33.203,32.227,0
1542732816.250,30.762,50.781,25.391,25.391,33.691,0
1542732816.254,37.109,48.828,23.438,24.414,36.133,0
1542732816.258,38.574,43.945,25.391,34.668,41.504,0
1542732816.262,45.898,46.387,27.344,43.945,26.855,0
1542732816.266,42.969,49.805,29.785,37.598,-11.719,0
1542732816.270,22.949,45.898,29.785,39.551,-20.996,0
1542732816.274,20.508,48.828,28.809,33.203,-11.719,0
1542732816.278,20.508,48.340,28.809,21.973,7.324,0
1542732816.282,26.855,40.039,32.715,28.320,27.344,0
1542732816.285,36.621,38.086,33.203,34.668,38.574,0
1542732816.289,46.875,41.504,25.391,46.875,48.828,0
1542732816.293,41.504,41.992,23.926,43.457,60.059,0
1542732816.297,25.391,44.434,26.367,28.809,-7.324,0
1542732816.301,24.414,45.410,30.762,33.203,-33.691,0
1542732816.305,30.762,41.504,33.691,31.250,17.090,0
1542732816.309,35.156,41.016,27.832,29.297,49.805,0
1542732816.313,24.414,41.992,26.367,36.621,29.297,0
1542732816.317,33.203,42.480,30.762,29.297,38.086,0
1542732816.321,37.598,43.457,32.715,32.227,74.219,0
1542732816.324,19.043,42.480,36.133,34.668,40.039,0
1542732816.328,19.043,41.992,36.133,22.949,-26.367,0
1542732816.332,38.086,41.992,33.203,20.996,-15.625,0
1542732816.336,33.203,41.504,33.203,28.320,41.992,0
1542732816.340,33.203,42.480,30.762,27.832,30.762,0
1542732816.344,29.785,44.434,27.344,12.695,-15.137,0
1542732816.348,18.066,44.922,26.367,11.230,16.602,0
1542732816.352,21.973,43.945,28.809,21.484,25.391,0
1542732816.356,26.855,38.574,31.250,25.879,36.621,0
1542732816.360,27.832,35.645,31.250,28.320,88.867,0
1542732816.364,32.227,37.598,30.273,15.137,68.359,0
1542732816.367,28.809,40.039,27.344,12.695,19.531,0
1542732816.371,31.738,41.504,30.273,25.879,25.879,0
1542732816.375,34.668,42.480,34.668,24.902,30.762,0
1542732816.379,19.043,41.992,34.180,27.344,-1.953,0
1542732816.383,29.785,39.551,30.762,28.320,-8.301,0
1542732816.387,52.246,38.086,35.645,30.273,33.691,0
1542732816.391,35.645,33.691,38.574,27.832,48.828,0
1542732816.395,15.137,31.738,33.691,21.484,0.977,0
1542732816.399,24.414,33.203,35.645,35.156,9.277,0
1542732816.403,27.344,33.203,35.156,33.691,28.809,0
1542732816.407,22.949,33.691,32.227,27.344,51.758,0
1542732816.410,38.574,34.668,32.227,38.086,47.852,0
1542732816.414,36.621,27.344,37.109,41.016,19.531,0
1542732816.418,30.762,28.320,37.109,34.180,61.523,0
1542732816.422,36.621,38.086,31.738,25.391,92.285,0
1542732816.426,36.621,38.574,29.785,21.973,82.031,0
1542732816.430,26.367,40.527,30.273,22.461,33.203,0
1542732816.434,12.207,41.992,33.203,20.508,11.719,0
1542732816.438,15.625,39.551,36.621,13.184,4.395,0
1542732816.442,25.879,39.062,37.598,23.926,25.391,0
1542732816.446,21.973,35.645,34.668,24.902,43.945,0
1542732816.449,30.762,31.738,33.691,14.648,33.691,0
1542732816.453,37.109,33.691,29.297,16.113,47.363,0
1542732816.457,20.508,32.715,29.297,16.602,62.988,0
1542732816.461,18.555,28.320,32.227,21.484,27.344,0
1542732816.465,24.902,29.785,33.203,23.926,37.109,0
1542732816.469,23.438,34.180,33.691,27.832,20.996,0
1542732816.473,14.160,35.156,30.762,21.973,-6.836,0
1542732816.477,8.301,32.715,31.738,17.578,38.574,0
1542732816.481,19.531,29.297,33.203,20.996,43.457,0
1542732816.485,28.320,28.809,29.297,16.602,2.441,0
1542732816.489,23.438,32.227,24.414,14.160,-30.762,0
1542732816.492,15.625,36.133,25.391,23.438,29.297,0
1542732816.496,12.207,36.621,26.367,19.531,36.133,0
1542732816.500,13.184,38.574,26.367,8.789,32.227,0
1542732816.504,18.555,36.133,27.832,12.207,35.156,0
1542732816.508,11.230,33.691,28.809,16.602,9.766,0
1542732816.512,17.090,33.203,30.762,15.625,65.430,0
1542732816.516,26.367,32.227,29.785,20.020,38.574,0
1542732816.520,16.113,27.832,29.297,19.531,24.902,0
1542732816.524,19.043,26.367,28.320,20.508,60.059,0
1542732816.528,33.203,34.180,28.809,37.598,57.617,0
1542732816.532,22.949,40.039,23.438,26.855,56.641,0
1542732816.535,19.043,39.551,20.508,6.836,56.152,0
1542732816.539,19.531,37.109,25.391,9.766,16.602,0
1542732816.543,9.766,37.598,24.902,7.812,40.527,0
1542732816.547,14.160,37.598,26.855,4.883,61.523,0
1542732816.551,15.137,34.180,31.250,6.348,34.668,0
1542732816.555,12.695,35.645,30.273,22.461,41.504,0
1542732816.559,16.113,37.598,29.297,26.367,66.406,0
1542732816.563,13.184,32.227,29.785,17.578,59.082,0
1542732816.567,12.207,34.180,29.297,12.695,44.922,0
1542732816.571,19.531,36.621,27.832,11.719,9.766,0
1542732816.574,18.066,29.785,28.809,18.555,6.836,0
1542732816.578,30.762,33.203,29.297,17.578,-0.977,0
1542732816.582,34.180,37.598,30.273,20.996,6.836,0
1542732816.586,17.090,35.645,32.227,15.137,25.879,0
1542732816.590,10.742,34.180,27.832,8.301,4.883,0
1542732816.594,42.969,37.598,13.672,42.480,-37.109,0
1542732816.598,41.992,35.156,31.250,47.852,-51.758,0
1542732816.602,-9.277,30.762,51.270,-0.488,12.207,0
1542732816.606,-18.066,33.691,45.898,-17.578,11.719,0
1542732816.610,-19.531,36.621,50.293,-24.902,27.832,0
1542732816.614,-38.574,33.691,60.547,-33.203,58.105,0
1542732816.617,-52.734,26.855,63.477,-46.875,4.395,0
1542732816.621,-58.105,25.391,61.523,-53.711,10.254,0
1542732816.625,-68.848,19.043,66.895,-48.828,22.949,0
1542732816.629,-73.242,4.395,71.289,-47.852,46.387,0
1542732816.633,-62.012,6.348,68.848,-41.016,72.754,0
1542732816.637,-47.363,16.113,71.777,-34.180,41.016,0
1542732816.641,-43.457,19.043,73.242,-34.180,44.434,0
1542732816.645,-49.316,17.578,68.848,-34.180,55.664,0
1542732816.649,-45.410,16.602,71.289,-25.879,39.551,0
1542732816.653,-37.598,19.043,66.406,-17.090,11.230,0
1542732816.657,-34.180,22.461,62.012,-9.277,11.719,0
1542732816.660,-22.949,22.461,63.477,-0.977,26.367,0
1542732816.664,-12.207,23.438,55.664,10.254,39.551,0
1542732816.668,-10.742,23.438,49.316,12.695,34.180,0
1542732816.672,-5.859,21.973,51.270,6.836,-14.648,0
1542732816.676,-0.977,22.461,51.758,12.207,18.066,0
1542732816.680,6.348,21.973,50.781,13.672,36.133,0
1542732816.684,7.812,22.949,50.781,6.348,28.320,0
1542732816.688,-12.207,23.438,50.293,2.441,31.250,0
1542732816.692,-10.254,23.926,53.711,0.977,39.062,0
1542732816.696,-6.836,33.203,57.617,6.836,82.031,0
1542732816.699,-11.719,42.969,58.105,4.883,70.312,0
1542732816.703,-12.695,44.922,57.129,2.930,-7.324,0
1542732816.707,-2.441,51.270,62.012,13.184,-21.973,0
1542732816.711,-16.602,46.875,63.477,-4.395,33.691,0
1542732816.715,-26.855,42.480,64.453,-11.230,82.520,0
1542732816.719,-19.531,58.105,64.941,-15.137,86.426,0
1542732816.723,-36.133,60.059,60.547,-30.762,64.941,0
1542732816.727,-56.152,59.082,65.430,-41.992,30.762,0
1542732816.731,-67.871,68.848,71.289,-66.406,31.250,0
1542732816.735,-83.496,86.426,74.219,-79.590,74.707,0
1542732816.739,-80.078,102.051,69.824,-75.684,76.660,0
1542732816.742,-81.543,103.027,84.961,-79.590,36.133,0
1542732816.746,-146.484,111.328,115.234,-122.559,68.848,0
1542732816.750,-178.223,118.652,126.953,-146.484,117.188,0
1542732816.754,-165.527,109.375,125.977,-149.902,93.262,0
1542732816.758,-175.293,108.887,134.277,-158.203,54.688,0
1542732816.762,-209.473,109.375,153.320,-186.523,-22.949,0
1542732816.766,-207.031,108.887,161.133,-208.008,-62.012,0
1542732816.770,-218.262,101.074,162.598,-210.449,-17.578,0
1542732816.774,-237.793,97.168,167.969,-211.914,1.465,0
1542732816.778,-211.426,96.680,174.805,-199.219,40.039,0
1542732816.782,-201.660,88.379,171.387,-188.965,9.766,0
1542732816.785,-201.660,86.426,168.457,-184.570,-12.207,0
1542732816.789,-208.496,84.961,170.410,-183.105,71.289,0
1542732816.793,-207.520,83.984,172.363,-190.918,94.727,0
1542732816.797,-198.242,83.984,174.316,-187.012,32.715,0
1542732816.801,-194.336,79.102,172.363,-168.457,5.859,0
1542732816.805,-184.082,74.707,167.969,-170.410,38.574,0
1542732816.809,-192.383,62.988,165.039,-183.594,27.344,0
1542732816.813,-181.641,55.664,157.715,-163.086,55.176,0
1542732816.817,-156.250,62.012,146.484,-134.766,43.945,0
1542732816.821,-169.922,62.012,147.461,-146.484,78.125,0
1542732816.824,-166.016,52.246,149.414,-137.695,83.008,0
1542732816.828,-137.695,45.410,138.672,-109.375,23.926,0
1542732816.832,-127.441,46.875,122.070,-107.910,29.297,0
1542732816.836,-109.863,47.363,109.863,-103.516,47.852,0
1542732816.840,-88.867,50.781,92.773,-86.426,34.668,0
1542732816.844,-79.590,55.664,71.289,-80.078,22.461,0
1542732816.848,-65.430,57.617,57.617,-75.195,28.320,0
1542732816.852,-53.223,50.293,51.758,-57.617,56.641,0
1542732816.856,-29.785,41.016,42.480,-27.832,20.996,0
1542732816.860,-10.742,47.852,19.531,-17.578,-2.441,0
1542732816.864,-5.859,46.387,5.371,-16.602,79.590,0
1542732816.867,-1.953,44.434,0.488,-22.949,10.742,0
1542732816.871,6.348,44.434,-0.488,1.953,-27.832,0
1542732816.875,38.574,41.504,-13.184,44.434,-6.348,0
1542732816.879,45.898,40.039,-20.508,40.527,-26.855,0
1542732816.883,29.785,27.344,-17.578,36.133,28.320,0
1542732816.887,48.828,24.902,-28.320,43.457,-11.719,0
1542732816.891,71.777,27.344,-39.551,50.293,-30.762,0
1542732816.895,63.965,20.020,-27.344,60.547,28.809,0
1542732816.899,54.688,16.602,-14.648,62.988,37.109,0
1542732816.903,62.988,17.578,-22.461,54.688,62.500,0
1542732816.907,80.566,19.043,-31.738,65.918,64.453,0
1542732816.910,79.102,20.508,-32.715,76.660,13.672,0
1542732816.914,69.824,14.648,-32.715,73.730,-4.395,0
1542732816.918,83.008,7.324,-36.133,77.148,26.367,0
1542732816.922,94.238,2.930,-36.133,78.125,5.859,0
1542732816.926,103.027,0.977,-36.133,81.543,-38.086,0
1542732816.930,104.004,2.930,-40.039,88.379,-23.438,0
1542732816.934,99.121,5.371,-41.992,95.703,14.160,0
1542732816.938,105.957,-0.977,-38.574,108.398,26.367,0
1542732816.942,106.934,-7.812,-37.109,109.863,33.691,0
1542732816.946,111.328,-5.371,-43.945,116.211,36.621,0
1542732816.949,109.863,-8.789,-41.504,125.000,41.016,0
1542732816.953,121.094,-10.742,-33.203,138.672,41.992,0
1542732816.957,131.348,-7.812,-26.855,143.555,69.336,0
1542732816.961,125.977,-4.883,-16.602,122.070,23.926,0
1542732816.965,113.281,-4.883,-19.043,125.000,6.348,0
1542732816.969,102.539,-7.324,-22.461,129.395,-41.504,0
1542732816.973,125.488,-8.301,-24.414,107.910,0.000,0
1542732816.977,130.859,-8.301,-27.344,108.887,44.922,0
1542732816.981,135.254,-8.301,-29.297,126.953,52.246,0
1542732816.985,124.023,-11.230,-28.809,127.930,77.637,0
1542732816.989,114.258,-14.160,-26.855,130.859,64.453,0
1542732816.992,134.277,-13.184,-27.832,140.625,62.012,0
1542732816.996,147.949,-18.555,-25.879,130.371,4.395,0
1542732817.000,143.555,-15.137,-23.438,131.348,4.883,0
1542732817.004,127.930,-5.371,-20.508,143.555,-10.742,0
1542732817.008,122.559,-4.883,-16.602,138.672,-64.453,0
1542732817.012,138.672,-4.883,-17.578,134.277,-18.066,0
1542732817.016,140.137,-3.418,-20.996,123.047,30.762,0
1542732817.020,134.277,-1.953,-19.043,114.746,47.363,0
1542732817.024,139.648,-3.906,-18.555,110.840,83.008,0
1542732817.028,144.043,-4.883,-17.090,106.445,89.844,0
1542732817.032,127.441,-5.859,-15.625,120.117,46.875,0
1542732817.035,123.047,-8.789,-10.742,121.582,33.203,0
1542732817.039,132.812,-9.766,-0.977,118.652,41.992,0
1542732817.043,132.812,-5.371,0.488,125.488,-6.348,0
1542732817.047,121.582,-5.859,4.883,124.023,-21.484,0
1542732817.051,110.840,-10.254,7.324,120.605,-18.066,0
1542732817.055,113.770,-5.371,2.930,119.629,55.176,0
1542732817.059,107.422,3.418,1.953,118.164,100.586,0
1542732817.063,104.492,5.371,3.418,108.887,8.301,0
1542732817.067,108.887,4.395,5.371,86.914,6.836,0
1542732817.071,106.934,6.836,3.418,86.426,5.859,0
1542732817.074,110.840,4.883,1.953,101.562,-16.113,0
1542732817.078,103.516,2.930,-2.441,102.539,-4.883,0
1542732817.082,86.426,6.836,-0.977,99.121,8.301,0
1542732817.086,79.590,10.742,2.930,83.984,43.457,0
1542732817.090,69.824,10.254,5.859,71.289,30.762,0
1542732817.094,61.035,9.766,12.207,71.777,38.574,0
1542732817.098,72.754,10.254,12.695,68.848,64.941,0
1542732817.102,81.055,9.766,11.719,73.730,32.715,0
1542732817.106,79.590,10.254,15.137,74.707,34.180,0
1542732817.110,87.402,11.230,19.043,68.359,42.969,0
1542732817.114,77.637,11.719,21.484,65.918,25.391,0
1542732817.117,71.777,9.277,23.438,71.289,16.602,0
1542732817.121,85.449,10.254,21.484,75.684,30.273,0
1542732817.125,93.750,17.090,23.438,80.078,16.602,0
1542732817.129,77.637,18.066,28.809,80.078,1.953,0
1542732817.133,69.824,16.602,27.344,75.684,29.297,0
1542732817.137,80.566,18.066,25.391,77.148,40.039,0
1542732817.141,76.172,20.020,22.461,71.777,50.293,0
1542732817.145,70.312,18.555,23.926,62.500,-11.230,0
1542732817.149,68.359,17.578,24.902,57.129,-31.250,0
1542732817.153,67.871,20.996,21.973,52.246,-1.953,0
1542732817.157,65.430,20.508,25.391,52.734,7.812,0
1542732817.160,67.383,19.531,26.367,56.152,41.504,0
1542732817.164,70.801,11.719,24.902,67.383,41.504,0
1542732817.168,93.750,-8.301,27.344,103.027,-14.160,0
1542732817.172,94.238,15.625,22.461,98.145,-50.293,0
1542732817.176,45.898,44.922,20.996,40.039,-19.043,0
1542732817.180,39.551,32.715,21.973,27.832,28.320,0
1542732817.184,73.242,20.996,17.090,54.688,30.273,0
1542732817.188,75.195,23.926,12.207,58.594,33.691,0
1542732817.192,75.684,25.391,7.812,50.293,61.035,0
1542732817.196,76.660,26.367,5.859,35.156,68.848,0
1542732817.199,77.148,32.227,1.465,31.250,109.863,0
1542732817.203,83.008,41.016,-6.836,41.016,92.285,0
1542732817.207,85.938,40.527,-10.254,51.270,54.199,0
1542732817.211,96.191,31.738,-0.977,56.152,22.461,0
1542732817.215,102.539,36.133,-3.418,53.711,5.371,0
1542732817.219,83.496,37.109,-10.254,55.176,21.973,0
1542732817.223,84.961,26.367,5.859,53.711,49.805,0
1542732817.227,95.703,26.367,14.648,50.293,56.152,0
1542732817.231,88.867,31.738,10.254,50.781,6.836,0
1542732817.235,83.984,30.273,6.348,59.082,-13.672,0
1542732817.239,82.031,28.320,7.324,54.688,25.391,0
1542732817.242,83.984,27.344,15.625,36.133,52.246,0
1542732817.246,86.914,24.414,22.949,30.273,64.941,0
1542732817.250,77.148,23.926,21.484,38.574,68.848,0
1542732817.254,70.312,22.949,24.902,51.758,56.152,0
1542732817.258,76.172,20.508,25.391,41.992,52.734,0
1542732817.262,81.543,24.902,19.531,35.645,23.438,0
1542732817.266,71.289,25.391,19.043,34.180,-0.488,0
1542732817.270,55.664,22.949,20.020,32.715,9.277,0
1542732817.274,57.129,23.438,21.484,40.039,39.551,0
1542732817.278,65.918,24.414,22.461,41.504,37.109,0
1542732817.282,72.754,26.367,16.602,36.621,-18.066,0
1542732817.285,79.102,30.762,12.207,36.133,8.789,0
1542732817.289,63.965,31.738,14.648,32.227,19.531,0
1542732817.293,58.105,33.203,21.484,36.621,8.789,0
1542732817.297,68.848,31.250,25.879,40.039,62.500,0
1542732817.301,67.383,24.414,29.297,37.109,41.992,0
1542732817.305,56.641,27.344,30.273,33.203,52.734,0
1542732817.309,51.270,30.273,30.273,30.273,76.172,0
1542732817.313,56.641,29.297,33.691,41.504,57.129,0
1542732817.317,54.688,24.902,36.133,48.828,58.594,0
1542732817.321,57.617,23.926,35.156,52.246,20.508,0
1542732817.324,61.523,32.715,33.691,42.480,29.297,0
1542732817.328,60.547,34.180,33.203,23.926,26.367,0
1542732817.332,65.430,33.691,31.250,31.738,-17.090,0
1542732817.336,70.801,34.180,33.203,46.875,-17.090,0
1542732817.340,62.500,31.250,36.133,45.410,12.207,0
1542732817.344,58.105,31.250,36.133,51.270,60.547,0
1542732817.348,63.965,31.250,36.621,51.270,49.805,0
1542732817.352,67.383,28.809,34.668,54.688,37.109,0
1542732817.356,73.242,29.785,37.109,61.035,10.742,0
1542732817.360,56.152,30.762,40.039,53.223,33.691,0
1542732817.364,55.664,31.250,36.133,42.480,74.707,0
1542732817.367,71.289,36.621,36.133,42.969,15.137,0
1542732817.371,50.293,37.109,34.180,40.039,6.348,0
1542732817.375,38.574,30.273,34.668,46.387,17.090,0
1542732817.379,54.199,31.250,37.598,44.434,7.812,0
1542732817.383,53.711,35.156,36.621,43.457,41.992,0
1542732817.387,45.898,33.691,35.645,50.781,62.500,0
1542732817.391,47.363,33.203,37.109,44.922,16.602,0
1542732817.395,46.387,33.691,40.527,45.898,16.602,0
1542732817.399,49.316,29.297,40.039,52.734,101.074,0
1542732817.403,39.062,24.414,35.156,49.316,47.852,0
1542732817.407,30.273,29.297,34.668,50.293,-11.719,0
1542732817.410,41.992,37.109,36.621,57.617,12.207,0
1542732817.414,44.434,37.109,35.645,53.223,48.828,0
1542732817.418,39.551,31.250,36.133,45.898,31.738,0
1542732817.422,47.363,27.832,37.598,47.852,-4.883,0
1542732817.426,40.527,30.762,37.598,46.875,31.738,0
1542732817.430,43.457,37.109,38.086,49.805,51.758,0
1542732817.434,60.547,39.062,33.691,55.176,23.438,0
1542732817.438,55.664,38.574,29.785,51.270,11.719,0
1542732817.442,38.086,37.109,30.762,40.039,42.480,0
1542732817.446,41.504,36.133,35.156,52.246,32.715,0
1542732817.449,47.852,36.621,37.598,66.406,32.715,0
1542732817.453,45.410,32.715,32.227,52.734,31.250,0
1542732817.457,50.293,29.785,32.715,52.246,8.789,0
1542732817.461,45.898,29.297,32.227,54.688,65.430,0
1542732817.465,31.250,37.598,35.645,42.969,60.059,0
1542732817.469,25.879,39.062,38.574,41.016,57.129,0
1542732817.473,24.414,33.691,36.621,42.480,66.895,0
1542732817.477,29.297,34.180,41.992,47.852,27.344,0
1542732817.481,39.551,37.109,46.875,47.363,17.578,0
1542732817.485,34.668,37.598,43.945,45.898,6.836,0
1542732817.489,41.504,30.762,43.457,51.758,57.129,0
1542732817.492,49.805,30.273,40.527,38.086,45.410,0
1542732817.496,33.203,34.180,38.574,38.086,16.113,0
1542732817.500,30.762,34.668,41.016,36.133,45.410,0
1542732817.504,27.344,34.180,37.598,27.832,52.734,0
1542732817.508,22.461,32.227,36.133,29.297,67.871,0
1542732817.512,19.043,27.832,36.621,37.598,38.086,0
1542732817.516,15.625,29.785,34.668,30.762,-1.465,0
1542732817.520,23.438,30.762,36.621,19.531,-10.742,0
1542732817.524,20.508,29.297,38.086,26.855,31.250,0
1542732817.528,20.996,31.250,30.762,25.391,23.926,0
1542732817.532,26.367,30.273,30.273,26.855,22.461,0
1542732817.535,25.391,29.297,36.133,29.297,32.227,0
1542732817.539,27.832,29.297,35.645,18.066,21.973,0
1542732817.543,23.926,29.297,34.668,15.137,73.242,0
1542732817.547,23.926,35.156,30.273,18.066,65.430,0
1542732817.551,25.879,36.621,25.391,22.461,39.062,0
1542732817.555,22.949,31.738,27.832,24.902,28.320,0
1542732817.559,18.555,33.203,30.762,16.113,23.926,0
1542732817.563,23.926,36.133,32.227,18.066,37.598,0
1542732817.567,41.504,29.785,32.715,27.344,15.625,0
1542732817.571,41.504,25.391,31.738,23.438,22.949,0
1542732817.574,43.457,29.297,26.855,36.621,104.492,0
1542732817.578,47.363,28.809,21.484,34.180,103.516,0
1542732817.582,37.598,31.738,26.367,18.555,33.203,0
1542732817.586,26.367,36.621,33.203,20.996,8.301,0
1542732817.590,28.320,35.645,34.180,18.555,-4.395,0
1542732817.594,43.945,36.133,35.645,20.020,-9.766,0
1542732817.598,38.086,37.109,36.133,20.996,-2.930,0
1542732817.602,32.715,39.062,35.645,21.973,-19.531,0
1542732817.606,38.574,37.109,35.645,23.926,-0.977,0
1542732817.610,34.668,37.109,33.691,24.414,8.789,0
1542732817.614,38.574,39.062,28.320,21.973,-14.160,0
1542732817.617,45.898,32.715,29.785,14.648,25.879,0
1542732817.621,26.855,36.621,33.203,15.625,26.367,0
1542732817.625,35.156,26.367,38.086,28.809,-73.730,0
1542732817.629,68.359,17.578,38.086,51.270,0.977,0
1542732817.633,50.781,42.480,33.203,31.738,56.641,0
1542732817.637,-0.977,62.012,26.367,-21.484,-35.645,0
1542732817.641,-6.836,62.500,22.949,-29.785,-1.953,0
1542732817.645,1.953,65.918,21.484,-20.996,28.809,0
1542732817.649,0.000,73.242,14.160,-28.809,18.066,0
1542732817.653,-4.883,79.590,11.230,-38.574,37.109,0
1542732817.657,-22.949,85.449,10.742,-49.805,-1.953,0
1542732817.660,-19.531,86.426,8.789,-55.176,-25.879,0
1542732817.664,-25.879,94.727,1.465,-73.242,-5.859,0
1542732817.668,-26.855,97.168,-2.930,-76.660,29.297,0
1542732817.672,-4.883,90.820,6.348,-62.012,16.602,0
1542732817.676,-3.418,86.426,9.766,-55.176,20.020,0
1542732817.680,-4.883,86.426,4.395,-43.457,5.371,0
1542732817.684,12.207,85.449,6.348,-33.203,-53.223,0
1542732817.688,20.508,79.590,10.254,-26.855,38.574,0
1542732817.692,6.348,75.684,8.301,-23.438,64.941,0
1542732817.696,11.230,79.102,5.859,-17.090,41.016,0
1542732817.699,21.973,77.148,9.766,-11.719,61.035,0
1542732817.703,17.578,71.777,13.672,-3.906,61.523,0
1542732817.707,13.184,68.359,15.137,-4.395,69.336,0
1542732817.711,5.859,65.918,12.207,-8.789,34.668,0
1542732817.715,2.930,66.406,11.230,9.277,-1.465,0
1542732817.719,16.113,63.477,12.695,13.672,43.945,0
1542732817.723,32.227,62.500,13.672,12.695,51.270,0
1542732817.727,42.480,59.082,17.090,17.090,60.547,0
1542732817.731,36.621,59.082,18.066,17.578,66.895,0
1542732817.735,38.086,61.523,18.066,23.926,12.695,0
1542732817.739,32.715,52.734,20.996,23.926,26.855,0
1542732817.742,30.273,45.898,22.461,20.020,33.691,0
1542732817.746,34.180,42.480,22.461,26.367,33.203,0
1542732817.750,22.461,36.133,20.508,26.367,59.082,0
1542732817.754,26.855,37.109,22.949,23.926,12.695,0
1542732817.758,30.273,41.504,28.809,29.297,-2.930,0
1542732817.762,28.809,40.039,28.320,27.344,18.555,0
1542732817.766,24.902,38.574,26.855,26.855,35.645,0
1542732817.770,14.648,38.086,28.809,34.180,39.551,0
1542732817.774,17.578,36.621,28.320,38.574,38.574,0
1542732817.778,26.367,36.621,25.391,43.945,23.926,0
1542732817.782,28.320,39.062,24.902,44.922,23.926,0
1542732817.785,31.250,38.574,22.949,41.992,67.871,0
1542732817.789,32.715,35.645,17.090,42.480,4.395,0
1542732817.793,33.691,37.109,15.137,44.434,-6.836,0
1542732817.797,41.992,38.574,17.578,53.223,16.113,0
1542732817.801,43.945,36.621,16.113,53.223,-2.930,0
1542732817.805,34.668,36.133,12.695,50.293,37.109,0
1542732817.809,29.297,38.086,9.766,44.922,23.926,0
1542732817.813,26.367,35.645,14.160,41.016,30.273,0
1542732817.817,31.250,33.203,19.043,38.574,49.805,0
1542732817.821,37.598,34.668,19.043,47.852,38.086,0
1542732817.824,44.434,36.133,19.043,51.758,79.590,0
1542732817.828,42.969,36.621,22.461,47.852,71.777,0
1542732817.832,36.133,32.715,26.367,51.270,17.090,0
1542732817.836,61.523,33.691,14.648,65.918,5.859,0
1542732817.840,80.566,33.691,8.301,89.844,-1.465,0
1542732817.844,57.617,23.438,32.227,70.312,-17.578,0
1542732817.848,13.672,17.090,46.387,36.133,-15.625,0
1542732817.852,23.438,8.789,36.133,45.410,63.965,0
1542732817.856,45.410,0.488,27.344,67.383,75.195,0
1542732817.860,18.555,-10.254,35.645,61.523,44.922,0
1542732817.864,28.320,-18.066,40.039,67.383,43.945,0
1542732817.867,32.227,-14.648,43.457,72.266,53.223,0
1542732817.871,26.855,-18.555,44.922,67.383,62.500,0
1542732817.875,46.875,-23.926,39.062,77.637,46.875,0
1542732817.879,51.270,-24.414,39.062,82.031,40.527,0
1542732817.883,48.828,-20.508,43.945,93.262,30.762,0
1542732817.887,44.434,-14.648,47.852,90.332,24.902,0
1542732817.891,38.574,-9.766,45.410,72.754,37.109,0
1542732817.895,37.109,-9.766,44.434,74.219,41.016,0
1542732817.899,29.785,-7.324,50.781,75.195,21.973,0
1542732817.903,32.715,-4.883,46.875,63.965,-0.488,0
1542732817.907,37.598,-2.441,39.062,60.059,-5.371,0
1542732817.910,35.645,-0.488,40.039,68.848,7.324,0
1542732817.914,30.762,2.441,42.480,66.406,28.320,0
1542732817.918,34.180,6.836,44.434,57.617,7.812,0
1542732817.922,36.621,7.812,40.039,61.523,-28.320,0
1542732817.926,45.410,7.324,41.504,58.594,5.371,0
1542732817.930,48.340,6.348,45.898,52.246,2.441,0
1542732817.934,35.645,10.254,43.457,54.199,4.883,0
1542732817.938,38.574,15.137,42.969,54.688,24.902,0
1542732817.942,26.367,15.137,44.922,59.570,14.648,0
1542732817.946,18.066,16.113,46.875,65.430,46.875,0
1542732817.949,20.508,20.996,44.922,51.270,65.918,0
1542732817.953,22.461,23.438,43.945,47.363,-12.695,0
1542732817.957,33.691,27.832,41.504,51.758,-14.648,0
1542732817.961,21.484,32.715,41.016,43.457,24.414,0
1542732817.965,-3.418,31.250,45.410,44.922,-43.457,0
1542732817.969,0.977,33.203,44.922,43.457,-51.758,0
1542732817.973,12.695,36.621,41.992,39.551,-18.555,0
1542732817.977,9.766,34.180,41.992,39.062,-17.578,0
1542732817.981,15.625,33.691,41.992,35.156,-33.203,0
1542732817.985,16.113,32.715,38.086,24.414,34.668,0
1542732817.989,11.230,30.273,35.645,25.879,31.250,0
1542732817.992,-6.348,29.297,35.645,31.738,-37.598,0
1542732817.996,-6.348,28.320,33.203,21.484,24.902,0
1542732818.000,5.859,28.809,32.227,25.879,44.922,0
1542732818.004,-4.395,28.809,33.691,38.086,41.992,0
1542732818.008,1.465,31.250,34.668,34.668,-4.883,0
1542732818.012,-2.441,29.297,37.598,25.391,-21.484,0
1542732818.016,0.000,24.414,32.227,24.414,-12.207,0
1542732818.020,31.250,27.832,24.902,43.457,33.203,0
1542732818.024,10.254,27.832,37.109,30.762,17.090,0
1542732818.028,-23.926,26.855,43.457,12.207,-31.250,0
1542732818.032,-9.277,19.043,41.504,26.367,23.926,0
1542732818.035,2.930,10.742,44.922,25.879,54.199,0
1542732818.039,15.137,10.742,48.340,24.902,38.574,0
1542732818.043,21.484,7.812,50.293,40.039,52.246,0
1542732818.047,4.395,12.695,47.852,42.480,87.402,0
1542732818.051,9.766,20.508,44.434,31.738,86.914,0
1542732818.055,32.227,18.555,43.945,31.738,72.266,0
1542732818.059,13.184,15.625,44.434,28.320,54.688,0
1542732818.063,3.906,20.996,42.969,20.508,-7.324,0
1542732818.067,5.859,23.926,43.457,37.598,30.762,0
1542732818.071,0.977,20.508,45.410,39.551,51.758,0
1542732818.074,2.930,20.020,43.457,15.625,31.250,0
1542732818.078,4.395,20.996,41.992,12.695,55.176,0
1542732818.082,0.977,21.484,41.992,16.113,35.156,0
1542732818.086,7.324,24.902,42.480,22.949,11.230,0
1542732818.090,15.137,28.809,43.945,29.785,70.312,0
1542732818.094,15.137,29.297,47.363,32.715,79.590,0
1542732818.098,27.832,27.344,50.293,37.109,-13.672,0
1542732818.102,28.809,30.762,44.922,37.109,-22.949,0
1542732818.106,20.996,34.668,38.086,29.785,60.059,0
1542732818.110,33.691,36.133,38.086,33.203,100.586,0
1542732818.114,35.645,39.062,34.668,33.691,99.121,0
1542732818.117,26.855,36.133,31.738,33.691,26.855,0
1542732818.121,33.691,31.250,37.598,42.480,-13.184,0
1542732818.125,34.180,30.762,38.086,38.086,37.109,0
1542732818.129,27.832,33.203,34.668,30.762,41.504,0
1542732818.133,24.414,34.668,36.133,34.180,44.922,0
1542732818.137,26.367,34.668,37.598,25.391,88.379,0
1542732818.141,28.320,35.645,37.109,13.672,88.379,0
1542732818.145,27.344,35.645,36.133,17.578,35.645,0
1542732818.149,33.203,34.180,35.645,20.996,46.387,0
1542732818.153,27.344,32.715,34.668,19.531,69.336,0
1542732818.157,22.461,32.715,33.691,19.531,9.277,0
1542732818.160,30.273,34.180,27.344,15.137,50.293,0
1542732818.164,33.203,34.180,26.855,21.973,103.027,0
1542732818.168,31.738,34.180,30.273,26.367,67.871,0
1542732818.172,45.410,36.133,29.785,34.180,78.125,0
1542732818.176,39.062,37.598,31.738,33.691,62.500,0
1542732818.180,19.043,38.574,32.227,18.066,-27.344,0
1542732818.184,20.508,41.016,30.762,29.785,-17.090,0
1542732818.188,20.508,39.551,28.809,20.508,20.020,0
1542732818.192,26.855,33.691,31.738,1.465,-14.160,0
1542732818.196,23.438,36.133,37.109,9.277,35.156,0
1542732818.199,32.227,38.086,35.645,15.625,81.055,0
1542732818.203,35.156,36.133,31.738,23.438,41.016,0
1542732818.207,20.020,37.598,27.344,12.695,19.043,0
1542732818.211,26.855,39.062,29.785,12.207,32.227,0
1542732818.215,13.672,35.156,33.203,26.855,29.785,0
1542732818.219,19.531,30.762,26.855,28.320,33.691,0
1542732818.223,43.945,26.367,27.344,32.715,47.852,0
1542732818.227,40.527,25.879,31.250,38.086,36.621,0
1542732818.231,18.066,45.898,22.949,7.324,-14.160,0
1542732818.235,-3.906,49.316,19.043,-12.695,4.883,0
1542732818.239,24.414,41.016,18.555,14.648,14.648,0
1542732818.242,46.387,47.363,11.719,38.574,7.812,0
1542732818.246,32.715,51.270,12.207,32.227,5.371,0
1542732818.250,35.645,49.316,12.695,24.902,23.438,0
1542732818.254,35.156,51.270,12.207,22.949,85.938,0
1542732818.258,19.043,50.293,15.625,23.926,48.340,0
1542732818.262,19.531,45.898,17.090,20.020,9.277,0
1542732818.266,31.738,47.852,13.672,16.602,12.207,0
1542732818.270,38.574,50.293,15.625,31.250,-26.367,0
1542732818.274,37.109,49.316,18.555,36.621,5.371,0
1542732818.278,28.809,46.875,12.695,15.137,70.801,0
1542732818.282,40.039,44.434,11.230,5.859,41.992,0
1542732818.285,33.691,43.945,14.160,21.484,22.949,0
1542732818.289,29.785,43.945,14.160,26.855,57.617,0
1542732818.293,41.504,41.016,15.137,31.738,6.836,0
1542732818.297,33.691,37.598,21.484,29.297,16.602,0
1542732818.301,28.809,38.086,20.508,21.484,76.660,0
1542732818.305,31.738,31.738,20.996,23.926,74.219,0
1542732818.309,22.461,30.762,21.973,26.855,110.840,0
1542732818.313,27.832,33.691,18.555,25.391,68.359,0
1542732818.317,32.715,32.227,23.438,31.738,32.715,0
1542732818.321,25.391,36.133,22.949,24.902,24.902,0
1542732818.324,20.996,38.574,22.949,17.090,45.410,0
1542732818.328,28.320,38.574,25.391,25.879,98.145,0
1542732818.332,35.156,39.062,22.949,31.738,50.293,0
1542732818.336,26.855,41.504,19.043,21.973,44.922,0
1542732818.340,20.996,41.016,17.090,11.719,37.598,0
1542732818.344,24.902,41.016,18.066,17.578,55.176,0
1542732818.348,21.973,39.551,15.625,13.184,29.297,0
1542732818.352,16.113,40.039,13.184,14.648,-4.395,0
1542732818.356,29.785,48.340,15.137,20.020,48.828,0
1542732818.360,40.039,48.340,19.043,22.949,49.316,0
1542732818.364,22.949,42.969,22.461,26.855,6.348,0
1542732818.367,28.320,41.504,21.973,16.113,-16.602,0
1542732818.371,28.320,40.527,16.602,16.602,5.371,0
1542732818.375,17.578,40.527,14.160,26.367,17.090,0
1542732818.379,29.297,37.598,18.555,20.996,27.344,0
1542732818.383,29.297,37.109,20.508,20.020,17.578,0
1542732818.387,38.086,45.898,19.531,31.738,33.203,0
1542732818.391,28.320,45.410,17.578,32.715,27.832,0
1542732818.395,16.602,41.992,17.578,27.832,35.645,0
1542732818.399,25.879,43.945,20.508,28.320,42.480,0
1542732818.403,18.066,41.992,25.879,20.996,35.156,0
1542732818.407,27.832,42.480,19.043,29.297,48.340,0
1542732818.410,53.223,47.363,12.695,47.363,65.430,0
1542732818.414,35.645,45.410,27.832,29.297,59.570,0
1542732818.418,10.254,39.551,38.086,7.812,31.738,0
1542732818.422,7.324,37.598,29.297,12.207,-1.465,0
1542732818.426,11.719,31.738,26.855,16.113,-23.438,0
1542732818.430,-8.789,27.832,35.645,-2.930,-49.316,0
1542732818.434,-21.484,29.785,36.621,-8.301,-12.695,0
1542732818.438,-2.441,26.855,44.434,13.184,59.082,0
1542732818.442,4.395,26.855,44.434,15.137,-5.371,0
1542732818.446,3.906,22.949,39.551,11.230,-29.785,0
1542732818.449,15.137,20.996,40.039,21.973,16.602,0
1542732818.453,11.230,25.879,35.156,13.184,24.414,0
1542732818.457,3.418,27.832,34.180,5.859,31.738,0
1542732818.461,28.320,30.762,34.668,18.555,40.527,0
1542732818.465,35.645,30.762,30.762,21.973,7.812,0
1542732818.469,22.461,28.320,29.297,17.578,20.996,0
1542732818.473,21.484,26.367,28.809,11.230,50.781,0
1542732818.477,20.020,28.320,24.902,15.625,22.949,0
1542732818.481,23.438,33.203,30.762,32.227,49.316,0
1542732818.485,19.043,26.367,38.574,26.367,21.484,0
1542732818.489,10.254,20.020,35.645,22.461,8.789,0
1542732818.492,12.207,25.879,32.227,23.926,35.156,0
1542732818.496,16.602,28.320,28.809,14.648,-2.441,0
1542732818.500,15.625,28.809,22.949,12.207,33.691,0
1542732818.504,20.508,31.738,24.414,12.695,111.816,0
1542732818.508,29.785,29.785,32.715,14.648,56.152,0
1542732818.512,24.902,25.391,33.691,18.066,-22.949,0
1542732818.516,25.879,25.391,30.762,20.508,44.922,0
1542732818.520,20.508,27.344,29.297,21.484,80.566,0
1542732818.524,19.531,28.320,23.926,20.020,58.105,0
1542732818.528,25.879,30.762,24.414,19.043,20.020,0
1542732818.532,21.973,30.273,26.855,11.230,-4.883,0
1542732818.535,22.949,31.250,27.344,11.230,16.602,0
1542732818.539,22.461,31.738,28.809,23.438,22.461,0
1542732818.543,18.066,25.391,30.762,20.996,33.691,0
1542732818.547,20.996,25.879,29.785,21.484,31.250,0
1542732818.551,21.484,31.250,28.809,23.438,36.621,0
1542732818.555,23.438,30.273,29.297,31.250,31.250,0
1542732818.559,15.137,30.762,26.855,37.109,-10.254,0
1542732818.563,20.508,33.203,29.297,25.879,40.039,0
1542732818.567,36.621,31.250,34.668,18.555,71.777,0
1542732818.571,19.531,27.832,31.738,26.367,-22.949,0
1542732818.574,18.066,27.344,25.879,23.926,-13.672,0
1542732818.578,33.203,30.273,27.344,19.043,-23.926,0
1542732818.582,26.855,32.227,30.273,31.738,-30.273,0
1542732818.586,18.555,31.738,31.738,32.227,6.836,0
1542732818.590,14.160,32.715,29.297,17.578,18.066,0
1542732818.594,23.438,34.180,27.832,13.672,16.113,0
1542732818.598,24.902,34.180,30.762,21.484,15.625,0
1542732818.602,6.836,32.715,32.715,16.113,79.590,0
1542732818.606,8.789,28.809,32.227,19.043,83.984,0
1542732818.610,18.066,27.832,32.715,17.578,50.781,0
1542732818.614,17.090,36.621,26.367,8.789,21.484,0
1542732818.617,19.043,40.039,19.043,8.789,15.137,0
1542732818.621,24.414,37.109,33.203,6.836,35.156,0
1542732818.625,35.156,38.574,36.133,15.625,25.391,0
1542732818.629,41.016,38.086,30.273,34.668,39.551,0
1542732818.633,36.621,38.086,34.180,37.598,43.945,0
1542732818.637,37.109,41.992,33.691,32.227,42.480,0
1542732818.641,33.691,38.574,33.203,38.086,0.977,0
1542732818.645,32.227,36.621,34.668,43.457,-3.906,0
1542732818.649,28.320,38.574,33.203,43.945,14.648,0
1542732818.653,24.902,39.551,33.691,38.086,18.066,0
1542732818.657,28.809,36.133,31.738,28.320,38.086,0
1542732818.660,16.113,33.691,27.832,23.926,19.043,0
1542732818.664,8.301,34.668,31.738,24.414,15.137,0
1542732818.668,21.484,37.109,34.668,17.578,1.465,0
1542732818.672,16.113,37.109,35.156,14.648,1.953,0
1542732818.676,15.625,37.109,33.691,19.043,29.297,0
1542732818.680,10.742,37.109,31.738,15.625,12.207,0
1542732818.684,17.578,36.621,30.762,11.719,32.227,0
1542732818.688,10.742,38.574,29.785,12.695,58.105,0
1542732818.692,-5.371,37.598,35.156,11.719,58.105,0
1542732818.696,10.742,40.039,32.227,9.766,88.379,0
1542732818.699,22.949,42.969,20.020,15.137,41.504,0
1542732818.703,28.809,33.691,28.809,32.227,-7.812,0
1542732818.707,27.344,35.645,43.945,22.461,-3.418,0
1542732818.711,2.930,39.062,44.434,-3.906,-0.977,0
1542732818.715,-9.766,35.156,43.457,-5.859,46.387,0
1542732818.719,-2.441,36.621,48.340,2.441,110.840,0
1542732818.723,-5.859,35.645,53.711,10.254,89.844,0
1542732818.727,7.812,40.039,56.152,25.391,16.113,0
1542732818.731,12.695,46.875,56.152,21.484,20.020,0
1542732818.735,10.742,46.875,59.082,15.137,9.766,0
1542732818.739,-6.836,44.922,53.223,0.977,-11.230,0
1542732818.742,-36.133,42.969,59.082,-34.180,61.523,0
1542732818.746,-35.156,43.945,73.730,-36.133,77.637,0
1542732818.750,-51.270,40.039,73.242,-44.434,53.711,0
1542732818.754,-56.152,41.992,95.215,-66.406,56.641,0
1542732818.758,-67.871,50.781,122.559,-90.820,46.387,0
1542732818.762,-134.277,56.641,135.742,-145.020,18.066,0
1542732818.766,-168.945,77.148,151.367,-171.387,17.578,0
1542732818.770,-179.688,79.102,175.293,-178.223,39.551,0
1542732818.774,-205.566,81.543,190.918,-204.102,65.430,0
1542732818.778,-233.398,109.375,184.570,-228.516,23.926,0
1542732818.782,-258.301,126.953,185.059,-253.906,15.625,0
1542732818.785,-265.625,126.953,188.965,-270.508,70.801,0
1542732818.789,-257.324,118.164,185.547,-262.207,57.617,0
1542732818.793,-243.164,117.188,176.758,-258.301,48.340,0
1542732818.797,-235.840,133.301,158.203,-250.488,30.762,0
1542732818.801,-218.750,134.277,157.715,-239.258,-20.996,0
1542732818.805,-190.918,124.023,159.668,-225.098,-40.527,0
1542732818.809,-199.219,118.652,141.113,-208.496,8.301,0
1542732818.813,-190.430,110.840,121.582,-180.176,82.031,0
1542732818.817,-152.344,99.609,108.887,-153.320,42.969,0
1542732818.821,-124.023,96.680,92.773,-139.160,-0.977,0
1542732818.824,-89.355,88.379,76.172,-108.398,67.383,0
1542732818.828,-66.406,72.266,63.965,-77.148,58.594,0
1542732818.832,-49.316,62.500,50.781,-59.570,14.648,0
1542732818.836,-18.555,54.199,42.480,-45.898,25.879,0
1542732818.840,4.883,43.457,28.320,-28.809,53.223,0
1542732818.844,18.555,37.109,15.137,-4.395,38.574,0
1542732818.848,14.648,27.344,15.137,21.484,-11.230,0
1542732818.852,27.344,15.625,9.766,25.391,-2.930,0
1542732818.856,41.504,12.695,4.883,27.832,52.734,0
1542732818.860,46.387,12.695,1.953,41.504,33.203,0
1542732818.864,58.594,8.789,-1.953,47.852,43.457,0
1542732818.867,76.172,6.348,0.488,58.594,61.035,0
1542732818.871,83.496,5.371,2.441,67.383,55.664,0
1542732818.875,82.031,4.883,-1.953,84.961,43.945,0
1542732818.879,80.566,4.883,-4.883,79.590,21.973,0
1542732818.883,83.496,4.395,-4.883,77.148,56.152,0
1542732818.887,94.727,5.371,-9.277,92.773,-21.973,0
