timestamps,TP9,AF7,AF8,TP10,Right AUX,Marker0
1553807737.255,56.152,103.516,40.527,73.242,41.016,0
1553807737.259,62.012,105.469,42.480,77.148,84.473,0
1553807737.263,26.367,110.840,25.879,37.109,38.574,0
1553807737.266,24.414,108.887,20.996,37.109,12.695,0
1553807737.270,43.457,108.398,20.508,41.016,51.270,0
1553807737.274,37.109,110.352,17.578,35.156,70.801,0
1553807737.278,28.809,109.863,18.066,33.691,14.160,0
1553807737.282,34.180,114.746,8.789,23.926,-19.531,0
1553807737.286,44.922,121.094,16.113,51.758,32.227,0
1553807737.290,60.059,117.676,35.645,72.266,10.742,0
1553807737.294,48.828,117.676,21.973,51.270,0.488,0
1553807737.298,37.109,121.582,13.184,46.387,79.590,0
1553807737.302,38.086,112.793,17.578,52.246,61.035,0
1553807737.305,36.621,113.770,14.160,52.246,42.969,0
1553807737.309,33.691,110.840,15.137,52.246,64.453,0
1553807737.313,37.109,105.469,14.648,50.781,5.859,0
1553807737.317,48.340,108.887,15.625,52.734,-3.418,0
1553807737.321,42.969,109.375,17.090,48.828,55.176,0
1553807737.325,39.551,106.445,16.602,41.992,61.035,0
1553807737.329,46.875,103.027,19.531,52.734,11.230,0
1553807737.333,46.387,108.887,24.414,54.199,20.020,0
1553807737.337,42.480,109.375,23.438,43.457,39.062,0
1553807737.341,33.691,109.863,24.902,41.504,11.719,0
1553807737.345,38.574,104.980,29.297,45.410,-9.277,0
1553807737.348,35.156,102.051,23.438,40.527,20.508,0
1553807737.352,33.203,95.703,23.926,39.551,40.039,0
1553807737.356,40.039,96.680,25.879,59.082,26.367,0
1553807737.360,40.527,105.957,20.508,62.012,46.875,0
1553807737.364,45.410,97.656,21.484,61.035,9.277,0
1553807737.368,40.527,90.332,27.832,62.012,5.371,0
1553807737.372,39.062,94.727,28.809,60.547,43.457,0
1553807737.376,57.129,101.074,27.832,66.895,29.297,0
1553807737.380,53.711,93.262,29.785,67.871,39.551,0
1553807737.384,41.016,92.285,29.785,63.965,44.922,0
1553807737.388,47.363,99.609,32.715,52.734,43.457,0
1553807737.391,39.062,104.492,32.715,43.457,49.805,0
1553807737.395,29.297,95.703,33.691,35.156,65.430,0
1553807737.399,35.645,93.262,26.855,42.969,51.758,0
1553807737.403,40.039,96.191,26.367,57.617,24.414,0
1553807737.407,31.738,87.402,32.227,58.594,4.395,0
1553807737.411,18.066,84.473,30.762,47.363,0.488,0
1553807737.415,24.902,88.867,36.621,41.992,-14.648,0
1553807737.419,39.551,88.867,33.691,43.457,-18.066,0
1553807737.423,36.621,83.984,27.832,39.062,-2.930,0
1553807737.427,16.602,79.102,31.738,31.250,-8.789,0
1553807737.430,23.438,78.613,31.738,28.320,4.395,0
1553807737.434,32.227,85.449,31.738,40.527,25.391,0
1553807737.438,26.367,88.867,35.645,52.734,58.105,0
1553807737.442,29.785,90.820,32.715,56.152,29.785,0
1553807737.446,30.762,84.961,32.715,49.316,-8.301,0
1553807737.450,29.297,80.078,34.668,46.875,6.836,0
1553807737.454,29.297,85.449,27.832,41.504,52.246,0
1553807737.458,26.855,85.449,26.855,42.969,55.176,0
1553807737.462,28.320,83.008,29.785,41.504,19.043,0
1553807737.466,40.039,85.449,33.203,51.270,39.062,0
1553807737.470,42.969,86.426,31.738,49.805,80.566,0
1553807737.473,49.805,83.984,26.855,30.273,29.297,0
1553807737.477,38.574,88.379,25.391,32.715,15.137,0
1553807737.481,28.320,91.309,29.297,58.594,41.504,0
1553807737.485,35.645,93.262,34.668,71.289,43.457,0
1553807737.489,32.715,95.703,29.297,45.410,41.016,0
1553807737.493,23.438,92.285,27.832,24.414,71.777,0
1553807737.497,23.438,88.379,27.832,29.785,60.059,0
1553807737.501,38.574,86.426,28.809,35.156,94.238,0
1553807737.505,34.180,85.938,28.320,41.992,52.734,0
1553807737.509,18.555,89.355,27.832,37.109,-18.555,0
1553807737.513,19.531,90.332,27.832,38.574,37.109,0
1553807737.516,43.945,92.773,16.113,53.223,66.895,0
1553807737.520,50.781,101.074,18.066,53.223,51.270,0
1553807737.524,16.113,99.609,26.367,35.156,64.453,0
1553807737.528,-1.465,83.984,24.414,25.391,52.734,0
1553807737.532,14.160,77.148,29.785,13.672,23.926,0
1553807737.536,17.090,81.543,29.785,29.785,13.184,0
1553807737.540,9.277,88.867,32.227,42.480,21.484,0
1553807737.544,13.672,82.520,40.039,29.785,35.156,0
1553807737.548,14.648,80.566,42.969,30.273,54.199,0
1553807737.552,18.066,86.426,40.039,25.391,78.613,0
1553807737.555,11.719,87.402,34.668,20.508,53.223,0
1553807737.559,19.043,89.355,31.738,29.297,66.895,0
1553807737.563,26.855,83.008,30.273,33.203,50.781,0
1553807737.567,12.695,84.961,33.203,27.832,-21.484,0
1553807737.571,12.695,85.938,37.598,39.551,26.855,0
1553807737.575,21.973,77.637,39.062,50.293,55.664,0
1553807737.579,30.273,83.496,45.410,41.504,13.672,0
1553807737.583,22.461,97.168,46.875,37.598,53.711,0
1553807737.587,11.230,95.703,40.527,51.270,97.656,0
1553807737.591,14.160,98.145,35.645,41.016,62.012,0
1553807737.595,17.090,103.027,31.250,13.184,33.203,0
1553807737.598,50.293,95.703,24.414,31.738,8.789,0
1553807737.602,52.246,102.051,29.297,53.711,-3.418,0
1553807737.606,35.156,98.145,28.320,52.734,19.043,0
1553807737.610,19.043,86.914,17.578,35.645,33.691,0
1553807737.614,25.879,106.934,33.203,50.781,73.242,0
1553807737.618,45.410,118.164,41.504,83.984,80.078,0
1553807737.622,18.066,102.051,35.645,39.062,41.992,0
1553807737.626,19.531,93.750,21.484,16.602,35.645,0
1553807737.630,46.387,104.004,-12.207,42.969,10.254,0
1553807737.634,43.945,83.984,-13.672,49.805,-20.508,0
1553807737.638,24.902,75.195,19.531,42.480,-36.621,0
1553807737.641,9.277,90.820,50.781,41.992,-7.812,0
1553807737.645,-1.465,75.195,41.016,53.711,3.906,0
1553807737.649,3.906,84.961,15.137,42.969,-8.789,0
1553807737.653,29.297,104.492,12.695,8.301,43.457,0
1553807737.657,77.637,94.238,15.625,41.992,70.801,0
1553807737.661,54.199,78.125,47.852,50.293,38.086,0
1553807737.665,-14.160,74.707,67.871,-8.789,-6.836,0
1553807737.669,10.254,75.684,81.055,1.465,19.043,0
1553807737.673,72.266,81.055,52.246,60.547,35.645,0
1553807737.677,76.660,61.523,2.930,53.223,22.949,0
1553807737.680,1.953,38.574,50.293,-22.949,-9.766,0
1553807737.684,-41.504,46.875,51.758,-39.062,3.418,0
1553807737.688,-34.180,49.805,37.598,-6.348,45.898,0
1553807737.692,-38.574,10.254,112.305,-15.137,49.316,0
1553807737.696,-70.312,-40.039,98.145,-59.570,25.391,0
1553807737.700,-111.816,-27.344,37.598,-107.422,58.105,0
1553807737.704,-62.012,10.742,28.320,-64.941,87.891,0
1553807737.708,-25.391,9.277,14.648,-30.762,94.727,0
1553807737.712,-56.641,-14.648,15.625,-40.527,122.070,0
1553807737.716,-56.152,-16.602,58.105,-49.316,52.734,0
1553807737.720,-55.176,-35.645,35.645,-83.984,38.086,0
1553807737.723,-17.090,-28.809,11.719,-50.781,77.148,0
1553807737.727,0.000,-20.508,50.293,-10.742,-6.836,0
1553807737.731,-41.016,-37.109,80.078,-38.086,-20.020,0
1553807737.735,-69.336,-56.152,68.848,-91.797,27.832,0
1553807737.739,-57.617,-72.754,50.293,-109.375,-8.301,0
1553807737.743,-34.668,-52.734,46.387,-93.262,41.504,0
1553807737.747,-10.742,-40.039,56.641,-65.430,71.777,0
1553807737.751,30.762,-17.578,72.754,-29.785,-15.625,0
1553807737.755,16.113,-27.344,68.359,-31.250,36.133,0
1553807737.759,21.973,-62.500,68.359,-41.992,55.664,0
1553807737.763,16.602,-62.988,97.168,-78.613,-36.621,0
1553807737.766,1.465,-65.918,94.238,-60.059,-55.664,0
1553807737.770,-9.766,-98.145,65.918,-82.031,-5.859,0
1553807737.774,31.738,-93.750,81.055,-58.105,21.973,0
1553807737.778,60.547,-87.891,107.910,-7.812,43.457,0
1553807737.782,1.953,-160.156,80.566,-57.129,46.387,0
1553807737.786,-5.859,-196.777,74.219,-40.527,14.648,0
1553807737.790,-31.250,-216.309,73.730,-67.383,0.488,0
1553807737.794,-28.320,-246.094,54.688,-72.266,-30.762,0
1553807737.798,6.348,-239.746,91.797,-21.973,6.348,0
1553807737.802,15.137,-254.395,123.535,-56.152,10.742,0
1553807737.805,0.000,-290.527,111.328,-125.977,-12.695,0
1553807737.809,5.371,-290.039,116.699,-100.098,3.906,0
1553807737.813,22.461,-287.598,126.465,-76.172,59.570,0
1553807737.817,13.672,-299.805,113.281,-86.914,91.309,0
1553807737.821,10.742,-302.246,85.938,-70.801,117.676,0
1553807737.825,55.176,-287.598,104.492,-10.742,122.070,0
1553807737.829,104.492,-272.461,78.125,29.785,24.902,0
1553807737.833,70.801,-267.578,76.660,-26.855,18.555,0
1553807737.837,11.719,-273.926,140.137,-80.078,12.695,0
1553807737.841,-1.465,-269.043,131.836,-103.027,-7.324,0
1553807737.845,0.000,-259.766,115.234,-93.262,0.000,0
1553807737.848,5.859,-253.906,108.398,-69.824,-4.395,0
1553807737.852,26.855,-230.957,100.586,-38.574,36.621,0
1553807737.856,52.246,-224.609,89.355,-35.156,53.711,0
1553807737.860,57.129,-219.727,65.430,-37.598,53.711,0
1553807737.864,54.199,-211.426,59.570,-29.785,67.871,0
1553807737.868,55.176,-208.984,79.102,-40.039,51.758,0
1553807737.872,44.922,-198.242,80.566,-53.711,38.086,0
1553807737.876,46.875,-208.984,61.523,-33.691,63.477,0
1553807737.880,93.262,-228.027,59.082,0.000,41.504,0
1553807737.884,82.520,-231.445,50.293,-20.508,-8.789,0
1553807737.888,22.461,-193.848,70.312,-55.664,22.461,0
1553807737.891,14.160,-149.902,45.410,-55.664,57.617,0
1553807737.895,27.832,-155.762,18.066,-73.730,73.242,0
1553807737.899,4.395,-164.062,82.031,-73.730,45.898,0
1553807737.903,6.348,-148.438,107.910,-60.547,67.383,0
1553807737.907,24.902,-140.625,84.473,-57.617,72.754,0
1553807737.911,28.809,-139.648,73.730,-51.270,-18.555,0
1553807737.915,21.484,-131.348,47.852,-33.203,32.227,0
1553807737.919,55.176,-127.930,36.133,-20.996,55.664,0
1553807737.923,47.363,-125.977,45.410,-10.254,-5.371,0
1553807737.927,5.859,-111.328,54.688,4.883,-25.879,0
1553807737.930,14.648,-100.586,64.453,-20.996,-8.301,0
1553807737.934,30.762,-99.609,17.578,-20.508,59.082,0
1553807737.938,40.039,-105.469,9.277,-36.621,28.320,0
1553807737.942,42.480,-108.887,80.566,-33.203,34.180,0
1553807737.946,56.152,-91.309,82.520,-16.602,50.781,0
1553807737.950,62.012,-70.312,51.758,24.414,31.738,0
1553807737.954,33.691,-58.105,23.926,53.223,25.879,0
1553807737.958,17.578,-49.316,35.156,0.977,45.898,0
1553807737.962,18.066,-61.035,98.633,-29.785,49.805,0
1553807737.966,-6.836,-78.613,100.586,-26.855,46.387,0
1553807737.970,-1.953,-82.031,85.938,-32.227,-9.277,0
1553807737.973,2.441,-86.426,89.355,-32.715,-27.832,0
1553807737.977,-1.465,-91.309,97.168,4.395,36.133,0
1553807737.981,18.555,-87.891,79.590,17.578,-4.395,0
1553807737.985,0.488,-83.008,62.012,-35.645,-23.438,0
1553807737.989,1.465,-83.984,90.332,-3.906,-23.438,0
1553807737.993,14.648,-89.355,105.957,46.875,16.602,0
1553807737.997,5.371,-85.938,109.863,16.113,58.594,0
1553807738.001,-1.465,-81.055,115.723,49.316,34.668,0
1553807738.005,-14.160,-72.266,96.680,63.965,83.496,0
1553807738.009,14.160,-69.824,86.426,23.438,82.520,0
1553807738.013,39.062,-70.801,87.891,45.898,93.262,0
1553807738.016,48.340,-59.570,100.098,67.383,104.492,0
1553807738.020,52.734,-46.387,104.492,66.895,45.410,0
1553807738.024,16.113,-41.016,87.891,73.242,66.406,0
1553807738.028,9.766,-50.781,73.730,77.637,64.941,0
1553807738.032,4.395,-55.176,67.383,72.266,47.852,0
1553807738.036,15.625,-35.645,68.359,58.105,25.879,0
1553807738.040,52.246,-13.672,68.359,59.570,0.000,0
1553807738.044,60.547,-19.043,75.195,55.664,-3.906,0
1553807738.048,25.879,-29.785,88.867,79.102,25.391,0
1553807738.052,5.371,-20.996,81.055,87.891,49.316,0
1553807738.055,13.184,-15.137,70.801,68.359,20.020,0
1553807738.059,0.488,-14.160,64.941,36.621,14.648,0
1553807738.063,34.668,-5.859,20.996,34.668,9.277,0
1553807738.067,42.969,-8.789,25.391,63.477,29.297,0
1553807738.071,-4.883,-22.949,85.449,61.035,39.551,0
1553807738.075,2.441,-28.320,92.285,54.688,16.602,0
1553807738.079,-54.199,-12.695,78.125,73.242,12.207,0
1553807738.083,-205.566,-11.719,71.777,78.613,-22.461,0
1553807738.087,-262.207,-26.367,62.988,77.637,7.324,0
1553807738.091,-237.305,-26.855,46.387,76.660,36.621,0
1553807738.095,-260.254,-23.926,39.062,85.449,-31.250,0
1553807738.098,-314.453,-27.344,47.852,93.262,25.879,0
1553807738.102,-325.195,-22.949,41.016,65.430,76.660,0
1553807738.106,-327.637,-16.602,32.227,49.316,43.457,0
1553807738.110,-312.500,-19.043,38.574,60.547,21.484,0
1553807738.114,-313.477,-19.531,41.504,78.613,46.387,0
1553807738.118,-310.547,-15.137,38.086,94.727,45.410,0
1553807738.122,-270.020,-9.766,41.016,84.961,14.160,0
1553807738.126,-277.832,-4.883,40.527,72.266,32.227,0
1553807738.130,-281.250,-1.953,34.668,80.566,51.270,0
1553807738.134,-257.324,-4.883,31.738,87.402,28.320,0
1553807738.138,-245.605,-1.953,32.715,78.613,53.223,0
1553807738.141,-245.117,-2.930,33.691,83.984,86.426,0
1553807738.145,-219.727,-8.301,33.203,89.844,61.035,0
1553807738.149,-192.383,-10.254,37.598,92.285,29.297,0
1553807738.153,-191.895,-4.883,38.086,85.938,15.625,0
1553807738.157,-187.012,-1.465,32.227,68.848,0.977,0
1553807738.161,-185.059,-4.883,27.344,57.129,-9.277,0
1553807738.165,-180.664,-10.742,23.926,76.172,41.016,0
1553807738.169,-175.293,-9.766,23.438,77.148,80.078,0
1553807738.173,-130.859,-1.953,20.996,78.613,10.254,0
1553807738.177,-125.977,-2.441,21.973,98.633,18.555,0
1553807738.180,-129.395,-4.395,26.855,115.723,33.203,0
1553807738.184,-114.258,3.906,22.461,92.285,3.418,0
1553807738.188,-124.512,-1.953,25.391,66.895,34.180,0
1553807738.192,-138.184,-5.859,28.320,97.656,21.484,0
1553807738.196,-101.562,-9.277,38.086,148.926,-5.859,0
1553807738.200,-39.551,5.371,45.410,173.828,-10.254,0
1553807738.204,-50.781,23.926,24.902,114.258,72.266,0
1553807738.208,-112.305,14.160,14.648,74.219,51.758,0
1553807738.212,-108.398,23.926,11.230,97.656,-11.230,0
1553807738.216,-121.094,33.691,4.883,110.840,-37.109,0
1553807738.220,-167.480,30.273,2.930,90.332,-17.578,0
1553807738.223,-168.457,32.715,-3.418,62.500,36.621,0
1553807738.227,-163.086,45.898,-10.254,93.262,40.527,0
1553807738.231,-147.949,50.293,-10.254,133.789,45.410,0
1553807738.235,-135.742,47.363,-15.137,107.422,43.457,0
1553807738.239,-117.188,61.035,-25.391,97.656,33.691,0
1553807738.243,-102.051,71.289,-27.832,96.680,61.523,0
1553807738.247,-67.871,74.707,-26.367,122.070,36.621,0
1553807738.251,-63.477,88.867,-33.691,134.766,27.832,0
1553807738.255,-91.797,92.773,-41.504,125.977,51.270,0
1553807738.259,-50.293,92.773,-41.016,125.488,32.715,0
1553807738.263,-14.160,97.168,-38.574,142.090,55.176,0
1553807738.266,-54.688,96.680,-37.598,175.781,69.336,0
1553807738.270,-51.758,104.980,-44.922,156.250,74.219,0
1553807738.274,-16.113,120.117,-46.387,169.434,42.969,0
1553807738.278,-23.926,125.488,-46.387,187.500,59.082,0
1553807738.282,-21.484,129.395,-54.199,167.969,48.828,0
1553807738.286,-5.371,133.301,-52.246,183.105,37.598,0
1553807738.290,15.625,139.160,-51.758,236.816,77.637,0
1553807738.294,18.555,142.090,-56.152,244.629,103.027,0
1553807738.298,35.156,141.602,-53.711,238.770,68.848,0
1553807738.302,53.711,146.484,-54.688,249.023,17.090,0
1553807738.305,51.758,147.461,-55.176,256.348,30.273,0
1553807738.309,63.965,148.438,-56.641,257.812,29.297,0
1553807738.313,46.875,143.066,-50.781,233.887,34.180,0
1553807738.317,51.758,145.020,-48.340,229.004,19.531,0
1553807738.321,57.617,148.926,-50.781,232.422,1.953,0
1553807738.325,67.383,148.926,-44.922,258.789,-9.277,0
1553807738.329,80.566,158.203,-40.527,282.227,-12.207,0
1553807738.333,90.332,155.762,-34.668,261.719,41.992,0
1553807738.337,132.812,148.438,-32.227,285.645,61.035,0
1553807738.341,99.121,137.695,-24.414,284.668,47.363,0
1553807738.345,50.293,129.395,-20.996,236.816,83.496,0
1553807738.348,59.570,128.418,-23.438,225.098,78.125,0
1553807738.352,62.012,116.211,-12.207,247.559,-2.441,0
1553807738.356,48.340,102.539,-6.836,222.168,-17.578,0
1553807738.360,44.434,101.562,-12.207,186.523,42.480,0
1553807738.364,45.410,102.051,-11.719,204.590,85.449,0
1553807738.368,31.250,91.309,-6.348,192.871,86.426,0
1553807738.372,19.043,81.055,1.953,184.570,55.176,0
1553807738.376,25.879,76.172,11.230,196.289,56.152,0
1553807738.380,37.598,71.777,15.625,195.312,40.527,0
1553807738.384,52.246,72.266,14.648,180.176,36.621,0
1553807738.388,68.848,68.359,15.137,172.363,29.297,0
1553807738.391,56.641,59.082,20.508,162.598,24.414,0
1553807738.395,55.664,51.758,21.973,156.738,32.715,0
1553807738.399,56.641,48.828,22.461,145.020,-13.672,0
1553807738.403,29.785,43.457,26.855,130.371,7.324,0
1553807738.407,37.598,41.016,27.832,153.809,64.941,0
1553807738.411,22.949,43.457,28.809,126.953,60.547,0
1553807738.415,28.320,39.062,31.738,74.219,50.293,0
1553807738.419,41.016,41.016,30.273,63.965,36.133,0
1553807738.423,42.480,45.898,24.902,54.199,-4.883,0
1553807738.427,36.621,43.457,25.879,48.828,-25.391,0
1553807738.430,22.461,41.504,31.250,51.270,36.621,0
1553807738.434,24.902,39.062,32.227,63.965,91.797,0
1553807738.438,28.320,39.062,34.668,59.082,46.387,0
1553807738.442,52.246,38.086,36.133,57.129,34.668,0
1553807738.446,43.945,29.297,36.621,51.758,82.520,0
1553807738.450,32.227,25.391,42.969,31.250,84.961,0
1553807738.454,29.297,32.715,48.340,36.133,43.945,0
1553807738.458,27.344,35.156,49.316,62.988,33.203,0
1553807738.462,28.809,35.156,50.781,46.387,48.340,0
1553807738.466,30.273,37.109,48.828,25.879,37.598,0
1553807738.470,44.434,37.109,45.410,20.996,67.871,0
1553807738.473,41.504,36.621,41.504,12.207,72.754,0
1553807738.477,20.508,38.086,38.086,1.465,8.789,0
1553807738.481,17.090,40.039,34.180,-24.902,19.531,0
1553807738.485,28.320,39.551,31.250,-28.809,33.203,0
1553807738.489,28.320,36.621,35.156,-20.996,-17.090,0
1553807738.493,40.527,36.621,36.133,-12.207,27.832,0
1553807738.497,39.062,38.086,28.320,-19.043,31.250,0
1553807738.501,25.391,35.645,27.832,-29.297,-2.441,0
1553807738.505,55.664,30.762,37.598,29.297,31.738,0
1553807738.509,79.590,32.227,46.387,41.992,42.969,0
1553807738.513,40.527,45.898,35.645,-27.344,-2.441,0
1553807738.516,-11.719,48.828,29.297,-43.457,-9.277,0
1553807738.520,10.742,51.758,26.855,-24.902,34.668,0
1553807738.524,66.895,58.594,23.438,0.977,20.508,0
1553807738.528,72.266,59.570,29.297,1.953,25.879,0
1553807738.532,43.945,64.453,24.414,-9.766,25.879,0
1553807738.536,28.809,61.523,21.484,-27.832,-22.949,0
1553807738.540,33.203,49.805,27.832,-56.152,22.461,0
1553807738.544,44.922,49.805,29.785,-52.246,28.809,0
1553807738.548,55.176,51.270,26.855,-53.711,34.668,0
1553807738.552,56.641,41.016,24.902,-60.059,33.691,0
1553807738.555,25.879,40.527,23.926,-70.801,-3.906,0
1553807738.559,26.367,49.805,20.508,-69.824,-23.926,0
1553807738.563,53.223,52.246,20.020,-72.754,-29.297,0
1553807738.567,17.578,52.246,20.508,-90.820,8.301,0
1553807738.571,-5.371,51.758,20.996,-68.848,13.672,0
1553807738.575,14.648,54.199,20.996,-56.641,41.992,0
1553807738.579,6.348,53.223,17.090,-39.551,37.109,0
1553807738.583,-15.625,53.223,18.555,-9.277,11.230,0
1553807738.587,-5.371,56.152,21.973,5.859,8.301,0
1553807738.591,20.020,59.082,18.066,4.883,17.090,0
1553807738.595,25.391,58.105,20.020,20.020,40.527,0
1553807738.598,12.695,55.176,22.949,23.926,46.387,0
1553807738.602,6.348,55.176,16.602,13.672,46.875,0
1553807738.606,4.883,52.734,17.090,13.184,58.594,0
1553807738.610,-1.465,48.828,23.438,4.395,30.273,0
1553807738.614,-9.277,48.828,23.926,5.371,-38.574,0
1553807738.618,0.488,52.734,19.043,25.391,-24.414,0
1553807738.622,13.184,55.176,14.160,9.766,38.086,0
1553807738.626,4.395,53.711,16.602,-5.371,49.805,0
1553807738.630,13.184,57.617,12.207,4.883,29.785,0
1553807738.634,13.672,61.523,12.695,5.371,45.410,0
1553807738.638,-4.395,56.641,24.902,19.043,19.043,0
1553807738.641,8.301,50.781,28.809,36.133,7.812,0
1553807738.645,27.832,52.246,33.691,61.035,33.203,0
1553807738.649,49.316,57.129,33.203,62.988,78.125,0
1553807738.653,56.641,56.152,27.344,60.059,87.402,0
1553807738.657,43.457,51.758,25.391,74.219,19.043,0
1553807738.661,33.203,54.199,20.020,64.453,32.227,0
1553807738.665,27.344,61.523,22.949,55.664,77.637,0
1553807738.669,27.832,59.082,26.367,57.617,44.434,0
1553807738.673,37.598,55.664,21.973,55.664,54.199,0
1553807738.677,24.902,52.734,16.602,74.219,41.992,0
1553807738.680,37.109,53.711,14.648,79.102,40.527,0
1553807738.684,41.016,53.223,17.578,81.543,74.707,0
1553807738.688,21.973,46.387,15.137,62.988,58.594,0
1553807738.692,31.250,49.805,12.695,38.574,43.457,0
1553807738.696,56.152,55.664,20.020,46.387,6.836,0
1553807738.700,45.898,50.781,25.391,31.738,46.875,0
1553807738.704,3.418,46.875,21.484,25.879,34.668,0
1553807738.708,16.113,52.246,19.043,50.781,-24.902,0
1553807738.712,59.570,62.012,23.438,70.801,16.602,0
1553807738.716,55.176,57.617,23.926,80.078,-15.625,0
1553807738.720,46.875,55.176,19.043,85.938,19.043,0
1553807738.723,52.734,57.129,17.090,84.473,70.801,0
1553807738.727,37.598,59.082,19.043,67.871,-33.203,0
1553807738.731,34.180,61.523,21.973,57.617,-33.691,0
1553807738.735,58.594,58.105,16.602,52.734,7.812,0
1553807738.739,49.316,60.059,8.301,54.199,38.086,0
1553807738.743,14.160,54.199,15.625,64.453,83.496,0
1553807738.747,35.156,50.781,22.949,62.988,78.125,0
1553807738.751,40.039,56.152,20.020,61.523,41.504,0
1553807738.755,41.992,58.594,23.438,64.941,21.973,0
1553807738.759,50.781,56.152,33.203,74.219,59.082,0
1553807738.763,38.086,57.617,37.109,91.309,26.855,0
1553807738.766,43.945,58.105,34.180,60.547,39.062,0
1553807738.770,49.805,61.523,29.297,30.273,35.156,0
1553807738.774,17.578,62.012,28.809,44.434,43.457,0
1553807738.778,14.160,52.246,27.832,63.965,126.465,0
1553807738.782,38.574,56.152,19.043,55.176,126.953,0
1553807738.786,77.637,65.430,14.160,60.059,34.668,0
1553807738.790,73.242,61.035,20.020,81.543,-20.020,0
1553807738.794,13.184,51.270,22.949,21.973,6.348,0
1553807738.798,21.484,47.852,23.926,21.973,55.664,0
1553807738.802,43.457,44.922,31.250,56.152,46.875,0
1553807738.805,20.996,41.992,30.762,63.965,19.043,0
1553807738.809,18.555,41.504,26.855,74.707,40.527,0
1553807738.813,34.180,39.062,31.738,58.594,-1.465,0
1553807738.817,31.738,37.598,34.668,65.918,38.086,0
1553807738.821,28.320,33.691,31.738,56.152,36.133,0
1553807738.825,42.480,37.109,33.691,37.598,-2.441,0
1553807738.829,56.641,46.387,35.645,64.453,19.531,0
1553807738.833,34.668,49.805,32.715,74.219,54.199,0
1553807738.837,33.691,47.852,30.273,67.871,45.410,0
1553807738.841,36.133,49.805,28.320,50.781,52.246,0
1553807738.845,31.250,53.223,32.227,26.367,24.414,0
1553807738.848,28.320,52.734,32.227,32.227,13.672,0
1553807738.852,37.598,53.223,28.809,32.227,71.777,0
1553807738.856,36.133,55.176,32.227,41.992,55.664,0
1553807738.860,26.367,56.641,31.250,62.500,-20.996,0
1553807738.864,31.738,64.453,23.438,45.898,14.648,0
1553807738.868,22.461,66.406,23.438,12.695,14.160,0
1553807738.872,41.016,63.477,23.926,22.949,-38.086,0
1553807738.876,46.875,65.430,22.949,33.203,-3.418,0
1553807738.880,31.250,62.988,26.855,34.668,42.969,0
1553807738.884,29.785,61.523,22.461,38.574,20.508,0
1553807738.888,44.922,66.895,22.461,37.598,27.832,0
1553807738.891,40.527,65.430,24.414,30.273,51.758,0
1553807738.895,35.156,64.453,24.902,17.578,18.555,0
1553807738.899,24.414,64.941,27.344,22.949,41.992,0
1553807738.903,9.277,62.500,27.832,39.062,107.422,0
1553807738.907,11.230,61.035,30.762,23.926,70.312,0
1553807738.911,18.555,56.152,30.762,-6.836,-4.883,0
1553807738.915,-0.488,55.664,26.855,-15.625,42.969,0
1553807738.919,-5.371,59.082,21.973,-10.254,100.586,0
1553807738.923,14.648,57.617,21.484,3.418,18.555,0
1553807738.927,12.207,51.758,23.438,-2.441,-19.043,0
1553807738.930,13.672,53.711,22.949,2.441,27.344,0
1553807738.934,30.273,63.477,23.926,24.414,32.227,0
1553807738.938,34.180,63.965,22.949,18.066,46.387,0
1553807738.942,31.738,60.547,24.902,20.508,10.742,0
1553807738.946,16.602,60.547,27.344,34.668,-3.418,0
1553807738.950,7.812,62.012,27.832,34.668,-8.301,0
1553807738.954,25.879,62.012,26.367,42.969,13.672,0
1553807738.958,30.273,60.059,25.879,48.828,55.664,0
1553807738.962,40.039,59.570,28.320,24.902,62.988,0
1553807738.966,42.480,59.570,33.203,35.156,128.906,0
1553807738.970,33.691,65.430,34.180,40.527,51.758,0
1553807738.973,41.992,63.965,28.809,31.250,3.418,0
1553807738.977,18.066,60.059,28.809,24.414,96.191,0
1553807738.981,-3.906,65.918,27.832,25.879,72.266,0
1553807738.985,9.766,62.012,24.902,44.922,45.410,0
1553807738.989,17.578,56.641,29.785,46.387,78.125,0
1553807738.993,31.250,55.664,32.227,33.691,52.246,0
1553807738.997,38.086,53.223,29.785,48.828,43.457,0
1553807739.001,34.180,51.758,31.250,63.477,15.625,0
1553807739.005,45.410,55.664,32.715,71.289,-4.883,0
1553807739.009,63.477,58.105,27.344,68.848,-7.324,0
1553807739.013,20.996,57.617,27.344,69.824,24.414,0
1553807739.016,-5.371,60.547,26.855,51.270,54.688,0
1553807739.020,0.488,60.547,28.809,20.020,47.852,0
1553807739.024,10.254,65.918,30.762,28.809,59.570,0
1553807739.028,18.555,69.336,29.785,32.227,61.035,0
1553807739.032,16.113,66.895,34.180,37.598,37.109,0
1553807739.036,20.508,68.848,29.297,46.875,5.371,0
1553807739.040,-0.488,70.312,23.438,28.809,20.508,0
1553807739.044,2.930,66.406,28.809,20.020,52.246,0
1553807739.048,34.668,59.570,30.273,28.320,64.453,0
1553807739.052,23.926,60.059,26.367,24.902,36.133,0
1553807739.055,14.648,58.105,26.855,41.504,-17.578,0
1553807739.059,31.250,57.129,35.156,69.336,-29.297,0
1553807739.063,26.855,55.176,33.203,51.758,21.973,0
1553807739.067,0.488,61.523,24.414,27.832,57.617,0
1553807739.071,6.836,61.523,27.832,24.902,42.969,0
1553807739.075,16.602,57.129,21.973,13.672,22.949,0
1553807739.079,21.484,57.129,26.855,24.414,25.879,0
1553807739.083,25.391,53.711,31.250,41.992,25.879,0
1553807739.087,23.438,62.500,15.625,33.691,38.574,0
1553807739.091,26.367,65.430,14.160,6.348,0.977,0
1553807739.095,15.137,76.172,19.043,13.184,17.090,0
1553807739.098,21.484,96.191,25.391,37.109,93.750,0
1553807739.102,34.668,97.168,31.738,46.875,110.840,0
1553807739.106,39.551,88.379,30.762,55.176,82.031,0
1553807739.110,67.871,84.473,22.949,35.156,46.387,0
1553807739.114,52.734,91.309,23.926,28.809,58.105,0
1553807739.118,23.438,91.797,22.949,29.785,80.078,0
1553807739.122,41.992,80.566,20.996,4.883,28.320,0
1553807739.126,46.875,81.543,20.020,21.484,11.230,0
1553807739.130,40.527,81.055,20.996,50.293,-4.395,0
1553807739.134,31.738,73.730,27.832,45.410,-45.410,0
1553807739.138,43.457,67.383,27.344,39.062,2.930,0
1553807739.141,62.500,64.941,29.297,29.785,13.672,0
1553807739.145,41.016,60.059,29.297,14.160,52.734,0
1553807739.149,32.715,53.223,27.832,14.648,56.641,0
1553807739.153,53.711,56.152,21.973,9.766,12.207,0
1553807739.157,21.973,68.848,25.879,-7.324,30.273,0
1553807739.161,14.648,75.684,25.391,11.230,49.805,0
1553807739.165,34.668,63.477,20.508,10.742,37.109,0
1553807739.169,37.109,61.035,26.855,0.977,56.641,0
1553807739.173,39.551,63.477,24.414,10.742,50.293,0
1553807739.177,36.621,61.035,24.414,16.602,-27.832,0
1553807739.180,42.969,58.105,31.250,9.277,4.395,0
1553807739.184,34.180,56.641,33.203,9.277,60.059,0
1553807739.188,34.668,59.570,25.879,13.184,15.137,0
1553807739.192,25.391,62.500,29.297,-0.977,29.297,0
1553807739.196,-7.324,59.082,33.203,-13.672,61.035,0
1553807739.200,16.602,52.734,32.227,0.000,53.711,0
1553807739.204,23.438,57.617,33.203,29.297,46.875,0
1553807739.208,19.531,62.500,29.785,29.297,-8.789,0
1553807739.212,44.922,56.152,32.715,-3.906,-46.387,0
1553807739.216,36.133,51.758,33.691,-9.277,45.410,0
1553807739.220,14.648,59.570,27.344,8.301,50.781,0
1553807739.223,9.766,64.453,21.484,6.836,-12.695,0
1553807739.227,20.508,64.453,17.578,12.695,6.348,0
1553807739.231,44.922,61.035,20.508,10.742,41.992,0
1553807739.235,14.160,63.477,20.508,17.578,82.520,0
1553807739.239,15.137,62.500,29.785,30.762,67.383,0
1553807739.243,54.199,61.523,35.645,22.949,37.109,0
1553807739.247,33.691,61.523,30.273,33.203,25.879,0
1553807739.251,1.465,57.617,35.156,32.227,-21.484,0
1553807739.255,10.254,60.059,31.250,29.297,-2.930,0
1553807739.259,54.199,52.734,36.133,52.734,8.789,0
1553807739.263,49.316,47.852,37.109,51.270,-27.344,0
1553807739.266,8.789,55.176,23.926,-1.953,-11.719,0
1553807739.270,-19.043,61.035,20.508,-23.438,-19.531,0
1553807739.274,8.301,71.777,15.625,7.812,5.371,0
1553807739.278,16.113,81.543,8.301,23.926,42.480,0
1553807739.282,5.859,76.172,13.672,18.066,54.688,0
1553807739.286,21.484,65.430,22.949,31.738,42.969,0
1553807739.290,10.254,65.918,22.461,22.461,21.973,0
1553807739.294,11.230,71.777,22.949,27.344,39.062,0
1553807739.298,37.109,72.266,20.996,42.969,24.902,0
1553807739.302,33.691,67.383,15.625,28.320,16.113,0
1553807739.305,21.484,65.430,14.160,12.207,13.672,0
1553807739.309,34.668,73.730,12.207,20.020,26.367,0
1553807739.313,35.156,66.895,19.043,29.785,85.449,0
1553807739.317,13.672,58.594,23.926,42.969,85.449,0
1553807739.321,15.137,64.941,23.438,36.621,86.914,0
1553807739.325,26.367,62.500,19.531,24.902,54.199,0
1553807739.329,23.926,62.988,17.090,24.414,45.898,0
1553807739.333,30.273,64.941,10.742,36.133,107.910,0
1553807739.337,27.832,57.617,16.602,42.969,118.652,0
1553807739.341,29.785,57.617,17.578,15.137,47.852,0
1553807739.345,25.391,57.617,10.254,12.207,5.371,0
1553807739.348,25.391,51.270,19.531,34.668,-36.621,0
1553807739.352,13.184,50.781,29.297,23.926,19.043,0
1553807739.356,5.859,54.199,29.785,25.391,9.766,0
1553807739.360,20.508,57.129,25.879,38.086,2.441,0
1553807739.364,20.508,54.688,24.902,43.945,77.148,0
1553807739.368,17.578,50.781,27.344,35.156,41.016,0
1553807739.372,26.855,57.129,27.344,26.367,74.707,0
1553807739.376,36.621,62.988,13.184,29.785,11.719,0
1553807739.380,22.949,64.941,10.742,20.508,-37.109,0
1553807739.384,52.734,56.641,31.738,25.391,48.828,0
1553807739.388,59.570,52.246,35.156,43.457,44.434,0
1553807739.391,34.180,48.828,25.391,44.922,46.875,0
1553807739.395,34.668,51.758,22.949,23.926,67.871,0
1553807739.399,33.691,60.547,24.902,35.156,21.484,0
1553807739.403,17.578,56.152,22.949,44.922,21.973,0
1553807739.407,25.391,52.246,22.461,32.227,56.641,0
1553807739.411,45.898,57.129,18.555,11.230,59.082,0
1553807739.415,39.551,54.688,10.254,6.348,35.156,0
1553807739.419,23.438,51.270,10.742,27.344,24.902,0
1553807739.423,23.438,50.293,20.508,36.133,45.898,0
1553807739.427,24.414,48.340,28.320,39.062,43.945,0
1553807739.430,24.414,34.180,40.039,36.621,22.949,0
1553807739.434,41.016,29.297,37.598,45.410,19.043,0
1553807739.438,36.621,32.715,34.668,42.480,28.320,0
1553807739.442,40.527,33.691,35.156,23.438,31.738,0
1553807739.446,39.062,39.551,27.832,14.648,32.227,0
1553807739.450,46.875,41.504,20.996,15.625,28.809,0
1553807739.454,48.340,39.551,20.508,6.836,38.086,0
1553807739.458,19.531,41.992,20.996,19.531,28.809,0
1553807739.462,19.043,39.062,23.438,32.715,27.832,0
1553807739.466,35.645,39.551,24.902,24.902,67.871,0
1553807739.470,20.020,42.480,20.508,33.203,54.688,0
1553807739.473,39.062,41.992,21.973,41.016,51.758,0
1553807739.477,47.363,41.504,25.391,31.738,58.105,0
1553807739.481,-4.883,27.344,32.227,5.371,38.086,0
1553807739.485,-19.531,11.719,39.551,-7.324,64.453,0
1553807739.489,-1.465,15.137,41.504,9.766,15.137,0
1553807739.493,8.301,20.508,41.504,20.020,-4.395,0
1553807739.497,7.324,13.184,41.992,38.574,13.184,0
1553807739.501,-2.930,10.742,42.969,32.715,18.555,0
1553807739.505,3.418,9.277,44.922,28.320,66.406,0
1553807739.509,27.832,12.695,41.992,37.109,89.355,0
1553807739.513,42.480,17.578,33.691,20.020,-8.301,0
1553807739.516,35.156,24.414,28.809,15.137,-21.973,0
1553807739.520,29.785,26.367,31.250,17.578,17.578,0
1553807739.524,22.949,28.809,35.645,10.742,28.320,0
1553807739.528,-0.488,33.203,32.227,-3.418,47.852,0
1553807739.532,3.418,31.738,33.691,-7.324,16.602,0
1553807739.536,12.695,33.691,35.645,9.277,28.809,0
1553807739.540,12.695,35.156,31.250,21.484,44.434,0
1553807739.544,29.297,31.250,34.668,29.297,74.219,0
1553807739.548,40.527,25.879,41.504,48.828,71.777,0
1553807739.552,17.578,32.715,39.551,55.664,45.410,0
1553807739.555,7.812,33.203,41.992,35.645,13.672,0
1553807739.559,26.855,25.391,45.410,27.344,-4.395,0
1553807739.563,23.438,34.668,38.086,21.484,35.156,0
1553807739.567,21.973,38.086,40.527,28.809,58.105,0
1553807739.571,28.320,35.645,39.551,41.504,37.109,0
1553807739.575,32.715,37.109,34.668,33.691,25.879,0
1553807739.579,42.969,40.039,37.598,29.785,20.020,0
1553807739.583,42.969,45.410,30.762,26.855,15.137,0
1553807739.587,50.781,51.270,26.855,22.461,52.734,0
1553807739.591,34.180,52.734,24.414,23.438,75.195,0
1553807739.595,12.695,55.664,24.902,26.855,94.727,0
1553807739.598,17.578,57.617,27.344,14.160,80.078,0
1553807739.602,15.625,51.758,24.414,7.812,46.875,0
1553807739.606,26.855,40.527,23.438,17.578,67.383,0
1553807739.610,36.133,38.574,31.250,22.949,98.145,0
1553807739.614,23.438,39.551,40.527,31.250,25.391,0
1553807739.618,21.484,34.668,41.992,42.969,37.598,0
1553807739.622,19.043,37.598,33.691,37.109,104.492,0
1553807739.626,18.066,43.945,28.320,18.555,25.391,0
1553807739.630,16.602,44.434,33.203,26.855,20.020,0
1553807739.634,17.578,39.551,41.016,33.691,41.504,0
1553807739.638,16.113,45.898,35.645,25.391,13.184,0
1553807739.641,21.973,51.758,30.273,25.391,-6.348,0
1553807739.645,37.598,44.434,30.762,34.180,-1.953,0
1553807739.649,33.691,44.434,23.438,35.645,0.000,0
1553807739.653,37.109,45.898,28.320,29.297,-3.906,0
1553807739.657,10.254,46.387,33.203,8.301,58.105,0
1553807739.661,0.977,44.922,26.367,14.648,55.176,0
1553807739.665,11.719,47.852,24.414,21.973,74.707,0
1553807739.669,16.602,52.734,20.020,16.113,66.895,0
1553807739.673,26.855,49.316,20.508,29.297,-4.395,0
1553807739.677,32.227,44.434,25.391,24.414,-8.301,0
1553807739.680,24.902,46.875,20.508,1.953,11.719,0
1553807739.684,31.738,48.828,21.484,2.441,-45.410,0
1553807739.688,35.156,39.062,26.855,0.000,-86.914,0
1553807739.692,21.484,37.598,28.809,6.348,-30.762,0
1553807739.696,14.648,40.527,29.785,24.902,8.789,0
1553807739.700,13.184,36.133,35.645,29.297,27.344,0
1553807739.704,19.531,41.504,34.180,31.738,69.824,0
1553807739.708,33.203,41.504,31.250,26.855,77.148,0
1553807739.712,44.434,42.969,25.391,14.160,52.246,0
1553807739.716,45.410,46.387,23.926,22.949,56.641,0
1553807739.720,33.691,43.457,22.949,28.320,34.180,0
1553807739.723,29.785,41.504,14.648,20.020,-15.625,0
1553807739.727,32.227,45.410,17.578,11.719,0.000,0
1553807739.731,29.297,45.898,22.949,27.832,20.020,0
1553807739.735,27.832,40.039,26.855,36.621,20.508,0
1553807739.739,23.438,42.480,26.855,28.320,20.508,0
1553807739.743,20.996,41.992,23.438,32.227,28.320,0
1553807739.747,41.016,37.598,29.785,41.504,43.457,0
1553807739.751,73.242,39.062,34.668,69.336,82.520,0
1553807739.755,41.992,42.480,28.320,37.598,64.453,0
1553807739.759,0.977,34.668,17.090,-13.184,-8.789,0
1553807739.763,5.859,37.109,16.113,-3.906,33.203,0
1553807739.766,8.789,35.645,21.973,11.230,48.340,0
1553807739.770,-7.324,35.645,17.578,-13.672,34.180,0
1553807739.774,-7.812,36.621,15.625,-20.996,94.727,0
1553807739.778,6.836,36.621,8.789,-0.977,59.082,0
1553807739.782,-0.488,42.480,2.930,-8.789,40.039,0
1553807739.786,-2.441,42.480,14.160,-1.465,1.465,0
1553807739.790,1.953,44.434,24.902,24.414,-31.250,0
1553807739.794,7.324,45.410,21.484,34.668,70.312,0
1553807739.798,8.301,45.410,15.137,15.625,72.754,0
1553807739.802,20.996,45.898,18.066,16.602,32.227,0
1553807739.805,22.949,46.875,19.531,26.367,60.059,0
1553807739.809,18.066,45.898,22.949,20.996,91.797,0
1553807739.813,16.113,43.945,21.484,13.672,90.820,0
1553807739.817,10.254,47.852,12.207,18.555,20.996,0
1553807739.821,12.207,54.199,16.113,27.832,23.438,0
1553807739.825,-0.488,52.734,22.949,20.508,71.777,0
1553807739.829,-4.883,50.293,18.555,14.648,66.406,0
1553807739.833,13.184,51.270,19.531,24.902,44.434,0
1553807739.837,26.367,53.223,19.043,26.367,51.758,0
1553807739.841,43.457,48.828,18.066,20.996,45.898,0
1553807739.845,56.641,51.270,22.949,17.578,46.875,0
1553807739.848,62.988,53.711,23.438,29.785,7.324,0
1553807739.852,81.543,50.781,28.320,50.781,32.715,0
1553807739.856,93.262,54.688,26.367,59.570,49.316,0
1553807739.860,84.961,52.734,23.926,48.340,23.926,0
1553807739.864,77.148,50.781,32.715,50.781,18.555,0
1553807739.868,68.359,53.711,31.738,66.895,28.809,0
1553807739.872,64.453,52.734,20.020,62.988,67.383,0
1553807739.876,75.195,52.246,17.578,57.129,31.738,0
1553807739.880,60.547,54.199,28.320,33.691,-41.504,0
1553807739.884,56.152,55.664,29.785,13.184,2.441,0
1553807739.888,58.105,56.152,19.043,29.785,62.988,0
1553807739.891,40.527,58.594,20.996,37.598,12.207,0
1553807739.895,48.340,55.664,29.297,41.992,14.648,0
1553807739.899,54.199,56.152,33.203,51.270,21.973,0
1553807739.903,51.270,53.223,29.785,55.664,32.227,0
1553807739.907,48.828,56.152,31.250,43.457,47.852,0
1553807739.911,41.504,59.570,32.715,40.039,18.555,0
1553807739.915,36.621,55.664,29.297,42.969,1.953,0
1553807739.919,46.875,55.176,31.250,44.434,23.438,0
1553807739.923,54.688,52.246,30.762,39.062,83.008,0
1553807739.927,48.340,56.641,27.344,37.598,37.109,0
1553807739.930,43.945,62.500,30.273,46.387,35.645,0
1553807739.934,41.992,62.988,37.109,47.363,62.012,0
1553807739.938,48.828,62.988,31.738,47.363,41.504,0
1553807739.942,43.945,58.594,30.273,53.711,57.129,0
1553807739.946,32.227,53.711,26.855,58.594,80.078,0
1553807739.950,41.016,58.594,16.113,43.457,77.637,0
1553807739.954,48.340,57.617,21.484,38.574,3.418,0
1553807739.958,41.504,56.152,24.902,48.828,13.672,0
1553807739.962,36.133,55.664,27.344,50.781,62.012,0
1553807739.966,36.621,51.270,32.227,59.082,53.223,0
1553807739.970,38.574,54.688,31.250,65.918,27.344,0
1553807739.973,42.480,55.176,33.203,73.730,-38.086,0
1553807739.977,33.691,47.852,31.250,79.102,-7.812,0
1553807739.981,24.902,45.898,30.762,50.781,37.109,0
1553807739.985,23.926,37.109,38.574,29.785,42.969,0
1553807739.989,23.438,35.156,27.832,34.668,-8.301,0
1553807739.993,30.762,39.062,22.949,43.945,-45.410,0
1553807739.997,25.879,44.922,24.902,44.434,22.461,0
1553807740.001,22.949,48.828,19.043,49.805,80.078,0
1553807740.005,29.297,42.969,21.973,56.641,59.570,0
1553807740.009,38.574,43.945,25.879,53.711,48.340,0
1553807740.013,35.156,43.945,30.273,60.547,72.754,0
1553807740.016,32.715,36.133,38.574,67.383,92.773,0
1553807740.020,33.203,37.109,36.133,66.406,56.152,0
1553807740.024,38.574,41.992,34.668,74.707,4.883,0
1553807740.028,50.781,43.457,36.133,77.148,28.809,0
1553807740.032,39.551,43.945,22.461,42.480,44.922,0
1553807740.036,31.738,41.016,16.602,32.715,43.457,0
1553807740.040,20.508,48.828,19.043,41.992,42.480,0
1553807740.044,12.207,50.781,22.949,32.227,73.242,0
1553807740.048,25.391,43.945,29.785,36.621,21.973,0
1553807740.052,33.203,47.363,18.066,41.016,0.488,0
1553807740.055,28.320,54.688,11.230,47.852,90.820,0
1553807740.059,20.996,57.129,20.020,44.922,46.875,0
1553807740.063,34.180,50.781,25.879,47.852,-62.988,0
1553807740.067,31.738,54.199,20.996,41.992,-12.695,0
1553807740.071,33.203,56.641,20.996,46.387,50.293,0
1553807740.075,49.316,54.688,19.531,58.105,-5.371,0
1553807740.079,41.992,55.176,15.625,56.641,-46.875,0
1553807740.083,43.945,64.453,22.461,69.824,-37.598,0
1553807740.087,38.574,67.383,29.297,59.570,-8.301,0
1553807740.091,25.879,62.500,28.320,33.203,-4.395,0
1553807740.095,27.344,66.406,31.738,41.016,45.410,0
1553807740.098,29.297,70.801,25.879,40.039,42.480,0
1553807740.102,27.344,79.590,18.555,34.668,10.742,0
1553807740.106,26.855,77.637,21.973,43.945,62.988,0
1553807740.110,29.785,67.871,20.020,39.551,47.363,0
1553807740.114,18.555,68.359,22.461,40.527,10.254,0
1553807740.118,21.973,73.242,29.297,44.922,42.480,0
1553807740.122,36.621,79.590,25.391,48.828,42.480,0
1553807740.126,44.922,91.309,24.902,59.082,16.602,0
1553807740.130,40.527,96.680,32.715,64.453,3.418,0
1553807740.134,35.156,100.098,33.691,50.781,39.551,0
1553807740.138,29.785,105.469,30.762,49.805,71.777,0
1553807740.141,15.625,102.539,34.668,48.340,49.316,0
1553807740.145,7.324,105.957,36.621,32.227,67.871,0
1553807740.149,23.438,113.770,33.203,35.156,50.293,0
1553807740.153,30.762,120.117,36.133,47.852,41.016,0
1553807740.157,21.973,119.141,33.203,49.805,87.402,0
1553807740.161,28.809,115.234,33.691,44.922,28.320,0
1553807740.165,38.574,126.465,36.133,58.105,-25.391,0
1553807740.169,45.898,133.789,33.691,66.406,-2.930,0
1553807740.173,39.551,140.625,29.297,53.711,15.137,0
1553807740.177,20.508,146.973,28.809,40.527,25.879,0
1553807740.180,19.531,145.996,27.832,45.898,29.785,0
1553807740.184,19.531,158.691,26.855,49.316,21.973,0
1553807740.188,28.809,158.691,26.367,35.156,5.371,0
1553807740.192,41.504,155.273,21.484,32.227,14.648,0
1553807740.196,27.832,159.668,27.832,40.527,61.035,0
1553807740.200,20.020,156.250,26.855,50.293,21.973,0
1553807740.204,34.180,161.621,22.949,53.711,-12.695,0
1553807740.208,31.738,162.598,27.832,53.711,30.273,0
1553807740.212,25.879,162.598,28.320,55.176,76.172,0
1553807740.216,38.086,159.668,35.156,67.871,66.406,0
1553807740.220,46.387,159.180,36.133,83.984,-7.812,0
1553807740.223,31.738,170.410,27.344,61.523,-22.461,0
1553807740.227,5.859,165.039,24.414,31.250,3.906,0
1553807740.231,10.742,155.273,21.973,37.109,50.293,0
1553807740.235,17.090,155.762,25.391,38.086,56.641,0
1553807740.239,8.789,153.809,24.414,29.297,47.852,0
1553807740.243,18.066,151.855,20.996,35.156,20.996,0
1553807740.247,26.367,149.414,25.391,36.621,42.480,0
1553807740.251,30.273,141.113,24.414,46.387,105.469,0
1553807740.255,27.344,136.230,24.414,55.664,133.789,0
1553807740.259,21.973,131.836,23.438,47.363,73.242,0
1553807740.263,22.949,132.812,18.555,41.992,45.898,0
1553807740.266,34.668,129.883,19.043,54.199,45.410,0
1553807740.270,41.504,128.418,18.066,56.641,-20.020,0
1553807740.274,31.738,128.906,22.949,53.711,4.395,0
1553807740.278,28.320,116.699,29.785,44.922,89.844,0
1553807740.282,31.738,115.723,24.902,33.203,71.289,0
1553807740.286,29.785,123.535,23.926,47.852,28.809,0
1553807740.290,33.691,118.652,30.762,55.176,54.688,0
1553807740.294,41.504,112.305,26.367,56.152,60.547,0
1553807740.298,34.668,109.375,21.973,57.129,42.480,0
1553807740.302,39.551,108.887,24.414,55.664,84.473,0
1553807740.305,38.574,115.234,22.949,54.199,33.691,0
1553807740.309,29.785,114.746,20.020,48.828,-17.578,0
1553807740.313,31.738,108.398,21.973,48.828,51.758,0
1553807740.317,25.879,103.027,23.926,53.711,25.879,0
1553807740.321,23.438,98.145,23.926,57.129,19.531,0
1553807740.325,25.391,100.586,26.367,47.363,41.504,0
1553807740.329,26.367,104.980,27.344,47.852,49.316,0
1553807740.333,28.809,104.004,30.273,72.754,61.035,0
1553807740.337,35.645,100.586,30.273,78.125,37.598,0
1553807740.341,41.016,96.680,31.738,59.570,-15.625,0
1553807740.345,40.039,99.609,34.180,52.246,19.531,0
1553807740.348,33.203,100.586,26.367,54.688,65.430,0
1553807740.352,32.227,105.469,12.695,60.547,23.438,0
1553807740.356,79.102,105.469,11.719,109.863,38.086,0
1553807740.360,71.289,91.309,29.785,104.980,39.062,0
1553807740.364,11.719,81.055,38.574,37.598,-21.973,0
1553807740.368,5.371,78.613,40.527,29.297,-19.531,0
1553807740.372,15.625,76.660,42.969,48.828,28.809,0
1553807740.376,33.203,71.289,51.270,61.523,46.387,0
1553807740.380,31.250,64.941,53.223,68.359,-11.719,0
1553807740.384,32.227,56.641,54.688,65.430,-16.602,0
1553807740.388,32.715,52.734,64.453,65.430,-1.465,0
1553807740.391,20.996,49.316,63.477,67.871,29.297,0
1553807740.395,43.457,41.016,70.801,83.496,50.293,0
1553807740.399,45.898,38.086,71.777,80.078,45.898,0
1553807740.403,30.762,41.016,59.082,72.754,50.293,0
1553807740.407,34.180,49.316,56.641,71.777,64.941,0
1553807740.411,33.691,47.363,61.523,80.078,54.688,0
1553807740.415,38.086,49.316,62.500,92.773,4.883,0
1553807740.419,32.227,55.176,59.570,82.520,20.996,0
1553807740.423,28.809,57.129,54.688,76.660,75.684,0
1553807740.427,31.250,53.711,54.688,72.266,61.035,0
1553807740.430,30.762,52.246,56.152,71.777,-3.906,0
1553807740.434,32.227,59.570,49.805,71.289,25.879,0
1553807740.438,42.969,55.664,52.246,74.707,83.984,0
1553807740.442,38.574,61.035,56.152,70.801,53.711,0
1553807740.446,41.992,69.336,52.246,75.684,69.336,0
1553807740.450,45.410,62.012,45.898,69.336,95.703,0
1553807740.454,37.598,65.430,39.551,42.969,61.523,0
1553807740.458,44.922,71.289,31.738,41.504,33.691,0
1553807740.462,36.621,72.754,34.668,45.410,-4.883,0
1553807740.466,33.691,78.613,38.574,48.340,28.320,0
1553807740.470,39.062,82.520,39.551,55.664,35.645,0
1553807740.473,32.227,72.266,43.945,61.035,-9.766,0
1553807740.477,30.762,70.312,40.039,55.664,-5.371,0
1553807740.481,34.180,75.684,34.668,56.641,8.301,0
1553807740.485,40.527,73.730,30.273,59.082,15.137,0
1553807740.489,40.039,69.824,29.297,54.688,26.855,0
1553807740.493,40.039,71.777,33.203,55.176,44.922,0
1553807740.497,36.133,74.707,38.086,60.059,20.996,0
1553807740.501,25.879,69.336,41.992,54.199,17.090,0
1553807740.505,33.691,70.312,37.598,52.734,61.035,0
1553807740.509,37.598,72.754,32.715,53.223,51.270,0
1553807740.513,41.992,78.125,34.180,59.570,-3.906,0
1553807740.516,35.645,80.566,36.133,62.500,4.883,0
1553807740.520,24.414,81.055,32.227,39.551,64.453,0
1553807740.524,33.691,86.426,26.855,42.480,20.508,0
1553807740.528,37.598,89.844,28.320,53.223,-17.090,0
1553807740.532,36.133,90.820,32.715,45.410,23.438,0
1553807740.536,30.762,89.844,32.227,38.574,13.184,0
1553807740.540,26.855,86.426,34.180,41.504,-4.883,0
1553807740.544,25.879,87.402,32.715,39.062,3.418,0
1553807740.548,28.320,86.914,31.738,30.762,10.742,0
1553807740.552,29.297,83.984,32.227,32.715,4.883,0
1553807740.555,30.273,83.496,29.785,38.086,-9.766,0
1553807740.559,40.039,83.984,33.691,42.969,30.273,0
1553807740.563,36.621,86.426,35.156,35.156,48.828,0
1553807740.567,28.809,98.145,28.320,37.109,18.555,0
1553807740.571,27.832,99.609,30.762,49.805,22.949,0
1553807740.575,30.273,98.145,31.250,49.316,23.438,0
1553807740.579,32.715,98.633,26.367,43.457,25.879,0
1553807740.583,32.715,101.074,26.855,37.109,54.688,0
1553807740.587,32.227,104.004,26.367,34.668,72.754,0
1553807740.591,35.156,106.445,25.391,34.668,54.688,0
1553807740.595,42.480,104.004,28.320,43.457,13.672,0
1553807740.598,72.266,98.633,39.062,75.684,-2.930,0
1553807740.602,66.406,106.934,36.133,74.219,-3.906,0
1553807740.606,3.906,114.746,18.066,10.254,-0.977,0
1553807740.610,-11.230,100.098,13.672,-7.324,-6.836,0
1553807740.614,5.371,102.539,12.695,13.184,13.184,0
1553807740.618,-10.742,112.305,6.836,3.418,52.734,0
1553807740.622,-7.812,114.746,5.859,1.953,60.547,0
1553807740.626,-1.465,122.559,-0.488,-3.906,25.391,0
1553807740.630,16.113,126.465,-4.883,11.230,-11.230,0
1553807740.634,9.277,127.441,-5.371,7.812,-0.977,0
1553807740.638,9.766,132.324,-8.301,-1.465,-30.273,0
1553807740.641,35.645,134.766,-11.719,16.602,-19.043,0
1553807740.645,27.344,124.512,-10.742,12.695,28.809,0
1553807740.649,22.461,121.582,-2.441,16.113,35.645,0
1553807740.653,23.438,114.746,-1.953,26.855,4.883,0
1553807740.657,30.273,117.676,-6.348,30.762,41.992,0
1553807740.661,41.016,120.605,0.488,35.156,108.887,0
1553807740.665,51.270,108.887,3.906,39.551,88.379,0
1553807740.669,37.109,104.492,5.859,37.598,61.035,0
1553807740.673,25.391,106.934,9.766,37.598,76.172,0
1553807740.677,40.039,111.328,11.230,48.340,90.332,0
1553807740.680,46.387,114.746,17.090,45.410,46.387,0
1553807740.684,39.062,118.652,21.484,41.504,13.672,0
1553807740.688,35.156,117.188,16.602,47.363,27.832,0
1553807740.692,36.133,105.957,17.578,36.621,5.859,0
1553807740.696,40.039,101.562,16.602,29.297,34.180,0
1553807740.700,35.645,102.539,9.277,26.367,23.438,0
1553807740.704,36.621,102.051,10.742,35.156,-36.133,0
1553807740.708,39.062,98.145,18.555,43.457,-0.488,0
1553807740.712,32.715,92.773,19.043,38.574,27.832,0
1553807740.716,35.645,94.727,18.066,38.574,15.625,0
1553807740.720,43.457,96.680,24.902,41.992,31.738,0
1553807740.723,38.574,93.262,22.949,45.410,20.020,0
1553807740.727,38.086,88.867,22.461,44.922,71.289,0
1553807740.731,44.922,92.285,25.391,44.922,56.641,0
1553807740.735,33.203,89.355,27.832,46.387,7.812,0
1553807740.739,41.504,83.008,29.297,51.270,48.340,0
1553807740.743,46.875,90.820,26.367,52.246,85.938,0
1553807740.747,42.969,95.703,25.879,46.387,85.938,0
1553807740.751,50.781,92.285,27.832,40.527,94.238,0
1553807740.755,44.434,90.332,29.785,41.504,29.785,0
1553807740.759,33.203,90.332,26.367,34.668,24.902,0
1553807740.763,30.762,87.891,27.832,25.879,50.781,0
1553807740.766,41.992,84.473,31.738,42.480,0.000,0
1553807740.770,61.523,85.449,28.320,48.828,10.742,0
1553807740.774,56.641,88.379,28.320,46.387,60.547,0
1553807740.778,36.133,84.473,28.320,51.758,37.598,0
1553807740.782,40.039,82.031,28.320,48.828,43.457,0
1553807740.786,35.645,82.520,30.273,42.480,41.992,0
1553807740.790,31.738,77.637,35.156,45.898,13.672,0
1553807740.794,34.180,79.102,32.227,45.898,24.414,0
1553807740.798,36.621,80.566,28.320,41.016,32.227,0
1553807740.802,65.430,71.777,37.598,71.777,60.059,0
1553807740.805,67.871,76.660,35.645,66.895,7.324,0
1553807740.809,30.762,81.543,20.508,16.602,13.672,0
1553807740.813,19.043,75.684,13.184,5.859,58.594,0
1553807740.817,43.945,78.125,14.160,27.832,33.691,0
1553807740.821,51.270,79.102,14.648,37.598,48.340,0
1553807740.825,45.898,79.590,14.648,46.387,52.246,0
1553807740.829,38.086,83.496,12.695,40.527,-10.254,0
1553807740.833,26.855,80.566,8.789,28.809,17.090,0
1553807740.837,31.738,75.195,14.648,33.691,52.734,0
1553807740.841,42.480,81.055,16.602,35.645,-16.113,0
1553807740.845,53.711,85.938,16.602,51.758,-20.020,0
1553807740.848,48.340,80.078,27.344,48.340,18.066,0
1553807740.852,44.434,79.590,29.785,33.203,27.832,0
1553807740.856,42.969,83.008,17.090,41.992,13.672,0
1553807740.860,33.691,74.707,16.602,41.504,23.438,0
1553807740.864,25.391,71.289,28.320,45.410,31.738,0
1553807740.868,27.832,76.660,31.250,37.109,3.906,0
1553807740.872,35.156,75.684,30.273,28.320,-20.996,0
1553807740.876,32.715,69.824,31.250,40.527,-8.301,0
1553807740.880,29.297,69.336,29.785,38.574,62.012,0
1553807740.884,30.762,69.824,23.438,34.180,33.691,0
1553807740.888,39.062,75.684,19.531,41.992,-27.832,0
1553807740.891,42.969,74.219,21.484,42.480,47.852,0
1553807740.895,38.086,66.895,23.926,32.715,87.402,0
1553807740.899,30.273,64.941,28.809,35.156,38.086,0
1553807740.903,33.691,62.500,30.273,45.898,78.125,0
1553807740.907,36.133,65.430,26.367,41.992,60.059,0
1553807740.911,28.809,62.012,21.973,31.250,20.508,0
1553807740.915,26.367,62.500,18.066,32.715,22.949,0
1553807740.919,36.621,69.824,23.438,37.109,17.578,0
1553807740.923,43.945,72.754,27.832,50.781,38.086,0
1553807740.927,40.039,80.566,28.320,53.711,63.477,0
1553807740.930,50.781,80.078,32.715,48.828,69.336,0
1553807740.934,45.898,77.148,32.227,51.270,80.078,0
1553807740.938,38.574,74.219,25.879,37.598,62.500,0
1553807740.942,38.574,80.566,26.367,32.715,71.289,0
1553807740.946,35.645,77.637,32.227,38.574,73.242,0
1553807740.950,41.504,75.195,30.762,41.992,8.789,0
1553807740.954,33.691,88.379,23.438,36.621,1.953,0
1553807740.958,36.621,87.891,28.320,39.551,34.668,0
1553807740.962,48.340,85.938,33.203,55.176,23.926,0
1553807740.966,41.016,87.402,26.367,61.035,34.180,0
1553807740.970,31.738,87.402,30.762,58.594,39.062,0
1553807740.973,37.598,91.797,37.598,60.059,-23.438,0
1553807740.977,44.434,92.285,38.086,56.152,3.418,0
1553807740.981,38.574,88.379,34.180,44.434,47.363,0
1553807740.985,40.039,85.938,24.414,33.691,27.832,0
1553807740.989,36.133,89.355,22.461,30.762,22.949,0
1553807740.993,54.688,92.285,18.555,59.570,-2.441,0
1553807740.997,83.008,91.309,25.879,89.355,4.883,0
1553807741.001,44.922,85.449,41.504,60.547,23.926,0
1553807741.005,3.906,78.613,38.574,10.742,38.086,0
1553807741.009,26.855,78.613,33.203,24.902,69.824,0
1553807741.013,40.527,71.289,40.039,41.992,-0.488,0
1553807741.016,27.344,63.477,46.387,29.785,-27.832,0
1553807741.020,35.645,62.500,46.875,47.852,47.363,0
1553807741.024,34.668,55.664,50.781,46.875,68.359,0
1553807741.028,36.621,52.246,50.781,29.297,71.777,0
1553807741.032,50.293,58.105,48.340,27.344,43.457,0
1553807741.036,60.059,59.570,49.316,36.621,69.336,0
1553807741.040,70.312,56.641,44.434,45.898,30.273,0
1553807741.044,75.195,61.523,39.062,43.945,-5.859,0
1553807741.048,85.449,62.012,38.086,42.480,49.316,0
1553807741.052,105.469,61.035,41.504,53.223,52.734,0
1553807741.055,112.305,61.035,43.457,53.711,37.109,0
1553807741.059,104.004,53.223,42.480,49.805,14.648,0
1553807741.063,109.375,57.617,42.480,41.992,-8.301,0
1553807741.067,111.328,62.500,44.434,41.992,8.301,0
1553807741.071,105.957,57.129,44.434,42.969,-22.949,0
1553807741.075,100.098,57.129,34.668,29.297,-10.742,0
1553807741.079,102.051,64.453,31.250,26.855,20.996,0
1553807741.083,101.074,65.918,34.668,33.691,20.020,0
1553807741.087,98.633,63.477,31.738,36.133,2.441,0
1553807741.091,111.328,71.777,26.855,35.156,36.133,0
1553807741.095,102.051,73.242,24.902,32.715,66.406,0
1553807741.098,84.473,78.125,25.879,31.250,49.805,0
1553807741.102,81.055,89.355,27.832,32.715,28.320,0
1553807741.106,89.844,95.703,36.133,44.434,11.230,0
1553807741.110,83.984,99.609,37.109,44.922,28.809,0
1553807741.114,82.520,93.262,35.645,41.016,8.301,0
1553807741.118,93.262,90.332,38.086,47.363,-20.996,0
1553807741.122,85.449,94.238,37.109,42.480,30.762,0
1553807741.126,76.660,99.609,35.645,39.062,58.105,0
1553807741.130,81.055,97.168,35.645,44.922,69.824,0
1553807741.134,85.938,91.309,36.621,38.086,45.410,0
1553807741.138,90.332,101.074,33.691,40.527,66.895,0
1553807741.141,98.145,104.980,26.855,52.246,47.363,0
1553807741.145,98.633,102.539,30.762,49.316,30.273,0
1553807741.149,91.797,99.121,35.156,41.504,31.250,0
1553807741.153,90.820,93.750,31.738,33.203,42.480,0
1553807741.157,96.191,95.703,24.902,34.180,42.480,0
1553807741.161,97.168,93.750,21.484,25.879,-15.625,0
1553807741.165,88.867,95.215,22.461,23.926,37.109,0
1553807741.169,93.750,98.633,25.879,28.809,78.125,0
1553807741.173,95.215,102.539,29.297,27.344,30.762,0
1553807741.177,88.867,96.680,29.785,27.832,27.344,0
1553807741.180,99.609,90.332,29.297,33.203,36.621,0
1553807741.184,106.445,100.586,27.832,40.527,30.762,0
1553807741.188,101.074,103.516,30.273,40.527,33.691,0
1553807741.192,91.309,102.539,29.297,34.668,42.480,0
1553807741.196,85.449,99.609,23.438,27.344,75.195,0
1553807741.200,104.980,102.051,19.531,24.902,112.793,0
1553807741.204,198.730,106.445,22.461,26.367,48.828,0
1553807741.208,278.809,103.516,30.273,32.227,-13.672,0
1553807741.212,303.223,96.191,30.273,36.621,74.219,0
1553807741.216,311.523,97.168,29.297,37.598,84.961,0
1553807741.220,309.082,104.492,28.809,43.457,37.109,0
1553807741.223,297.363,99.121,30.762,38.086,10.742,0
1553807741.227,282.715,103.027,29.297,34.180,11.719,0
1553807741.231,264.160,111.328,24.414,32.227,34.180,0
1553807741.235,242.188,105.957,23.926,28.809,22.461,0
1553807741.239,228.027,102.539,27.344,27.832,18.066,0
1553807741.243,221.191,98.145,32.715,29.785,-5.371,0
1553807741.247,216.309,91.309,34.668,37.598,25.391,0
1553807741.251,234.375,96.191,43.945,78.125,76.172,0
1553807741.255,245.605,103.516,43.945,83.984,22.949,0
1553807741.259,197.754,105.957,30.273,36.133,-50.293,0
1553807741.263,155.762,106.445,22.949,18.066,-14.160,0
1553807741.266,169.922,106.445,21.973,31.738,24.414,0
1553807741.270,176.758,113.770,19.531,31.250,2.930,0
1553807741.274,156.250,120.117,17.090,20.508,20.996,0
1553807741.278,165.039,123.047,15.137,40.527,36.133,0
1553807741.282,146.484,126.953,10.254,33.203,37.598,0
1553807741.286,136.719,129.395,15.137,30.273,63.965,0
1553807741.290,137.207,134.277,18.555,45.410,68.848,0
1553807741.294,118.164,128.906,22.949,42.480,27.832,0
1553807741.298,115.234,136.719,21.484,39.551,-1.953,0
1553807741.302,115.723,154.785,11.230,44.922,44.922,0
1553807741.305,115.723,154.785,13.184,47.363,61.035,0
1553807741.309,112.305,155.273,22.461,47.852,28.320,0
1553807741.313,107.910,154.785,19.043,37.598,53.711,0
1553807741.317,99.609,151.367,13.672,30.273,76.172,0
1553807741.321,92.285,152.832,18.555,38.574,66.895,0
1553807741.325,86.426,152.832,21.973,36.621,53.711,0
1553807741.329,75.195,147.949,19.531,41.504,-21.484,0
1553807741.333,74.219,151.367,16.113,41.504,-14.160,0
1553807741.337,87.402,154.785,18.066,37.598,45.898,0
1553807741.341,95.215,154.297,22.949,41.016,48.340,0
1553807741.345,79.102,154.297,22.949,35.156,66.895,0
1553807741.348,67.871,156.250,22.461,32.227,70.801,0
1553807741.352,69.824,159.668,24.414,36.621,42.969,0
1553807741.356,71.289,157.227,24.414,38.086,55.176,0
1553807741.360,66.406,149.414,22.949,33.203,49.316,0
1553807741.364,67.383,145.020,25.391,41.992,71.289,0
1553807741.368,63.477,141.602,25.391,50.781,49.316,0
1553807741.372,55.664,139.160,20.508,51.758,-27.344,0
1553807741.376,54.199,141.602,19.043,46.387,25.391,0
1553807741.380,47.363,137.207,25.391,43.945,54.199,0
1553807741.384,57.129,133.301,28.320,48.828,21.484,0
1553807741.388,62.988,135.742,28.809,47.852,39.062,0
1553807741.391,63.965,136.719,36.621,49.805,10.254,0
1553807741.395,55.176,143.066,34.668,47.363,-27.344,0
1553807741.399,49.805,147.949,22.461,36.133,17.578,0
1553807741.403,79.102,148.926,12.695,51.758,35.156,0
1553807741.407,102.539,149.414,20.996,69.336,14.160,0
1553807741.411,60.059,143.555,29.297,44.434,32.715,0
1553807741.415,17.090,131.836,39.062,17.090,55.176,0
1553807741.419,17.578,122.070,51.270,34.180,67.871,0
1553807741.423,25.391,119.141,50.781,46.875,26.367,0
1553807741.427,27.344,120.117,50.293,30.762,28.809,0
1553807741.430,26.855,122.559,53.711,32.227,58.105,0
1553807741.434,35.645,116.699,57.129,38.086,37.109,0
1553807741.438,31.250,109.375,61.523,37.598,44.434,0
1553807741.442,32.227,108.398,64.941,57.617,59.570,0
1553807741.446,31.250,100.586,66.895,56.152,9.277,0
1553807741.450,40.527,103.027,61.523,54.688,16.113,0
1553807741.454,41.016,103.516,60.547,64.453,22.461,0
1553807741.458,33.203,100.586,64.941,70.312,17.578,0
1553807741.462,40.039,106.934,60.059,74.219,18.066,0
1553807741.466,39.062,111.328,55.176,74.707,14.648,0
1553807741.470,32.227,113.770,55.176,69.824,60.547,0
1553807741.473,27.832,113.281,51.758,60.547,47.852,0
1553807741.477,19.043,103.027,53.223,54.688,0.977,0
1553807741.481,25.391,108.887,58.594,53.711,33.691,0
1553807741.485,40.039,112.793,51.270,61.523,8.301,0
1553807741.489,42.480,109.863,40.039,60.547,9.277,0
1553807741.493,31.250,106.934,41.504,59.570,4.395,0
1553807741.497,27.344,107.910,43.945,58.105,-23.438,0
1553807741.501,34.180,109.375,41.504,52.734,13.672,0
1553807741.505,32.227,101.074,42.480,57.617,27.832,0
1553807741.509,25.879,107.910,42.480,45.410,63.477,0
1553807741.513,32.715,113.770,46.875,48.828,62.500,0
1553807741.516,36.621,111.816,47.363,56.641,43.457,0
1553807741.520,28.320,112.305,41.016,56.152,53.223,0
1553807741.524,24.414,111.328,41.016,58.594,54.199,0
1553807741.528,25.391,108.887,45.898,58.594,84.473,0
1553807741.532,26.367,103.516,46.387,56.152,93.262,0
1553807741.536,15.137,102.051,44.922,50.293,135.742,0
1553807741.540,15.137,96.191,42.969,49.805,106.445,0
1553807741.544,28.320,98.145,41.016,56.641,47.363,0
1553807741.548,21.484,101.562,38.574,50.781,44.434,0
1553807741.552,16.113,104.004,33.691,37.109,49.316,0
1553807741.555,18.555,114.258,33.691,27.344,119.629,0
1553807741.559,16.113,116.211,43.945,41.992,56.152,0
1553807741.563,19.531,108.398,50.293,52.734,22.461,0
1553807741.567,16.602,107.910,39.062,41.504,18.555,0
1553807741.571,21.973,110.840,34.180,38.086,-3.906,0
1553807741.575,23.926,111.816,38.574,45.898,40.039,0
1553807741.579,21.484,112.793,38.574,50.781,50.781,0
1553807741.583,23.926,111.816,38.086,42.969,27.344,0
1553807741.587,26.367,114.746,36.133,41.992,20.508,0
1553807741.591,21.973,116.211,34.180,41.504,0.977,0
1553807741.595,21.484,115.234,33.691,40.039,-12.207,0
1553807741.598,11.719,120.117,32.715,15.625,16.602,0
1553807741.602,12.695,115.234,31.250,13.672,73.242,0
1553807741.606,26.367,117.676,29.785,43.945,77.148,0
1553807741.610,24.414,120.117,28.809,44.434,54.688,0
1553807741.614,28.809,116.211,31.738,37.109,62.500,0
1553807741.618,22.949,122.070,35.645,41.016,46.387,0
1553807741.622,16.113,119.629,35.645,44.434,-15.625,0
1553807741.626,20.996,115.234,35.156,41.016,-7.812,0
1553807741.630,24.414,117.676,31.250,41.504,11.230,0
1553807741.634,27.344,115.723,27.344,40.527,37.109,0
1553807741.638,28.809,121.094,30.762,40.039,29.785,0
1553807741.641,22.461,120.605,38.086,31.250,16.113,0
1553807741.645,11.230,114.258,40.039,22.461,17.578,0
1553807741.649,4.395,117.676,33.203,25.391,48.828,0
1553807741.653,13.672,120.605,35.645,29.297,83.984,0
1553807741.657,20.996,113.281,40.039,37.109,50.781,0
1553807741.661,12.695,104.980,37.109,42.480,30.273,0
1553807741.665,11.719,106.445,41.016,36.621,44.434,0
1553807741.669,8.301,104.980,43.945,29.297,62.012,0
1553807741.673,3.906,108.887,38.574,22.461,62.012,0
1553807741.677,4.395,109.375,36.133,22.949,39.062,0
1553807741.680,5.371,100.586,33.203,22.461,46.875,0
1553807741.684,12.695,105.957,27.832,16.602,89.355,0
1553807741.688,22.461,113.281,30.762,26.855,58.594,0
1553807741.692,20.996,107.910,34.668,32.715,36.621,0
1553807741.696,11.719,105.957,30.762,37.109,65.918,0
1553807741.700,13.672,107.422,32.715,36.133,72.266,0
1553807741.704,13.672,104.004,42.969,25.391,27.344,0
1553807741.708,9.766,101.074,48.828,27.344,26.855,0
1553807741.712,11.230,102.051,46.387,29.785,60.059,0
1553807741.716,15.137,104.980,37.598,25.879,36.133,0
1553807741.720,17.578,104.004,33.691,23.926,-6.836,0
1553807741.723,25.391,106.445,35.156,26.367,-1.465,0
1553807741.727,25.879,103.516,39.551,35.156,16.113,0
1553807741.731,15.137,91.797,40.039,33.203,0.000,0
1553807741.735,19.043,94.238,33.691,22.461,50.781,0
1553807741.739,20.508,95.215,31.738,22.949,73.730,0
1553807741.743,22.949,93.750,23.926,19.531,41.016,0
1553807741.747,25.391,94.727,24.414,12.207,44.922,0
1553807741.751,15.625,98.145,33.203,16.113,43.945,0
1553807741.755,15.137,105.469,30.273,20.996,26.367,0
1553807741.759,18.555,103.516,35.156,36.621,43.945,0
1553807741.763,25.391,98.633,37.109,40.039,-3.418,0
1553807741.766,22.949,98.633,32.227,24.902,14.160,0
1553807741.770,30.273,97.168,32.715,37.109,65.918,0
1553807741.774,33.203,92.285,34.668,41.504,40.039,0
1553807741.778,17.578,88.867,29.297,32.227,62.500,0
1553807741.782,20.996,87.891,27.832,31.738,66.406,0
1553807741.786,21.484,91.797,34.180,30.273,47.363,0
1553807741.790,16.602,89.844,33.203,27.344,49.805,0
1553807741.794,20.020,82.031,27.344,36.133,33.691,0
1553807741.798,22.949,83.984,25.879,39.551,-8.301,0
1553807741.802,14.160,89.355,34.668,28.809,8.789,0
1553807741.805,17.090,92.773,31.738,28.809,24.414,0
1553807741.809,32.227,93.262,29.297,37.109,12.207,0
1553807741.813,31.738,91.797,33.203,28.320,32.715,0
1553807741.817,20.020,93.262,31.250,20.020,-9.277,0
1553807741.821,11.719,95.215,28.809,22.949,-8.301,0
1553807741.825,17.090,90.820,29.785,24.414,-16.113,0
1553807741.829,19.531,84.961,32.227,41.016,-22.949,0
1553807741.833,10.742,86.426,32.227,36.133,11.230,0
1553807741.837,13.672,86.914,34.180,21.484,35.645,0
1553807741.841,32.715,83.008,32.227,33.203,91.309,0
1553807741.845,30.762,81.055,28.809,41.504,44.922,0
1553807741.848,16.602,79.590,30.762,26.855,49.805,0
1553807741.852,14.160,78.125,34.668,24.902,61.523,0
1553807741.856,20.996,67.871,31.738,31.738,12.207,0
1553807741.860,35.156,67.871,27.344,29.785,7.812,0
1553807741.864,27.344,82.031,28.320,23.926,12.207,0
1553807741.868,12.695,78.613,24.902,14.160,20.996,0
1553807741.872,12.207,75.684,21.484,5.371,51.270,0
1553807741.876,16.113,79.102,25.879,28.809,72.754,0
1553807741.880,16.602,74.219,26.855,38.574,42.480,0
1553807741.884,25.879,80.078,22.949,33.203,27.344,0
1553807741.888,34.180,83.008,25.879,38.086,21.484,0
1553807741.891,26.855,81.543,29.297,41.992,-0.488,0
1553807741.895,28.320,82.520,25.879,47.363,-45.898,0
1553807741.899,24.414,76.660,22.949,23.438,-27.344,0
1553807741.903,19.043,83.496,21.973,14.160,12.207,0
1553807741.907,30.762,91.309,20.508,27.832,20.996,0
1553807741.911,40.039,83.984,23.926,27.832,48.828,0
1553807741.915,32.227,78.613,23.926,29.297,53.223,0
1553807741.919,25.879,78.125,19.043,31.738,34.668,0
1553807741.923,27.832,82.520,23.926,45.410,23.438,0
1553807741.927,11.719,75.684,25.879,37.598,20.020,0
1553807741.930,3.906,67.871,24.902,11.719,13.184,0
1553807741.934,11.719,70.312,24.414,14.648,45.410,0
1553807741.938,4.395,66.406,26.367,14.648,35.645,0
1553807741.942,3.418,69.824,30.273,22.461,23.926,0
1553807741.946,10.254,76.660,27.344,24.414,51.758,0
1553807741.950,23.438,75.195,24.414,26.855,83.008,0
1553807741.954,33.691,76.660,24.414,41.016,61.523,0
1553807741.958,32.715,78.125,25.879,41.992,34.668,0
1553807741.962,35.156,70.312,26.367,37.598,58.594,0
1553807741.966,39.062,66.406,25.879,33.203,60.059,0
1553807741.970,23.926,71.289,23.926,32.715,-4.395,0
1553807741.973,21.484,73.730,23.438,36.133,3.418,0
1553807741.977,28.320,75.195,27.344,35.645,41.992,0
1553807741.981,31.250,76.660,26.367,34.668,57.129,0
1553807741.985,33.691,76.172,23.926,34.668,53.223,0
1553807741.989,27.344,71.289,23.926,30.273,-41.992,0
1553807741.993,27.832,71.289,23.438,40.527,-3.906,0
1553807741.997,19.043,74.707,23.926,32.715,55.176,0
1553807742.001,28.809,65.430,33.203,39.551,35.645,0
1553807742.005,68.848,61.523,42.969,96.191,19.531,0
1553807742.009,59.082,67.871,36.621,71.777,52.734,0
1553807742.013,7.812,73.730,23.438,20.508,34.180,0
1553807742.016,-17.090,73.242,16.602,0.000,26.367,0
1553807742.020,-3.906,73.242,15.137,-10.742,63.965,0
1553807742.024,0.488,88.867,14.160,3.418,20.508,0
1553807742.028,-20.508,90.332,5.859,-9.277,8.301,0
1553807742.032,-8.789,87.402,-2.441,-4.395,31.250,0
1553807742.036,16.602,96.191,-9.277,-1.465,19.531,0
1553807742.040,29.785,99.609,-20.020,8.789,13.184,0
1553807742.044,19.043,97.656,-19.043,15.137,-6.836,0
1553807742.048,34.180,97.656,-9.277,13.672,19.531,0
1553807742.052,39.062,104.004,-6.348,20.508,41.016,0
1553807742.055,24.414,100.098,-5.859,18.555,20.508,0
1553807742.059,31.738,95.215,-5.859,24.414,33.691,0
1553807742.063,36.133,94.727,-0.488,22.949,81.055,0
1553807742.067,54.199,95.215,-3.906,32.715,60.059,0
1553807742.071,62.988,94.727,-4.883,38.086,12.207,0
1553807742.075,36.621,83.984,4.883,26.855,22.949,0
1553807742.079,27.344,83.008,9.277,19.531,56.641,0
1553807742.083,31.250,82.031,12.207,24.414,74.707,0
1553807742.087,31.738,80.078,8.301,37.598,65.918,0
1553807742.091,29.297,83.008,4.395,31.250,67.383,0
1553807742.095,31.250,81.543,9.277,32.227,31.250,0
1553807742.098,34.668,81.543,18.066,31.738,39.062,0
1553807742.102,34.180,78.613,20.996,33.691,65.918,0
1553807742.106,27.832,73.730,17.090,31.250,-3.418,0
1553807742.110,22.949,72.266,10.254,17.578,-15.625,0
1553807742.114,19.531,72.754,15.137,21.484,50.293,0
1553807742.118,23.438,70.312,20.020,28.809,31.250,0
1553807742.122,34.180,70.312,23.926,32.715,36.133,0
1553807742.126,35.645,75.195,30.762,38.086,64.453,0
1553807742.130,26.855,77.637,27.832,39.062,37.109,0
1553807742.134,18.555,75.195,24.414,42.480,29.785,0
1553807742.138,28.320,69.336,29.297,48.828,42.969,0
1553807742.141,36.133,71.289,27.344,39.062,61.035,0
1553807742.145,26.855,81.055,23.438,23.438,103.027,0
1553807742.149,27.832,80.078,25.391,28.320,93.262,0
1553807742.153,31.250,73.730,27.344,24.902,75.684,0
1553807742.157,27.344,77.637,27.344,15.625,41.016,0
1553807742.161,32.227,78.613,25.879,34.668,50.781,0
1553807742.165,26.367,70.312,26.367,38.086,71.777,0
1553807742.169,20.020,68.848,25.879,39.551,10.254,0
1553807742.173,26.367,76.172,20.508,40.039,-25.879,0
1553807742.177,24.902,72.754,25.391,30.762,-6.348,0
1553807742.180,17.090,66.895,28.320,26.367,-1.953,0
1553807742.184,25.391,71.289,26.855,31.738,3.906,0
1553807742.188,25.879,68.848,30.762,33.691,50.781,0
1553807742.192,17.578,62.988,34.180,34.180,53.711,0
1553807742.196,21.484,65.430,34.180,43.457,-7.812,0
1553807742.200,20.020,68.359,28.809,38.574,44.434,0
1553807742.204,22.949,59.082,29.297,39.551,100.586,0
1553807742.208,20.996,45.410,34.180,53.711,59.082,0
1553807742.212,23.438,36.621,39.062,44.434,73.242,0
1553807742.216,30.762,33.691,35.645,26.367,71.289,0
1553807742.220,26.367,35.645,28.809,31.738,-5.859,0
1553807742.223,29.785,41.992,35.645,47.852,-20.020,0
1553807742.227,45.410,45.898,36.133,49.805,75.195,0
1553807742.231,39.062,40.039,33.691,40.039,52.246,0
1553807742.235,24.902,37.598,32.227,34.668,-42.480,0
1553807742.239,29.785,36.133,28.809,37.598,-25.391,0
1553807742.243,31.250,32.227,27.832,31.250,-48.340,0
1553807742.247,23.438,33.691,28.320,25.391,10.254,0
1553807742.251,8.789,26.367,29.785,30.273,63.477,0
1553807742.255,13.672,24.902,32.227,34.180,22.461,0
1553807742.259,14.648,27.832,36.621,38.086,9.277,0
1553807742.263,2.441,24.902,37.109,31.250,25.391,0
1553807742.266,6.348,30.273,29.297,32.715,66.895,0
1553807742.270,13.672,38.086,28.809,35.156,50.293,0
1553807742.274,11.719,41.992,33.203,28.320,2.441,0
1553807742.278,13.184,46.875,32.227,30.273,20.020,0
1553807742.282,21.484,39.551,38.086,43.945,43.945,0
1553807742.286,24.902,31.250,39.062,43.457,40.039,0
1553807742.290,21.973,39.062,32.715,38.086,4.883,0
1553807742.294,14.648,40.039,27.832,39.551,3.906,0
1553807742.298,27.832,41.016,27.832,46.875,84.473,0
1553807742.302,51.758,44.434,34.668,64.453,101.562,0
1553807742.305,31.738,44.434,36.133,35.645,40.039,0
1553807742.309,8.301,45.410,27.344,7.324,19.531,0
1553807742.313,20.020,45.898,22.461,16.113,48.828,0
1553807742.317,16.113,45.898,24.414,7.812,22.949,0
1553807742.321,12.207,49.316,21.973,3.906,28.809,0
1553807742.325,21.973,50.781,20.508,24.902,22.461,0
1553807742.329,13.672,51.758,22.949,31.250,-7.812,0
1553807742.333,23.926,52.246,21.973,32.227,15.137,0
1553807742.337,40.039,53.711,23.438,37.109,39.551,0
1553807742.341,44.434,52.246,24.902,41.016,16.113,0
1553807742.345,39.551,48.828,20.996,42.480,-5.371,0
1553807742.348,33.691,40.039,24.414,35.156,8.789,0
1553807742.352,37.109,44.922,25.391,31.250,6.348,0
1553807742.356,37.109,54.199,24.902,41.992,24.902,0
1553807742.360,38.086,48.340,33.691,41.504,17.090,0
1553807742.364,28.320,48.340,32.227,37.109,-11.230,0
1553807742.368,17.578,49.805,33.691,32.715,15.137,0
1553807742.372,27.344,47.363,34.668,32.227,55.176,0
1553807742.376,36.621,43.457,27.344,37.109,89.844,0
1553807742.380,28.320,43.945,26.855,41.992,35.156,0
1553807742.384,24.414,49.805,28.809,42.969,-5.859,0
1553807742.388,26.367,52.246,28.320,34.180,27.832,0
1553807742.391,33.691,51.758,28.320,37.109,55.664,0
1553807742.395,34.180,49.316,31.250,31.738,83.496,0
1553807742.399,28.809,50.781,29.297,24.414,80.078,0
1553807742.403,22.461,50.781,29.297,30.273,7.324,0
1553807742.407,21.484,48.828,32.715,26.855,48.340,0
1553807742.411,30.273,48.828,27.344,34.668,66.406,0
1553807742.415,41.016,50.781,28.320,44.922,26.855,0
1553807742.419,44.434,54.199,35.156,44.434,36.133,0
1553807742.423,43.945,52.246,34.180,40.039,26.367,0
1553807742.427,45.410,43.457,32.715,36.133,-0.977,0
1553807742.430,28.809,45.410,30.273,32.227,3.418,0
1553807742.434,24.414,53.223,36.133,33.203,12.695,0
1553807742.438,36.621,51.270,35.645,34.668,-13.184,0
1553807742.442,27.344,54.199,26.855,26.855,3.418,0
1553807742.446,20.508,57.617,30.273,35.645,0.488,0
1553807742.450,16.113,57.617,35.156,29.785,34.180,0
1553807742.454,17.090,55.176,34.180,24.414,11.230,0
1553807742.458,24.414,60.059,33.203,34.180,-4.883,0
1553807742.462,24.414,61.523,30.273,34.668,26.855,0
1553807742.466,26.367,54.199,31.250,28.320,7.324,0
1553807742.470,25.391,54.199,34.180,26.367,38.574,0
1553807742.473,25.391,52.246,28.809,34.180,41.504,0
1553807742.477,26.855,50.293,27.832,39.062,12.695,0
1553807742.481,23.926,51.758,31.738,39.062,46.875,0
1553807742.485,26.367,54.199,25.879,25.879,13.184,0
1553807742.489,34.668,59.570,20.020,22.949,27.344,0
1553807742.493,38.574,58.105,27.832,41.504,49.805,0
1553807742.497,45.898,53.711,33.203,40.527,37.109,0
1553807742.501,41.504,52.734,29.785,32.227,72.754,0
1553807742.505,27.832,57.617,28.320,34.180,68.359,0
1553807742.509,25.391,58.105,26.367,33.691,62.500,0
1553807742.513,18.555,61.523,28.809,27.832,49.316,0
1553807742.516,19.531,66.406,32.715,35.645,7.812,0
1553807742.520,18.555,63.965,32.227,31.250,-10.254,0
1553807742.524,16.602,62.012,23.926,24.902,9.766,0
1553807742.528,35.156,67.871,17.090,41.992,72.266,0
1553807742.532,36.133,62.988,25.879,35.156,18.555,0
1553807742.536,6.348,57.617,33.203,11.719,-8.789,0
1553807742.540,-15.625,53.711,31.738,4.395,55.664,0
1553807742.544,-2.441,44.922,33.691,22.461,29.785,0
1553807742.548,11.230,38.574,40.039,32.227,18.066,0
1553807742.552,2.930,39.062,41.504,21.484,21.484,0
1553807742.555,18.066,39.551,43.945,36.621,8.301,0
1553807742.559,11.719,40.527,45.410,42.480,-4.883,0
1553807742.563,0.488,41.016,43.457,34.180,23.438,0
1553807742.567,15.625,42.969,41.504,33.691,7.812,0
1553807742.571,20.020,39.551,41.016,34.180,11.719,0
1553807742.575,15.137,38.574,41.016,22.461,66.406,0
1553807742.579,17.090,45.410,37.109,25.391,41.504,0
1553807742.583,13.184,48.340,36.621,35.156,0.977,0
1553807742.587,10.254,44.922,37.598,34.668,1.465,0
1553807742.591,17.578,41.992,39.551,34.180,28.809,0
1553807742.595,27.832,45.410,41.504,49.316,23.926,0
1553807742.598,26.367,50.293,40.527,54.199,34.180,0
1553807742.602,29.785,48.828,50.293,42.969,37.598,0
1553807742.606,27.832,53.711,49.316,44.434,36.133,0
1553807742.610,19.043,57.129,39.062,43.945,7.324,0
1553807742.614,24.414,49.316,37.598,39.551,-15.137,0
1553807742.618,32.715,49.316,38.086,33.203,16.113,0
1553807742.622,29.785,56.152,39.062,31.738,14.648,0
1553807742.626,25.391,58.594,42.969,43.945,76.172,0
1553807742.630,27.344,55.664,43.457,51.270,80.566,0
1553807742.634,25.391,57.129,42.480,43.945,49.805,0
1553807742.638,17.090,59.570,39.551,31.738,73.730,0
1553807742.641,24.414,60.059,35.645,33.203,94.238,0
1553807742.645,29.297,63.965,36.621,41.504,128.418,0
1553807742.649,21.973,62.012,38.574,40.527,107.910,0
1553807742.653,26.855,61.035,34.668,41.504,51.758,0
1553807742.657,26.855,62.500,35.156,37.109,50.293,0
1553807742.661,29.785,54.199,44.434,38.574,28.809,0
1553807742.665,28.809,54.199,45.898,46.875,7.812,0
1553807742.669,20.996,59.570,39.551,34.668,26.855,0
1553807742.673,22.461,59.082,37.598,31.738,66.895,0
1553807742.677,41.016,56.152,35.156,47.852,54.688,0
1553807742.680,39.062,51.270,35.156,40.039,13.672,0
1553807742.684,34.180,54.688,39.062,38.086,4.883,0
1553807742.688,34.180,61.035,39.062,48.828,44.434,0
1553807742.692,27.832,63.477,36.621,41.992,36.621,0
1553807742.696,25.879,59.082,36.621,38.574,-23.926,0
1553807742.700,21.973,62.988,38.086,34.180,11.230,0
1553807742.704,27.832,61.035,44.434,41.992,73.730,0
1553807742.708,27.344,53.711,41.992,43.457,55.176,0
1553807742.712,20.996,51.758,33.203,36.133,-20.996,0
1553807742.716,26.855,54.199,30.273,37.109,-6.836,0
1553807742.720,25.391,62.012,29.297,31.250,67.871,0
1553807742.723,21.973,59.570,30.762,27.344,41.016,0
1553807742.727,24.414,52.734,34.180,30.273,40.527,0
1553807742.731,15.625,60.547,35.645,31.250,41.992,0
1553807742.735,15.137,57.129,36.133,26.855,2.441,0
1553807742.739,18.066,54.688,37.598,25.391,49.805,0
1553807742.743,17.090,59.082,33.691,30.762,7.324,0
1553807742.747,24.902,59.570,32.715,32.227,-33.691,0
1553807742.751,25.879,57.129,32.715,32.715,27.832,0
1553807742.755,24.902,59.082,33.203,37.109,21.973,0
1553807742.759,42.480,71.777,29.297,44.434,1.465,0
1553807742.763,61.523,75.684,26.367,63.965,20.996,0
1553807742.766,44.922,62.988,34.668,46.387,3.418,0
1553807742.770,6.348,50.293,34.668,-1.953,-9.766,0
1553807742.774,11.719,46.875,35.645,15.137,23.926,0
1553807742.778,18.066,49.805,40.527,35.645,37.598,0
1553807742.782,18.066,49.316,41.992,29.785,21.484,0
1553807742.786,19.531,38.574,44.922,33.203,28.320,0
1553807742.790,10.254,35.156,42.480,26.855,54.199,0
1553807742.794,17.090,37.598,41.504,20.020,38.086,0
1553807742.798,15.625,36.133,37.598,28.320,28.320,0
1553807742.802,15.137,34.180,33.691,34.668,26.855,0
1553807742.805,30.273,38.574,39.551,41.016,6.348,0
1553807742.809,32.227,41.992,42.969,48.828,20.508,0
1553807742.813,24.902,35.645,41.504,42.480,39.551,0
1553807742.817,24.902,31.250,43.457,41.992,67.871,0
1553807742.821,31.738,37.598,37.598,47.363,50.293,0
1553807742.825,38.086,39.551,32.715,45.410,31.738,0
1553807742.829,26.367,43.945,37.109,40.039,41.504,0
1553807742.833,27.344,43.457,39.551,36.133,35.645,0
1553807742.837,29.785,41.504,36.133,42.480,61.035,0
1553807742.841,28.809,47.363,36.621,49.805,18.066,0
1553807742.845,30.762,53.711,44.434,53.711,6.348,0
1553807742.848,23.438,52.734,43.945,52.734,50.293,0
1553807742.852,23.438,52.734,32.715,47.852,34.668,0
1553807742.856,28.320,53.223,26.855,41.504,43.945,0
1553807742.860,34.180,46.875,33.203,34.668,31.738,0
1553807742.864,31.738,58.594,40.039,40.527,39.062,0
1553807742.868,24.414,58.594,36.133,47.852,36.133,0
1553807742.872,25.879,54.199,32.715,43.457,-2.441,0
1553807742.876,30.762,58.105,31.250,37.109,-27.344,0
1553807742.880,30.273,57.129,30.762,35.156,6.836,0
1553807742.884,28.320,56.152,31.738,35.156,13.184,0
1553807742.888,37.598,61.035,30.762,36.621,27.344,0
1553807742.891,40.039,64.453,35.156,37.109,36.621,0
1553807742.895,25.391,61.523,32.715,34.180,38.574,0
1553807742.899,27.832,55.176,36.621,38.086,61.035,0
1553807742.903,29.785,54.199,38.086,27.832,57.129,0
1553807742.907,28.320,58.594,30.762,20.508,30.273,0
1553807742.911,25.879,54.688,36.133,43.457,-26.367,0
1553807742.915,17.090,51.270,37.109,49.805,8.301,0
1553807742.919,21.973,58.105,35.156,37.109,-2.930,0
1553807742.923,40.039,56.641,41.992,55.664,9.766,0
1553807742.927,47.852,58.594,42.480,72.754,34.668,0
1553807742.930,24.414,61.035,32.715,36.133,34.180,0
1553807742.934,1.953,60.547,25.879,8.301,59.570,0
1553807742.938,12.207,65.430,21.484,7.812,67.871,0
1553807742.942,26.367,70.312,17.578,25.391,58.594,0
1553807742.946,18.066,68.848,12.207,29.785,79.590,0
1553807742.950,18.066,71.289,9.277,14.648,59.082,0
1553807742.954,24.414,85.449,7.324,20.508,28.809,0
1553807742.958,20.020,82.031,11.230,21.484,-48.828,0
1553807742.962,20.508,82.031,17.578,23.438,-58.594,0
1553807742.966,29.297,83.008,18.555,27.344,12.695,0
1553807742.970,29.297,78.125,19.531,29.785,10.254,0
1553807742.973,35.645,79.102,17.578,38.086,21.484,0
1553807742.977,42.480,80.566,18.066,42.480,34.180,0
1553807742.981,26.367,83.984,20.020,36.133,22.461,0
1553807742.985,29.297,76.172,21.484,34.180,54.199,0
1553807742.989,41.504,81.543,22.461,33.203,65.430,0
1553807742.993,34.180,83.984,22.461,40.039,8.301,0
1553807742.997,29.297,76.660,21.484,39.062,21.484,0
1553807743.001,28.809,75.684,21.484,34.180,59.570,0
1553807743.005,32.227,76.172,29.297,37.598,21.973,0
1553807743.009,30.762,76.172,32.227,30.273,82.520,0
1553807743.013,25.879,76.660,29.785,27.832,72.754,0
1553807743.016,19.043,78.125,25.879,29.785,26.367,0
1553807743.020,20.508,73.242,22.461,35.156,46.875,0
1553807743.024,35.645,72.754,18.555,42.480,53.711,0
1553807743.028,25.391,76.172,19.043,38.574,83.496,0
1553807743.032,22.949,71.289,25.391,33.203,30.762,0
1553807743.036,48.828,67.871,27.832,34.668,41.992,0
1553807743.040,48.828,69.336,23.926,43.457,93.750,0
1553807743.044,42.480,70.312,18.066,51.270,35.645,0
1553807743.048,46.387,74.219,23.438,45.410,34.668,0
1553807743.052,40.527,74.707,26.367,40.039,3.906,0
1553807743.055,27.832,69.336,22.461,30.273,-16.113,0
1553807743.059,35.156,69.824,21.973,31.738,32.715,0
1553807743.063,34.180,73.242,22.949,34.180,84.473,0
1553807743.067,25.391,70.312,24.902,37.109,94.727,0
1553807743.071,34.668,69.824,24.902,41.504,-3.418,0
1553807743.075,33.203,70.312,28.809,33.691,-1.953,0
1553807743.079,38.086,65.918,32.227,41.504,43.457,0
1553807743.083,40.039,67.383,33.203,43.945,41.992,0
1553807743.087,34.180,66.895,39.062,42.969,34.180,0
1553807743.091,28.809,67.383,38.574,52.246,6.836,0
1553807743.095,12.695,66.895,34.180,40.039,47.852,0
1553807743.098,10.254,63.477,29.785,23.926,86.914,0
1553807743.102,18.555,65.918,29.297,24.414,2.441,0
1553807743.106,15.625,70.312,32.715,31.738,-38.086,0
1553807743.110,8.789,65.430,26.855,28.320,-17.578,0
1553807743.114,11.230,63.965,29.297,27.832,5.859,0
1553807743.118,15.137,66.406,37.598,33.203,56.152,0
1553807743.122,17.578,64.453,36.133,37.598,73.242,0
1553807743.126,34.668,61.035,35.156,52.246,63.965,0
1553807743.130,50.293,57.617,37.109,65.918,4.395,0
1553807743.134,27.832,56.152,33.691,47.363,44.434,0
1553807743.138,11.230,55.664,32.227,20.508,64.941,0
1553807743.141,14.160,60.059,31.250,22.949,23.926,0
1553807743.145,24.902,62.988,22.461,27.832,47.852,0
1553807743.149,39.551,63.477,20.996,36.133,-3.906,0
1553807743.153,31.250,66.406,25.879,50.781,2.441,0
1553807743.157,28.809,75.684,27.344,47.852,84.473,0
1553807743.161,29.297,77.148,28.320,39.062,82.520,0
1553807743.165,27.832,78.613,30.762,39.551,13.184,0
1553807743.169,33.203,87.402,30.762,47.363,6.348,0
1553807743.173,40.039,87.402,39.551,54.199,1.953,0
1553807743.177,42.480,86.426,41.016,51.758,8.301,0
1553807743.180,40.039,80.078,30.762,44.922,0.977,0
1553807743.184,30.762,74.219,32.227,45.898,-9.766,0
1553807743.188,28.809,68.848,32.227,38.574,25.391,0
1553807743.192,26.367,57.617,27.344,31.250,11.230,0
1553807743.196,25.879,56.641,28.320,39.062,-19.531,0
1553807743.200,26.855,54.199,37.109,37.598,73.730,0
1553807743.204,33.203,44.922,40.039,41.016,91.797,0
1553807743.208,42.969,47.363,34.668,48.828,9.277,0
1553807743.212,36.621,46.387,33.691,53.711,39.551,0
1553807743.216,35.645,36.133,32.227,45.410,84.961,0
1553807743.220,33.203,35.645,29.785,43.945,90.332,0
1553807743.223,36.621,37.109,31.738,51.270,54.199,0
1553807743.227,29.785,41.992,35.156,37.109,50.293,0
1553807743.231,22.949,44.922,32.227,36.133,122.559,0
1553807743.235,21.973,36.133,29.297,43.457,112.305,0
1553807743.239,24.414,42.969,30.762,43.457,41.992,0
1553807743.243,34.668,50.293,33.203,46.387,38.574,0
1553807743.247,29.785,49.805,37.109,39.551,26.367,0
1553807743.251,22.461,53.223,34.668,32.715,32.715,0
1553807743.255,22.461,56.641,23.926,30.273,93.262,0
1553807743.259,28.320,57.129,28.809,36.133,84.961,0
1553807743.263,23.438,65.918,35.156,43.945,18.066,0
1553807743.266,35.156,69.824,35.156,42.480,23.926,0
1553807743.270,44.434,69.824,30.273,30.762,87.891,0
1553807743.274,20.020,74.219,31.250,27.832,46.387,0
1553807743.278,13.184,68.359,39.062,32.227,37.109,0
1553807743.282,29.297,70.801,33.691,35.156,51.270,0
1553807743.286,49.805,81.055,27.344,57.617,27.344,0
1553807743.290,34.180,74.219,33.691,48.340,46.875,0
1553807743.294,7.324,61.523,37.109,12.207,29.785,0
1553807743.298,16.602,58.594,39.062,27.832,9.277,0
1553807743.302,23.438,58.105,41.992,37.598,26.367,0
1553807743.305,27.344,56.641,40.527,39.062,64.941,0
1553807743.309,27.344,51.758,44.922,40.527,71.777,0
1553807743.313,16.113,55.664,44.434,18.555,40.527,0
1553807743.317,20.020,58.105,42.969,27.344,54.688,0
1553807743.321,31.738,56.641,39.062,37.109,35.645,0
1553807743.325,24.902,67.383,37.598,33.691,7.324,0
1553807743.329,25.879,73.242,44.434,46.387,26.855,0
1553807743.333,30.273,68.848,46.875,60.059,-4.395,0
1553807743.337,25.879,64.453,51.270,62.988,26.367,0
1553807743.341,21.484,62.500,51.270,58.105,32.715,0
1553807743.345,20.020,62.012,40.039,48.340,-2.441,0
1553807743.348,18.555,62.988,38.086,54.688,14.648,0
1553807743.352,18.555,60.059,38.086,50.293,40.039,0
1553807743.356,23.926,55.176,35.645,37.109,102.539,0
1553807743.360,24.902,49.316,40.039,35.645,96.191,0
1553807743.364,22.949,49.316,41.504,31.738,36.133,0
1553807743.368,25.391,47.363,37.109,33.691,54.688,0
1553807743.372,17.578,47.852,34.180,30.273,76.172,0
1553807743.376,14.648,53.711,35.645,33.203,35.645,0
1553807743.380,18.555,52.246,37.109,38.086,43.457,0
1553807743.384,11.230,59.082,36.621,33.203,62.500,0
1553807743.388,11.230,61.035,37.109,27.344,23.438,0
1553807743.391,21.973,59.082,40.527,36.133,1.465,0
1553807743.395,30.762,65.918,39.551,50.781,40.039,0
1553807743.399,31.738,70.312,29.785,40.039,44.434,0
1553807743.403,28.320,61.035,29.297,31.738,42.480,0
1553807743.407,35.156,59.082,41.504,40.527,39.062,0
1553807743.411,45.898,68.359,41.504,41.016,62.988,0
1553807743.415,35.645,69.336,31.250,37.598,47.852,0
1553807743.419,23.926,67.871,31.738,33.691,-28.809,0
1553807743.423,19.043,70.312,36.133,31.250,2.441,0
1553807743.427,20.020,66.406,28.320,41.016,37.109,0
1553807743.430,41.504,57.617,24.902,57.129,-29.297,0
1553807743.434,16.602,57.617,41.016,34.668,-27.344,0
1553807743.438,-24.902,52.734,40.039,4.395,21.484,0
1553807743.442,-16.113,46.387,37.109,7.812,51.270,0
1553807743.446,11.230,41.016,39.551,21.973,41.016,0
1553807743.450,32.227,30.762,41.016,37.598,58.105,0
1553807743.454,19.043,23.926,45.410,38.086,13.672,0
1553807743.458,10.742,21.973,39.551,37.109,-4.395,0
1553807743.462,14.648,20.996,37.598,37.598,31.738,0
1553807743.466,11.230,14.648,43.945,30.762,13.672,0
1553807743.470,9.277,10.742,44.922,39.551,-6.348,0
1553807743.473,13.184,6.836,39.062,39.062,11.230,0
1553807743.477,19.531,5.859,42.969,35.645,33.691,0
1553807743.481,25.391,12.207,47.363,46.875,10.254,0
1553807743.485,29.785,16.113,44.922,54.199,51.758,0
1553807743.489,29.297,14.160,44.434,56.152,56.152,0
1553807743.493,33.203,14.160,43.945,50.781,47.852,0
1553807743.497,33.691,28.320,44.922,54.688,53.223,0
1553807743.501,30.762,31.738,44.434,46.387,14.160,0
1553807743.505,29.785,35.156,43.945,42.480,9.277,0
1553807743.509,30.762,38.086,41.504,51.270,-6.348,0
1553807743.513,34.180,38.574,38.574,43.945,-29.297,0
1553807743.516,29.297,35.645,40.039,41.016,-59.570,0
1553807743.520,24.414,37.109,35.156,37.598,-29.785,0
1553807743.524,20.508,47.852,32.227,33.203,77.637,0
1553807743.528,32.715,48.340,38.086,39.062,40.527,0
1553807743.532,37.109,57.129,35.156,36.621,13.672,0
1553807743.536,25.391,63.477,32.715,26.367,31.250,0
1553807743.540,45.898,60.059,32.715,35.645,90.332,0
1553807743.544,48.340,59.082,27.832,44.922,65.918,0
1553807743.548,33.691,53.711,36.133,49.805,-17.578,0
1553807743.552,34.668,53.223,41.992,56.641,36.621,0
1553807743.555,25.879,62.012,40.039,42.480,60.547,0
1553807743.559,24.902,68.359,34.668,32.715,62.988,0
1553807743.563,27.344,61.523,28.320,30.273,71.289,0
1553807743.567,20.996,64.453,23.438,27.832,3.906,0
1553807743.571,22.949,75.195,23.926,34.668,-1.465,0
1553807743.575,25.879,73.242,29.297,34.180,57.129,0
1553807743.579,29.785,69.824,32.715,33.691,34.180,0
1553807743.583,25.391,68.359,29.297,32.227,18.555,0
1553807743.587,24.902,71.777,31.250,32.715,36.621,0
1553807743.591,32.227,72.754,36.621,37.598,67.871,0
1553807743.595,28.809,66.895,36.133,36.133,53.711,0
1553807743.598,23.438,70.312,32.227,29.785,50.781,0
1553807743.602,26.855,69.336,26.367,26.855,71.777,0
1553807743.606,33.691,63.477,29.785,34.180,82.031,0
1553807743.610,26.367,61.523,30.273,25.391,40.039,0
1553807743.614,21.484,57.617,30.762,37.109,24.414,0
1553807743.618,44.922,54.688,40.527,71.289,25.879,0
1553807743.622,55.664,64.941,38.086,58.105,43.945,0
1553807743.626,27.832,76.660,26.855,19.043,34.180,0
1553807743.630,11.230,75.195,21.973,13.184,-13.672,0
1553807743.634,26.855,81.543,17.090,27.344,-26.855,0
1553807743.638,14.648,88.867,12.695,14.160,41.016,0
1553807743.641,20.508,83.496,12.207,19.531,83.984,0
1553807743.645,37.109,89.355,8.789,31.738,67.871,0
1553807743.649,34.668,93.262,5.859,17.578,40.039,0
1553807743.653,30.762,93.262,7.324,12.695,9.766,0
1553807743.657,21.484,96.191,2.930,6.348,43.457,0
1553807743.661,32.715,93.750,0.000,25.879,11.230,0
1553807743.665,33.203,91.309,5.371,31.250,18.555,0
1553807743.669,33.203,90.820,9.766,23.438,35.645,0
1553807743.673,35.156,94.727,8.301,23.438,47.852,0
1553807743.677,24.902,94.238,10.742,28.809,65.918,0
1553807743.680,33.203,87.891,18.066,37.109,-3.906,0
1553807743.684,36.133,94.727,17.090,33.691,17.090,0
1553807743.688,36.133,99.121,16.602,40.527,66.895,0
1553807743.692,43.457,97.656,13.672,53.711,76.660,0
1553807743.696,33.691,90.332,15.625,43.457,84.961,0
1553807743.700,34.668,89.844,24.414,24.902,36.621,0
1553807743.704,38.086,96.191,23.926,26.367,25.391,0
1553807743.708,35.156,92.773,23.438,33.203,40.527,0
1553807743.712,27.344,87.402,26.855,26.855,53.711,0
1553807743.716,22.949,84.473,31.738,28.809,38.086,0
1553807743.720,26.367,84.961,30.273,36.133,45.410,0
1553807743.723,22.949,80.566,28.809,27.832,57.129,0
1553807743.727,18.066,80.566,33.203,27.832,33.203,0
1553807743.731,21.484,87.402,31.738,31.250,47.363,0
1553807743.735,28.320,96.191,29.785,27.344,88.379,0
1553807743.739,30.762,93.262,29.297,37.109,85.938,0
1553807743.743,28.809,82.520,26.855,35.156,31.250,0
1553807743.747,35.156,88.379,23.926,21.973,-8.301,0
1553807743.751,40.039,93.750,27.344,34.668,0.000,0
1553807743.755,36.133,89.355,33.691,40.527,42.480,0
1553807743.759,32.715,83.008,31.738,41.504,17.090,0
1553807743.763,26.855,83.008,32.715,41.992,-14.160,0
1553807743.766,30.762,82.031,38.574,45.410,-36.133,0
1553807743.770,27.344,80.078,33.691,41.016,-2.930,0
1553807743.774,20.508,77.637,29.785,36.621,23.926,0
1553807743.778,22.949,78.125,28.320,39.551,24.414,0
1553807743.782,19.043,80.078,26.367,28.809,33.691,0
1553807743.786,19.531,76.172,31.250,28.320,10.254,0
1553807743.790,26.855,68.848,36.133,43.457,17.578,0
1553807743.794,26.367,68.848,30.762,36.133,50.293,0
1553807743.798,22.461,68.359,25.391,25.879,71.289,0
1553807743.802,30.762,66.895,26.855,26.855,34.180,0
1553807743.805,20.020,73.730,25.391,11.230,48.340,0
1553807743.809,11.230,79.102,27.344,19.043,66.406,0
1553807743.813,16.602,69.824,37.109,30.273,25.879,0
1553807743.817,18.555,66.895,40.039,25.879,54.199,0
1553807743.821,23.926,71.777,32.715,25.879,75.195,0
1553807743.825,24.414,68.848,28.320,28.320,33.691,0
1553807743.829,23.438,63.965,31.250,37.109,-3.906,0
1553807743.833,21.973,64.941,31.738,40.527,27.832,0
1553807743.837,31.738,70.801,26.367,51.270,21.484,0
1553807743.841,63.477,70.801,28.320,71.777,-0.977,0
1553807743.845,49.805,64.941,39.551,58.594,34.668,0
1553807743.848,-0.488,59.082,42.969,20.996,7.812,0
1553807743.852,-4.395,54.199,40.039,14.648,-28.320,0
1553807743.856,20.996,57.129,44.922,40.527,-24.902,0
1553807743.860,22.949,54.199,45.410,48.340,8.301,0
1553807743.864,10.254,44.922,41.992,28.320,44.434,0
1553807743.868,16.602,44.434,40.039,19.531,33.203,0
1553807743.872,19.531,51.758,35.645,25.391,45.898,0
1553807743.876,22.461,55.664,37.109,34.668,78.613,0
1553807743.880,24.902,54.199,39.062,37.109,43.457,0
1553807743.884,23.438,52.246,41.016,33.203,49.316,0
1553807743.888,32.715,55.664,41.016,48.828,4.395,0
1553807743.891,28.320,61.523,42.969,53.223,3.418,0
1553807743.895,16.602,59.570,39.551,34.668,47.852,0
1553807743.899,15.137,62.988,31.738,29.785,29.297,0
1553807743.903,16.602,60.059,32.227,32.715,22.949,0
1553807743.907,17.090,56.641,32.715,32.715,42.480,0
1553807743.911,15.137,63.477,34.668,32.715,71.289,0
1553807743.915,18.555,62.500,40.039,39.062,75.195,0
1553807743.919,25.391,63.477,37.598,40.527,78.125,0
1553807743.923,31.738,65.430,36.133,44.922,24.414,0
1553807743.927,30.273,61.035,38.086,42.480,36.133,0
1553807743.930,25.391,58.105,33.203,45.898,54.199,0
1553807743.934,21.484,58.594,34.180,43.457,15.625,0
1553807743.938,16.113,61.035,36.133,33.203,-3.418,0
1553807743.942,30.762,68.848,40.039,43.945,19.043,0
1553807743.946,38.574,67.383,42.969,55.176,63.965,0
1553807743.950,23.926,55.664,37.109,47.852,96.680,0
1553807743.954,22.949,60.059,37.598,42.969,47.852,0
1553807743.958,17.578,61.035,39.551,41.016,-30.762,0
1553807743.962,10.254,55.664,37.109,45.410,11.719,0
1553807743.966,20.020,56.641,36.133,41.016,-8.301,0
1553807743.970,23.438,61.035,35.645,33.203,7.812,0
1553807743.973,27.344,60.059,34.668,36.133,70.312,0
1553807743.977,37.598,60.547,36.133,41.016,45.898,0
1553807743.981,35.156,65.918,43.457,42.480,39.551,0
1553807743.985,30.762,67.383,41.504,36.621,44.434,0
1553807743.989,29.785,78.613,35.156,36.133,47.852,0
1553807743.993,26.367,74.707,33.203,36.133,8.789,0
1553807743.997,27.344,65.430,31.250,31.738,-18.555,0
1553807744.001,35.645,71.777,26.367,37.109,2.930,0
1553807744.005,47.363,75.195,26.367,49.805,10.254,0
1553807744.009,37.109,71.289,31.738,42.969,-24.902,0
1553807744.013,4.395,69.824,39.551,18.555,-60.059,0
1553807744.016,1.953,76.660,44.434,13.672,-0.977,0
1553807744.020,40.527,80.078,47.363,39.062,51.270,0
1553807744.024,48.340,86.426,51.270,56.152,39.551,0
1553807744.028,35.156,89.355,47.852,44.922,50.781,0
1553807744.032,37.109,83.984,37.598,37.598,41.992,0
1553807744.036,29.297,90.332,34.180,38.086,13.184,0
1553807744.040,37.109,83.496,37.598,41.504,13.672,0
1553807744.044,40.527,84.961,30.273,44.434,32.227,0
1553807744.048,35.645,85.938,27.344,43.945,18.555,0
1553807744.052,38.086,75.195,35.156,43.945,29.297,0
1553807744.055,37.109,76.172,35.156,49.316,30.273,0
1553807744.059,32.715,72.754,39.551,54.688,28.809,0
1553807744.063,31.738,61.035,41.016,48.828,62.500,0
1553807744.067,27.832,52.246,32.715,43.945,40.527,0
1553807744.071,30.762,53.223,27.832,46.387,59.570,0
1553807744.075,39.062,57.617,34.180,50.293,54.688,0
1553807744.079,34.668,64.941,37.109,42.969,51.270,0
1553807744.083,32.715,61.523,33.691,39.551,91.309,0
1553807744.087,31.738,50.781,34.668,41.016,60.547,0
1553807744.091,27.344,63.965,36.621,38.086,17.578,0
1553807744.095,28.809,72.266,36.133,38.574,19.043,0
1553807744.098,28.809,67.871,28.809,42.480,38.086,0
1553807744.102,31.738,68.359,23.438,45.898,31.250,0
1553807744.106,35.156,64.941,23.926,48.828,-1.953,0
1553807744.110,29.297,66.406,28.320,39.062,-2.930,0
1553807744.114,25.879,69.824,34.180,35.645,41.016,0
1553807744.118,32.715,67.871,33.203,37.598,34.180,0
1553807744.122,31.738,65.918,29.785,35.645,24.414,0
1553807744.126,27.832,65.918,29.785,36.621,30.762,0
1553807744.130,30.273,68.359,31.250,39.551,10.254,0
1553807744.134,28.320,62.012,30.273,38.086,8.789,0
1553807744.138,30.273,61.523,31.738,35.645,42.969,0
1553807744.141,35.645,59.082,37.598,37.109,14.160,0
1553807744.145,29.785,46.387,33.691,44.922,48.340,0
1553807744.149,19.531,46.387,27.832,43.945,58.105,0
1553807744.153,25.391,54.688,31.738,37.109,34.180,0
1553807744.157,27.344,57.129,29.297,30.273,50.293,0
1553807744.161,28.809,59.570,26.367,27.344,78.125,0
1553807744.165,23.926,56.152,36.133,30.762,70.801,0
1553807744.169,13.672,55.176,36.621,32.227,54.688,0
1553807744.173,12.695,62.988,27.344,34.180,77.637,0
1553807744.177,8.789,56.152,30.762,23.926,19.043,0
1553807744.180,16.602,58.105,29.297,12.207,18.555,0
1553807744.184,20.996,69.336,22.949,13.672,11.719,0
1553807744.188,18.066,67.871,24.902,27.832,-34.668,0
1553807744.192,30.762,70.312,28.320,39.551,11.230,0
1553807744.196,54.688,69.336,37.109,62.500,32.227,0
1553807744.200,49.805,69.336,37.598,67.383,-0.488,0
1553807744.204,9.766,69.824,27.832,22.949,43.945,0
1553807744.208,-8.789,66.406,17.578,-1.465,78.613,0
1553807744.212,9.766,66.406,14.160,7.324,53.223,0
1553807744.216,27.344,73.730,13.672,17.090,33.203,0
1553807744.220,31.738,74.707,11.230,30.762,-43.945,0
1553807744.223,13.672,66.406,19.043,17.090,-6.348,0
1553807744.227,18.066,76.172,15.625,14.648,25.879,0
1553807744.231,37.598,85.449,19.043,36.133,62.988,0
1553807744.235,35.156,79.590,26.367,37.109,79.590,0
1553807744.239,41.504,88.379,26.855,48.828,64.453,0
1553807744.243,47.363,86.426,24.902,44.922,65.918,0
1553807744.247,48.340,78.613,20.508,28.809,43.945,0
1553807744.251,36.133,72.266,14.648,34.180,35.645,0
1553807744.255,21.973,70.801,12.207,33.203,48.828,0
1553807744.259,29.785,80.078,14.160,35.645,84.473,0
1553807744.263,34.668,83.008,16.113,41.504,75.195,0
1553807744.266,31.738,75.195,26.855,38.574,60.547,0
1553807744.270,32.227,72.266,31.738,30.762,35.156,0
1553807744.274,38.086,79.590,22.949,30.762,54.688,0
1553807744.278,37.109,75.195,22.949,29.785,8.301,0
1553807744.282,36.621,67.383,28.320,28.809,16.602,0
1553807744.286,41.992,60.059,32.715,37.598,43.945,0
1553807744.290,31.738,58.105,32.715,39.551,48.340,0
1553807744.294,32.715,60.547,29.785,39.551,88.867,0
1553807744.298,32.227,58.105,30.273,39.551,43.457,0
1553807744.302,29.785,53.223,31.738,36.133,12.207,0
1553807744.305,33.203,52.246,33.203,39.551,32.715,0
1553807744.309,25.391,51.758,35.156,45.898,19.531,0
1553807744.313,23.926,48.340,34.668,31.738,-11.719,0
1553807744.317,29.297,52.734,32.715,25.391,-2.930,0
1553807744.321,36.133,54.199,23.926,40.527,41.504,0
1553807744.325,44.922,54.199,22.461,38.574,25.879,0
1553807744.329,33.203,54.199,23.438,39.062,37.109,0
1553807744.333,27.344,50.293,23.926,43.457,16.113,0
1553807744.337,33.691,51.758,26.855,40.527,-29.785,0
1553807744.341,36.133,47.363,27.344,39.062,11.719,0
1553807744.345,30.762,40.527,30.273,37.598,10.742,0
1553807744.348,25.879,44.922,29.785,36.621,25.879,0
1553807744.352,26.367,51.270,27.344,41.504,19.043,0
1553807744.356,29.297,49.316,34.180,42.969,41.504,0
1553807744.360,42.969,51.758,39.551,32.715,50.293,0
1553807744.364,40.039,53.223,37.109,41.504,-1.465,0
1553807744.368,34.180,41.992,35.156,53.223,37.109,0
1553807744.372,24.414,41.992,32.715,29.297,36.621,0
1553807744.376,-2.441,52.246,20.020,-0.977,23.926,0
1553807744.380,12.695,56.641,17.090,21.484,44.434,0
1553807744.384,21.484,63.477,19.531,25.879,45.898,0
1553807744.388,11.719,55.664,22.949,13.672,68.848,0
1553807744.391,27.832,43.457,30.273,39.551,60.547,0
1553807744.395,24.414,48.828,32.715,37.109,8.301,0
1553807744.399,29.785,57.129,32.715,32.227,-2.930,0
1553807744.403,47.852,66.895,33.691,47.363,22.461,0
1553807744.407,39.062,64.941,32.715,43.945,-10.254,0
1553807744.411,37.598,65.918,28.809,39.551,-37.598,0
1553807744.415,33.203,67.871,24.902,36.133,3.418,0
1553807744.419,27.344,57.129,27.832,30.273,9.766,0
1553807744.423,27.344,61.035,32.715,30.273,19.043,0
1553807744.427,19.043,62.500,31.250,34.180,27.832,0
1553807744.430,22.461,58.594,31.738,40.527,32.227,0
1553807744.434,25.879,58.105,29.297,42.480,48.828,0
1553807744.438,29.297,61.035,21.973,38.574,72.266,0
1553807744.442,35.156,60.059,24.902,45.898,48.340,0
1553807744.446,24.414,54.199,28.809,38.574,70.801,0
1553807744.450,23.926,56.641,26.367,20.996,35.156,0
1553807744.454,37.598,58.105,26.855,30.273,1.465,0
1553807744.458,40.039,56.152,30.762,42.969,-5.859,0
1553807744.462,33.203,54.199,29.785,37.109,-20.996,0
1553807744.466,30.273,54.199,29.297,43.945,32.715,0
1553807744.470,33.203,59.082,32.227,43.457,56.152,0
1553807744.473,27.832,57.129,32.715,30.762,29.785,0
1553807744.477,25.391,51.758,33.203,31.738,-15.137,0
1553807744.481,31.738,50.293,33.203,34.180,28.809,0
1553807744.485,27.832,47.363,30.762,39.062,17.578,0
1553807744.489,29.297,44.434,27.832,37.109,-30.273,0
1553807744.493,60.547,57.617,24.414,54.688,36.621,0
1553807744.497,72.754,65.430,33.691,76.172,96.191,0
1553807744.501,24.414,66.895,44.922,41.504,71.777,0
1553807744.505,-8.301,68.359,43.457,14.648,24.414,0
1553807744.509,8.789,52.734,43.457,18.555,-10.254,0
1553807744.513,7.812,48.340,47.363,14.648,32.715,0
1553807744.516,7.324,44.434,47.363,24.902,68.359,0
1553807744.520,16.602,37.598,49.316,38.574,63.477,0
1553807744.524,1.465,30.273,52.734,31.738,88.867,0
1553807744.528,8.301,26.855,51.270,31.250,85.938,0
1553807744.532,27.832,30.273,50.293,43.945,46.875,0
1553807744.536,22.949,32.715,44.922,48.828,30.273,0
1553807744.540,24.902,28.809,41.504,52.246,31.738,0
1553807744.544,25.879,34.180,46.875,45.410,5.371,0
1553807744.548,20.508,36.621,51.270,43.457,40.527,0
1553807744.552,20.020,27.344,49.316,47.363,27.344,0
1553807744.555,18.066,28.809,43.457,44.434,40.039,0
1553807744.559,20.996,30.762,42.969,48.828,41.504,0
1553807744.563,16.113,30.762,42.480,47.363,-2.930,0
1553807744.567,13.672,30.273,37.109,37.109,14.160,0
1553807744.571,20.508,29.785,33.203,34.180,61.035,0
1553807744.575,20.996,38.574,35.645,35.156,41.504,0
1553807744.579,25.879,41.504,34.668,32.715,42.480,0
1553807744.583,32.715,35.645,30.273,38.086,56.641,0
1553807744.587,30.762,35.645,37.109,42.480,4.883,0
1553807744.591,23.926,30.762,40.527,36.621,3.418,0
1553807744.595,24.414,28.320,35.645,39.062,28.809,0
1553807744.598,26.367,30.273,33.691,31.738,20.996,0
1553807744.602,23.438,34.180,31.250,27.832,-0.977,0
1553807744.606,25.879,39.062,29.297,40.039,0.000,0
1553807744.610,29.297,35.156,32.227,43.457,-4.883,0
1553807744.614,35.645,39.551,37.109,50.781,27.832,0
1553807744.618,33.203,49.316,42.480,53.711,63.965,0
1553807744.622,26.367,49.805,43.945,45.410,51.270,0
1553807744.626,31.250,44.434,35.156,39.062,94.238,0
1553807744.630,28.809,47.852,28.320,33.691,100.586,0
1553807744.634,23.438,47.852,35.156,34.180,11.719,0
1553807744.638,19.043,45.898,39.551,45.410,34.180,0
1553807744.641,15.137,47.852,41.992,41.504,102.051,0
1553807744.645,25.879,52.734,42.480,27.344,41.016,0
1553807744.649,26.855,61.523,39.062,33.691,-14.160,0
1553807744.653,28.320,58.105,41.016,50.293,39.062,0
1553807744.657,28.320,51.270,42.969,48.828,48.828,0
1553807744.661,20.020,55.664,36.621,37.109,55.664,0
1553807744.665,36.133,56.152,46.387,48.828,82.031,0
1553807744.669,34.668,53.223,50.293,47.852,47.363,0
1553807744.673,26.855,52.246,30.762,36.133,43.457,0
1553807744.677,25.391,48.340,29.785,32.227,32.227,0
1553807744.680,18.066,46.875,36.621,24.414,41.504,0
1553807744.684,24.414,50.293,34.180,30.762,67.383,0
1553807744.688,22.949,46.875,35.156,37.109,76.172,0
1553807744.692,20.020,41.992,33.691,30.762,81.055,0
1553807744.696,20.996,40.527,34.668,31.250,54.199,0
1553807744.700,30.762,37.109,34.668,40.527,17.090,0
1553807744.704,31.738,35.645,34.668,42.969,33.691,0
1553807744.708,32.715,38.086,33.691,40.527,44.922,0
1553807744.712,29.785,32.227,31.250,33.691,0.977,0
1553807744.716,26.367,31.250,33.691,35.645,12.695,0
1553807744.720,28.809,31.250,32.227,37.598,17.090,0
1553807744.723,24.414,28.809,21.484,33.691,-18.066,0
1553807744.727,38.086,33.203,22.461,48.828,19.043,0
1553807744.731,33.203,32.715,30.762,47.363,56.641,0
1553807744.735,7.812,25.879,29.297,7.812,64.941,0
1553807744.739,9.277,29.297,33.691,12.207,77.637,0
1553807744.743,21.484,27.344,40.039,42.969,75.684,0
1553807744.747,11.719,18.555,39.551,33.203,52.734,0
1553807744.751,7.812,14.648,40.039,24.414,53.711,0
1553807744.755,23.438,14.160,43.945,37.109,-45.898,0
1553807744.759,15.625,18.066,44.434,31.250,-100.098,0
1553807744.763,19.531,22.461,50.293,39.551,25.391,0
1553807744.766,27.832,32.227,51.270,48.340,86.426,0
1553807744.770,28.809,32.715,41.016,40.039,54.688,0
1553807744.774,20.020,25.879,37.109,36.133,19.043,0
1553807744.778,9.766,24.414,33.691,24.414,13.672,0
1553807744.782,9.277,28.320,33.203,17.090,13.672,0
1553807744.786,14.648,27.344,40.039,33.203,0.977,0
1553807744.790,17.578,19.531,41.016,41.016,8.301,0
1553807744.794,20.020,20.996,39.551,41.504,97.656,0
1553807744.798,20.996,20.508,36.621,48.340,66.895,0
1553807744.802,13.184,16.113,37.598,45.898,34.668,0
1553807744.805,18.066,14.160,44.922,40.527,105.469,0
1553807744.809,29.297,13.672,47.852,50.781,24.902,0
1553807744.813,30.762,18.555,40.039,40.039,9.766,0
1553807744.817,28.320,22.949,41.992,31.738,40.527,0
1553807744.821,24.414,20.996,38.574,41.016,1.465,0
1553807744.825,12.207,23.926,30.762,32.227,41.504,0
1553807744.829,18.066,28.809,37.109,33.691,62.988,0
1553807744.833,29.297,30.273,33.691,43.457,46.875,0
1553807744.837,34.668,23.438,35.156,50.781,69.824,0
1553807744.841,34.180,19.531,44.434,52.734,38.086,0
1553807744.845,23.926,20.508,36.621,44.922,29.785,0
1553807744.848,21.484,20.508,32.715,34.180,26.367,0
1553807744.852,35.645,25.391,37.109,37.598,-10.254,0
1553807744.856,69.824,25.391,45.410,80.078,-4.395,0
1553807744.860,64.941,30.273,46.387,83.496,20.996,0
1553807744.864,26.855,36.621,32.715,35.156,45.410,0
1553807744.868,11.230,30.762,22.949,-1.953,40.527,0
1553807744.872,28.809,37.598,20.020,25.879,1.953,0
1553807744.876,46.387,50.293,20.020,53.711,37.109,0
1553807744.880,43.457,49.316,20.996,29.297,18.066,0
1553807744.884,36.621,56.641,20.020,20.508,10.254,0
1553807744.888,29.297,57.617,14.160,16.602,35.156,0
1553807744.891,34.180,52.246,13.184,22.949,24.902,0
1553807744.895,41.504,45.410,17.578,37.598,49.805,0
1553807744.899,37.598,49.805,21.973,36.621,44.922,0
1553807744.903,40.039,56.641,28.809,39.551,11.719,0
1553807744.907,40.527,55.176,31.738,43.945,27.832,0
1553807744.911,29.297,54.199,26.367,37.598,50.781,0
1553807744.915,25.391,54.688,19.531,34.180,36.133,0
1553807744.919,26.367,61.523,22.461,31.738,42.969,0
1553807744.923,32.227,64.453,29.297,32.715,77.637,0
1553807744.927,30.273,62.012,27.344,32.227,88.379,0
1553807744.930,23.926,60.059,28.809,25.391,110.352,0
1553807744.934,42.480,60.547,33.691,31.738,62.988,0
1553807744.938,46.387,61.523,30.273,39.551,31.250,0
1553807744.942,23.926,59.570,32.227,38.574,77.148,0
1553807744.946,24.902,59.570,30.273,40.527,95.703,0
1553807744.950,21.484,56.641,21.973,31.738,41.016,0
1553807744.954,23.926,54.688,28.809,34.180,-32.715,0
1553807744.958,32.227,51.758,35.156,44.922,-34.180,0
1553807744.962,29.297,52.734,33.691,35.645,-37.109,0
1553807744.966,34.180,53.223,32.227,32.227,-41.016,0
1553807744.970,38.086,53.711,29.785,36.133,-52.734,0
1553807744.973,38.574,52.734,27.832,32.715,-15.137,0
1553807744.977,36.133,45.410,31.250,30.273,34.180,0
1553807744.981,23.926,38.574,34.180,29.785,47.852,0
1553807744.985,18.555,37.598,31.738,30.273,27.344,0
1553807744.989,20.020,41.016,29.297,26.855,13.184,0
1553807744.993,20.996,44.922,30.762,32.715,31.738,0
1553807744.997,26.367,53.223,33.691,41.992,47.363,0
1553807745.001,20.508,45.410,26.855,26.367,64.453,0
1553807745.005,24.414,37.109,20.508,24.414,18.555,0
1553807745.009,32.227,37.109,23.438,34.180,20.020,0
1553807745.013,25.391,41.504,25.879,30.273,47.363,0
1553807745.016,27.344,47.852,26.367,30.273,16.602,0
1553807745.020,29.785,53.711,27.344,31.738,37.109,0
1553807745.024,22.949,62.012,36.133,32.715,45.898,0
1553807745.028,19.043,61.035,34.180,33.691,63.965,0
1553807745.032,31.250,56.641,30.762,33.691,42.969,0
1553807745.036,31.738,52.734,38.086,29.297,12.695,0
1553807745.040,18.555,47.363,36.133,31.738,2.441,0
1553807745.044,23.438,46.875,36.621,41.992,11.719,0
1553807745.048,27.832,42.969,43.457,41.016,46.387,0
1553807745.052,31.738,37.109,42.969,44.434,63.965,0
1553807745.055,40.039,31.738,37.598,56.641,46.875,0
1553807745.059,32.715,28.809,32.715,45.898,21.973,0
1553807745.063,34.180,28.809,32.715,31.250,79.590,0
1553807745.067,35.645,27.832,34.668,30.273,118.164,0
1553807745.071,32.227,29.297,36.621,40.527,46.387,0
1553807745.075,37.109,25.391,35.645,54.688,26.855,0
1553807745.079,42.480,27.832,33.691,58.105,49.805,0
1553807745.083,34.180,28.809,31.738,46.875,67.383,0
1553807745.087,18.066,23.926,30.273,34.668,71.777,0
1553807745.091,28.320,28.809,29.785,41.016,44.922,0
1553807745.095,42.969,35.156,35.645,53.223,10.254,0
1553807745.098,39.551,33.691,34.668,40.527,46.387,0
1553807745.102,39.062,31.250,23.438,39.062,21.973,0
1553807745.106,30.273,30.762,22.949,43.457,-2.930,0
1553807745.110,32.715,22.949,28.320,36.621,37.598,0
1553807745.114,45.898,16.113,33.203,40.527,41.992,0
1553807745.118,40.039,11.230,33.203,39.551,60.547,0
1553807745.122,33.203,4.883,33.203,39.551,41.016,0
1553807745.126,29.297,5.859,30.273,41.504,53.711,0
1553807745.130,24.902,-7.324,27.344,42.969,83.984,0
1553807745.134,27.832,-20.020,27.344,42.969,49.805,0
1553807745.138,27.832,-20.508,26.367,33.203,13.672,0
1553807745.141,24.902,-27.344,30.273,37.109,-20.508,0
1553807745.145,27.832,-32.715,30.273,44.922,8.789,0
1553807745.149,25.879,-44.922,29.297,36.621,79.590,0
1553807745.153,37.598,-53.223,29.297,34.180,53.223,0
1553807745.157,41.992,-51.270,26.855,28.809,25.879,0
1553807745.161,31.250,-42.969,26.855,40.527,31.738,0
1553807745.165,36.621,-35.645,32.227,54.688,44.922,0
1553807745.169,35.645,-44.434,31.250,32.715,34.180,0
1553807745.173,26.367,-48.340,28.320,26.855,39.551,0
1553807745.177,32.227,-33.691,29.297,37.109,48.340,0
1553807745.180,37.109,-29.785,31.738,40.039,18.066,0
1553807745.184,32.715,-32.227,33.691,38.574,5.859,0
1553807745.188,27.344,-19.531,32.227,34.668,-17.090,0
1553807745.192,26.367,-10.742,32.227,41.992,-10.742,0
1553807745.196,25.879,-15.137,37.598,45.410,35.645,0
1553807745.200,32.715,-5.371,34.668,36.621,65.918,0
1553807745.204,39.062,10.254,25.879,34.180,62.012,0
1553807745.208,34.180,9.277,29.297,41.016,58.594,0
1553807745.212,36.621,9.766,35.156,43.457,47.363,0
1553807745.216,34.668,17.578,30.762,45.410,34.668,0
1553807745.220,24.902,25.391,28.809,41.992,67.871,0
1553807745.223,30.273,22.461,33.691,35.645,22.461,0
1553807745.227,29.297,16.602,34.180,33.203,-35.156,0
1553807745.231,20.020,19.531,31.250,25.879,32.227,0
1553807745.235,35.156,24.902,34.668,37.109,26.855,0
1553807745.239,58.105,30.762,26.855,58.105,6.836,0
1553807745.243,65.918,25.391,25.879,61.523,43.945,0
1553807745.247,35.645,23.926,42.480,41.016,34.180,0
1553807745.251,9.277,27.344,40.039,18.066,45.898,0
1553807745.255,15.137,21.484,35.156,15.625,34.668,0
1553807745.259,23.926,16.602,35.645,31.738,-27.344,0
1553807745.263,17.090,14.648,42.480,33.691,24.414,0
1553807745.266,9.766,14.160,49.316,30.762,73.730,0
1553807745.270,19.531,5.371,51.270,41.992,18.555,0
1553807745.274,13.184,-0.977,56.641,38.574,-3.418,0
1553807745.278,10.742,11.230,59.082,35.645,-11.230,0
1553807745.282,24.414,21.973,57.129,40.527,-2.441,0
1553807745.286,20.020,9.766,46.387,38.086,29.785,0
1553807745.290,16.602,11.230,38.086,32.227,-39.062,0
1553807745.294,17.578,17.090,39.551,33.203,21.484,0
1553807745.298,17.090,18.555,41.504,41.504,89.844,0
1553807745.302,22.949,19.531,40.039,38.574,15.625,0
1553807745.305,31.250,28.320,47.363,38.574,43.457,0
1553807745.309,26.367,39.551,50.781,41.016,79.102,0
1553807745.313,22.949,34.180,44.922,43.945,52.734,0
1553807745.317,37.109,39.551,43.945,45.410,77.148,0
1553807745.321,36.133,42.969,43.945,36.621,59.082,0
1553807745.325,31.250,49.316,39.062,41.504,72.266,0
1553807745.329,39.551,55.176,32.715,42.969,95.703,0
1553807745.333,39.551,58.105,36.621,40.527,46.875,0
1553807745.337,30.762,54.688,40.039,41.504,-3.418,0
1553807745.341,34.180,55.176,38.086,38.574,-7.812,0
1553807745.345,34.180,60.059,35.156,35.645,30.762,0
1553807745.348,30.762,60.547,37.109,32.227,-11.719,0
1553807745.352,43.457,67.871,40.527,31.250,-8.789,0
1553807745.356,40.039,62.500,33.691,32.715,6.348,0
1553807745.360,28.809,59.570,32.715,28.809,61.523,0
1553807745.364,34.668,51.270,34.668,30.273,25.391,0
1553807745.368,35.156,58.594,34.180,36.621,-10.742,0
1553807745.372,28.809,82.031,28.809,31.250,76.172,0
1553807745.376,20.996,81.543,30.273,25.879,39.062,0
1553807745.380,20.508,82.520,34.668,31.738,71.777,0
1553807745.384,24.902,80.566,34.668,37.109,28.809,0
1553807745.388,28.320,79.590,33.691,33.203,18.066,0
1553807745.391,29.297,84.473,33.691,26.367,25.879,0
1553807745.395,22.949,80.566,34.180,24.902,-32.227,0
1553807745.399,22.461,79.590,31.250,23.926,-18.555,0
1553807745.403,18.555,82.031,26.367,21.484,9.766,0
1553807745.407,15.625,82.520,29.297,18.555,13.184,0
1553807745.411,23.438,84.961,31.250,25.879,31.250,0
1553807745.415,30.273,89.355,33.691,38.086,23.438,0
1553807745.419,29.297,86.426,35.156,34.180,17.578,0
1553807745.423,29.297,86.426,36.133,30.762,87.891,0
1553807745.427,23.926,91.797,40.039,33.691,49.805,0
1553807745.430,13.184,91.309,33.691,29.785,17.090,0
1553807745.434,17.578,92.773,24.414,27.832,55.664,0
1553807745.438,16.113,87.402,22.461,24.414,65.430,0
1553807745.442,8.789,86.426,20.996,21.484,3.418,0
1553807745.446,22.461,95.215,29.297,35.645,3.418,0
1553807745.450,19.043,86.426,40.039,33.203,40.039,0
1553807745.454,17.090,86.426,35.156,26.855,63.477,0
1553807745.458,27.832,93.750,28.809,31.250,30.762,0
1553807745.462,30.273,86.914,31.738,37.598,-26.855,0
1553807745.466,25.391,76.172,35.645,36.133,3.906,0
1553807745.470,17.090,69.824,32.715,32.227,16.113,0
1553807745.473,23.926,66.406,32.227,34.668,21.484,0
1553807745.477,30.762,65.430,35.156,41.504,49.805,0
1553807745.481,25.391,66.895,34.668,40.039,44.434,0
1553807745.485,16.602,62.988,29.297,19.531,46.387,0
1553807745.489,20.996,61.035,32.715,21.973,24.414,0
1553807745.493,18.066,66.406,35.645,30.273,-14.648,0
1553807745.497,10.742,65.918,31.250,25.879,36.621,0
1553807745.501,17.090,60.059,27.344,26.367,62.988,0
1553807745.505,24.414,65.430,28.320,25.879,17.090,0
1553807745.509,24.902,64.453,32.715,31.250,34.668,0
1553807745.513,28.320,46.875,31.738,42.480,18.555,0
1553807745.516,34.180,29.785,32.715,41.992,78.125,0
1553807745.520,32.715,20.508,32.715,38.086,130.371,0
1553807745.524,29.297,25.391,30.762,40.039,77.637,0
1553807745.528,28.320,23.926,28.809,34.668,48.340,0
1553807745.532,24.902,20.996,29.785,26.855,24.414,0
1553807745.536,20.020,30.273,31.738,27.344,42.480,0
1553807745.540,36.621,37.598,33.691,48.828,78.125,0
1553807745.544,56.152,35.645,46.387,77.148,41.016,0
1553807745.548,34.180,38.086,40.527,49.316,13.672,0
1553807745.552,0.488,47.852,24.414,4.395,12.695,0
1553807745.555,8.301,50.781,18.555,5.859,-3.418,0
1553807745.559,28.320,51.270,14.648,25.879,-5.371,0
1553807745.563,30.273,58.594,14.160,22.461,-36.621,0
1553807745.567,30.762,57.617,20.996,18.555,-19.043,0
1553807745.571,24.902,60.059,22.949,22.461,50.293,0
1553807745.575,26.367,64.453,21.484,15.625,35.645,0
1553807745.579,28.809,71.777,22.461,22.949,31.738,0
1553807745.583,22.949,76.172,20.508,35.645,39.062,0
1553807745.587,29.785,69.336,20.508,34.180,15.137,0
1553807745.591,42.480,69.824,15.625,39.551,-28.809,0
1553807745.595,39.551,79.102,14.160,38.574,25.391,0
1553807745.598,35.156,68.848,21.484,31.738,20.996,0
1553807745.602,35.645,59.570,25.391,25.879,-18.066,0
1553807745.606,40.527,68.848,25.879,32.715,16.113,0
1553807745.610,41.504,73.730,26.367,33.203,89.844,0
1553807745.614,44.434,71.289,30.762,30.273,98.145,0
1553807745.618,42.969,72.266,34.668,34.668,74.219,0
1553807745.622,29.785,75.684,23.438,30.273,93.262,0
1553807745.626,31.250,76.172,21.973,36.621,40.527,0
1553807745.630,35.645,73.730,31.250,51.270,17.578,0
1553807745.634,28.809,72.266,29.785,37.598,33.691,0
1553807745.638,25.391,71.289,28.809,29.297,-1.465,0
1553807745.641,23.438,70.801,31.738,36.133,22.949,0
1553807745.645,23.926,67.871,29.785,36.133,52.246,0
1553807745.649,29.297,63.965,30.273,33.203,36.621,0
1553807745.653,31.250,55.176,25.391,28.809,18.555,0
1553807745.657,28.320,52.246,27.832,37.598,36.621,0
1553807745.661,35.645,36.621,37.109,40.527,10.254,0
1553807745.665,41.016,25.391,32.715,35.645,32.227,0
1553807745.669,31.738,29.297,24.902,37.109,69.824,0
1553807745.673,27.832,24.902,18.555,38.086,32.227,0
1553807745.677,31.738,12.207,23.438,42.480,2.441,0
1553807745.680,32.715,2.930,21.484,33.203,-28.809,0
1553807745.684,35.645,2.930,25.879,32.227,7.324,0
1553807745.688,34.668,-2.441,37.109,41.992,41.504,0
1553807745.692,33.691,-17.578,39.551,34.668,9.277,0
1553807745.696,41.504,-11.230,34.180,28.809,21.973,0
1553807745.700,40.527,-3.418,25.879,24.902,58.594,0
1553807745.704,36.133,-12.207,24.414,26.367,39.551,0
1553807745.708,42.480,-7.812,21.973,39.062,22.461,0
1553807745.712,36.621,-5.371,28.809,33.691,23.926,0
1553807745.716,30.273,-5.859,34.180,24.414,41.504,0
1553807745.720,30.273,2.930,28.809,25.879,39.551,0
1553807745.723,22.949,2.930,23.438,21.973,14.648,0
1553807745.727,40.039,5.859,20.996,38.574,72.266,0
1553807745.731,50.293,13.184,33.691,46.387,65.918,0
1553807745.735,24.414,13.184,39.062,26.855,55.176,0
1553807745.739,5.371,10.742,40.039,6.836,36.133,0
1553807745.743,6.348,7.324,44.922,11.719,-2.930,0
1553807745.747,29.785,14.160,48.340,44.922,81.055,0
1553807745.751,23.438,21.973,45.898,28.320,35.645,0
1553807745.755,12.207,19.531,36.621,21.484,-27.344,0
1553807745.759,17.090,20.996,42.969,48.828,-1.465,0
1553807745.763,7.324,21.973,46.875,37.598,18.555,0
1553807745.766,2.930,16.602,45.898,22.461,24.902,0
1553807745.770,11.719,10.742,44.922,16.113,8.789,0
1553807745.774,9.766,12.207,44.434,18.555,30.762,0
1553807745.778,7.812,4.395,41.016,26.855,-24.414,0
1553807745.782,10.254,21.973,32.715,25.879,-19.531,0
1553807745.786,10.254,39.062,33.691,23.438,23.926,0
1553807745.790,10.742,32.715,37.109,29.785,-17.578,0
1553807745.794,13.672,36.133,36.133,29.297,14.160,0
1553807745.798,15.625,38.086,37.109,29.297,41.016,0
1553807745.802,20.508,39.062,41.992,32.715,65.430,0
1553807745.805,13.672,29.297,39.062,25.391,56.641,0
1553807745.809,1.953,24.902,38.574,33.203,-20.996,0
1553807745.813,4.883,23.926,45.410,29.297,-43.457,0
1553807745.817,13.672,32.715,40.527,15.137,12.695,0
1553807745.821,25.391,42.969,37.109,30.273,49.805,0
1553807745.825,24.414,47.852,34.668,38.086,56.152,0
1553807745.829,15.137,47.363,35.645,29.297,31.738,0
1553807745.833,13.184,44.434,45.410,29.785,-37.109,0
1553807745.837,17.090,48.828,47.852,43.457,10.742,0
1553807745.841,25.879,44.434,48.828,45.898,46.387,0
1553807745.845,26.367,41.504,43.457,44.922,22.461,0
1553807745.848,22.949,42.480,38.086,43.945,-11.719,0
1553807745.852,23.438,45.410,37.109,41.504,-19.043,0
1553807745.856,25.391,50.781,41.504,41.992,47.852,0
1553807745.860,25.391,48.828,41.504,26.855,81.543,0
1553807745.864,9.277,46.875,32.715,18.555,49.805,0
1553807745.868,8.301,35.645,30.762,24.902,14.648,0
1553807745.872,23.438,25.391,26.855,18.555,76.172,0
1553807745.876,21.484,32.715,25.879,16.602,74.707,0
1553807745.880,20.996,36.133,26.855,30.273,27.832,0
1553807745.884,16.113,30.762,30.762,30.273,-6.836,0
1553807745.888,9.277,35.645,33.691,23.926,18.066,0
1553807745.891,16.113,48.828,27.832,19.531,67.871,0
1553807745.895,21.973,49.805,25.879,21.973,96.680,0
1553807745.899,20.020,46.875,31.250,33.691,67.383,0
1553807745.903,18.555,54.688,30.762,24.902,49.316,0
1553807745.907,23.438,65.918,33.691,15.625,88.379,0
1553807745.911,37.598,74.219,43.457,36.621,104.492,0
1553807745.915,39.551,66.406,39.551,39.551,47.852,0
1553807745.919,19.531,56.641,28.809,23.926,-6.348,0
1553807745.923,19.043,58.105,25.879,29.297,-15.625,0
1553807745.927,19.531,60.059,21.973,23.926,7.812,0
1553807745.930,17.090,53.223,23.926,20.508,49.316,0
1553807745.934,29.785,42.969,30.273,33.203,61.523,0
1553807745.938,41.504,41.992,36.621,41.016,56.641,0
1553807745.942,39.551,37.109,40.527,41.016,81.055,0
1553807745.946,45.898,35.156,37.598,55.664,54.199,0
1553807745.950,45.898,41.504,34.180,52.734,7.324,0
1553807745.954,9.277,43.457,29.297,12.695,11.719,0
1553807745.958,1.953,49.316,28.320,7.812,15.137,0
1553807745.962,12.207,44.922,27.344,7.812,71.289,0
1553807745.966,14.648,40.527,25.391,12.207,95.215,0
1553807745.970,28.809,47.852,36.621,23.926,12.207,0
1553807745.973,26.855,48.828,41.992,22.949,-30.762,0
1553807745.977,22.461,47.363,36.621,35.156,36.133,0
1553807745.981,22.461,51.270,34.180,39.062,36.133,0
1553807745.985,18.066,49.805,32.715,35.645,3.906,0
1553807745.989,10.742,44.434,27.832,32.227,60.059,0
1553807745.993,10.254,37.598,27.832,18.066,120.605,0
1553807745.997,14.160,39.062,31.250,15.137,75.195,0
1553807746.001,20.020,42.480,32.227,26.855,26.367,0
1553807746.005,23.926,29.297,33.203,26.855,55.176,0
1553807746.009,29.297,30.273,32.227,27.832,1.953,0
1553807746.013,15.625,41.992,29.297,28.320,-5.371,0
1553807746.016,13.184,43.457,29.297,27.344,58.594,0
1553807746.020,25.879,33.691,41.016,34.180,63.965,0
1553807746.024,20.996,35.156,39.062,38.574,21.484,0
1553807746.028,14.648,46.387,28.809,30.762,2.930,0
1553807746.032,18.555,48.340,33.203,33.203,53.223,0
1553807746.036,22.461,49.805,34.180,41.016,69.336,0
1553807746.040,20.996,51.758,32.715,41.992,77.637,0
1553807746.044,28.320,54.199,37.598,42.969,38.086,0
1553807746.048,34.668,58.105,39.062,45.410,14.160,0
1553807746.052,34.668,60.547,30.762,36.133,15.625,0
1553807746.055,33.691,56.152,29.297,29.297,31.738,0
1553807746.059,25.391,60.547,31.250,34.668,10.254,0
1553807746.063,20.020,59.570,25.879,30.762,11.719,0
1553807746.067,19.531,60.059,30.273,36.133,22.461,0
1553807746.071,34.180,61.523,37.109,37.109,4.883,0
1553807746.075,35.156,50.293,30.273,28.320,36.621,0
1553807746.079,36.621,51.270,27.344,40.527,63.965,0
1553807746.083,41.504,50.781,29.297,39.551,50.293,0
1553807746.087,40.527,46.387,22.949,30.273,10.742,0
1553807746.091,42.969,50.781,21.973,33.691,21.973,0
1553807746.095,40.039,56.641,29.297,39.551,34.668,0
1553807746.098,55.664,62.500,33.691,53.223,46.387,0
1553807746.102,53.223,72.754,27.832,47.852,38.086,0
1553807746.106,18.066,68.848,20.508,24.414,2.441,0
1553807746.110,20.508,66.406,20.020,23.438,42.480,0
1553807746.114,22.949,75.684,21.484,19.043,62.988,0
1553807746.118,29.785,71.777,17.578,23.926,23.438,0
1553807746.122,52.734,70.801,21.973,41.992,44.434,0
1553807746.126,27.832,65.918,14.160,12.207,27.832,0
1553807746.130,33.691,58.594,10.742,19.531,-4.395,0
1553807746.134,49.805,64.453,22.461,43.945,3.418,0
1553807746.138,36.133,61.035,19.531,31.738,2.930,0
1553807746.141,36.621,50.781,23.438,34.668,11.230,0
1553807746.145,39.551,47.363,28.809,31.250,63.477,0
1553807746.149,29.785,49.805,22.461,24.902,83.496,0
1553807746.153,35.156,38.086,25.391,35.645,37.598,0
1553807746.157,36.133,30.273,30.762,41.504,48.340,0
1553807746.161,20.508,27.832,26.855,32.715,19.043,0
1553807746.165,24.902,29.785,21.484,29.785,23.926,0
1553807746.169,37.598,25.391,31.738,34.668,62.988,0
1553807746.173,44.922,20.020,39.551,39.062,52.734,0
1553807746.177,34.180,24.414,27.344,28.809,1.465,0
1553807746.180,32.227,21.484,23.438,26.855,10.742,0
1553807746.184,33.691,20.508,23.438,33.691,59.570,0
1553807746.188,34.668,16.113,22.949,28.320,14.160,0
1553807746.192,28.809,14.648,29.785,22.461,2.441,0
1553807746.196,26.855,28.320,38.574,29.785,15.625,0
1553807746.200,37.109,31.250,33.691,38.574,39.062,0
1553807746.204,47.363,16.113,27.344,46.387,70.312,0
1553807746.208,46.875,14.160,27.344,51.758,92.285,0
1553807746.212,50.293,15.625,29.785,50.781,19.043,0
