timestamps,TP9,AF7,AF8,TP10,Right AUX,Marker0
1542905221.541,53.711,29.785,35.156,40.527,0.977,0
1542905221.545,60.059,32.715,27.344,30.273,7.812,0
1542905221.549,57.129,35.156,24.902,30.273,11.230,0
1542905221.553,64.941,40.527,29.297,25.391,23.926,0
1542905221.557,53.711,33.691,38.086,37.598,-3.906,0
1542905221.561,61.035,23.926,40.039,55.176,4.883,0
1542905221.565,74.707,33.203,34.668,38.086,60.059,0
1542905221.569,65.918,29.785,32.715,55.176,92.773,0
1542905221.573,61.523,21.973,27.832,70.801,54.688,0
1542905221.577,70.312,33.203,27.832,66.895,8.301,0
1542905221.580,65.918,42.969,28.809,68.848,0.488,0
1542905221.584,47.363,46.875,27.832,62.988,0.000,0
1542905221.588,48.828,48.340,32.715,39.062,52.246,0
1542905221.592,64.453,43.945,33.691,28.809,112.793,0
1542905221.596,60.059,34.668,29.297,41.016,64.453,0
1542905221.600,51.758,22.949,35.645,60.059,43.457,0
1542905221.604,67.871,25.879,41.504,58.594,57.129,0
1542905221.608,67.871,38.574,38.086,43.457,51.270,0
1542905221.612,62.988,37.598,23.926,50.781,62.500,0
1542905221.616,52.246,32.715,17.090,41.504,26.855,0
1542905221.619,51.270,34.180,26.367,10.254,-38.574,0
1542905221.623,55.176,39.062,32.715,11.230,-10.254,0
1542905221.627,49.805,38.086,33.203,40.527,10.254,0
1542905221.631,47.363,34.668,32.227,48.340,16.602,0
1542905221.635,39.062,38.574,29.785,51.270,33.691,0
1542905221.639,40.527,37.109,24.902,35.156,41.504,0
1542905221.643,53.711,38.086,29.785,47.852,42.969,0
1542905221.647,76.172,41.992,35.645,54.688,69.824,0
1542905221.651,65.918,38.086,34.180,21.973,74.219,0
1542905221.655,47.363,30.762,34.668,-0.488,8.789,0
1542905221.659,40.527,29.785,34.668,28.320,25.391,0
1542905221.662,39.062,31.250,31.250,45.898,63.477,0
1542905221.666,42.969,31.738,34.180,39.551,10.742,0
1542905221.670,57.129,41.992,22.461,41.992,15.625,0
1542905221.674,65.918,46.387,12.207,16.602,44.922,0
1542905221.678,43.945,38.086,27.344,6.348,39.062,0
1542905221.682,23.438,27.344,41.992,41.504,14.160,0
1542905221.686,16.113,19.043,48.340,39.062,-15.137,0
1542905221.690,26.367,13.672,43.945,25.391,3.418,0
1542905221.694,42.969,8.789,47.852,48.828,25.391,0
1542905221.698,39.551,10.254,48.828,56.152,5.371,0
1542905221.702,39.062,18.066,44.922,36.621,-2.930,0
1542905221.705,43.457,17.090,49.316,53.223,21.973,0
1542905221.709,45.898,13.672,45.898,67.383,34.180,0
1542905221.713,40.039,18.066,39.551,30.273,29.297,0
1542905221.717,30.273,17.090,41.992,21.484,79.102,0
1542905221.721,35.645,7.812,42.480,33.691,56.641,0
1542905221.725,43.457,18.555,44.434,23.438,47.363,0
1542905221.729,40.039,29.297,41.016,40.039,16.113,0
1542905221.733,27.832,5.371,34.668,56.152,-39.062,0
1542905221.737,24.414,-4.883,34.180,35.156,12.695,0
1542905221.741,52.734,22.949,32.227,30.762,11.230,0
1542905221.744,53.711,37.598,39.062,41.016,-59.082,0
1542905221.748,40.039,41.016,48.340,55.664,-43.945,0
1542905221.752,45.410,42.969,52.734,37.109,37.109,0
1542905221.756,53.711,31.738,49.805,27.344,48.340,0
1542905221.760,47.852,23.438,44.434,27.832,12.207,0
1542905221.764,47.363,28.320,40.039,23.438,10.742,0
1542905221.768,41.992,32.715,39.551,48.828,-0.977,0
1542905221.772,31.250,30.273,39.551,35.156,15.625,0
1542905221.776,33.691,28.320,37.598,20.996,72.266,0
1542905221.780,25.879,21.973,34.668,36.621,43.457,0
1542905221.784,19.043,19.043,34.668,7.324,39.062,0
1542905221.787,31.738,25.879,38.574,-4.395,-3.906,0
1542905221.791,42.480,27.832,39.062,14.648,-13.672,0
1542905221.795,45.898,27.832,36.133,39.551,40.039,0
1542905221.799,51.270,31.250,33.691,38.574,91.797,0
1542905221.803,50.781,33.203,34.668,24.414,79.102,0
1542905221.807,45.410,28.320,39.551,43.457,-3.906,0
1542905221.811,49.316,26.855,40.527,57.617,-43.945,0
1542905221.815,46.387,27.344,36.621,64.453,-8.301,0
1542905221.819,35.156,26.367,36.621,55.664,71.777,0
1542905221.823,41.016,25.391,36.133,27.344,12.207,0
1542905221.827,42.969,28.320,32.715,20.996,-13.184,0
1542905221.830,53.711,32.715,33.203,29.785,50.293,0
1542905221.834,65.918,35.645,34.180,32.715,23.438,0
1542905221.838,53.711,35.156,34.180,29.785,60.059,0
1542905221.842,50.781,33.203,32.227,20.508,62.012,0
1542905221.846,53.711,36.621,32.715,28.320,40.527,0
1542905221.850,50.781,40.527,33.691,33.203,24.902,0
1542905221.854,60.547,42.480,30.273,33.203,44.922,0
1542905221.858,54.688,34.668,31.250,52.246,62.988,0
1542905221.862,40.039,33.691,32.227,39.551,6.836,0
1542905221.866,45.410,32.715,30.273,35.156,-24.414,0
1542905221.869,44.922,25.391,31.250,37.598,-22.949,0
1542905221.873,42.480,25.879,33.203,41.992,-48.340,0
1542905221.877,47.852,27.832,35.645,59.570,-37.109,0
1542905221.881,41.992,30.273,36.133,41.504,9.277,0
1542905221.885,40.039,33.691,38.086,19.043,26.367,0
1542905221.889,51.270,31.738,39.551,18.066,10.254,0
1542905221.893,62.500,22.949,40.039,25.391,66.895,0
1542905221.897,60.059,15.625,40.527,48.340,104.980,0
1542905221.901,52.734,26.367,33.691,43.457,60.059,0
1542905221.905,43.457,46.875,25.879,15.625,104.004,0
1542905221.909,34.180,54.688,21.973,2.441,49.316,0
1542905221.912,44.434,52.734,14.648,19.531,-18.555,0
1542905221.916,53.223,55.664,15.137,38.574,-2.930,0
1542905221.920,55.664,59.082,10.254,43.457,40.039,0
1542905221.924,52.734,58.105,9.766,55.664,63.477,0
1542905221.928,28.320,46.875,27.832,39.062,-14.160,0
1542905221.932,38.086,44.922,30.762,32.715,18.066,0
1542905221.936,48.828,49.316,30.273,21.973,111.328,0
1542905221.940,41.504,48.828,25.879,23.926,96.191,0
1542905221.944,56.152,45.410,16.602,23.926,9.766,0
1542905221.948,51.270,39.062,18.066,20.020,-5.859,0
1542905221.952,48.828,38.086,20.996,52.246,8.301,0
1542905221.955,65.430,39.551,24.414,70.801,40.039,0
1542905221.959,55.664,33.691,25.391,38.574,92.285,0
1542905221.963,55.176,36.133,26.855,7.324,49.805,0
1542905221.967,60.059,41.992,31.250,22.949,24.902,0
1542905221.971,47.363,45.410,22.461,41.504,60.059,0
1542905221.975,57.617,47.363,15.625,79.102,60.547,0
1542905221.979,62.012,46.875,25.391,73.730,54.199,0
1542905221.983,52.246,49.805,33.691,27.344,21.973,0
1542905221.987,54.199,49.805,40.039,45.898,6.348,0
1542905221.991,45.898,45.410,41.016,45.898,51.270,0
1542905221.994,45.410,39.062,36.621,42.969,46.875,0
1542905221.998,43.457,38.574,36.133,58.105,9.277,0
1542905222.002,44.434,41.016,34.180,61.035,18.066,0
1542905222.006,50.781,35.645,32.227,44.434,29.297,0
1542905222.010,57.129,29.785,33.203,21.484,70.801,0
1542905222.014,70.801,29.785,30.762,18.066,71.289,0
1542905222.018,69.824,28.320,31.250,24.902,34.180,0
1542905222.022,45.410,29.297,35.156,45.410,11.719,0
1542905222.026,30.762,30.273,35.645,20.020,29.297,0
1542905222.030,25.391,33.691,34.180,-7.324,58.105,0
1542905222.034,27.832,39.062,30.762,-2.930,72.754,0
1542905222.037,36.133,40.039,31.250,16.113,10.742,0
1542905222.041,38.574,38.574,26.855,32.227,-16.113,0
1542905222.045,55.664,36.133,27.344,59.082,18.066,0
1542905222.049,57.617,36.621,37.598,41.992,2.441,0
1542905222.053,76.172,22.461,32.715,15.137,-0.488,0
1542905222.057,89.844,10.254,21.973,6.836,36.621,0
1542905222.061,62.988,25.879,21.973,17.578,43.457,0
1542905222.065,46.875,35.156,32.227,31.250,26.367,0
1542905222.069,48.828,37.109,38.574,62.012,31.738,0
1542905222.073,46.387,37.109,37.598,63.965,40.039,0
1542905222.077,26.855,38.086,35.156,29.785,39.551,0
1542905222.080,22.949,38.574,35.645,13.184,25.391,0
1542905222.084,61.523,39.551,34.668,-12.695,26.855,0
1542905222.088,65.430,40.039,28.809,12.695,42.480,0
1542905222.092,27.832,30.273,25.879,41.504,37.109,0
1542905222.096,25.879,26.367,35.156,23.438,25.391,0
1542905222.100,29.297,28.809,42.480,5.859,17.578,0
1542905222.104,34.668,24.902,41.016,45.898,67.383,0
1542905222.108,27.344,28.809,43.945,57.129,68.848,0
1542905222.112,25.879,35.645,36.621,41.992,8.789,0
1542905222.116,33.691,33.691,27.832,40.039,25.879,0
1542905222.119,36.133,32.715,29.297,31.738,40.527,0
1542905222.123,49.316,36.133,33.203,38.574,38.574,0
1542905222.127,49.316,32.227,36.133,38.086,0.977,0
1542905222.131,32.227,22.949,38.086,24.414,17.578,0
1542905222.135,24.902,27.344,36.621,29.785,53.711,0
1542905222.139,34.668,32.227,38.574,47.363,21.484,0
1542905222.143,44.434,34.180,38.086,41.504,5.859,0
1542905222.147,36.621,41.016,33.691,24.902,40.527,0
1542905222.151,40.039,40.527,34.668,29.785,40.039,0
1542905222.155,44.922,40.039,31.738,48.828,24.902,0
1542905222.159,51.270,42.480,29.785,60.547,-13.672,0
1542905222.162,66.895,40.527,33.203,46.875,-14.648,0
1542905222.166,67.383,34.668,31.738,49.805,35.645,0
1542905222.170,53.223,27.832,31.250,55.664,72.754,0
1542905222.174,39.551,27.344,32.227,52.734,28.320,0
1542905222.178,47.852,35.645,24.902,44.434,25.391,0
1542905222.182,45.410,37.598,25.391,31.738,50.781,0
1542905222.186,35.645,36.133,19.531,25.391,66.406,0
1542905222.190,61.523,35.156,20.020,63.477,39.551,0
1542905222.194,60.059,33.203,31.738,57.617,-42.480,0
1542905222.198,31.250,34.668,29.297,10.742,12.207,0
1542905222.202,22.461,28.809,37.598,13.184,28.809,0
1542905222.205,34.668,27.344,42.480,18.066,18.066,0
1542905222.209,44.434,31.738,35.645,33.203,20.996,0
1542905222.213,25.391,20.020,40.527,20.508,-24.902,0
1542905222.217,17.578,10.254,44.434,16.602,63.477,0
1542905222.221,29.297,17.090,40.527,56.152,55.664,0
1542905222.225,48.828,27.832,37.598,49.805,-3.418,0
1542905222.229,50.781,30.762,35.156,2.441,11.230,0
1542905222.233,41.016,26.855,33.691,8.789,-9.766,0
1542905222.237,44.434,27.344,28.809,23.926,59.082,0
1542905222.241,49.805,25.391,26.367,13.184,15.625,0
1542905222.244,52.246,26.855,32.715,47.363,-52.734,0
1542905222.248,57.129,28.320,34.180,38.086,20.508,0
1542905222.252,57.129,19.531,34.668,28.320,40.527,0
1542905222.256,45.410,12.207,31.738,39.551,29.785,0
1542905222.260,41.504,18.066,26.855,29.297,14.648,0
1542905222.264,49.805,20.508,25.391,44.434,-7.324,0
1542905222.268,48.828,7.812,25.879,55.664,13.184,0
1542905222.272,52.246,6.348,33.203,36.133,6.348,0
1542905222.276,57.617,20.996,39.062,23.926,-31.250,0
1542905222.280,59.570,22.461,38.086,39.551,49.316,0
1542905222.284,53.711,21.973,37.598,27.344,28.320,0
1542905222.287,33.203,30.273,35.645,-9.766,-37.598,0
1542905222.291,32.227,28.320,37.109,19.043,-26.855,0
1542905222.295,43.457,22.461,38.086,55.176,28.320,0
1542905222.299,47.363,26.367,31.738,40.039,54.688,0
1542905222.303,57.617,31.250,30.762,22.949,21.973,0
1542905222.307,72.266,30.273,30.762,20.508,45.410,0
1542905222.311,71.777,30.273,26.855,33.203,22.949,0
1542905222.315,57.129,28.320,31.250,45.898,22.949,0
1542905222.319,47.363,23.438,34.180,42.969,67.871,0
1542905222.323,44.922,23.438,32.227,46.387,57.617,0
1542905222.327,25.879,24.414,39.062,23.438,20.508,0
1542905222.330,48.340,28.320,39.551,14.648,40.039,0
1542905222.334,78.125,35.645,28.320,32.715,37.109,0
1542905222.338,61.523,30.273,25.879,62.500,47.852,0
1542905222.342,66.406,27.344,30.762,63.965,61.035,0
1542905222.346,62.988,38.086,29.297,29.785,52.246,0
1542905222.350,59.082,37.109,36.133,33.203,70.801,0
1542905222.354,75.195,39.062,36.133,13.672,49.805,0
1542905222.358,76.660,40.527,30.273,17.578,29.785,0
1542905222.362,47.363,36.621,34.180,41.504,48.340,0
1542905222.366,42.480,36.621,35.645,52.246,24.902,0
1542905222.369,51.758,33.691,34.180,43.945,24.414,0
1542905222.373,50.293,34.180,27.344,28.320,59.570,0
1542905222.377,50.781,32.227,26.367,47.363,49.805,0
1542905222.381,50.293,30.762,31.250,49.805,38.086,0
1542905222.385,55.176,32.227,37.598,31.738,56.152,0
1542905222.389,57.129,28.809,38.086,44.434,4.883,0
1542905222.393,63.477,29.297,32.715,42.480,-60.547,0
1542905222.397,61.035,33.691,36.621,43.457,-55.664,0
1542905222.401,68.848,35.645,35.645,47.363,-11.719,0
1542905222.405,80.566,32.715,30.762,42.969,34.668,0
1542905222.409,39.062,25.879,35.156,38.086,18.555,0
1542905222.412,38.574,30.762,35.156,18.555,15.625,0
1542905222.416,60.059,40.527,36.133,16.113,62.500,0
1542905222.420,48.340,36.621,39.062,17.090,19.531,0
1542905222.424,42.969,33.203,35.156,10.742,-44.434,0
1542905222.428,59.082,38.574,20.508,21.973,12.695,0
1542905222.432,82.520,39.062,21.484,58.594,28.320,0
1542905222.436,63.965,34.668,34.668,54.199,-22.461,0
1542905222.440,30.762,31.738,38.086,9.277,-36.621,0
1542905222.444,20.020,18.555,46.387,-20.020,-15.625,0
1542905222.448,50.293,19.043,41.016,-17.578,37.109,0
1542905222.452,66.406,35.156,34.668,3.906,58.594,0
1542905222.455,45.898,35.156,37.109,37.598,66.895,0
1542905222.459,28.809,29.297,35.156,30.762,40.527,0
1542905222.463,34.668,30.273,34.668,11.719,35.645,0
1542905222.467,48.340,28.809,39.551,21.484,72.754,0
1542905222.471,48.340,24.902,43.457,20.508,69.824,0
1542905222.475,49.805,30.762,43.945,37.109,35.645,0
1542905222.479,41.016,32.227,42.969,52.734,-1.953,0
1542905222.483,39.551,28.809,39.551,56.152,25.391,0
1542905222.487,47.852,35.156,34.180,59.570,66.895,0
1542905222.491,46.875,30.273,35.156,34.668,59.570,0
1542905222.494,42.480,27.344,38.574,38.086,10.742,0
1542905222.498,52.734,27.344,37.109,55.664,-20.996,0
1542905222.502,62.988,23.438,36.621,44.434,33.203,0
1542905222.506,47.363,24.902,38.086,47.852,38.086,0
1542905222.510,55.176,31.250,42.969,47.852,-1.465,0
1542905222.514,69.336,34.668,41.504,39.062,-3.906,0
1542905222.518,56.152,33.203,39.062,51.758,42.480,0
1542905222.522,46.387,35.645,39.551,40.527,68.359,0
1542905222.526,43.457,39.551,38.574,41.016,27.344,0
1542905222.530,45.898,36.621,40.039,67.383,40.527,0
1542905222.534,49.805,37.109,40.527,70.312,-4.395,0
1542905222.537,47.852,41.504,35.645,70.312,-1.953,0
1542905222.541,43.945,37.598,33.203,53.711,42.969,0
1542905222.545,52.246,30.273,25.391,42.480,5.859,0
1542905222.549,36.621,31.250,20.020,32.227,5.859,0
1542905222.553,13.184,34.180,24.902,26.367,31.738,0
1542905222.557,31.250,40.039,33.691,40.039,28.320,0
1542905222.561,44.434,42.480,41.016,43.945,51.758,0
1542905222.565,33.203,35.156,44.922,65.918,50.293,0
1542905222.569,35.645,30.762,43.457,52.734,37.109,0
1542905222.573,48.828,35.156,39.062,27.832,23.438,0
1542905222.577,49.316,34.180,39.062,32.227,36.621,0
1542905222.580,39.551,31.250,39.062,31.738,27.832,0
1542905222.584,33.691,27.344,39.062,31.250,15.625,0
1542905222.588,38.086,28.320,38.574,38.086,5.859,0
1542905222.592,35.156,30.762,36.621,47.852,14.160,0
1542905222.596,52.734,25.391,33.691,51.758,29.785,0
1542905222.600,77.148,34.668,32.227,36.621,-17.090,0
1542905222.604,56.641,40.039,37.109,35.645,-24.414,0
1542905222.608,39.551,34.668,32.715,26.367,17.578,0
1542905222.612,51.270,36.133,26.367,13.184,24.414,0
1542905222.616,52.246,34.668,29.785,37.598,20.996,0
1542905222.619,46.387,29.297,36.133,70.801,-7.812,0
1542905222.623,50.293,27.344,36.621,59.082,10.254,0
1542905222.627,52.734,27.344,36.621,45.898,5.371,0
1542905222.631,55.176,31.250,36.133,50.781,-11.719,0
1542905222.635,53.711,29.785,34.668,39.551,56.152,0
1542905222.639,54.688,27.832,36.621,34.180,84.473,0
1542905222.643,54.199,31.250,33.203,29.297,-1.953,0
1542905222.647,50.781,32.715,37.109,52.246,-24.414,0
1542905222.651,52.246,27.832,32.715,41.992,-21.973,0
1542905222.655,62.988,26.855,29.297,33.203,14.648,0
1542905222.659,64.453,35.156,35.156,34.180,43.457,0
1542905222.662,47.852,40.527,35.645,52.734,4.883,0
1542905222.666,48.828,40.527,36.133,46.875,26.855,0
1542905222.670,41.504,41.016,38.086,27.832,65.430,0
1542905222.674,45.410,41.992,29.297,46.387,12.207,0
1542905222.678,66.895,41.504,19.531,75.195,-7.812,0
1542905222.682,63.477,36.621,30.762,73.730,30.273,0
1542905222.686,47.363,30.762,37.598,40.527,62.500,0
1542905222.690,50.293,24.902,41.016,47.852,25.879,0
1542905222.694,52.246,16.602,51.758,68.359,-16.113,0
1542905222.698,52.734,14.648,52.734,63.965,0.488,0
1542905222.702,53.711,20.996,47.852,48.340,60.059,0
1542905222.705,57.129,22.949,48.828,47.852,1.953,0
1542905222.709,59.570,24.902,45.898,66.406,2.930,0
1542905222.713,60.547,32.227,46.387,69.824,61.035,0
1542905222.717,67.383,32.715,48.828,36.133,38.574,0
1542905222.721,70.801,25.391,45.410,27.344,47.852,0
1542905222.725,48.828,24.414,43.945,27.344,52.734,0
1542905222.729,36.133,23.926,43.457,50.781,39.062,0
1542905222.733,44.922,26.855,41.504,66.895,20.996,0
1542905222.737,53.711,28.809,39.062,34.180,-0.977,0
1542905222.741,51.758,22.461,41.016,39.062,-10.254,0
1542905222.744,55.176,25.879,40.039,57.617,48.340,0
1542905222.748,50.293,29.785,31.738,28.320,58.594,0
1542905222.752,40.527,30.273,35.156,6.836,23.926,0
1542905222.756,56.152,30.762,45.410,37.109,28.320,0
1542905222.760,56.152,34.668,42.480,60.059,19.531,0
1542905222.764,62.012,34.668,43.945,44.922,-8.789,0
1542905222.768,81.543,27.832,43.945,47.363,-18.066,0
1542905222.772,69.336,35.156,37.109,47.852,-0.488,0
1542905222.776,50.781,32.715,37.109,36.133,48.828,0
1542905222.780,65.430,27.344,36.621,70.801,60.547,0
1542905222.784,59.570,31.738,39.551,58.594,27.344,0
1542905222.787,41.992,32.715,41.016,25.391,34.668,0
1542905222.791,46.875,28.809,36.133,10.254,30.762,0
1542905222.795,57.129,20.508,32.715,3.906,34.668,0
1542905222.799,58.105,20.508,34.668,45.898,35.156,0
1542905222.803,63.965,28.809,38.574,62.500,-10.254,0
1542905222.807,81.055,37.598,36.133,34.180,11.230,0
1542905222.811,66.895,41.504,28.320,7.812,56.152,0
1542905222.815,60.547,40.527,28.809,1.953,6.348,0
1542905222.819,67.383,42.969,29.297,21.973,13.184,0
1542905222.823,51.270,43.945,27.344,42.480,18.066,0
1542905222.827,67.871,41.016,28.809,65.918,-15.625,0
1542905222.830,82.520,35.645,33.203,74.707,27.344,0
1542905222.834,56.641,32.715,33.203,48.340,87.402,0
1542905222.838,43.945,37.598,29.785,28.809,83.984,0
1542905222.842,58.594,38.574,25.879,38.086,51.758,0
1542905222.846,64.453,35.645,28.320,45.410,48.828,0
1542905222.850,53.711,36.133,30.762,56.152,34.668,0
1542905222.854,53.223,34.668,27.832,55.176,27.344,0
1542905222.858,58.594,34.180,32.715,41.504,66.406,0
1542905222.862,49.805,35.156,38.574,37.598,42.969,0
1542905222.866,47.363,37.109,36.133,28.809,25.391,0
1542905222.869,61.035,34.180,30.762,41.992,63.965,0
1542905222.873,61.523,28.809,28.320,49.805,33.203,0
1542905222.877,56.152,34.180,29.297,46.387,10.254,0
1542905222.881,59.570,38.086,33.691,60.059,14.648,0
1542905222.885,62.988,33.203,35.645,85.938,49.805,0
1542905222.889,63.965,34.180,32.715,70.801,55.664,0
1542905222.893,46.387,30.762,29.297,19.043,1.465,0
1542905222.897,47.363,33.203,29.785,6.836,10.254,0
1542905222.901,66.895,47.363,34.180,38.086,50.781,0
1542905222.905,49.316,37.598,37.109,41.992,38.086,0
1542905222.909,27.344,25.879,36.133,7.812,41.016,0
1542905222.912,45.410,31.250,34.668,22.461,44.434,0
1542905222.916,45.410,36.621,33.691,45.898,33.691,0
1542905222.920,43.945,40.039,33.203,31.250,5.371,0
1542905222.924,73.730,48.340,32.715,37.109,28.809,0
1542905222.928,74.707,38.086,38.086,46.387,20.996,0
1542905222.932,68.359,23.926,43.945,68.848,30.273,0
1542905222.936,54.688,21.484,40.527,64.941,62.012,0
1542905222.940,25.879,20.508,36.133,24.414,46.875,0
1542905222.944,37.598,41.992,28.809,46.387,57.129,0
1542905222.948,61.523,56.641,21.973,50.781,82.031,0
1542905222.952,73.242,62.988,13.184,-2.441,33.203,0
1542905222.955,55.176,69.336,10.254,9.277,41.016,0
1542905222.959,43.945,60.059,22.461,34.668,80.566,0
1542905222.963,47.852,49.805,32.227,29.785,64.941,0
1542905222.967,44.434,50.781,31.250,47.363,50.293,0
1542905222.971,48.340,49.805,35.156,61.035,16.602,0
1542905222.975,24.414,42.969,37.598,64.941,15.625,0
1542905222.979,31.738,32.227,30.273,63.965,24.902,0
1542905222.983,65.430,29.785,25.879,60.547,22.461,0
1542905222.987,71.289,44.922,26.367,40.527,60.547,0
1542905222.991,58.105,52.734,16.602,9.766,54.688,0
1542905222.994,39.062,48.828,9.277,10.254,22.949,0
1542905222.998,30.762,48.828,13.184,12.695,13.184,0
1542905223.002,38.574,42.480,21.973,9.277,12.207,0
1542905223.006,45.898,26.367,30.762,18.066,2.441,0
1542905223.010,54.688,23.926,37.109,39.062,19.531,0
1542905223.014,67.871,27.832,36.133,84.473,37.598,0
1542905223.018,69.336,29.785,39.062,95.703,15.625,0
1542905223.022,71.289,36.133,35.645,71.777,34.180,0
1542905223.026,68.359,44.434,29.785,33.691,-4.395,0
1542905223.030,57.617,41.016,22.461,22.461,-23.438,0
1542905223.034,59.082,30.762,17.578,42.969,1.465,0
1542905223.037,55.664,32.715,31.738,63.965,69.336,0
1542905223.041,47.852,32.227,39.551,60.547,103.516,0
1542905223.045,67.871,30.273,40.039,30.273,64.941,0
1542905223.049,63.965,39.551,39.551,41.992,16.602,0
1542905223.053,46.875,43.457,38.086,57.129,9.766,0
1542905223.057,62.988,47.363,39.062,62.988,27.832,0
1542905223.061,66.895,45.898,41.504,60.059,-4.395,0
1542905223.065,63.477,43.945,42.969,75.195,26.367,0
1542905223.069,60.547,53.711,42.480,87.891,34.668,0
1542905223.073,55.176,56.152,46.387,35.156,14.648,0
1542905223.077,64.453,52.246,41.016,14.648,1.953,0
1542905223.080,62.012,56.641,37.598,26.367,-28.320,0
1542905223.084,44.434,56.152,47.363,21.484,15.625,0
1542905223.088,34.668,47.852,39.551,3.906,67.383,0
1542905223.092,24.902,49.316,35.645,20.508,35.156,0
1542905223.096,19.043,44.434,41.504,66.895,-20.996,0
1542905223.100,20.020,35.645,33.203,49.316,14.160,0
1542905223.104,19.531,37.109,40.039,-10.742,71.289,0
1542905223.108,-4.395,45.898,55.176,-44.922,70.312,0
1542905223.112,-63.965,43.457,54.688,-73.242,42.969,0
1542905223.116,-80.566,49.316,47.852,-92.285,68.359,0
1542905223.119,-87.402,57.129,47.363,-108.887,56.641,0
1542905223.123,-135.742,44.922,70.312,-138.184,23.926,0
1542905223.127,-172.363,41.992,86.914,-135.742,-14.160,0
1542905223.131,-163.086,50.781,86.914,-153.320,-23.926,0
1542905223.135,-158.691,41.016,94.238,-195.312,19.043,0
1542905223.139,-191.895,43.945,101.562,-197.754,36.621,0
1542905223.143,-202.637,51.758,104.492,-231.445,-30.273,0
1542905223.147,-202.637,47.852,107.910,-249.023,-27.832,0
1542905223.151,-220.703,41.992,112.305,-217.285,14.160,0
1542905223.155,-209.473,33.691,118.652,-194.824,38.574,0
1542905223.159,-185.547,41.504,126.465,-198.730,71.777,0
1542905223.162,-187.500,55.664,122.070,-177.734,92.285,0
1542905223.166,-166.016,57.617,109.375,-163.574,51.270,0
1542905223.170,-139.160,53.223,96.680,-159.180,39.551,0
1542905223.174,-129.883,46.875,91.309,-130.859,42.480,0
1542905223.178,-106.445,34.180,94.727,-109.863,52.734,0
1542905223.182,-79.102,17.090,90.332,-83.496,56.152,0
1542905223.186,-27.832,14.160,83.008,-47.363,59.570,0
1542905223.190,-12.695,11.230,71.289,-28.320,45.410,0
1542905223.194,4.883,3.906,57.129,14.648,78.613,0
1542905223.198,33.691,9.766,57.129,50.293,87.891,0
1542905223.202,40.527,0.977,54.688,87.891,56.152,0
1542905223.205,73.242,-3.418,47.852,118.164,58.594,0
1542905223.209,78.125,8.301,36.133,50.781,3.906,0
1542905223.213,75.684,7.324,19.531,33.203,-24.414,0
1542905223.217,112.793,5.371,13.184,91.309,-38.086,0
1542905223.221,123.047,-2.441,8.789,89.355,-31.250,0
1542905223.225,118.164,-2.441,6.836,80.078,-2.441,0
1542905223.229,112.793,9.277,4.395,86.426,-7.324,0
1542905223.233,99.121,3.906,4.395,92.285,-3.906,0
1542905223.237,121.094,2.930,5.371,124.023,-0.488,0
1542905223.241,126.953,6.836,2.441,116.699,33.203,0
1542905223.244,124.023,1.465,2.441,99.121,60.059,0
1542905223.248,125.488,-5.859,-7.324,98.633,14.648,0
1542905223.252,118.652,2.930,-16.602,122.070,-20.508,0
1542905223.256,128.418,23.438,-13.672,135.742,18.555,0
1542905223.260,125.977,9.277,-5.859,120.117,11.719,0
1542905223.264,115.234,1.465,0.488,120.605,20.996,0
1542905223.268,121.582,21.484,3.906,108.887,80.078,0
1542905223.272,132.324,25.391,6.348,98.145,67.383,0
1542905223.276,130.859,22.949,7.324,112.305,37.109,0
1542905223.280,119.141,23.926,4.395,95.215,12.207,0
1542905223.284,124.512,22.461,0.000,90.332,20.996,0
1542905223.287,132.324,22.461,3.906,106.445,17.578,0
1542905223.291,123.535,18.066,5.371,102.051,14.648,0
1542905223.295,122.070,19.043,2.930,95.215,56.641,0
1542905223.299,118.652,25.391,-3.418,76.660,45.410,0
1542905223.303,128.418,21.484,-8.789,91.797,-2.930,0
1542905223.307,129.395,21.484,-9.277,128.906,-20.020,0
1542905223.311,117.676,24.902,-2.930,92.285,32.227,0
1542905223.315,111.328,23.438,12.207,76.172,33.691,0
1542905223.319,107.910,26.367,16.602,75.195,37.109,0
1542905223.323,122.559,25.879,13.184,81.543,-4.883,0
1542905223.327,115.234,29.297,12.695,99.121,27.832,0
1542905223.330,86.914,31.738,8.301,83.496,83.008,0
1542905223.334,80.566,23.438,7.324,71.777,23.926,0
1542905223.338,98.145,18.555,14.160,85.449,-52.734,0
1542905223.342,121.582,27.832,15.137,118.652,-16.113,0
1542905223.346,126.465,34.180,12.207,118.164,81.543,0
1542905223.350,97.656,26.855,14.648,102.539,62.988,0
1542905223.354,77.637,25.391,17.578,97.168,11.230,0
1542905223.358,80.566,33.691,18.066,77.148,28.320,0
1542905223.362,84.473,35.645,18.066,73.242,37.109,0
1542905223.366,83.008,27.344,20.508,91.797,14.160,0
1542905223.369,84.473,17.090,22.461,83.984,27.344,0
1542905223.373,87.891,18.555,18.066,92.285,49.316,0
1542905223.377,76.172,22.949,16.602,95.215,31.738,0
1542905223.381,68.359,30.273,19.531,88.379,-41.016,0
1542905223.385,69.824,36.133,21.484,74.707,-29.785,0
1542905223.389,85.938,38.086,19.043,65.918,24.414,0
1542905223.393,83.008,36.621,20.508,73.242,38.086,0
1542905223.397,83.008,30.762,24.414,69.336,27.344,0
1542905223.401,94.238,23.926,23.438,77.148,84.473,0
1542905223.405,70.312,23.438,30.762,75.684,57.129,0
1542905223.409,57.129,31.738,32.227,58.594,-51.270,0
1542905223.412,63.965,37.109,29.297,41.504,-32.227,0
1542905223.416,74.219,26.855,30.762,46.875,-4.395,0
1542905223.420,70.801,18.555,30.762,56.152,-12.695,0
1542905223.424,67.871,27.344,28.809,63.965,23.438,0
1542905223.428,63.965,33.691,26.367,49.316,67.871,0
1542905223.432,66.406,38.086,29.297,48.828,31.738,0
1542905223.436,76.172,38.086,31.738,54.688,-4.883,0
1542905223.440,65.918,35.156,29.297,49.805,21.973,0
1542905223.444,43.457,36.621,31.738,48.828,67.871,0
1542905223.448,42.480,31.250,30.762,57.617,67.871,0
1542905223.452,50.293,28.320,29.297,52.734,68.848,0
1542905223.455,49.805,28.809,37.598,39.551,83.008,0
1542905223.459,41.504,35.156,30.762,33.691,38.574,0
1542905223.463,40.527,44.434,21.484,40.039,52.734,0
1542905223.467,63.965,45.898,24.414,44.434,84.473,0
1542905223.471,58.594,44.434,25.879,37.109,53.711,0
1542905223.475,37.598,37.109,25.879,29.785,-5.371,0
1542905223.479,45.898,25.391,32.227,16.602,28.320,0
1542905223.483,43.945,19.531,36.133,22.949,40.039,0
1542905223.487,54.199,29.297,34.180,30.273,12.695,0
1542905223.491,66.406,32.715,37.598,57.129,-7.324,0
1542905223.494,58.105,29.785,38.086,74.707,-4.395,0
1542905223.498,38.086,33.691,34.668,60.059,4.395,0
1542905223.502,27.344,23.926,33.691,45.410,52.734,0
1542905223.506,20.508,-0.488,37.109,38.574,50.781,0
1542905223.510,23.438,13.672,41.016,53.711,-30.273,0
1542905223.514,46.387,37.598,38.574,38.086,40.039,0
1542905223.518,35.156,32.715,32.715,37.109,47.363,0
1542905223.522,33.203,27.344,19.531,50.781,-11.719,0
1542905223.526,44.922,32.227,19.043,37.109,6.836,0
1542905223.530,36.133,39.551,30.273,23.438,25.879,0
1542905223.534,30.273,39.551,31.738,20.996,23.926,0
1542905223.537,47.363,34.180,38.574,29.297,5.859,0
1542905223.541,55.176,26.855,42.480,27.344,18.066,0
1542905223.545,38.086,29.297,37.598,48.340,45.410,0
1542905223.549,34.668,24.414,36.133,52.734,15.625,0
1542905223.553,34.668,18.555,35.645,35.156,-64.941,0
1542905223.557,41.504,31.738,38.574,54.199,-22.461,0
1542905223.561,41.504,38.086,42.480,56.152,13.184,0
1542905223.565,43.457,33.203,38.086,25.391,20.020,0
1542905223.569,51.270,35.156,33.691,20.020,57.129,0
1542905223.573,45.898,37.109,30.273,27.832,42.480,0
1542905223.577,44.434,40.527,27.832,19.531,43.457,0
1542905223.580,37.598,36.133,31.250,5.371,50.293,0
1542905223.584,33.203,31.738,32.715,27.344,5.371,0
1542905223.588,51.758,39.551,34.180,50.293,24.414,0
1542905223.592,50.781,37.109,40.527,32.715,24.414,0
1542905223.596,41.992,32.715,33.691,39.062,10.254,0
1542905223.600,41.016,40.039,25.879,42.969,71.289,0
1542905223.604,34.668,40.527,31.250,22.949,67.871,0
1542905223.608,45.898,33.691,31.738,30.273,55.176,0
1542905223.612,60.547,29.785,29.785,41.992,25.391,0
1542905223.616,64.453,25.879,31.250,49.805,40.527,0
1542905223.619,46.387,27.832,30.762,23.926,53.223,0
1542905223.623,50.293,25.879,34.668,15.137,55.176,0
1542905223.627,54.688,19.531,34.668,28.320,64.453,0
1542905223.631,33.203,17.578,30.273,25.879,54.688,0
1542905223.635,46.875,22.461,29.785,26.367,36.621,0
1542905223.639,56.641,29.785,29.297,47.363,-23.438,0
1542905223.643,43.945,30.762,32.715,76.172,-7.812,0
1542905223.647,55.176,30.762,29.785,44.434,29.297,0
1542905223.651,62.012,32.227,28.320,11.230,17.578,0
1542905223.655,49.316,28.809,27.344,14.160,6.836,0
1542905223.659,57.129,22.949,24.414,32.227,23.926,0
1542905223.662,42.969,20.996,23.926,36.133,30.273,0
1542905223.666,34.180,28.320,25.879,36.133,44.434,0
1542905223.670,44.922,38.086,37.109,42.480,40.527,0
1542905223.674,44.922,40.527,38.574,29.297,33.203,0
1542905223.678,43.457,33.691,38.086,17.578,56.641,0
1542905223.682,24.902,31.738,41.992,26.855,2.441,0
1542905223.686,24.414,38.086,43.457,32.227,17.090,0
1542905223.690,40.527,40.039,42.480,34.180,52.246,0
1542905223.694,42.969,39.062,40.527,32.715,22.949,0
1542905223.698,51.758,38.574,41.992,49.316,-10.742,0
1542905223.702,52.734,38.574,43.457,42.969,1.465,0
1542905223.705,39.551,36.621,43.945,40.039,33.203,0
1542905223.709,67.383,35.156,34.180,45.410,66.406,0
1542905223.713,61.035,33.691,34.668,28.809,47.363,0
1542905223.717,53.711,37.109,41.992,32.715,15.137,0
1542905223.721,76.172,41.992,39.062,47.363,0.977,0
1542905223.725,65.918,40.039,38.574,52.246,8.789,0
1542905223.729,57.617,44.434,38.574,53.223,37.598,0
1542905223.733,42.480,44.434,38.574,57.129,34.668,0
1542905223.737,41.992,39.062,41.504,49.316,16.113,0
1542905223.741,59.570,37.109,39.062,26.367,60.059,0
1542905223.744,62.988,29.785,31.738,16.113,61.035,0
1542905223.748,46.875,30.273,20.508,13.184,22.461,0
1542905223.752,36.133,35.156,20.996,15.137,45.410,0
1542905223.756,44.922,35.645,35.156,41.504,23.926,0
1542905223.760,54.199,44.434,37.598,49.805,-0.488,0
1542905223.764,66.895,41.504,34.180,45.898,23.926,0
1542905223.768,61.523,31.738,34.668,9.766,62.012,0
1542905223.772,54.199,34.668,36.621,-3.418,24.414,0
1542905223.776,51.758,36.133,40.527,22.461,26.367,0
1542905223.780,38.086,36.621,40.039,27.832,24.902,0
1542905223.784,30.762,35.156,39.062,-1.953,28.320,0
1542905223.787,43.945,31.738,32.715,-1.465,97.656,0
1542905223.791,46.875,32.227,20.996,40.527,62.500,0
1542905223.795,60.547,29.785,26.367,55.664,6.836,0
1542905223.799,83.984,29.297,36.133,61.035,13.672,0
1542905223.803,50.293,34.180,36.621,21.973,27.344,0
1542905223.807,16.113,30.273,32.227,-8.789,62.988,0
1542905223.811,22.949,30.762,31.738,-15.137,30.273,0
1542905223.815,28.320,37.109,30.762,-15.625,14.160,0
1542905223.819,30.762,41.504,20.996,3.906,37.598,0
1542905223.823,47.363,47.363,9.277,1.953,41.016,0
1542905223.827,55.664,42.480,15.625,2.441,8.789,0
1542905223.830,49.805,47.852,23.926,23.926,-30.762,0
1542905223.834,45.410,55.664,23.438,18.555,-50.781,0
1542905223.838,43.457,52.246,26.367,9.277,16.602,0
1542905223.842,61.035,44.434,30.762,35.156,58.594,0
1542905223.846,55.664,40.039,27.832,45.410,50.781,0
1542905223.850,40.039,38.086,26.367,20.020,58.105,0
1542905223.854,55.664,42.480,26.855,24.902,24.414,0
1542905223.858,62.012,50.293,27.344,45.898,-6.836,0
1542905223.862,44.922,40.527,28.809,44.922,-31.738,0
1542905223.866,35.156,29.297,22.949,32.715,3.418,0
1542905223.869,35.645,35.645,23.438,20.996,-23.438,0
1542905223.873,37.598,27.344,30.273,14.160,-11.230,0
1542905223.877,43.457,14.160,36.133,28.320,5.859,0
1542905223.881,44.434,25.391,35.645,22.949,-39.551,0
1542905223.885,38.574,42.480,34.668,20.020,28.320,0
1542905223.889,41.504,48.828,37.598,24.414,82.031,0
1542905223.893,40.527,49.805,31.738,17.578,-14.648,0
1542905223.897,46.387,49.805,27.344,39.062,-2.930,0
1542905223.901,78.125,46.875,30.762,34.180,47.363,0
1542905223.905,59.570,38.574,30.273,26.367,-6.348,0
1542905223.909,34.668,25.879,35.156,46.387,-41.504,0
1542905223.912,56.152,27.344,36.133,31.250,-7.812,0
1542905223.916,42.480,41.992,23.926,20.020,22.461,0
1542905223.920,38.574,45.410,19.531,26.367,54.199,0
1542905223.924,47.363,35.645,29.297,24.902,108.887,0
1542905223.928,65.430,38.086,27.344,24.902,49.316,0
1542905223.932,82.520,45.898,20.508,28.809,31.738,0
1542905223.936,63.477,30.273,26.855,42.969,37.598,0
1542905223.940,63.965,26.855,36.621,38.574,34.668,0
1542905223.944,68.359,40.039,36.133,27.832,45.410,0
1542905223.948,48.340,34.668,30.273,35.156,67.871,0
1542905223.952,49.316,35.156,25.879,31.738,91.797,0
1542905223.955,58.105,40.527,23.438,31.738,62.500,0
1542905223.959,70.312,41.016,28.320,37.109,56.641,0
1542905223.963,70.801,39.551,28.320,31.738,83.984,0
1542905223.967,55.176,34.668,25.879,28.809,71.777,0
1542905223.971,72.754,35.645,30.273,54.688,35.645,0
1542905223.975,74.707,23.926,34.668,68.848,-20.996,0
1542905223.979,58.105,5.371,36.133,52.734,4.395,0
1542905223.983,58.105,21.484,31.738,46.387,21.973,0
1542905223.987,62.988,42.480,32.715,68.359,25.391,0
1542905223.991,76.172,49.805,37.598,63.477,19.043,0
1542905223.994,61.035,49.805,30.762,49.316,24.902,0
1542905223.998,25.879,42.480,24.414,48.828,81.543,0
1542905224.002,33.203,39.062,25.879,35.156,57.617,0
1542905224.006,40.039,38.086,28.809,17.578,-9.277,0
1542905224.010,41.992,36.133,29.297,17.090,51.270,0
1542905224.014,44.922,38.086,28.809,34.180,55.664,0
1542905224.018,55.176,37.598,30.762,22.949,25.879,0
1542905224.022,48.828,36.133,31.738,22.949,95.703,0
1542905224.026,43.945,32.227,31.738,39.551,54.199,0
1542905224.030,57.617,21.484,36.133,39.062,-6.348,0
1542905224.034,50.781,24.902,41.504,45.898,-31.738,0
1542905224.037,41.992,33.691,39.551,58.594,-8.301,0
1542905224.041,51.270,35.645,33.691,53.223,33.203,0
1542905224.045,23.926,33.203,35.156,64.941,-14.160,0
1542905224.049,2.930,27.832,35.156,52.734,24.414,0
1542905224.053,37.109,33.203,30.762,10.742,22.949,0
1542905224.057,48.828,40.039,29.785,10.254,36.133,0
1542905224.061,52.734,44.922,37.598,27.344,113.281,0
1542905224.065,51.758,40.039,41.016,44.434,14.160,0
1542905224.069,46.875,30.273,33.203,52.734,7.324,0
1542905224.073,51.758,33.691,31.738,26.855,59.082,0
1542905224.077,48.340,39.062,37.598,32.227,62.012,0
1542905224.080,38.574,40.527,37.109,51.758,-28.809,0
1542905224.084,39.551,32.715,27.344,65.430,-62.012,0
1542905224.088,44.434,21.484,22.949,58.594,9.766,0
1542905224.092,47.363,23.926,22.949,24.414,54.199,0
1542905224.096,39.551,20.020,32.715,57.617,29.785,0
1542905224.100,34.668,26.367,39.551,74.707,-6.348,0
1542905224.104,57.617,47.363,36.133,67.871,6.836,0
1542905224.108,67.871,49.805,34.180,51.758,31.250,0
1542905224.112,53.711,46.387,23.926,29.297,-14.160,0
1542905224.116,39.551,49.805,21.973,34.668,-15.625,0
1542905224.119,45.898,49.805,38.574,46.387,31.738,0
1542905224.123,55.664,43.457,46.387,47.363,21.484,0
1542905224.127,54.688,38.574,44.434,32.715,34.668,0
1542905224.131,52.246,37.109,42.969,43.457,78.125,0
1542905224.135,59.082,36.133,40.527,45.410,94.727,0
1542905224.139,70.312,25.391,37.109,45.898,76.660,0
1542905224.143,55.664,20.508,36.621,57.617,61.523,0
1542905224.147,42.480,35.156,39.062,49.805,51.270,0
1542905224.151,33.691,39.062,37.598,42.969,31.738,0
1542905224.155,22.949,36.133,32.715,22.949,30.273,0
1542905224.159,44.922,35.645,27.344,13.672,51.758,0
1542905224.162,71.289,40.527,26.367,34.180,33.691,0
1542905224.166,55.176,41.992,30.762,46.387,35.156,0
1542905224.170,52.734,37.598,41.504,42.480,106.445,0
1542905224.174,74.219,39.551,39.551,28.320,71.777,0
1542905224.178,72.266,31.250,34.668,31.738,-8.789,0
1542905224.182,49.316,24.902,32.227,55.176,24.414,0
1542905224.186,46.875,32.227,28.320,42.969,61.035,0
1542905224.190,57.617,21.484,34.180,34.180,41.016,0
1542905224.194,56.152,19.531,23.926,61.035,22.461,0
1542905224.198,52.246,38.574,17.578,44.922,70.312,0
1542905224.202,59.570,47.852,33.203,12.695,104.004,0
1542905224.205,66.895,39.551,34.180,14.160,22.461,0
1542905224.209,61.523,24.414,24.902,27.344,24.414,0
1542905224.213,41.992,28.320,23.926,19.043,76.172,0
1542905224.217,33.203,41.992,28.809,27.344,68.848,0
1542905224.221,37.598,46.387,28.809,43.945,21.973,0
1542905224.225,49.805,44.434,28.320,25.879,-24.414,0
1542905224.229,48.340,29.785,28.809,25.879,12.695,0
1542905224.233,41.992,23.438,31.738,39.062,-14.648,0
1542905224.237,34.668,42.480,29.785,25.391,-42.480,0
1542905224.241,24.414,41.016,28.809,26.855,52.246,0
1542905224.244,40.527,17.090,32.715,25.879,65.430,0
1542905224.248,44.922,6.836,33.203,34.180,24.902,0
1542905224.252,36.133,20.508,27.832,38.574,7.812,0
1542905224.256,42.969,20.996,23.438,19.531,-43.457,0
1542905224.260,42.480,28.320,28.320,32.227,-17.090,0
1542905224.264,41.992,48.828,28.809,44.922,50.781,0
1542905224.268,45.410,49.316,29.785,47.852,-4.395,0
1542905224.272,50.781,33.203,44.922,35.156,-24.902,0
1542905224.276,58.594,24.414,49.805,62.012,-7.812,0
1542905224.280,62.500,39.551,39.551,68.848,-23.438,0
1542905224.284,58.594,52.734,34.180,68.848,-45.898,0
1542905224.287,28.809,55.664,33.691,43.945,-23.926,0
1542905224.291,16.602,56.641,31.250,8.301,45.898,0
1542905224.295,28.320,62.500,29.785,10.254,38.086,0
1542905224.299,31.250,66.406,21.484,-1.465,2.441,0
1542905224.303,29.297,76.172,1.953,2.930,-10.254,0
1542905224.307,22.461,79.590,-0.977,2.930,-30.273,0
1542905224.311,18.555,86.426,1.465,-16.602,27.832,0
1542905224.315,17.090,93.750,-8.301,-18.066,42.480,0
1542905224.319,32.715,96.191,-19.043,-8.301,-35.156,0
1542905224.323,56.152,97.656,-19.531,-8.789,46.875,0
1542905224.327,59.570,90.332,-15.137,3.906,91.309,0
1542905224.330,67.383,84.473,-8.301,10.742,31.738,0
1542905224.334,56.641,79.102,-3.906,4.395,55.176,0
1542905224.338,58.105,76.172,-5.371,1.465,76.660,0
1542905224.342,66.406,79.590,-6.348,7.812,24.414,0
1542905224.346,52.734,79.102,-0.977,4.883,-18.555,0
1542905224.350,56.641,72.266,6.836,31.738,55.176,0
1542905224.354,55.664,65.918,5.371,51.758,58.594,0
1542905224.358,50.781,61.035,1.953,25.879,17.090,0
1542905224.362,56.152,62.988,1.465,10.254,19.531,0
1542905224.366,48.828,58.594,-1.953,-9.277,23.926,0
1542905224.369,42.480,49.805,4.883,-20.020,20.996,0
1542905224.373,56.152,49.805,11.230,-12.207,11.230,0
1542905224.377,55.664,51.270,7.324,-3.418,13.184,0
1542905224.381,60.547,53.711,11.719,8.301,54.199,0
1542905224.385,71.777,61.035,16.602,18.555,43.945,0
1542905224.389,70.312,64.453,15.625,24.414,1.953,0
1542905224.393,74.707,50.293,11.230,30.762,28.809,0
1542905224.397,84.473,41.504,12.207,44.922,25.391,0
1542905224.401,73.730,55.176,20.508,75.684,41.992,0
1542905224.405,62.500,66.406,15.625,72.754,100.586,0
1542905224.409,67.383,65.918,11.230,46.387,84.473,0
1542905224.412,61.523,60.059,19.043,48.340,-14.160,0
1542905224.416,46.875,57.129,25.879,48.828,-24.902,0
1542905224.420,44.922,55.176,30.273,37.598,-17.578,0
1542905224.424,50.293,47.852,28.320,48.828,-23.438,0
1542905224.428,61.523,46.387,23.438,56.641,24.414,0
1542905224.432,63.477,47.852,20.020,53.223,3.906,0
1542905224.436,47.852,42.480,18.555,57.129,-17.578,0
1542905224.440,53.223,41.992,24.414,40.039,18.066,0
1542905224.444,77.148,44.922,31.250,46.875,57.129,0
1542905224.448,78.125,39.551,28.320,60.059,43.457,0
1542905224.452,63.477,22.949,26.855,47.363,9.277,0
1542905224.455,72.754,24.902,27.832,51.270,40.527,0
1542905224.459,83.496,45.898,24.902,64.941,96.680,0
1542905224.463,57.617,63.965,28.809,56.641,61.035,0
1542905224.467,48.828,64.453,31.250,42.969,47.363,0
1542905224.471,70.312,51.758,31.250,40.039,91.797,0
1542905224.475,76.660,45.898,33.203,62.500,37.598,0
1542905224.479,50.781,56.152,27.344,59.570,-30.762,0
1542905224.483,43.457,62.500,27.344,18.555,13.184,0
1542905224.487,62.988,68.359,25.879,21.973,11.230,0
1542905224.491,62.012,72.754,15.625,25.391,-34.180,0
1542905224.494,63.965,78.125,8.789,15.137,-80.078,0
1542905224.498,71.289,84.961,4.883,20.020,-86.426,0
1542905224.502,76.172,83.496,-2.441,22.949,18.066,0
1542905224.506,61.035,94.238,-7.812,9.766,74.219,0
1542905224.510,43.457,104.004,-6.836,-10.742,48.340,0
1542905224.514,47.852,101.074,-8.789,3.418,41.992,0
1542905224.518,54.199,114.746,-13.672,11.230,34.668,0
1542905224.522,44.434,131.836,-8.301,1.465,41.504,0
1542905224.526,42.969,110.352,-9.766,13.672,54.688,0
1542905224.530,91.309,79.102,-16.602,28.320,17.090,0
1542905224.534,99.609,93.262,-12.695,36.621,-31.250,0
1542905224.537,87.402,118.164,-3.418,35.156,0.488,0
1542905224.541,92.285,111.328,-1.465,45.410,41.992,0
1542905224.545,82.031,105.469,-6.348,41.016,32.715,0
1542905224.549,69.824,102.051,-7.812,20.020,36.621,0
1542905224.553,64.453,87.402,-4.883,21.484,58.105,0
1542905224.557,56.641,91.797,2.930,34.668,19.531,0
1542905224.561,64.453,95.703,15.137,41.992,5.859,0
1542905224.565,77.637,85.938,15.137,53.711,14.160,0
1542905224.569,56.152,73.242,10.742,51.270,42.969,0
1542905224.573,53.223,56.641,12.695,32.227,17.578,0
1542905224.577,69.824,49.805,15.625,41.992,26.855,0
1542905224.580,80.566,61.523,20.020,67.383,67.383,0
1542905224.584,66.406,60.547,17.578,69.824,43.457,0
1542905224.588,67.383,51.270,19.531,56.152,-30.273,0
1542905224.592,78.613,64.453,19.531,50.781,-23.926,0
1542905224.596,54.688,66.406,21.484,45.898,48.828,0
1542905224.600,51.758,55.176,26.855,26.855,27.832,0
1542905224.604,76.172,49.805,25.391,31.250,18.555,0
1542905224.608,72.266,48.828,19.043,54.688,52.246,0
1542905224.612,63.477,50.293,17.578,57.129,1.465,0
1542905224.616,67.871,54.199,31.250,38.574,-35.156,0
1542905224.619,70.801,52.246,34.668,37.598,27.832,0
1542905224.623,73.242,25.879,35.645,55.664,63.965,0
1542905224.627,69.336,30.273,39.551,67.871,60.059,0
1542905224.631,58.594,57.617,38.574,46.387,52.246,0
1542905224.635,50.781,51.270,30.273,17.090,14.160,0
1542905224.639,41.016,43.945,25.879,22.949,5.859,0
1542905224.643,52.734,47.363,29.785,22.461,3.906,0
1542905224.647,65.430,43.945,29.785,8.301,18.555,0
1542905224.651,65.918,31.738,33.203,17.090,53.711,0
1542905224.655,57.129,19.531,36.133,45.898,57.129,0
1542905224.659,41.992,18.555,36.133,66.406,52.734,0
1542905224.662,41.992,20.996,40.039,57.129,19.531,0
1542905224.666,28.809,14.160,40.527,25.879,41.504,0
1542905224.670,43.457,16.602,33.203,20.020,102.051,0
1542905224.674,59.570,36.133,34.180,15.625,58.105,0
1542905224.678,31.250,38.574,39.062,-0.488,34.180,0
1542905224.682,34.668,18.555,34.668,15.625,10.742,0
1542905224.686,49.805,19.531,29.297,12.695,-3.906,0
1542905224.690,31.250,29.785,37.109,1.465,70.312,0
1542905224.694,9.277,23.926,42.969,33.203,75.195,0
1542905224.698,13.184,12.207,38.086,41.992,-13.184,0
1542905224.702,29.785,19.531,39.551,22.461,-47.363,0
1542905224.705,29.785,26.367,42.969,17.090,18.066,0
1542905224.709,44.922,20.508,42.480,33.691,46.387,0
1542905224.713,39.062,15.625,41.504,28.320,26.367,0
1542905224.717,12.695,13.184,44.434,10.254,45.898,0
1542905224.721,11.719,12.207,42.969,16.113,39.551,0
1542905224.725,14.160,8.301,36.621,5.371,31.250,0
1542905224.729,20.508,-3.906,40.527,17.090,16.113,0
1542905224.733,26.855,0.488,42.969,35.645,-10.742,0
1542905224.737,43.945,3.906,42.969,22.461,9.766,0
1542905224.741,62.500,1.465,42.480,11.719,47.852,0
1542905224.744,30.273,11.719,37.598,40.039,37.109,0
1542905224.748,-6.836,19.043,45.410,43.945,32.227,0
1542905224.752,8.789,22.949,51.270,22.461,41.992,0
1542905224.756,32.715,29.297,42.969,20.020,22.949,0
1542905224.760,34.668,25.879,36.133,41.504,10.742,0
1542905224.764,58.105,24.414,30.273,64.453,21.484,0
1542905224.768,68.848,34.668,30.273,56.152,56.641,0
1542905224.772,51.270,32.227,34.668,59.082,89.844,0
1542905224.776,52.246,21.484,40.527,64.941,59.570,0
1542905224.780,56.152,22.949,43.945,43.945,47.852,0
1542905224.784,60.059,30.273,39.062,28.320,75.195,0
1542905224.787,47.852,21.973,36.621,21.973,48.340,0
1542905224.791,41.504,6.836,36.133,14.648,23.438,0
1542905224.795,53.223,16.602,33.691,35.156,46.387,0
1542905224.799,51.270,33.203,29.297,57.129,73.730,0
1542905224.803,46.875,27.832,26.855,40.527,34.668,0
1542905224.807,41.992,7.324,30.762,36.133,-21.484,0
1542905224.811,43.945,10.254,30.762,51.270,37.598,0
1542905224.815,79.590,35.156,31.738,54.199,77.148,0
1542905224.819,82.031,34.668,40.527,47.852,47.852,0
1542905224.823,51.270,16.602,43.457,65.918,48.340,0
1542905224.827,36.621,19.531,44.922,57.617,28.809,0
1542905224.830,34.180,26.855,47.363,38.574,4.883,0
1542905224.834,41.016,16.602,46.875,51.270,25.879,0
1542905224.838,30.762,12.695,40.527,32.227,44.434,0
1542905224.842,50.781,9.277,35.645,34.180,33.691,0
1542905224.846,70.801,15.625,37.109,66.406,-1.953,0
1542905224.850,54.688,39.062,43.945,52.734,22.461,0
1542905224.854,59.570,42.480,43.457,43.945,27.832,0
1542905224.858,66.406,17.578,40.039,44.434,62.988,0
1542905224.862,62.988,17.090,34.668,40.039,133.301,0
1542905224.866,51.270,36.133,26.855,65.430,38.574,0
1542905224.869,43.945,35.645,23.926,53.223,-29.297,0
1542905224.873,55.664,36.621,34.180,44.434,37.109,0
1542905224.877,58.105,21.484,42.480,38.086,20.020,0
1542905224.881,66.895,2.441,39.062,44.434,41.016,0
1542905224.885,73.242,16.113,33.691,70.312,57.129,0
1542905224.889,60.547,37.598,34.180,77.148,-33.203,0
1542905224.893,51.758,34.668,28.809,75.195,-18.066,0
1542905224.897,33.203,18.555,26.367,27.344,-7.812,0
1542905224.901,27.344,-0.488,28.809,17.090,-0.488,0
1542905224.905,42.480,8.301,32.715,54.199,36.621,0
1542905224.909,40.039,15.137,36.133,46.387,34.180,0
1542905224.912,41.992,18.555,33.691,31.738,57.129,0
1542905224.916,46.387,27.344,37.598,49.805,20.508,0
1542905224.920,39.062,34.180,41.992,40.039,6.348,0
1542905224.924,45.898,32.715,40.039,46.387,39.062,0
1542905224.928,55.176,27.344,37.598,31.738,32.227,0
1542905224.932,48.828,35.156,37.598,38.086,44.434,0
1542905224.936,41.992,30.273,37.109,70.312,47.852,0
1542905224.940,49.316,30.273,35.156,41.992,21.484,0
1542905224.944,55.664,23.438,35.156,32.227,4.883,0
1542905224.948,47.852,18.066,34.180,35.645,20.020,0
1542905224.952,51.270,22.949,28.320,46.875,29.785,0
1542905224.955,65.430,7.324,30.273,60.059,54.199,0
1542905224.959,41.992,14.160,37.109,52.246,28.320,0
1542905224.963,34.668,36.133,39.551,43.457,18.066,0
1542905224.967,45.898,39.551,38.086,50.293,28.809,0
1542905224.971,51.758,37.598,37.109,38.086,35.156,0
1542905224.975,48.340,31.250,42.969,10.742,50.293,0
1542905224.979,33.203,27.832,47.363,10.254,45.410,0
1542905224.983,40.527,33.691,46.387,43.457,5.859,0
1542905224.987,48.828,32.715,46.387,73.730,-7.324,0
1542905224.991,50.781,33.203,44.434,50.781,21.484,0
1542905224.994,64.941,15.137,37.109,17.578,42.480,0
1542905224.998,65.918,10.254,32.715,33.691,74.707,0
1542905225.002,47.852,38.574,38.574,39.062,67.871,0
1542905225.006,51.758,47.363,51.270,38.086,47.363,0
1542905225.010,36.621,39.062,54.688,31.738,26.367,0
1542905225.014,31.250,31.250,52.246,24.414,14.160,0
1542905225.018,49.805,26.367,49.805,40.527,13.672,0
1542905225.022,46.875,33.203,43.945,40.527,21.484,0
1542905225.026,47.852,37.109,37.109,28.809,83.984,0
1542905225.030,50.781,16.113,36.621,26.367,37.598,0
1542905225.034,28.809,5.859,46.387,39.551,-0.488,0
1542905225.037,33.203,32.715,42.480,48.828,19.531,0
1542905225.041,43.945,43.457,35.156,40.527,-3.906,0
1542905225.045,30.762,37.598,40.039,30.762,7.324,0
1542905225.049,41.504,36.621,38.086,42.969,24.902,0
1542905225.053,36.133,35.645,35.156,32.227,32.227,0
1542905225.057,23.926,32.227,36.621,29.785,50.293,0
1542905225.061,32.227,36.133,40.527,55.176,13.184,0
1542905225.065,28.809,29.297,43.945,4.395,29.785,0
1542905225.069,45.410,19.531,43.945,17.090,84.473,0
1542905225.073,53.711,29.297,40.527,60.547,74.707,0
1542905225.077,51.758,33.203,39.062,19.043,49.805,0
1542905225.080,49.805,30.762,39.551,17.090,-11.230,0
1542905225.084,35.156,32.227,38.086,36.621,0.977,0
1542905225.088,40.039,36.621,32.227,9.766,56.152,0
1542905225.092,37.598,41.992,32.227,-3.418,54.688,0
1542905225.096,20.508,36.621,36.133,18.066,15.137,0
1542905225.100,19.043,30.762,31.738,29.785,38.086,0
1542905225.104,28.320,22.949,32.715,31.250,39.062,0
1542905225.108,20.508,4.883,38.086,39.551,37.109,0
1542905225.112,16.602,6.836,31.250,25.391,35.156,0
1542905225.116,27.344,24.414,29.785,23.438,7.324,0
1542905225.119,12.207,29.297,39.551,12.695,10.742,0
1542905225.123,8.789,27.832,39.551,-7.324,-18.066,0
1542905225.127,39.551,21.484,25.391,35.156,46.875,0
1542905225.131,49.316,10.254,28.320,30.273,105.469,0
1542905225.135,16.602,19.531,37.109,-11.719,43.457,0
1542905225.139,18.555,39.062,33.203,-3.906,26.855,0
1542905225.143,40.527,51.270,33.203,16.113,79.102,0
1542905225.147,33.203,35.645,38.574,42.480,33.203,0
1542905225.151,33.691,22.461,38.086,37.598,15.137,0
1542905225.155,40.039,34.668,36.133,42.480,5.859,0
1542905225.159,49.316,46.875,32.715,56.641,-7.324,0
1542905225.162,46.387,35.645,25.879,53.223,-16.602,0
1542905225.166,17.578,11.719,32.715,77.148,26.367,0
1542905225.170,21.484,28.320,45.898,78.125,78.613,0
1542905225.174,52.734,45.410,41.016,29.297,30.762,0
1542905225.178,48.340,35.156,34.180,-15.625,-12.695,0
1542905225.182,26.855,30.273,39.551,8.789,-11.230,0
1542905225.186,23.438,34.180,41.992,33.691,48.340,0
1542905225.190,24.414,46.387,42.480,22.949,52.734,0
1542905225.194,25.391,28.320,41.016,27.344,33.691,0
1542905225.198,27.832,27.832,34.668,14.160,20.996,0
1542905225.202,40.039,55.664,25.879,52.246,36.133,0
1542905225.205,49.316,27.344,26.855,74.219,41.016,0
1542905225.209,41.016,5.859,30.762,59.082,15.137,0
1542905225.213,23.438,10.742,28.320,40.527,-7.324,0
1542905225.217,5.859,4.883,25.879,13.672,24.902,0
1542905225.221,7.812,41.016,25.879,0.977,49.805,0
1542905225.225,37.598,53.711,30.762,21.973,38.086,0
1542905225.229,49.805,30.762,34.668,55.176,-9.277,0
1542905225.233,26.855,42.969,36.133,29.297,-6.836,0
1542905225.237,17.090,33.691,37.598,29.297,-2.930,0
1542905225.241,12.695,-0.488,42.969,45.898,29.785,0
1542905225.244,16.602,4.883,33.203,28.320,77.148,0
1542905225.248,16.602,43.457,30.762,51.270,6.348,0
1542905225.252,5.371,63.965,39.062,44.434,-31.738,0
1542905225.256,6.348,64.453,34.180,17.578,4.883,0
1542905225.260,24.414,61.035,36.133,19.043,-17.578,0
1542905225.264,13.672,66.406,32.227,1.953,53.223,0
1542905225.268,4.883,22.949,30.762,3.418,78.613,0
1542905225.272,19.531,-18.066,33.691,11.719,23.926,0
1542905225.276,15.625,36.133,34.668,-11.230,49.805,0
1542905225.280,33.203,87.891,28.809,23.926,1.465,0
1542905225.284,37.598,93.262,22.461,58.594,7.324,0
1542905225.287,24.902,74.707,29.785,43.945,46.875,0
1542905225.291,19.531,61.523,26.367,58.105,32.715,0
1542905225.295,63.477,62.988,-2.441,69.336,59.082,0
1542905225.299,101.562,52.734,-5.859,87.402,67.383,0
1542905225.303,32.715,35.645,20.996,65.430,-16.113,0
1542905225.307,-27.344,26.855,37.598,-18.555,-41.504,0
1542905225.311,-19.531,-12.695,38.086,1.953,39.551,0
1542905225.315,-9.766,-26.855,46.387,12.695,44.922,0
1542905225.319,-15.137,-58.105,64.941,-44.434,32.227,0
1542905225.323,-67.871,-84.961,83.008,-74.219,37.109,0
1542905225.327,-119.141,-26.855,69.824,-83.008,6.348,0
1542905225.330,-105.469,9.766,64.941,-87.402,23.926,0
1542905225.334,-116.699,-10.742,80.078,-104.492,59.082,0
1542905225.338,-133.301,-88.867,54.199,-111.816,43.945,0
1542905225.342,-125.000,-84.473,33.203,-101.562,-8.301,0
1542905225.346,-134.766,-52.734,78.613,-111.816,17.090,0
1542905225.350,-169.434,-121.582,85.449,-114.258,9.766,0
1542905225.354,-143.066,-123.047,66.406,-113.281,14.160,0
1542905225.358,-129.883,-61.035,91.309,-137.695,42.969,0
1542905225.362,-187.012,-44.434,108.398,-139.648,29.297,0
1542905225.366,-183.105,-30.273,92.285,-126.465,-4.883,0
1542905225.369,-166.016,-77.637,83.984,-115.723,-50.293,0
1542905225.373,-181.641,-105.469,80.566,-103.027,-15.625,0
1542905225.377,-157.715,-74.707,66.406,-105.957,3.906,0
1542905225.381,-135.254,-155.762,44.922,-93.262,-9.766,0
1542905225.385,-140.137,-235.352,9.277,-86.914,33.691,0
1542905225.389,-141.602,-132.324,-17.090,-132.324,74.219,0
1542905225.393,-154.785,-15.137,33.691,-149.414,46.387,0
1542905225.397,-140.137,4.883,105.957,-136.230,24.902,0
1542905225.401,-128.418,3.906,106.934,-125.000,-5.859,0
1542905225.405,-112.305,-10.742,90.820,-73.242,14.648,0
1542905225.409,-150.879,-23.438,92.285,-89.355,27.344,0
1542905225.412,-175.293,-36.133,83.008,-130.371,39.062,0
1542905225.416,-142.090,-29.785,72.266,-156.738,69.824,0
1542905225.420,-142.090,-27.832,59.082,-138.184,-31.738,0
1542905225.424,-123.047,-24.414,55.664,-75.684,-19.043,0
1542905225.428,-113.770,-30.762,69.336,-54.688,47.852,0
1542905225.432,-126.465,-53.711,64.941,-32.227,63.477,0
1542905225.436,-95.215,-27.832,61.035,-20.996,81.543,0
1542905225.440,-60.059,17.090,81.055,-42.480,62.988,0
1542905225.444,-84.961,17.578,89.844,-56.641,12.207,0
1542905225.448,-90.820,0.488,66.406,-30.762,66.895,0
1542905225.452,-50.293,9.766,60.547,31.250,91.309,0
1542905225.455,-56.152,20.996,60.547,6.348,87.402,0
1542905225.459,-79.102,10.742,56.641,-17.578,64.453,0
1542905225.463,-51.270,18.066,58.105,2.930,19.043,0
1542905225.467,-37.109,20.020,48.828,-19.531,46.387,0
1542905225.471,-45.898,27.832,46.875,-9.277,-6.348,0
1542905225.475,-32.715,47.363,45.898,-14.648,-58.594,0
1542905225.479,-19.043,47.363,41.504,-6.836,-35.645,0
1542905225.483,-4.395,41.504,47.363,29.297,-17.578,0
1542905225.487,-2.930,41.016,47.363,25.879,13.672,0
1542905225.491,4.395,54.199,38.574,29.297,31.250,0
1542905225.494,-11.719,64.453,41.504,30.762,5.371,0
1542905225.498,-6.836,53.223,35.645,43.457,19.043,0
1542905225.502,7.812,34.668,25.879,46.387,65.918,0
1542905225.506,8.301,55.176,38.574,36.621,53.223,0
1542905225.510,14.160,72.266,38.574,52.734,57.129,0
1542905225.514,20.508,52.734,35.156,44.922,35.156,0
1542905225.518,23.926,49.316,40.039,37.598,28.320,0
1542905225.522,4.395,55.664,37.109,35.645,2.930,0
1542905225.526,6.348,43.945,29.785,27.832,-11.230,0
1542905225.530,7.324,14.648,34.180,38.574,41.504,0
1542905225.534,20.508,30.762,34.180,37.109,44.434,0
1542905225.537,41.504,50.293,42.969,64.453,83.496,0
1542905225.541,46.875,51.758,38.086,80.566,28.320,0
1542905225.545,20.020,57.617,30.273,59.082,8.789,0
1542905225.549,11.719,58.105,46.875,67.383,33.203,0
1542905225.553,31.250,10.254,45.410,77.637,17.090,0
1542905225.557,38.574,-12.207,18.555,52.246,36.133,0
1542905225.561,27.344,57.617,10.742,35.156,47.363,0
1542905225.565,25.391,81.543,47.852,36.621,34.180,0
1542905225.569,28.320,51.270,68.848,12.207,48.828,0
1542905225.573,27.344,33.691,60.059,-7.812,19.043,0
1542905225.577,29.297,51.270,58.594,8.789,-5.371,0
1542905225.580,33.691,44.922,54.199,28.320,71.777,0
1542905225.584,52.734,33.203,48.340,50.781,64.941,0
1542905225.588,52.246,55.176,38.086,46.387,57.129,0
1542905225.592,44.434,51.270,37.598,31.738,95.703,0
1542905225.596,58.594,44.434,41.016,41.992,34.668,0
1542905225.600,60.547,41.992,36.133,77.148,-26.367,0
1542905225.604,50.293,13.184,34.180,70.801,18.555,0
1542905225.608,74.219,39.062,41.992,47.363,42.480,0
1542905225.612,90.820,48.340,44.922,22.461,59.082,0
1542905225.616,54.688,1.465,46.387,-9.766,35.156,0
1542905225.619,47.852,-41.992,44.434,40.527,-37.598,0
1542905225.623,60.059,-25.391,45.410,111.816,-0.488,0
1542905225.627,70.801,71.289,40.527,95.703,72.266,0
1542905225.631,72.266,109.375,2.441,31.738,39.062,0
1542905225.635,39.551,72.754,22.949,20.996,21.973,0
1542905225.639,41.504,47.852,60.059,32.227,13.184,0
1542905225.643,70.312,42.969,51.758,37.598,-38.574,0
1542905225.647,74.707,28.320,52.734,36.133,-23.926,0
1542905225.651,51.758,38.574,60.059,28.320,42.969,0
1542905225.655,56.641,33.203,54.199,61.523,48.828,0
1542905225.659,64.941,49.805,42.969,52.246,52.734,0
1542905225.662,44.434,39.551,49.316,28.809,79.590,0
1542905225.666,52.246,28.809,44.434,54.688,76.172,0
1542905225.670,72.266,3.906,33.691,72.266,79.590,0
1542905225.674,66.406,-138.184,11.719,74.219,46.387,0
1542905225.678,51.270,-63.965,-6.348,72.266,51.758,0
1542905225.682,25.391,102.051,31.738,31.250,75.684,0
1542905225.686,24.902,95.215,54.199,-19.531,0.488,0
1542905225.690,51.758,78.125,52.246,0.488,1.953,0
1542905225.694,71.777,110.840,30.273,35.156,7.812,0
1542905225.698,121.094,91.309,6.348,72.266,43.945,0
1542905225.702,115.723,55.664,19.043,38.086,57.129,0
1542905225.705,71.777,88.379,20.508,20.508,19.043,0
1542905225.709,74.219,107.910,6.348,20.996,61.523,0
1542905225.713,62.988,113.281,8.789,4.395,34.180,0
1542905225.717,86.426,109.863,4.883,15.625,-3.418,0
1542905225.721,124.512,109.863,-1.465,43.457,36.621,0
1542905225.725,114.746,110.352,0.000,53.711,26.367,0
1542905225.729,105.957,52.734,5.859,42.480,48.828,0
1542905225.733,127.930,54.688,13.184,58.594,61.523,0
1542905225.737,121.582,22.949,-20.020,58.105,3.906,0
1542905225.741,125.000,0.977,-39.551,41.504,32.227,0
1542905225.744,127.441,180.176,-4.883,45.898,41.016,0
1542905225.748,112.793,246.094,16.602,42.480,71.777,0
1542905225.752,108.398,212.891,18.066,53.223,-2.441,0
1542905225.756,106.934,186.523,20.508,82.520,-67.871,0
1542905225.760,122.559,168.945,16.113,124.512,71.289,0
1542905225.764,149.902,162.109,9.766,104.980,105.469,0
1542905225.768,187.988,148.926,8.301,93.262,71.777,0
1542905225.772,161.133,143.066,1.953,106.934,54.688,0
1542905225.776,138.184,149.902,-12.207,92.773,44.434,0
1542905225.780,162.598,80.566,-2.930,102.051,9.277,0
1542905225.784,177.734,60.547,-16.113,137.695,-49.805,0
1542905225.787,202.148,163.574,-24.414,156.250,-11.719,0
1542905225.791,203.125,188.965,4.395,133.301,16.602,0
1542905225.795,199.219,162.109,9.277,104.492,2.930,0
1542905225.799,195.801,148.438,-2.930,156.250,36.133,0
1542905225.803,199.219,148.926,-12.695,179.688,15.137,0
1542905225.807,213.379,164.062,-11.230,143.066,-13.672,0
1542905225.811,209.961,62.012,10.254,131.836,9.766,0
1542905225.815,214.355,21.973,0.000,126.953,-3.418,0
1542905225.819,216.797,166.016,-43.945,151.855,-0.488,0
1542905225.823,202.637,178.223,-30.273,176.270,-9.766,0
1542905225.827,182.129,159.668,-6.348,169.434,-28.320,0
1542905225.830,180.664,187.988,0.488,158.203,52.734,0
1542905225.834,219.727,148.926,0.977,163.086,39.062,0
1542905225.838,247.559,125.000,-23.926,174.805,19.531,0
1542905225.842,234.375,163.574,-39.062,164.551,31.738,0
1542905225.846,206.543,128.906,-16.113,166.016,22.461,0
1542905225.850,175.781,101.074,28.320,163.574,8.301,0
1542905225.854,190.918,126.465,45.898,145.508,43.945,0
1542905225.858,214.844,113.281,37.598,142.090,81.543,0
1542905225.862,151.855,86.426,32.227,134.277,42.969,0
1542905225.866,123.047,45.410,31.250,110.840,40.039,0
1542905225.869,133.789,-16.113,28.320,145.996,1.465,0
1542905225.873,106.445,34.668,37.109,142.090,-64.453,0
1542905225.877,98.633,117.676,41.504,104.980,-11.230,0
1542905225.881,144.531,116.211,38.086,110.352,0.977,0
1542905225.885,160.645,95.703,35.156,104.492,12.207,0
1542905225.889,136.230,80.078,41.992,131.836,-12.695,0
1542905225.893,137.695,59.570,49.805,149.902,20.020,0
1542905225.897,114.258,46.387,46.875,98.633,119.141,0
1542905225.901,106.934,55.664,45.410,75.684,82.520,0
1542905225.905,125.488,58.105,51.270,96.680,20.996,0
1542905225.909,116.699,46.387,58.594,97.656,-15.137,0
1542905225.912,100.586,46.875,56.152,87.891,-13.672,0
1542905225.916,94.238,57.129,42.969,92.773,10.254,0
1542905225.920,98.633,50.781,51.270,96.191,31.250,0
1542905225.924,105.469,44.434,59.082,67.871,51.270,0
1542905225.928,101.562,36.133,57.617,89.355,59.570,0
1542905225.932,90.332,20.020,54.199,93.750,10.742,0
1542905225.936,87.891,35.156,48.828,63.965,4.395,0
1542905225.940,78.613,41.504,52.734,66.406,58.594,0
1542905225.944,89.844,47.363,46.387,93.750,45.898,0
1542905225.948,119.629,63.477,31.738,123.535,47.852,0
1542905225.952,135.254,60.547,29.785,114.746,98.633,0
1542905225.955,118.652,69.824,30.762,96.680,32.227,0
1542905225.959,112.305,68.848,26.367,101.074,38.574,0
1542905225.963,135.254,65.918,25.391,117.676,78.613,0
1542905225.967,152.344,70.312,19.531,136.230,37.598,0
1542905225.971,134.766,72.754,13.184,124.023,86.426,0
1542905225.975,122.070,65.430,21.973,126.465,65.430,0
1542905225.979,123.047,59.570,26.367,134.766,29.297,0
1542905225.983,122.559,47.852,31.250,105.469,26.855,0
1542905225.987,130.371,44.434,31.738,107.422,32.227,0
1542905225.991,130.859,35.156,27.344,132.324,19.531,0
1542905225.994,103.027,14.648,23.438,100.098,2.930,0
1542905225.998,84.961,29.297,19.043,84.961,9.277,0
1542905226.002,109.863,46.387,32.715,106.445,24.414,0
1542905226.006,135.254,55.664,35.645,92.285,-1.953,0
1542905226.010,117.676,53.711,34.180,62.500,27.344,0
1542905226.014,107.422,34.668,36.621,63.477,48.340,0
1542905226.018,89.844,62.500,32.715,69.336,-11.719,0
1542905226.022,88.379,40.039,38.086,68.359,-14.160,0
1542905226.026,98.633,2.441,43.457,57.617,26.855,0
1542905226.030,105.469,43.945,32.227,51.270,19.531,0
1542905226.034,88.379,48.828,20.020,79.102,-20.508,0
1542905226.037,49.316,38.574,32.227,101.074,30.762,0
1542905226.041,77.148,-7.812,45.410,83.496,32.227,0
1542905226.045,101.562,-24.902,35.156,85.938,10.742,0
1542905226.049,101.074,23.926,33.203,91.309,19.531,0
1542905226.053,86.914,49.805,37.598,67.871,51.758,0
1542905226.057,63.477,63.477,33.691,46.875,60.547,0
1542905226.061,62.500,61.035,29.785,33.203,2.930,0
1542905226.065,78.125,52.734,30.273,34.180,-17.090,0
1542905226.069,83.984,44.922,34.668,59.082,14.648,0
1542905226.073,69.824,28.809,33.691,71.777,-14.648,0
1542905226.077,49.805,15.625,40.039,75.195,-58.105,0
1542905226.080,59.570,30.273,45.410,74.707,-31.250,0
1542905226.084,68.848,42.480,45.410,62.012,31.738,0
1542905226.088,56.641,29.785,41.504,58.594,52.734,0
1542905226.092,77.148,35.645,33.203,47.363,-6.836,0
1542905226.096,88.867,20.020,33.203,33.691,33.691,0
1542905226.100,64.941,1.953,40.039,55.664,64.453,0
1542905226.104,66.406,33.203,43.457,47.852,8.789,0
1542905226.108,40.527,44.434,45.898,9.766,8.789,0
1542905226.112,26.367,37.109,52.246,41.504,67.383,0
1542905226.116,79.590,27.344,53.711,78.613,25.879,0
1542905226.119,86.914,26.855,39.062,62.988,18.555,0
1542905226.123,54.688,28.320,41.992,57.129,37.109,0
1542905226.127,58.105,31.738,45.898,33.691,4.883,0
1542905226.131,42.969,32.227,43.945,20.020,50.781,0
1542905226.135,56.152,32.715,47.363,56.641,67.871,0
1542905226.139,75.195,27.344,48.828,83.496,75.684,0
1542905226.143,77.637,27.344,44.922,64.453,46.387,0
1542905226.147,64.453,35.645,44.434,36.133,12.207,0
1542905226.151,43.945,26.855,45.410,60.059,35.156,0
1542905226.155,75.195,31.250,39.551,68.359,23.926,0
1542905226.159,66.895,45.410,43.457,51.758,-14.160,0
1542905226.162,63.477,44.922,46.387,30.762,-23.438,0
1542905226.166,61.523,41.504,44.922,22.949,14.648,0
1542905226.170,46.387,39.062,43.945,42.969,6.836,0
1542905226.174,66.895,38.574,34.180,74.707,7.812,0
1542905226.178,66.895,43.945,27.344,89.355,26.855,0
1542905226.182,65.918,41.504,27.832,87.891,23.926,0
1542905226.186,79.102,37.598,21.973,71.777,43.945,0
1542905226.190,67.383,32.715,30.273,48.828,-6.836,0
1542905226.194,78.125,38.086,30.762,53.711,-5.371,0
1542905226.198,70.801,36.133,26.367,12.695,56.641,0
1542905226.202,49.316,28.320,28.809,-3.906,19.043,0
1542905226.205,46.875,28.809,30.762,69.336,-12.207,0
1542905226.209,60.059,30.273,33.203,74.707,6.348,0
1542905226.213,58.594,35.156,29.297,45.410,-11.719,0
1542905226.217,61.523,28.320,34.180,50.781,-27.832,0
1542905226.221,62.500,26.855,40.039,68.359,47.363,0
1542905226.225,49.805,32.227,38.086,40.527,98.145,0
1542905226.229,61.523,28.809,34.668,20.020,54.688,0
1542905226.233,84.961,28.320,33.203,47.852,54.688,0
1542905226.237,95.215,33.203,31.250,67.383,60.059,0
1542905226.241,73.730,33.691,27.832,43.945,42.969,0
1542905226.244,42.480,30.273,25.879,45.898,55.664,0
1542905226.248,45.898,28.320,28.320,48.828,16.602,0
1542905226.252,50.781,23.926,30.762,22.949,-38.086,0
1542905226.256,37.598,21.484,30.273,30.273,6.836,0
1542905226.260,63.477,20.020,35.645,55.176,47.852,0
1542905226.264,63.965,17.090,40.039,65.430,41.992,0
1542905226.268,43.945,18.066,40.527,34.180,-0.488,0
1542905226.272,65.918,21.484,36.621,4.883,24.414,0
1542905226.276,62.988,16.113,32.227,42.480,57.129,0
1542905226.280,52.246,15.137,34.180,84.473,71.289,0
1542905226.284,23.926,24.414,33.691,73.730,32.227,0
1542905226.287,31.250,30.273,31.250,43.945,19.531,0
1542905226.291,79.590,28.809,31.738,22.949,64.453,0
1542905226.295,49.805,25.879,34.180,23.926,47.363,0
1542905226.299,20.996,20.020,37.598,32.227,37.598,0
1542905226.303,30.762,17.578,35.645,22.949,23.926,0
1542905226.307,43.457,18.066,32.227,54.199,-10.742,0
1542905226.311,62.012,19.043,31.250,42.480,47.363,0
1542905226.315,86.426,20.996,28.809,11.719,41.016,0
1542905226.319,35.645,9.277,30.762,54.199,-14.160,0
1542905226.323,4.883,9.766,27.344,32.227,3.906,0
1542905226.327,23.926,22.949,33.691,-6.836,-5.859,0
1542905226.330,39.551,26.367,42.969,49.805,-8.301,0
1542905226.334,62.988,31.250,37.109,88.867,33.203,0
1542905226.338,35.156,32.715,38.086,39.062,34.180,0
1542905226.342,53.223,28.320,38.574,22.949,40.527,0
1542905226.346,58.594,25.391,36.133,30.762,63.965,0
1542905226.350,45.410,22.461,35.156,30.762,28.809,0
1542905226.354,41.504,22.461,37.598,38.086,-3.418,0
1542905226.358,47.363,22.949,40.039,67.383,15.625,0
1542905226.362,51.270,20.996,39.551,58.594,15.137,0
1542905226.366,45.898,24.902,34.668,32.227,5.859,0
1542905226.369,51.758,24.902,37.109,52.734,16.602,0
1542905226.373,56.152,23.438,39.551,48.828,55.664,0
1542905226.377,44.434,21.484,39.062,59.570,9.277,0
1542905226.381,20.020,17.578,35.645,43.945,-30.762,0
1542905226.385,39.551,17.578,25.879,30.762,24.902,0
1542905226.389,49.805,20.996,26.855,42.480,33.203,0
1542905226.393,49.316,29.297,33.691,18.555,36.621,0
1542905226.397,51.270,21.484,36.621,10.742,53.711,0
1542905226.401,52.734,16.113,37.109,-10.742,35.645,0
1542905226.405,43.457,20.996,35.156,-9.277,27.832,0
1542905226.409,6.348,18.066,37.109,12.207,48.828,0
1542905226.412,22.461,26.855,38.574,28.320,61.035,0
1542905226.416,68.848,37.109,33.691,59.570,17.090,0
1542905226.420,43.457,25.879,33.203,43.457,-18.555,0
1542905226.424,17.578,20.996,34.180,6.836,15.137,0
1542905226.428,39.551,28.809,35.645,43.457,51.758,0
1542905226.432,32.715,29.785,29.297,30.762,36.133,0
1542905226.436,39.551,31.738,22.949,20.508,0.977,0
1542905226.440,32.227,34.668,25.879,55.176,9.277,0
1542905226.444,4.395,29.297,29.785,46.875,12.695,0
1542905226.448,40.527,25.391,27.832,32.227,19.043,0
1542905226.452,77.637,33.691,21.973,30.762,20.508,0
1542905226.455,61.523,30.762,28.809,10.742,8.301,0
1542905226.459,36.133,27.832,39.062,8.789,69.824,0
1542905226.463,5.371,32.227,34.668,8.789,79.102,0
1542905226.467,15.137,42.480,30.762,18.066,81.055,0
1542905226.471,20.020,40.527,26.367,33.203,69.336,0
1542905226.475,28.809,31.250,27.344,45.410,52.246,0
1542905226.479,37.598,28.320,33.203,56.641,20.020,0
1542905226.483,52.246,30.762,33.203,52.734,20.996,0
1542905226.487,51.270,23.926,32.227,27.832,57.617,0
1542905226.491,71.289,-2.441,27.344,18.555,-4.883,0
1542905226.494,114.746,20.020,20.508,44.922,-33.203,0
1542905226.498,63.477,38.086,25.879,27.344,-21.484,0
1542905226.502,-7.812,36.621,37.598,-28.320,-32.227,0
1542905226.506,-47.852,42.969,36.621,-88.867,36.133,0
1542905226.510,-60.059,37.598,28.320,-58.594,50.781,0
1542905226.514,-55.176,42.480,23.926,-8.301,1.465,0
1542905226.518,-26.855,49.805,16.113,-26.367,1.953,0
1542905226.522,-3.906,51.270,10.254,-24.414,-24.414,0
1542905226.526,-19.043,37.109,16.113,-48.828,16.602,0
1542905226.530,-33.203,36.133,14.648,-62.500,41.016,0
1542905226.534,2.441,55.664,-4.395,-73.242,46.387,0
1542905226.537,7.812,63.965,-1.953,-36.133,19.531,0
1542905226.541,-21.484,59.082,17.090,2.930,26.367,0
1542905226.545,-7.812,59.082,22.461,-4.883,62.988,0
1542905226.549,-2.930,62.012,17.578,-7.812,46.875,0
1542905226.553,-9.277,54.199,14.160,-3.418,31.250,0
1542905226.557,24.902,44.922,19.043,0.488,76.172,0
1542905226.561,29.297,49.316,21.973,-2.930,47.852,0
1542905226.565,18.066,45.410,20.508,-6.836,29.785,0
1542905226.569,28.320,40.527,20.020,-18.555,43.457,0
1542905226.573,28.320,36.133,17.578,-31.250,35.645,0
1542905226.577,47.363,34.180,15.137,-16.113,-16.113,0
1542905226.580,34.180,39.062,14.160,-6.836,-43.457,0
1542905226.584,26.367,48.828,20.996,14.160,37.109,0
1542905226.588,28.809,56.152,30.762,17.578,19.531,0
1542905226.592,24.902,42.969,29.297,13.184,-23.926,0
1542905226.596,16.602,32.227,21.484,0.488,33.203,0
1542905226.600,11.230,37.109,18.555,-4.883,33.691,0
1542905226.604,34.180,43.945,23.926,17.090,33.203,0
1542905226.608,46.387,46.387,26.367,62.988,38.574,0
1542905226.612,54.199,49.316,26.855,49.316,3.906,0
1542905226.616,54.688,47.852,25.391,12.207,30.273,0
1542905226.619,37.598,39.062,29.297,12.207,86.426,0
1542905226.623,31.250,41.992,32.715,18.066,31.738,0
1542905226.627,42.969,30.762,23.438,9.766,25.879,0
1542905226.631,62.500,15.625,25.391,1.465,40.039,0
1542905226.635,46.387,32.227,30.762,7.324,17.090,0
1542905226.639,19.531,43.457,28.809,23.926,21.973,0
1542905226.643,17.090,37.598,28.809,27.344,19.531,0
1542905226.647,34.180,42.480,28.320,29.297,-16.602,0
1542905226.651,49.316,50.293,24.414,52.734,-37.598,0
1542905226.655,68.848,45.898,28.320,59.082,22.949,0
1542905226.659,82.520,41.504,34.668,43.457,86.914,0
1542905226.662,69.336,37.109,28.320,12.207,73.242,0
1542905226.666,59.570,37.598,32.227,15.137,51.270,0
1542905226.670,33.203,38.086,37.598,6.348,58.105,0
1542905226.674,20.996,31.250,35.645,19.043,60.059,0
1542905226.678,26.855,32.715,34.668,16.113,19.531,0
1542905226.682,24.902,31.250,32.227,7.324,24.902,0
1542905226.686,41.016,23.926,32.227,49.316,99.609,0
1542905226.690,56.641,23.438,30.273,37.598,36.133,0
1542905226.694,59.082,29.297,27.832,7.812,-19.531,0
1542905226.698,22.949,24.902,34.668,19.043,32.715,0
1542905226.702,5.371,19.531,38.086,28.320,25.391,0
1542905226.705,38.086,24.902,34.668,32.715,31.738,0
1542905226.709,64.453,26.855,34.668,42.969,76.172,0
1542905226.713,40.039,32.227,37.598,45.898,18.555,0
1542905226.717,39.551,37.109,40.527,31.250,43.457,0
1542905226.721,51.270,32.715,35.156,26.367,113.770,0
1542905226.725,39.062,35.156,21.484,33.203,63.477,0
1542905226.729,43.457,31.738,21.484,70.312,44.922,0
1542905226.733,41.992,29.297,33.691,47.363,39.551,0
1542905226.737,-2.930,29.785,44.922,-7.812,38.574,0
1542905226.741,7.812,34.668,45.898,-1.953,34.180,0
1542905226.744,58.594,42.480,41.992,12.695,33.691,0
1542905226.748,42.969,30.762,37.598,7.812,54.199,0
1542905226.752,42.969,32.227,29.785,22.461,41.992,0
1542905226.756,25.391,31.738,30.762,50.293,4.395,0
1542905226.760,22.461,21.484,38.086,39.551,-53.223,0
1542905226.764,71.289,28.320,36.133,34.668,8.789,0
1542905226.768,44.922,33.691,32.227,34.180,44.922,0
1542905226.772,40.527,21.484,34.668,26.855,-9.277,0
1542905226.776,67.383,34.180,35.645,67.871,29.785,0
1542905226.780,54.688,37.109,33.203,64.941,74.707,0
1542905226.784,45.410,23.926,30.762,-0.977,51.270,0
1542905226.787,27.832,27.344,29.785,18.066,8.789,0
1542905226.791,19.531,24.902,29.785,39.062,52.246,0
1542905226.795,-7.812,25.879,23.926,-4.883,50.293,0
1542905226.799,56.152,41.016,-0.488,50.293,-13.184,0
1542905226.803,146.484,46.875,4.395,150.391,14.648,0
1542905226.807,99.121,47.363,48.340,118.164,17.090,0
1542905226.811,41.992,34.180,60.547,31.250,-9.277,0
1542905226.815,10.742,20.996,54.688,-22.949,8.301,0
1542905226.819,-48.828,19.043,56.152,-76.172,46.875,0
1542905226.823,-63.965,-14.648,54.688,-87.402,32.715,0
1542905226.827,-67.383,-34.180,69.336,-74.219,34.180,0
1542905226.830,-107.910,-40.527,65.918,-102.539,46.387,0
1542905226.834,-99.609,-61.523,76.172,-99.609,64.941,0
1542905226.838,-109.863,-74.219,102.539,-123.535,59.570,0
1542905226.842,-144.043,-93.750,98.145,-131.348,53.223,0
1542905226.846,-145.996,-104.980,91.309,-112.793,48.340,0
1542905226.850,-150.391,-91.309,90.332,-142.578,91.309,0
1542905226.854,-162.109,-83.008,87.402,-146.484,83.008,0
1542905226.858,-153.320,-89.355,88.379,-117.188,-1.953,0
1542905226.862,-146.484,-85.449,89.355,-99.121,3.418,0
1542905226.866,-132.812,-77.637,82.520,-114.258,0.977,0
1542905226.869,-119.141,-69.336,76.660,-90.820,24.902,0
1542905226.873,-102.051,-54.688,74.219,-36.133,90.332,0
1542905226.877,-72.266,-43.457,70.801,-10.254,64.941,0
1542905226.881,-38.086,-43.945,64.941,-30.762,39.551,0
1542905226.885,-29.785,-39.551,57.129,-50.293,7.812,0
1542905226.889,-31.738,-33.203,54.688,-25.879,3.906,0
1542905226.893,-18.066,-31.738,57.129,0.977,-17.578,0
1542905226.897,-2.930,-25.879,58.105,-6.836,17.090,0
1542905226.901,-0.488,-23.926,57.617,13.672,15.625,0
1542905226.905,18.555,-19.531,57.617,45.410,-24.414,0
1542905226.909,29.785,-10.254,54.199,21.484,-3.418,0
1542905226.912,25.879,-8.789,48.828,29.785,10.742,0
1542905226.916,11.230,-10.742,42.969,38.574,19.043,0
1542905226.920,1.953,-14.160,41.504,21.973,68.848,0
1542905226.924,23.438,-3.906,40.039,32.227,51.270,0
1542905226.928,46.387,9.277,37.109,41.992,47.363,0
1542905226.932,65.430,15.137,35.645,57.129,40.039,0
1542905226.936,52.734,13.184,33.691,68.848,11.230,0
1542905226.940,56.641,11.719,34.180,26.367,62.988,0
1542905226.944,77.637,12.695,28.320,14.648,62.988,0
1542905226.948,72.266,9.766,26.855,62.988,-23.926,0
1542905226.952,69.824,21.484,25.391,49.805,-41.016,0
1542905226.955,59.082,33.691,23.926,14.160,26.855,0
1542905226.959,40.527,31.738,29.785,39.062,47.852,0
1542905226.963,30.273,19.531,33.691,56.641,38.086,0
1542905226.967,38.574,15.625,35.645,27.832,-12.207,0
1542905226.971,57.617,31.250,34.180,35.645,-6.836,0
1542905226.975,62.988,36.621,32.715,75.195,51.758,0
1542905226.979,65.430,28.809,38.086,60.059,59.570,0
1542905226.983,85.449,32.227,38.086,10.254,24.414,0
1542905226.987,84.961,33.203,36.621,29.785,21.484,0
1542905226.991,77.637,36.621,39.062,41.504,3.906,0
1542905226.994,64.941,41.992,39.062,74.707,-30.762,0
1542905226.998,56.152,31.738,38.574,74.707,-2.441,0
1542905227.002,56.641,30.762,36.621,37.598,-12.695,0
1542905227.006,40.527,37.109,37.598,31.738,16.113,0
1542905227.010,51.758,30.762,38.086,45.898,49.316,0
1542905227.014,61.523,29.785,26.855,49.805,16.113,0
1542905227.018,44.434,30.762,20.996,59.082,-7.812,0
1542905227.022,41.504,32.227,33.203,27.832,0.977,0
1542905227.026,50.293,40.039,38.574,29.785,3.906,0
1542905227.030,54.688,41.504,34.180,69.336,19.043,0
1542905227.034,60.059,42.969,37.598,59.570,46.875,0
1542905227.037,53.223,46.387,41.504,40.527,52.246,0
1542905227.041,47.852,44.922,38.574,54.688,33.203,0
1542905227.045,74.707,34.180,36.133,38.086,-33.203,0
1542905227.049,67.383,34.668,34.668,40.039,-45.410,0
1542905227.053,51.758,33.691,31.250,40.039,-0.488,0
1542905227.057,47.363,18.066,28.809,54.688,16.602,0
1542905227.061,32.227,15.137,32.715,63.477,69.336,0
1542905227.065,54.199,26.855,36.133,27.832,70.312,0
1542905227.069,50.781,42.969,28.809,36.621,10.254,0
1542905227.073,42.969,43.945,15.137,35.156,33.203,0
1542905227.077,47.363,34.668,15.625,11.230,34.668,0
1542905227.080,50.781,35.156,35.156,34.180,33.203,0
1542905227.084,52.246,40.039,43.945,42.480,41.016,0
1542905227.088,41.504,31.250,41.504,24.414,54.199,0
1542905227.092,50.781,23.438,42.969,56.152,33.691,0
1542905227.096,38.574,31.738,42.480,84.473,17.578,0
1542905227.100,19.043,41.992,38.574,46.875,64.453,0
1542905227.104,60.547,34.668,33.203,5.371,53.223,0
1542905227.108,79.590,24.902,33.203,47.852,31.250,0
1542905227.112,37.598,31.738,36.133,14.648,53.711,0
1542905227.116,11.719,38.574,28.809,-20.996,76.172,0
1542905227.119,28.320,37.109,26.855,17.578,105.957,0
1542905227.123,47.363,35.156,28.809,40.527,90.332,0
1542905227.127,31.250,38.574,30.273,43.945,31.250,0
1542905227.131,28.809,35.645,33.691,28.809,44.434,0
1542905227.135,44.922,35.645,33.691,22.949,58.105,0
1542905227.139,45.898,41.504,33.691,20.508,90.820,0
1542905227.143,30.273,35.645,30.273,33.691,73.730,0
1542905227.147,39.062,20.020,29.785,21.973,-21.973,0
1542905227.151,38.086,22.461,35.645,3.906,-8.301,0
1542905227.155,46.387,27.832,35.645,3.906,0.488,0
1542905227.159,59.082,33.203,32.715,28.809,-5.859,0
1542905227.162,55.176,34.668,36.621,33.203,-2.441,0
1542905227.166,27.344,35.156,43.457,0.000,38.086,0
1542905227.170,8.301,32.715,46.875,29.785,75.684,0
1542905227.174,55.176,34.668,37.109,52.246,69.336,0
1542905227.178,38.086,39.062,30.273,14.648,28.809,0
1542905227.182,5.859,29.785,40.039,-14.648,-18.066,0
1542905227.186,33.691,22.949,40.039,-14.160,43.457,0
1542905227.190,46.387,26.855,43.945,-6.348,114.746,0
1542905227.194,38.574,26.855,43.945,9.277,20.508,0
1542905227.198,36.133,17.578,34.668,15.137,-28.320,0
1542905227.202,35.156,21.973,34.668,15.625,15.625,0
1542905227.205,37.109,31.250,37.109,-15.625,42.969,0
1542905227.209,68.848,32.227,38.574,-21.484,46.875,0
1542905227.213,36.133,40.527,36.133,27.832,20.508,0
1542905227.217,-20.020,31.738,36.621,58.105,41.016,0
1542905227.221,20.020,17.578,35.156,48.828,47.852,0
1542905227.225,61.035,35.645,32.715,-11.230,29.785,0
1542905227.229,59.570,37.598,33.691,-17.578,42.480,0
1542905227.233,29.297,30.273,39.062,29.785,26.855,0
1542905227.237,5.859,41.504,41.016,27.344,31.738,0
1542905227.241,25.879,37.109,38.574,22.949,20.508,0
1542905227.244,42.480,31.250,39.551,0.977,-10.742,0
1542905227.248,36.133,34.180,37.109,21.973,45.898,0
1542905227.252,32.715,28.809,37.598,71.289,69.824,0
1542905227.256,14.648,20.996,39.551,67.871,-5.859,0
1542905227.260,19.531,35.156,32.715,28.320,-22.949,0
1542905227.264,27.832,42.969,26.367,-21.484,42.969,0
1542905227.268,33.691,22.949,30.273,8.789,21.484,0
1542905227.272,36.133,16.113,37.109,33.691,47.852,0
1542905227.276,34.668,21.484,41.016,24.414,35.645,0
1542905227.280,43.457,28.320,39.062,27.344,-20.508,0
1542905227.284,22.461,24.902,34.180,12.695,39.551,0
1542905227.287,12.695,24.902,37.109,14.648,29.297,0
1542905227.291,6.836,37.109,37.109,19.531,18.555,0
1542905227.295,-7.812,42.969,37.598,9.277,62.012,0
1542905227.299,-10.742,38.574,39.551,20.508,15.137,0
1542905227.303,19.043,17.578,30.762,14.160,-4.883,0
1542905227.307,48.340,16.602,26.367,-0.977,40.527,0
1542905227.311,40.527,41.504,30.762,1.953,89.355,0
1542905227.315,4.395,40.527,34.180,0.977,46.875,0
1542905227.319,11.230,32.227,35.645,-15.625,27.832,0
1542905227.323,6.836,40.039,33.203,-15.137,8.301,0
1542905227.327,6.836,37.109,35.645,3.418,-18.066,0
1542905227.330,29.785,30.273,39.551,10.742,1.953,0
1542905227.334,10.742,20.996,36.621,0.000,4.883,0
1542905227.338,20.020,21.973,31.250,-30.273,-13.672,0
1542905227.342,29.297,29.297,31.250,-8.301,10.742,0
1542905227.346,20.996,24.902,36.621,34.668,4.883,0
1542905227.350,32.715,26.367,31.738,35.156,16.113,0
1542905227.354,24.902,24.902,27.832,14.648,53.711,0
1542905227.358,10.742,19.531,35.645,15.625,12.695,0
1542905227.362,24.414,18.066,36.621,23.926,20.508,0
1542905227.366,2.441,13.184,37.109,12.207,-11.719,0
1542905227.369,-7.812,24.414,33.691,20.020,1.465,0
1542905227.373,21.973,37.598,38.086,41.016,28.809,0
1542905227.377,29.785,28.320,41.504,30.762,9.277,0
1542905227.381,13.184,17.578,34.180,-2.930,11.719,0
1542905227.385,9.766,5.371,38.086,20.020,38.086,0
1542905227.389,0.977,7.812,39.062,48.340,75.195,0
1542905227.393,0.977,27.344,31.738,12.695,26.367,0
1542905227.397,14.160,32.715,35.156,3.906,70.312,0
1542905227.401,14.648,16.602,35.156,17.090,56.152,0
1542905227.405,11.719,17.090,29.297,15.625,-7.812,0
1542905227.409,0.488,16.113,25.391,-41.992,-21.484,0
1542905227.412,7.812,20.996,23.926,-56.152,1.953,0
1542905227.416,17.090,28.809,30.762,37.598,27.344,0
1542905227.420,16.113,33.691,34.668,62.988,17.090,0
1542905227.424,30.273,45.898,37.109,20.508,29.297,0
1542905227.428,48.828,33.203,44.434,33.203,-17.578,0
1542905227.432,38.086,23.438,46.387,28.809,7.812,0
1542905227.436,9.277,28.809,37.598,-10.254,62.988,0
1542905227.440,3.418,14.160,33.691,-8.789,30.273,0
1542905227.444,24.414,19.531,33.203,25.879,39.062,0
1542905227.448,49.316,20.996,31.250,60.059,39.062,0
1542905227.452,51.270,11.719,33.203,67.383,13.184,0
1542905227.455,21.484,32.227,32.227,45.410,50.293,0
1542905227.459,8.301,34.180,31.250,8.301,38.086,0
1542905227.463,20.996,37.109,21.973,28.809,17.090,0
1542905227.467,70.801,48.828,11.719,95.215,76.660,0
1542905227.471,82.520,16.602,20.996,71.289,57.617,0
1542905227.475,23.926,-6.348,27.832,8.301,-12.207,0
1542905227.479,-30.273,20.996,29.785,0.977,32.227,0
1542905227.483,-41.992,26.855,41.992,-5.371,79.590,0
1542905227.487,-46.387,5.371,42.480,-41.016,37.598,0
1542905227.491,-32.227,-14.160,33.203,-37.109,7.812,0
1542905227.494,-27.344,-20.020,45.898,-19.043,75.195,0
1542905227.498,-60.059,-7.324,57.129,-48.340,121.582,0
1542905227.502,-59.570,-8.301,47.852,-57.617,80.566,0
1542905227.506,-69.824,-20.508,39.062,-25.391,22.949,0
1542905227.510,-73.730,-39.551,60.059,32.227,0.000,0
1542905227.514,-66.406,-38.574,75.195,-20.996,24.902,0
1542905227.518,-58.594,-6.836,59.570,-83.008,34.180,0
1542905227.522,-42.969,-7.324,54.199,-57.129,2.441,0
1542905227.526,-42.969,-10.742,59.570,-26.367,20.020,0
1542905227.530,-44.922,-28.809,40.527,-35.645,50.293,0
1542905227.534,-33.691,-37.598,32.227,-34.180,80.078,0
1542905227.537,-12.207,13.672,42.969,-15.137,79.590,0
1542905227.541,-7.324,33.203,51.270,-12.695,35.156,0
1542905227.545,-11.719,46.875,49.805,-10.742,7.812,0
1542905227.549,-6.836,37.598,45.898,12.695,28.320,0
1542905227.553,16.602,20.996,47.852,36.621,44.922,0
1542905227.557,16.113,34.668,35.645,6.348,40.039,0
1542905227.561,-4.883,30.273,26.367,-1.465,78.125,0
1542905227.565,43.457,33.203,28.320,28.320,11.719,0
1542905227.569,49.316,25.879,25.879,39.551,-30.273,0
1542905227.573,-6.348,9.277,34.668,24.414,-4.395,0
1542905227.577,-9.766,23.926,36.621,26.855,59.082,0
1542905227.580,41.992,39.062,31.250,23.926,49.805,0
1542905227.584,63.965,33.203,35.645,38.574,44.922,0
1542905227.588,19.043,27.832,31.250,44.434,62.500,0
1542905227.592,31.738,22.949,16.113,-0.488,60.547,0
1542905227.596,53.711,18.555,24.902,10.254,51.270,0
1542905227.600,25.391,27.344,40.039,26.855,9.766,0
1542905227.604,15.137,49.316,36.133,1.953,2.930,0
1542905227.608,17.090,69.824,26.855,4.883,26.855,0
1542905227.612,41.504,68.848,20.996,24.902,35.645,0
1542905227.616,52.734,53.223,20.996,19.531,41.016,0
1542905227.619,30.762,48.828,28.320,26.367,27.832,0
1542905227.623,35.645,41.992,36.621,29.785,20.508,0
1542905227.627,56.152,34.180,32.715,17.578,-13.184,0
1542905227.631,55.176,42.480,35.645,6.348,10.742,0
1542905227.635,47.363,49.805,36.621,24.414,46.875,0
1542905227.639,44.922,50.781,35.156,61.523,-9.277,0
1542905227.643,41.016,45.410,39.062,48.340,0.000,0
1542905227.647,53.711,40.527,40.527,59.570,12.695,0
1542905227.651,59.082,37.109,40.039,64.941,-21.973,0
1542905227.655,53.711,34.180,37.598,55.176,-25.391,0
1542905227.659,60.059,40.039,29.785,49.316,81.543,0
1542905227.662,59.082,28.809,28.809,6.348,106.934,0
1542905227.666,45.898,27.344,33.691,4.395,29.785,0
1542905227.670,31.738,44.434,36.621,26.855,43.945,0
1542905227.674,42.969,49.316,35.645,49.316,25.391,0
1542905227.678,59.570,50.781,32.715,52.246,21.484,0
1542905227.682,81.543,47.852,36.133,50.781,35.645,0
1542905227.686,69.824,42.969,35.645,65.918,0.977,0
1542905227.690,37.598,42.480,34.180,44.434,-2.930,0
1542905227.694,52.734,49.805,32.227,51.270,89.355,0
1542905227.698,58.105,46.387,33.203,91.309,44.434,0
1542905227.702,62.012,38.574,39.062,57.617,-40.039,0
1542905227.705,75.195,38.086,41.504,29.785,41.016,0
1542905227.709,60.059,35.156,46.387,57.129,15.137,0
1542905227.713,66.406,33.691,46.387,62.500,-5.371,0
1542905227.717,71.289,37.598,43.945,20.020,64.453,0
1542905227.721,52.246,39.551,44.434,34.668,14.160,0
1542905227.725,48.340,40.527,42.480,48.340,-26.367,0
1542905227.729,59.082,36.621,26.855,58.594,55.176,0
1542905227.733,83.984,26.855,9.277,87.891,59.082,0
1542905227.737,65.918,30.762,18.555,48.828,39.062,0
1542905227.741,49.805,41.016,41.504,42.480,51.270,0
1542905227.744,62.012,42.969,51.758,29.297,48.340,0
1542905227.748,56.641,29.297,55.664,26.855,21.973,0
1542905227.752,44.434,11.719,57.617,48.340,11.719,0
1542905227.756,63.477,17.090,52.246,39.062,44.434,0
1542905227.760,73.730,23.926,50.293,41.504,46.387,0
1542905227.764,50.781,23.438,38.086,10.742,-43.945,0
1542905227.768,51.270,39.062,36.133,8.789,-38.574,0
1542905227.772,49.316,49.316,47.852,38.086,29.785,0
1542905227.776,47.363,50.781,42.969,25.879,5.371,0
1542905227.780,74.707,45.898,39.062,31.250,24.414,0
1542905227.784,77.637,41.016,46.875,29.297,60.547,0
1542905227.787,42.969,36.621,37.598,18.555,74.707,0
1542905227.791,45.898,36.621,25.879,5.371,11.230,0
1542905227.795,66.895,32.227,31.738,48.340,-46.387,0
1542905227.799,62.012,20.508,41.504,85.449,-44.434,0
1542905227.803,54.199,25.879,59.082,41.016,21.484,0
1542905227.807,44.434,28.809,58.105,24.902,21.973,0
1542905227.811,47.852,17.578,56.641,53.711,-5.371,0
1542905227.815,44.922,12.207,62.988,51.758,44.434,0
1542905227.819,57.617,11.719,57.617,41.016,68.359,0
1542905227.823,68.359,-0.977,60.547,54.688,74.219,0
1542905227.827,49.805,-6.836,61.523,38.086,70.801,0
1542905227.830,40.039,1.953,60.547,26.367,43.945,0
1542905227.834,37.598,-3.418,58.105,82.031,8.789,0
1542905227.838,41.504,-9.766,61.035,94.727,-2.930,0
1542905227.842,50.293,6.836,44.922,57.617,22.949,0
1542905227.846,72.266,12.695,25.391,46.387,-0.977,0
1542905227.850,74.707,10.742,47.363,57.129,10.254,0
1542905227.854,68.359,13.184,59.570,47.363,66.895,0
1542905227.858,70.312,14.160,61.523,50.293,57.617,0
1542905227.862,46.875,15.137,63.477,72.266,39.062,0
1542905227.866,28.809,17.578,56.641,59.570,26.855,0
1542905227.869,53.223,17.578,50.781,45.898,34.668,0
1542905227.873,76.660,19.531,47.852,40.527,15.137,0
1542905227.877,84.961,25.391,41.992,69.336,42.969,0
1542905227.881,78.125,21.484,48.828,104.004,63.477,0
1542905227.885,69.336,16.113,52.734,98.145,25.391,0
1542905227.889,78.125,14.160,44.434,64.453,19.531,0
1542905227.893,110.352,13.672,47.852,95.703,59.570,0
1542905227.897,107.422,22.461,52.246,116.699,78.613,0
1542905227.901,74.707,24.902,51.270,58.594,54.199,0
1542905227.905,82.520,23.438,47.852,66.406,86.914,0
1542905227.909,95.215,30.273,33.691,68.848,43.945,0
1542905227.912,68.848,32.227,27.344,43.945,28.320,0
1542905227.916,39.062,28.320,44.922,30.762,57.617,0
1542905227.920,62.988,23.926,55.664,56.641,70.312,0
1542905227.924,82.520,21.484,54.688,123.047,30.273,0
1542905227.928,75.684,34.180,53.223,78.125,-9.766,0
1542905227.932,73.242,33.691,55.664,52.246,35.645,0
1542905227.936,55.664,21.484,58.594,44.922,57.617,0
1542905227.940,63.477,22.949,49.805,40.039,12.207,0
1542905227.944,65.918,32.227,43.457,82.031,9.277,0
1542905227.948,42.480,28.320,32.227,65.430,98.145,0
1542905227.952,35.156,33.691,27.832,42.969,31.738,0
1542905227.955,43.457,36.621,43.457,67.871,-32.227,0
1542905227.959,60.059,33.203,50.781,98.145,-36.133,0
1542905227.963,62.012,26.367,49.805,87.402,4.883,0
1542905227.967,74.707,25.879,46.387,104.004,47.363,0
1542905227.971,80.566,21.973,45.898,106.445,17.090,0
1542905227.975,75.195,1.953,39.551,92.285,32.715,0
1542905227.979,83.008,14.648,23.438,78.125,32.715,0
1542905227.983,78.125,43.945,25.879,18.066,24.902,0
1542905227.987,88.379,41.504,42.969,17.090,34.180,0
1542905227.991,63.477,29.785,48.828,33.691,32.715,0
1542905227.994,42.969,38.086,45.410,12.207,33.203,0
1542905227.998,52.734,43.945,44.922,24.902,35.645,0
1542905228.002,65.918,48.828,42.969,58.105,14.160,0
1542905228.006,78.125,47.363,44.922,78.613,40.039,0
1542905228.010,81.055,42.480,52.246,80.566,11.230,0
1542905228.014,78.125,36.621,48.340,65.918,-14.160,0
1542905228.018,87.891,31.738,32.715,71.777,-1.465,0
1542905228.022,92.285,36.133,37.598,80.078,-8.301,0
1542905228.026,71.289,34.180,44.434,65.430,44.434,0
1542905228.030,63.965,37.109,39.062,61.035,37.598,0
1542905228.034,70.801,45.410,32.227,59.082,-5.371,0
1542905228.037,68.848,43.457,38.574,76.660,23.926,0
1542905228.041,76.660,40.039,51.758,95.215,15.137,0
1542905228.045,76.660,40.039,51.758,85.449,-32.715,0
1542905228.049,65.918,39.062,38.574,102.051,-37.598,0
1542905228.053,104.492,47.852,36.621,139.648,7.812,0
1542905228.057,86.914,48.340,50.781,75.684,52.734,0
1542905228.061,23.926,31.738,57.129,-15.137,51.270,0
1542905228.065,30.762,32.715,49.316,-2.441,42.969,0
1542905228.069,40.527,32.227,54.199,7.812,52.734,0
1542905228.073,-20.508,17.578,59.570,-6.348,64.941,0
1542905228.077,-32.227,17.090,37.109,-45.898,39.062,0
1542905228.080,-14.648,13.672,40.039,-60.059,59.570,0
1542905228.084,-27.344,-1.953,69.824,-10.742,93.262,0
1542905228.088,-43.457,-30.273,72.754,-48.828,66.895,0
1542905228.092,-60.547,-30.273,71.777,-53.223,3.906,0
1542905228.096,-35.156,-9.766,86.426,-5.371,40.527,0
1542905228.100,-22.949,1.953,90.332,-32.227,75.684,0
1542905228.104,-58.105,-13.672,73.730,-40.039,37.109,0
1542905228.108,-85.938,-53.223,54.688,-46.387,-27.832,0
1542905228.112,-75.684,20.996,41.016,-67.871,9.277,0
1542905228.116,-39.062,43.945,34.180,-36.133,-7.812,0
1542905228.119,-57.617,-25.391,67.871,0.977,-3.418,0
1542905228.123,-65.918,-32.715,92.773,-16.602,72.754,0
1542905228.127,-38.086,-14.648,82.031,-65.918,72.266,0
1542905228.131,-39.551,40.527,54.688,-76.172,24.414,0
1542905228.135,-49.316,53.711,63.477,-52.734,57.129,0
1542905228.139,-44.434,32.715,66.895,-42.480,42.480,0
1542905228.143,-12.695,61.523,22.949,-22.949,8.301,0
1542905228.147,-3.418,39.551,18.066,25.391,-3.906,0
1542905228.151,-16.113,-29.785,39.062,60.547,-18.555,0
1542905228.155,-19.043,10.742,36.133,12.207,30.762,0
1542905228.159,11.230,28.320,39.551,-15.625,29.785,0
1542905228.162,37.109,32.715,28.809,-15.625,9.277,0
1542905228.166,30.273,68.848,24.902,-6.836,22.461,0
1542905228.170,19.531,27.832,43.457,35.156,-9.277,0
1542905228.174,31.738,32.227,35.645,56.641,16.602,0
1542905228.178,30.762,90.820,19.043,15.625,55.176,0
1542905228.182,44.922,105.469,30.273,48.340,65.918,0
1542905228.186,75.684,93.750,23.926,110.840,7.812,0
1542905228.190,69.336,92.285,19.043,63.965,-37.109,0
1542905228.194,48.828,85.449,42.480,29.297,40.039,0
1542905228.198,52.246,70.312,34.180,5.859,25.391,0
1542905228.202,69.336,59.570,23.926,17.578,1.953,0
1542905228.205,83.008,62.500,31.738,57.617,38.086,0
1542905228.209,58.594,56.641,28.809,60.547,35.645,0
1542905228.213,48.828,57.617,29.297,35.645,26.855,0
1542905228.217,76.660,52.246,43.945,49.316,-4.395,0
1542905228.221,73.242,43.457,34.180,47.363,34.180,0
1542905228.225,50.781,17.578,23.438,44.922,85.449,0
1542905228.229,48.340,30.762,29.297,62.988,68.848,0
1542905228.233,60.059,80.078,26.367,44.434,-12.695,0
1542905228.237,56.641,82.520,25.879,42.480,-33.203,0
1542905228.241,46.875,72.266,26.855,56.641,74.707,0
1542905228.244,62.988,58.105,26.367,52.246,85.938,0
1542905228.248,70.801,65.918,31.250,50.781,51.270,0
1542905228.252,68.848,63.965,36.133,76.172,23.926,0
1542905228.256,62.988,57.129,32.227,59.082,-4.883,0
1542905228.260,48.828,62.012,26.855,30.762,0.488,0
1542905228.264,57.129,59.570,26.367,54.688,0.977,0
1542905228.268,62.500,53.223,32.715,65.430,-35.645,0
1542905228.272,65.918,51.270,30.273,70.801,-46.387,0
1542905228.276,68.359,45.898,22.949,75.684,52.734,0
1542905228.280,73.730,42.969,27.344,59.082,71.289,0
1542905228.284,78.125,43.945,26.367,65.918,2.441,0
1542905228.287,69.336,27.832,18.066,61.523,31.250,0
1542905228.291,79.102,32.715,26.367,7.812,62.012,0
1542905228.295,81.055,50.293,26.855,20.020,39.062,0
1542905228.299,81.543,63.477,25.391,50.293,14.648,0
1542905228.303,67.871,63.965,26.367,27.344,35.156,0
1542905228.307,51.758,55.176,25.879,47.852,106.934,0
1542905228.311,41.504,40.039,40.527,67.383,42.480,0
1542905228.315,55.664,30.273,61.035,84.473,2.930,0
1542905228.319,73.242,33.203,47.852,51.270,1.465,0
1542905228.323,55.664,46.387,35.156,12.207,-34.668,0
1542905228.327,43.945,52.734,37.598,23.438,-20.508,0
1542905228.330,38.574,31.738,42.969,36.133,-2.441,0
1542905228.334,53.223,16.602,42.480,41.016,35.645,0
1542905228.338,51.270,5.859,16.113,25.879,48.828,0
1542905228.342,36.133,17.578,14.648,59.570,35.156,0
1542905228.346,28.809,56.152,42.969,91.797,15.625,0
1542905228.350,36.621,58.594,39.551,56.641,-0.977,0
1542905228.354,41.992,56.152,13.184,13.672,14.648,0
1542905228.358,37.109,54.199,12.207,-22.949,-44.922,0
1542905228.362,39.062,36.133,21.484,-26.855,-56.641,0
1542905228.366,36.621,47.363,14.648,-41.504,6.348,0
1542905228.369,36.621,29.297,25.879,-11.719,34.668,0
1542905228.373,56.152,2.441,60.059,81.543,21.484,0
1542905228.377,80.078,22.461,41.016,141.602,-19.531,0
1542905228.381,66.895,35.156,11.719,76.172,13.184,0
1542905228.385,49.316,46.387,13.184,-3.906,56.641,0
1542905228.389,51.270,59.082,15.137,18.066,48.828,0
1542905228.393,27.832,36.621,13.184,4.395,37.109,0
1542905228.397,16.602,-26.855,-0.977,-16.602,36.621,0
1542905228.401,46.387,-24.414,1.465,4.883,50.293,0
1542905228.405,70.312,56.152,21.973,18.066,67.871,0
1542905228.409,56.152,100.098,41.016,8.301,56.152,0
1542905228.412,62.012,68.848,33.691,19.531,20.020,0
1542905228.416,102.051,3.906,-35.156,77.148,4.395,0
1542905228.420,86.914,15.625,-64.453,92.285,17.090,0
1542905228.424,66.895,60.059,4.883,88.867,18.066,0
1542905228.428,64.453,75.195,64.941,41.504,-6.348,0
1542905228.432,39.062,77.637,35.645,-23.926,39.062,0
1542905228.436,64.453,87.891,18.066,29.297,30.273,0
1542905228.440,66.406,86.426,73.242,89.355,17.578,0
1542905228.444,38.574,29.297,65.918,64.941,15.137,0
1542905228.448,66.406,31.738,41.504,89.844,5.371,0
1542905228.452,43.457,72.754,36.621,64.941,11.230,0
1542905228.455,20.996,61.523,33.203,5.371,-30.762,0
1542905228.459,29.297,54.199,39.062,5.371,46.875,0
1542905228.463,42.480,36.621,18.555,-9.766,62.012,0
1542905228.467,49.805,33.691,7.324,0.488,-50.781,0
1542905228.471,41.016,41.992,22.461,-4.883,-19.531,0
1542905228.475,55.176,51.270,31.250,-0.488,21.973,0
1542905228.479,61.523,53.711,41.992,48.340,80.566,0
1542905228.483,60.547,52.246,45.410,61.035,138.184,0
1542905228.487,87.891,55.176,31.738,22.461,28.320,0
1542905228.491,89.355,54.688,28.320,-1.465,-2.441,0
1542905228.494,39.551,47.363,36.133,27.344,53.223,0
1542905228.498,17.090,39.551,52.246,28.320,92.285,0
1542905228.502,23.438,33.691,42.480,34.668,73.242,0
1542905228.506,40.039,31.250,19.531,34.180,61.523,0
1542905228.510,48.828,40.039,17.090,-17.090,9.766,0
1542905228.514,51.758,40.527,20.020,-2.441,-29.297,0
1542905228.518,42.969,26.855,44.434,49.316,69.336,0
1542905228.522,30.273,32.715,43.457,51.270,74.219,0
1542905228.526,47.363,54.199,33.691,32.715,66.895,0
1542905228.530,65.430,51.270,34.668,17.578,54.688,0
1542905228.534,59.570,30.273,31.738,56.641,8.789,0
1542905228.537,62.012,35.645,37.109,89.355,27.344,0
1542905228.541,57.617,44.922,46.387,76.660,22.461,0
1542905228.545,42.969,44.922,31.250,63.477,23.438,0
1542905228.549,55.176,52.734,7.324,56.152,32.715,0
1542905228.553,67.383,45.410,20.020,38.574,27.344,0
1542905228.557,46.875,31.738,35.645,8.789,12.207,0
1542905228.561,40.039,28.809,36.133,21.484,-1.953,0
1542905228.565,38.086,35.156,34.180,43.457,27.344,0
1542905228.569,38.574,47.852,27.344,15.625,81.543,0
1542905228.573,49.316,50.781,11.230,19.531,62.500,0
1542905228.577,44.434,44.922,17.090,40.527,30.762,0
1542905228.580,37.598,5.859,36.621,68.359,66.406,0
1542905228.584,51.270,-25.879,41.992,55.664,49.316,0
1542905228.588,62.500,32.715,40.527,36.621,3.906,0
1542905228.592,48.340,80.566,35.645,22.461,-2.930,0
1542905228.596,30.273,56.641,31.738,-8.301,52.734,0
1542905228.600,25.391,41.992,40.527,26.855,41.504,0
1542905228.604,32.227,44.922,57.129,56.152,0.488,0
1542905228.608,41.992,43.457,48.340,41.992,9.277,0
1542905228.612,41.504,48.340,30.273,31.738,15.137,0
1542905228.616,54.199,-21.484,5.859,6.836,22.949,0
1542905228.619,75.684,-35.645,-4.883,46.387,-8.301,0
1542905228.623,57.617,45.898,20.508,121.094,29.785,0
1542905228.627,49.316,32.227,59.082,52.734,47.363,0
1542905228.631,54.688,1.953,60.547,-33.691,42.969,0
1542905228.635,36.621,37.598,44.922,24.414,62.988,0
1542905228.639,26.855,63.477,51.270,35.645,49.316,0
1542905228.643,46.387,38.086,54.688,24.902,56.152,0
1542905228.647,62.988,6.348,31.250,3.418,20.020,0
1542905228.651,64.941,4.883,23.438,34.180,-11.719,0
1542905228.655,53.711,17.578,19.043,87.402,27.832,0
1542905228.659,44.434,-24.414,-7.812,35.156,67.871,0
1542905228.662,42.480,11.230,5.371,20.996,51.758,0
1542905228.666,59.082,106.445,38.086,13.184,-16.602,0
1542905228.670,56.152,105.469,45.898,15.137,46.387,0
1542905228.674,39.551,95.703,50.293,64.941,52.246,0
1542905228.678,46.875,67.383,38.086,40.527,-22.461,0
1542905228.682,60.547,48.828,35.156,57.617,-14.160,0
1542905228.686,74.707,64.941,33.203,60.059,49.316,0
1542905228.690,61.523,63.477,46.875,36.621,92.773,0
1542905228.694,20.996,57.617,48.828,0.977,66.406,0
1542905228.698,26.367,58.594,10.254,-28.320,55.176,0
1542905228.702,74.707,-6.348,3.418,36.621,62.012,0
1542905228.705,63.477,4.883,37.109,43.945,0.488,0
1542905228.709,29.785,54.688,47.852,37.109,-8.301,0
1542905228.713,26.855,29.297,42.480,52.734,8.301,0
1542905228.717,22.949,56.152,54.688,50.781,13.672,0
1542905228.721,20.996,74.219,40.039,27.832,40.527,0
1542905228.725,40.527,68.848,5.371,41.504,-12.207,0
1542905228.729,57.617,63.477,15.625,29.297,29.785,0
1542905228.733,38.086,47.363,40.039,28.320,35.156,0
1542905228.737,42.480,52.734,52.734,34.180,-0.977,0
1542905228.741,51.270,59.570,40.527,21.973,52.734,0
1542905228.744,37.109,52.246,32.227,32.227,61.035,0
1542905228.748,69.824,46.387,32.715,-0.488,65.918,0
1542905228.752,77.148,53.711,30.273,7.324,55.664,0
1542905228.756,60.547,54.688,45.898,38.086,57.129,0
1542905228.760,63.965,50.293,44.434,16.113,29.297,0
1542905228.764,50.293,49.316,28.809,50.293,86.426,0
1542905228.768,32.715,29.297,23.926,75.195,99.121,0
1542905228.772,29.785,32.227,22.461,-37.598,-26.367,0
1542905228.776,41.992,47.363,37.598,-13.184,-37.598,0
1542905228.780,33.203,29.785,49.805,48.828,52.734,0
1542905228.784,39.551,40.527,43.457,42.480,24.414,0
1542905228.787,70.312,58.594,20.020,62.988,5.859,0
1542905228.791,59.570,37.109,10.742,37.598,46.875,0
1542905228.795,31.250,22.949,36.621,50.293,-18.066,0
1542905228.799,36.133,38.574,54.688,83.008,-16.113,0
1542905228.803,64.941,40.039,53.711,22.949,6.836,0
1542905228.807,72.266,49.316,37.109,-21.973,-21.973,0
1542905228.811,69.336,54.199,40.039,21.973,4.395,0
1542905228.815,64.453,43.457,34.668,54.688,3.418,0
1542905228.819,63.965,42.969,35.645,10.742,-59.570,0
1542905228.823,55.176,58.105,54.688,5.859,8.301,0
1542905228.827,54.688,57.129,27.344,43.457,42.480,0
1542905228.830,55.176,44.922,28.809,6.836,-7.812,0
1542905228.834,44.434,62.500,32.715,17.090,-16.602,0
1542905228.838,59.570,50.781,46.387,49.805,20.508,0
1542905228.842,58.594,23.438,72.754,58.594,62.988,0
1542905228.846,28.320,15.137,53.711,29.297,51.758,0
1542905228.850,32.715,-12.207,37.109,20.996,11.230,0
1542905228.854,35.156,-30.273,39.551,61.523,4.883,0
1542905228.858,18.555,-0.977,34.180,77.148,4.395,0
1542905228.862,26.367,36.133,43.945,49.805,62.500,0
1542905228.866,38.086,72.754,56.152,24.414,57.129,0
1542905228.869,53.223,80.078,38.086,-5.859,-22.461,0
1542905228.873,47.363,60.547,29.297,0.977,-19.043,0
1542905228.877,37.109,41.016,36.133,12.695,14.648,0
1542905228.881,51.270,4.883,40.039,43.945,23.926,0
1542905228.885,48.828,32.715,54.688,28.320,0.000,0
1542905228.889,55.176,67.871,46.387,22.461,17.090,0
1542905228.893,50.781,17.090,31.250,65.430,3.906,0
1542905228.897,46.875,-6.348,33.691,63.477,9.766,0
1542905228.901,48.340,25.391,16.602,11.230,44.922,0
1542905228.905,46.387,57.129,14.160,-24.414,13.672,0
1542905228.909,31.738,77.637,52.246,-14.160,-22.461,0
1542905228.912,27.832,70.312,32.227,28.320,-59.570,0
1542905228.916,37.598,24.902,-45.410,61.523,-0.977,0
1542905228.920,37.109,-28.809,0.000,22.949,43.457,0
1542905228.924,28.809,4.883,60.547,20.020,-49.805,0
1542905228.928,31.738,60.547,65.430,17.578,-9.277,0
1542905228.932,37.598,93.262,68.848,19.043,14.160,0
1542905228.936,51.758,79.102,50.781,53.223,46.875,0
1542905228.940,66.895,78.125,38.086,37.598,54.199,0
1542905228.944,58.594,19.043,41.992,30.273,48.828,0
1542905228.948,56.152,-4.395,22.949,36.133,14.160,0
1542905228.952,39.062,70.801,12.695,14.648,-4.883,0
1542905228.955,24.414,71.289,32.715,16.602,12.695,0
1542905228.959,58.105,43.945,43.457,29.297,10.742,0
1542905228.963,62.988,48.828,40.039,4.395,80.566,0
1542905228.967,38.086,62.500,17.578,-5.371,59.570,0
1542905228.971,49.805,62.500,26.367,32.715,-2.441,0
1542905228.975,69.336,46.387,44.434,65.918,6.836,0
1542905228.979,47.363,42.969,49.316,27.832,-7.812,0
1542905228.983,32.715,53.711,47.363,4.883,45.410,0
1542905228.987,32.227,54.688,28.320,-31.250,110.840,0
1542905228.991,46.387,54.688,22.949,-26.855,48.828,0
1542905228.994,62.988,17.090,39.062,27.344,31.738,0
1542905228.998,12.207,11.230,50.781,52.734,52.734,0
1542905229.002,14.648,52.734,36.133,31.250,82.520,0
1542905229.006,35.156,62.012,31.738,8.789,17.090,0
1542905229.010,36.133,65.430,55.664,34.668,-25.879,0
1542905229.014,52.734,58.594,47.363,42.969,42.969,0
1542905229.018,33.203,45.410,38.574,34.180,56.641,0
1542905229.022,17.090,52.734,44.434,25.391,52.246,0
1542905229.026,33.203,31.250,33.691,33.203,98.145,0
1542905229.030,30.273,39.551,32.715,30.273,57.617,0
1542905229.034,38.086,63.477,27.832,55.176,9.766,0
1542905229.037,79.102,64.941,24.414,70.801,82.520,0
1542905229.041,83.984,54.199,49.805,77.637,39.062,0
1542905229.045,36.621,29.785,58.105,62.500,31.738,0
1542905229.049,30.273,15.625,53.223,32.715,62.012,0
1542905229.053,36.133,10.742,48.340,48.828,9.766,0
1542905229.057,20.996,4.883,52.246,43.945,-11.719,0
1542905229.061,35.645,-23.438,50.781,8.789,29.297,0
1542905229.065,56.152,43.945,41.504,19.043,84.961,0
1542905229.069,46.875,122.559,41.016,59.570,74.219,0
1542905229.073,50.293,74.219,35.156,54.199,57.129,0
1542905229.077,47.363,25.879,27.832,78.125,48.828,0
1542905229.080,50.781,68.359,32.227,68.848,60.547,0
1542905229.084,63.477,79.102,50.293,64.453,76.172,0
1542905229.088,55.664,61.035,34.180,21.484,23.926,0
1542905229.092,48.340,55.176,27.832,-36.621,39.062,0
1542905229.096,39.551,51.270,41.992,6.836,54.199,0
1542905229.100,45.410,39.062,20.020,52.246,15.625,0
1542905229.104,39.551,39.551,22.461,92.773,8.301,0
1542905229.108,14.648,57.617,51.758,91.797,-16.602,0
1542905229.112,0.000,45.898,71.777,3.418,-4.883,0
1542905229.116,10.742,28.320,71.289,16.113,-2.441,0
1542905229.119,32.227,-7.324,58.105,31.250,-50.781,0
1542905229.123,31.738,19.043,36.621,-9.277,-11.230,0
1542905229.127,30.762,86.426,36.621,-1.465,36.621,0
1542905229.131,20.020,75.684,38.574,-10.254,26.855,0
1542905229.135,6.348,51.758,35.645,11.230,20.996,0
1542905229.139,19.531,47.852,20.996,26.367,2.930,0
1542905229.143,34.668,14.648,21.484,40.527,3.906,0
1542905229.147,30.273,-13.184,16.113,54.688,24.902,0
1542905229.151,47.852,35.156,34.180,29.297,20.508,0
1542905229.155,50.293,78.125,56.152,2.930,33.203,0
1542905229.159,30.273,65.430,43.457,2.930,25.391,0
1542905229.162,57.129,63.477,38.574,15.625,41.016,0
1542905229.166,36.621,65.430,34.180,12.207,45.898,0
1542905229.170,15.625,62.988,34.180,-0.977,31.738,0
1542905229.174,41.016,34.668,42.969,62.500,62.012,0
1542905229.178,26.367,-0.977,40.039,63.477,67.383,0
1542905229.182,7.812,-33.691,19.043,7.812,65.430,0
1542905229.186,15.625,-5.371,24.902,30.762,26.855,0
1542905229.190,47.852,77.148,45.898,50.293,19.531,0
1542905229.194,56.152,86.426,34.180,29.297,19.043,0
1542905229.198,32.227,78.613,48.340,34.180,-17.578,0
1542905229.202,24.414,65.918,61.035,88.867,-7.812,0
1542905229.205,44.922,38.574,53.711,57.617,21.973,0
1542905229.209,33.203,-8.789,42.480,28.809,35.645,0
1542905229.213,23.926,27.832,21.484,10.254,58.105,0
1542905229.217,27.344,82.520,29.785,-25.879,56.152,0
1542905229.221,23.438,70.312,53.223,6.836,37.598,0
1542905229.225,45.898,57.129,57.129,63.965,42.480,0
1542905229.229,50.781,44.434,52.246,48.828,67.871,0
1542905229.233,42.969,49.805,43.457,24.414,48.828,0
1542905229.237,57.617,21.973,31.250,65.430,33.203,0
1542905229.241,37.598,17.090,22.949,49.805,48.828,0
1542905229.244,21.484,45.410,33.203,43.945,42.480,0
1542905229.248,44.922,63.965,48.340,65.918,15.137,0
1542905229.252,41.016,46.387,51.270,35.156,0.977,0
1542905229.256,26.855,27.344,43.457,16.113,48.828,0
1542905229.260,44.922,53.223,43.945,20.508,73.242,0
1542905229.264,62.012,77.637,44.434,27.344,48.828,0
1542905229.268,68.848,55.176,26.367,19.043,70.312,0
1542905229.272,62.012,36.133,22.461,58.105,64.941,0
1542905229.276,41.016,47.363,44.922,55.664,35.645,0
1542905229.280,22.949,61.035,47.852,45.898,29.785,0
1542905229.284,55.176,31.738,37.598,103.027,-43.457,0
1542905229.287,76.660,-17.578,41.016,77.637,-31.738,0
1542905229.291,50.781,30.762,53.711,38.574,-44.434,0
1542905229.295,56.641,60.059,26.855,36.621,-20.508,0
1542905229.299,51.758,34.180,-1.953,21.973,27.832,0
1542905229.303,32.715,42.969,29.297,53.223,6.348,0
1542905229.307,30.273,62.500,64.453,61.523,56.641,0
1542905229.311,29.785,64.453,58.594,33.691,27.344,0
1542905229.315,47.363,63.477,48.828,50.781,12.695,0
1542905229.319,44.922,53.223,46.875,44.434,34.180,0
1542905229.323,52.246,21.484,38.086,28.320,-27.832,0
1542905229.327,61.523,18.555,30.273,49.316,-8.301,0
1542905229.330,45.898,23.926,39.551,54.199,17.090,0
1542905229.334,57.129,7.812,46.875,47.363,2.441,0
1542905229.338,69.336,25.879,33.691,73.242,27.832,0
1542905229.342,88.867,59.082,20.020,89.355,23.438,0
1542905229.346,97.168,46.875,29.297,69.336,-41.016,0
1542905229.350,67.871,44.922,50.781,58.105,-22.949,0
1542905229.354,36.621,57.129,51.758,28.809,31.250,0
1542905229.358,44.922,40.527,42.969,46.387,20.996,0
1542905229.362,62.988,-17.090,51.758,102.539,3.906,0
1542905229.366,59.570,-38.086,34.668,83.008,-4.883,0
1542905229.369,78.613,34.668,24.414,45.898,-8.789,0
1542905229.373,62.500,89.355,57.129,20.020,1.465,0
1542905229.377,44.922,84.473,49.805,26.367,-13.672,0
1542905229.381,46.875,64.941,28.809,52.246,7.324,0
1542905229.385,39.062,48.340,34.180,49.805,65.430,0
1542905229.389,64.941,60.547,33.203,53.711,-7.324,0
1542905229.393,64.453,71.777,32.715,49.316,-42.480,0
1542905229.397,43.945,48.828,44.922,60.547,62.500,0
1542905229.401,63.965,-19.043,55.176,62.500,86.426,0
1542905229.405,99.609,-40.527,46.387,61.523,47.363,0
1542905229.409,89.355,17.578,29.297,70.312,20.020,0
1542905229.412,64.453,41.016,11.230,51.270,32.227,0
1542905229.416,58.105,99.609,14.160,9.766,41.504,0
1542905229.420,55.176,33.203,41.992,-17.578,13.672,0
1542905229.424,75.684,-28.809,43.945,-7.812,38.574,0
1542905229.428,72.266,72.754,35.156,41.504,35.156,0
1542905229.432,56.641,84.473,-7.324,110.840,-29.785,0
1542905229.436,58.594,27.832,0.000,96.680,8.789,0
1542905229.440,65.918,42.969,60.547,48.828,42.480,0
1542905229.444,51.758,69.336,74.707,44.434,-7.324,0
1542905229.448,43.945,46.875,47.852,45.898,55.664,0
1542905229.452,44.434,70.801,44.922,27.344,90.820,0
1542905229.455,35.156,63.477,24.414,18.066,48.340,0
1542905229.459,53.223,-16.602,11.719,29.297,-3.906,0
1542905229.463,38.574,6.836,44.922,46.387,-37.598,0
1542905229.467,37.598,61.035,20.996,28.320,55.664,0
1542905229.471,75.684,53.223,22.949,34.180,20.020,0
1542905229.475,74.707,71.777,43.457,61.523,-21.973,0
1542905229.479,40.527,41.992,31.250,30.762,40.039,0
1542905229.483,36.621,23.926,33.691,-0.488,46.387,0
1542905229.487,58.594,62.012,28.320,21.973,15.625,0
1542905229.491,58.594,55.664,35.645,73.730,-0.977,0
1542905229.494,42.969,-13.672,-6.836,42.480,14.648,0
1542905229.498,31.738,1.953,-15.625,11.230,6.836,0
1542905229.502,53.223,72.754,56.152,42.480,17.578,0
1542905229.506,67.383,0.000,56.641,29.785,38.574,0
1542905229.510,44.434,-8.789,15.625,8.789,44.434,0
1542905229.514,46.875,107.910,46.875,30.273,58.105,0
1542905229.518,80.566,101.562,51.758,66.406,34.668,0
1542905229.522,68.848,54.199,48.340,72.754,27.344,0
1542905229.526,59.082,52.246,67.383,94.238,41.016,0
1542905229.530,49.805,52.246,41.992,64.941,30.273,0
1542905229.534,20.508,71.777,24.902,32.227,49.805,0
1542905229.537,20.508,79.102,12.207,10.742,38.086,0
1542905229.541,9.277,67.871,40.039,4.883,47.852,0
1542905229.545,34.180,44.434,53.223,38.574,42.969,0
1542905229.549,50.293,36.133,46.875,14.648,14.160,0
1542905229.553,38.574,83.008,35.645,9.277,32.715,0
1542905229.557,53.223,68.848,31.738,6.836,21.973,0
1542905229.561,20.508,47.363,37.109,13.184,37.598,0
1542905229.565,11.230,44.922,27.344,33.691,40.039,0
1542905229.569,53.223,59.082,33.203,20.508,17.578,0
1542905229.573,58.594,64.453,34.180,18.555,39.551,0
1542905229.577,39.551,56.152,33.203,12.695,-12.695,0
1542905229.580,34.180,40.039,49.316,1.953,-26.855,0
1542905229.584,56.641,35.156,26.855,33.691,54.199,0
1542905229.588,59.082,53.711,20.996,40.527,58.594,0
1542905229.592,48.828,65.918,35.645,18.555,30.762,0
1542905229.596,88.867,35.645,52.734,55.664,-40.039,0
1542905229.600,104.004,31.738,58.594,101.562,-24.414,0
1542905229.604,70.801,77.637,36.621,65.430,-10.742,0
1542905229.608,50.293,67.383,37.598,32.715,4.883,0
1542905229.612,41.504,44.434,54.199,66.406,-2.930,0
1542905229.616,55.176,55.664,58.594,57.617,49.316,0
1542905229.619,51.270,62.500,45.410,41.992,81.543,0
1542905229.623,32.227,53.223,43.945,52.246,-10.254,0
1542905229.627,53.223,36.621,62.988,57.617,-27.344,0
1542905229.631,67.871,19.531,61.523,50.293,7.324,0
1542905229.635,50.781,37.109,51.758,52.734,4.883,0
1542905229.639,56.641,58.594,68.359,55.664,-19.043,0
1542905229.643,53.223,63.477,68.359,52.246,56.152,0
1542905229.647,34.180,65.430,54.688,37.109,104.492,0
1542905229.651,32.715,41.504,43.945,41.504,56.152,0
1542905229.655,71.289,42.969,47.852,63.965,65.918,0
1542905229.659,74.707,23.926,68.848,42.480,33.203,0
1542905229.662,-0.977,1.953,82.031,14.160,16.113,0
1542905229.666,-10.742,22.949,76.660,-0.488,56.641,0
1542905229.670,12.207,34.180,72.754,-19.043,0.000,0
1542905229.674,-18.555,24.414,80.566,-2.441,-17.578,0
1542905229.678,-25.391,-3.418,83.496,0.977,41.016,0
1542905229.682,11.719,20.996,78.613,33.691,16.602,0
1542905229.686,-15.625,-26.367,80.078,-2.441,32.227,0
1542905229.690,-46.875,-37.109,73.730,-51.270,36.621,0
1542905229.694,-27.344,81.055,63.965,-27.832,-15.137,0
1542905229.698,-42.480,121.094,60.059,-29.785,21.484,0
1542905229.702,-48.340,71.289,57.617,0.977,86.426,0
1542905229.705,-5.859,15.137,68.848,-27.344,28.320,0
1542905229.709,-25.391,29.297,51.270,-52.246,3.418,0
1542905229.713,-40.527,62.012,48.340,-20.996,7.324,0
1542905229.717,-26.367,77.637,52.246,-41.992,0.488,0
1542905229.721,-20.996,89.355,46.387,-43.945,-50.293,0
1542905229.725,0.000,93.750,51.270,-40.039,-43.945,0
1542905229.729,13.672,85.938,48.340,-11.230,-11.230,0
1542905229.733,51.758,49.316,25.391,63.477,-36.133,0
1542905229.737,59.570,39.551,0.000,66.895,-4.395,0
1542905229.741,50.781,91.309,10.742,1.465,11.719,0
1542905229.744,127.441,88.379,39.062,34.668,37.109,0
1542905229.748,134.766,27.832,31.250,72.754,64.941,0
1542905229.752,89.844,53.711,11.719,58.594,75.684,0
1542905229.756,99.121,108.887,18.555,73.730,64.941,0
1542905229.760,92.773,103.516,27.344,83.008,47.363,0
1542905229.764,86.914,86.426,43.457,78.125,41.504,0
1542905229.768,118.164,79.102,40.527,80.566,1.953,0
1542905229.772,156.250,77.148,4.395,132.324,20.508,0
1542905229.776,146.484,92.285,-8.789,144.531,68.359,0
1542905229.780,114.258,90.332,1.465,65.918,52.246,0
1542905229.784,114.258,91.309,3.906,93.262,81.543,0
1542905229.787,187.012,97.656,5.371,154.297,41.992,0
1542905229.791,206.055,91.309,4.395,93.750,-38.086,0
1542905229.795,135.742,88.867,-3.906,78.125,12.695,0
1542905229.799,145.996,89.355,-1.953,112.305,66.406,0
1542905229.803,147.949,88.379,8.789,100.586,6.348,0
1542905229.807,146.973,96.191,-5.371,107.422,10.254,0
1542905229.811,153.809,115.234,-4.883,119.141,57.129,0
1542905229.815,140.625,127.930,13.184,154.785,55.176,0
1542905229.819,184.082,102.539,3.418,178.711,17.090,0
1542905229.823,213.379,69.824,3.906,138.672,38.574,0
1542905229.827,192.383,92.285,0.488,161.621,40.527,0
1542905229.830,186.035,143.555,-43.945,180.176,50.781,0
1542905229.834,167.969,157.227,-45.898,112.305,77.637,0
1542905229.838,175.781,126.953,-1.953,120.605,28.809,0
1542905229.842,185.059,121.094,12.207,154.785,34.668,0
1542905229.846,182.617,131.836,3.418,159.668,52.246,0
1542905229.850,186.035,138.672,-1.953,151.367,28.809,0
1542905229.854,178.711,142.578,-3.418,163.086,-1.465,0
1542905229.858,220.215,103.027,-4.395,173.340,3.418,0
1542905229.862,223.633,17.090,-5.371,137.207,28.320,0
1542905229.866,156.250,53.711,-25.879,133.789,0.977,0
1542905229.869,156.250,141.113,-7.812,171.387,-46.387,0
1542905229.873,151.367,135.742,15.625,149.902,-44.922,0
1542905229.877,125.000,111.328,-2.441,124.512,-6.348,0
1542905229.881,147.949,106.934,10.742,122.559,20.508,0
1542905229.885,146.973,109.375,29.785,132.812,38.574,0
1542905229.889,116.211,101.074,39.062,135.742,46.875,0
1542905229.893,126.953,84.473,39.551,122.070,64.453,0
1542905229.897,133.789,73.730,38.086,95.215,82.520,0
1542905229.901,146.484,68.359,41.992,87.402,53.223,0
1542905229.905,142.090,44.922,35.156,107.910,-11.719,0
1542905229.909,122.559,61.035,34.668,100.098,-5.859,0
1542905229.912,130.859,87.891,32.715,98.145,47.363,0
1542905229.916,138.672,81.543,20.020,97.656,36.621,0
1542905229.920,119.141,68.359,33.203,103.027,32.715,0
1542905229.924,88.867,53.223,41.016,125.977,43.457,0
1542905229.928,101.074,54.688,33.691,105.469,58.105,0
1542905229.932,117.676,50.781,19.043,87.891,15.137,0
1542905229.936,95.215,44.922,18.066,41.992,-1.465,0
1542905229.940,86.914,43.457,35.645,15.625,12.207,0
1542905229.944,108.398,40.039,47.852,41.016,32.715,0
1542905229.948,114.258,43.457,50.293,69.336,26.367,0
1542905229.952,96.680,42.480,49.805,55.176,95.215,0
1542905229.955,89.355,40.039,39.062,76.172,104.492,0
1542905229.959,115.234,37.598,36.133,107.422,34.668,0
1542905229.963,102.051,33.691,53.711,70.312,80.078,0
1542905229.967,68.359,26.367,59.082,75.684,50.293,0
1542905229.971,106.934,33.691,55.664,86.914,31.738,0
1542905229.975,92.285,47.363,51.758,92.773,15.137,0
1542905229.979,55.664,50.781,41.992,94.727,13.184,0
1542905229.983,84.961,52.246,28.320,63.965,24.902,0
1542905229.987,93.750,59.082,33.203,69.336,-9.766,0
1542905229.991,100.098,41.016,46.875,91.309,36.133,0
1542905229.994,104.980,19.043,46.387,87.891,59.570,0
1542905229.998,100.098,34.668,37.109,86.914,19.043,0
1542905230.002,89.355,21.973,30.762,124.512,14.648,0
1542905230.006,82.031,16.113,21.973,109.375,38.574,0
1542905230.010,97.656,28.809,27.344,54.199,94.727,0
1542905230.014,93.750,16.602,56.641,54.199,116.699,0
1542905230.018,85.938,41.992,56.641,82.031,62.012,0
1542905230.022,45.898,52.246,58.105,62.988,2.930,0
1542905230.026,31.250,-23.438,49.805,78.613,-39.062,0
1542905230.030,57.129,-29.297,21.484,80.566,26.855,0
1542905230.034,50.781,50.293,15.137,52.246,77.637,0
1542905230.037,50.781,71.289,50.293,44.922,17.578,0
1542905230.041,69.336,73.242,65.918,55.176,-31.738,0
1542905230.045,57.617,8.301,39.551,41.016,-14.648,0
1542905230.049,48.340,-11.230,24.414,29.297,28.320,0
1542905230.053,82.031,27.344,35.645,67.383,73.242,0
1542905230.057,106.934,31.738,61.035,101.562,50.781,0
1542905230.061,57.129,14.648,58.105,62.500,11.230,0
1542905230.065,20.996,12.695,49.805,65.918,25.879,0
1542905230.069,41.016,38.086,43.945,54.199,34.668,0
1542905230.073,52.246,8.301,43.457,29.297,21.484,0
1542905230.077,87.402,50.293,54.199,54.688,73.242,0
1542905230.080,80.078,32.227,20.020,57.617,85.938,0
1542905230.084,55.664,-24.414,-2.930,61.035,69.336,0
1542905230.088,85.449,20.996,24.902,21.973,54.688,0
1542905230.092,59.570,61.035,54.688,-10.742,71.777,0
1542905230.096,25.391,68.848,66.895,13.672,92.773,0
1542905230.100,42.969,57.617,76.172,25.879,47.852,0
1542905230.104,57.129,19.043,72.754,32.715,31.250,0
1542905230.108,57.129,10.742,57.617,49.316,0.488,0
1542905230.112,21.973,43.457,52.246,85.449,-0.977,0
1542905230.116,30.273,51.758,53.223,46.875,24.414,0
1542905230.119,48.340,20.508,48.828,30.273,16.602,0
1542905230.123,26.855,6.836,36.133,58.594,-1.465,0
1542905230.127,32.227,41.016,25.391,22.461,22.461,0
1542905230.131,46.387,44.922,30.762,21.484,9.277,0
1542905230.135,44.922,25.879,46.387,51.758,-27.832,0
1542905230.139,26.367,11.230,55.664,38.086,9.766,0
1542905230.143,41.504,20.996,51.758,27.344,38.086,0
1542905230.147,52.246,43.945,48.828,35.156,31.250,0
1542905230.151,37.598,40.039,53.223,37.109,-17.090,0
1542905230.155,29.785,22.949,52.734,16.602,-7.812,0
1542905230.159,30.273,12.207,40.039,18.066,-4.395,0
1542905230.162,38.574,36.133,31.738,31.738,-11.719,0
1542905230.166,40.527,59.082,26.855,44.434,22.949,0
1542905230.170,41.504,42.480,37.598,55.176,-21.973,0
1542905230.174,41.016,34.180,53.223,37.598,-31.250,0
1542905230.178,56.641,47.363,56.152,44.434,-16.602,0
1542905230.182,59.570,48.340,55.664,50.781,-0.488,0
1542905230.186,38.574,44.922,44.922,17.090,26.855,0
1542905230.190,25.879,38.086,41.504,3.418,5.859,0
1542905230.194,30.762,43.945,43.945,10.742,25.879,0
1542905230.198,48.828,45.898,45.410,40.527,63.965,0
1542905230.202,61.035,45.898,42.480,55.664,55.664,0
1542905230.205,53.223,47.363,42.969,37.598,33.203,0
1542905230.209,45.410,38.574,47.852,20.508,34.668,0
1542905230.213,48.340,32.227,47.363,35.156,69.336,0
1542905230.217,34.180,24.902,46.875,26.367,30.273,0
1542905230.221,51.758,26.367,48.828,22.461,39.551,0
1542905230.225,62.012,40.039,42.969,53.223,87.402,0
1542905230.229,62.500,37.109,36.133,25.391,13.672,0
1542905230.233,67.383,32.715,41.504,52.734,7.812,0
1542905230.237,56.152,30.273,41.504,61.523,44.434,0
1542905230.241,64.941,28.809,40.039,51.270,83.984,0
1542905230.244,66.895,25.391,28.809,40.527,64.453,0
1542905230.248,52.734,24.902,25.879,9.766,20.020,0
1542905230.252,60.059,37.598,37.109,32.227,13.672,0
1542905230.256,52.734,39.062,38.086,19.531,-2.441,0
1542905230.260,42.969,32.715,46.387,10.742,24.902,0
1542905230.264,33.691,34.180,48.340,32.227,31.738,0
1542905230.268,41.016,35.645,37.109,50.293,35.156,0
1542905230.272,86.426,29.297,27.832,41.504,40.527,0
1542905230.276,64.941,35.645,41.504,27.832,33.203,0
1542905230.280,41.504,40.039,51.270,17.090,20.996,0
1542905230.284,89.844,35.645,38.574,18.555,-35.156,0
1542905230.287,49.805,22.461,35.156,22.461,14.160,0
1542905230.291,-2.930,8.301,38.574,41.992,48.340,0
1542905230.295,25.391,16.602,51.270,51.758,39.062,0
1542905230.299,33.203,34.180,50.293,53.711,11.719,0
1542905230.303,23.438,44.434,38.574,25.879,-25.391,0
1542905230.307,32.715,34.180,32.227,-8.301,25.391,0
1542905230.311,51.758,7.324,24.902,-5.859,45.410,0
1542905230.315,36.133,37.109,28.809,10.254,-21.973,0
1542905230.319,1.953,72.754,34.180,16.113,2.930,0
1542905230.323,25.879,68.848,23.438,0.977,36.133,0
1542905230.327,33.203,41.504,20.996,7.812,23.926,0
1542905230.330,3.418,21.484,25.391,3.906,72.266,0
1542905230.334,7.324,34.180,19.043,26.367,78.125,0
1542905230.338,20.996,41.992,30.762,50.293,58.105,0
1542905230.342,25.879,40.527,44.922,15.625,38.086,0
1542905230.346,33.691,44.922,46.387,-3.906,7.324,0
1542905230.350,33.203,45.898,43.945,15.625,2.441,0
1542905230.354,30.273,39.062,52.246,21.973,43.457,0
1542905230.358,37.109,29.297,44.434,-27.344,55.176,0
1542905230.362,32.227,20.508,35.156,6.836,36.621,0
1542905230.366,27.832,20.508,37.598,30.273,37.109,0
1542905230.369,35.645,33.691,29.297,-19.531,28.320,0
1542905230.373,6.348,44.434,19.531,-7.812,54.688,0
1542905230.377,0.488,43.945,14.160,-21.484,11.719,0
1542905230.381,13.184,12.207,16.113,24.414,18.555,0
1542905230.385,7.324,-47.363,10.254,83.984,-6.348,0
1542905230.389,32.227,-8.301,-0.488,39.551,-14.648,0
1542905230.393,50.781,56.152,39.551,21.973,66.406,0
1542905230.397,36.621,63.965,71.289,-8.789,77.148,0
1542905230.401,18.555,59.082,55.176,-19.043,34.180,0
1542905230.405,11.719,38.574,49.805,2.441,53.223,0
1542905230.409,14.160,20.508,28.809,4.395,31.250,0
1542905230.412,22.461,11.719,-7.812,25.879,58.105,0
1542905230.416,47.363,-11.230,-12.695,61.523,57.617,0
1542905230.420,58.594,5.859,-7.812,57.617,-6.836,0
1542905230.424,46.875,46.387,58.594,12.695,49.316,0
1542905230.428,52.246,60.547,104.004,28.320,77.637,0
1542905230.432,41.992,61.523,90.332,32.227,43.457,0
1542905230.436,28.809,51.758,77.637,24.902,12.695,0
1542905230.440,35.156,45.410,45.410,39.062,35.645,0
1542905230.444,32.715,39.551,33.203,21.484,-7.812,0
1542905230.448,24.902,32.227,43.457,7.812,-7.324,0
1542905230.452,39.551,23.926,31.738,17.090,72.266,0
1542905230.455,36.133,24.414,14.160,47.852,57.129,0
1542905230.459,16.113,23.438,31.738,48.828,16.602,0
1542905230.463,10.254,4.883,49.805,36.133,29.297,0
1542905230.467,44.434,9.277,47.363,34.668,15.137,0
1542905230.471,83.496,25.879,44.434,60.059,-22.949,0
1542905230.475,29.297,31.250,52.246,29.297,-6.348,0
1542905230.479,1.953,38.086,29.785,-35.645,25.879,0
1542905230.483,14.648,44.922,10.254,8.789,42.480,0
1542905230.487,35.645,39.062,41.992,36.621,62.988,0
1542905230.491,39.062,20.996,52.246,21.973,48.828,0
1542905230.494,15.625,7.324,41.016,6.836,-6.836,0
