timestamps,TP9,AF7,AF8,TP10,Right AUX,Marker0
5000.185,104.004,15.625,44.434,46.875,-18.066,0
5000.189,177.734,12.695,39.062,60.059,78.125,0
5000.193,63.477,12.207,38.574,35.156,80.566,0
5000.197,-31.250,14.648,39.062,15.625,23.926,0
5000.201,59.570,13.672,40.039,38.086,11.230,0
5000.205,173.340,12.695,41.504,58.594,50.293,0
5000.208,101.074,20.020,43.945,34.180,73.730,0
5000.212,-19.043,20.508,45.410,5.859,1.465,0
5000.216,27.344,15.137,47.363,18.555,-4.395,0
5000.220,157.227,14.160,48.828,61.035,65.918,0
5000.224,132.324,17.578,50.781,60.059,67.871,0
5000.228,5.859,20.508,49.805,20.508,11.719,0
5000.232,-8.301,18.555,47.363,19.531,-35.645,0
5000.236,119.629,21.973,45.898,54.199,18.555,0
5000.240,159.180,18.555,43.457,62.012,88.379,0
5000.244,27.344,11.230,44.922,21.973,36.621,0
5000.247,-34.668,13.672,44.434,6.348,-3.906,0
5000.251,76.172,11.230,39.551,35.645,23.926,0
5000.255,159.668,13.672,45.410,63.477,57.617,0
5000.259,58.105,20.020,51.270,39.551,33.691,0
5000.263,-37.109,17.090,51.270,14.160,-0.488,0
5000.267,37.109,12.207,52.734,31.738,11.719,0
5000.271,145.996,11.719,50.781,49.805,63.477,0
5000.275,93.262,16.113,46.387,39.551,53.223,0
5000.279,-6.836,24.414,48.828,34.668,10.254,0
5000.283,11.719,24.902,53.223,36.133,15.625,0
5000.287,113.281,14.160,52.246,40.527,42.969,0
5000.290,109.863,12.207,57.617,41.992,52.734,0
5000.294,-19.531,8.789,61.523,20.508,11.230,0
5000.298,-43.457,5.371,63.477,18.066,-16.602,0
5000.302,89.844,7.812,64.941,50.781,-1.465,0
5000.306,140.625,7.812,66.406,60.547,20.508,0
5000.310,19.531,9.766,67.383,33.203,42.969,0
5000.314,-46.387,9.766,65.430,20.020,8.789,0
5000.318,58.594,7.812,61.035,45.898,6.348,0
5000.322,142.578,9.277,57.129,63.965,68.359,0
5000.326,45.410,10.254,56.152,44.434,41.016,0
5000.330,-43.945,12.207,58.594,26.367,-22.461,0
5000.333,24.902,15.137,59.570,43.457,-7.812,0
5000.337,134.766,11.719,56.152,70.312,29.297,0
5000.341,92.285,8.789,58.594,61.523,20.508,0
5000.345,-32.227,12.695,60.547,35.645,-20.508,0
5000.349,-27.832,15.137,57.617,41.504,-40.527,0
5000.353,103.027,14.160,54.199,67.383,24.414,0
5000.357,116.699,15.625,54.199,62.988,86.426,0
5000.361,-7.812,15.625,55.664,36.621,35.645,0
5000.365,-44.922,17.578,54.688,31.250,-12.207,0
5000.369,65.918,16.113,52.734,57.129,5.371,0
5000.372,127.930,12.695,52.734,69.336,36.621,0
5000.376,18.555,20.020,53.711,49.316,23.438,0
5000.380,-54.199,20.020,54.199,31.738,11.719,0
5000.384,29.785,13.672,51.758,50.781,14.160,0
5000.388,115.723,14.160,49.316,70.801,47.363,0
5000.392,40.527,11.719,48.340,47.852,43.945,0
5000.396,-59.570,9.766,48.828,18.066,-10.742,0
5000.400,-15.137,13.672,49.316,26.367,-4.395,0
5000.404,92.773,18.066,48.828,49.805,92.285,0
5000.408,67.871,17.090,47.363,42.969,94.727,0
5000.412,-39.062,15.137,42.969,12.695,10.254,0
5000.415,-36.621,18.066,40.527,9.277,16.113,0
5000.419,83.496,17.578,41.504,37.598,74.219,0
5000.423,112.305,21.484,42.480,33.203,84.961,0
5000.427,0.488,23.926,37.109,-6.348,60.547,0
5000.431,-34.668,19.043,35.156,-14.648,28.809,0
5000.435,66.895,19.043,37.109,11.719,10.742,0
5000.439,127.441,20.508,37.109,25.879,61.035,0
5000.443,29.785,18.066,33.691,4.883,80.078,0
5000.447,-56.641,14.648,30.762,-7.812,47.852,0
5000.451,8.301,14.160,35.645,17.578,20.508,0
5000.455,93.750,13.184,39.062,35.645,46.875,0
5000.458,31.250,13.672,41.992,20.996,79.102,0
5000.462,-63.965,14.648,42.480,7.324,27.344,0
5000.466,-30.273,14.648,41.016,16.113,17.578,0
5000.470,75.684,21.484,41.992,36.133,83.496,0
5000.474,60.547,15.625,37.598,22.949,104.980,0
5000.478,-41.016,12.207,39.551,5.371,60.059,0
5000.482,-50.781,17.090,42.969,15.137,15.137,0
5000.486,54.688,13.184,40.039,36.133,48.340,0
5000.490,83.984,8.301,41.504,39.551,72.754,0
5000.494,-17.090,9.277,39.551,12.207,31.250,0
5000.497,-61.035,14.160,38.086,7.324,-15.625,0
5000.501,26.367,14.648,36.621,27.344,9.766,0
5000.505,90.820,11.230,36.133,38.086,69.336,0
5000.509,6.836,11.230,35.645,16.113,55.176,0
5000.513,-64.941,11.230,35.156,0.488,18.066,0
5000.517,-1.953,11.230,36.621,24.414,23.926,0
5000.521,87.891,15.137,37.598,41.992,62.500,0
5000.525,43.945,18.066,37.598,24.414,34.668,0
5000.529,-42.480,21.973,38.574,5.859,-18.066,0
5000.533,-16.113,23.438,39.551,14.160,-4.395,0
5000.537,74.707,17.578,38.086,36.133,42.969,0
5000.540,61.523,14.160,36.133,30.273,53.711,0
5000.544,-27.344,16.602,33.691,8.301,34.668,0
5000.548,-33.691,19.043,33.203,0.977,40.527,0
5000.552,57.617,18.555,34.180,18.066,48.828,0
5000.556,84.961,16.113,35.156,25.391,52.734,0
5000.560,-12.695,13.184,33.691,5.859,19.531,0
5000.564,-51.270,16.113,33.691,4.395,23.926,0
5000.568,26.367,16.602,37.598,27.832,54.199,0
5000.572,87.402,13.672,40.527,34.180,64.453,0
5000.576,21.484,12.695,41.992,16.602,28.809,0
5000.580,-49.316,10.742,36.621,10.742,12.695,0
5000.583,-9.277,11.719,36.133,17.578,41.504,0
5000.587,68.848,12.695,40.039,22.949,53.223,0
5000.591,42.480,13.184,40.039,11.230,29.785,0
5000.595,-37.598,17.090,39.062,-0.977,24.902,0
5000.599,-29.785,16.602,40.039,10.742,26.367,0
5000.603,58.105,10.742,40.039,27.832,42.480,0
5000.607,63.477,13.672,41.016,20.508,58.594,0
5000.611,-21.484,17.090,40.039,11.230,9.766,0
5000.615,-44.434,15.137,38.086,13.184,-47.852,0
5000.619,24.902,17.090,34.668,16.113,-11.719,0
5000.622,59.082,15.137,36.133,13.184,29.297,0
5000.626,-17.090,14.648,41.992,5.859,-8.301,0
5000.630,-62.012,16.602,39.551,3.418,-30.273,0
5000.634,2.441,14.648,37.598,6.348,-7.812,0
5000.638,70.801,11.230,39.551,13.184,40.039,0
5000.642,20.508,9.277,39.551,5.859,48.340,0
5000.646,-56.641,8.789,38.574,-1.465,-8.301,0
5000.650,-27.344,9.766,42.969,1.465,-31.738,0
5000.654,59.570,12.695,45.410,5.859,1.465,0
5000.658,44.434,13.184,38.574,6.348,35.156,0
5000.662,-42.969,12.207,39.062,-4.883,17.090,0
5000.665,-51.270,14.648,48.340,-3.418,7.324,0
5000.669,29.785,14.160,46.875,12.207,26.367,0
5000.673,37.598,8.301,41.016,11.719,54.199,0
5000.677,-55.176,6.836,44.434,-0.977,19.043,0
5000.681,-86.426,7.812,43.945,-14.160,-19.531,0
5000.685,-7.812,8.789,38.086,-5.859,8.301,0
5000.689,40.527,7.812,35.645,12.207,18.066,0
5000.693,-41.016,5.859,41.992,-6.836,7.324,0
5000.697,-103.027,5.859,40.039,-25.391,-1.953,0
5000.701,-42.480,5.859,33.691,-17.090,12.695,0
5000.705,21.484,5.859,31.250,-17.090,29.785,0
5000.708,-31.738,9.766,35.156,-27.344,33.691,0
5000.712,-103.027,12.695,35.645,-24.902,24.902,0
5000.716,-69.336,11.230,34.668,-16.113,38.086,0
5000.720,12.207,6.836,36.133,-19.531,42.480,0
5000.724,-11.230,2.930,35.156,-30.273,41.992,0
5000.728,-93.750,3.906,35.156,-33.203,36.621,0
5000.732,-88.379,12.695,33.691,-33.203,50.293,0
5000.736,-5.371,13.672,35.156,-30.762,72.754,0
5000.740,17.090,4.883,35.156,-30.273,74.707,2
5000.744,-63.477,4.395,29.785,-36.133,67.871,0
5000.747,-84.961,7.324,30.762,-38.086,41.504,0
5000.751,-8.301,8.789,35.156,-28.320,36.133,0
5000.755,26.855,10.254,35.645,-26.367,33.691,0
5000.759,-43.457,6.836,31.738,-43.945,12.207,0
5000.763,-89.844,3.418,24.902,-48.828,25.391,0
5000.767,-38.574,-0.488,26.367,-45.410,38.086,0
5000.771,31.738,2.930,28.320,-45.898,28.320,0
5000.775,1.465,10.254,28.320,-56.152,37.109,0
5000.779,-80.566,11.230,27.344,-64.453,28.320,0
5000.783,-62.500,9.766,22.949,-60.547,15.137,0
5000.787,22.949,12.207,21.484,-54.688,41.016,0
5000.790,20.020,9.766,22.949,-50.293,46.875,0
5000.794,-57.129,6.836,23.926,-58.594,-3.906,0
5000.798,-68.848,12.207,27.344,-50.293,-20.996,0
5000.802,15.137,20.020,25.879,-34.180,6.836,0
5000.806,55.664,13.184,25.391,-36.133,57.129,0
5000.810,-19.531,0.977,28.809,-42.480,76.172,0
5000.814,-58.105,1.465,24.902,-44.434,17.578,0
5000.818,6.836,7.812,19.043,-36.621,4.395,0
5000.822,47.852,12.695,21.484,-42.969,55.664,0
5000.826,-6.836,10.742,25.879,-46.875,42.969,0
5000.830,-60.059,8.789,24.414,-45.410,10.254,0
5000.833,-23.926,11.719,22.949,-44.434,8.301,0
5000.837,48.340,10.742,26.367,-34.668,36.621,0
5000.841,22.461,8.789,28.809,-35.156,51.758,0
5000.845,-41.016,10.742,27.832,-25.391,24.414,0
5000.849,-23.438,13.672,27.344,-14.648,28.320,0
5000.853,52.734,13.672,28.320,-21.973,41.016,0
5000.857,62.988,13.184,29.297,-20.020,52.246,0
5000.861,-12.695,13.184,32.227,-12.207,27.832,0
5000.865,-42.969,13.672,31.738,-9.766,23.438,0
5000.869,24.414,13.672,30.762,3.906,48.340,0
5000.872,41.504,20.508,31.738,-34.180,61.523,0
5000.876,-7.812,19.043,37.598,-39.062,63.965,0
5000.880,-6.348,13.184,35.156,23.926,28.809,0
5000.884,24.902,12.695,31.738,17.090,39.551,0
5000.888,58.594,11.719,35.156,-6.836,56.641,0
5000.892,19.043,14.160,29.297,-18.555,57.129,0
5000.896,-37.598,13.672,30.273,-18.555,58.594,0
5000.900,1.465,13.184,41.504,-0.977,55.664,0
5000.904,75.195,14.648,48.828,12.695,63.965,0
5000.908,59.570,20.020,42.480,15.625,45.410,0
5000.912,-1.953,14.160,38.574,12.695,30.762,0
5000.915,-22.949,18.066,37.109,-0.488,36.133,0
5000.919,47.363,12.695,41.016,10.254,36.621,0
5000.923,59.082,1.465,41.016,-0.977,52.734,0
5000.927,-24.902,3.906,34.668,-21.484,32.227,0
5000.931,-53.711,-0.488,41.504,-2.930,17.578,0
5000.935,-0.977,1.465,43.457,-13.184,41.504,0
5000.939,44.922,4.883,42.480,-30.273,70.312,0
5000.943,-13.672,8.301,38.086,-20.996,54.199,0
5000.947,-83.008,4.883,35.156,-26.367,16.113,0
5000.951,-49.316,-1.465,42.480,-26.367,20.996,0
5000.955,31.738,0.977,43.457,-30.273,43.945,0
5000.958,-11.230,7.324,34.668,-29.297,28.320,0
5000.962,-67.871,5.371,39.551,-19.043,-4.883,0
5000.966,-49.316,6.348,41.016,-24.414,2.930,0
5000.970,15.625,9.277,34.180,-53.223,53.223,0
5000.974,-0.977,0.977,36.133,-57.617,71.289,0
5000.978,-82.520,4.395,37.598,-42.480,8.301,0
5000.982,-86.426,10.254,36.621,-58.105,-28.809,0
5000.986,-10.742,8.301,35.156,-36.621,25.391,0
5000.990,4.883,3.906,38.574,-33.203,50.293,0
5000.994,-57.129,5.859,39.062,-39.062,14.648,0
5000.997,-91.309,0.488,38.086,-39.062,16.602,0
5001.001,-35.156,1.953,41.504,-48.828,15.137,0
5001.005,28.809,6.836,41.504,-31.250,17.578,0
5001.009,-35.645,9.277,32.715,-40.527,-9.766,0
5001.013,-83.008,5.371,40.527,-53.223,-29.297,0
5001.017,-20.508,4.395,45.898,-31.738,4.395,0
5001.021,49.316,18.066,32.715,-19.531,16.602,0
5001.025,21.484,14.648,40.039,-17.090,7.324,0
5001.029,-35.645,5.859,42.480,-19.531,-3.906,0
5001.033,-21.973,9.277,34.180,-27.344,-19.043,0
5001.037,17.090,12.207,44.434,-35.645,9.277,0
5001.040,24.414,8.301,35.645,-24.414,38.574,0
5001.044,-21.973,8.789,22.949,-19.531,33.203,0
5001.048,-37.598,14.160,34.668,-15.625,22.461,0
5001.052,51.270,10.254,41.016,5.859,-14.160,0
5001.056,80.566,14.648,37.109,1.953,-21.484,0
5001.060,14.648,24.902,33.203,-12.207,-6.836,0
5001.064,-24.902,23.438,32.715,-10.254,4.883,0
5001.068,15.625,20.020,32.227,-6.348,19.531,0
5001.072,70.801,15.625,36.621,0.977,16.113,0
5001.076,39.062,25.391,37.598,3.418,24.902,0
5001.080,-18.555,33.691,32.715,1.953,27.344,0
5001.083,21.484,17.578,39.551,2.441,12.695,0
5001.087,89.844,15.625,39.062,4.883,46.875,0
5001.091,60.059,20.508,31.738,15.625,69.336,0
5001.095,-7.812,18.066,41.016,14.648,37.598,0
5001.099,20.996,19.043,41.504,24.414,12.207,0
5001.103,79.590,24.414,41.992,22.949,20.996,0
5001.107,75.684,24.414,41.016,14.160,39.551,0
5001.111,16.602,22.461,35.156,28.320,17.090,0
5001.115,-1.953,21.973,39.062,21.973,15.625,0
5001.119,69.336,22.461,40.527,14.648,41.992,0
5001.122,109.863,29.785,33.691,12.207,60.547,0
5001.126,64.453,31.250,32.715,-5.859,20.020,0
5001.130,37.598,30.273,36.621,-12.695,13.672,0
5001.134,95.703,42.480,35.645,5.371,60.547,0
5001.138,145.020,35.645,35.645,15.137,55.176,0
5001.142,89.355,24.414,42.480,7.324,41.016,0
5001.146,31.738,25.391,43.945,20.508,35.156,0
5001.150,51.758,22.949,40.527,32.227,36.133,0
5001.154,99.609,24.414,46.875,34.180,56.152,0
5001.158,78.125,24.902,46.875,34.180,40.527,0
5001.162,22.949,17.578,44.434,33.691,18.066,0
5001.165,17.090,17.578,47.363,39.062,31.250,0
5001.169,71.777,19.531,51.270,45.410,52.246,0
5001.173,83.496,21.973,45.898,40.039,45.898,0
5001.177,28.809,21.484,42.480,37.598,37.598,0
5001.181,15.625,22.461,50.293,44.434,54.199,0
5001.185,70.801,23.438,49.805,44.434,53.223,0
5001.189,99.121,16.113,47.852,35.645,44.922,0
5001.193,49.805,18.066,46.387,34.668,33.691,0
5001.197,11.230,25.391,40.527,31.738,42.969,0
5001.201,55.664,21.973,44.434,43.457,39.551,0
5001.205,112.305,14.160,49.805,51.758,24.902,0
5001.208,67.383,15.625,45.898,37.598,30.273,0
5001.212,16.113,18.555,44.922,37.598,31.738,0
5001.216,40.039,20.996,46.875,44.922,37.109,0
5001.220,94.238,20.020,44.922,44.434,54.199,0
5001.224,86.914,17.090,43.457,48.828,89.844,0
5001.228,25.391,18.066,42.480,47.852,83.496,0
5001.232,17.578,22.461,43.945,43.457,45.898,0
5001.236,75.195,18.066,44.922,45.898,33.203,0
5001.240,94.727,16.602,42.480,49.805,24.414,0
5001.244,35.156,19.531,40.039,44.434,12.207,0
5001.247,4.883,17.090,44.922,38.086,-12.695,0
5001.251,67.871,20.996,49.316,51.270,3.906,0
5001.255,112.305,21.484,44.434,54.688,47.852,0
5001.259,56.152,20.508,42.969,46.875,39.551,0
5001.263,10.742,17.090,42.969,41.504,27.344,0
5001.267,41.992,15.625,43.457,40.527,29.297,0
5001.271,97.168,19.531,45.898,47.852,42.480,0
5001.275,67.871,15.137,46.387,45.898,47.363,0
5001.279,11.230,13.184,45.898,39.551,37.109,0
5001.283,26.855,15.137,48.340,42.969,33.691,0
5001.287,76.172,15.625,50.781,47.363,48.340,0
5001.290,69.336,11.719,47.363,45.410,22.461,0
5001.294,9.277,10.742,43.945,34.668,-16.113,0
5001.298,0.977,16.602,42.480,33.691,7.812,0
5001.302,61.035,20.020,44.922,41.992,30.273,0
5001.306,83.496,17.090,52.246,46.875,34.180,0
5001.310,29.785,13.672,53.711,43.457,35.645,0
5001.314,-6.348,17.090,50.293,34.668,9.277,0
5001.318,38.086,18.066,49.805,41.016,20.020,0
5001.322,80.078,16.602,50.293,44.922,61.523,0
5001.326,32.227,15.625,48.340,39.551,40.527,0
5001.330,-17.090,14.648,45.410,31.738,41.016,0
5001.333,18.066,14.160,47.363,24.902,52.246,0
5001.337,76.660,16.113,47.852,28.809,36.621,0
5001.341,58.105,14.648,45.898,30.762,18.066,0
5001.345,-5.371,20.020,45.898,28.809,30.762,0
5001.349,2.930,22.949,45.410,28.320,29.297,0
5001.353,69.824,16.113,42.969,38.574,30.762,0
5001.357,67.871,13.672,42.969,34.180,49.316,0
5001.361,4.883,13.184,41.504,26.367,38.574,0
5001.365,-8.301,13.184,46.387,30.762,18.555,0
5001.369,55.176,14.648,48.340,30.762,28.809,0
5001.372,76.660,17.090,43.457,27.344,64.453,0
5001.376,11.719,18.555,43.457,30.273,64.453,0
5001.380,-26.367,15.137,44.434,27.344,36.621,0
5001.384,14.648,15.137,43.945,20.996,11.719,0
5001.388,69.824,14.160,44.922,31.250,37.109,0
5001.392,32.715,13.672,41.504,37.109,61.523,0
5001.396,-26.367,13.184,39.551,29.785,30.273,0
5001.400,-1.953,11.230,41.992,30.762,5.859,0
5001.404,63.477,10.254,42.969,40.039,40.039,0
5001.408,44.434,8.789,41.016,36.621,55.664,0
5001.412,-21.973,13.672,40.039,25.391,43.457,0
5001.415,-14.160,15.625,42.480,30.273,40.039,0
5001.419,55.664,13.672,43.945,39.062,58.594,0
5001.423,59.570,16.602,43.457,38.574,54.688,0
5001.427,-3.418,18.066,42.480,37.598,30.762,0
5001.431,-23.438,10.742,42.969,40.039,34.180,0
5001.435,25.879,7.812,41.504,43.457,51.758,0
5001.439,63.965,11.719,43.945,41.992,64.453,0
5001.443,15.137,14.160,45.410,34.180,47.852,0
5001.447,-22.461,18.555,47.363,35.156,24.414,0
5001.451,23.926,19.531,50.293,43.457,71.289,0
5001.455,68.848,19.043,49.805,38.086,79.590,0
5001.458,33.691,15.625,46.387,32.715,30.762,0
5001.462,-12.207,13.672,46.387,37.109,28.809,0
5001.466,7.812,16.602,45.898,40.527,51.758,0
5001.470,66.895,14.160,45.898,39.551,61.523,0
5001.474,57.129,19.043,44.922,26.855,42.969,0
5001.478,0.488,22.949,42.480,21.973,32.227,0
5001.482,-5.371,16.602,44.922,29.297,10.742,0
5001.486,49.805,16.602,47.852,33.203,20.020,0
5001.490,70.312,21.484,47.363,30.762,64.453,0
5001.494,14.160,19.043,42.480,27.344,42.969,0
5001.497,-11.230,17.090,41.016,30.273,33.691,0
5001.501,45.410,18.555,44.922,35.645,78.125,0
5001.505,81.543,19.531,44.434,31.250,95.703,0
5001.509,28.809,21.484,43.457,28.320,67.871,0
5001.513,-18.066,22.949,42.969,27.832,33.691,0
5001.517,16.602,18.066,44.434,26.367,29.297,0
5001.521,71.289,16.602,43.945,27.832,44.434,0
5001.525,43.945,20.508,41.992,25.879,28.809,0
5001.529,-4.883,20.508,42.480,29.785,33.691,0
5001.533,7.324,19.043,44.434,34.668,26.855,0
5001.537,69.336,19.531,44.922,32.227,25.879,0
5001.540,68.848,21.973,41.016,28.809,56.641,0
5001.544,0.488,20.996,39.062,20.020,40.039,0
5001.548,-9.766,17.090,42.480,25.879,10.254,0
5001.552,52.246,23.926,43.457,35.156,22.949,0
5001.556,79.102,24.414,43.457,32.227,67.383,0
5001.560,22.949,21.484,46.875,35.156,29.297,0
5001.564,-15.137,26.367,45.410,31.738,-19.531,0
5001.568,39.551,24.414,44.922,26.855,22.949,0
5001.572,81.055,21.973,41.992,28.320,79.590,0
5001.576,27.832,17.578,41.016,21.484,51.270,0
5001.580,-17.090,14.160,44.434,20.020,19.043,0
5001.583,24.902,18.066,46.387,21.973,40.527,0
5001.587,80.566,20.996,48.828,25.391,45.410,0
5001.591,54.199,21.484,49.805,29.785,38.086,0
5001.595,2.441,19.043,47.363,24.902,13.672,0
5001.599,9.277,14.648,40.527,25.879,38.086,0
5001.603,67.871,17.090,45.898,37.598,48.340,0
5001.607,72.266,20.996,50.293,36.133,20.996,0
5001.611,5.859,17.090,43.457,29.785,7.324,0
5001.615,-13.672,14.648,42.969,31.250,24.902,0
5001.619,47.852,17.090,44.922,31.738,47.363,0
5001.622,72.754,16.113,46.875,26.855,34.668,0
5001.626,17.090,13.184,46.387,21.484,14.160,0
5001.630,-7.324,18.066,44.434,27.832,24.414,0
5001.634,33.691,22.461,43.457,35.645,59.082,0
5001.638,70.312,19.043,49.805,32.715,64.453,0
5001.642,34.180,16.602,50.293,25.879,38.574,0
5001.646,-5.371,20.020,41.016,24.414,29.297,0
5001.650,22.949,22.461,44.434,25.879,16.602,0
5001.654,73.730,22.949,45.898,25.391,29.785,0
5001.658,62.012,22.949,41.992,19.531,47.363,0
5001.662,4.395,19.531,40.039,15.137,38.574,0
5001.665,-6.348,17.090,41.504,19.531,11.230,0
5001.669,45.898,16.602,43.457,20.996,6.836,0
5001.673,62.500,21.484,41.504,24.414,56.152,0
5001.677,8.301,21.973,38.574,29.297,26.855,0
5001.681,-13.184,19.043,37.109,24.902,-4.395,0
5001.685,36.621,20.020,38.574,26.367,41.992,0
5001.689,63.965,18.555,38.086,21.484,87.891,0
5001.693,10.742,19.043,36.621,13.672,66.406,0
5001.697,-21.973,26.367,36.621,17.578,21.484,0
5001.701,21.973,25.391,35.645,20.508,40.527,0
5001.705,66.895,22.461,36.621,25.391,76.172,0
5001.708,32.715,23.438,37.109,20.020,53.223,0
5001.712,-20.996,21.484,36.133,16.113,22.461,0
5001.716,-0.977,20.996,39.551,17.090,-10.254,0
5001.720,63.965,24.414,40.527,23.438,34.180,0
5001.724,58.105,22.949,38.574,24.414,72.266,0
5001.728,-9.766,21.484,41.504,22.949,39.062,0
5001.732,-19.043,22.949,44.434,28.809,16.602,0
5001.736,42.480,22.949,47.852,37.109,41.016,0
5001.740,54.688,21.973,46.875,28.320,44.922,0
5001.744,-5.859,22.949,41.992,12.207,23.926,0
5001.747,-23.926,24.414,43.945,18.066,44.434,0
5001.751,25.391,19.043,44.434,23.926,47.852,0
5001.755,63.965,21.484,41.016,23.438,21.484,0
5001.759,24.414,21.484,41.504,24.414,-24.414,0
5001.763,-17.090,20.508,41.504,24.414,23.926,0
5001.767,16.602,22.461,43.457,29.297,71.289,0
5001.771,66.895,19.043,45.898,30.273,61.035,0
5001.775,41.992,22.461,43.945,26.855,65.430,0
5001.779,-8.301,25.879,42.969,27.832,37.109,0
5001.783,2.930,27.344,42.480,31.250,18.066,0
5001.787,53.711,25.391,44.922,30.273,35.645,0
5001.790,47.363,19.531,42.480,26.855,43.945,0
5001.794,-6.836,20.020,38.086,27.832,23.438,0
5001.798,-7.812,23.438,39.062,31.738,0.488,0
5001.802,53.711,28.809,41.016,29.785,0.488,0
5001.806,78.125,24.414,39.062,18.066,17.090,0
5001.810,27.832,22.461,35.156,6.836,15.625,0
5001.814,10.254,28.320,39.062,16.602,5.859,0
5001.818,66.895,29.785,39.062,28.320,25.879,0
5001.822,102.051,25.391,35.645,18.066,57.617,0
5001.826,49.805,26.367,35.645,15.625,64.941,0
5001.830,-6.836,26.855,32.715,18.555,19.531,0
5001.833,12.207,20.996,31.738,28.809,6.836,0
5001.837,66.406,19.531,35.645,39.062,56.152,0
5001.841,45.410,20.508,37.598,35.645,38.574,0
5001.845,-18.066,19.043,33.203,27.832,0.977,0
5001.849,-14.160,16.602,30.273,30.273,2.441,0
5001.853,49.805,18.066,32.715,33.691,36.621,0
5001.857,57.129,21.484,36.621,32.715,48.340,0
5001.861,0.000,20.508,36.621,31.738,-8.789,0
5001.865,-13.672,25.391,38.086,30.762,0.000,0
5001.869,40.527,30.762,37.598,30.762,45.898,0
5001.872,67.383,22.461,31.738,29.297,65.918,0
5001.876,17.090,20.020,31.738,28.809,81.055,0
5001.880,-19.043,24.902,34.668,24.902,44.434,0
5001.884,29.785,24.902,35.156,29.297,25.879,0
5001.888,76.660,23.926,38.086,27.832,39.551,0
5001.892,34.668,25.391,35.645,21.973,14.160,0
5001.896,-7.812,25.391,37.598,25.879,-22.949,0
5001.900,18.555,29.785,40.039,29.785,6.348,0
5001.904,68.359,29.297,34.668,27.832,43.457,0
5001.908,48.340,23.926,32.715,22.949,24.902,0
5001.912,-5.371,24.902,32.715,22.949,19.043,0
5001.915,-2.441,24.902,33.691,22.949,11.719,0
5001.919,52.246,20.996,35.156,23.438,20.020,0
5001.923,62.988,20.508,37.598,27.344,17.578,0
5001.927,5.371,21.484,35.645,31.250,1.465,0
5001.931,-13.184,25.391,32.715,31.738,7.812,0
5001.935,47.363,27.344,35.156,32.715,20.508,0
5001.939,76.660,20.508,39.062,25.391,33.203,0
5001.943,22.949,22.461,37.109,24.902,38.086,0
5001.947,-12.207,26.855,34.180,25.391,28.320,0
5001.951,26.367,26.367,35.645,21.973,3.906,0
5001.955,71.777,25.879,34.668,21.973,14.160,0
5001.958,41.504,25.879,31.738,16.602,25.391,0
5001.962,-12.695,28.809,34.668,16.113,7.324,0
5001.966,5.859,30.273,37.109,24.414,9.766,0
5001.970,65.430,21.484,33.691,22.461,34.668,0
5001.974,58.594,20.020,26.855,16.602,55.664,0
5001.978,-0.488,24.902,24.414,13.184,18.066,0
5001.982,-11.230,24.902,26.855,15.137,-5.371,0
5001.986,52.246,25.391,31.250,23.926,19.531,0
5001.990,77.148,26.855,33.203,24.414,30.273,0
5001.994,19.043,27.344,32.715,21.484,41.016,0
5001.997,-13.184,26.855,36.133,16.602,20.996,0
5002.001,37.109,26.855,35.156,17.578,23.438,0
5002.005,71.777,24.414,33.203,19.043,58.594,0
5002.009,26.367,26.367,34.668,15.625,34.180,0
5002.013,-8.789,31.738,33.203,16.602,-6.348,0
5002.017,28.809,29.297,36.133,25.879,6.836,0
5002.021,76.172,26.367,39.551,28.320,34.668,0
5002.025,45.898,25.879,39.551,16.602,41.504,0
5002.029,-1.465,29.785,33.203,16.602,35.156,0
5002.033,10.254,25.391,27.832,16.113,33.203,0
5002.037,69.336,18.066,38.574,13.672,71.777,0
5002.040,64.453,22.949,36.133,16.113,62.500,0
5002.044,2.441,24.414,27.344,14.160,9.766,0
5002.048,-7.324,20.508,33.691,16.113,22.461,0
5002.052,49.805,21.973,34.668,21.484,66.406,0
5002.056,71.777,22.461,34.668,15.137,70.801,0
5002.060,14.160,28.809,36.133,16.113,18.555,0
5002.064,-10.742,28.320,33.203,16.602,17.578,0
5002.068,32.715,18.555,27.344,15.625,41.504,0
5002.072,66.895,15.625,29.785,14.160,45.898,0
5002.076,25.879,18.066,28.809,10.254,45.410,0
5002.080,-23.926,20.996,26.855,19.531,9.277,0
5002.083,8.789,23.438,34.668,30.273,-19.043,0
5002.087,62.500,22.461,32.715,30.762,16.602,0
5002.091,41.016,20.020,29.785,19.531,27.832,0
5002.095,-8.789,19.531,31.738,19.531,21.973,0
5002.099,-5.859,20.508,33.691,30.762,41.504,0
5002.103,47.363,23.438,41.016,29.785,49.805,0
5002.107,54.199,23.926,40.039,31.738,48.340,0
5002.111,1.465,24.902,33.691,36.133,25.879,0
5002.115,-17.578,24.902,35.156,27.832,9.277,0
5002.119,32.715,23.926,36.621,30.762,34.668,0
5002.122,59.082,20.508,37.598,29.785,66.895,0
5002.126,8.301,22.461,36.133,25.879,58.594,0
5002.130,-25.879,21.484,37.598,19.531,11.719,0
5002.134,21.484,19.043,39.551,24.902,-4.883,0
5002.138,69.336,22.461,33.691,32.227,41.504,0
5002.142,29.297,20.508,37.109,26.367,54.199,0
5002.146,-13.672,23.438,35.645,24.902,4.883,0
5002.150,1.953,26.367,29.785,26.855,-1.953,0
5002.154,52.734,20.996,30.273,26.855,40.527,0
5002.158,43.945,14.648,32.715,23.926,55.664,0
5002.162,-13.672,14.648,34.668,22.461,40.039,0
5002.165,-11.230,15.625,31.738,14.648,27.344,0
5002.169,49.805,16.602,35.156,16.113,23.926,0
5002.173,62.988,17.578,34.180,20.508,24.902,0
5002.177,2.441,16.602,28.809,19.531,7.812,0
5002.181,-18.066,17.090,34.180,11.719,-13.672,0
5002.185,37.598,16.602,36.133,12.695,18.066,0
5002.189,65.430,20.020,29.785,16.602,27.832,0
5002.193,10.742,19.531,27.832,13.672,22.949,0
5002.197,-24.902,13.184,29.297,17.578,20.020,0
5002.201,12.695,13.184,33.691,23.926,28.320,0
5002.205,70.312,20.020,34.180,24.414,25.391,0
5002.208,52.246,24.414,31.738,21.484,7.812,0
5002.212,-4.883,26.367,31.250,19.531,31.738,0
5002.216,6.348,20.508,29.297,17.090,40.527,0
5002.220,61.523,17.090,33.691,20.508,41.016,0
5002.224,61.523,22.461,32.715,20.508,31.738,0
5002.228,7.812,19.043,30.273,13.672,3.418,0
5002.232,-5.371,15.625,36.133,18.555,10.742,0
5002.236,54.199,22.949,31.738,35.156,41.992,0
5002.240,66.406,17.578,29.785,23.438,51.270,0
5002.244,6.348,16.113,31.250,16.113,50.293,0
5002.247,-8.789,21.973,26.855,25.879,44.434,0
5002.251,44.434,20.508,26.855,26.367,21.973,0
5002.255,83.496,19.531,30.762,29.785,43.457,0
5002.259,34.668,25.879,29.785,20.508,57.129,0
5002.263,-2.441,20.996,30.762,31.738,30.762,0
5002.267,30.762,18.066,32.715,37.598,33.203,0
5002.271,64.453,22.461,31.250,19.531,24.414,0
5002.275,43.457,22.461,38.086,24.414,43.945,0
5002.279,-4.395,23.926,33.203,23.926,65.918,0
5002.283,1.465,21.484,29.785,25.391,8.301,0
5002.287,64.941,19.043,34.668,34.668,15.625,0
5002.290,70.801,19.531,34.668,30.762,52.734,0
5002.294,11.230,20.020,38.086,32.715,26.367,0
5002.298,-10.742,22.949,39.551,30.762,-7.324,0
5002.302,43.945,23.438,36.133,22.949,0.000,0
5002.306,70.312,22.949,41.016,20.020,30.273,0
5002.310,11.230,24.902,41.504,26.367,30.273,0
5002.314,-4.395,24.902,32.715,44.434,9.277,0
5002.318,57.129,25.391,36.621,45.898,-3.418,0
5002.322,100.586,26.855,40.039,44.434,16.113,0
5002.326,61.035,22.949,35.156,44.434,36.621,0
5002.330,13.184,22.461,35.645,39.551,1.465,0
5002.333,41.016,20.020,35.645,41.504,9.277,0
5002.337,90.332,21.484,34.180,42.969,31.250,0
5002.341,64.453,21.973,40.527,23.438,5.371,0
5002.345,10.742,20.996,38.574,26.367,-2.930,0
5002.349,18.555,28.809,34.180,45.410,14.160,0
5002.353,64.941,28.320,37.598,36.621,47.363,0
5002.357,72.266,19.043,35.156,26.855,49.316,0
5002.361,23.926,17.578,33.691,27.832,28.320,0
5002.365,2.930,23.438,36.133,29.785,13.184,0
5002.369,63.965,24.902,33.691,31.738,21.484,0
5002.372,87.891,25.391,29.785,31.250,32.715,0
5002.376,32.715,27.344,35.645,25.391,-3.418,0
5002.380,-0.488,26.367,39.062,33.691,-5.859,0
5002.384,43.457,26.367,31.250,41.504,38.574,0
5002.388,93.750,27.832,31.250,38.086,33.203,0
5002.392,54.199,26.367,33.203,32.227,21.484,0
5002.396,6.348,26.367,36.621,32.715,20.020,0
5002.400,18.555,33.691,39.062,42.480,-2.930,0
5002.404,70.801,28.320,39.062,54.199,5.371,0
5002.408,69.336,14.648,42.480,51.758,9.766,0
5002.412,-0.488,22.949,36.621,35.645,5.371,0
5002.415,-8.301,26.367,30.273,43.457,-13.184,0
5002.419,63.477,20.996,35.645,52.734,0.977,0
5002.423,82.520,20.996,35.645,47.852,52.734,0
5002.427,14.160,21.973,29.297,36.621,43.457,0
5002.431,-6.348,20.020,26.367,32.227,12.207,0
5002.435,50.781,29.785,26.367,38.574,32.227,0
5002.439,94.238,30.273,28.320,46.875,65.918,0
5002.443,48.828,23.926,32.227,53.711,50.293,0
5002.447,4.883,30.273,34.180,42.969,17.578,0
5002.451,46.875,30.762,36.621,46.387,25.879,0
5002.455,106.934,28.320,35.156,61.523,63.965,0
5002.458,73.242,27.344,34.668,55.176,61.523,0
5002.462,8.301,29.785,32.715,34.180,3.906,0
5002.466,18.066,29.297,34.180,29.785,-6.836,0
5002.470,83.496,27.832,39.551,38.574,44.434,0
5002.474,93.750,27.344,34.180,41.504,58.105,0
5002.478,27.832,24.414,29.785,31.250,24.902,0
5002.482,18.555,24.414,31.738,23.438,17.578,0
5002.486,97.656,23.438,30.762,26.367,43.945,0
5002.490,118.652,23.926,30.273,25.879,47.363,0
5002.494,30.273,21.973,33.691,25.879,11.230,0
5002.497,-11.719,19.043,34.180,39.551,4.395,0
5002.501,54.199,14.648,34.180,53.223,33.691,0
5002.505,97.168,17.578,36.133,53.711,63.477,0
5002.509,35.156,18.555,36.621,48.828,44.922,0
5002.513,-25.879,14.160,36.133,43.457,-0.488,0
5002.517,11.719,15.137,35.645,54.688,-9.766,0
5002.521,77.637,20.020,35.156,56.152,28.809,0
5002.525,44.922,19.043,36.621,40.527,21.973,0
5002.529,-23.438,11.719,38.574,34.668,-4.883,0
5002.533,-5.859,12.207,35.156,39.551,14.160,0
5002.537,70.801,15.137,38.574,57.129,41.504,0
5002.540,70.312,18.066,36.133,60.547,63.477,0
5002.544,-9.766,16.602,36.621,48.828,42.480,0
5002.548,-7.812,11.230,45.410,58.594,24.414,0
5002.552,74.219,16.602,39.551,54.688,8.301,0
5002.556,88.867,17.090,37.109,51.270,5.371,0
5002.560,25.391,18.066,37.109,49.805,46.875,0
5002.564,-1.953,22.949,35.156,40.039,27.832,0
5002.568,55.176,21.973,40.039,68.359,34.180,0
5002.572,98.633,16.113,40.527,78.125,62.988,0
5002.576,54.688,22.461,35.645,37.598,37.598,0
5002.580,10.254,20.020,34.180,34.180,11.230,0
5002.583,37.109,13.672,35.156,56.152,32.715,0
5002.587,98.145,19.531,37.109,69.824,54.199,0
5002.591,87.891,20.996,36.133,56.152,32.227,0
5002.595,21.484,21.973,35.156,48.340,-2.930,0
5002.599,19.043,25.391,37.109,44.434,-7.324,0
5002.603,78.613,23.926,39.062,44.922,41.992,0
5002.607,80.078,19.043,41.016,65.918,48.340,0
5002.611,14.160,21.973,34.180,38.574,26.367,0
5002.615,4.395,27.344,29.785,19.531,4.395,0
5002.619,73.730,24.902,35.156,44.922,21.973,0
5002.622,100.586,22.949,38.574,65.430,30.762,0
5002.626,41.992,27.344,33.203,44.434,3.906,0
5002.630,-4.883,23.438,30.762,46.875,-15.625,0
5002.634,38.574,20.996,38.574,74.219,-4.395,0
5002.638,110.352,23.438,38.574,42.969,20.020,0
5002.642,66.895,20.508,35.156,30.762,25.879,0
5002.646,-1.465,21.484,34.668,36.621,17.578,0
5002.650,25.879,20.996,33.203,28.809,8.789,0
5002.654,93.750,19.043,35.645,43.457,66.406,0
5002.658,88.867,28.809,33.691,37.598,69.336,0
5002.662,12.695,29.297,30.762,17.090,10.742,0
5002.665,11.719,23.926,35.156,25.391,0.977,0
5002.669,89.355,26.367,41.992,49.316,26.367,0
5002.673,95.703,27.344,42.480,49.316,30.762,0
5002.677,21.484,25.391,37.109,31.250,-6.836,0
5002.681,1.465,24.902,31.250,18.555,-4.395,0
5002.685,70.312,25.391,32.715,32.715,10.742,0
5002.689,108.398,23.438,34.180,43.945,9.277,0
5002.693,57.617,26.367,33.203,27.832,16.602,0
5002.697,5.859,28.320,34.668,34.668,10.742,0
5002.701,43.945,27.344,37.598,46.875,-18.555,0
5002.705,106.445,28.809,39.551,43.945,0.000,0
5002.708,59.082,25.391,39.062,29.785,36.621,0
5002.712,-2.441,25.879,33.203,18.066,12.695,0
5002.716,12.695,25.391,37.598,29.785,-21.973,0
5002.720,75.195,23.438,39.062,31.250,11.230,0
5002.724,67.383,22.949,32.227,23.926,52.734,0
5002.728,-6.836,23.438,35.645,20.508,20.996,0
5002.732,-17.090,23.438,37.109,24.902,-3.418,0
5002.736,49.316,22.461,38.086,42.480,13.184,0
5002.740,65.430,25.879,38.086,37.109,16.602,0
5002.744,-13.184,23.438,34.668,25.391,20.020,0
5002.747,-45.898,20.508,33.691,24.414,-2.930,0
5002.751,17.090,18.555,35.156,38.086,-19.531,0
5002.755,71.289,18.555,32.227,42.969,23.926,0
5002.759,5.859,21.484,29.785,28.320,57.129,0
5002.763,-48.340,19.531,30.273,20.020,27.832,0
5002.767,2.930,20.996,31.738,23.926,36.133,0
5002.771,66.895,23.438,36.133,41.992,56.641,0
5002.775,30.762,20.508,37.598,43.945,17.578,0
5002.779,-37.598,21.973,32.227,28.320,-3.906,0
5002.783,-20.020,25.391,33.203,25.879,21.973,0
5002.787,52.734,18.555,36.621,43.457,43.457,0
5002.790,58.105,17.578,34.668,49.316,60.059,0
5002.794,-16.602,21.973,34.668,33.203,22.949,0
5002.798,-40.527,20.508,34.180,26.855,8.301,0
5002.802,34.668,17.090,35.156,35.645,31.738,0
5002.806,67.871,17.578,35.156,37.598,51.270,0
5002.810,-10.254,19.043,33.691,26.855,37.109,0
5002.814,-47.363,20.508,34.668,20.020,21.973,0
5002.818,24.414,23.438,36.621,32.227,36.621,0
5002.822,79.102,18.555,34.668,46.387,49.805,0
5002.826,17.578,14.648,32.227,38.574,71.777,0
5002.830,-50.293,15.137,32.715,24.902,56.152,0
5002.833,-8.301,17.090,30.273,23.438,49.805,0
5002.837,73.730,18.555,31.738,35.156,50.781,0
5002.841,43.945,18.066,36.133,28.809,44.434,0
5002.845,-44.434,16.113,37.598,14.648,38.574,0
5002.849,-41.504,19.043,38.086,22.461,23.438,0
5002.853,59.082,21.484,38.086,36.133,24.414,0
5002.857,79.590,17.578,37.109,37.109,52.734,0
5002.861,-19.043,19.043,34.180,25.391,50.781,0
5002.865,-54.199,21.484,32.227,23.926,-10.254,0
5002.869,43.457,21.484,33.203,38.574,18.555,0
5002.872,90.332,18.555,34.668,48.828,55.664,0
5002.876,-5.371,19.043,32.227,28.809,38.086,0
5002.880,-61.035,21.484,32.715,18.066,12.207,0
5002.884,8.301,19.531,36.621,32.227,-16.602,0
5002.888,91.309,19.531,35.645,45.410,34.180,0
5002.892,31.738,16.602,36.621,30.273,43.457,0
5002.896,-63.477,16.113,36.621,4.883,16.113,0
5002.900,-25.391,17.090,31.738,15.625,34.668,0
5002.904,78.125,16.113,29.297,34.668,55.176,0
5002.908,62.988,14.160,31.738,31.250,56.641,0
5002.912,-41.504,10.742,33.691,14.160,9.766,0
5002.915,-49.805,9.766,32.715,10.254,2.441,0
5002.919,61.523,15.625,32.715,30.273,56.152,0
5002.923,93.262,18.555,33.691,41.016,76.172,0
5002.927,-21.973,12.207,30.762,11.230,51.270,0
5002.931,-69.336,10.254,32.227,3.418,15.625,0
5002.935,38.086,13.672,31.250,28.809,21.484,0
5002.939,106.445,16.113,29.297,46.387,62.500,0
5002.943,20.020,13.184,33.203,36.133,33.203,0
5002.947,-54.688,11.719,35.645,10.742,13.672,0
5002.951,8.789,16.602,33.203,24.414,44.922,0
5002.955,101.562,18.066,31.738,41.504,69.336,0
5002.958,46.387,19.531,32.715,30.762,73.730,0
5002.962,-47.852,18.555,32.227,19.531,29.785,0
5002.966,-25.391,14.648,35.156,26.855,-3.906,0
5002.970,75.684,13.184,33.691,43.457,21.484,0
5002.974,69.824,12.207,28.320,31.250,32.715,0
5002.978,-29.785,16.113,29.785,14.160,-0.977,0
5002.982,-43.945,13.672,29.297,13.184,-0.488,0
5002.986,64.453,13.184,27.832,29.297,22.461,0
5002.990,109.375,18.066,30.273,42.480,62.500,0
5002.994,-2.930,20.996,29.297,24.414,57.617,0
5002.997,-56.152,21.973,27.344,11.230,24.902,0
5003.001,39.551,18.066,29.297,23.438,27.832,0
5003.005,112.305,15.137,31.738,37.598,31.250,0
5003.009,37.109,16.113,32.227,25.879,55.176,0
5003.013,-46.875,18.066,29.297,10.254,22.949,0
5003.017,7.324,18.066,29.785,13.672,5.859,0
5003.021,109.863,18.555,30.762,32.227,65.430,0
5003.025,73.730,20.508,30.762,37.109,83.496,0
5003.029,-28.809,22.461,31.250,13.184,57.129,0
5003.033,-15.625,21.973,30.273,11.230,1.465,0
5003.037,100.098,18.555,28.320,36.621,24.902,0
5003.040,106.445,15.625,32.227,35.156,83.984,0
5003.044,-11.719,17.578,32.715,6.836,39.551,0
5003.048,-42.480,22.461,28.320,3.906,-8.301,0
5003.052,88.379,21.973,25.879,43.457,22.949,0
5003.056,136.719,10.742,32.227,53.711,50.293,0
5003.060,-8.301,7.812,46.387,10.254,20.508,0
5003.064,-82.031,6.348,49.805,-8.789,-27.344,0
5003.068,27.832,0.977,51.270,19.043,-23.926,0
5003.072,135.254,0.488,53.711,45.410,45.410,0
5003.076,41.016,0.000,57.617,23.926,43.945,0
5003.080,-83.008,0.488,59.082,-12.695,-30.273,0
5003.083,-19.043,-0.488,56.641,2.441,-30.762,0
5003.087,120.605,-0.488,55.664,40.527,37.109,0
5003.091,80.566,4.883,56.641,32.227,62.988,0
5003.095,-63.965,5.371,55.176,-2.441,7.812,0
5003.099,-66.406,-0.977,57.129,1.953,-14.648,0
5003.103,83.008,-3.906,55.176,41.992,52.246,0
5003.107,117.676,1.953,49.805,44.922,79.590,0
5003.111,-28.320,5.371,49.805,12.207,18.066,0
5003.115,-86.426,5.371,51.270,3.418,-9.766,0
5003.119,51.758,4.883,53.223,41.992,32.715,0
5003.122,140.625,4.883,50.781,57.129,58.594,0
5003.126,10.254,9.766,51.270,20.508,6.348,0
5003.130,-85.938,9.277,51.270,3.418,-16.602,0
5003.134,26.367,6.836,48.828,32.715,15.137,0
5003.138,155.273,9.277,46.875,55.176,50.781,0
5003.142,66.895,9.277,44.922,15.137,58.105,0
5003.146,-54.199,11.230,42.480,-17.090,6.348,0
5003.150,5.371,12.695,40.527,2.930,-29.297,0
5003.154,151.855,12.207,41.016,37.109,36.133,0
5003.158,128.418,13.184,41.504,29.785,76.172,0
5003.162,-27.344,14.160,41.016,-1.465,55.176,0
5003.165,-48.828,15.625,41.016,1.465,7.324,0
5003.169,98.633,12.695,40.527,44.434,-9.766,0
5003.173,140.625,8.301,41.504,62.012,64.941,0
5003.177,-21.973,7.812,41.992,22.461,55.664,0
5003.181,-94.727,10.254,40.039,2.441,-26.855,0
5003.185,41.504,10.742,41.992,36.133,23.926,0
5003.189,143.066,10.742,44.922,61.035,95.215,0
5003.193,21.484,13.184,44.434,28.320,49.805,0
5003.197,-91.797,9.766,41.992,-5.859,-1.953,0
5003.201,-1.953,6.348,40.527,18.555,22.949,0
5003.205,131.348,6.348,36.621,57.129,86.426,0
5003.208,69.336,7.324,39.062,40.039,96.680,0
5003.212,-65.430,8.301,41.504,-0.488,21.973,0
5003.216,-37.598,11.230,41.992,2.930,-18.555,0
5003.220,115.234,14.160,43.945,46.875,32.715,0
5003.224,114.746,12.207,41.992,56.641,63.477,0
5003.228,-37.109,12.207,40.527,14.648,26.855,0
5003.232,-71.289,16.113,39.062,0.977,-6.836,0
5003.236,71.777,16.602,40.527,35.645,40.039,0
5003.240,130.371,15.137,44.922,50.293,88.867,0
5003.244,-17.090,15.625,43.457,21.484,61.523,0
5003.247,-94.238,13.672,37.598,1.465,15.625,0
5003.251,35.156,12.695,38.086,28.809,38.574,0
5003.255,142.090,15.137,41.016,56.152,71.289,0
5003.259,27.344,18.066,42.969,25.879,24.902,0
5003.263,-88.867,14.160,42.480,-2.441,8.301,0
5003.267,-8.301,13.184,41.016,22.461,47.852,0
5003.271,131.348,14.648,40.527,59.570,98.633,0
5003.275,75.684,13.672,38.086,35.156,67.383,0
5003.279,-71.289,14.160,40.039,-8.301,8.301,0
5003.283,-66.406,15.625,42.480,3.418,-16.602,0
5003.287,84.961,16.602,41.016,43.945,25.879,0
5003.290,97.656,15.625,41.992,42.969,66.406,0
5003.294,-58.105,15.625,46.387,3.418,-0.488,0
5003.298,-100.098,16.602,45.410,-7.324,-33.203,0
5003.302,33.203,13.672,41.016,23.926,-21.484,0
5003.306,103.516,12.695,40.527,41.016,21.484,0
5003.310,-5.371,15.137,40.527,14.160,15.625,0
5003.314,-74.707,13.672,41.992,-1.465,-30.762,0
5003.318,24.414,13.184,43.457,25.879,12.695,0
5003.322,121.094,12.207,42.480,48.828,54.199,0
5003.326,42.480,11.230,43.457,28.320,51.270,0
5003.330,-46.875,12.207,45.410,-1.953,18.066,0
5003.333,4.883,11.230,41.992,6.348,-9.277,0
5003.337,104.980,11.719,41.016,34.180,42.969,0
5003.341,75.684,8.301,42.480,25.391,62.500,0
5003.345,-28.320,5.371,44.922,3.906,36.133,0
5003.349,-23.926,9.277,47.852,8.789,20.020,0
5003.353,84.473,6.348,46.387,29.297,14.648,0
5003.357,99.121,7.812,41.504,35.156,26.367,0
5003.361,-1.953,14.160,41.504,16.602,10.742,0
5003.365,-34.180,12.207,47.363,10.254,-1.953,0
5003.369,61.035,8.301,49.316,30.273,15.137,0
5003.372,119.629,14.160,46.875,40.039,51.758,0
5003.376,31.250,17.090,41.992,17.090,59.570,0
5003.380,-44.434,13.184,39.551,-4.395,34.668,0
5003.384,22.461,13.184,44.434,13.184,50.293,0
5003.388,110.840,11.230,46.387,37.598,75.195,0
5003.392,54.199,8.789,44.922,21.973,26.855,0
5003.396,-31.250,10.742,40.527,0.000,-18.066,0
5003.400,-1.465,10.742,39.551,7.812,13.184,0
5003.404,89.844,9.277,43.457,31.250,67.383,0
5003.408,76.660,13.184,44.434,29.785,57.617,0
5003.412,-13.184,11.719,41.016,9.766,20.996,0
5003.415,-21.973,8.789,37.109,12.695,6.836,0
5003.419,69.336,11.230,43.457,40.039,10.742,0
5003.423,90.820,12.207,45.410,40.039,41.992,0
5003.427,0.488,12.207,41.504,15.137,25.391,0
5003.431,-33.203,12.695,43.457,14.160,-4.395,0
5003.435,37.598,12.207,44.434,32.227,34.180,0
5003.439,87.402,10.742,44.434,39.062,54.199,0
5003.443,23.438,11.230,41.992,17.090,33.691,0
5003.447,-40.527,7.812,36.621,1.465,15.625,0
5003.451,6.348,6.836,37.109,16.602,34.180,0
5003.455,83.984,8.789,39.062,29.785,62.012,0
5003.458,44.434,10.742,39.062,20.508,43.945,0
5003.462,-30.273,9.766,39.551,14.160,14.160,0
5003.466,-9.277,9.766,40.039,20.020,0.000,0
5003.470,72.754,10.254,41.504,32.227,5.859,0
5003.474,75.195,7.324,44.434,31.738,16.113,0
5003.478,-3.906,10.742,45.410,23.926,13.184,0
5003.482,-20.020,13.184,44.434,25.391,22.949,0
5003.486,59.570,9.766,41.992,32.227,40.527,0
5003.490,89.355,7.812,41.016,32.715,37.109,0
5003.494,11.230,9.277,44.434,24.902,55.176,0
5003.497,-36.621,7.324,45.410,20.508,2.930,0
5003.501,32.715,8.789,43.945,25.879,-7.812,0
5003.505,87.891,9.766,42.969,30.762,64.453,0
5003.509,18.555,8.301,44.434,22.949,57.129,0
5003.513,-34.668,6.836,45.410,16.113,41.016,0
5003.517,10.742,7.324,46.387,22.949,44.434,0
5003.521,80.078,11.719,47.363,35.156,83.496,0
5003.525,54.688,12.695,45.898,35.156,69.336,0
5003.529,-19.043,12.207,47.363,26.367,25.391,0
5003.533,-11.719,10.742,46.387,21.973,3.418,0
5003.537,64.453,11.230,46.387,30.762,24.902,0
5003.540,69.336,12.695,44.922,30.762,33.203,0
5003.544,-8.301,12.207,44.434,16.113,12.695,0
5003.548,-23.438,9.766,45.410,12.207,15.625,0
5003.552,48.828,13.184,45.898,24.902,23.926,0
5003.556,81.543,15.625,47.852,31.738,9.766,0
5003.560,10.254,12.207,45.410,20.996,-5.859,0
5003.564,-28.809,12.695,41.504,15.137,24.902,0
5003.568,37.109,15.625,43.457,23.926,30.762,0
5003.572,86.914,16.602,45.898,30.762,37.109,0
5003.576,31.250,13.184,47.363,23.438,49.805,0
5003.580,-21.484,14.648,48.828,24.414,18.066,0
5003.583,12.695,15.625,49.316,34.180,23.926,0
5003.587,73.730,12.207,48.340,35.156,55.176,0
5003.591,53.223,11.230,45.898,28.809,51.758,0
5003.595,-10.254,11.719,44.922,20.996,26.855,0
5003.599,-8.301,11.230,44.922,22.461,9.277,0
5003.603,62.500,12.207,46.387,35.645,46.875,0
5003.607,74.707,10.742,49.805,37.598,68.359,0
5003.611,-1.953,8.789,48.340,24.902,53.711,0
5003.615,-29.785,11.230,42.969,16.113,42.969,0
5003.619,46.875,9.766,41.992,23.926,61.523,0
5003.622,88.867,10.254,42.480,30.273,71.777,0
5003.626,16.602,13.184,42.969,27.344,54.199,0
5003.630,-31.738,11.719,42.969,21.484,27.344,0
5003.634,26.855,17.090,45.898,24.414,20.020,0
5003.638,92.285,18.555,47.852,33.203,55.176,0
5003.642,47.363,16.602,44.434,29.785,60.547,0
5003.646,-18.555,18.555,41.016,18.066,44.922,0
5003.650,4.395,18.066,40.527,15.137,52.734,0
5003.654,80.566,16.113,43.457,23.926,69.824,0
5003.658,60.547,12.207,43.945,18.555,62.012,0
5003.662,-13.184,14.648,43.457,10.254,34.668,0
5003.665,-6.836,17.578,45.898,11.230,24.414,0
5003.669,62.988,18.555,44.922,21.973,23.926,0
5003.673,77.637,15.625,41.016,25.391,47.363,0
5003.677,2.930,13.184,41.504,8.301,45.410,0
5003.681,-31.738,12.695,41.504,-0.977,-5.859,0
5003.685,29.785,11.719,40.039,12.207,16.113,0
5003.689,82.520,14.648,42.969,22.949,53.223,0
5003.693,27.344,14.648,43.945,12.695,3.906,0
5003.697,-25.391,12.207,42.969,7.812,-13.184,0
5003.701,25.391,14.160,47.363,21.973,8.789,0
5003.705,92.285,19.531,51.270,34.180,22.461,0
5003.708,60.547,19.531,48.828,32.227,42.480,0
5003.712,-8.789,16.113,44.922,27.344,34.180,0
5003.716,5.859,15.137,44.434,29.785,41.016,0
5003.720,85.938,14.648,44.434,35.645,62.500,0
5003.724,91.797,11.230,45.898,38.086,76.172,0
5003.728,19.531,5.859,44.434,41.992,41.016,0
5003.732,-9.277,16.113,37.109,37.598,14.648,0
5003.736,40.039,24.414,39.062,22.949,31.738,0
5003.740,65.918,25.391,38.086,14.648,36.621,0
5003.744,3.906,27.832,28.809,6.836,41.016,0
5003.747,-33.691,32.227,26.367,6.348,29.297,0
5003.751,25.879,36.133,23.438,8.301,6.348,0
5003.755,74.707,38.086,21.973,13.184,54.688,0
5003.759,18.555,40.527,23.438,10.742,77.148,0
5003.763,-38.086,37.598,22.461,5.371,43.945,0
5003.767,3.906,36.621,20.996,15.137,36.621,0
5003.771,65.430,34.668,21.973,21.484,44.922,0
5003.775,37.598,28.809,22.949,14.648,56.641,0
5003.779,-23.438,29.297,23.926,14.160,21.484,0
5003.783,-12.207,27.344,25.879,17.090,-17.578,0
5003.787,63.965,24.902,26.855,26.367,34.180,0
5003.790,70.801,26.367,28.320,32.227,67.871,0
5003.794,-7.812,23.926,27.832,26.855,23.926,0
5003.798,-33.203,23.438,27.832,17.578,16.602,0
5003.802,36.621,25.879,30.273,17.578,43.457,0
5003.806,83.008,25.879,33.203,24.414,58.594,0
5003.810,24.902,24.414,32.227,10.254,36.621,0
5003.814,-17.578,25.879,30.762,4.395,25.391,0
5003.818,49.316,26.855,28.320,11.719,36.621,0
5003.822,114.746,25.879,26.367,15.137,61.523,0
5003.826,71.289,26.855,29.297,10.254,45.410,0
5003.830,10.254,24.414,32.715,7.812,-2.441,0
5003.833,34.180,26.855,34.668,23.438,23.926,0
5003.837,99.121,26.367,39.551,34.180,83.496,0
5003.841,72.266,20.996,42.480,35.645,83.984,0
5003.845,-4.883,22.949,38.086,37.109,36.621,0
5003.849,-6.836,21.973,35.645,39.551,51.270,0
5003.853,64.453,20.020,39.551,49.316,64.941,0
5003.857,79.590,19.531,40.527,45.410,54.199,0
5003.861,3.906,18.066,38.574,37.598,40.527,0
5003.865,-26.855,18.066,41.016,39.551,20.020,0
5003.869,45.410,19.043,43.945,43.457,39.551,0
5003.872,87.402,15.137,43.457,35.645,35.156,0
5003.876,22.461,11.230,36.133,27.832,26.855,0
5003.880,-25.879,9.277,31.738,29.785,26.367,0
5003.884,25.391,11.230,35.645,35.645,-2.930,0
5003.888,81.543,12.695,36.621,42.480,13.672,0
5003.892,41.016,15.137,38.574,36.133,47.363,0
5003.896,-20.996,15.137,42.969,32.227,45.410,0
5003.900,-2.930,13.184,41.504,35.645,33.691,0
5003.904,68.359,13.672,41.992,36.133,65.430,0
5003.908,62.012,13.672,42.969,34.180,62.012,0
5003.912,-6.836,12.207,38.574,25.391,26.855,0
5003.915,-16.602,9.277,40.527,23.438,17.090,0
5003.919,57.617,10.254,41.504,26.367,25.391,0
5003.923,80.566,15.625,41.504,26.855,32.715,0
5003.927,4.395,14.160,44.922,27.832,22.949,0
5003.931,-28.809,15.625,44.434,27.832,26.367,0
5003.935,36.621,19.043,41.992,28.809,19.043,0
5003.939,91.309,14.648,41.016,28.320,36.621,0
5003.943,43.457,16.113,41.992,25.879,33.691,0
5003.947,-9.277,15.137,41.992,23.926,-2.441,0
5003.951,27.344,14.160,41.016,28.809,-4.395,0
5003.955,97.656,16.602,42.480,40.527,22.949,0
5003.958,70.801,18.066,43.457,35.645,-6.348,0
5003.962,-5.859,15.625,44.434,24.414,-37.109,0
5003.966,1.465,14.648,46.387,30.273,-22.461,0
5003.970,74.707,16.602,45.410,42.480,26.855,0
5003.974,75.684,14.648,41.992,40.527,57.617,0
5003.978,4.395,10.254,41.504,25.391,8.789,0
5003.982,-9.277,12.207,39.551,20.508,-9.766,0
5003.986,56.152,11.719,36.621,26.367,48.828,0
5003.990,78.613,9.766,40.039,26.367,52.734,0
5003.994,12.207,10.254,43.457,25.879,20.020,0
5003.997,-20.020,11.719,43.945,24.902,15.137,0
5004.001,40.527,15.625,46.875,34.180,19.043,0
5004.005,88.867,13.184,47.852,37.598,69.336,0
5004.009,34.668,11.230,47.852,22.949,78.125,0
5004.013,-14.648,12.695,45.410,19.531,49.805,0
5004.017,27.344,10.742,42.480,27.344,58.105,0
5004.021,87.891,9.766,42.969,29.297,71.289,0
5004.025,59.570,11.719,44.922,19.531,58.594,0
5004.029,-4.395,15.625,42.969,8.789,18.066,0
5004.033,4.395,17.090,42.480,19.043,30.762,0
5004.037,79.102,15.137,45.410,30.762,69.824,0
5004.040,83.984,13.184,42.969,24.902,54.199,0
5004.044,1.465,14.160,41.504,16.113,14.648,0
5004.048,-23.926,13.184,44.922,15.625,5.859,0
5004.052,51.270,16.113,49.316,23.926,20.996,0
5004.056,88.379,16.602,44.922,23.926,40.527,0
5004.060,21.484,10.254,41.504,20.996,62.012,0
5004.064,-22.461,11.719,41.504,16.113,34.180,0
5004.068,34.180,17.090,46.387,21.484,42.969,0
5004.072,92.773,14.648,46.387,31.250,69.336,0
5004.076,46.387,14.160,41.016,20.996,55.664,0
5004.080,-19.043,19.043,42.969,18.066,21.484,0
5004.083,9.766,18.066,45.410,25.391,15.137,0
5004.087,82.520,16.602,41.504,30.273,43.457,0
5004.091,76.660,19.531,40.527,40.039,46.875,0
5004.095,5.859,20.020,48.340,41.016,23.926,0
5004.099,-23.926,13.184,56.152,19.531,-2.930,0
5004.103,35.156,8.301,60.059,18.555,11.719,0
5004.107,54.199,6.348,57.129,33.691,35.156,0
5004.111,-10.254,4.883,53.711,27.832,10.254,0
5004.115,-32.227,9.766,58.105,27.344,11.230,0
5004.119,31.738,9.277,62.012,33.203,43.945,0
5004.122,66.895,2.930,62.012,34.180,52.246,0
5004.126,0.488,3.906,57.129,33.691,34.180,0
5004.130,-42.480,5.371,53.711,34.668,32.715,0
5004.134,9.277,4.395,54.199,40.039,58.105,0
5004.138,72.754,5.859,53.711,40.527,70.312,0
5004.142,38.086,6.348,51.758,34.668,73.242,0
5004.146,-23.926,2.441,47.363,31.250,40.527,0
5004.150,-2.441,3.906,42.480,31.738,8.789,0
5004.154,67.871,9.766,44.922,37.598,50.781,0
5004.158,53.223,9.277,47.852,37.598,52.734,0
5004.162,-17.578,6.836,46.875,32.227,31.250,0
5004.165,-16.113,8.789,48.828,38.574,51.758,0
5004.169,49.805,12.695,49.316,47.852,50.781,0
5004.173,72.266,14.648,48.828,49.316,44.434,0
5004.177,5.371,10.254,45.410,41.016,52.246,0
5004.181,-24.902,13.672,43.457,37.598,57.617,0
5004.185,38.086,20.020,45.410,43.945,51.270,0
5004.189,72.754,12.695,44.922,42.969,55.664,0
5004.193,19.043,9.277,43.457,32.227,74.219,0
5004.197,-20.508,12.695,43.457,30.273,46.387,0
5004.201,21.484,14.648,45.410,36.621,23.438,0
5004.205,82.520,12.695,46.875,40.039,70.312,0
5004.208,47.363,12.695,48.340,39.551,79.590,0
5004.212,-23.438,12.207,48.828,25.391,51.270,0
5004.216,-13.184,12.695,47.852,18.066,10.254,0
5004.220,58.105,14.648,48.340,26.367,10.254,0
5004.224,62.988,14.648,51.270,25.879,60.059,0
5004.228,-3.418,14.160,48.828,20.020,55.664,0
5004.232,-18.555,12.207,46.387,20.020,62.012,0
5004.236,54.199,14.648,48.340,32.227,70.312,0
5004.240,83.496,15.137,46.387,31.250,63.965,0
5004.244,14.648,16.113,45.898,20.020,46.875,0
5004.247,-21.484,19.043,45.898,22.461,-14.648,0
5004.251,32.227,12.207,41.504,27.832,16.602,0
5004.255,82.520,10.254,39.062,27.832,83.008,1
5004.259,34.668,14.160,41.504,20.020,63.477,0
5004.263,-14.648,15.625,41.016,12.695,15.625,0
5004.267,26.367,18.555,39.551,15.625,29.297,0
5004.271,90.332,18.555,43.457,26.367,52.246,0
5004.275,73.242,16.113,46.875,33.691,9.766,0
5004.279,1.953,21.973,46.875,19.531,-21.484,0
5004.283,-8.301,24.414,43.457,5.371,-12.695,0
5004.287,62.012,25.391,40.527,11.230,31.738,0
5004.290,75.195,22.461,38.086,14.160,60.059,0
5004.294,5.859,20.508,40.039,11.719,43.945,0
5004.298,-11.230,22.949,41.504,4.883,33.691,0
5004.302,56.641,22.461,41.016,8.789,6.348,0
5004.306,84.473,18.066,39.551,9.766,-0.488,0
5004.310,14.160,17.578,41.016,-1.953,2.441,0
5004.314,-19.531,20.996,42.480,1.465,-11.230,0
5004.318,38.086,19.531,40.039,15.137,10.742,0
5004.322,87.402,16.602,40.039,22.949,35.645,0
5004.326,42.969,16.602,41.016,15.625,29.297,0
5004.330,-15.625,20.996,42.480,11.230,3.906,0
5004.333,12.695,20.508,46.387,24.902,2.441,0
5004.337,71.289,15.137,47.852,22.461,3.906,0
5004.341,53.711,14.160,46.875,9.277,13.672,0
5004.345,-5.859,14.648,43.945,11.230,15.625,0
5004.349,-5.859,17.090,43.945,20.996,5.371,0
5004.353,59.082,16.602,42.480,22.461,33.203,0
5004.357,68.359,14.160,40.039,16.602,60.059,0
5004.361,-4.883,13.184,40.039,10.254,51.270,0
5004.365,-30.762,13.184,43.457,14.648,32.715,0
5004.369,32.227,12.207,47.852,29.297,43.457,0
5004.372,74.707,17.090,47.363,25.391,65.918,0
5004.376,19.043,17.578,45.898,13.672,47.852,0
5004.380,-27.832,11.719,46.387,11.719,17.090,0
5004.384,18.555,13.184,43.945,18.555,32.227,0
5004.388,77.637,12.695,43.457,21.973,48.828,0
5004.392,40.039,10.254,43.457,14.648,11.719,0
5004.396,-21.973,11.719,43.945,15.137,3.906,0
5004.400,1.465,13.184,48.340,19.531,10.742,0
5004.404,65.918,12.695,49.805,22.949,11.230,0
5004.408,57.617,16.113,51.758,25.879,23.926,0
5004.412,-5.371,13.184,51.758,21.973,12.207,0
5004.415,-19.531,10.254,45.898,18.555,10.742,0
5004.419,38.574,9.277,43.945,14.160,51.270,0
5004.423,60.547,6.348,44.922,11.719,58.594,0
5004.427,-5.371,6.836,43.945,3.906,-17.578,0
5004.431,-37.598,9.277,43.457,6.348,-34.668,0
5004.435,20.020,8.301,45.410,23.438,28.809,0
5004.439,66.406,5.371,47.363,27.832,46.875,0
5004.443,13.184,4.883,48.828,23.926,18.555,0
5004.447,-34.668,7.324,46.875,20.996,6.348,0
5004.451,3.906,8.789,43.945,27.344,15.137,0
5004.455,62.012,8.301,45.898,31.250,59.082,0
5004.458,40.527,12.207,44.434,21.973,68.848,0
5004.462,-17.578,16.602,43.945,20.508,32.227,0
5004.466,-3.418,16.113,45.410,26.367,25.391,0
5004.470,61.523,10.742,48.340,26.855,47.363,0
5004.474,62.500,4.395,45.410,18.066,35.156,0
5004.478,-6.836,4.395,44.434,13.184,10.742,0
5004.482,-25.391,7.812,45.898,23.438,-18.555,0
5004.486,36.621,8.789,43.457,27.832,4.395,0
5004.490,62.500,9.766,45.898,27.344,46.875,0
5004.494,5.859,14.160,47.852,19.531,33.691,0
5004.497,-27.832,14.160,46.875,8.789,15.137,0
5004.501,25.391,9.277,44.922,17.578,31.738,0
5004.505,70.312,7.812,41.504,19.043,67.383,0
5004.509,21.484,10.254,41.504,10.742,58.594,0
5004.513,-27.832,11.230,39.062,0.977,47.852,0
5004.517,9.277,13.672,38.086,8.789,33.691,0
5004.521,78.613,17.578,43.457,27.832,58.105,0
5004.525,65.430,16.602,43.457,18.555,77.148,0
5004.529,11.230,19.043,42.969,8.301,40.039,0
5004.533,23.438,20.020,42.969,5.859,19.531,0
5004.537,92.773,20.508,42.969,11.230,25.879,0
5004.540,107.910,20.996,44.434,19.043,51.270,0
5004.544,32.715,18.555,42.480,19.043,35.645,0
5004.548,-3.906,19.043,41.016,22.949,21.484,0
5004.552,52.246,17.090,40.527,30.762,37.598,0
5004.556,77.148,16.602,43.457,36.621,68.359,0
5004.560,10.742,18.066,45.410,36.133,71.777,0
5004.564,-27.344,16.602,43.945,35.156,41.992,0
5004.568,21.973,17.090,46.387,33.691,33.203,0
5004.572,67.871,17.578,47.363,28.320,61.523,0
5004.576,22.949,17.090,46.387,19.043,69.336,0
5004.580,-35.156,18.555,48.340,9.277,12.207,0
5004.583,0.000,19.043,43.457,11.230,31.738,0
5004.587,66.406,20.996,41.016,18.066,70.312,0
5004.591,43.457,20.020,41.016,14.648,28.320,0
5004.595,-20.996,18.555,37.598,7.812,13.672,0
5004.599,-19.043,18.066,39.551,8.789,33.203,0
5004.603,41.992,17.578,43.457,16.602,59.082,0
5004.607,54.688,21.973,42.480,13.184,62.988,0
5004.611,-11.230,19.043,36.621,6.348,59.082,0
5004.615,-41.992,12.695,34.180,8.789,53.711,0
5004.619,21.484,12.695,41.016,12.695,54.199,0
5004.622,63.965,13.672,42.480,20.020,43.457,0
5004.626,9.766,16.602,38.086,15.625,29.297,0
5004.630,-25.879,20.020,39.062,10.742,31.250,0
5004.634,16.602,21.484,41.504,23.926,30.273,0
5004.638,62.500,17.090,40.527,27.832,46.387,0
5004.642,32.227,14.160,39.551,18.555,33.691,0
5004.646,-19.043,17.090,39.551,16.602,23.438,0
5004.650,-1.953,15.625,38.086,20.020,24.902,0
5004.654,58.105,13.672,41.016,23.438,53.223,0
5004.658,51.758,16.602,44.922,26.367,36.621,0
5004.662,-11.230,16.113,42.969,23.926,0.488,0
5004.665,-19.043,15.137,46.875,23.926,10.742,0
5004.669,39.062,15.137,49.805,25.879,-2.441,0
5004.673,56.641,14.648,41.992,22.949,27.832,0
5004.677,2.441,15.137,45.410,24.414,53.223,0
5004.681,-23.438,16.113,52.734,27.832,4.395,0
5004.685,25.391,16.602,50.293,35.645,-10.742,0
5004.689,68.848,15.137,49.805,37.109,52.734,0
5004.693,22.949,15.137,50.293,29.297,90.820,0
5004.697,-24.414,17.578,47.363,27.832,44.434,0
5004.701,17.578,19.531,44.434,27.832,27.344,0
5004.705,72.266,18.555,43.457,30.273,59.082,0
5004.708,33.203,13.672,39.551,23.438,47.363,0
5004.712,-24.414,8.789,36.133,9.766,5.859,0
5004.716,-7.812,11.719,41.992,15.625,-21.973,0
5004.720,54.199,16.113,44.434,26.855,28.320,0
5004.724,51.270,15.625,39.551,22.461,36.133,0
5004.728,-11.230,16.602,37.598,20.508,6.836,0
5004.732,-20.508,20.020,41.992,20.508,27.344,0
5004.736,41.992,20.020,44.434,21.973,52.246,0
5004.740,71.777,18.066,44.434,31.250,43.945,0
5004.744,15.137,17.090,44.434,32.715,27.832,0
5004.747,-20.508,16.113,41.016,22.949,18.555,0
5004.751,31.738,16.602,39.062,21.484,32.227,0
5004.755,79.102,21.484,44.434,24.902,53.711,0
5004.759,30.273,17.090,43.945,17.090,23.926,0
5004.763,-17.578,12.207,38.086,13.184,16.602,0
5004.767,17.578,17.090,40.527,19.043,58.594,0
5004.771,67.871,17.578,43.945,24.414,49.316,0
5004.775,47.363,18.555,42.480,27.344,52.246,0
5004.779,-12.207,17.578,45.898,22.949,36.621,0
5004.783,-11.719,17.090,46.387,20.020,6.836,0
5004.787,52.246,17.578,42.480,23.438,27.344,0
5004.790,59.570,18.555,42.969,23.438,40.527,0
5004.794,-5.371,19.043,43.457,16.602,20.020,0
5004.798,-25.879,21.484,41.504,17.578,17.090,0
5004.802,30.762,20.996,44.922,21.484,26.855,0
5004.806,65.430,18.555,47.852,19.531,31.738,0
5004.810,7.812,20.020,41.992,16.602,64.453,0
5004.814,-26.367,18.555,42.969,15.625,47.363,0
5004.818,25.879,18.066,47.363,21.973,36.133,0
5004.822,71.777,20.996,45.898,26.367,44.434,0
5004.826,30.273,20.508,43.945,21.973,48.828,0
5004.830,-28.809,18.555,43.945,16.113,41.992,0
5004.833,-6.836,15.137,43.945,20.508,33.691,0
5004.837,63.965,16.113,47.852,27.832,53.223,0
5004.841,51.270,21.973,48.340,23.926,54.199,0
5004.845,-16.113,18.555,46.387,19.043,14.648,0
5004.849,-20.996,13.672,45.898,16.113,-26.367,0
5004.853,41.504,16.602,42.969,18.066,12.695,0
5004.857,61.035,18.555,47.852,23.438,56.641,0
5004.861,0.977,18.066,49.316,18.066,25.879,0
5004.865,-25.391,17.090,43.457,11.230,-10.742,0
5004.869,30.762,14.648,42.480,17.578,15.137,0
5004.872,67.871,15.625,41.016,27.832,57.617,0
5004.876,9.766,15.625,40.527,21.484,30.762,0
5004.880,-32.227,12.695,41.016,16.113,-3.906,0
5004.884,11.230,13.672,46.387,25.879,11.719,0
5004.888,62.012,14.648,49.316,29.297,35.156,0
5004.892,30.762,9.766,47.363,23.926,16.602,0
5004.896,-25.391,6.836,48.340,22.461,-2.441,0
5004.900,-6.348,11.230,45.898,24.414,11.230,0
5004.904,61.035,12.695,45.410,26.855,32.715,0
5004.908,53.711,10.742,44.434,15.137,36.621,0
5004.912,-5.371,11.719,38.574,6.836,16.602,0
5004.915,-10.742,11.719,37.109,15.625,27.344,0
5004.919,49.316,11.230,39.551,20.996,24.902,0
5004.923,67.871,13.672,42.969,20.996,30.273,0
5004.927,2.441,18.555,42.969,12.207,39.551,0
5004.931,-20.996,17.578,42.969,10.742,25.879,0
5004.935,32.227,19.043,47.363,22.949,33.203,0
5004.939,67.383,19.531,46.387,23.926,45.898,0
5004.943,17.090,13.672,43.945,12.695,51.758,0
5004.947,-27.344,12.695,44.434,8.301,22.461,0
5004.951,11.719,15.625,47.852,17.578,18.066,0
5004.955,66.406,17.578,49.316,22.461,21.973,0
5004.958,42.480,18.066,47.363,19.043,38.086,0
5004.962,-12.207,20.020,49.316,15.625,32.715,0
5004.966,-5.371,20.508,47.363,14.160,21.973,0
5004.970,56.152,17.578,45.898,16.602,29.297,0
5004.974,62.988,17.090,48.340,17.090,57.129,0
5004.978,4.883,18.066,47.363,17.578,40.039,0
5004.982,-10.742,17.578,46.387,19.043,-3.418,0
5004.986,44.434,19.043,46.387,21.973,15.137,0
5004.990,72.266,22.461,45.410,26.367,31.738,0
5004.994,13.672,22.949,46.875,22.461,34.668,0
5004.997,-22.949,23.438,48.340,20.508,5.859,0
5005.001,28.809,24.902,46.875,21.484,9.277,0
5005.005,79.590,23.438,46.387,20.020,64.453,0
5005.009,38.574,20.996,44.434,19.043,53.223,0
5005.013,-12.695,21.484,42.969,20.508,37.109,0
5005.017,18.555,22.461,47.363,21.973,45.410,0
5005.021,74.707,22.949,48.828,23.926,62.988,0
5005.025,49.316,22.949,46.875,20.508,53.223,0
5005.029,-8.301,21.973,45.898,19.043,34.180,0
5005.033,-0.977,21.973,46.875,22.949,15.625,0
5005.037,58.105,15.137,47.852,24.414,21.973,0
5005.040,67.871,14.160,52.246,25.391,51.758,0
5005.044,0.977,14.160,53.711,20.508,8.301,0
5005.048,-22.949,17.578,48.340,14.648,1.465,0
5005.052,41.992,20.996,49.805,26.855,42.480,0
5005.056,72.266,16.602,52.246,30.273,52.734,0
5005.060,10.742,12.207,47.363,20.020,39.062,0
5005.064,-29.297,10.254,45.410,20.020,48.340,0
5005.068,19.531,12.695,47.852,21.973,49.316,0
5005.072,71.777,15.137,48.340,20.020,46.875,0
5005.076,28.320,15.625,43.945,11.719,49.316,0
5005.080,-20.996,17.090,41.016,8.301,28.320,0
5005.083,15.625,23.438,42.480,22.461,31.738,0
5005.087,76.172,25.391,43.457,28.320,41.016,0
5005.091,55.664,19.043,40.039,20.996,54.199,0
5005.095,-2.441,17.090,36.621,18.066,57.617,0
5005.099,0.977,19.531,37.598,23.926,39.551,0
5005.103,58.594,18.555,42.969,30.273,36.133,0
5005.107,65.430,17.578,43.945,21.484,40.039,0
5005.111,4.395,14.160,41.016,14.648,34.180,0
5005.115,-18.066,13.184,38.574,17.090,21.484,0
5005.119,32.715,16.113,40.527,19.043,28.320,0
5005.122,69.336,16.113,43.457,21.484,27.344,0
5005.126,19.043,18.066,38.574,20.996,24.902,0
5005.130,-24.414,18.555,36.133,15.137,18.066,0
5005.134,16.602,20.996,38.086,12.695,2.441,0
5005.138,70.312,25.391,36.621,16.602,30.273,0
5005.142,39.551,17.090,35.645,15.625,34.668,0
5005.146,-19.043,13.672,35.156,12.695,11.230,0
5005.150,-2.930,20.508,36.133,18.066,29.785,0
5005.154,64.941,20.508,41.504,24.414,77.148,0
5005.158,62.988,18.555,43.945,25.879,81.543,0
5005.162,-0.977,15.625,41.504,23.926,37.598,0
5005.165,-13.184,14.648,41.504,22.949,16.602,0
5005.169,44.922,18.555,39.551,28.320,43.457,0
5005.173,66.895,19.043,40.039,28.809,43.457,0
5005.177,12.695,20.508,43.945,18.555,-2.441,0
5005.181,-19.043,20.996,41.992,11.230,-28.809,0
5005.185,26.367,20.020,39.062,12.695,20.020,0
5005.189,66.895,18.066,39.551,10.254,45.898,0
5005.193,24.414,13.672,42.480,9.766,19.531,0
5005.197,-21.973,13.184,42.969,19.043,7.324,0
5005.201,12.695,15.625,43.457,24.414,-2.441,0
5005.205,62.012,17.578,46.387,24.414,30.762,0
5005.208,39.551,14.160,44.434,21.973,47.363,0
5005.212,-8.301,14.160,41.992,22.461,33.691,0
5005.216,0.000,17.090,43.945,26.367,32.715,0
5005.220,58.594,17.578,45.898,33.203,51.270,0
5005.224,58.594,17.090,45.898,25.391,54.688,0
5005.228,3.418,15.625,45.898,18.066,12.207,0
5005.232,-13.184,14.160,44.922,25.391,13.184,0
5005.236,38.086,15.625,42.969,27.832,40.527,0
5005.240,68.359,17.090,44.922,27.344,61.523,0
5005.244,12.207,14.648,46.387,25.391,31.738,0
5005.247,-25.879,12.207,44.434,28.320,3.906,0
5005.251,22.949,16.113,44.434,27.832,-3.418,0
5005.255,76.660,17.578,44.922,28.809,31.738,0
5005.259,36.133,16.602,46.387,31.738,41.992,0
5005.263,-15.625,20.508,47.852,28.809,9.277,0
5005.267,13.184,19.531,43.945,34.180,21.973,0
5005.271,69.824,15.137,42.969,36.621,41.992,0
5005.275,53.223,15.137,44.922,30.762,66.406,0
5005.279,-1.953,18.066,43.945,22.461,63.477,0
5005.283,0.977,21.484,42.969,16.602,34.180,0
5005.287,68.848,25.879,46.387,18.066,54.688,0
5005.290,91.309,24.414,44.922,16.602,89.844,0
5005.294,34.668,20.996,40.039,5.859,42.969,0
5005.298,13.672,23.926,38.574,1.953,12.695,0
5005.302,69.824,26.855,41.504,5.859,56.152,0
5005.306,96.680,24.414,46.875,14.648,55.176,0
5005.310,28.320,21.973,46.875,18.555,46.387,0
5005.314,-20.996,20.996,43.457,20.508,38.574,0
5005.318,18.066,19.531,46.875,24.902,34.668,0
5005.322,59.082,18.555,53.223,27.344,51.270,0
5005.326,24.902,21.973,51.758,25.879,35.645,0
5005.330,-23.926,20.996,45.898,15.137,17.578,0
5005.333,-2.930,18.555,45.410,7.812,9.766,0
5005.337,58.105,21.484,47.363,15.137,38.086,0
5005.341,44.922,19.531,47.852,20.020,41.992,0
5005.345,-15.137,18.555,46.387,15.625,7.324,0
5005.349,-14.160,21.484,44.434,15.625,27.344,0
5005.353,46.875,22.461,47.852,18.066,44.922,0
5005.357,62.012,22.461,46.875,17.090,33.691,0
5005.361,0.000,20.996,42.969,12.207,9.277,0
5005.365,-23.438,20.508,44.434,15.625,-17.090,0
5005.369,36.133,21.484,43.457,21.973,10.742,0
5005.372,71.289,20.020,48.828,29.297,6.348,0
5005.376,22.461,22.949,49.316,19.043,-7.324,0
5005.380,-17.578,23.438,43.945,10.254,2.441,0
5005.384,18.555,19.531,47.852,20.508,37.109,0
5005.388,64.453,18.555,48.340,23.438,63.965,0
5005.392,38.574,18.555,44.434,17.090,37.109,0
5005.396,-13.672,17.090,41.504,8.789,42.969,0
5005.400,-0.977,17.578,45.410,17.578,29.785,0
5005.404,66.406,20.996,49.316,27.344,36.621,0
5005.408,64.941,24.414,47.852,22.949,73.242,0
5005.412,-0.977,21.484,42.969,18.066,62.012,0
5005.415,-12.695,20.508,44.434,19.531,15.137,0
5005.419,44.922,20.996,49.316,25.879,18.555,0
5005.423,67.871,22.461,45.898,22.461,68.359,0
5005.427,7.812,20.508,43.945,13.184,49.316,0
5005.431,-19.043,20.020,44.434,10.254,17.090,0
5005.435,36.621,24.414,43.457,15.137,20.996,0
5005.439,76.172,21.484,43.945,20.508,52.246,0
5005.443,33.203,22.461,42.969,22.949,49.316,0
5005.447,-4.395,24.414,42.480,22.461,7.812,0
5005.451,31.250,25.879,44.434,28.320,19.043,0
5005.455,80.566,23.438,42.969,31.738,45.410,0
5005.458,49.805,20.020,41.016,26.855,39.551,0
5005.462,-4.395,23.926,43.457,23.926,23.438,0
5005.466,9.277,25.391,43.457,24.414,18.066,0
5005.470,66.895,20.020,45.898,29.297,40.527,0
5005.474,68.848,18.066,50.293,26.367,43.457,0
5005.478,4.883,20.996,48.340,21.484,13.672,0
5005.482,-10.742,21.484,44.922,24.902,9.277,0
5005.486,51.758,20.508,45.898,34.668,27.344,0
5005.490,80.078,20.508,44.922,26.367,50.781,0
5005.494,17.578,15.625,42.480,14.160,30.762,0
5005.497,-19.043,16.113,43.457,16.602,5.371,0
5005.501,30.273,19.043,45.410,22.949,22.949,0
5005.505,75.684,17.090,46.387,25.879,62.500,0
5005.509,32.715,19.043,45.898,13.184,40.527,0
5005.513,-14.160,21.973,44.922,6.836,6.348,0
5005.517,14.648,21.973,42.480,15.137,-5.371,0
5005.521,67.383,20.508,47.852,19.043,29.297,0
5005.525,45.410,15.137,47.363,17.578,62.012,0
5005.529,-12.695,16.113,41.504,12.695,15.137,0
5005.533,-9.766,17.090,43.457,14.648,4.883,0
5005.537,51.270,16.113,48.340,24.414,38.574,0
5005.540,68.359,20.020,52.734,25.879,49.316,0
5005.544,8.301,17.578,49.316,21.484,27.344,0
5005.548,-23.926,14.160,40.039,17.578,6.348,0
5005.552,28.320,17.090,40.039,22.949,16.602,0
5005.556,59.082,15.625,45.410,18.555,28.809,0
5005.560,7.324,15.137,46.875,12.695,12.695,0
5005.564,-25.879,16.602,48.828,17.090,7.324,0
5005.568,13.672,14.160,47.363,17.090,4.395,0
5005.572,57.129,13.184,43.457,20.508,22.949,0
5005.576,28.320,13.672,42.969,17.090,42.480,0
5005.580,-22.461,14.648,45.898,14.648,4.883,0
5005.583,-5.371,13.184,42.969,19.043,7.812,0
5005.587,53.223,15.137,41.992,26.855,51.270,0
5005.591,43.457,16.602,41.992,23.438,75.195,0
5005.595,-12.207,15.625,41.016,20.020,36.621,0
5005.599,-12.695,14.160,43.945,23.438,-5.859,0
5005.603,45.410,14.648,47.363,27.344,28.320,0
5005.607,60.059,16.602,44.434,29.785,74.707,0
5005.611,2.441,15.137,43.457,24.902,38.574,0
5005.615,-28.320,11.719,42.480,19.531,-2.441,0
5005.619,24.414,12.695,40.527,22.949,23.438,0
5005.622,65.918,15.625,42.969,22.949,24.902,0
5005.626,11.719,13.184,39.062,15.137,-2.441,0
5005.630,-31.738,13.184,39.551,9.277,2.441,0
5005.634,8.301,13.672,42.969,12.695,-2.441,0
5005.638,60.547,12.695,44.922,21.484,20.020,0
5005.642,31.250,8.789,44.922,18.066,30.762,0
5005.646,-21.484,3.418,41.016,10.254,23.438,0
5005.650,-3.418,2.441,39.551,15.137,12.207,0
5005.654,57.617,2.441,41.992,22.949,33.203,0
5005.658,52.246,0.977,42.969,20.996,52.734,0
5005.662,-7.324,1.953,42.480,14.160,39.551,0
5005.665,-14.648,4.883,41.504,17.578,42.969,0
5005.669,46.387,4.883,42.969,22.949,44.922,0
5005.673,67.871,5.371,46.875,27.832,47.363,0
5005.677,10.742,4.883,45.410,25.879,37.598,0
5005.681,-17.578,1.953,41.992,17.578,9.766,0
5005.685,31.738,3.418,40.039,20.996,42.969,0
5005.689,70.801,4.883,41.016,24.414,72.754,0
5005.693,28.320,6.836,41.992,19.531,45.410,0
5005.697,-18.066,8.789,39.551,9.766,37.109,0
5005.701,8.789,8.301,39.551,10.254,42.480,0
5005.705,59.570,8.789,38.574,13.184,28.320,0
5005.708,39.551,12.695,37.109,11.230,41.992,0
5005.712,-19.043,7.812,38.574,11.230,25.391,0
5005.716,-14.648,8.301,41.016,13.672,10.742,0
5005.720,54.199,14.160,46.875,21.973,39.551,0
5005.724,60.059,13.184,47.852,22.949,46.387,0
5005.728,-2.441,14.160,43.945,15.625,46.387,0
5005.732,-19.043,14.648,43.457,14.648,26.367,0
5005.736,38.086,14.648,45.410,19.531,27.832,0
5005.740,66.406,14.648,44.434,20.996,46.875,0
5005.744,6.836,13.672,42.480,19.043,27.832,0
5005.747,-25.879,16.113,44.434,18.555,12.695,0
5005.751,20.508,17.578,44.922,19.531,33.691,0
5005.755,64.453,15.137,44.434,22.461,50.293,0
5005.759,25.879,13.672,48.828,21.484,40.527,0
5005.763,-20.508,17.578,49.316,20.508,6.836,0
5005.767,10.254,20.508,45.898,23.438,-1.953,0
5005.771,63.965,18.555,45.410,27.344,33.203,0
5005.775,44.434,17.090,44.434,20.508,52.734,0
5005.779,-10.254,15.137,44.434,16.602,45.410,0
5005.783,-5.371,10.742,42.480,20.020,5.859,0
5005.787,55.176,15.137,41.992,25.879,34.180,0
5005.790,66.406,17.090,46.875,27.344,58.594,0
5005.794,3.418,14.160,49.805,20.996,7.324,0
5005.798,-21.973,12.695,44.922,19.531,22.949,0
5005.802,37.109,16.602,44.434,21.973,38.086,0
5005.806,75.195,19.043,46.387,26.367,24.414,0
5005.810,21.973,15.625,44.434,22.461,34.668,0
5005.814,-18.555,12.207,41.992,23.438,11.230,0
5005.818,25.391,12.695,40.527,26.367,14.648,0
5005.822,75.195,16.602,44.434,26.367,41.992,0
5005.826,41.016,16.602,44.922,25.879,49.805,0
5005.830,-12.695,14.160,42.480,26.367,38.086,0
5005.833,5.859,13.672,41.992,26.855,3.418,0
5005.837,62.988,16.602,45.410,22.949,7.812,0
5005.841,54.199,16.602,44.922,15.137,31.738,0
5005.845,-8.301,10.742,38.574,14.160,39.062,0
5005.849,-17.578,11.719,40.039,19.043,13.184,0
5005.853,42.969,14.648,44.434,25.391,18.066,0
5005.857,60.547,14.160,44.922,24.414,64.941,0
5005.861,1.465,16.113,46.875,21.973,30.273,0
5005.865,-20.020,18.555,51.758,25.391,-12.695,0
5005.869,29.785,18.066,51.758,30.762,26.367,0
5005.872,59.570,16.602,49.805,31.250,69.824,0
5005.876,17.578,16.602,49.316,23.926,69.336,0
5005.880,-19.531,17.578,50.781,20.996,41.016,0
5005.884,17.578,19.531,48.340,25.879,29.785,0
5005.888,68.848,20.996,45.410,28.320,54.199,0
5005.892,42.480,21.484,46.875,29.297,56.641,0
5005.896,-9.766,19.043,43.945,30.762,18.555,0
5005.900,2.930,18.555,41.992,31.738,3.418,0
5005.904,65.430,22.949,45.898,34.180,36.133,0
5005.908,60.547,21.484,44.922,24.902,18.066,0
5005.912,-8.789,20.020,41.016,15.625,-3.906,0
5005.915,-18.555,21.484,41.504,18.066,7.812,0
5005.919,41.504,23.438,46.387,24.414,37.109,0
5005.923,59.570,21.484,43.457,23.438,55.664,0
5005.927,1.953,15.137,40.527,16.602,24.902,0
5005.931,-24.902,13.672,41.504,13.672,13.672,0
5005.935,26.855,14.648,41.504,20.508,49.316,0
5005.939,76.660,15.625,44.922,27.344,80.078,0
5005.943,41.016,9.766,46.387,27.344,68.359,0
5005.947,-6.348,8.301,44.434,28.320,34.180,0
5005.951,20.020,19.043,41.992,25.879,40.527,0
5005.955,71.777,20.996,41.016,23.926,57.129,0
5005.958,52.246,19.043,40.527,23.438,72.266,0
5005.962,-3.906,19.531,41.504,17.090,56.152,0
5005.966,-1.465,17.090,43.945,17.090,4.395,0
5005.970,53.223,17.578,44.922,20.508,12.695,0
5005.974,57.129,17.090,44.922,17.090,35.645,0
5005.978,-2.441,13.184,44.434,6.836,22.461,0
5005.982,-14.160,15.137,46.387,10.254,7.324,0
5005.986,40.039,15.625,43.945,20.020,22.461,0
5005.990,60.059,16.602,42.969,11.719,50.781,0
5005.994,3.906,15.625,42.480,9.277,55.176,0
5005.997,-29.297,15.137,42.969,10.254,39.062,0
5006.001,20.508,21.484,48.828,14.160,53.223,0
5006.005,63.477,19.531,44.922,15.137,69.336,0
5006.009,20.996,16.113,38.086,10.742,59.570,0
5006.013,-22.949,19.531,41.992,9.277,23.926,0
5006.017,7.324,21.484,44.922,12.207,-5.859,0
5006.021,65.430,22.461,44.922,18.555,9.277,0
5006.025,46.875,20.996,42.969,18.555,73.242,0
5006.029,-16.602,19.531,42.969,16.602,67.383,0
5006.033,-15.137,18.066,42.480,11.230,15.625,0
5006.037,49.805,16.602,40.039,12.207,29.785,0
5006.040,57.617,16.602,41.992,21.973,66.406,0
5006.044,-12.207,17.090,43.457,17.090,56.152,0
5006.048,-26.855,20.996,44.922,16.113,31.738,0
5006.052,32.227,20.020,46.875,24.902,33.203,0
5006.056,64.453,15.137,43.945,20.996,67.871,0
5006.060,15.137,17.578,41.992,16.113,41.016,0
5006.064,-19.531,19.531,39.551,17.578,7.324,0
5006.068,21.484,18.066,40.527,26.367,14.648,0
5006.072,70.801,18.066,45.898,25.391,53.711,0
5006.076,41.016,18.066,48.340,23.438,48.340,0
5006.080,-15.137,16.113,44.434,27.344,-0.488,0
5006.083,3.418,14.648,42.969,22.949,2.930,0
5006.087,62.988,15.137,45.898,23.438,39.062,0
5006.091,52.246,14.160,47.852,23.926,43.457,0
5006.095,-8.301,12.207,47.363,19.043,17.090,0
5006.099,-15.137,15.137,45.410,16.602,29.297,0
5006.103,46.387,18.555,47.852,16.113,40.527,0
5006.107,68.848,19.043,48.828,11.719,29.297,0
5006.111,15.137,21.973,42.480,-0.488,22.949,0
5006.115,-6.348,20.996,35.156,-12.695,23.438,0
5006.119,52.734,18.555,36.133,-8.301,29.785,0
5006.122,92.773,21.484,41.504,-3.418,37.109,0
5006.126,37.598,22.461,40.527,-3.906,20.508,0
5006.130,-3.418,23.438,42.969,9.766,5.371,0
5006.134,28.320,20.020,48.828,23.438,16.602,0
5006.138,72.754,14.648,47.363,26.367,59.082,0
5006.142,41.016,14.160,45.410,20.020,61.523,0
5006.146,-19.531,18.066,45.410,20.996,34.180,0
5006.150,-3.906,24.414,49.316,32.227,18.555,0
5006.154,53.711,20.508,52.734,31.250,36.621,0
5006.158,44.922,13.672,51.270,24.902,39.062,0
5006.162,-20.996,14.160,48.340,19.043,24.414,0
5006.165,-32.227,14.648,43.457,15.137,38.086,0
5006.169,33.203,14.648,43.457,17.090,25.391,0
5006.173,57.129,17.090,41.992,13.184,26.367,0
5006.177,-0.488,18.555,39.062,4.395,36.133,0
5006.181,-25.879,20.508,41.992,5.371,-1.953,0
5006.185,24.414,22.949,44.922,16.113,6.836,0
5006.189,63.477,21.973,44.922,20.508,56.641,0
5006.193,14.648,18.066,44.434,19.043,57.129,0
5006.197,-30.273,19.043,46.875,20.508,37.598,0
5006.201,2.930,19.531,50.293,24.414,43.457,0
5006.205,55.176,17.578,47.852,24.902,56.152,0
5006.208,36.133,15.625,43.945,27.832,71.289,0
5006.212,-14.160,17.090,46.387,29.297,38.086,0
5006.216,-3.418,20.508,45.898,24.414,13.184,0
5006.220,61.523,20.996,42.480,28.809,61.523,0
5006.224,65.430,21.973,45.410,28.320,70.312,0
5006.228,0.488,18.555,43.945,22.461,25.879,0
5006.232,-15.137,20.020,39.551,25.391,-0.488,0
5006.236,45.898,20.996,37.598,24.902,49.805,0
5006.240,73.730,19.531,40.039,22.949,67.383,0
5006.244,13.672,17.578,45.898,24.902,23.926,0
5006.247,-17.578,18.555,44.922,23.926,23.438,0
5006.251,35.645,21.973,43.457,23.438,32.715,0
5006.255,81.543,20.020,45.410,30.273,41.992,0
5006.259,39.062,16.602,44.434,28.809,36.133,0
5006.263,-5.859,17.578,40.527,20.508,17.090,0
5006.267,22.949,18.555,40.527,25.879,30.762,0
5006.271,67.871,15.625,42.969,30.273,45.898,0
5006.275,49.316,16.113,42.480,26.855,60.547,0
5006.279,-0.977,15.625,41.992,26.855,63.477,0
5006.283,-8.789,14.160,43.945,26.367,49.805,0
5006.287,49.316,17.090,45.898,29.297,40.039,0
5006.290,63.477,17.578,44.434,25.879,40.039,0
5006.294,0.488,17.090,45.410,13.184,44.922,0
5006.298,-20.508,16.602,45.410,8.301,36.133,0
5006.302,31.250,14.648,42.969,8.301,20.508,0
5006.306,62.988,19.043,41.992,8.301,17.090,0
5006.310,13.184,18.555,38.574,8.301,24.902,0
5006.314,-21.484,14.648,36.133,8.789,16.113,0
5006.318,21.484,17.090,39.551,9.277,18.066,0
5006.322,67.383,17.578,43.945,13.184,52.734,0
5006.326,43.945,18.555,43.457,18.066,54.199,0
5006.330,-4.883,20.996,43.945,15.137,16.602,0
5006.333,13.672,19.531,45.898,20.508,13.184,0
5006.337,75.684,21.973,44.922,24.902,44.434,0
5006.341,65.918,22.949,41.992,16.602,59.082,0
5006.345,8.789,23.926,41.992,18.066,24.414,0
5006.349,1.465,27.344,43.457,19.531,-2.930,0
5006.353,57.617,27.832,40.527,18.066,60.059,0
5006.357,73.242,23.926,41.504,20.020,73.242,0
5006.361,14.648,23.926,45.898,22.461,22.461,0
5006.365,-5.371,28.320,45.410,28.320,12.207,0
5006.369,52.734,29.297,45.410,32.715,14.648,0
5006.372,87.402,25.879,46.875,31.250,47.852,0
5006.376,38.574,21.973,48.340,29.785,41.504,0
5006.380,-0.488,25.391,47.852,34.180,19.043,0
5006.384,33.691,27.344,45.898,37.598,36.133,0
5006.388,83.984,22.949,48.828,40.527,37.109,0
5006.392,55.176,22.461,51.270,33.203,42.969,0
5006.396,-1.953,22.461,47.363,22.461,25.391,0
5006.400,6.348,24.414,47.363,28.320,19.043,0
5006.404,62.012,26.855,49.316,33.691,66.895,0
5006.408,59.082,22.949,49.805,28.320,48.340,0
5006.412,-1.465,19.531,48.340,22.949,-7.324,0
5006.415,-20.020,17.090,47.363,22.461,-4.395,0
5006.419,34.180,19.531,47.852,26.855,29.785,0
5006.423,65.918,22.461,49.316,29.297,56.641,0
5006.427,7.324,18.555,45.898,19.531,48.340,0
5006.431,-30.762,17.090,45.898,18.066,25.391,0
5006.435,18.066,22.461,51.270,29.297,8.301,0
5006.439,55.176,18.555,50.781,25.879,32.715,0
5006.443,13.184,15.137,49.316,20.996,54.688,0
5006.447,-22.461,18.555,47.852,24.414,31.738,0
5006.451,8.789,20.508,46.387,21.484,20.020,0
5006.455,58.594,23.926,48.828,16.113,23.438,0
5006.458,38.086,20.020,46.387,13.672,33.691,0
5006.462,-16.602,16.602,41.992,17.578,50.293,0
5006.466,-6.348,17.090,47.363,20.508,24.414,0
5006.470,56.152,16.113,49.316,20.508,8.789,0
5006.474,61.523,15.137,44.434,19.043,59.082,0
5006.478,-0.488,13.184,41.992,17.090,54.688,0
5006.482,-21.973,14.160,41.992,15.625,0.488,0
5006.486,33.203,19.531,47.852,19.531,23.926,0
5006.490,56.641,18.555,47.852,19.531,41.992,0
5006.494,0.977,14.648,39.062,14.160,25.391,0
5006.497,-31.250,15.137,40.527,20.508,-4.395,0
5006.501,17.578,17.578,44.434,21.484,-4.395,0
5006.505,66.895,16.602,44.434,20.996,47.363,0
5006.509,24.414,13.672,45.898,26.855,48.340,0
5006.513,-21.973,17.090,43.457,26.855,24.414,0
5006.517,9.766,19.531,39.551,24.902,2.441,0
5006.521,66.895,19.531,41.992,27.832,38.574,0
5006.525,48.828,15.137,42.969,27.344,53.711,0
5006.529,-5.859,14.648,41.992,20.020,28.809,0
5006.533,-5.371,19.043,38.086,18.066,14.648,0
5006.537,52.734,19.531,37.598,20.508,19.043,0
5006.540,69.336,19.531,42.969,20.996,41.016,0
5006.544,8.301,20.020,44.922,14.160,15.137,0
5006.548,-13.184,20.508,45.410,15.625,-4.883,0
5006.552,40.039,20.996,44.922,27.832,26.855,0
5006.556,68.359,19.043,45.410,26.855,36.621,0
5006.560,15.137,17.578,42.969,18.555,29.785,0
5006.564,-18.555,20.020,44.434,19.531,28.809,0
5006.568,29.785,21.484,47.852,26.855,4.395,0
5006.572,75.684,18.066,47.363,28.320,13.184,0
5006.576,37.109,17.090,49.316,26.855,19.043,0
5006.580,-16.113,16.602,51.270,23.926,4.883,0
5006.583,1.953,12.207,50.293,25.391,23.926,0
5006.587,57.617,11.719,48.828,29.297,38.574,0
5006.591,47.852,13.184,47.852,18.555,-8.301,0
5006.595,-8.789,13.672,46.875,12.207,0.488,0
5006.599,-3.906,19.531,51.758,23.926,20.996,0
5006.603,48.828,18.555,50.781,26.367,17.090,0
5006.607,58.594,14.160,45.898,21.973,22.461,0
5006.611,4.395,14.648,46.875,18.066,0.000,0
5006.615,-28.320,11.719,46.387,13.184,-5.859,0
5006.619,19.531,11.230,47.852,11.230,24.414,0
5006.622,63.477,11.719,48.340,13.184,38.086,0
5006.626,19.043,13.184,46.875,13.672,27.344,0
5006.630,-26.367,12.695,42.969,13.672,10.254,0
5006.634,4.883,11.719,41.504,11.719,7.324,0
5006.638,59.570,13.184,44.434,11.719,21.484,0
5006.642,40.039,16.113,44.922,17.090,34.668,0
5006.646,-16.113,14.648,42.480,17.578,9.277,0
5006.650,-0.977,15.625,43.457,20.996,0.488,0
5006.654,61.035,18.555,45.898,25.391,30.762,0
5006.658,56.641,17.090,46.875,25.879,29.297,0
5006.662,-0.488,18.066,47.363,23.926,-0.977,0
5006.665,-11.719,17.090,48.828,26.855,1.465,0
5006.669,46.387,16.113,50.781,25.391,44.434,0
5006.673,69.824,18.066,48.340,20.508,62.988,0
5006.677,10.742,19.043,47.363,19.043,8.789,0
5006.681,-15.137,18.066,50.293,18.555,-27.344,0
5006.685,39.062,17.578,50.781,24.414,24.902,0
5006.689,75.684,19.043,47.363,28.320,64.941,0
5006.693,27.832,20.020,46.875,20.508,71.289,0
5006.697,-13.672,20.996,47.363,20.508,73.242,0
5006.701,22.949,23.438,46.875,31.738,58.594,0
5006.705,76.660,22.461,50.293,36.133,76.660,0
5006.708,54.199,19.043,48.340,30.762,80.078,0
5006.712,-6.836,17.578,43.457,22.461,26.855,0
5006.716,-1.953,18.555,47.363,20.996,-3.906,0
5006.720,55.664,18.555,50.781,23.926,33.203,0
5006.724,57.129,17.090,46.875,20.020,45.898,0
5006.728,-0.488,18.555,43.945,16.113,26.367,0
5006.732,-19.043,20.020,44.434,18.555,22.461,0
5006.736,33.203,19.531,46.875,20.020,36.133,0
5006.740,63.965,19.531,44.922,14.648,75.195,0
5006.744,12.207,17.578,44.434,9.766,72.754,0
5006.747,-20.508,18.066,47.363,11.719,52.734,0
5006.751,21.973,25.879,47.363,20.508,46.875,0
5006.755,65.430,28.320,50.293,22.949,60.059,0
5006.759,30.273,26.855,50.781,20.508,88.867,0
5006.763,-18.555,19.043,44.922,18.555,64.453,0
5006.767,8.301,15.137,45.898,21.973,23.438,0
5006.771,60.547,19.531,49.316,26.855,12.695,0
5006.775,47.363,17.090,46.875,25.879,42.969,0
5006.779,-6.348,14.648,43.945,26.367,39.062,0
5006.783,-10.742,16.602,44.922,27.344,10.254,0
5006.787,47.852,19.043,47.363,25.391,31.250,0
5006.790,63.965,17.090,49.316,22.461,56.641,0
5006.794,7.812,17.578,47.363,18.066,28.809,0
5006.798,-8.789,20.996,46.387,20.020,-14.160,0
5006.802,44.922,19.531,42.969,24.414,9.277,0
5006.806,70.801,19.043,43.945,22.461,40.527,0
5006.810,17.090,19.531,45.898,20.996,32.715,0
5006.814,-18.555,17.090,42.480,20.996,30.762,0
5006.818,21.484,18.555,41.992,23.438,10.742,0
5006.822,71.777,20.508,41.504,17.090,50.293,0
5006.826,47.363,22.949,41.016,14.648,68.359,0
5006.830,-11.230,21.973,42.480,16.602,6.348,0
5006.833,4.395,18.555,41.504,17.578,-28.320,0
5006.837,66.406,17.578,43.945,22.949,15.137,0
5006.841,56.152,17.090,43.945,19.043,64.941,0
5006.845,-0.488,12.695,41.504,17.578,42.969,0
5006.849,-3.418,17.090,46.875,25.391,14.160,0
5006.853,52.246,19.531,50.293,28.320,25.391,0
5006.857,72.754,17.090,45.410,20.996,43.457,0
5006.861,13.184,20.020,42.480,14.648,37.598,0
5006.865,-18.555,15.625,39.062,12.695,29.297,0
5006.869,35.645,12.695,41.504,17.090,39.062,0
5006.872,72.754,15.625,46.387,19.043,46.875,0
5006.876,23.438,14.160,44.922,15.625,7.812,0
5006.880,-19.531,16.113,43.457,20.020,33.691,0
5006.884,11.719,18.066,42.480,25.391,56.641,0
5006.888,64.453,18.066,42.969,24.414,58.594,0
5006.892,42.480,19.531,41.992,20.020,78.125,0
5006.896,-12.695,20.996,41.992,20.996,44.434,0
5006.900,-2.441,20.996,42.969,23.926,31.250,0
5006.904,52.734,19.043,42.480,20.020,40.527,0
5006.908,46.387,17.090,40.527,17.090,38.574,0
5006.912,-10.742,18.066,41.504,22.949,55.664,0
5006.915,-16.602,19.531,43.457,24.414,43.945,0
5006.919,41.992,15.625,43.457,20.996,18.066,0
5006.923,65.430,13.672,44.922,20.020,47.852,0
5006.927,8.301,19.043,42.480,21.484,64.941,0
5006.931,-27.344,18.066,39.062,20.020,30.273,0
5006.935,19.043,17.578,40.527,20.020,41.992,0
5006.939,64.453,16.602,41.016,20.996,63.477,0
5006.943,23.926,13.672,41.504,11.719,41.504,0
5006.947,-20.996,15.625,37.598,12.207,27.832,0
5006.951,12.695,19.531,37.598,27.832,10.742,0
5006.955,71.777,20.508,43.457,30.762,3.418,0
5006.958,55.176,16.113,42.969,25.391,42.480,0
5006.962,-4.883,14.648,42.480,18.555,4.883,0
5006.966,-4.883,15.137,43.945,10.254,-37.598,0
5006.970,67.871,17.578,44.434,13.672,22.461,0
5006.974,89.355,19.531,44.922,13.184,47.852,0
5006.978,33.203,19.043,44.922,10.254,29.785,0
5006.982,18.555,19.531,42.480,9.277,-4.395,0
5006.986,72.266,17.090,40.527,5.859,-9.277,0
5006.990,92.773,17.090,45.410,15.137,17.090,0
5006.994,34.180,18.555,48.828,24.902,35.156,0
5006.997,-9.766,15.625,46.875,26.855,12.695,0
5007.001,23.926,15.625,50.781,30.762,8.301,0
5007.005,63.477,17.578,55.664,30.273,49.316,0
5007.009,17.578,11.719,49.805,23.438,28.809,0
5007.013,-34.180,9.766,44.434,21.484,1.465,0
5007.017,-7.812,9.277,44.922,29.297,16.113,0
5007.021,50.293,12.695,47.363,29.785,43.457,0
5007.025,38.574,16.602,46.387,27.832,53.711,0
5007.029,-15.137,13.672,43.945,25.879,40.527,0
5007.033,-11.230,14.160,49.805,26.367,43.457,0
5007.037,46.875,18.066,52.246,30.762,39.551,0
5007.040,55.176,16.602,46.875,23.926,55.664,0
5007.044,-7.812,13.184,41.992,17.578,43.457,0
5007.048,-31.738,12.695,42.480,16.113,18.555,0
5007.052,25.879,14.160,44.922,14.648,1.953,0
5007.056,57.617,15.137,40.527,9.277,10.742,0
5007.060,4.883,15.625,36.133,3.906,43.457,0
5007.064,-27.344,16.113,40.527,9.277,34.180,0
5007.068,12.207,17.090,48.340,14.648,28.809,0
5007.072,63.477,21.484,49.316,12.695,39.062,0
5007.076,39.551,23.438,45.898,13.672,62.988,0
5007.080,-14.160,20.508,44.434,17.090,39.551,0
5007.083,-2.441,17.090,44.922,18.066,38.086,0
5007.087,57.617,18.066,47.363,20.508,69.824,0
5007.091,55.176,18.066,47.363,18.555,61.523,0
5007.095,-6.836,17.578,45.410,18.555,27.344,0
5007.099,-15.625,21.484,49.316,14.160,-6.836,0
5007.103,42.480,21.973,50.781,13.184,14.648,0
5007.107,56.152,18.066,43.457,13.672,51.270,0
5007.111,5.371,16.113,42.969,10.742,27.832,0
5007.115,-11.230,20.020,47.852,18.066,7.324,0
5007.119,40.039,23.438,45.410,21.973,19.043,0
5007.122,71.777,26.367,44.434,12.207,47.363,0
5007.126,20.020,24.414,43.945,9.766,55.176,0
5007.130,-20.020,19.531,42.969,18.555,38.574,0
5007.134,15.137,18.066,43.457,19.043,33.691,0
5007.138,66.406,16.602,43.945,24.414,40.527,0
5007.142,40.527,16.113,43.945,24.414,36.621,0
5007.146,-11.719,17.090,44.434,17.090,13.672,0
5007.150,2.441,20.508,47.363,22.461,10.742,0
5007.154,60.059,24.414,47.852,25.391,19.531,0
5007.158,58.105,23.926,42.969,18.555,31.250,0
5007.162,1.953,20.020,41.992,8.301,41.992,0
5007.165,-9.277,20.020,45.410,4.883,16.113,0
5007.169,47.363,20.508,42.480,12.695,17.090,0
5007.173,77.148,21.484,40.039,20.508,50.293,0
5007.177,21.484,21.484,38.574,14.648,37.598,0
5007.181,-15.137,22.461,40.527,13.184,13.184,0
5007.185,28.320,22.949,41.504,17.090,23.438,0
5007.189,72.266,19.043,41.504,18.066,30.762,0
5007.193,38.574,19.043,42.969,21.973,23.926,0
5007.197,3.418,21.484,46.387,23.438,12.207,0
5007.201,27.344,20.508,47.852,28.320,16.113,0
5007.205,69.824,19.531,43.945,30.762,6.348,0
5007.208,54.688,16.113,42.480,26.367,-4.395,0
5007.212,-4.395,17.578,44.434,26.855,10.742,0
5007.216,-7.812,22.949,43.945,26.367,15.137,0
5007.220,55.176,19.531,43.945,26.367,9.277,0
5007.224,68.848,18.066,45.410,27.832,48.828,0
5007.228,13.672,22.949,43.945,23.438,41.992,0
5007.232,-2.441,20.996,41.992,18.555,18.066,0
5007.236,47.852,20.508,46.875,25.391,11.719,0
5007.240,72.754,27.344,49.316,26.367,-6.836,0
5007.244,9.766,21.484,42.480,15.625,9.277,0
5007.247,-29.297,17.578,42.480,11.719,9.277,0
5007.251,17.090,20.996,43.945,19.531,12.695,0
5007.255,66.406,22.949,43.457,19.531,59.082,0
5007.259,32.715,21.484,44.922,17.090,41.016,0
5007.263,-17.090,19.043,42.480,17.090,16.113,0
5007.267,8.789,19.531,41.992,21.973,20.996,0
5007.271,70.312,16.113,43.945,30.273,39.551,0
5007.275,53.223,13.184,45.898,30.762,59.082,0
5007.279,-10.254,15.137,45.898,28.809,32.715,0
5007.283,-15.625,13.672,45.898,30.762,14.160,0
5007.287,45.410,12.695,43.945,29.785,37.598,0
5007.290,62.500,12.207,43.457,28.320,56.152,0
5007.294,3.418,13.672,47.363,30.273,8.301,0
5007.298,-22.461,13.672,48.828,30.762,-5.859,0
5007.302,28.809,11.230,46.387,26.367,6.348,0
5007.306,62.988,11.230,41.992,23.926,16.602,0
5007.310,15.625,10.254,41.504,19.043,38.574,0
5007.314,-26.367,10.742,44.922,15.137,19.531,0
5007.318,4.883,9.277,43.945,13.672,16.113,0
5007.322,54.688,11.230,41.992,13.672,19.531,0
5007.326,28.809,9.766,39.062,14.648,20.996,0
5007.330,-20.508,10.254,38.574,15.625,26.855,0
5007.333,-2.441,15.137,41.016,21.484,46.875,0
5007.337,54.688,13.672,43.457,18.555,50.293,0
5007.341,48.340,15.137,42.480,5.371,23.438,0
5007.345,-5.859,14.160,40.527,10.742,37.598,0
5007.349,-9.277,12.695,44.434,20.020,42.480,0
5007.353,46.387,17.578,49.316,26.855,26.367,0
5007.357,65.430,15.625,44.922,25.391,55.176,0
5007.361,10.742,11.230,38.086,12.695,75.684,0
5007.365,-15.625,15.625,42.480,15.625,20.996,0
5007.369,40.039,18.066,49.805,21.484,24.902,0
5007.372,76.172,16.602,51.270,22.949,70.801,0
5007.376,25.391,17.090,48.340,27.832,45.898,0
5007.380,-18.555,19.043,49.316,29.297,14.160,0
5007.384,9.277,18.066,48.340,26.367,2.930,0
5007.388,62.500,17.090,45.410,21.973,59.082,0
5007.392,42.969,16.113,44.922,22.461,102.539,0
5007.396,-11.230,17.578,50.293,27.832,49.316,0
5007.400,-3.418,20.508,52.246,27.344,33.203,0
5007.404,54.199,19.531,48.340,25.391,59.570,0
5007.408,63.965,21.484,51.270,27.344,53.223,0
5007.412,5.859,18.066,52.734,20.996,15.137,0
5007.415,-12.207,12.207,48.828,14.648,20.508,0
5007.419,44.922,11.230,49.316,19.043,66.895,0
5007.423,67.871,13.672,48.828,18.555,89.355,0
5007.427,8.789,18.066,48.828,9.277,60.059,0
5007.431,-21.484,18.555,47.852,6.348,15.625,0
5007.435,32.227,20.508,45.898,13.672,29.785,0
5007.439,75.684,20.996,46.875,25.391,57.617,0
5007.443,30.762,19.043,45.410,25.391,42.480,0
5007.447,-16.113,18.066,42.480,20.020,20.020,0
5007.451,7.812,18.066,42.969,23.926,19.043,0
5007.455,61.523,19.043,45.898,26.367,35.645,0
5007.458,47.852,21.484,46.875,24.902,52.246,0
5007.462,-3.418,23.438,43.945,19.043,25.391,0
5007.466,-1.465,22.461,45.410,18.555,21.484,0
5007.470,53.223,17.578,46.875,24.902,36.621,0
5007.474,58.594,15.137,43.457,28.320,29.297,0
5007.478,-0.977,16.113,41.504,22.461,20.508,0
5007.482,-16.602,19.043,41.504,21.973,39.551,0
5007.486,42.480,19.531,44.434,27.832,46.875,0
5007.490,69.824,15.625,44.922,23.438,37.598,0
5007.494,19.043,14.160,42.480,13.672,41.992,0
5007.497,-19.043,14.160,44.922,17.090,37.109,0
5007.501,17.090,14.160,48.828,25.391,11.719,0
5007.505,65.430,17.090,44.922,26.367,46.387,0
5007.509,33.203,18.555,42.969,20.508,69.824,0
5007.513,-12.695,20.508,45.898,19.043,47.363,0
5007.517,5.371,25.391,45.410,17.090,15.137,0
5007.521,62.988,24.902,43.457,14.160,32.715,0
5007.525,56.641,21.484,41.992,15.625,77.148,0
5007.529,-7.324,21.484,43.945,16.602,39.062,0
5007.533,-7.812,20.020,48.340,16.602,14.648,0
5007.537,49.805,18.555,46.387,21.973,40.527,0
5007.540,67.383,20.996,44.922,32.715,64.941,0
5007.544,20.996,23.926,48.828,35.645,32.227,0
5007.548,-7.324,21.484,50.293,35.156,2.930,0
5007.552,41.504,21.484,49.805,39.062,41.016,0
5007.556,77.637,26.367,46.875,29.785,55.176,0
5007.560,25.879,25.879,44.434,17.578,50.293,0
5007.564,-16.602,20.996,47.852,20.508,35.645,0
5007.568,14.648,21.973,52.246,23.438,4.395,0
5007.572,67.383,24.414,52.734,24.902,45.898,0
5007.576,39.062,20.508,51.758,23.438,72.266,0
5007.580,-17.578,19.531,54.199,20.020,9.277,0
5007.583,-0.488,18.066,54.688,27.344,-28.809,0
5007.587,62.988,17.578,52.246,30.762,18.555,0
5007.591,59.570,18.066,48.340,25.879,49.316,0
5007.595,-0.488,19.531,46.875,19.531,26.855,0
5007.599,-8.789,20.508,48.340,26.855,5.859,0
5007.603,54.199,22.949,49.805,29.785,31.250,0
5007.607,70.801,23.926,48.828,24.902,46.387,0
5007.611,4.883,25.391,52.734,31.250,23.926,0
5007.615,-22.461,23.438,52.246,32.227,23.438,0
5007.619,28.320,20.996,51.758,29.785,36.621,0
5007.622,67.871,20.020,56.152,30.273,16.113,0
5007.626,22.461,20.508,53.223,25.879,-0.977,0
5007.630,-16.602,21.484,49.805,23.926,32.715,0
5007.634,19.043,20.508,45.898,24.414,51.758,0
5007.638,66.406,21.973,42.969,24.902,51.270,0
5007.642,43.457,21.973,45.898,23.438,43.457,0
5007.646,-6.348,24.902,43.945,23.926,17.090,0
5007.650,-2.441,25.879,42.969,24.902,2.441,0
5007.654,51.270,21.973,47.852,21.973,13.672,0
5007.658,54.199,23.438,50.781,23.438,23.438,0
5007.662,-3.418,22.461,46.875,16.113,29.297,0
5007.665,-20.996,20.996,43.457,12.695,20.020,0
5007.669,36.133,21.484,49.316,17.090,5.859,0
5007.673,68.359,20.508,48.340,20.996,31.738,0
5007.677,15.625,22.461,45.898,27.832,53.223,0
5007.681,-11.230,24.414,46.875,23.926,31.738,0
5007.685,33.203,20.996,45.410,23.438,51.270,0
5007.689,68.359,20.020,45.898,19.043,81.055,0
5007.693,28.320,19.043,40.527,10.254,37.109,0
5007.697,-18.555,18.555,38.574,11.230,5.371,0
5007.701,5.371,19.531,42.480,16.113,5.859,0
5007.705,56.641,18.066,41.016,13.672,31.738,0
5007.708,41.504,16.113,37.598,10.254,52.734,0
5007.712,-9.766,16.602,39.062,11.230,20.508,0
5007.716,-13.184,17.090,40.039,16.602,-9.277,0
5007.720,47.363,17.090,41.504,23.438,23.926,0
5007.724,60.059,17.090,42.969,21.973,72.266,0
5007.728,3.906,18.066,44.922,22.461,46.387,0
5007.732,-17.578,18.555,42.480,21.973,31.738,0
5007.736,32.227,19.531,40.039,20.020,54.688,0
5007.740,67.383,22.461,41.504,24.414,61.035,0
5007.744,13.184,21.484,41.016,14.160,49.316,0
5007.747,-22.461,21.484,40.039,8.301,26.367,0
5007.751,21.973,19.531,41.504,18.066,33.691,0
5007.755,65.918,16.602,43.945,21.973,54.199,0
5007.759,34.180,17.090,43.945,21.484,23.926,0
5007.763,-11.719,17.090,42.969,19.043,-4.883,0
5007.767,6.836,18.066,44.922,25.391,15.625,0
5007.771,56.641,16.602,45.410,28.809,43.457,0
5007.775,46.387,19.531,44.922,24.414,62.500,1
5007.779,-7.812,20.996,43.457,19.043,59.570,0
5007.783,-13.672,17.578,43.457,20.508,62.988,0
5007.787,42.480,18.555,44.434,24.902,49.316,0
5007.790,57.617,15.137,40.527,21.973,41.016,0
5007.794,-0.977,10.742,39.551,16.113,43.457,0
5007.798,-23.926,11.230,42.969,15.137,20.996,0
5007.802,29.297,16.602,47.852,25.391,23.926,0
5007.806,64.941,22.949,49.805,26.855,45.410,0
5007.810,19.043,21.484,47.363,11.719,5.859,0
5007.814,-14.648,22.461,44.434,10.742,13.184,0
5007.818,24.414,21.484,43.457,14.160,12.207,0
5007.822,77.148,17.090,44.434,7.812,5.859,0
5007.826,58.594,18.066,45.410,2.930,58.594,0
5007.830,12.695,20.996,43.945,2.441,64.453,0
5007.833,26.855,22.949,45.410,8.789,25.391,0
5007.837,80.078,21.484,50.293,18.066,34.668,0
5007.841,76.660,16.602,50.781,23.438,60.059,0
5007.845,12.695,14.160,49.316,31.250,23.926,0
5007.849,-16.113,22.461,48.340,21.973,-5.859,0
5007.853,21.484,24.414,43.945,8.789,40.527,0
5007.857,40.039,19.531,41.992,9.766,62.500,0
5007.861,-13.184,20.996,38.574,5.371,3.418,0
5007.865,-36.621,26.367,36.621,11.230,-0.488,0
5007.869,19.043,26.367,41.992,20.508,26.855,0
5007.872,55.664,19.043,44.434,17.578,29.297,0
5007.876,11.719,18.555,45.410,13.184,43.457,0
5007.880,-25.391,20.020,42.480,13.184,33.203,0
5007.884,10.742,20.996,39.062,17.578,36.133,0
5007.888,68.359,21.484,42.969,25.879,40.527,0
5007.892,43.945,21.973,41.016,26.855,34.180,0
5007.896,-17.090,22.461,37.598,16.602,40.039,0
5007.900,-7.812,21.484,38.086,13.672,31.250,0
5007.904,50.781,20.996,39.062,19.043,48.828,0
5007.908,55.176,20.996,44.922,16.113,30.273,0
5007.912,-5.859,20.996,42.480,10.742,31.250,0
5007.915,-23.438,15.137,37.109,12.207,64.453,0
5007.919,38.086,15.625,40.527,22.949,57.129,0
5007.923,64.453,17.578,41.992,28.320,47.852,0
5007.927,6.348,16.113,39.551,19.043,46.387,0
5007.931,-24.902,20.996,41.504,18.555,41.992,0
5007.935,22.461,18.555,44.922,21.484,26.855,0
5007.939,65.430,13.672,44.434,24.902,32.715,0
5007.943,24.902,15.137,42.969,22.949,31.250,0
5007.947,-19.531,16.113,40.527,20.020,1.465,0
5007.951,6.348,14.160,41.504,21.973,22.949,0
5007.955,64.941,15.137,44.434,26.367,26.367,0
5007.958,55.664,16.602,39.062,25.879,8.301,0
5007.962,-4.395,15.625,40.527,20.996,17.090,0
5007.966,-6.348,17.578,43.945,24.414,13.184,0
5007.970,50.781,17.090,43.945,28.320,39.062,0
5007.974,60.547,15.137,42.480,23.926,50.781,0
5007.978,0.000,12.695,41.992,17.090,10.254,0
5007.982,-18.066,12.207,43.945,17.578,-18.555,0
5007.986,39.551,12.695,42.969,26.367,13.184,0
5007.990,72.266,12.695,41.992,23.926,46.875,0
5007.994,23.438,13.184,44.434,20.508,20.508,0
5007.997,-15.625,15.137,50.293,23.926,0.000,0
5008.001,23.926,17.090,49.316,28.809,0.000,0
5008.005,70.801,17.578,47.852,23.926,26.855,0
5008.009,35.156,15.137,50.781,13.184,29.785,0
5008.013,-20.020,14.648,44.434,6.348,-5.371,0
5008.017,0.977,17.578,41.992,5.859,-12.695,0
5008.021,55.176,14.648,45.898,8.789,30.762,0
5008.025,47.363,14.160,48.828,9.277,53.223,0
5008.029,-6.836,13.672,44.434,6.348,36.133,0
5008.033,-17.578,12.207,41.016,5.859,21.973,0
5008.037,43.945,16.113,41.992,2.441,26.855,0
5008.040,64.453,17.578,45.898,5.371,29.297,0
5008.044,4.395,17.090,45.410,6.836,2.930,0
5008.048,-18.555,20.020,41.992,1.953,-26.855,0
5008.052,36.133,22.461,43.945,12.695,-1.465,0
5008.056,75.195,20.996,43.945,18.066,34.668,0
5008.060,29.297,20.020,42.480,13.672,11.230,0
5008.064,-9.277,20.996,41.016,15.625,-21.484,0
5008.068,30.273,23.438,40.527,23.926,-7.812,0
5008.072,81.543,20.020,43.945,27.344,19.531,0
5008.076,54.199,14.648,45.898,23.926,19.043,0
5008.080,0.488,16.113,47.363,24.414,-4.395,0
5008.083,9.277,16.113,45.898,26.367,-7.324,0
5008.087,60.059,16.602,47.852,26.855,12.695,0
5008.091,57.129,18.066,47.363,24.902,23.438,0
5008.095,3.906,14.648,45.898,20.996,50.781,0
5008.099,-4.395,10.742,52.734,22.461,28.809,0
5008.103,49.805,11.230,53.223,30.273,2.441,0
5008.107,68.848,16.602,48.828,30.273,41.016,0
5008.111,5.371,14.160,47.363,23.438,60.059,0
5008.115,-21.973,10.742,47.363,26.855,39.551,0
5008.119,29.297,18.555,47.363,28.320,74.219,0
5008.122,63.965,17.090,50.293,29.297,78.613,0
5008.126,19.043,12.207,50.293,28.809,41.992,0
5008.130,-25.879,13.672,49.805,24.902,21.973,0
5008.134,1.465,15.625,51.758,20.996,10.742,0
5008.138,51.270,15.137,49.805,16.602,13.184,0
5008.142,30.762,13.672,49.316,19.043,38.086,0
5008.146,-21.973,12.695,49.805,21.973,29.297,0
5008.150,-15.625,15.137,49.316,20.996,15.137,0
5008.154,41.504,15.137,48.828,27.832,56.152,0
5008.158,48.828,12.207,49.316,23.438,80.566,0
5008.162,-11.719,15.137,48.340,17.578,32.715,0
5008.165,-26.367,17.090,47.363,24.414,-25.391,0
5008.169,34.668,20.996,50.781,30.273,6.836,0
5008.173,61.035,19.043,50.781,26.855,32.227,0
5008.177,6.348,12.695,47.363,17.090,9.766,0
5008.181,-25.879,13.184,44.434,16.602,-15.625,0
5008.185,18.066,12.695,44.922,20.996,3.906,0
5008.189,60.059,10.742,44.434,25.879,26.855,0
5008.193,19.043,10.742,40.039,14.160,41.016,0
5008.197,-31.250,10.742,38.574,4.883,33.691,0
5008.201,-0.977,14.648,45.410,20.508,34.180,0
5008.205,52.246,13.672,49.805,27.344,66.895,0
5008.208,36.133,9.277,47.852,22.949,53.711,0
5008.212,-17.578,14.160,45.898,19.531,31.250,0
5008.216,-18.066,16.602,43.945,20.508,21.484,0
5008.220,36.621,13.184,45.410,22.461,52.246,0
5008.224,44.434,15.137,47.363,20.020,42.969,0
5008.228,-10.254,14.160,44.922,14.648,22.949,0
5008.232,-33.203,13.184,43.457,12.207,17.090,0
5008.236,18.555,13.184,45.410,15.137,30.762,0
5008.240,57.129,15.625,50.781,21.973,65.918,0
5008.244,7.324,14.648,47.363,17.090,43.457,0
5008.247,-34.180,12.695,43.945,15.137,15.625,0
5008.251,4.395,13.184,50.293,20.508,17.578,0
5008.255,54.688,15.625,51.270,20.020,34.180,0
5008.259,23.438,16.602,45.410,10.742,37.109,0
5008.263,-22.949,9.766,43.457,8.789,6.836,0
5008.267,-3.418,11.719,44.434,14.160,-20.508,0
5008.271,55.176,16.602,41.016,12.207,8.301,0
5008.275,48.828,14.160,41.992,9.766,45.410,0
5008.279,-18.066,10.742,43.457,6.348,25.391,0
5008.283,-29.297,14.648,41.504,8.301,9.277,0
5008.287,31.738,20.508,42.480,8.789,32.715,0
5008.290,50.781,17.578,41.992,5.371,45.410,0
5008.294,-9.766,12.207,39.062,0.488,36.621,0
5008.298,-41.504,11.230,37.109,-6.348,24.414,0
5008.302,11.230,14.160,40.039,-2.441,37.109,0
5008.306,46.875,14.648,42.480,-1.465,66.406,0
5008.310,-1.465,12.207,40.527,-8.301,46.387,0
5008.314,-40.039,13.184,38.574,-4.883,28.809,0
5008.318,-9.277,16.113,37.598,-8.301,41.504,0
5008.322,46.875,20.508,41.016,-5.371,55.176,0
5008.326,25.879,20.020,41.992,1.465,66.895,0
5008.330,-31.738,18.555,37.598,-6.836,24.902,0
5008.333,-24.902,18.555,35.645,-6.836,26.855,0
5008.337,34.180,17.090,36.133,1.953,52.734,0
5008.341,38.574,17.090,35.156,1.465,62.988,0
5008.345,-22.461,18.066,38.086,-3.418,51.758,0
5008.349,-31.738,20.508,41.992,1.465,10.254,0
5008.353,29.785,20.508,41.016,9.766,32.715,0
5008.357,52.246,20.508,41.016,10.742,56.152,0
5008.361,-6.836,20.020,40.039,7.812,32.227,0
5008.365,-35.156,20.508,39.062,4.883,16.113,0
5008.369,10.254,18.555,36.133,7.812,19.043,0
5008.372,49.316,16.113,35.645,8.789,16.602,0
5008.376,12.695,20.020,37.598,1.953,-0.488,0
5008.380,-33.203,20.996,36.621,-2.441,33.203,0
5008.384,-9.277,20.020,39.551,0.977,54.199,0
5008.388,48.828,19.531,42.480,4.395,32.227,0
5008.392,36.133,17.578,41.504,4.395,57.617,0
5008.396,-19.043,17.090,44.922,9.766,59.570,0
5008.400,-15.137,17.090,45.410,14.648,49.805,0
5008.404,40.039,18.066,46.387,12.695,55.176,0
5008.408,44.434,17.090,48.340,7.812,49.316,0
5008.412,-12.207,17.090,45.410,8.789,40.527,0
5008.415,-29.785,18.066,45.410,12.207,39.062,0
5008.419,25.391,19.531,50.293,15.625,25.879,0
5008.423,56.152,18.555,49.316,12.695,22.949,0
5008.427,5.859,18.555,43.457,8.789,65.430,0
5008.431,-27.832,20.508,43.457,11.230,54.199,0
5008.435,9.766,12.695,44.434,15.625,48.340,0
5008.439,53.223,12.207,43.457,13.672,65.918,0
5008.443,20.020,14.648,44.434,13.672,37.598,0
5008.447,-25.879,13.672,46.875,18.555,2.930,0
5008.451,2.441,16.602,49.805,24.414,-10.742,0
5008.455,58.105,15.625,50.781,26.855,31.738,0
5008.458,43.945,14.160,47.363,15.137,63.965,0
5008.462,-17.578,15.625,45.410,7.812,18.555,0
5008.466,-16.602,16.602,46.387,8.301,-15.625,0
5008.470,48.340,15.137,47.852,17.090,23.926,0
5008.474,63.965,16.113,47.852,20.508,62.988,0
5008.478,7.324,18.555,47.363,11.719,50.781,0
5008.482,-15.625,20.996,46.875,12.695,23.926,0
5008.486,37.598,20.996,43.945,20.508,28.320,0
5008.490,68.848,18.555,41.992,17.578,39.062,0
5008.494,17.090,20.508,40.527,8.789,49.805,0
5008.497,-21.973,21.973,41.016,6.348,45.410,0
5008.501,11.719,20.508,45.410,5.371,45.898,0
5008.505,62.012,22.949,47.363,3.906,55.664,0
5008.509,29.297,21.973,45.410,0.488,3.906,0
5008.513,-26.855,20.508,44.922,-0.977,3.418,0
5008.517,-8.789,21.973,45.898,2.930,36.133,0
5008.521,47.852,21.973,46.875,5.371,46.875,0
5008.525,43.457,18.555,47.363,13.184,62.500,0
5008.529,-8.301,18.066,47.363,18.555,41.992,0
5008.533,-17.578,21.973,48.340,15.625,30.762,0
5008.537,39.062,24.414,49.316,18.066,28.320,0
5008.540,63.477,23.438,49.316,20.996,14.160,0
5008.544,4.883,19.531,46.387,13.672,9.277,0
5008.548,-25.391,20.020,44.434,12.207,-5.859,0
5008.552,24.902,20.508,45.410,13.184,-3.906,0
5008.556,67.871,19.531,44.922,13.672,27.344,0
5008.560,23.438,19.043,42.480,17.090,25.391,0
5008.564,-22.461,14.160,41.992,17.090,0.977,0
5008.568,9.766,15.137,43.457,19.043,19.043,0
5008.572,61.035,16.113,48.340,20.996,45.898,0
5008.576,38.086,16.602,45.898,17.578,62.012,0
5008.580,-18.066,18.066,41.504,15.625,36.621,0
5008.583,-6.836,17.090,46.875,18.066,4.395,0
5008.587,54.199,15.625,47.363,21.973,48.828,0
5008.591,55.664,20.020,43.945,19.043,70.801,0
5008.595,-9.766,20.508,43.945,14.648,54.199,0
5008.599,-29.297,15.137,43.457,15.137,5.371,0
5008.603,35.156,16.602,45.898,18.555,26.367,0
5008.607,65.430,16.602,46.875,23.926,79.102,0
5008.611,13.672,14.160,44.434,18.066,45.898,0
5008.615,-6.836,15.137,44.434,17.578,36.621,0
5008.619,43.457,20.020,47.363,15.137,56.152,0
5008.622,86.914,24.414,49.316,7.324,74.219,0
5008.626,50.293,20.996,47.852,0.000,47.363,0
5008.630,3.906,17.578,48.828,-2.441,-6.348,0
5008.634,33.203,20.020,44.922,4.395,8.789,0
5008.638,77.148,19.043,41.992,10.254,48.340,0
5008.642,47.363,18.066,43.457,13.672,43.457,0
5008.646,-14.648,18.066,44.434,12.207,22.461,0
5008.650,-16.602,17.090,46.875,20.508,20.508,0
5008.654,40.039,16.602,48.828,21.973,41.016,0
5008.658,42.480,15.137,50.781,14.160,40.527,0
5008.662,-17.578,15.137,49.316,16.113,9.766,0
5008.665,-29.297,13.672,47.363,13.184,33.203,0
5008.669,25.391,12.695,43.457,17.090,62.500,0
5008.673,52.246,12.207,42.480,15.137,48.340,0
5008.677,1.953,18.066,47.852,8.301,21.973,0
5008.681,-25.879,21.973,45.898,11.719,2.930,0
5008.685,18.066,17.578,45.898,24.902,-9.766,0
5008.689,63.477,15.625,50.781,30.762,22.949,0
5008.693,31.250,17.090,51.270,26.367,42.480,0
5008.697,-4.883,18.066,49.805,29.297,35.645,0
5008.701,17.578,17.090,51.758,30.762,41.016,0
5008.705,52.246,15.137,52.246,18.066,38.086,0
5008.708,41.504,11.230,47.363,12.695,36.621,0
5008.712,-7.324,15.625,48.828,14.160,38.086,0
5008.716,-10.742,20.996,50.781,14.648,30.273,0
5008.720,48.828,17.090,48.828,18.066,31.738,0
5008.724,68.359,15.137,49.805,25.879,55.176,0
5008.728,13.184,13.672,48.828,23.438,29.297,0
5008.732,-10.254,13.672,49.316,26.367,11.719,0
5008.736,37.598,14.160,49.805,32.227,52.734,0
5008.740,64.941,12.695,49.805,21.484,65.430,0
5008.744,24.414,12.695,49.805,16.113,33.691,0
5008.747,-10.254,16.113,46.875,21.973,-3.418,0
5008.751,19.531,20.996,45.410,20.020,-5.371,0
5008.755,71.289,18.066,44.922,21.484,41.992,0
5008.759,48.828,17.090,44.434,21.973,62.500,0
5008.763,-5.859,16.602,45.898,21.973,43.457,0
5008.767,0.977,13.184,49.805,20.508,31.250,0
5008.771,61.035,17.578,46.387,20.020,49.805,0
5008.775,62.500,20.020,41.992,20.996,82.520,0
5008.779,1.465,22.949,42.480,18.555,71.289,0
5008.783,-9.277,22.949,45.898,16.113,35.645,0
5008.787,51.270,19.531,45.898,17.090,50.781,0
5008.790,73.242,20.996,39.062,17.578,41.992,0
5008.794,9.766,19.531,38.574,9.766,11.719,0
5008.798,-17.090,20.020,41.504,14.160,12.207,0
5008.802,34.668,21.484,41.992,24.414,22.949,0
5008.806,69.336,20.020,43.457,20.508,49.805,0
5008.810,26.855,22.949,43.945,19.531,56.641,0
5008.814,-16.113,21.484,41.992,16.113,46.387,0
5008.818,20.020,20.020,42.969,20.996,36.621,0
5008.822,74.707,19.043,46.387,30.273,55.664,0
5008.826,43.945,15.137,45.410,18.066,56.152,0
5008.830,-12.207,18.066,44.434,14.160,31.738,0
5008.833,-4.883,17.578,45.410,13.672,35.156,0
5008.837,56.152,17.090,47.363,10.254,34.180,0
5008.841,62.500,23.926,46.387,12.695,17.578,0
5008.845,4.395,22.461,46.387,14.648,29.785,0
5008.849,-12.207,17.090,46.387,11.230,43.457,0
5008.853,44.922,15.625,48.340,11.230,54.199,0
5008.857,75.684,15.137,49.316,19.043,59.570,0
5008.861,21.484,17.578,46.387,18.066,37.598,0
5008.865,-16.602,17.578,46.387,11.230,32.227,0
5008.869,24.414,15.137,47.363,13.184,42.969,0
5008.872,75.195,15.137,49.805,19.531,52.246,0
5008.876,38.574,17.578,47.852,16.113,36.133,0
5008.880,-15.625,16.602,46.875,11.719,14.648,0
5008.884,12.695,14.160,50.293,17.578,-1.953,0
5008.888,65.430,11.719,47.852,16.602,25.391,0
5008.892,43.945,12.695,47.363,15.137,43.945,0
5008.896,-10.254,18.066,48.340,20.996,-9.766,0
5008.900,-5.859,18.066,46.875,20.508,-15.137,0
5008.904,51.270,16.113,49.805,20.508,27.344,0
5008.908,63.965,18.066,52.734,21.973,22.949,0
5008.912,1.953,16.113,51.758,20.996,4.395,0
5008.915,-25.879,14.648,48.828,17.090,17.090,0
5008.919,34.668,18.066,49.316,21.973,40.527,0
5008.923,72.266,15.137,49.805,28.809,40.527,0
5008.927,17.578,16.113,48.340,22.461,26.855,0
5008.931,-20.020,18.066,48.340,19.531,2.930,0
5008.935,21.973,18.555,46.875,27.832,17.578,0
5008.939,71.777,20.020,47.363,27.832,74.707,0
5008.943,39.551,20.020,49.316,23.438,87.891,0
5008.947,-11.719,19.043,48.828,20.996,39.062,0
5008.951,7.812,12.695,48.340,20.508,31.738,0
5008.955,66.406,15.137,46.875,28.809,72.754,0
5008.958,52.246,21.973,45.898,28.320,67.871,0
5008.962,-5.371,18.555,44.434,27.832,36.621,0
5008.966,-0.977,19.043,46.387,38.574,26.855,0
5008.970,47.852,19.043,51.758,30.273,34.180,0
5008.974,54.199,17.090,50.293,14.648,16.602,0
5008.978,-1.953,17.090,48.828,13.672,25.391,0
5008.982,-22.461,18.066,48.828,21.973,42.969,0
5008.986,29.297,18.066,48.340,24.902,11.230,0
5008.990,63.477,14.648,48.340,20.020,28.320,0
5008.994,14.648,13.672,49.316,15.625,40.527,0
5008.997,-22.461,16.602,51.758,18.066,-0.488,0
5009.001,11.230,16.113,49.805,20.508,-3.906,0
5009.005,60.547,17.578,47.852,15.137,36.133,0
5009.009,30.273,19.043,46.387,11.230,38.086,0
5009.013,-26.367,15.625,43.945,11.230,8.301,0
5009.017,-8.301,16.113,46.875,17.090,4.395,0
5009.021,48.828,14.648,47.852,16.113,34.180,0
5009.025,47.852,14.160,47.363,9.766,63.965,0
5009.029,-10.254,18.066,48.828,13.184,56.641,0
5009.033,-20.020,21.973,52.246,19.531,42.969,0
5009.037,43.457,22.461,54.688,24.902,54.688,0
5009.040,64.453,20.020,50.781,22.461,56.641,0
5009.044,2.441,19.043,45.898,15.625,27.832,0
5009.048,-36.133,17.090,45.410,19.531,15.137,0
5009.052,8.789,13.672,45.410,20.508,39.551,0
5009.056,58.594,17.090,45.410,22.949,66.406,0
5009.060,23.926,18.555,45.898,24.902,65.430,0
5009.064,-18.555,14.648,44.922,27.344,28.320,0
5009.068,6.348,14.648,44.434,29.297,5.371,0
5009.072,55.176,12.695,42.969,24.414,36.621,0
5009.076,38.086,12.695,41.016,21.484,62.012,0
5009.080,-13.184,13.672,41.992,24.414,19.043,0
5009.083,-3.418,17.090,45.410,29.785,14.648,0
5009.087,54.688,18.555,49.316,31.250,55.664,0
5009.091,59.570,15.625,52.246,32.227,41.992,0
5009.095,3.418,16.602,49.316,27.344,13.672,0
5009.099,-10.742,14.160,47.363,25.391,-0.488,0
5009.103,47.363,13.184,48.828,27.344,16.113,0
5009.107,69.336,16.602,47.852,25.391,35.645,0
5009.111,7.812,15.625,45.898,25.879,34.180,0
5009.115,-23.926,17.578,48.340,25.879,22.461,0
5009.119,22.461,19.043,49.805,28.809,22.461,0
5009.122,65.430,18.066,49.316,28.320,19.043,0
5009.126,29.785,20.508,47.852,21.973,21.484,0
5009.130,-11.719,20.508,44.434,21.484,27.344,0
5009.134,14.648,20.508,43.457,23.438,30.762,0
5009.138,65.918,19.043,45.410,24.414,47.363,0
5009.142,51.270,20.020,45.410,25.391,44.922,0
5009.146,-2.441,23.438,43.945,23.438,26.367,0
5009.150,-2.930,20.508,45.410,21.973,5.859,0
5009.154,62.012,20.020,48.340,24.902,32.715,0
5009.158,76.660,20.996,48.828,25.879,61.523,0
5009.162,9.277,17.578,47.363,23.926,7.812,0
5009.165,-16.602,20.508,45.410,26.367,7.324,0
5009.169,36.621,19.043,47.363,25.391,45.410,0
5009.173,76.660,17.090,51.270,28.320,44.434,0
5009.177,26.367,17.578,48.828,26.367,31.250,0
5009.181,-11.719,17.578,46.387,25.391,23.926,0
5009.185,33.691,21.973,46.875,30.273,24.902,0
5009.189,83.984,20.020,46.387,28.320,37.109,0
5009.193,56.641,16.602,48.828,30.273,37.109,0
5009.197,4.883,16.602,50.293,35.156,13.184,0
5009.201,14.160,13.672,48.340,32.715,12.695,0
5009.205,68.848,13.184,48.828,31.738,28.320,0
5009.208,63.965,16.602,48.828,27.832,42.480,0
5009.212,1.465,17.090,48.340,25.391,33.691,0
5009.216,-4.395,13.672,47.852,27.344,-5.371,0
5009.220,61.035,12.695,47.363,27.344,8.301,0
5009.224,78.613,15.137,48.828,29.785,44.434,0
5009.228,15.625,18.555,51.270,25.391,40.527,0
5009.232,-8.789,18.555,48.828,21.484,30.762,0
5009.236,46.387,19.043,47.363,25.391,34.180,0
5009.240,82.031,20.996,45.898,26.367,37.109,0
5009.244,32.227,20.996,44.922,27.344,9.277,0
5009.247,-8.789,18.066,46.387,29.297,-10.254,0
5009.251,24.414,16.113,47.363,28.809,4.395,0
5009.255,74.219,16.113,49.316,28.809,32.227,0
5009.259,45.898,12.695,48.340,22.461,33.691,0
5009.263,-7.324,17.578,47.363,21.973,27.832,0
5009.267,3.906,19.531,47.852,26.855,43.457,0
5009.271,55.176,15.137,43.945,23.926,31.738,0
5009.275,56.641,16.602,43.945,23.926,24.902,0
5009.279,0.000,15.625,43.457,18.555,42.969,0
5009.283,-9.766,15.137,44.922,20.996,79.102,0
5009.287,45.410,17.578,47.852,25.879,67.871,0
5009.290,66.895,19.043,45.410,20.508,57.129,0
5009.294,12.695,20.020,42.969,18.066,49.805,0
5009.298,-18.555,21.484,45.898,22.461,31.738,0
5009.302,27.344,20.508,48.828,25.391,16.113,0
5009.306,65.918,17.090,45.898,20.508,6.348,0
5009.310,29.785,19.531,42.969,20.020,31.738,0
5009.314,-10.254,23.438,42.480,21.484,21.973,0
5009.318,11.230,19.531,39.551,18.066,27.832,0
5009.322,58.105,17.578,41.016,18.555,75.684,0
5009.326,40.527,18.555,44.922,14.648,73.730,0
5009.330,-8.789,15.625,47.363,14.160,56.152,0
5009.333,-2.441,14.160,46.875,24.414,48.828,0
5009.337,48.340,15.137,44.922,28.320,21.973,0
5009.341,54.199,18.555,46.875,22.949,41.504,0
5009.345,-0.488,20.508,46.387,23.926,26.855,0
5009.349,-17.578,21.973,45.410,24.902,-18.066,0
5009.353,43.945,24.414,48.340,26.367,23.926,0
5009.357,82.031,22.461,47.852,26.855,69.824,0
5009.361,24.902,20.508,46.387,21.973,27.832,0
5009.365,-15.625,20.020,46.875,21.484,4.395,0
5009.369,26.855,20.508,47.363,24.902,31.250,0
5009.372,67.383,19.043,47.852,24.902,23.438,0
5009.376,26.855,18.066,47.852,20.020,32.227,0
5009.380,-20.020,18.555,46.387,20.508,22.461,0
5009.384,4.883,19.531,43.945,24.902,32.227,0
5009.388,61.035,20.508,44.434,27.832,79.102,0
5009.392,45.898,18.555,44.434,21.484,64.941,0
5009.396,-9.766,17.578,43.457,17.578,11.230,0
5009.400,2.930,18.066,43.457,15.137,5.859,0
5009.404,65.430,18.555,41.992,12.695,48.828,0
5009.408,78.613,19.531,39.551,9.766,38.086,0
5009.412,26.855,21.484,38.574,0.000,30.762,0
5009.415,12.207,20.020,40.039,1.953,51.758,0
5009.419,68.359,22.949,43.457,13.184,42.969,0
5009.423,88.867,22.461,42.480,15.625,45.410,0
5009.427,26.855,15.137,37.598,11.719,42.480,0
5009.431,-14.648,18.066,43.457,13.184,36.621,0
5009.435,20.996,20.996,50.293,23.438,32.715,0
5009.439,66.406,19.531,49.805,30.762,26.855,0
5009.443,26.367,17.578,48.828,28.320,36.133,0
5009.447,-25.391,20.020,47.363,28.320,34.180,0
5009.451,-7.324,20.996,45.898,30.273,11.230,0
5009.455,48.340,16.113,44.434,28.809,17.090,0
5009.458,46.387,14.160,44.434,22.949,41.504,0
5009.462,-11.230,14.160,46.875,22.461,43.945,0
5009.466,-21.973,12.695,47.363,20.996,12.695,0
5009.470,37.598,14.648,45.898,23.438,32.227,0
5009.474,54.688,17.578,46.387,23.438,65.918,0
5009.478,-3.906,16.113,47.852,20.020,65.430,0
5009.482,-30.273,12.695,47.852,18.066,41.992,0
5009.486,16.602,12.695,47.852,16.602,19.531,0
5009.490,59.082,13.672,48.340,21.973,32.715,0
5009.494,14.648,13.184,48.340,22.461,24.414,0
5009.497,-35.156,15.137,49.316,19.043,3.418,0
5009.501,0.977,16.113,52.734,21.973,-5.371,0
5009.505,57.617,15.625,51.270,22.461,22.461,0
5009.509,26.855,11.230,43.945,14.160,41.992,0
5009.513,-25.391,11.719,43.457,9.766,26.367,0
5009.517,-6.836,15.625,48.340,16.602,39.551,0
5009.521,50.781,17.578,47.852,18.555,79.590,0
5009.525,54.688,17.578,44.434,15.137,61.523,0
5009.529,4.883,16.602,43.945,18.066,18.066,0
5009.533,-8.789,15.625,44.922,20.996,19.531,0
5009.537,47.852,14.160,43.457,22.949,37.109,0
5009.540,71.289,14.160,46.387,20.996,68.848,0
5009.544,13.184,12.207,42.480,14.160,22.461,0
5009.548,-13.184,16.113,41.016,13.672,-22.461,0
5009.552,40.039,20.020,44.922,23.926,24.414,0
5009.556,80.566,19.531,44.922,30.762,35.645,0
5009.560,30.273,20.020,45.410,25.879,5.371,0
5009.564,-13.672,18.555,41.992,22.949,20.508,0
5009.568,17.090,16.602,41.016,28.320,29.785,0
5009.572,67.871,18.555,45.410,34.668,16.113,0
5009.576,49.805,17.578,47.852,28.809,23.438,0
5009.580,-8.789,13.672,45.898,23.926,34.180,0
5009.583,0.488,16.602,45.410,27.344,23.438,0
5009.587,55.664,15.625,47.363,25.879,10.254,0
5009.591,56.641,14.160,45.410,18.066,18.555,0
5009.595,9.277,16.113,43.945,18.066,25.391,0
5009.599,-6.348,16.602,46.387,30.762,27.344,0
5009.603,41.016,13.672,49.805,32.715,47.363,0
5009.607,75.195,16.113,51.758,27.832,51.270,0
5009.611,22.949,18.066,47.852,22.949,38.574,0
5009.615,-15.625,17.090,45.898,21.484,8.789,0
5009.619,32.715,19.043,47.852,25.391,8.301,0
5009.622,75.195,14.160,46.387,23.926,43.945,0
5009.626,34.668,10.254,43.945,16.602,39.062,0
5009.630,-13.672,14.160,43.457,20.996,9.766,0
5009.634,8.301,16.602,43.945,21.484,-3.906,0
5009.638,62.500,15.625,45.410,17.090,27.832,0
5009.642,50.781,15.625,44.922,16.113,74.707,0
5009.646,-4.395,14.160,39.551,14.160,47.852,0
5009.650,-6.348,13.672,40.527,17.578,3.418,0
5009.654,50.293,14.160,45.410,20.508,20.508,0
5009.658,62.012,13.672,45.410,20.020,43.945,0
5009.662,5.859,13.672,44.922,20.508,40.527,0
5009.665,-20.020,16.602,44.922,20.996,11.719,0
5009.669,35.156,20.508,48.828,20.508,13.184,0
5009.673,71.777,18.066,48.828,17.578,54.199,0
5009.677,17.578,14.160,41.992,15.137,34.180,0
5009.681,-22.461,14.648,41.992,18.066,-4.395,0
5009.685,21.484,18.066,43.945,22.461,5.371,0
5009.689,69.336,18.555,43.457,25.391,47.363,0
5009.693,39.551,17.090,43.457,23.926,44.922,0
5009.697,-7.324,21.484,43.457,22.949,31.250,0
5009.701,6.836,20.508,42.480,25.391,58.105,0
5009.705,67.383,17.578,43.457,35.156,56.152,0
5009.708,64.453,20.020,50.293,39.551,40.039,0
5009.712,5.859,17.578,51.758,31.738,24.902,0
5009.716,-8.301,18.066,49.316,35.156,10.254,0
5009.720,47.852,23.438,51.270,41.016,39.062,0
5009.724,74.707,22.949,50.781,36.133,58.105,0
5009.728,18.555,16.602,49.316,30.762,43.457,0
5009.732,-8.301,15.625,47.363,31.738,37.109,0
5009.736,40.527,16.602,45.410,35.645,63.965,0
5009.740,79.102,13.672,46.387,35.156,52.246,0
5009.744,34.668,13.672,43.945,31.738,33.203,0
5009.747,-5.859,18.066,44.922,34.180,2.930,0
5009.751,33.203,17.090,45.410,33.203,-15.625,0
5009.755,76.660,15.625,45.410,29.785,27.344,0
5009.759,44.922,16.602,45.410,31.250,47.852,0
5009.763,-6.348,16.113,44.434,29.297,30.762,0
5009.767,5.371,19.043,46.875,30.273,19.531,0
5009.771,63.965,20.508,48.828,31.738,43.945,0
5009.775,62.988,13.184,43.457,24.414,49.805,0
5009.779,5.859,10.742,41.016,19.043,33.203,0
5009.783,-12.207,16.113,43.457,20.508,0.488,0
5009.787,40.039,16.113,42.969,19.531,12.695,0
5009.790,73.730,16.602,45.410,25.391,52.246,0
5009.794,20.996,18.555,41.992,26.367,26.855,0
5009.798,-15.625,18.555,38.574,23.926,-9.766,0
5009.802,33.203,20.508,42.969,28.809,17.578,0
5009.806,75.684,19.531,46.875,30.762,81.543,0
5009.810,30.762,18.066,45.410,24.414,64.453,0
5009.814,-7.812,17.578,44.922,26.367,20.508,0
5009.818,20.996,17.090,47.363,29.785,30.762,0
5009.822,65.918,18.066,45.410,33.203,73.242,0
5009.826,48.340,15.625,46.387,28.320,72.266,0
5009.830,-7.324,13.184,46.387,16.113,11.230,0
5009.833,-2.930,15.625,41.504,19.531,20.508,0
5009.837,57.129,15.625,44.434,26.855,68.848,0
5009.841,61.523,13.672,44.922,24.902,45.410,0
5009.845,4.395,12.695,40.527,23.438,9.766,0
5009.849,-12.695,13.672,42.969,22.949,-0.977,0
5009.853,40.527,14.160,46.875,26.855,39.062,0
5009.857,67.383,16.602,47.363,31.738,69.824,0
5009.861,17.090,16.602,44.434,28.320,20.020,0
5009.865,-14.648,13.184,43.945,25.879,0.488,0
5009.869,21.484,15.137,47.852,29.297,32.715,0
5009.872,63.965,16.602,51.270,29.297,44.922,0
5009.876,27.832,12.695,48.340,22.461,27.832,0
5009.880,-18.066,12.695,42.969,22.461,22.461,0
5009.884,9.277,14.648,45.898,27.344,18.066,0
5009.888,62.988,15.137,47.363,28.320,32.715,0
5009.892,49.805,14.160,46.875,31.738,34.668,0
5009.896,-3.418,13.672,44.922,27.344,8.789,0
5009.900,-8.301,14.160,40.527,23.926,9.277,0
5009.904,47.852,13.672,48.828,27.832,18.555,0
5009.908,64.453,12.207,50.781,27.344,8.301,0
5009.912,7.812,10.254,44.922,24.902,0.977,0
5009.915,-16.113,16.602,49.316,25.879,-7.324,0
5009.919,31.250,15.625,50.293,25.391,6.348,0
5009.923,66.406,13.184,48.340,23.438,37.109,0
5009.927,17.578,16.113,46.875,21.973,39.062,0
5009.931,-24.902,15.137,47.852,20.020,-5.859,0
5009.935,18.555,17.578,50.781,22.949,-7.812,0
5009.939,70.801,20.508,48.340,21.973,57.129,0
5009.943,38.086,20.020,46.875,19.043,65.430,0
5009.947,-13.672,20.996,48.340,21.484,53.711,0
5009.951,1.465,20.020,42.969,23.438,34.668,0
5009.955,58.594,17.090,41.504,22.461,39.551,0
5009.958,60.059,20.020,46.875,18.066,64.453,0
5009.962,-2.441,19.043,46.875,3.906,21.973,0
5009.966,-20.508,15.137,42.969,3.906,-0.977,0
5009.970,37.598,17.090,42.969,16.113,41.016,0
5009.974,59.570,18.066,41.016,15.137,59.082,0
5009.978,3.906,20.996,38.086,12.207,26.367,0
5009.982,-16.113,21.973,38.574,14.160,-16.602,0
5009.986,37.109,21.484,40.039,19.043,6.836,0
5009.990,71.289,21.484,43.945,21.973,41.992,0
5009.994,23.438,21.484,46.875,22.461,35.156,0
5009.997,-19.531,17.578,47.363,21.973,12.695,0
5010.001,14.160,17.090,47.363,21.484,1.953,0
5010.005,66.895,16.602,43.457,24.902,37.598,0
5010.009,44.922,17.090,41.992,23.438,28.809,0
5010.013,-10.742,18.066,41.016,17.578,28.809,0
5010.017,0.488,13.184,40.039,16.602,53.711,0
5010.021,58.594,15.137,42.969,17.578,34.180,0
5010.025,51.758,18.066,40.039,14.648,33.691,0
5010.029,-6.836,18.066,43.457,16.113,40.039,0
5010.033,-20.020,19.043,45.410,15.625,27.344,0
5010.037,31.738,16.602,41.504,10.254,44.434,0
5010.040,62.012,13.672,42.480,14.160,80.566,0
5010.044,9.766,14.648,41.016,10.742,52.246,0
5010.048,-26.367,14.160,40.527,9.277,13.184,0
5010.052,22.461,16.602,42.480,23.926,1.953,0
5010.056,66.895,18.066,42.969,21.973,18.066,0
5010.060,23.438,13.672,37.598,11.719,47.852,0
5010.064,-20.020,15.137,39.551,14.648,45.898,0
5010.068,11.230,21.973,46.387,21.973,21.484,0
5010.072,65.430,19.043,44.922,20.996,30.273,0
5010.076,46.387,13.184,41.504,17.090,47.852,0
5010.080,-6.348,16.602,41.504,16.602,17.090,0
5010.083,-5.859,16.113,43.945,19.531,11.719,0
5010.087,50.781,14.160,46.875,20.996,56.641,0
5010.091,63.965,16.602,47.363,22.461,77.637,0
5010.095,7.324,18.555,45.410,22.461,26.855,0
5010.099,-13.672,17.578,42.480,19.531,-7.324,0
5010.103,41.504,20.020,42.480,24.902,49.805,0
5010.107,75.684,24.414,46.387,33.203,71.289,0
5010.111,24.902,22.461,45.898,22.949,38.574,0
5010.115,-15.625,17.090,41.504,17.578,13.184,0
5010.119,26.855,17.090,41.992,29.785,0.488,0
5010.122,79.590,19.531,42.969,32.227,30.273,0
5010.126,32.227,18.066,39.551,21.484,34.668,0
5010.130,-28.809,13.672,40.527,15.625,35.645,0
5010.134,-7.324,12.207,41.016,19.531,34.180,0
5010.138,51.758,12.695,41.504,19.043,47.852,0
5010.142,39.551,14.648,42.480,15.625,50.293,0
5010.146,-12.695,16.602,42.969,19.531,-4.883,0
5010.150,-7.812,20.020,45.410,22.949,-2.930,0
5010.154,48.340,19.043,47.363,26.855,21.973,0
5010.158,62.500,20.508,47.852,26.367,23.438,0
5010.162,0.000,17.578,44.434,19.531,42.480,0
5010.165,-26.855,12.207,43.945,21.484,25.391,0
5010.169,19.531,12.695,46.875,26.367,14.648,0
5010.173,55.664,13.184,46.875,25.879,15.625,0
5010.177,14.648,18.066,47.363,19.531,25.879,0
5010.181,-19.043,20.996,47.363,13.672,32.227,0
5010.185,24.414,16.602,46.387,10.742,5.371,0
5010.189,78.613,16.113,46.387,8.789,34.668,0
5010.193,62.012,16.113,44.922,3.418,28.320,0
5010.197,20.508,17.578,42.480,7.324,15.625,0
5010.201,33.691,20.996,41.504,10.254,29.297,0
5010.205,80.078,20.996,41.504,4.883,21.484,0
5010.208,67.383,18.555,40.527,8.301,42.969,0
5010.212,2.441,16.602,42.480,17.090,24.414,0
5010.216,-14.160,16.602,46.875,23.438,-10.254,0
5010.220,37.109,17.578,47.852,26.367,16.113,0
5010.224,53.711,14.648,48.340,26.367,35.645,0
5010.228,-2.930,16.602,47.852,25.879,30.273,0
5010.232,-30.762,19.531,45.898,24.414,17.578,0
5010.236,17.090,16.113,45.898,20.996,36.133,0
5010.240,59.082,14.160,44.922,17.090,91.309,0
5010.244,15.625,13.672,42.480,16.602,72.266,0
5010.247,-30.273,15.625,45.898,19.043,-2.930,0
5010.251,3.906,15.625,48.828,17.578,-0.488,0
5010.255,58.594,18.066,44.434,17.090,59.082,0
5010.259,36.621,18.555,41.016,18.555,79.590,0
5010.263,-17.090,14.160,41.016,16.113,48.340,0
5010.267,-8.789,12.695,45.410,18.066,12.207,0
5010.271,49.805,12.695,45.410,22.949,63.965,0
5010.275,54.199,14.648,44.434,22.461,98.145,0
5010.279,-3.418,14.160,46.387,23.438,66.406,0
5010.283,-23.926,11.230,44.434,23.926,46.875,0
5010.287,34.668,12.695,47.852,29.297,55.176,0
5010.290,66.895,12.207,47.363,27.832,57.617,0
5010.294,11.230,14.160,42.480,17.090,28.809,0
5010.298,-16.602,16.113,41.016,13.672,33.691,0
5010.302,31.738,12.207,42.969,20.996,52.246,0
5010.306,65.430,12.207,45.898,22.949,52.734,0
5010.310,23.438,12.695,44.434,16.113,67.383,0
5010.314,-16.602,16.602,42.480,15.625,49.805,0
5010.318,8.789,20.020,44.922,16.602,21.484,0
5010.322,59.082,15.625,47.852,20.996,53.711,0
5010.326,43.457,11.719,44.434,22.461,73.242,0
5010.330,-8.301,15.137,45.410,21.484,41.504,0
5010.333,-3.906,20.996,47.852,20.508,18.066,0
5010.337,48.340,16.113,46.875,14.648,21.484,0
5010.341,55.664,15.137,47.852,13.184,20.020,0
5010.345,0.488,16.113,40.527,14.648,11.719,0
5010.349,-23.926,15.137,36.133,13.184,6.348,0
5010.353,30.762,17.090,41.992,14.648,16.113,0
5010.357,71.289,18.066,45.410,20.020,40.039,0
5010.361,20.020,19.043,43.457,17.578,12.207,0
5010.365,-17.090,20.996,38.574,13.184,13.672,0
5010.369,26.855,22.461,40.527,20.996,31.738,0
