timestamps,TP9,AF7,AF8,TP10,Right AUX,Marker0
10130.841,14.160,51.758,55.176,22.461,-13.672,2
10130.845,44.922,54.688,56.641,34.180,54.688,0
10130.849,34.668,55.664,59.082,27.832,85.938,0
10130.853,5.859,53.711,60.547,25.391,40.527,0
10130.857,19.043,52.246,58.105,22.949,49.316,0
10130.861,42.480,53.711,55.664,26.367,63.965,0
10130.865,40.039,54.688,55.176,23.438,30.273,0
10130.869,11.230,54.199,55.664,11.719,-9.277,0
10130.872,5.371,53.223,57.617,9.766,11.230,0
10130.876,35.645,50.293,58.105,18.066,38.086,0
10130.880,48.340,51.270,58.105,25.391,60.547,0
10130.884,29.785,50.781,58.105,16.113,39.062,0
10130.888,11.719,50.293,56.641,9.766,-3.906,0
10130.892,20.020,52.246,57.617,16.602,27.832,0
10130.896,43.457,53.223,57.617,29.297,94.727,0
10130.900,23.438,48.340,53.711,21.973,85.449,0
10130.904,-6.836,46.387,54.688,14.648,14.160,0
10130.908,5.859,51.758,56.152,20.996,5.371,0
10130.912,31.250,50.781,52.734,20.508,62.012,0
10130.915,28.320,47.852,53.223,19.531,60.059,0
10130.919,6.348,49.316,53.223,18.555,1.465,0
10130.923,11.230,51.758,51.270,20.508,-19.531,0
10130.927,38.086,51.270,53.223,28.809,35.156,0
10130.931,37.109,50.293,54.688,27.344,68.359,0
10130.935,9.277,52.734,51.270,19.043,22.461,0
10130.939,6.836,53.711,49.316,15.137,-21.484,0
10130.943,30.273,55.176,53.223,25.391,46.387,0
10130.947,41.992,55.664,54.688,30.273,91.309,0
10130.951,20.996,52.246,52.734,20.508,25.391,0
10130.955,-2.930,52.734,50.781,20.508,-34.180,0
10130.958,20.996,49.316,53.223,27.832,-5.371,0
10130.962,62.500,48.828,51.270,40.527,70.801,0
10130.966,54.688,53.711,49.805,36.621,48.828,0
10130.970,17.090,50.293,56.152,15.137,-13.184,0
10130.974,16.602,47.363,55.664,17.090,4.395,0
10130.978,53.223,48.340,52.734,37.109,47.852,0
10130.982,56.152,46.875,59.082,42.969,52.734,0
10130.986,23.926,44.434,62.500,28.320,-8.789,0
10130.990,17.578,42.969,58.105,23.926,-26.855,0
10130.994,43.457,42.969,57.129,36.621,36.621,0
10130.997,60.547,41.992,56.641,43.945,73.730,0
10131.001,37.109,42.969,55.664,38.086,46.387,0
10131.005,20.508,44.434,55.176,31.738,-7.812,0
10131.009,47.852,44.434,56.152,44.434,-11.230,0
10131.013,70.801,44.434,55.664,52.734,47.852,0
10131.017,45.410,44.922,55.176,45.898,14.648,0
10131.021,24.414,45.410,53.223,43.457,-13.672,0
10131.025,47.363,42.969,55.664,51.270,34.668,0
10131.029,72.266,41.016,55.664,58.105,81.055,0
10131.033,58.105,40.527,49.316,51.270,66.406,0
10131.037,33.691,40.039,47.363,45.410,19.531,0
10131.040,35.645,41.016,48.828,53.711,11.719,0
10131.044,64.453,43.945,50.781,61.523,76.660,0
10131.048,62.988,41.504,49.316,49.316,75.684,0
10131.052,30.273,40.527,48.828,37.109,-10.254,0
10131.056,23.926,41.016,49.805,41.016,-29.785,0
10131.060,55.176,41.504,50.293,49.805,3.418,0
10131.064,75.684,42.969,52.246,51.270,20.020,0
10131.068,41.016,39.062,47.363,41.992,-29.297,0
10131.072,13.672,37.598,45.410,41.016,-78.613,0
10131.076,44.434,41.504,47.852,52.734,-42.480,0
10131.080,74.707,43.945,51.758,62.012,33.203,0
10131.083,44.922,42.969,57.129,62.012,29.785,0
10131.087,16.602,40.527,55.664,55.664,-29.297,0
10131.091,33.203,40.527,51.270,53.711,-7.812,0
10131.095,62.500,37.109,48.828,56.152,48.828,0
10131.099,50.293,36.621,48.340,53.223,65.918,0
10131.103,21.973,41.016,49.805,45.410,13.672,0
10131.107,23.438,41.016,50.781,44.434,-34.668,0
10131.111,44.434,41.504,46.875,55.176,39.062,0
10131.115,47.852,43.945,49.805,54.199,89.355,0
10131.119,20.508,44.434,54.199,42.969,45.410,0
10131.122,11.230,44.922,50.781,37.598,-17.578,0
10131.126,41.016,46.387,51.758,47.363,50.293,0
10131.130,62.500,45.898,50.781,48.340,105.469,0
10131.134,33.691,42.480,49.316,38.574,21.973,0
10131.138,9.766,43.457,49.805,37.109,-20.508,0
10131.142,39.062,48.340,49.316,44.922,15.137,0
10131.146,61.523,45.410,49.316,50.293,80.078,0
10131.150,44.434,46.875,49.316,45.898,41.992,0
10131.154,21.973,49.805,49.316,39.551,-31.250,0
10131.158,29.297,47.852,49.805,45.410,9.277,0
10131.162,55.664,47.852,49.316,54.688,67.871,0
10131.165,54.688,47.852,46.875,48.340,67.383,0
10131.169,10.254,47.363,48.340,40.039,27.832,0
10131.173,0.000,47.363,53.711,44.434,-3.418,0
10131.177,48.340,47.852,52.246,48.828,11.719,0
10131.181,59.082,47.852,50.293,47.852,55.176,0
10131.185,22.461,48.340,51.758,45.898,23.926,0
10131.189,2.930,49.805,50.293,41.992,-36.133,0
10131.193,28.809,48.828,48.828,41.016,-29.785,0
10131.197,52.246,47.852,48.340,43.945,33.203,0
10131.201,35.156,48.340,49.316,38.086,50.781,0
10131.205,11.230,47.852,53.223,33.691,-21.484,0
10131.208,24.902,49.805,51.270,36.133,-11.719,0
10131.212,48.828,47.852,48.828,41.016,44.434,0
10131.216,34.180,47.363,52.246,36.621,42.480,0
10131.220,4.883,49.805,54.199,29.297,0.488,0
10131.224,7.324,52.246,54.199,29.297,9.766,0
10131.228,44.922,53.711,52.246,31.738,55.664,0
10131.232,47.852,52.246,48.828,32.715,37.109,0
10131.236,11.230,49.316,48.340,30.762,12.695,0
10131.240,1.465,50.293,48.828,28.809,-8.789,0
10131.244,34.180,51.270,50.781,31.250,21.973,0
10131.247,46.387,46.387,53.223,33.691,93.750,0
10131.251,20.020,48.340,53.223,25.879,42.480,0
10131.255,4.883,53.711,50.781,21.484,-50.781,0
10131.259,29.785,53.711,51.270,29.297,-15.137,0
10131.263,56.641,51.758,55.176,37.109,19.531,0
10131.267,37.598,50.293,53.223,28.320,-15.625,0
10131.271,7.812,51.758,50.781,19.531,-49.805,0
10131.275,19.531,51.270,50.781,26.367,-41.992,0
10131.279,50.293,49.316,54.199,38.574,29.785,0
10131.283,39.551,49.805,56.152,34.180,41.504,0
10131.287,0.488,50.781,54.199,24.902,-20.020,0
10131.290,6.348,51.758,53.711,26.367,-19.043,0
10131.294,46.387,53.711,52.246,31.738,49.316,0
10131.298,44.434,57.129,51.270,31.738,65.918,0
10131.302,8.301,58.105,54.688,23.438,22.949,0
10131.306,1.953,56.152,56.152,21.973,23.926,0
10131.310,33.203,52.246,55.176,30.273,36.621,0
10131.314,46.875,53.223,52.246,31.250,50.781,0
10131.318,19.043,55.176,53.711,21.484,31.738,0
10131.322,0.488,55.664,57.129,20.020,9.766,0
10131.326,25.391,58.594,58.105,29.785,46.875,0
10131.330,51.758,60.059,57.617,37.109,73.730,0
10131.333,34.668,59.082,53.223,29.297,44.922,0
10131.337,9.277,57.129,50.293,17.090,-4.395,0
10131.341,15.625,55.664,53.711,23.438,10.254,0
10131.345,40.039,56.641,57.129,31.738,51.270,0
10131.349,38.086,60.059,56.152,29.297,67.383,0
10131.353,11.719,61.523,55.176,23.438,61.523,0
10131.357,5.371,60.059,55.664,22.949,62.988,0
10131.361,41.992,60.059,57.129,32.227,67.383,0
10131.365,51.758,62.500,56.152,33.203,68.848,0
10131.369,17.090,63.477,53.711,22.949,70.801,0
10131.372,4.883,62.500,54.688,14.648,23.926,0
10131.376,21.973,63.965,55.176,21.484,30.762,0
10131.380,39.062,65.430,53.711,32.227,76.172,0
10131.384,16.602,65.918,53.223,20.508,42.480,0
10131.388,-7.812,67.383,54.199,5.859,-8.789,0
10131.392,12.695,66.406,53.711,5.371,21.484,0
10131.396,39.062,66.406,56.152,12.695,67.383,0
10131.400,20.508,69.336,61.035,13.184,53.223,0
10131.404,-15.625,68.359,62.012,1.953,19.531,0
10131.408,-7.812,69.824,62.500,-0.488,10.254,0
10131.412,22.461,75.684,62.988,7.812,73.730,0
10131.415,15.625,78.125,63.965,1.465,83.008,0
10131.419,-16.602,79.102,62.012,-13.672,24.414,0
10131.423,-41.992,79.590,59.570,-22.949,3.906,0
10131.427,-26.855,81.543,61.035,-28.809,31.738,0
10131.431,-5.859,89.844,62.500,-24.414,47.852,0
10131.435,-40.527,88.379,67.383,-29.785,-0.488,0
10131.439,-73.242,83.984,70.801,-54.688,-31.250,0
10131.443,-51.270,89.355,70.312,-57.617,33.203,0
10131.447,-43.457,99.609,76.172,-62.012,68.359,0
10131.451,-77.637,102.051,80.078,-81.055,26.367,0
10131.455,-104.004,102.539,81.055,-88.867,10.742,0
10131.458,-98.633,100.586,87.402,-96.191,46.387,0
10131.462,-75.684,102.051,88.867,-96.680,84.961,0
10131.466,-99.609,109.375,94.727,-102.539,60.059,0
10131.470,-149.414,102.539,101.074,-127.930,6.348,0
10131.474,-163.086,98.145,95.703,-147.949,-8.301,0
10131.478,-147.949,108.398,101.074,-157.227,14.648,0
10131.482,-161.621,116.211,107.910,-175.293,38.086,0
10131.486,-211.914,107.422,105.957,-200.195,6.348,0
10131.490,-229.980,109.375,103.027,-208.984,-22.949,0
10131.494,-208.984,114.746,105.469,-213.379,28.809,0
10131.497,-210.449,111.816,106.445,-227.051,79.102,0
10131.501,-236.816,112.305,108.887,-235.352,34.180,0
10131.505,-246.582,110.840,114.258,-235.352,8.789,0
10131.509,-218.262,108.398,116.699,-226.074,57.129,0
10131.513,-200.195,106.445,120.605,-206.543,77.148,0
10131.517,-210.938,104.004,123.535,-192.383,32.715,0
10131.521,-217.773,97.168,123.535,-179.199,7.324,0
10131.525,-184.082,91.309,119.629,-160.156,14.648,0
10131.529,-145.508,93.750,112.793,-145.996,62.012,0
10131.533,-153.809,92.773,107.422,-140.137,108.398,0
10131.537,-153.809,91.309,102.539,-135.254,47.363,0
10131.540,-134.766,94.238,93.750,-125.977,5.859,0
10131.544,-89.355,93.262,84.961,-101.562,84.961,0
10131.548,-48.340,90.820,80.566,-82.031,83.984,0
10131.552,-47.852,89.844,76.660,-76.172,30.762,0
10131.556,-41.504,88.379,71.777,-58.594,23.438,0
10131.560,-8.789,89.844,64.453,-41.992,35.156,0
10131.564,19.531,87.891,55.664,-31.250,71.777,0
10131.568,1.953,85.938,50.781,-23.926,57.129,0
10131.572,-16.602,89.844,47.852,-8.789,-16.113,0
10131.576,3.906,88.379,42.969,12.695,-2.441,0
10131.580,37.109,83.008,38.086,31.738,58.594,0
10131.583,29.297,82.031,33.203,40.527,66.406,0
10131.587,7.324,82.520,32.715,50.293,47.852,0
10131.591,31.738,81.543,32.227,63.965,75.195,0
10131.595,65.918,80.078,28.320,69.824,102.051,0
10131.599,68.359,76.660,26.367,71.289,56.641,0
10131.603,46.387,70.312,24.414,69.824,2.930,0
10131.607,44.434,69.336,22.461,69.336,-0.488,0
10131.611,72.266,69.824,21.973,79.102,28.809,0
10131.615,94.238,65.918,22.461,83.008,15.625,0
10131.619,68.359,61.035,21.484,77.637,7.324,0
10131.622,53.223,56.641,20.508,88.867,10.742,0
10131.626,92.285,57.617,18.066,96.680,31.250,0
10131.630,108.887,59.082,18.066,96.680,75.195,0
10131.634,86.426,50.293,20.508,102.539,30.273,0
10131.638,75.195,45.410,23.926,105.469,-8.789,0
10131.642,100.586,47.852,21.484,107.910,17.090,0
10131.646,133.301,46.875,19.043,112.793,49.316,0
10131.650,119.629,45.898,19.043,108.887,55.664,0
10131.654,85.938,42.480,18.555,102.051,6.836,0
10131.658,84.961,39.551,20.020,106.934,-33.203,0
10131.662,110.840,41.992,21.484,107.422,3.906,0
10131.665,114.258,41.504,21.973,102.539,29.297,0
10131.669,80.078,38.086,17.578,92.285,16.113,0
10131.673,67.871,35.645,17.090,94.727,13.672,0
10131.677,108.398,37.109,20.508,104.004,37.598,0
10131.681,120.117,35.156,22.461,104.004,59.082,0
10131.685,89.355,34.668,24.414,102.051,33.203,0
10131.689,79.590,40.039,25.879,95.215,-26.367,0
10131.693,99.121,37.598,27.832,97.656,-25.879,0
10131.697,117.676,38.086,25.879,100.586,23.438,0
10131.701,99.609,40.527,26.367,103.516,6.348,0
10131.705,56.641,37.598,28.809,97.656,-20.020,0
10131.708,71.289,40.527,26.367,81.543,6.836,0
10131.712,113.281,40.039,24.902,92.773,52.734,0
10131.716,99.609,37.109,25.879,100.586,53.711,0
10131.720,68.848,41.504,24.414,83.496,2.441,0
10131.724,70.312,42.480,24.902,71.289,3.906,0
10131.728,88.867,39.551,25.879,74.707,64.941,0
10131.732,88.379,37.598,29.785,68.848,73.730,0
10131.736,68.848,40.039,27.832,63.477,39.062,0
10131.740,48.828,42.969,27.832,65.430,-9.766,0
10131.744,68.848,43.945,30.762,61.523,-5.859,0
10131.747,86.426,43.457,27.832,57.129,29.785,0
10131.751,56.641,42.480,28.320,58.105,7.324,0
10131.755,50.781,40.039,29.785,59.082,-31.250,0
10131.759,72.266,41.504,32.227,58.594,14.648,0
10131.763,79.590,44.922,32.715,62.012,42.480,0
10131.767,54.199,45.410,32.227,52.246,9.277,0
10131.771,34.668,43.945,32.715,42.969,21.484,0
10131.775,51.758,41.504,32.715,38.574,16.602,0
10131.779,74.707,40.039,33.203,44.434,57.617,0
10131.783,77.148,41.504,30.762,50.293,90.332,0
10131.787,41.016,41.992,31.250,41.992,47.363,0
10131.790,26.367,46.387,30.762,39.551,10.254,0
10131.794,64.453,47.363,33.203,52.734,39.062,0
10131.798,62.012,44.434,33.691,44.434,72.266,0
10131.802,33.691,46.387,27.832,32.715,43.457,0
10131.806,39.551,47.363,30.273,51.270,5.371,0
10131.810,54.688,50.781,33.203,55.664,-19.043,0
10131.814,71.289,49.316,35.156,48.340,1.465,0
10131.818,49.316,43.457,34.668,41.992,3.906,0
10131.822,23.438,43.945,36.621,40.527,-15.625,0
10131.826,33.691,48.340,37.598,42.480,29.297,0
10131.830,46.387,49.316,30.273,36.621,77.148,0
10131.833,20.508,46.875,30.273,27.832,47.363,0
10131.837,3.418,49.805,33.691,34.668,11.719,0
10131.841,20.508,51.270,34.180,43.457,21.973,0
10131.845,26.855,50.293,29.785,31.250,69.336,0
10131.849,19.043,56.641,25.879,23.438,73.730,0
10131.853,10.742,54.688,31.250,25.879,5.371,0
10131.857,-1.465,44.922,38.086,20.508,-40.527,0
10131.861,16.113,48.340,33.203,24.414,22.461,0
10131.865,25.391,47.363,31.738,34.180,93.750,0
10131.869,-3.418,46.387,33.203,27.344,51.758,0
10131.872,-10.254,51.270,32.227,21.973,-20.508,0
10131.876,20.020,48.340,34.180,31.738,20.996,0
10131.880,38.574,52.246,31.250,33.691,76.172,0
10131.884,20.996,50.293,31.250,24.414,27.832,0
10131.888,-4.883,50.293,34.668,16.602,1.465,0
10131.892,6.348,50.781,35.156,25.391,44.922,0
10131.896,31.738,50.293,33.203,30.762,66.895,0
10131.900,13.184,52.246,35.156,29.297,9.277,0
10131.904,-1.953,49.316,31.738,22.949,-6.836,0
10131.908,10.742,46.387,29.297,18.555,36.621,0
10131.912,26.855,50.293,34.668,17.578,53.711,0
10131.915,29.297,55.176,34.180,23.438,41.992,0
10131.919,15.137,50.781,32.715,32.227,16.602,0
10131.923,-3.418,56.152,34.668,15.625,5.859,0
10131.927,26.855,55.176,32.227,21.973,51.758,0
10131.931,37.598,48.828,36.133,30.273,71.777,0
10131.935,7.324,51.758,32.227,21.484,10.254,0
10131.939,4.395,47.363,34.668,25.879,-21.484,0
10131.943,11.230,55.664,35.156,16.113,2.930,0
10131.947,26.367,57.129,30.273,14.648,39.062,0
10131.951,17.578,53.223,34.180,19.043,39.551,0
10131.955,-3.906,51.270,33.691,9.277,-10.254,0
10131.958,-4.883,47.852,37.109,0.977,-25.879,0
10131.962,19.531,54.199,35.156,7.324,23.926,0
10131.966,25.391,52.734,30.273,18.066,35.156,0
10131.970,4.883,50.293,32.715,15.625,15.137,0
10131.974,-1.465,53.223,29.785,8.789,27.344,0
10131.978,28.809,50.781,30.273,12.207,68.359,0
10131.982,36.133,49.316,32.227,13.184,89.355,0
10131.986,7.324,51.270,30.273,0.488,38.574,0
10131.990,-7.812,51.758,30.273,-0.977,-24.414,0
10131.994,1.953,54.199,31.738,9.277,-2.930,0
10131.997,21.973,51.758,33.203,19.531,61.035,0
10132.001,8.301,49.805,33.691,13.184,54.199,0
10132.005,0.977,49.316,31.738,6.348,15.137,0
10132.009,15.625,48.340,35.156,15.625,15.625,0
10132.013,29.785,48.828,37.109,21.484,78.613,0
10132.017,29.785,48.340,32.227,20.020,61.035,0
10132.021,2.441,50.781,30.762,10.254,-24.414,0
10132.025,3.906,47.363,30.273,7.324,2.441,0
10132.029,27.344,44.922,30.762,5.859,88.379,0
10132.033,21.484,46.387,27.832,8.301,86.914,0
10132.037,-3.418,48.828,32.715,5.859,22.949,0
10132.040,-2.930,46.875,34.668,12.695,-4.395,0
10132.044,37.109,43.945,29.297,39.062,42.969,0
10132.048,41.504,45.410,26.855,34.180,48.828,0
10132.052,6.348,44.434,32.715,12.695,-9.277,0
10132.056,-9.766,47.852,32.715,3.906,-29.785,0
10132.060,19.531,49.805,26.855,14.648,11.230,0
10132.064,37.109,42.969,27.832,26.367,47.363,0
10132.068,18.066,41.016,30.273,21.973,24.414,0
10132.072,2.441,43.945,30.273,16.602,-29.297,0
10132.076,13.184,42.480,31.738,15.137,-9.766,0
10132.080,40.527,42.969,31.250,26.855,53.711,0
10132.083,31.738,41.992,28.320,24.902,36.621,0
10132.087,4.395,42.480,29.785,16.602,17.090,0
10132.091,0.488,41.504,33.203,18.066,44.922,0
10132.095,31.738,41.504,33.203,22.949,44.434,0
10132.099,30.762,41.504,30.273,14.160,40.527,0
10132.103,-6.836,42.969,30.762,5.859,50.293,0
10132.107,-5.371,49.316,27.832,10.254,-3.906,0
10132.111,19.531,43.457,28.809,15.625,-3.418,0
10132.115,28.320,39.062,32.715,21.973,59.082,0
10132.119,8.301,40.039,33.691,7.812,48.828,0
10132.122,-7.324,45.410,33.691,-0.488,-16.602,0
10132.126,11.719,44.922,28.320,10.742,-10.742,0
10132.130,27.344,43.457,30.762,15.137,70.801,0
10132.134,14.648,47.852,36.621,12.695,59.082,0
10132.138,-6.836,47.363,33.691,2.930,-8.301,0
10132.142,10.254,47.852,26.855,6.836,-5.371,0
10132.146,38.086,46.387,20.508,18.066,63.477,0
10132.150,21.973,41.504,27.344,17.578,78.613,0
10132.154,-4.883,38.086,32.715,2.441,1.953,0
10132.158,-5.371,43.457,28.320,-8.789,0.000,0
10132.162,26.855,42.969,31.250,9.766,75.684,0
10132.165,32.715,43.945,25.879,20.996,77.148,0
10132.169,-8.301,49.316,21.973,5.371,23.926,0
10132.173,7.812,40.039,33.691,11.719,-31.250,0
10132.177,49.805,37.598,32.227,29.785,23.926,0
10132.181,48.340,41.016,20.020,31.738,86.426,0
10132.185,25.879,39.551,16.602,20.996,16.113,0
10132.189,3.906,42.969,23.926,9.766,-32.227,0
10132.193,19.043,41.016,31.250,14.648,13.672,0
10132.197,47.363,34.668,31.250,33.691,81.543,0
10132.201,34.180,36.133,25.879,34.668,62.988,0
10132.205,11.719,37.598,29.785,28.320,-4.883,0
10132.208,13.184,33.203,42.480,2.930,0.000,0
10132.212,34.668,37.109,33.691,-1.465,66.406,0
10132.216,41.504,41.504,20.508,26.367,51.270,0
10132.220,27.344,33.203,13.672,37.109,-20.020,0
10132.224,24.902,42.480,14.160,37.598,-7.812,0
10132.228,48.828,42.969,26.855,37.598,61.523,0
10132.232,44.434,31.738,24.902,36.621,62.988,0
10132.236,22.461,35.156,20.996,36.133,26.367,0
10132.240,13.184,41.016,31.250,29.785,5.371,0
10132.244,26.855,39.551,33.691,31.738,46.387,0
10132.247,48.828,34.668,28.320,40.039,97.656,0
10132.251,36.621,40.527,21.484,38.086,31.738,0
10132.255,15.137,38.574,18.555,36.621,-57.617,0
10132.259,31.738,39.551,16.113,30.762,-18.555,0
10132.263,48.340,42.480,20.020,24.902,15.625,0
10132.267,26.367,39.062,21.973,22.461,-18.555,0
10132.271,23.438,41.504,15.137,31.738,-58.594,0
10132.275,33.203,38.086,18.555,36.621,-52.246,0
10132.279,40.527,38.086,21.973,25.879,18.066,0
10132.283,37.598,34.668,24.414,19.531,38.574,0
10132.287,26.855,28.320,22.949,34.180,12.207,0
10132.290,25.391,35.645,18.066,33.691,-0.488,0
10132.294,43.457,37.109,20.020,27.344,53.223,0
10132.298,57.617,31.738,23.926,35.645,89.844,0
10132.302,48.340,38.086,22.949,23.438,20.020,0
10132.306,43.457,45.410,12.695,6.836,-49.316,0
10132.310,75.684,43.457,11.230,18.555,3.906,0
10132.314,101.074,36.133,16.113,35.156,65.430,0
10132.318,65.430,35.156,16.602,21.484,25.391,0
10132.322,33.203,36.133,22.461,1.953,-25.391,0
10132.326,47.363,35.156,20.020,22.949,5.371,0
10132.330,70.801,40.527,18.555,43.945,59.570,0
10132.333,46.387,42.480,17.090,41.504,21.484,0
10132.337,19.043,31.738,22.461,43.945,-38.574,0
10132.341,27.344,37.598,20.996,41.504,-15.625,0
10132.345,50.293,41.016,18.066,52.246,62.012,0
10132.349,54.199,31.250,25.879,56.152,61.035,0
10132.353,13.672,41.016,26.855,21.973,8.789,0
10132.357,13.184,35.645,15.137,29.297,-33.203,0
10132.361,39.551,27.344,22.949,55.176,-5.371,0
10132.365,37.598,42.969,27.832,35.645,60.547,0
10132.369,30.273,43.945,14.160,41.992,43.457,0
10132.372,28.320,36.133,17.578,52.246,-5.371,0
10132.376,32.715,40.039,17.578,34.180,20.996,0
10132.380,44.434,29.297,20.996,41.992,77.148,0
10132.384,38.574,27.832,28.809,49.316,51.758,0
10132.388,23.926,32.715,27.832,33.203,-11.719,0
10132.392,45.410,32.227,24.902,36.621,23.438,0
10132.396,52.734,35.645,25.391,48.828,86.914,0
10132.400,47.363,34.668,20.020,35.156,63.477,0
10132.404,25.879,39.062,18.066,29.785,-10.254,0
10132.408,24.902,36.133,18.555,42.480,-24.414,0
10132.412,57.129,31.738,22.949,39.062,45.898,0
10132.415,49.805,33.203,18.555,36.133,91.309,0
10132.419,26.855,27.344,15.625,28.809,37.598,0
10132.423,13.672,29.785,18.555,25.391,-12.207,0
10132.427,40.527,31.250,20.020,40.527,39.062,0
10132.431,50.293,34.668,16.113,39.062,83.496,0
10132.435,32.715,36.133,11.230,30.762,40.039,0
10132.439,32.715,28.320,13.672,31.738,0.977,0
10132.443,35.156,24.414,21.973,17.090,40.527,0
10132.447,54.688,27.832,16.602,36.621,93.262,0
10132.451,28.320,36.621,9.277,30.762,36.621,0
10132.455,1.953,24.414,9.766,-4.883,-27.344,0
10132.458,-8.789,18.555,15.137,4.395,-0.977,0
10132.462,23.926,21.484,14.160,30.762,48.340,0
10132.466,53.223,27.344,6.348,28.320,30.762,0
10132.470,11.719,21.973,20.020,31.738,-44.922,0
10132.474,24.414,29.297,12.695,20.996,-67.871,0
10132.478,64.453,41.016,-3.418,26.367,14.160,0
10132.482,66.406,17.578,14.160,52.246,77.148,0
10132.486,33.691,24.414,20.020,31.250,43.457,0
10132.490,30.273,34.180,15.625,44.434,18.555,0
10132.494,69.824,28.809,7.812,62.988,58.594,0
10132.497,67.871,20.508,4.395,39.062,98.633,0
10132.501,44.922,22.949,15.625,27.832,41.016,0
10132.505,36.133,33.691,4.395,21.973,-25.391,0
10132.509,41.016,25.391,0.488,31.250,-1.465,0
10132.513,70.801,23.926,11.719,65.430,45.898,0
10132.517,53.711,24.414,15.625,40.039,25.391,0
10132.521,23.926,28.320,15.137,13.672,-47.852,0
10132.525,13.184,36.133,8.789,28.809,-30.762,0
10132.529,61.523,24.414,10.254,41.992,29.297,0
10132.533,55.664,31.738,13.672,21.484,36.621,0
10132.537,13.672,34.180,13.184,20.508,18.066,0
10132.540,59.082,8.789,22.461,59.570,-23.438,0
10132.544,86.426,18.555,13.184,53.711,33.203,0
10132.548,76.172,23.438,-5.371,38.574,82.520,0
10132.552,55.664,20.508,9.277,42.969,22.461,0
10132.556,34.668,23.926,20.508,28.809,-0.977,0
10132.560,31.250,18.555,16.113,24.902,37.109,0
10132.564,50.293,20.508,12.207,49.316,52.246,0
10132.568,37.598,26.367,10.742,37.109,57.129,0
10132.572,15.625,25.391,11.719,9.277,25.879,0
10132.576,36.621,21.973,18.066,24.414,33.203,0
10132.580,52.246,16.113,19.531,46.387,104.980,0
10132.583,29.297,19.531,17.578,25.879,84.473,0
10132.587,13.184,23.926,15.137,10.742,5.859,0
10132.591,28.320,26.367,15.137,40.039,-8.789,0
10132.595,44.434,24.414,18.066,48.828,43.945,0
10132.599,38.086,18.555,16.113,45.410,67.383,0
10132.603,0.977,20.020,15.625,25.879,32.227,0
10132.607,12.207,22.949,12.207,17.090,-31.738,0
10132.611,45.898,23.438,17.578,40.039,23.438,0
10132.615,26.367,18.066,20.508,50.293,108.887,0
10132.619,0.977,15.137,14.160,40.527,60.059,0
10132.622,-2.930,20.508,15.137,3.906,20.020,0
10132.626,21.973,19.531,16.113,2.930,54.199,0
10132.630,54.688,19.531,16.113,43.945,83.496,0
10132.634,33.691,20.996,15.625,32.715,51.758,0
10132.638,-2.441,12.695,17.090,22.461,-4.883,0
10132.642,7.324,14.648,14.160,33.691,-0.977,0
10132.646,33.691,8.789,21.484,43.945,52.246,0
10132.650,19.043,12.207,21.484,53.223,38.574,0
10132.654,5.859,19.531,14.648,38.086,-16.113,0
10132.658,14.160,19.043,17.578,33.203,1.953,0
10132.662,49.316,18.066,19.531,57.129,73.242,0
10132.665,61.523,19.043,23.438,60.059,99.609,0
10132.669,18.555,21.484,20.020,31.738,25.391,0
10132.673,-11.719,23.926,8.301,15.625,-8.789,0
10132.677,31.738,23.926,13.672,34.668,54.688,0
10132.681,62.012,23.926,20.020,57.617,111.816,0
10132.685,24.902,25.879,13.672,28.809,71.289,0
10132.689,13.184,24.414,12.207,14.648,1.953,0
10132.693,29.785,21.973,16.602,33.691,31.250,0
10132.697,39.551,19.531,19.531,41.016,78.125,0
10132.701,29.297,24.902,14.648,23.926,62.500,0
10132.705,2.441,17.090,14.648,5.371,18.555,0
10132.708,18.066,9.766,21.484,43.945,0.488,0
10132.712,51.270,16.602,20.508,50.293,46.387,0
10132.716,37.598,20.996,13.184,0.488,79.590,0
10132.720,10.742,20.020,7.324,-11.719,30.273,0
10132.724,-5.859,15.137,8.789,-5.371,-18.555,0
10132.728,13.184,13.672,10.254,-1.465,24.414,0
10132.732,28.320,12.207,11.719,20.020,81.055,0
10132.736,-2.930,12.207,14.160,10.254,44.922,0
10132.740,7.324,18.555,8.301,0.000,-12.695,0
10132.744,51.758,15.137,11.230,47.363,13.672,0
10132.747,54.688,12.207,16.602,43.457,45.410,0
10132.751,28.320,19.043,11.230,-9.277,41.504,0
10132.755,5.371,24.902,11.230,-14.160,13.184,0
10132.759,23.926,20.996,9.766,6.348,8.301,0
10132.763,41.504,14.648,8.301,19.043,83.008,0
10132.767,20.996,16.602,6.836,7.324,79.102,0
10132.771,19.043,19.531,4.395,-0.488,8.789,0
10132.775,20.020,22.461,5.371,-1.465,-7.324,0
10132.779,41.504,22.949,8.301,14.160,44.434,0
10132.783,50.293,18.066,10.742,17.578,60.547,0
10132.787,-3.906,13.672,5.371,-5.371,-4.883,0
10132.790,-5.371,13.672,3.906,6.836,-16.113,0
10132.794,38.086,18.555,9.766,25.879,46.875,0
10132.798,45.410,21.484,6.348,4.395,71.289,0
10132.802,24.902,19.043,5.859,11.230,23.926,0
10132.806,9.766,16.113,10.742,35.645,-4.883,0
10132.810,45.410,21.484,10.254,33.203,40.039,0
10132.814,40.527,22.949,9.277,13.672,73.242,0
10132.818,-7.324,18.066,7.812,0.000,27.344,0
10132.822,-1.953,17.090,7.324,10.254,-29.785,0
10132.826,27.344,16.113,10.742,27.832,-8.789,0
10132.830,40.527,15.625,11.719,42.480,72.754,0
10132.833,20.996,14.160,11.230,44.922,60.547,0
10132.837,16.602,18.066,3.906,5.859,-0.977,0
10132.841,22.949,22.461,3.906,-8.789,-1.465,0
10132.845,33.691,18.066,12.695,31.250,17.578,0
10132.849,45.898,16.113,12.695,39.551,11.230,0
10132.853,11.230,18.066,11.230,26.367,-20.996,0
10132.857,-6.348,16.602,8.789,21.484,-42.969,0
10132.861,22.949,15.137,6.836,16.602,27.344,0
10132.865,44.922,14.648,8.789,26.367,120.605,0
10132.869,31.250,14.648,7.324,27.832,60.547,0
10132.872,8.301,13.184,7.812,17.578,4.883,0
10132.876,20.996,13.184,9.766,38.086,35.645,0
10132.880,53.711,19.043,7.812,41.992,76.660,0
10132.884,39.551,20.996,3.418,11.719,51.270,0
10132.888,5.859,17.578,4.883,9.277,-4.883,0
10132.892,30.762,18.066,6.836,27.344,3.418,0
10132.896,52.734,20.508,5.859,36.621,86.426,0
10132.900,31.250,16.113,7.324,28.809,115.723,0
10132.904,25.391,10.742,5.371,33.691,41.504,0
10132.908,36.133,15.137,8.301,43.457,1.953,0
10132.912,54.688,17.578,10.742,38.574,60.547,0
10132.915,44.434,13.184,11.719,33.203,111.816,0
10132.919,7.324,13.672,11.719,24.414,61.523,0
10132.923,9.277,18.066,6.348,17.090,8.301,0
10132.927,38.574,12.695,10.254,31.250,58.105,0
10132.931,50.781,8.301,13.672,40.039,82.520,0
10132.935,52.246,12.207,9.277,25.391,-3.418,0
10132.939,39.062,16.602,8.789,18.555,-33.203,0
10132.943,28.320,12.695,13.184,42.480,54.688,0
10132.947,43.945,10.742,11.719,60.059,102.051,0
10132.951,38.086,18.555,7.324,45.898,46.875,0
10132.955,15.625,15.625,8.789,21.973,-13.184,0
10132.958,20.020,11.230,7.812,13.672,17.578,0
10132.962,41.504,13.184,9.277,24.902,90.332,0
10132.966,40.527,13.184,12.695,41.504,81.543,0
10132.970,26.855,15.137,6.348,33.691,-7.324,0
10132.974,12.695,14.648,6.836,27.344,-28.320,0
10132.978,38.574,15.137,10.254,37.109,40.527,0
10132.982,55.176,12.695,10.742,36.133,76.660,0
10132.986,34.180,11.719,9.277,32.715,21.484,0
10132.990,26.855,11.719,7.812,33.203,-12.695,0
10132.994,28.809,11.230,7.324,33.691,36.621,0
10132.997,40.039,10.742,8.301,24.902,72.266,0
10133.001,34.180,13.184,9.277,27.832,40.527,0
10133.005,10.742,17.090,14.160,31.250,12.207,0
10133.009,33.203,17.090,13.184,34.668,20.996,0
10133.013,61.523,17.090,6.348,42.480,47.363,0
10133.017,43.457,14.160,11.230,35.645,72.754,0
10133.021,22.949,12.695,11.719,24.902,17.578,0
10133.025,30.273,14.648,7.812,24.414,-49.316,0
10133.029,54.688,11.719,14.160,39.062,7.324,0
10133.033,44.434,13.672,13.672,43.457,68.848,0
10133.037,22.949,16.602,9.277,34.180,14.160,0
10133.040,29.785,15.137,12.695,25.879,-31.250,0
10133.044,65.918,20.020,14.160,31.738,50.781,0
10133.048,79.590,25.879,11.719,29.785,117.188,0
10133.052,53.223,18.555,11.230,23.438,33.691,0
10133.056,49.805,13.672,13.672,28.809,-54.199,0
10133.060,63.477,15.137,15.137,29.297,-0.977,0
10133.064,72.266,15.625,12.207,33.691,92.773,0
10133.068,45.898,11.719,12.695,33.691,58.105,0
10133.072,10.742,11.230,10.742,19.043,-12.207,0
10133.076,13.672,16.113,13.184,23.438,24.414,0
10133.080,31.738,13.184,20.508,40.527,63.477,0
10133.083,26.367,12.207,15.625,40.039,36.621,0
10133.087,6.836,13.672,14.648,27.832,-4.883,0
10133.091,3.906,15.137,17.578,28.320,-13.184,0
10133.095,21.484,20.508,12.695,33.203,11.719,0
10133.099,22.949,12.695,12.695,32.715,47.363,0
10133.103,7.324,9.766,18.555,28.809,24.902,0
10133.107,8.301,15.625,16.602,32.715,-2.930,0
10133.111,9.277,17.578,18.066,32.227,55.176,0
10133.115,34.668,19.043,21.973,36.621,74.707,0
10133.119,33.203,19.531,17.578,37.598,-9.277,0
10133.122,8.301,18.555,11.230,27.832,-51.758,0
10133.126,26.855,13.184,12.695,37.109,-16.602,0
10133.130,42.969,10.254,18.066,38.086,20.996,0
10133.134,32.227,13.672,16.113,33.203,32.227,0
10133.138,5.371,23.438,15.137,19.531,-2.930,0
10133.142,12.207,28.809,16.113,15.137,-8.301,0
10133.146,37.598,28.320,20.020,28.320,56.641,0
10133.150,31.250,13.184,22.461,44.922,68.848,0
10133.154,20.996,13.672,19.043,47.363,-0.488,0
10133.158,18.555,24.902,23.438,31.738,-30.762,0
10133.162,42.480,12.695,27.344,38.086,21.484,0
10133.165,50.293,26.367,18.066,41.504,67.871,0
10133.169,26.855,28.809,12.695,40.527,27.344,0
10133.173,1.953,14.160,20.020,39.551,-36.133,0
10133.177,11.230,36.621,14.648,29.785,-15.625,0
10133.181,53.223,28.320,20.996,41.992,48.828,0
10133.185,41.016,20.996,24.902,33.691,57.617,0
10133.189,21.484,25.879,14.648,20.020,6.348,0
10133.193,44.434,17.090,17.578,35.156,19.043,0
10133.197,54.199,39.551,16.113,39.062,91.309,0
10133.201,16.602,38.574,20.508,30.273,72.754,0
10133.205,8.301,28.809,20.996,34.668,22.949,0
10133.208,41.992,15.137,20.508,50.293,6.836,0
10133.212,60.547,19.531,25.391,52.246,50.293,0
10133.216,42.969,46.387,17.090,47.852,70.312,0
10133.220,14.648,34.668,25.391,26.855,-7.812,0
10133.224,4.883,31.250,27.832,5.859,-36.133,0
10133.228,53.223,25.879,21.484,42.969,29.785,0
10133.232,73.242,22.461,33.691,65.918,58.105,0
10133.236,9.277,35.156,26.367,15.625,31.250,0
10133.240,36.133,27.344,24.414,39.062,-8.301,0
10133.244,60.547,37.109,32.715,63.965,26.855,0
10133.247,41.504,42.969,22.949,50.781,83.008,0
10133.251,43.457,32.715,18.066,43.945,23.438,0
10133.255,31.738,24.902,28.809,33.691,-23.926,0
10133.259,39.062,32.715,32.227,47.363,45.410,0
10133.263,68.359,31.738,25.391,56.641,78.613,0
10133.267,72.266,20.508,30.273,55.664,22.461,0
10133.271,44.922,25.391,28.809,50.293,8.301,0
10133.275,27.344,31.250,24.414,20.020,33.203,0
10133.279,20.508,41.992,26.367,10.254,87.891,0
10133.283,20.996,47.852,26.367,11.719,84.473,0
10133.287,17.578,68.359,15.625,0.000,26.367,0
10133.290,-9.277,56.152,27.344,1.465,22.461,0
10133.294,3.418,41.016,32.227,-8.789,60.059,0
10133.298,39.551,61.035,24.414,9.766,93.262,0
10133.302,34.668,48.340,33.691,52.246,42.969,0
10133.306,1.465,59.082,27.344,27.832,14.160,0
10133.310,10.254,36.133,32.227,28.320,44.922,0
10133.314,37.598,58.594,34.668,47.363,96.191,0
10133.318,-13.672,70.312,27.344,20.020,68.359,0
10133.322,-8.301,7.812,41.992,41.016,-20.996,0
10133.326,3.418,41.504,44.922,25.391,23.926,0
10133.330,74.707,31.738,36.133,53.223,96.680,0
10133.333,115.723,14.160,41.992,90.332,91.309,0
10133.337,49.805,31.738,48.828,65.918,27.344,0
10133.341,19.531,31.738,53.223,42.480,-24.414,0
10133.345,68.848,36.133,47.852,46.387,41.992,0
10133.349,115.234,36.133,35.156,58.594,74.707,0
10133.353,61.035,44.434,32.227,61.035,19.043,0
10133.357,61.523,20.508,56.152,77.148,-26.367,0
10133.361,81.055,14.160,60.547,81.543,10.254,0
10133.365,95.215,25.879,46.875,100.586,98.145,0
10133.369,78.613,26.855,48.828,92.773,68.848,0
10133.372,45.898,33.203,51.270,69.824,24.414,0
10133.376,46.875,41.016,50.293,63.965,17.578,0
10133.380,67.871,44.434,48.340,66.895,27.344,0
10133.384,56.641,42.969,49.805,59.570,47.363,0
10133.388,13.672,68.848,40.527,33.203,4.395,0
10133.392,-30.273,79.590,35.156,-3.906,-17.090,0
10133.396,28.809,40.527,53.711,49.805,46.387,0
10133.400,76.172,26.367,55.176,81.543,63.965,0
10133.404,18.066,42.480,52.246,30.762,-4.883,0
10133.408,1.953,57.617,46.875,17.090,-29.297,0
10133.412,-1.953,78.125,35.645,12.695,32.227,0
10133.415,25.879,80.566,41.016,36.621,68.848,0
10133.419,68.359,49.316,51.270,54.199,16.602,0
10133.423,12.695,73.242,42.480,13.672,-40.527,0
10133.427,41.992,44.434,45.410,59.082,-6.836,0
10133.431,94.727,27.832,58.594,95.215,72.266,0
10133.435,50.293,46.387,53.711,53.711,56.152,0
10133.439,6.348,56.152,41.016,40.527,-23.438,0
10133.443,33.691,42.480,47.363,57.129,-18.555,0
10133.447,77.148,47.852,54.688,43.457,31.250,0
10133.451,65.918,60.547,46.875,50.781,46.387,0
10133.455,-0.488,78.613,42.969,16.602,28.320,0
10133.458,23.926,62.012,46.387,19.531,6.348,0
10133.462,53.223,62.500,38.574,41.504,55.664,0
10133.466,-25.879,81.543,45.410,8.789,70.801,0
10133.470,-38.086,56.152,49.805,-15.625,-11.230,0
10133.474,8.301,59.082,42.969,23.438,-35.156,0
10133.478,39.551,77.148,35.645,46.387,26.855,0
10133.482,84.961,77.637,34.668,59.082,72.754,0
10133.486,68.848,31.250,57.129,66.406,56.641,0
10133.490,10.742,68.848,46.387,6.836,3.906,0
10133.494,35.156,81.055,35.645,18.555,17.090,0
10133.497,63.477,33.691,58.105,51.758,87.402,0
10133.501,26.855,56.152,54.199,1.465,51.270,0
10133.505,18.066,95.703,22.949,11.230,-2.930,0
10133.509,46.387,56.641,42.969,79.102,33.691,0
10133.513,88.867,48.340,41.992,97.168,99.121,0
10133.517,25.391,93.262,47.852,27.344,80.078,0
10133.521,-49.805,81.543,55.664,-47.363,16.113,0
10133.525,32.227,38.574,38.574,-38.086,2.441,0
10133.529,48.340,67.383,51.758,21.484,55.176,0
10133.533,43.945,59.082,49.316,85.938,76.172,0
10133.537,6.836,65.918,71.289,20.020,22.949,0
10133.540,-23.438,78.125,58.105,-23.926,-17.090,0
10133.544,48.828,71.777,18.555,98.145,14.648,0
10133.548,83.984,75.195,30.273,125.000,40.039,0
10133.552,27.832,60.059,65.430,-14.160,-6.836,0
10133.556,15.625,71.777,24.902,5.371,-36.621,0
10133.560,44.434,101.074,-6.348,127.930,-1.465,1
10133.564,34.180,84.473,22.461,68.359,65.918,0
10133.568,1.953,50.293,57.129,-32.715,83.984,0
10133.572,27.344,48.828,43.457,52.246,0.000,0
10133.576,71.777,79.590,9.766,111.328,-30.762,0
10133.580,41.504,70.312,39.551,70.801,47.852,0
10133.583,46.387,72.266,39.551,86.426,68.359,0
10133.587,58.105,73.730,14.160,88.379,-15.137,0
10133.591,55.664,90.820,-12.207,79.590,-54.688,0
10133.595,60.547,104.004,-13.184,34.180,-8.789,0
10133.599,-2.441,116.211,27.832,-7.812,58.105,0
10133.603,-65.918,122.559,26.367,-45.410,65.918,0
10133.607,43.457,43.457,19.043,75.195,4.883,0
10133.611,111.328,62.012,29.785,130.371,18.555,0
10133.615,60.547,88.379,15.137,69.336,72.754,0
10133.619,-2.930,88.379,42.480,21.484,20.020,0
10133.622,15.137,80.566,22.461,41.016,-42.480,0
10133.626,23.926,55.176,22.461,20.996,-21.484,0
10133.630,34.668,95.703,26.855,-24.902,62.988,0
10133.634,59.082,127.930,-26.367,53.223,75.195,0
10133.638,-26.855,65.430,51.270,-41.992,5.859,0
10133.642,22.461,30.273,59.082,71.289,-10.254,0
10133.646,139.160,63.477,-21.484,276.855,38.086,0
10133.650,39.062,84.961,3.906,89.844,60.547,0
10133.654,20.996,60.059,19.531,19.531,37.109,0
10133.658,70.312,68.359,-1.953,117.676,19.531,0
10133.662,-38.574,71.777,43.457,-24.414,56.641,0
10133.665,-37.109,87.891,59.082,-86.914,93.262,0
10133.669,34.180,103.516,-9.277,43.457,37.598,0
10133.673,40.527,51.270,25.879,53.223,-15.625,0
10133.677,42.969,82.031,44.922,59.570,34.180,0
10133.681,79.102,115.234,-21.484,168.945,97.168,0
10133.685,100.586,59.082,3.906,232.422,57.129,0
10133.689,92.285,41.504,-6.348,173.828,16.602,0
10133.693,83.984,41.504,22.461,127.930,16.602,0
10133.697,29.297,101.074,21.973,82.520,68.359,0
10133.701,-36.621,71.777,32.715,-36.133,95.703,0
10133.705,-14.648,20.508,56.152,-28.809,18.066,0
10133.708,67.383,116.211,-44.434,141.113,0.977,0
10133.712,71.777,91.797,-23.926,143.555,51.270,0
10133.716,75.195,22.949,75.195,60.547,66.406,0
10133.720,73.242,56.152,33.691,101.074,9.277,0
10133.724,76.172,83.008,-19.043,179.199,-9.766,0
10133.728,122.559,44.434,36.621,153.320,42.480,0
10133.732,98.145,58.105,36.133,139.648,41.016,0
10133.736,95.703,86.426,-9.277,144.531,4.883,0
10133.740,96.680,55.664,11.230,133.301,-5.859,0
10133.744,62.988,47.852,36.133,109.375,10.742,0
10133.747,87.891,64.453,9.277,86.426,62.988,0
10133.751,74.219,93.750,18.555,66.895,50.781,0
10133.755,86.914,77.148,28.809,137.695,2.441,0
10133.759,137.695,41.992,11.719,149.414,0.000,0
10133.763,147.949,42.480,27.344,105.957,51.758,0
10133.767,105.957,56.641,32.227,67.871,65.430,0
10133.771,77.148,79.590,7.812,39.062,-6.836,0
10133.775,111.328,66.406,27.344,57.617,-44.434,0
10133.779,148.438,60.547,31.738,105.957,4.395,0
10133.783,142.578,66.895,17.578,125.000,70.801,0
10133.787,68.359,71.289,27.832,75.195,18.066,0
10133.790,44.434,57.617,44.922,58.594,-31.738,0
10133.794,89.355,60.059,39.551,85.449,18.555,0
10133.798,94.727,72.754,27.832,91.797,61.523,0
10133.802,66.895,67.383,35.156,73.730,42.969,0
10133.806,36.133,65.430,36.621,50.781,-0.977,0
10133.810,40.039,65.430,40.039,46.387,-2.441,0
10133.814,59.570,70.312,44.434,54.688,52.734,0
10133.818,30.273,80.078,38.574,22.949,44.922,0
10133.822,15.137,65.430,42.969,10.254,-12.695,0
10133.826,29.785,66.895,43.945,28.809,-12.207,0
10133.830,56.152,69.824,39.062,37.109,29.297,0
10133.833,49.805,71.777,42.969,32.715,46.387,0
10133.837,21.484,69.336,51.758,29.785,13.672,0
10133.841,12.695,68.359,51.270,9.766,31.250,0
10133.845,30.762,69.824,48.340,20.508,59.570,0
10133.849,37.109,72.754,44.434,40.039,43.945,0
10133.853,9.277,74.707,47.363,14.648,20.996,0
10133.857,-3.906,76.172,49.805,6.348,2.441,0
10133.861,8.789,71.777,48.828,0.977,46.387,0
10133.865,25.879,70.801,43.457,3.418,64.941,0
10133.869,11.230,69.824,48.828,3.906,9.277,0
10133.872,-6.348,71.777,46.875,-13.184,12.695,0
10133.876,0.977,75.195,34.668,-27.344,9.766,0
10133.880,27.344,69.824,47.852,4.883,40.039,0
10133.884,25.879,70.801,60.059,18.555,42.480,0
10133.888,-11.719,73.242,50.293,-5.859,14.648,0
10133.892,-9.277,71.289,47.852,0.488,16.602,0
10133.896,24.414,70.312,50.781,8.789,49.805,0
10133.900,19.043,72.266,48.828,-9.277,79.590,0
10133.904,-5.371,72.266,48.340,-6.836,48.828,0
10133.908,-11.230,74.707,49.805,-4.395,-14.160,0
10133.912,9.766,74.219,49.316,-10.742,0.977,0
10133.915,13.184,76.660,52.734,-13.672,87.402,0
10133.919,-12.207,74.219,51.758,-20.508,90.820,0
10133.923,-13.184,66.895,42.480,-18.555,6.348,0
10133.927,13.184,65.430,48.340,-13.672,33.203,0
10133.931,23.926,67.383,49.316,-3.906,112.793,0
10133.935,5.859,67.871,50.781,-9.277,78.125,0
10133.939,-7.324,61.035,54.199,-11.719,16.113,0
10133.943,-1.953,65.918,47.852,-4.883,37.598,0
10133.947,17.090,67.383,45.898,-3.906,102.539,0
10133.951,12.695,64.941,45.898,-7.812,82.031,0
10133.955,5.371,67.383,46.875,-10.742,20.996,0
10133.958,0.000,65.430,49.316,-10.742,-5.859,0
10133.962,6.836,76.660,44.434,-16.602,66.406,0
10133.966,23.926,74.219,42.480,-13.184,83.984,0
10133.970,9.277,57.129,50.293,-7.812,-6.836,0
10133.974,-13.672,56.152,52.734,-19.043,-13.184,0
10133.978,16.602,58.594,49.316,-8.301,53.223,0
10133.982,34.180,65.918,42.480,4.395,62.012,0
10133.986,8.301,65.430,42.480,-4.395,19.531,0
10133.990,1.465,63.477,47.852,-8.789,7.324,0
10133.994,20.508,66.895,49.805,-4.395,47.852,0
10133.997,36.621,61.523,49.316,2.441,51.758,0
10134.001,18.555,59.082,46.875,-6.348,4.395,0
10134.005,-5.371,62.988,45.410,-18.066,10.742,0
10134.009,6.836,63.477,42.480,-13.184,48.340,0
10134.013,30.762,62.988,44.434,-7.812,77.148,0
10134.017,20.996,61.035,48.340,-9.766,50.293,0
10134.021,-1.953,60.059,45.898,-9.277,9.277,0
10134.025,-4.883,57.129,45.410,-14.160,8.301,0
10134.029,17.090,56.152,46.387,-7.812,51.270,0
10134.033,20.996,56.152,42.480,-0.488,89.355,0
10134.037,4.395,57.617,41.016,-5.859,33.203,0
10134.040,-0.977,59.570,45.898,-7.324,-18.555,0
10134.044,17.578,61.523,46.387,0.000,38.574,0
10134.048,32.227,61.523,43.457,10.254,73.242,0
10134.052,13.672,60.059,42.969,4.395,55.664,0
10134.056,-10.742,57.129,44.434,-3.418,12.207,0
10134.060,-0.977,55.664,44.922,-0.488,8.301,0
10134.064,27.832,57.617,43.945,7.324,60.059,0
10134.068,16.602,58.105,45.898,10.254,56.641,0
10134.072,-6.836,59.082,46.875,4.883,22.949,0
10134.076,0.000,59.082,43.457,6.348,-2.930,0
10134.080,27.344,56.641,44.434,10.742,29.785,0
10134.083,25.391,56.641,45.898,10.742,58.105,0
10134.087,0.488,53.711,43.457,3.906,20.020,0
10134.091,-1.953,52.246,39.551,-4.395,-6.348,0
10134.095,17.578,53.711,38.086,2.441,26.367,0
10134.099,19.531,54.199,35.645,3.906,64.941,0
10134.103,-5.371,48.828,38.574,-1.953,34.180,0
10134.107,-10.254,45.410,46.387,-8.301,-19.043,0
10134.111,21.484,51.758,43.457,4.883,-8.789,0
10134.115,45.898,53.223,40.527,26.855,73.242,0
10134.119,27.832,51.270,40.527,20.020,68.359,0
10134.122,5.371,50.293,37.109,6.836,2.930,0
10134.126,18.555,47.852,39.062,8.301,13.184,0
10134.130,39.551,49.316,40.039,21.484,74.219,0
10134.134,25.879,47.363,36.621,16.602,81.543,0
10134.138,10.742,46.875,37.109,8.789,20.508,0
10134.142,17.578,50.781,39.062,11.230,8.789,0
10134.146,41.016,50.293,39.551,20.996,69.824,0
10134.150,41.504,50.293,40.527,22.949,73.730,0
10134.154,13.184,50.781,39.062,13.184,18.066,0
10134.158,5.859,50.781,37.598,11.230,-6.836,0
10134.162,32.715,48.340,37.598,19.043,27.344,0
10134.165,42.480,47.363,35.645,18.066,59.570,0
10134.169,14.160,46.875,33.691,11.230,37.109,0
10134.173,4.395,44.922,34.180,9.766,11.719,0
10134.177,28.809,45.898,35.645,14.160,20.996,0
10134.181,43.945,45.898,38.574,21.484,68.848,0
10134.185,25.879,43.945,39.551,26.855,79.590,0
10134.189,10.742,44.434,39.062,26.367,39.551,0
10134.193,22.949,45.898,38.574,22.949,27.832,0
10134.197,42.480,48.828,35.156,20.508,56.152,0
10134.201,37.109,48.340,36.133,17.578,59.082,0
10134.205,12.207,43.457,37.598,12.695,11.230,0
10134.208,9.766,41.504,33.691,13.184,1.465,0
10134.212,38.086,42.969,33.203,22.949,50.293,0
10134.216,39.062,43.457,35.645,25.879,88.867,0
10134.220,16.113,44.434,35.156,12.695,55.176,0
10134.224,8.301,45.898,32.227,9.766,18.066,0
10134.228,33.203,43.945,32.227,27.344,61.523,0
10134.232,56.152,41.016,30.762,39.551,94.727,0
10134.236,30.273,39.551,37.598,29.297,52.246,0
10134.240,6.348,39.062,42.480,13.672,0.977,0
10134.244,16.602,36.133,38.574,17.578,14.648,0
10134.247,41.504,31.738,38.574,29.297,55.664,0
10134.251,33.691,32.715,42.480,29.785,22.949,0
10134.255,9.766,39.551,43.457,24.414,-54.688,0
10134.259,22.461,40.527,41.504,24.902,-46.387,0
10134.263,49.805,36.133,39.551,37.598,41.992,0
10134.267,44.434,35.645,39.551,42.480,65.918,0
10134.271,15.137,35.645,37.598,28.320,10.254,0
10134.275,19.043,36.621,34.668,25.879,-26.855,0
10134.279,47.852,39.062,37.109,36.133,42.969,0
10134.283,51.758,40.527,37.109,33.691,80.566,0
10134.287,31.250,39.551,34.668,23.926,-10.742,0
10134.290,20.996,36.621,35.156,26.367,-33.691,0
10134.294,32.715,38.086,36.621,36.133,31.738,0
10134.298,46.875,39.551,32.227,28.320,53.223,0
10134.302,38.574,37.598,28.320,21.484,18.555,0
10134.306,29.297,39.551,26.367,27.344,-17.578,0
10134.310,45.898,39.551,27.344,27.344,-5.859,0
10134.314,57.129,38.086,30.273,29.785,63.477,0
10134.318,42.969,38.574,33.691,30.273,37.109,0
10134.322,22.949,37.598,34.668,22.461,-3.418,0
10134.326,24.414,35.156,32.227,23.926,-0.488,0
10134.330,48.340,34.180,32.715,36.621,55.176,0
10134.333,41.992,34.180,33.203,31.250,82.031,0
10134.337,22.949,35.156,34.180,20.020,-11.719,0
10134.341,14.160,34.668,32.227,19.531,-32.227,0
10134.345,31.738,33.203,28.809,23.438,-15.625,0
10134.349,56.152,32.715,30.762,30.762,36.621,0
10134.353,46.387,34.668,33.203,30.273,56.641,0
10134.357,34.668,35.156,31.738,31.738,1.465,0
10134.361,41.016,33.691,29.785,37.598,31.250,0
10134.365,59.082,35.156,30.762,46.875,101.074,0
10134.369,44.922,36.621,29.297,41.992,95.703,0
10134.372,12.695,35.645,25.391,24.414,13.672,0
10134.376,22.461,31.738,25.879,27.344,0.977,0
10134.380,57.617,30.273,30.273,37.109,60.059,0
10134.384,49.805,32.227,28.320,32.715,30.762,0
10134.388,19.043,31.250,24.414,23.438,-45.898,0
10134.392,16.113,31.738,23.438,16.113,-33.203,0
10134.396,40.039,32.227,24.902,23.438,66.895,0
10134.400,36.621,28.809,24.414,29.785,94.727,0
10134.404,9.277,27.832,23.926,22.949,33.691,0
10134.408,7.324,29.297,26.367,18.555,9.277,0
10134.412,28.809,30.762,26.855,25.391,38.574,0
10134.415,40.039,28.809,25.391,33.203,74.707,0
10134.419,29.297,30.762,25.391,32.227,46.875,0
10134.423,15.137,32.715,27.344,27.832,-16.113,0
10134.427,20.996,29.785,26.367,25.879,0.000,0
10134.431,39.062,25.879,24.902,32.715,76.172,0
10134.435,24.902,27.832,25.879,26.855,55.664,0
10134.439,2.441,29.785,24.902,15.137,-7.324,0
10134.443,13.672,31.250,23.438,20.020,30.273,0
10134.447,40.039,29.297,24.414,29.785,60.547,0
10134.451,28.809,28.320,25.391,26.367,21.973,0
10134.455,4.395,27.832,24.414,20.508,-27.344,0
10134.458,9.277,28.320,24.414,21.973,-19.043,0
10134.462,20.508,24.902,22.949,17.578,56.152,0
10134.466,22.949,22.949,22.949,16.602,90.332,0
10134.470,14.160,25.391,21.973,13.184,25.879,0
10134.474,12.207,28.809,19.531,3.906,-28.320,0
10134.478,39.551,33.203,18.555,12.207,9.277,0
10134.482,60.059,28.809,17.090,19.043,26.855,0
10134.486,48.828,24.902,18.555,9.766,3.418,0
10134.490,32.715,25.391,16.602,4.883,-18.555,0
10134.494,41.016,25.391,16.602,10.742,-13.672,0
10134.497,56.152,26.367,19.531,20.020,11.230,0
10134.501,36.133,27.344,20.508,27.344,5.371,0
10134.505,1.465,26.367,22.461,26.855,-28.320,0
10134.509,1.465,25.391,22.949,30.273,-22.461,0
10134.513,24.902,20.996,20.020,40.527,54.199,0
10134.517,24.414,20.996,20.996,42.480,83.496,0
10134.521,2.441,22.461,22.461,29.297,12.207,0
10134.525,-2.930,20.996,22.461,22.949,-41.016,0
10134.529,28.320,23.926,21.973,27.344,-7.812,0
10134.533,38.086,24.902,21.973,31.250,64.453,0
10134.537,9.277,22.461,20.996,24.902,45.410,0
10134.540,-0.488,20.508,20.508,20.996,-10.742,0
10134.544,26.855,18.066,22.949,30.762,-7.324,0
10134.548,44.434,22.461,20.508,32.715,52.734,0
10134.552,22.949,23.438,18.555,26.367,33.203,0
10134.556,5.859,20.020,18.555,23.926,-29.785,0
10134.560,23.438,23.926,17.090,25.391,0.488,0
10134.564,41.016,23.926,14.648,30.762,79.102,0
10134.568,29.297,22.949,17.090,29.297,70.312,0
10134.572,8.301,24.902,17.578,12.207,-20.020,0
10134.576,12.695,24.902,17.578,16.602,-14.648,0
10134.580,38.574,24.902,17.578,29.785,63.965,0
10134.583,29.297,25.391,16.113,20.508,67.383,0
10134.587,0.000,25.879,14.648,11.719,29.297,0
10134.591,4.395,25.391,16.113,18.555,20.996,0
10134.595,35.645,26.367,19.531,31.250,57.129,0
10134.599,38.574,25.391,20.020,31.738,91.797,0
10134.603,16.602,24.414,18.555,22.949,59.082,0
10134.607,10.742,25.879,18.555,21.973,8.301,0
10134.611,23.926,23.926,20.020,28.320,-3.906,0
10134.615,40.039,25.879,20.508,28.809,25.391,0
10134.619,26.855,25.879,19.043,20.508,29.297,0
10134.622,2.930,20.996,16.602,13.672,-18.066,0
10134.626,5.859,23.926,17.090,17.090,-18.555,0
10134.630,31.738,26.855,14.648,19.531,39.062,0
10134.634,30.762,23.926,13.672,19.043,54.688,0
10134.638,12.207,24.414,15.625,20.020,29.785,0
10134.642,19.043,24.902,18.555,27.344,21.973,0
10134.646,47.852,24.902,19.531,42.480,61.523,0
10134.650,51.758,22.461,16.113,37.598,98.145,0
10134.654,19.531,18.066,17.090,31.738,45.898,0
10134.658,5.371,18.555,17.090,31.738,-29.785,0
10134.662,24.902,19.531,16.602,29.785,20.508,0
10134.665,39.551,21.973,18.555,35.156,75.195,0
10134.669,20.996,21.484,16.602,21.973,34.180,0
10134.673,4.883,17.578,15.625,13.672,-5.371,0
10134.677,21.973,20.996,16.602,26.367,31.250,0
10134.681,48.340,22.949,17.578,37.598,80.078,0
10134.685,41.504,20.020,17.090,37.109,57.129,0
10134.689,19.531,19.531,17.578,28.809,-4.883,0
10134.693,25.879,20.020,17.578,30.762,5.859,0
10134.697,49.316,21.484,15.137,33.203,61.523,0
10134.701,42.969,22.949,12.695,28.320,54.199,0
10134.705,15.625,19.531,13.184,27.832,31.250,0
10134.708,15.625,17.578,13.672,22.949,0.000,0
10134.712,46.387,19.043,14.160,29.785,43.945,0
10134.716,52.734,21.973,14.160,33.691,95.215,0
10134.720,28.809,22.461,12.695,20.996,33.691,0
10134.724,14.160,18.555,15.625,18.555,-7.812,0
10134.728,34.180,15.625,14.648,32.227,45.410,0
10134.732,47.363,15.625,13.184,36.621,83.984,0
10134.736,26.367,16.113,13.184,27.344,44.922,0
10134.740,12.695,18.555,10.742,21.484,-13.184,0
10134.744,24.902,17.578,13.672,28.320,1.953,0
10134.747,41.016,15.625,13.184,34.668,51.758,0
10134.751,23.926,18.066,13.672,30.273,13.184,0
10134.755,-1.465,19.531,16.602,25.879,-67.871,0
10134.759,8.301,17.090,14.160,25.391,-33.691,0
10134.763,32.227,17.090,13.184,24.902,42.969,0
10134.767,24.902,14.648,13.184,30.273,43.945,0
10134.771,6.348,14.160,9.277,28.320,25.879,0
10134.775,3.906,13.184,9.766,21.484,13.672,0
10134.779,22.461,12.695,13.672,28.809,28.320,0
10134.783,28.809,15.137,12.695,29.297,70.801,0
10134.787,2.930,13.672,10.742,20.508,24.902,0
10134.790,-11.719,10.254,9.766,18.555,-41.016,0
10134.794,5.859,11.230,8.789,21.484,-8.301,0
10134.798,19.531,12.695,12.207,26.855,32.227,0
10134.802,10.254,14.160,11.230,24.902,22.461,0
10134.806,1.465,10.742,10.254,18.066,-18.066,0
10134.810,17.090,9.766,14.648,21.484,-5.859,0
10134.814,42.480,16.113,9.766,30.762,37.109,0
10134.818,28.320,15.137,6.836,28.320,37.109,0
10134.822,3.418,14.648,7.324,19.043,4.883,0
10134.826,9.766,15.137,9.766,20.996,-19.531,0
10134.830,34.180,13.184,11.230,26.855,41.992,0
10134.833,33.203,14.160,6.348,21.973,79.102,0
10134.837,5.859,13.672,4.883,10.742,30.762,0
10134.841,-2.441,13.672,5.859,10.742,-4.883,0
10134.845,25.879,15.137,8.301,24.414,44.922,0
10134.849,38.574,12.207,10.742,29.785,104.004,0
10134.853,8.789,12.695,6.348,12.695,34.180,0
10134.857,-1.465,12.207,3.418,10.742,-27.832,0
10134.861,23.926,10.742,7.324,28.809,14.648,0
10134.865,38.574,11.230,9.277,34.668,63.965,0
10134.869,26.855,12.695,6.836,29.785,28.320,0
10134.872,11.230,11.719,7.324,22.461,-30.762,0
10134.876,12.207,11.230,10.254,21.973,-16.602,0
10134.880,37.109,18.066,8.789,33.203,62.012,0
10134.884,37.109,20.020,6.348,29.297,62.988,0
10134.888,5.859,9.766,9.277,17.578,27.344,0
10134.892,8.301,8.301,11.230,17.090,-1.465,0
10134.896,35.156,11.719,8.301,23.926,47.363,0
10134.900,30.762,7.324,7.324,23.438,63.965,0
10134.904,7.812,5.859,6.348,21.973,-15.625,0
10134.908,0.488,8.789,5.371,24.414,-2.930,0
10134.912,23.438,8.301,5.859,25.879,33.691,0
10134.915,30.273,4.883,8.301,24.902,62.500,0
10134.919,0.977,5.859,5.371,14.648,25.391,0
10134.923,-12.695,6.348,0.977,11.230,-23.438,0
10134.927,9.766,6.348,4.395,18.555,1.465,0
10134.931,35.156,9.766,8.789,29.297,31.250,0
10134.935,33.203,11.719,9.277,27.832,21.484,0
10134.939,16.113,7.812,9.277,26.367,-4.883,0
10134.943,14.160,7.812,4.395,26.367,-5.371,0
10134.947,36.133,8.301,6.348,30.762,29.785,0
10134.951,37.598,10.254,7.812,28.809,60.059,0
10134.955,14.648,10.254,6.836,21.484,25.391,0
10134.958,14.160,6.348,7.324,17.578,-18.555,0
10134.962,45.410,8.301,5.859,30.273,61.035,0
10134.966,49.316,11.230,2.441,31.738,129.883,0
10134.970,26.367,10.742,1.465,22.461,70.801,0
10134.974,16.113,8.301,3.906,23.926,-19.531,0
10134.978,31.738,6.348,0.000,32.715,38.574,0
10134.982,46.387,5.371,4.883,41.504,115.234,0
10134.986,31.250,6.348,3.906,27.832,63.477,0
10134.990,16.113,10.254,-2.930,12.207,-1.465,0
10134.994,34.180,10.254,-2.441,19.043,5.371,0
10134.997,52.246,5.859,1.465,37.109,88.379,0
10135.001,34.668,9.277,-2.441,30.762,89.844,0
10135.005,11.230,13.184,-0.977,16.602,20.996,0
10135.009,20.996,10.254,6.348,22.949,17.090,0
10135.013,39.551,5.859,6.348,33.691,59.570,0
10135.017,32.227,8.301,9.766,19.043,76.660,0
10135.021,13.672,7.324,8.301,9.277,14.648,0
10135.025,18.555,5.859,3.418,21.973,-25.391,0
10135.029,46.387,5.859,11.230,32.715,52.734,0
10135.033,53.711,5.859,6.348,27.344,101.562,0
10135.037,22.461,1.953,0.000,16.602,37.598,0
10135.040,8.301,8.301,-0.488,19.531,-7.324,0
10135.044,35.645,10.254,4.883,29.297,30.273,0
10135.048,54.199,7.812,5.371,29.785,78.125,0
10135.052,25.391,7.812,3.418,6.836,69.336,0
10135.056,6.836,5.371,-0.488,7.812,46.875,0
10135.060,15.137,4.883,2.441,20.020,62.012,0
10135.064,35.645,4.395,3.418,15.137,103.516,0
10135.068,39.551,10.254,0.488,16.602,72.266,0
10135.072,22.461,13.672,3.418,18.066,2.930,0
10135.076,31.250,6.836,5.371,20.996,4.395,0
10135.080,53.223,5.859,3.418,38.574,41.992,0
10135.083,48.828,7.812,0.000,34.180,66.895,0
10135.087,27.344,4.883,2.441,21.484,21.484,0
10135.091,20.996,5.859,-1.953,25.879,-34.180,0
10135.095,35.645,2.930,-2.930,27.832,7.812,0
10135.099,45.898,0.488,5.859,29.785,47.852,0
10135.103,21.973,0.977,8.301,20.020,20.020,0
10135.107,6.836,3.906,4.395,20.996,-40.527,0
10135.111,27.832,0.977,2.441,34.668,0.488,0
10135.115,44.434,3.906,-0.977,39.062,96.680,0
10135.119,36.133,7.812,-0.977,35.156,82.031,0
10135.122,22.461,3.906,1.465,24.414,18.555,0
10135.126,29.297,1.953,3.418,31.738,7.812,0
10135.130,47.363,5.371,2.930,41.504,49.316,0
10135.134,34.180,3.906,2.930,31.738,48.340,0
10135.138,16.602,0.977,2.441,30.762,-24.414,0
10135.142,22.461,2.930,0.977,38.574,-25.879,0
10135.146,41.504,-1.465,2.441,41.016,57.617,0
10135.150,42.969,-0.488,2.441,38.086,72.266,0
10135.154,20.020,2.441,2.441,28.320,29.785,0
10135.158,10.254,-0.488,1.465,24.414,13.184,0
10135.162,27.344,2.441,1.953,29.297,58.105,0
10135.165,43.457,4.395,1.465,33.203,99.121,0
10135.169,23.926,0.000,1.953,29.297,64.941,0
10135.173,9.766,-0.977,-0.488,25.391,-10.742,0
10135.177,25.879,3.418,-1.953,26.855,14.160,0
10135.181,45.410,6.348,0.488,29.785,100.098,0
10135.185,40.039,2.930,0.000,27.344,53.711,0
10135.189,19.531,3.906,-2.930,18.555,-18.066,0
10135.193,31.738,5.371,-2.441,14.160,17.578,0
10135.197,69.336,1.465,-1.953,22.949,53.711,0
10135.201,73.730,2.930,-1.465,19.043,59.570,0
10135.205,51.758,5.371,-4.395,8.789,35.645,0
10135.208,50.293,4.395,-5.371,14.160,-3.906,0
10135.212,60.547,5.371,-1.465,26.367,36.133,0
10135.216,54.688,-0.488,-0.488,32.715,111.816,0
10135.220,28.809,-2.930,-2.441,30.762,60.547,0
10135.224,12.207,0.488,0.488,32.227,-6.348,0
10135.228,26.367,0.000,3.418,37.598,26.367,0
10135.232,41.016,-0.977,3.906,36.133,55.664,0
10135.236,21.973,-2.441,4.883,28.320,13.184,0
10135.240,-2.930,-6.836,2.930,27.344,-18.555,0
10135.244,13.672,-5.859,0.488,29.785,10.742,0
10135.247,42.480,-1.465,1.465,27.344,51.270,0
10135.251,28.809,-4.395,1.953,23.926,70.312,0
10135.255,8.301,-3.906,-0.488,21.973,14.160,0
10135.259,14.648,-3.906,-2.441,27.344,-15.625,0
10135.263,41.504,-6.348,0.000,35.645,30.762,0
10135.267,49.805,-4.395,1.465,38.574,63.965,0
10135.271,21.484,-6.348,1.465,34.668,33.691,0
10135.275,12.695,-6.348,0.977,29.785,-1.953,0
10135.279,38.086,-3.906,1.465,40.527,29.297,0
10135.283,47.363,-9.277,3.418,49.805,74.707,0
10135.287,29.297,-9.766,0.488,37.109,18.066,0
10135.290,15.137,-7.812,-0.488,28.809,-12.207,0
10135.294,31.250,-7.324,1.953,37.598,47.363,0
10135.298,52.734,-4.395,2.930,45.410,107.910,0
10135.302,41.992,-4.883,0.977,40.039,71.289,0
10135.306,20.508,-3.906,-2.441,33.203,6.348,0
10135.310,20.996,-2.441,-1.953,32.227,36.133,0
10135.314,38.574,-3.906,0.488,41.016,75.195,0
10135.318,32.715,-7.324,0.488,44.922,66.406,0
10135.322,21.484,-6.836,0.488,36.621,-2.930,0
10135.326,29.785,-5.371,0.000,41.016,11.230,0
10135.330,49.805,-6.836,0.977,46.875,66.895,0
10135.333,55.176,-5.371,3.906,44.922,72.266,0
10135.337,34.668,-6.836,3.418,40.039,39.551,0
10135.341,23.926,-7.324,0.977,37.109,6.836,0
10135.345,43.457,-4.883,2.441,40.039,25.391,0
10135.349,53.223,-8.789,-1.465,35.645,55.176,0
10135.353,35.645,-9.766,-2.441,31.250,17.090,0
10135.357,24.902,-9.766,0.977,34.668,-21.484,0
10135.361,38.574,-11.230,3.906,40.039,21.484,0
10135.365,54.199,-9.277,3.906,40.527,67.383,0
10135.369,44.434,-8.301,1.465,29.297,50.781,0
10135.372,30.762,-6.836,-0.977,30.273,28.809,0
10135.376,36.133,-3.906,0.000,35.645,20.508,0
10135.380,55.176,-6.348,0.488,34.180,42.480,0
10135.384,50.781,-10.742,-4.395,31.250,72.754,0
10135.388,23.926,-12.207,-2.930,27.832,32.715,0
10135.392,24.414,-11.719,0.977,27.832,-2.930,0
10135.396,57.129,-7.324,1.465,35.645,62.988,0
10135.400,60.547,-5.859,-0.488,39.062,89.355,0
10135.404,33.691,-8.301,-1.953,32.227,37.109,0
10135.408,22.461,-11.230,-2.441,26.367,6.348,0
10135.412,38.574,-10.742,-5.371,25.391,15.137,0
10135.415,55.176,-9.766,-3.906,25.879,73.242,0
10135.419,39.062,-11.719,-3.418,27.344,70.312,0
10135.423,21.973,-11.719,-5.371,20.020,-16.602,0
10135.427,40.527,-5.371,-1.465,22.949,-30.273,0
10135.431,57.617,-5.859,-3.418,34.180,57.617,0
10135.435,42.480,-13.672,-5.371,27.832,53.711,0
10135.439,28.320,-10.254,-2.441,22.949,-14.160,0
10135.443,33.203,-7.812,-4.883,27.344,-13.184,0
10135.447,55.664,-8.301,-6.348,33.691,64.941,0
10135.451,53.711,-6.348,-2.930,36.133,85.938,0
10135.455,28.809,-7.812,1.465,35.645,11.230,0
10135.458,25.391,-10.254,2.930,34.180,-25.391,0
10135.462,44.922,-10.254,-1.953,34.668,25.391,0
10135.466,53.711,-10.254,-2.930,36.621,73.242,0
10135.470,33.203,-8.301,-1.465,30.273,14.648,0
10135.474,16.113,-7.812,-6.836,24.902,-33.203,0
10135.478,32.715,-11.230,-6.836,35.156,18.555,0
10135.482,44.922,-11.230,-6.836,42.969,53.223,0
10135.486,23.438,-12.695,-5.859,34.668,35.645,0
10135.490,5.371,-15.137,-1.953,31.250,21.973,0
10135.494,20.508,-10.742,1.465,37.109,19.043,0
10135.497,46.875,-8.789,-0.488,40.527,54.199,0
10135.501,36.133,-12.207,-1.953,34.668,62.988,0
10135.505,9.766,-13.184,0.977,28.809,14.648,0
10135.509,14.160,-11.230,0.977,30.273,-1.465,0
10135.513,41.016,-12.695,-0.977,35.156,20.996,0
10135.517,40.527,-16.602,-2.930,36.133,30.273,0
10135.521,17.090,-17.578,-3.418,33.691,-14.648,0
10135.525,11.719,-18.555,-2.441,36.621,-25.879,0
10135.529,36.621,-15.137,-0.977,35.645,26.855,0
10135.533,50.293,-14.648,-1.465,36.621,21.973,0
10135.537,37.109,-15.625,-4.883,36.621,2.930,0
10135.540,26.367,-13.672,-4.883,32.227,-16.602,0
10135.544,37.598,-14.160,-3.906,37.598,6.348,0
10135.548,49.805,-17.090,-4.395,42.480,77.148,0
10135.552,33.203,-18.066,-5.859,38.574,76.172,0
10135.556,16.113,-17.090,-4.395,33.203,38.574,0
10135.560,28.809,-19.043,-0.977,30.273,20.508,0
10135.564,53.223,-19.043,-1.465,30.273,51.270,0
10135.568,45.410,-16.113,-1.465,27.344,73.730,0
10135.572,20.508,-17.090,-0.977,19.043,11.230,0
10135.576,13.184,-20.508,-4.883,18.066,-12.695,0
10135.580,33.203,-20.020,-5.371,27.832,64.453,0
10135.583,44.922,-17.578,-3.906,32.227,82.031,0
10135.587,25.391,-15.625,-5.859,27.344,14.160,0
10135.591,12.695,-18.555,-6.348,25.391,-17.090,0
10135.595,36.133,-17.578,-3.418,36.133,27.344,0
10135.599,61.035,-15.625,-1.953,43.945,65.430,0
10135.603,42.480,-16.113,-5.859,35.645,35.156,0
10135.607,19.043,-17.578,-6.348,26.367,-10.742,0
10135.611,38.574,-18.066,-2.930,37.598,29.297,0
10135.615,62.988,-14.648,-3.418,45.898,102.539,0
10135.619,50.781,-15.137,-6.836,37.598,62.012,0
10135.622,21.973,-18.555,-6.836,28.320,-18.555,0
10135.626,19.043,-19.043,-5.371,32.227,3.906,0
10135.630,49.316,-17.578,-7.812,36.133,52.246,0
10135.634,55.664,-18.555,-9.766,33.203,68.848,0
10135.638,25.391,-19.043,-6.348,30.762,53.223,0
10135.642,20.020,-17.578,-5.371,31.250,0.000,0
10135.646,46.875,-16.113,-7.812,38.574,40.039,0
10135.650,53.223,-17.090,-8.789,39.062,68.848,0
10135.654,35.645,-18.555,-10.254,29.297,-7.324,0
10135.658,27.344,-20.508,-7.324,32.715,-23.926,0
10135.662,43.945,-20.508,-7.324,42.480,52.734,0
10135.665,55.664,-20.020,-8.301,39.062,93.262,0
10135.669,37.598,-20.996,-6.348,32.715,59.570,0
10135.673,19.043,-22.461,-5.371,33.203,20.020,0
10135.677,31.738,-20.996,-5.371,36.621,2.441,0
10135.681,55.176,-20.508,-3.418,42.969,36.133,0
10135.685,45.410,-20.996,-3.418,40.527,67.383,0
10135.689,15.625,-21.973,-6.836,26.855,20.020,0
10135.693,16.113,-21.973,-7.324,25.391,-24.414,0
10135.697,45.410,-17.578,-6.348,33.203,41.016,0
10135.701,48.340,-16.602,-4.883,34.668,78.125,0
10135.705,25.391,-20.996,-3.418,29.785,7.324,0
10135.708,21.973,-20.996,-3.906,25.879,-40.527,0
10135.712,47.363,-20.020,-6.836,31.738,14.648,0
10135.716,57.617,-21.973,-8.301,39.062,80.078,0
10135.720,29.297,-20.508,-8.301,35.645,43.457,0
10135.724,19.531,-20.508,-9.766,31.738,-6.348,0
10135.728,39.551,-19.043,-6.348,38.086,38.086,0
10135.732,56.641,-20.020,-4.395,45.410,67.871,0
10135.736,39.062,-24.414,-7.812,36.621,-6.836,0
10135.740,20.996,-24.414,-7.812,22.949,-54.199,0
10135.744,32.715,-22.461,-8.301,22.461,-7.812,0
10135.747,48.340,-21.973,-5.859,30.273,51.758,0
10135.751,43.945,-20.996,-5.859,29.785,54.688,0
10135.755,20.508,-22.461,-8.301,22.949,-11.719,0
10135.759,23.438,-28.320,-7.812,24.414,-25.391,0
10135.763,54.199,-26.855,-7.812,35.645,54.688,0
10135.767,56.152,-26.367,-7.324,40.527,70.312,0
10135.771,30.762,-28.809,-8.301,31.250,22.949,0
10135.775,22.949,-28.809,-7.324,31.738,14.648,0
10135.779,48.828,-26.367,-3.418,45.898,46.387,0
10135.783,62.988,-24.902,-2.441,46.387,60.059,0
10135.787,37.598,-27.344,-8.789,32.227,14.160,0
10135.790,24.902,-26.367,-9.277,25.879,-26.367,0
10135.794,35.645,-27.832,-7.324,31.250,27.832,0
10135.798,49.805,-28.809,-8.301,33.203,84.473,0
10135.802,42.480,-24.414,-6.836,27.832,49.316,0
10135.806,22.949,-24.414,-9.277,21.484,-6.836,0
10135.810,32.715,-26.855,-7.812,25.391,7.324,0
10135.814,55.664,-26.367,-6.348,35.156,49.316,0
10135.818,52.246,-26.855,-5.859,35.156,51.270,0
10135.822,27.344,-27.832,-4.395,32.227,19.531,0
10135.826,24.902,-27.832,-5.859,34.180,13.184,0
10135.830,50.293,-23.926,-6.348,43.945,63.965,0
10135.833,56.152,-22.949,-4.883,48.340,84.961,0
10135.837,35.156,-26.367,-6.348,39.551,38.086,0
10135.841,26.855,-27.344,-6.836,29.297,-1.465,0
10135.845,42.480,-25.879,-7.324,32.715,27.832,0
10135.849,57.617,-23.438,-8.789,40.039,86.914,0
10135.853,36.621,-23.438,-7.324,33.691,58.105,0
10135.857,14.160,-22.949,-6.836,28.320,-9.766,0
10135.861,33.203,-22.461,-9.277,39.062,29.785,0
10135.865,55.176,-26.367,-12.695,42.969,62.988,0
10135.869,44.922,-27.832,-7.812,37.109,39.551,0
10135.872,25.879,-26.855,-5.371,35.156,8.301,0
10135.876,25.879,-26.855,-9.277,32.227,-14.160,0
10135.880,49.316,-24.902,-7.812,36.621,37.109,0
10135.884,53.223,-21.484,-6.348,37.598,59.082,0
10135.888,27.344,-23.438,-8.301,27.832,10.254,0
10135.892,18.555,-27.832,-8.789,21.973,-27.344,0
10135.896,43.457,-26.367,-8.301,30.273,14.648,0
10135.900,59.082,-23.438,-7.324,40.039,71.777,0
10135.904,33.691,-21.484,-6.348,35.645,57.129,0
10135.908,20.508,-20.996,-7.324,29.297,-20.508,0
10135.912,43.457,-24.902,-5.371,31.738,-10.254,0
10135.915,55.176,-26.855,-6.348,39.062,66.406,0
10135.919,43.457,-27.832,-9.766,34.180,47.852,0
10135.923,35.645,-25.879,-7.812,25.879,-2.441,0
10135.927,53.711,-22.461,-9.766,28.809,5.371,0
10135.931,92.773,-22.949,-7.324,37.598,49.316,0
10135.935,91.797,-21.484,-4.395,31.250,36.621,0
10135.939,61.523,-24.414,-5.859,20.996,0.000,0
10135.943,61.523,-27.832,-3.906,30.762,19.043,0
10135.947,76.172,-25.879,-5.859,43.945,84.473,0
10135.951,65.918,-27.832,-5.371,47.363,98.633,0
10135.955,30.762,-30.762,-4.883,43.945,9.766,0
10135.958,21.973,-30.762,-4.395,40.527,-8.301,0
10135.962,43.457,-29.297,-3.906,50.781,47.363,0
10135.966,45.898,-28.320,-1.953,54.199,80.078,0
10135.970,27.832,-28.320,-1.465,41.992,45.410,0
10135.974,16.113,-30.762,-5.859,32.715,-1.465,0
10135.978,35.156,-27.344,-7.324,38.574,11.230,0
10135.982,49.805,-25.391,-6.836,38.574,48.828,0
10135.986,33.691,-25.391,-5.859,33.691,49.316,0
10135.990,18.066,-24.414,-6.836,31.250,-11.719,0
10135.994,25.879,-25.879,-5.371,28.809,-24.414,0
10135.997,47.363,-29.297,-4.395,39.062,29.297,0
10136.001,36.133,-33.203,-4.883,39.551,54.199,0
10136.005,15.625,-30.762,-2.441,35.156,-0.488,0
10136.009,20.996,-26.367,-5.371,36.133,-2.441,0
10136.013,45.898,-28.320,-6.348,41.016,55.176,0
10136.017,54.688,-27.344,-6.348,43.945,65.430,0
10136.021,29.297,-28.320,-4.883,34.180,24.902,0
10136.025,17.578,-28.320,-6.836,23.438,-18.555,0
10136.029,38.086,-26.367,-11.230,26.855,22.949,0
10136.033,46.387,-25.879,-8.301,36.621,102.539,0
10136.037,32.227,-26.367,-7.324,34.180,72.266,0
10136.040,24.902,-28.320,-6.348,30.762,5.371,0
10136.044,39.551,-30.273,-5.859,39.551,32.227,0
10136.048,56.152,-28.320,-6.348,46.387,71.777,0
10136.052,37.598,-29.297,-7.812,36.133,36.621,0
10136.056,19.531,-29.785,-7.812,28.809,-7.324,0
10136.060,29.297,-24.414,-7.812,32.715,16.113,0
10136.064,45.410,-27.832,-7.812,35.645,68.848,0
10136.068,46.387,-31.250,-8.301,32.715,55.176,0
10136.072,20.996,-28.320,-7.324,24.414,12.207,0
10136.076,21.973,-27.832,-5.371,31.250,15.137,0
10136.080,55.176,-25.391,-7.324,41.504,41.992,0
10136.083,62.500,-24.902,-7.324,42.480,45.410,0
10136.087,37.598,-27.344,-7.812,38.086,22.949,0
10136.091,28.320,-27.832,-6.348,37.109,5.859,0
10136.095,49.316,-29.297,-1.953,42.480,26.855,0
10136.099,56.641,-29.785,-2.930,42.969,45.410,0
10136.103,38.574,-28.809,-4.395,33.203,49.316,0
10136.107,27.344,-27.832,-4.395,31.738,8.789,0
10136.111,38.574,-24.414,-4.395,40.039,-13.184,0
10136.115,60.059,-22.461,-6.348,41.504,52.734,0
10136.119,55.176,-23.438,-9.277,34.668,59.570,0
10136.122,35.156,-25.879,-11.719,25.391,4.395,0
10136.126,43.457,-25.391,-9.277,26.367,-15.625,0
10136.130,67.383,-23.926,-7.812,35.645,52.246,0
10136.134,69.336,-23.926,-6.836,37.598,72.754,0
10136.138,47.363,-20.508,-8.301,31.250,1.953,0
10136.142,41.016,-22.949,-10.254,32.227,-11.230,0
10136.146,62.012,-27.344,-8.789,43.945,38.086,0
10136.150,68.848,-25.879,-8.789,43.945,71.777,0
10136.154,47.852,-24.902,-8.301,35.645,49.805,0
10136.158,38.574,-24.902,-8.301,36.621,16.113,0
10136.162,61.523,-23.438,-6.836,46.875,15.625,0
10136.165,77.148,-21.484,-6.348,51.270,65.918,0
10136.169,63.965,-23.926,-9.277,45.898,68.359,0
10136.173,53.711,-25.391,-12.695,44.922,30.762,0
10136.177,58.105,-24.902,-10.742,44.434,26.855,0
10136.181,63.965,-26.367,-5.371,36.621,74.219,0
10136.185,51.270,-26.855,-6.348,32.227,96.680,0
10136.189,26.855,-29.297,-5.371,31.738,38.086,0
10136.193,22.461,-30.273,-0.977,31.250,-1.465,0
10136.197,48.828,-30.273,-2.930,29.785,40.039,0
10136.201,53.223,-29.297,-3.418,28.809,60.547,0
10136.205,25.391,-29.785,-2.441,27.832,14.648,0
10136.208,19.531,-30.273,-3.906,31.250,-31.738,0
10136.212,41.992,-28.809,-2.930,44.922,-7.324,0
10136.216,47.852,-29.297,-0.977,48.340,58.105,0
10136.220,29.297,-27.832,-6.348,36.621,17.090,0
10136.224,13.672,-26.855,-6.836,32.227,-41.504,0
10136.228,28.320,-29.785,-1.465,37.109,-1.465,0
10136.232,52.246,-27.832,-1.465,39.551,75.684,0
10136.236,38.086,-26.855,-1.953,38.574,68.848,0
10136.240,19.531,-26.855,-0.488,35.156,15.137,0
10136.244,30.762,-23.926,-1.953,37.109,29.785,0
10136.247,53.223,-23.926,-2.930,39.062,96.680,0
10136.251,48.340,-28.809,-2.930,36.133,79.590,0
10136.255,23.926,-29.785,-3.906,34.180,-12.207,0
10136.259,26.367,-26.855,0.488,40.039,-24.414,0
10136.263,52.246,-27.832,1.953,47.852,25.879,0
10136.267,58.105,-29.297,-2.441,45.410,56.641,0
10136.271,30.762,-27.344,-0.977,41.992,36.621,0
10136.275,21.484,-23.926,-0.488,42.969,1.465,0
10136.279,50.781,-25.391,-4.883,50.293,32.715,0
10136.283,66.895,-26.367,-5.859,56.152,78.125,0
10136.287,49.316,-24.414,-6.348,51.758,57.617,0
10136.290,31.738,-24.414,-5.859,47.852,0.000,0
10136.294,43.457,-24.902,-3.418,51.270,1.953,0
10136.298,62.500,-24.414,-1.953,59.082,63.965,0
10136.302,48.340,-24.414,-3.418,53.711,54.688,0
10136.306,24.902,-24.902,-2.930,42.969,-5.859,0
10136.310,29.785,-24.414,-1.953,43.945,-27.344,0
10136.314,52.246,-22.949,-2.930,46.875,54.688,0
10136.318,56.641,-23.438,-3.418,46.875,73.730,0
10136.322,32.227,-23.926,-3.418,39.551,-1.465,0
10136.326,18.555,-24.414,-3.906,30.762,0.977,0
10136.330,46.875,-25.879,-5.371,35.156,52.246,0
10136.333,54.688,-24.414,-5.859,38.086,81.055,0
10136.337,24.414,-24.414,-6.348,28.320,41.992,0
10136.341,14.160,-23.438,-6.348,28.320,1.953,0
10136.345,35.156,-20.020,-3.418,37.598,55.176,0
10136.349,51.758,-20.996,-4.883,44.922,115.723,0
10136.353,34.668,-21.973,-4.883,38.086,46.875,0
10136.357,15.625,-23.926,-3.906,28.809,-55.664,0
10136.361,26.367,-24.414,-3.418,35.156,-8.301,0
10136.365,48.828,-25.391,-2.930,41.992,71.289,0
10136.369,41.992,-23.438,-2.930,37.109,41.504,0
10136.372,19.531,-20.508,-2.930,30.273,-26.367,0
10136.376,24.902,-20.508,-3.418,29.785,-14.160,0
10136.380,51.758,-20.996,-5.859,34.180,54.688,0
10136.384,54.199,-22.461,-7.324,36.621,64.941,0
10136.388,32.227,-17.578,-3.906,33.691,20.508,0
10136.392,27.344,-17.090,-2.930,32.715,-14.648,0
10136.396,52.246,-21.484,-4.395,41.016,47.852,0
10136.400,57.617,-20.996,-4.395,39.551,61.523,0
10136.404,37.598,-19.043,-4.395,28.809,6.836,0
10136.408,29.785,-17.090,-2.441,30.762,8.789,0
10136.412,42.480,-18.555,-2.930,37.109,35.156,0
10136.415,55.664,-19.531,-5.371,41.016,49.316,0
10136.419,42.480,-17.090,-3.418,41.992,27.344,0
10136.423,30.273,-16.113,-1.465,39.062,-14.648,0
10136.427,38.574,-17.578,-4.883,39.551,-34.668,0
10136.431,58.594,-18.555,-6.348,43.457,29.785,0
10136.435,57.617,-18.555,-4.395,40.527,61.523,0
10136.439,34.668,-20.508,-4.883,34.668,20.020,0
10136.443,32.227,-18.555,-5.371,39.062,-42.480,0
10136.447,58.105,-17.090,-3.418,48.828,5.371,0
10136.451,63.965,-20.020,-3.906,50.781,83.008,0
10136.455,41.504,-21.484,-5.371,44.922,31.738,0
10136.458,28.809,-19.531,-5.859,41.504,-5.859,0
10136.462,45.410,-17.090,-4.395,46.875,51.758,0
10136.466,59.570,-19.531,-4.395,48.828,104.004,0
10136.470,39.551,-20.996,-4.395,42.480,69.336,0
10136.474,26.855,-19.531,-3.418,35.156,26.855,0
10136.478,46.875,-19.531,-2.441,37.598,1.465,0
10136.482,59.082,-20.508,-4.395,43.457,13.184,0
10136.486,44.434,-20.020,-7.324,37.598,31.250,0
10136.490,25.391,-18.066,-7.812,27.832,-32.227,0
10136.494,32.227,-15.137,-7.812,28.809,-34.180,0
10136.497,54.688,-13.672,-3.418,39.062,61.035,0
10136.501,44.922,-16.602,-0.977,40.039,68.848,0
10136.505,15.625,-20.020,-1.465,28.809,27.832,0
10136.509,17.090,-18.555,-3.418,24.902,16.113,0
10136.513,41.992,-17.578,-2.930,32.227,62.500,0
10136.517,49.316,-16.113,-1.465,34.180,87.402,0
10136.521,27.832,-13.672,-3.418,27.832,26.367,0
10136.525,14.648,-12.695,-0.488,29.297,0.000,0
10136.529,37.598,-14.648,0.488,36.133,32.715,0
10136.533,52.734,-15.137,-4.395,35.645,59.082,0
10136.537,31.250,-17.090,-6.348,27.344,33.691,0
10136.540,11.719,-19.531,-6.836,21.484,-9.277,0
10136.544,25.879,-18.066,-6.836,29.785,22.949,0
10136.548,47.852,-19.043,-2.930,35.645,50.781,0
10136.552,36.133,-20.508,0.977,30.762,34.668,0
10136.556,17.090,-21.484,-0.488,24.414,12.695,0
10136.560,25.879,-21.484,-4.395,26.367,-6.348,0
10136.564,44.434,-20.996,-3.906,33.203,48.340,0
10136.568,40.527,-21.484,-0.977,29.297,81.055,0
10136.572,16.602,-22.949,0.000,23.438,31.738,0
10136.576,14.160,-22.461,0.488,25.879,-24.902,0
10136.580,40.527,-21.973,1.465,36.133,4.883,0
10136.583,48.340,-25.391,-1.953,37.598,61.523,0
10136.587,28.809,-21.484,-0.977,31.738,30.762,0
10136.591,23.438,-17.090,0.000,27.832,-0.488,0
10136.595,36.133,-20.996,-4.883,27.832,11.230,0
10136.599,51.758,-20.020,-4.395,37.598,73.730,0
10136.603,42.480,-18.555,0.000,38.086,88.867,0
10136.607,21.973,-21.973,0.000,26.855,-4.395,0
10136.611,33.203,-21.484,2.930,29.297,-14.160,0
10136.615,55.176,-19.043,1.953,41.016,57.617,0
10136.619,46.875,-19.043,-1.953,41.504,41.016,0
10136.622,19.043,-20.996,-0.488,34.180,-28.809,0
10136.626,21.484,-20.020,-0.977,34.668,-24.414,0
10136.630,47.852,-18.066,0.000,42.480,41.504,0
10136.634,49.316,-19.043,2.441,44.434,83.496,0
10136.638,29.785,-21.484,0.488,39.551,24.414,0
10136.642,22.461,-16.602,0.000,32.227,-11.719,0
10136.646,45.410,-13.184,-0.488,40.039,51.758,0
10136.650,58.594,-18.066,0.977,51.270,94.238,0
10136.654,33.691,-21.484,1.465,41.504,39.551,0
10136.658,16.113,-20.508,1.465,33.203,3.418,0
10136.662,37.109,-19.043,0.977,39.551,47.363,0
10136.665,62.012,-17.090,2.930,41.992,83.008,0
10136.669,53.223,-15.625,4.883,33.691,53.223,0
10136.673,36.621,-15.137,2.930,26.855,-11.719,0
10136.677,49.805,-16.113,-2.441,29.297,-7.324,0
10136.681,78.125,-14.648,-2.930,30.273,55.176,0
10136.685,82.520,-10.254,-0.977,21.973,17.090,0
10136.689,59.082,-11.719,-3.906,17.090,-19.531,0
10136.693,57.617,-12.695,-1.953,20.996,3.906,0
10136.697,77.148,-10.742,0.000,30.273,40.039,0
10136.701,69.824,-11.230,-2.441,32.227,48.828,0
10136.705,39.551,-12.207,0.000,33.203,11.230,0
10136.708,20.996,-11.719,1.465,33.203,7.324,0
10136.712,36.621,-11.230,-1.953,33.203,29.785,0
10136.716,45.410,-11.719,-0.977,41.504,66.895,0
10136.720,19.043,-13.672,2.930,35.645,41.992,0
10136.724,8.301,-10.742,1.953,31.250,9.277,0
10136.728,30.762,-10.742,-1.953,35.645,30.273,0
10136.732,51.270,-11.719,-1.465,39.551,57.617,0
10136.736,42.969,-10.254,0.488,38.086,52.246,0
10136.740,20.996,-10.254,-0.488,36.621,-4.883,0
10136.744,20.020,-11.230,0.000,34.668,9.766,0
10136.747,48.828,-12.695,0.000,36.133,55.176,0
10136.751,48.828,-13.672,1.953,41.016,67.871,0
10136.755,24.902,-10.742,5.859,33.691,19.043,0
10136.759,25.879,-10.254,3.906,31.738,-8.789,0
10136.763,47.852,-11.230,1.953,38.086,41.016,0
10136.767,56.641,-8.789,2.441,39.062,76.172,0
10136.771,34.180,-9.766,1.465,34.180,43.457,0
10136.775,26.367,-11.230,2.930,29.297,-19.531,0
10136.779,48.340,-11.719,7.324,39.062,3.906,0
10136.783,55.664,-11.230,8.789,48.828,61.523,0
10136.787,36.621,-8.301,4.883,39.062,0.488,0
10136.790,20.020,-9.277,4.883,29.785,-45.898,0
10136.794,33.691,-10.254,7.812,39.062,15.625,0
10136.798,57.617,-12.695,7.812,48.340,69.336,0
10136.802,49.316,-11.719,5.371,40.039,64.941,0
10136.806,25.391,-8.301,5.371,28.809,-23.438,0
10136.810,26.367,-8.789,7.812,28.809,-27.344,0
10136.814,53.711,-8.301,7.324,38.086,56.641,0
10136.818,59.082,-8.301,5.859,41.504,66.895,0
10136.822,37.109,-7.324,5.371,31.250,5.859,0
10136.826,30.273,-8.301,3.418,28.320,0.000,0
10136.830,52.734,-6.348,5.371,38.086,55.664,0
10136.833,65.430,-8.301,6.836,40.527,70.312,0
10136.837,42.480,-12.207,2.441,33.691,35.645,0
10136.841,24.902,-10.742,3.906,29.297,-5.859,0
10136.845,41.504,-11.719,5.371,35.156,47.363,0
10136.849,64.941,-12.207,5.859,44.434,101.074,0
10136.853,60.547,-8.789,2.930,49.316,59.082,0
10136.857,36.621,-7.324,2.441,37.598,6.836,0
10136.861,26.855,-8.301,0.977,22.949,3.906,0
10136.865,42.480,-7.324,-0.977,27.832,55.664,0
10136.869,45.410,-5.859,-0.488,31.738,52.246,0
10136.872,24.902,-6.348,-3.418,27.832,4.395,0
10136.876,32.715,-4.395,-0.977,32.227,-16.113,0
10136.880,59.570,-4.395,3.418,41.016,34.668,0
10136.884,53.711,-4.883,5.371,40.527,59.570,0
10136.888,30.273,-4.883,3.418,31.250,-0.488,0
10136.892,26.367,-5.859,1.465,24.902,-16.113,0
10136.896,44.922,-4.395,2.441,31.738,33.203,0
10136.900,57.129,-3.906,0.977,35.156,69.336,0
10136.904,37.109,-6.348,0.488,28.320,21.484,0
10136.908,20.508,-4.883,1.953,25.391,-36.621,0
10136.912,34.668,-0.488,-0.488,26.855,-24.414,0
10136.915,59.082,-1.953,1.465,35.156,31.250,0
10136.919,55.176,-2.930,3.418,36.133,17.090,0
10136.923,32.227,0.000,4.395,30.273,-28.809,0
10136.927,39.062,-2.930,3.906,29.297,-23.438,0
10136.931,63.477,-4.395,2.930,36.133,29.785,0
10136.935,55.664,-4.883,0.488,33.203,61.523,0
10136.939,25.879,-5.859,2.441,25.391,-10.254,0
10136.943,25.879,-2.930,5.859,28.320,-43.457,0
10136.947,51.758,0.000,5.859,41.992,56.641,0
10136.951,54.199,-2.441,5.859,45.410,79.590,0
10136.955,32.715,-2.441,4.883,31.738,-8.789,0
10136.958,20.020,-3.418,3.906,32.715,-30.762,0
10136.962,38.086,-5.859,1.953,40.527,33.691,0
10136.966,58.105,-3.418,2.930,45.898,51.758,0
10136.970,36.621,-2.930,4.883,41.016,13.672,0
10136.974,20.996,-2.441,6.348,35.156,-11.719,0
10136.978,33.203,-3.418,8.789,40.039,20.996,0
10136.982,49.316,-3.906,10.254,46.387,74.219,0
10136.986,40.039,-2.930,7.324,44.922,65.918,0
10136.990,20.996,-1.465,7.812,38.574,33.691,0
10136.994,21.973,-1.465,9.766,35.156,31.738,0
10136.997,41.016,-0.977,7.324,37.598,70.801,0
10137.001,43.945,0.000,7.324,40.039,62.988,0
10137.005,25.879,-1.953,9.277,36.621,9.766,0
10137.009,17.578,-3.906,5.859,30.762,-20.020,0
10137.013,39.551,-1.465,5.371,32.227,18.066,0
10137.017,52.246,0.000,6.836,35.156,82.031,0
10137.021,29.297,1.465,4.395,32.227,21.484,0
10137.025,13.672,0.977,3.906,28.809,-24.902,0
10137.029,30.762,-2.441,5.371,31.738,7.324,0
10137.033,46.875,-1.953,5.859,34.668,56.152,0
10137.037,36.621,-2.441,7.324,32.227,41.016,0
10137.040,23.438,-1.953,6.348,33.203,-28.809,0
10137.044,28.809,0.000,6.836,33.691,3.418,0
10137.048,49.316,-2.441,8.301,33.691,60.547,0
10137.052,37.598,-5.371,8.789,35.156,60.059,0
10137.056,13.672,-4.395,6.836,26.855,31.250,0
10137.060,21.973,-1.465,2.441,27.344,-6.348,0
10137.064,47.363,0.000,3.418,33.691,40.527,0
10137.068,47.363,2.441,5.859,31.738,96.680,0
10137.072,21.484,0.488,7.324,25.879,51.758,0
10137.076,11.230,-3.418,5.371,22.461,17.578,0
10137.080,28.320,0.977,5.371,30.273,58.594,0
10137.083,42.480,0.000,5.371,35.156,88.379,0
10137.087,23.438,-0.977,3.418,24.414,25.391,0
10137.091,13.672,0.000,4.883,17.090,-18.066,0
10137.095,35.156,0.488,3.906,23.438,37.109,0
10137.099,50.781,1.953,5.859,31.738,78.613,0
10137.103,38.086,0.000,5.859,29.785,55.176,0
10137.107,20.996,1.953,6.348,22.949,41.504,0
10137.111,27.344,1.953,10.742,27.832,33.691,0
10137.115,44.922,-1.465,10.254,37.598,67.383,0
10137.119,38.086,1.465,9.277,37.109,78.613,0
10137.122,14.160,1.465,9.277,25.391,19.531,0
10137.126,15.625,-3.906,8.301,24.414,20.508,0
10137.130,45.898,-0.977,9.277,34.180,72.266,0
10137.134,54.199,2.441,9.277,33.203,64.453,0
10137.138,29.297,0.488,9.277,28.809,-3.418,0
10137.142,22.949,1.953,7.324,26.855,-40.527,0
10137.146,42.969,2.441,6.348,32.227,-9.277,0
10137.150,54.199,0.977,9.277,33.691,30.762,0
10137.154,38.086,3.906,12.695,28.809,23.438,0
10137.158,20.996,4.395,10.254,26.367,-1.953,0
10137.162,35.645,0.977,9.766,32.227,3.906,0
10137.165,62.500,2.930,12.695,40.527,40.527,0
10137.169,52.734,3.906,9.277,34.180,68.848,0
10137.173,24.902,-0.977,9.766,29.297,36.133,0
10137.177,20.996,-2.930,11.230,35.156,26.367,0
10137.181,41.504,-1.465,7.812,38.574,58.105,0
10137.185,46.387,-0.488,7.812,37.109,53.711,0
10137.189,26.855,1.465,10.254,32.227,20.508,0
10137.193,20.508,4.395,13.672,29.297,-3.418,0
10137.197,38.574,2.441,15.625,30.273,21.484,0
10137.201,47.363,0.000,18.066,32.715,76.172,0
10137.205,30.273,-0.977,16.113,32.715,62.012,0
10137.208,14.160,-4.395,10.254,29.785,12.207,0
10137.212,31.738,-2.441,9.766,32.715,16.602,0
10137.216,52.246,1.953,9.766,37.109,56.641,0
10137.220,37.598,3.906,9.766,34.668,50.781,1
10137.224,20.996,3.906,12.207,28.809,9.766,0
10137.228,36.621,2.441,14.160,30.762,7.812,0
10137.232,62.988,4.883,12.207,35.156,53.223,0
10137.236,49.805,6.836,12.207,31.738,42.969,0
10137.240,20.996,8.301,11.719,30.273,0.977,0
10137.244,27.344,6.836,10.742,29.297,-15.625,0
10137.247,54.199,5.371,14.648,33.203,16.113,0
10137.251,50.293,3.906,13.672,35.156,38.086,0
10137.255,25.391,2.930,8.301,26.367,11.230,0
10137.259,19.531,3.418,5.859,21.484,-21.484,0
10137.263,44.434,4.395,11.719,32.715,28.809,0
10137.267,55.664,3.418,14.160,37.598,68.359,0
10137.271,34.668,1.953,6.348,27.832,24.414,0
10137.275,23.438,1.953,6.348,22.949,35.156,0
10137.279,41.992,3.906,11.719,30.273,63.477,0
10137.283,60.059,3.418,12.207,35.645,94.238,0
10137.287,39.062,0.488,10.742,28.809,59.570,0
10137.290,20.020,0.000,12.695,26.855,-31.250,0
10137.294,33.691,2.441,14.160,36.621,-21.484,0
10137.298,60.059,3.906,13.672,43.945,63.477,0
10137.302,52.734,4.395,11.230,35.645,90.332,0
10137.306,24.414,2.441,10.742,28.320,39.551,0
10137.310,21.973,2.441,10.254,31.250,1.953,0
10137.314,43.457,4.395,13.672,34.180,34.180,0
10137.318,49.805,5.371,14.160,32.715,71.777,0
10137.322,29.785,4.395,12.207,25.879,11.230,0
10137.326,20.020,2.930,15.137,23.926,-25.879,0
10137.330,41.016,5.859,13.184,27.832,1.953,0
10137.333,54.688,5.859,9.277,29.297,7.324,0
10137.337,34.180,2.441,9.766,26.367,-20.996,0
10137.341,22.461,3.906,11.719,24.414,-42.969,0
10137.345,42.969,5.859,14.160,34.668,4.883,0
10137.349,59.570,4.395,17.090,41.016,72.266,0
10137.353,41.504,3.906,15.137,35.156,71.777,0
10137.357,19.531,8.789,12.207,31.738,37.109,0
10137.361,30.273,8.789,9.766,32.715,52.734,0
10137.365,57.129,4.395,10.254,38.086,88.867,0
10137.369,56.641,6.836,8.789,40.039,63.965,0
10137.372,32.227,8.301,6.348,33.203,20.996,0
10137.376,31.738,9.277,10.742,29.297,-2.930,0
10137.380,49.316,11.230,16.113,39.551,36.621,0
10137.384,48.340,7.324,14.648,44.434,74.707,0
10137.388,28.809,7.812,11.230,39.551,24.414,0
10137.392,24.902,11.230,12.695,37.109,-28.320,0
10137.396,46.387,12.695,14.648,42.480,18.555,0
10137.400,59.082,11.230,15.625,50.293,72.266,0
10137.404,37.109,9.277,15.137,44.434,24.414,0
10137.408,19.043,9.766,16.113,35.156,-22.949,0
10137.412,33.691,11.230,16.602,36.621,23.438,0
10137.415,53.223,13.184,16.602,36.621,74.219,0
10137.419,41.992,10.742,15.625,30.762,54.688,0
10137.423,20.996,8.301,11.719,27.832,10.254,0
10137.427,29.297,9.277,12.695,30.762,-0.977,0
10137.431,51.758,11.719,15.137,38.086,68.848,0
10137.435,49.805,14.160,15.625,36.133,78.125,0
10137.439,29.785,11.719,13.184,25.879,-2.930,0
10137.443,30.762,8.301,10.742,22.949,-26.855,0
10137.447,57.617,9.766,9.766,28.320,42.969,0
10137.451,70.312,14.648,10.742,27.344,83.008,0
10137.455,57.129,18.555,10.742,20.508,34.668,0
10137.458,49.316,16.602,10.742,20.020,14.648,0
10137.462,69.824,13.672,14.160,26.855,54.199,0
10137.466,83.984,13.184,15.625,30.762,77.148,0
10137.470,55.176,11.719,14.160,31.250,40.527,0
10137.474,28.320,8.789,11.719,31.250,-0.977,0
10137.478,32.227,8.301,13.672,36.133,5.859,0
10137.482,48.828,12.207,14.648,49.316,40.527,0
10137.486,37.109,13.184,14.648,47.852,66.895,0
10137.490,8.301,9.277,16.602,37.598,18.555,0
10137.494,10.742,9.277,14.648,31.250,-17.090,0
10137.497,41.504,10.742,15.137,38.086,55.176,0
10137.501,42.969,14.160,15.137,43.945,81.055,0
10137.505,19.043,15.625,16.113,33.691,32.715,0
10137.509,17.578,12.207,17.090,27.344,-2.441,0
10137.513,41.992,10.254,12.695,32.227,29.297,0
10137.517,52.246,12.207,11.719,39.062,58.594,0
10137.521,30.273,11.719,15.625,34.180,17.578,0
10137.525,20.996,11.719,16.602,27.832,-35.156,0
10137.529,35.645,11.719,13.672,34.180,-0.488,0
10137.533,50.293,9.277,16.113,41.016,83.496,0
10137.537,38.574,8.301,14.648,30.762,61.035,0
10137.540,18.066,7.324,11.230,20.508,3.418,0
10137.544,27.832,9.766,13.184,29.297,15.625,0
10137.548,53.223,11.719,14.648,38.574,71.289,0
10137.552,48.828,11.230,17.578,35.156,47.363,0
10137.556,29.785,13.672,20.508,31.738,-48.828,0
10137.560,21.973,14.648,17.090,31.738,-39.551,0
10137.564,38.086,10.254,18.066,40.039,41.504,0
10137.568,38.086,7.324,18.066,36.621,87.891,0
10137.572,17.578,8.789,15.137,22.949,38.574,0
10137.576,19.043,9.766,18.555,30.273,3.418,0
10137.580,38.086,14.648,21.484,40.527,59.082,0
10137.583,47.363,15.137,21.484,41.016,103.027,0
10137.587,30.762,10.742,20.508,31.250,48.340,0
10137.591,15.625,10.254,15.625,22.949,9.277,0
10137.595,32.227,9.277,15.625,29.785,35.645,0
10137.599,51.270,9.277,17.090,38.086,42.480,0
10137.603,40.527,10.742,17.578,35.645,34.668,0
10137.607,20.508,14.648,18.066,28.320,-3.418,0
10137.611,27.344,13.184,17.578,27.832,6.836,0
10137.615,50.293,10.254,18.555,32.227,39.062,0
10137.619,44.922,12.695,15.625,25.879,39.062,0
10137.622,25.879,12.695,14.160,20.508,29.785,0
10137.626,22.949,9.277,17.090,26.367,-11.719,0
10137.630,47.363,10.254,22.461,37.109,20.508,0
10137.634,53.223,11.719,18.555,36.133,65.430,0
10137.638,21.484,6.836,14.648,26.855,20.020,0
10137.642,15.625,6.836,15.625,24.902,-22.949,0
10137.646,40.527,10.742,17.090,31.738,2.930,0
10137.650,56.152,12.207,19.043,35.645,51.758,0
10137.654,35.645,12.695,19.531,34.668,50.781,0
10137.658,15.625,14.160,18.066,28.320,-11.230,0
10137.662,31.738,15.137,17.090,23.438,-7.812,0
10137.665,54.688,12.695,20.020,30.762,88.379,0
10137.669,47.363,14.160,18.066,31.250,100.098,0
10137.673,30.762,15.625,16.113,25.391,-2.441,0
10137.677,35.645,11.719,20.996,27.344,-2.441,0
10137.681,53.223,11.230,22.461,37.598,82.520,0
10137.685,58.105,11.719,19.531,35.645,71.777,0
10137.689,38.086,15.137,19.043,25.879,16.113,0
10137.693,28.809,18.066,20.996,21.484,6.348,0
10137.697,51.270,17.090,20.508,28.320,63.477,0
10137.701,61.035,16.113,20.020,30.762,97.656,0
10137.705,40.527,17.090,20.508,26.855,28.320,0
10137.708,27.832,18.555,20.508,28.320,-17.090,0
10137.712,41.504,17.090,22.461,30.762,33.691,0
10137.716,57.617,15.625,21.484,32.227,66.895,0
10137.720,41.016,16.113,19.531,27.344,35.645,0
10137.724,16.113,16.113,20.996,20.996,1.465,0
10137.728,28.320,16.113,23.926,29.785,17.578,0
10137.732,55.664,13.672,21.484,38.574,70.801,0
10137.736,46.875,18.066,17.578,35.645,45.898,0
10137.740,20.020,22.461,20.996,34.180,-6.348,0
10137.744,22.461,16.602,22.461,40.527,8.301,0
10137.747,47.852,15.137,21.484,45.898,53.711,0
10137.751,51.758,17.578,23.926,41.992,65.918,0
10137.755,26.855,12.695,25.391,33.203,44.922,0
10137.759,20.508,12.695,24.414,33.203,30.762,0
10137.763,37.598,20.996,22.949,38.574,22.949,0
10137.767,46.387,21.484,22.949,38.086,42.969,0
10137.771,31.738,16.602,20.996,34.180,39.551,0
10137.775,20.508,16.113,21.484,33.203,-6.836,0
10137.779,35.156,16.113,25.391,35.645,20.508,0
10137.783,48.828,14.648,24.902,38.574,78.613,0
10137.787,34.668,17.090,21.973,31.738,52.734,0
10137.790,18.555,21.973,20.996,20.996,1.953,0
10137.794,21.973,18.555,19.043,20.508,-2.930,0
10137.798,40.527,15.625,15.625,28.320,20.996,0
10137.802,38.574,16.602,18.066,28.320,47.852,0
10137.806,14.648,15.137,20.020,20.996,11.719,0
10137.810,8.301,12.695,20.020,17.090,-29.785,0
10137.814,31.738,13.672,20.996,23.926,52.246,0
10137.818,42.480,14.160,19.043,29.297,68.359,0
10137.822,25.391,13.184,16.602,24.902,14.160,0
10137.826,11.719,13.672,17.578,15.137,-4.395,0
10137.830,22.949,12.207,18.555,21.973,-10.254,0
10137.833,40.527,13.672,20.996,39.551,36.133,0
10137.837,31.250,20.508,23.438,32.227,41.016,0
10137.841,16.113,19.531,24.902,21.484,-1.953,0
10137.845,24.902,17.578,22.949,28.320,0.977,0
10137.849,41.504,17.090,22.461,32.227,44.434,0
10137.853,32.227,14.160,25.391,28.809,17.090,0
10137.857,14.160,15.137,22.949,25.391,-58.105,0
10137.861,20.508,18.066,19.043,30.273,-74.219,0
10137.865,45.898,20.020,21.484,34.668,7.324,0
10137.869,47.363,19.043,26.367,33.691,8.789,0
10137.872,24.414,18.066,26.367,29.785,-26.367,0
10137.876,17.090,18.555,24.414,27.344,27.344,0
10137.880,38.574,15.625,22.949,32.715,75.684,0
10137.884,48.340,16.602,18.555,36.621,117.188,0
10137.888,30.273,18.066,15.625,32.715,67.871,0
10137.892,21.484,16.602,14.648,26.855,14.160,0
10137.896,38.086,19.043,18.555,33.203,30.762,0
10137.900,59.082,18.555,21.484,38.086,67.871,0
10137.904,40.039,18.066,20.996,28.809,63.965,0
10137.908,20.508,21.973,21.973,25.879,25.879,0
10137.912,36.133,20.996,20.508,34.180,50.293,0
10137.915,53.711,17.578,22.461,35.645,72.266,0
10137.919,43.457,18.066,25.879,30.273,52.734,0
10137.923,22.949,16.602,20.996,20.508,9.277,0
10137.927,24.902,17.578,19.043,26.855,3.906,0
10137.931,48.828,21.484,24.902,41.016,46.875,0
10137.935,51.758,18.066,23.926,41.016,87.402,0
10137.939,26.367,14.160,22.461,35.645,47.363,0
10137.943,17.090,13.672,25.391,33.691,-30.273,0
10137.947,39.551,14.648,24.414,37.109,23.926,0
10137.951,52.734,15.625,21.484,37.109,103.516,0
10137.955,29.297,16.602,20.996,29.785,49.805,0
10137.958,13.184,18.066,25.391,29.297,-36.621,0
10137.962,32.715,16.602,25.879,33.691,-19.043,0
10137.966,51.758,16.113,22.461,41.504,73.242,0
10137.970,37.109,14.648,23.926,34.668,53.223,0
10137.974,16.602,16.113,22.949,24.414,-12.207,0
10137.978,22.461,16.602,20.996,23.926,-2.441,0
10137.982,40.527,16.602,22.461,36.621,38.086,0
10137.986,40.527,18.555,22.949,41.016,53.223,0
10137.990,24.414,18.066,21.484,26.855,5.371,0
10137.994,19.043,19.043,18.066,22.461,-29.297,0
10137.997,39.551,21.973,14.648,31.738,32.227,0
10138.001,44.922,20.996,16.602,36.133,48.340,0
10138.005,22.461,19.043,20.020,31.738,-2.441,0
10138.009,16.113,19.043,20.020,33.203,-4.883,0
10138.013,36.133,18.066,20.508,36.133,54.199,0
10138.017,49.316,20.020,22.461,36.133,47.363,0
10138.021,38.086,20.020,22.949,31.250,0.000,0
10138.025,19.531,19.043,23.438,23.926,-15.137,0
10138.029,25.879,20.996,21.973,28.320,14.648,0
10138.033,46.875,19.043,21.484,34.180,68.359,0
10138.037,32.715,19.531,22.461,24.414,50.781,0
10138.040,9.277,20.020,21.484,15.137,5.859,0
10138.044,23.438,20.508,23.438,19.531,19.043,0
10138.048,48.340,21.973,23.926,29.785,62.012,0
10138.052,43.457,17.578,20.020,30.762,84.473,0
10138.056,19.043,18.066,24.414,30.273,61.035,0
10138.060,14.160,24.414,24.414,30.762,39.062,0
10138.064,36.133,24.414,19.043,33.691,55.664,0
10138.068,46.387,20.996,23.438,32.715,68.848,0
10138.072,26.367,22.461,26.855,23.438,19.043,0
10138.076,15.137,21.484,21.484,18.555,-38.574,0
10138.080,37.598,21.973,20.996,28.809,-11.719,0
10138.083,51.758,20.996,23.438,35.645,44.434,0
10138.087,26.855,21.484,23.438,29.785,29.297,0
10138.091,6.836,20.020,23.438,25.391,-21.973,0
10138.095,26.367,17.578,24.414,28.809,-19.043,0
10138.099,50.293,18.066,25.879,33.203,39.551,0
10138.103,48.340,17.090,24.902,36.621,60.547,0
10138.107,35.645,22.949,20.996,30.762,-6.836,0
10138.111,27.832,24.414,17.578,16.113,-32.227,0
10138.115,41.016,23.438,17.090,17.090,52.734,0
10138.119,44.922,25.391,18.555,25.879,61.523,0
10138.122,28.320,23.926,19.043,21.484,6.836,0
10138.126,20.996,23.926,18.066,18.066,-11.719,0
10138.130,36.621,22.949,19.043,30.762,26.855,0
10138.134,48.340,19.531,21.484,38.086,92.773,0
10138.138,26.367,20.020,20.996,29.297,52.246,0
10138.142,11.719,23.926,16.602,17.090,-18.555,0
10138.146,28.809,21.484,18.066,22.949,9.766,0
10138.150,48.340,20.508,21.484,34.668,76.660,0
10138.154,37.109,24.414,22.949,33.691,54.688,0
10138.158,22.949,25.879,22.949,31.250,4.395,0
10138.162,32.715,21.973,18.555,32.715,2.441,0
10138.165,48.340,18.066,18.066,37.109,57.617,0
10138.169,39.551,17.578,20.020,35.645,47.852,0
10138.173,12.695,19.043,21.973,33.203,-1.953,0
10138.177,12.207,22.461,23.438,34.668,-7.812,0
10138.181,41.504,23.926,21.484,38.574,56.152,0
10138.185,50.781,20.508,22.949,36.621,69.336,0
10138.189,25.879,20.996,22.949,26.367,-2.930,0
10138.193,20.020,19.531,21.973,25.391,8.301,0
10138.197,41.992,17.578,22.461,33.691,48.340,0
10138.201,45.898,19.043,21.973,35.156,52.246,0
10138.205,26.367,22.949,26.367,30.762,17.578,0
10138.208,11.719,22.949,27.832,32.715,-15.137,0
10138.212,26.367,20.508,25.879,35.645,32.715,0
10138.216,53.711,20.996,26.855,37.598,70.801,0
10138.220,50.293,22.461,23.438,28.809,54.199,0
10138.224,33.203,24.414,22.461,18.555,20.508,0
10138.228,48.828,27.832,23.438,18.555,5.371,0
10138.232,79.102,29.785,23.926,17.578,46.875,0
10138.236,79.102,29.785,22.949,14.648,60.547,0
10138.240,58.105,31.250,23.926,11.230,20.020,0
10138.244,49.805,29.785,23.926,16.113,-19.043,0
10138.247,63.477,27.344,25.879,32.715,14.160,0
10138.251,64.453,24.902,26.855,39.062,95.703,0
10138.255,35.156,26.367,22.949,31.738,48.828,0
10138.259,18.066,27.344,23.438,33.691,-31.738,0
10138.263,36.621,23.926,26.855,41.016,-3.418,0
10138.267,47.852,23.438,27.832,41.504,69.824,0
10138.271,24.414,24.902,28.320,32.715,44.434,0
10138.275,6.348,25.879,26.855,25.391,-39.551,0
10138.279,22.461,27.344,25.879,26.367,-40.039,0
10138.283,45.898,27.832,25.391,31.250,51.270,0
10138.287,28.809,24.902,22.949,22.949,21.484,0
10138.290,7.324,22.949,23.438,19.531,-68.848,0
10138.294,12.695,25.879,26.367,26.855,-8.789,0
10138.298,33.691,24.414,27.344,30.762,55.664,0
10138.302,38.086,22.461,27.832,33.203,41.016,0
10138.306,18.555,24.414,26.855,24.414,19.043,0
10138.310,18.555,24.902,25.391,17.090,8.301,0
10138.314,39.551,23.438,30.273,28.809,42.969,0
10138.318,41.016,22.461,29.297,30.762,66.895,0
10138.322,20.508,23.438,26.367,17.090,-15.625,0
10138.326,17.578,24.414,28.320,19.043,-70.312,0
10138.330,40.039,25.391,31.250,30.273,-14.160,0
10138.333,52.246,24.414,31.250,33.203,57.129,0
10138.337,30.762,24.414,27.832,25.391,45.410,0
10138.341,9.766,23.438,27.832,19.531,-5.859,0
10138.345,19.531,22.461,28.809,28.320,11.230,0
10138.349,38.086,23.438,28.809,36.133,65.918,0
10138.353,30.273,20.996,27.832,26.855,65.430,0
10138.357,11.230,20.508,28.320,19.043,12.207,0
10138.361,12.695,23.438,31.738,24.414,2.441,0
10138.365,34.180,24.902,33.691,27.344,30.273,0
10138.369,39.062,25.391,35.645,23.926,31.250,0
10138.372,18.066,24.902,34.180,23.438,41.016,0
10138.376,6.836,23.438,35.156,25.879,5.859,0
10138.380,24.902,23.438,30.762,30.762,36.621,0
10138.384,39.062,23.926,26.855,32.227,91.797,0
10138.388,24.414,27.832,29.785,25.391,42.969,0
10138.392,12.695,25.391,29.785,18.555,0.977,0
10138.396,30.273,20.996,30.762,23.926,4.883,0
10138.400,48.828,21.973,31.738,30.273,49.316,0
10138.404,30.762,23.926,30.762,26.367,40.039,0
10138.408,12.207,27.344,31.250,22.949,-19.043,0
10138.412,21.973,27.832,29.785,24.414,-12.695,0
10138.415,42.969,27.344,28.809,35.645,52.246,0
10138.419,41.016,24.902,29.785,35.645,50.781,0
10138.423,19.043,23.926,30.762,23.438,1.953,0
10138.427,20.996,25.879,32.715,25.879,7.324,0
10138.431,47.363,27.344,29.785,35.156,65.430,0
10138.435,48.340,23.926,29.785,31.738,86.914,0
10138.439,23.438,21.973,30.273,24.414,21.973,0
10138.443,18.555,25.879,26.855,20.996,-6.348,0
10138.447,38.574,26.855,26.855,26.367,28.809,0
10138.451,51.758,25.391,26.855,30.273,77.148,0
10138.455,34.180,26.855,26.855,21.973,44.922,0
10138.458,21.973,28.809,26.367,18.555,-7.812,0
10138.462,34.668,27.344,25.879,24.902,45.898,0
10138.466,48.340,25.391,30.762,29.297,84.961,0
10138.470,31.250,27.344,31.738,20.020,31.250,0
10138.474,12.207,25.879,23.926,9.766,-19.531,0
10138.478,27.344,26.367,23.438,15.625,-0.977,0
10138.482,51.270,28.320,28.320,23.926,41.016,0
10138.486,48.340,27.344,30.273,25.391,61.035,0
10138.490,27.832,30.762,26.855,21.484,42.480,0
10138.494,20.508,32.715,25.879,20.996,5.859,0
10138.497,35.645,29.297,25.879,28.320,12.695,0
10138.501,44.434,27.344,26.367,26.367,69.336,0
10138.505,21.484,26.367,24.414,19.531,62.500,0
10138.509,8.789,27.832,23.926,20.508,5.371,0
10138.513,34.668,31.250,26.855,24.414,26.855,0
10138.517,45.898,29.297,28.809,30.762,74.707,0
10138.521,25.879,29.297,27.832,28.809,53.223,0
10138.525,9.277,27.832,27.344,27.344,18.555,0
10138.529,18.066,23.438,28.809,31.250,21.973,0
10138.533,40.527,25.391,28.320,37.598,42.480,0
10138.537,33.203,24.902,26.855,40.039,56.641,0
10138.540,11.230,24.414,28.809,35.645,60.547,0
10138.544,16.602,26.367,30.273,36.133,33.691,0
10138.548,36.133,26.367,28.320,41.016,33.203,0
10138.552,35.156,27.344,26.855,36.621,63.965,0
10138.556,15.137,28.320,25.391,31.738,29.297,0
10138.560,9.277,26.855,28.320,29.297,-16.113,0
10138.564,34.668,24.902,30.762,36.621,31.738,0
10138.568,48.828,22.461,29.297,42.969,79.102,0
10138.572,25.391,21.973,29.297,36.621,35.645,0
10138.576,5.859,23.438,27.832,32.227,-14.648,0
10138.580,22.949,24.902,31.738,40.527,16.602,0
10138.583,45.410,30.273,34.180,47.852,77.148,0
10138.587,34.180,29.785,35.156,40.039,52.246,0
10138.591,16.113,24.902,31.250,29.785,-7.812,0
10138.595,27.344,28.809,28.809,31.250,9.766,0
10138.599,47.852,28.809,28.320,30.762,62.988,0
10138.603,41.992,27.832,26.367,30.762,61.035,0
10138.607,20.996,29.785,29.297,31.250,17.578,0
10138.611,20.996,30.273,32.715,31.250,9.766,0
10138.615,43.945,32.715,35.645,40.039,68.359,0
10138.619,47.363,28.320,35.156,38.574,80.078,0
10138.622,24.902,23.438,32.227,29.785,23.438,0
10138.626,16.113,24.902,32.715,30.762,22.949,0
10138.630,33.691,24.414,27.832,33.691,45.898,0
10138.634,39.551,21.484,22.461,30.273,60.547,0
10138.638,22.949,22.461,26.855,29.297,54.688,0
10138.642,14.160,24.902,27.832,29.297,4.883,0
10138.646,26.855,24.414,26.855,30.762,17.578,0
10138.650,39.551,27.344,30.762,32.715,43.945,0
10138.654,30.273,27.832,30.762,27.344,38.086,0
10138.658,16.113,26.367,27.832,22.949,31.250,0
10138.662,21.973,26.855,25.879,25.879,11.719,0
10138.665,39.062,24.902,26.367,31.250,59.570,0
10138.669,33.691,26.367,29.297,29.297,85.938,0
10138.673,15.137,28.809,26.855,25.879,32.715,0
10138.677,13.672,28.320,24.902,26.367,0.000,0
10138.681,38.574,26.855,25.879,34.668,40.527,0
10138.685,46.387,27.344,28.320,35.645,53.223,0
10138.689,20.996,25.879,29.785,26.367,19.531,0
10138.693,2.930,24.414,27.832,20.508,-10.254,0
10138.697,20.996,26.855,28.809,26.367,12.207,0
10138.701,41.504,24.902,30.273,31.738,82.031,0
10138.705,26.367,23.926,31.738,26.367,65.430,0
10138.708,14.648,23.438,31.738,23.926,34.180,0
10138.712,24.414,22.461,32.715,30.762,29.785,0
10138.716,39.062,26.367,30.762,36.133,54.688,0
10138.720,30.762,26.367,31.738,30.762,61.523,0
10138.724,11.230,24.414,30.762,25.879,7.812,0
10138.728,16.113,25.391,27.832,29.297,5.859,0
10138.732,43.945,21.484,28.320,35.645,53.711,0
10138.736,43.457,20.508,28.320,37.109,76.172,0
10138.740,21.484,22.461,27.832,26.367,-1.953,0
10138.744,20.996,24.902,30.762,24.414,-37.109,0
10138.747,44.434,26.855,30.762,45.410,21.484,0
10138.751,55.176,27.832,29.297,49.805,59.570,0
10138.755,30.273,26.367,27.832,38.574,8.789,0
10138.759,17.578,24.902,26.855,37.598,-27.344,0
10138.763,40.039,26.367,27.344,42.480,-0.488,0
10138.767,57.617,24.414,27.344,45.898,10.254,0
10138.771,39.062,25.879,29.785,43.945,-1.953,0
10138.775,20.020,28.809,28.320,38.574,-11.719,0
10138.779,35.156,23.926,26.367,37.598,13.184,0
10138.783,55.664,23.926,30.273,41.504,59.082,0
10138.787,42.969,24.414,30.273,33.691,40.039,0
10138.790,20.996,21.484,27.832,23.926,-21.484,0
10138.794,23.438,24.414,27.344,28.809,-28.809,0
10138.798,46.875,27.832,29.297,40.527,45.410,0
10138.802,45.898,27.344,30.273,41.016,60.059,0
10138.806,24.902,26.855,29.297,33.691,-3.418,0
10138.810,16.602,27.344,29.297,33.691,-25.391,0
10138.814,33.203,25.391,29.785,36.621,4.395,0
10138.818,42.480,27.832,29.297,36.133,39.062,0
10138.822,22.949,29.297,27.832,28.320,43.457,0
10138.826,7.812,27.832,29.785,27.344,6.836,0
10138.830,18.555,26.367,30.762,29.785,-6.348,0
10138.833,41.992,25.391,28.320,28.320,60.547,0
10138.837,35.645,23.926,29.297,22.461,67.871,0
10138.841,13.184,24.902,30.762,22.461,29.785,0
10138.845,21.484,29.785,31.250,24.414,11.719,0
10138.849,47.363,29.297,31.738,27.832,57.617,0
10138.853,49.805,27.832,27.832,34.180,84.473,0
10138.857,32.227,30.762,30.273,33.691,44.434,0
10138.861,21.973,29.297,34.668,25.391,29.297,0
10138.865,32.227,25.391,32.715,26.367,53.711,0
10138.869,37.598,24.902,33.691,31.250,77.148,0
10138.872,20.996,25.879,35.645,26.367,42.969,0
10138.876,8.301,24.414,35.156,20.020,-0.488,0
10138.880,25.879,24.902,35.156,24.902,36.621,0
10138.884,50.781,29.785,37.109,33.203,81.055,0
10138.888,36.621,26.855,35.645,30.273,45.898,0
10138.892,23.438,23.926,32.715,26.855,-4.883,0
10138.896,41.504,26.855,32.227,31.250,26.367,0
10138.900,59.082,27.344,33.203,36.621,82.520,0
10138.904,39.062,25.879,29.785,32.715,35.156,0
10138.908,20.996,27.344,29.297,29.297,-15.625,0
10138.912,36.133,26.367,29.785,31.738,42.969,0
10138.915,54.199,22.461,31.250,40.527,123.535,0
10138.919,50.293,22.461,34.180,41.016,78.613,0
10138.923,26.367,23.438,33.203,29.785,-0.488,0
10138.927,16.113,27.344,32.227,28.809,-8.789,0
10138.931,34.668,26.855,32.715,37.109,20.508,0
10138.935,41.504,23.438,31.738,30.273,34.668,0
10138.939,20.508,23.438,33.203,20.020,19.043,0
10138.943,9.766,21.484,30.762,17.090,-5.371,0
10138.947,33.691,21.973,30.273,25.879,38.574,0
10138.951,48.340,24.414,31.250,33.203,114.746,0
10138.955,27.832,25.391,26.855,25.391,75.195,0
10138.958,8.789,24.414,28.809,23.926,17.090,0
10138.962,23.438,26.855,32.227,29.785,43.945,0
10138.966,48.340,30.762,31.738,36.621,77.637,0
10138.970,28.320,24.902,28.320,34.668,58.594,0
10138.974,10.742,24.414,28.320,25.879,-8.301,0
10138.978,19.531,29.785,31.738,26.855,-15.625,0
10138.982,39.062,26.367,30.762,37.109,54.199,0
10138.986,42.969,26.855,30.762,35.156,69.824,0
10138.990,20.508,28.320,33.691,32.227,17.578,0
10138.994,14.160,29.297,36.621,33.691,-41.016,0
10138.997,40.039,31.250,35.645,36.133,-13.672,0
10139.001,49.805,29.297,29.785,35.156,61.523,0
10139.005,27.832,27.344,30.273,23.926,32.715,0
10139.009,22.461,29.785,32.715,17.090,-13.672,0
10139.013,52.246,32.715,29.297,20.508,17.090,0
10139.017,77.637,34.668,29.297,21.973,72.754,0
10139.021,66.406,34.180,30.762,14.648,41.016,0
10139.025,51.270,33.203,30.273,5.371,-27.832,0
10139.029,49.805,32.715,32.715,13.184,-0.977,0
10139.033,57.129,31.250,32.715,30.273,57.129,0
10139.037,46.387,30.273,29.297,29.785,47.852,0
10139.040,12.207,30.273,25.879,23.438,-19.043,0
10139.044,4.883,28.809,31.738,30.762,-15.137,0
10139.048,27.344,26.367,39.551,44.434,65.918,0
10139.052,30.273,27.344,35.156,43.457,74.707,0
10139.056,14.160,28.320,31.250,30.762,11.230,0
10139.060,7.812,26.367,29.297,28.809,-1.953,0
10139.064,30.762,27.832,31.250,39.551,32.715,0
10139.068,47.852,27.832,35.645,42.969,58.594,0
10139.072,28.809,23.926,34.668,41.504,29.297,0
10139.076,10.254,24.902,33.691,33.691,-2.441,0
10139.080,26.855,27.832,31.738,32.715,9.277,0
10139.083,51.270,27.344,33.691,41.992,58.105,0
10139.087,35.156,26.855,35.156,35.645,62.012,0
10139.091,11.719,32.227,34.668,27.832,20.020,0
10139.095,19.531,34.668,33.203,28.320,0.488,0
10139.099,38.574,33.691,33.691,33.203,20.996,0
10139.103,32.227,34.180,34.668,27.344,58.105,0
10139.107,10.254,30.762,31.250,21.973,48.340,0
10139.111,17.578,28.320,31.250,34.668,-1.465,0
10139.115,47.363,31.250,38.574,44.434,22.461,0
10139.119,50.781,33.203,38.086,41.504,42.480,0
10139.122,31.738,30.762,31.250,37.109,32.715,0
10139.126,22.949,28.320,37.598,40.527,-21.973,0
10139.130,35.645,25.879,36.133,41.016,-17.090,0
10139.134,46.875,26.855,30.762,38.574,68.359,0
10139.138,27.344,32.227,33.691,29.297,22.949,0
10139.142,10.254,31.738,33.691,23.438,-64.453,0
10139.146,27.832,28.809,34.180,32.715,-16.113,0
10139.150,55.176,29.785,36.133,39.551,67.383,0
10139.154,41.016,27.832,35.645,30.762,52.734,0
10139.158,10.742,25.879,33.203,17.578,9.277,0
10139.162,17.578,28.320,29.785,17.090,-11.230,0
10139.165,47.852,31.250,29.785,29.785,45.898,0
10139.169,44.922,29.785,29.785,32.227,66.895,0
10139.173,14.648,25.391,31.250,21.484,-1.953,0
10139.177,9.277,24.902,34.668,21.484,-13.184,0
10139.181,33.203,26.367,33.203,29.785,37.109,0
10139.185,41.504,26.367,31.738,31.250,68.359,0
10139.189,22.949,26.367,35.156,28.320,32.715,0
10139.193,5.859,26.855,33.203,24.414,-20.996,0
10139.197,25.391,27.344,31.738,30.762,12.695,0
10139.201,45.410,27.832,35.645,39.551,80.078,0
10139.205,30.762,30.762,37.109,34.180,58.594,0
10139.208,18.066,30.762,33.691,26.367,-15.625,0
10139.212,31.250,27.832,32.715,29.297,9.277,0
10139.216,58.594,30.762,32.227,37.598,99.121,0
10139.220,42.480,33.203,30.273,30.273,50.781,0
10139.224,14.648,29.785,30.762,21.484,-20.508,0
10139.228,21.973,29.785,28.320,19.043,-9.277,0
10139.232,46.387,32.715,34.180,25.391,68.359,0
10139.236,49.316,30.762,37.598,30.273,113.770,0
10139.240,26.367,27.344,34.180,21.484,15.625,0
10139.244,22.949,31.738,33.691,18.066,-34.180,0
10139.247,44.922,31.250,32.227,23.438,20.996,0
10139.251,50.781,26.855,29.297,26.855,55.664,0
10139.255,25.879,26.855,25.879,15.625,32.715,0
10139.259,9.277,29.785,30.762,13.184,13.184,0
10139.263,24.902,29.785,34.668,29.297,27.832,0
10139.267,44.922,28.809,36.133,33.203,54.199,0
10139.271,32.227,28.809,36.133,27.832,58.594,0
10139.275,15.625,30.273,31.738,26.855,13.184,0
10139.279,30.273,31.738,32.227,31.738,-7.812,0
10139.283,46.387,29.785,32.715,37.109,39.062,0
10139.287,32.227,28.809,31.738,31.738,38.574,0
10139.290,16.113,32.715,32.715,22.949,-17.090,0
10139.294,22.461,31.738,32.715,19.531,-17.090,0
10139.298,46.387,30.273,31.250,26.367,53.711,0
10139.302,47.363,33.691,30.273,29.785,86.426,0
10139.306,19.043,34.180,32.715,19.043,38.574,0
10139.310,3.906,31.250,34.668,12.207,-7.812,0
10139.314,26.367,27.832,33.691,23.438,16.602,0
10139.318,37.109,27.832,30.273,27.344,94.727,0
10139.322,16.113,28.320,31.738,22.949,56.641,0
10139.326,2.930,29.297,38.574,27.344,-23.438,0
10139.330,15.625,29.297,36.621,32.227,4.395,0
10139.333,34.668,29.785,35.156,32.715,76.172,0
10139.337,20.020,28.320,35.645,29.785,57.617,0
10139.341,4.395,25.879,33.691,26.855,1.465,0
10139.345,14.648,27.344,34.668,32.715,16.113,0
10139.349,40.039,28.809,36.133,41.016,80.078,0
10139.353,41.016,31.250,35.156,38.086,83.496,0
10139.357,12.695,29.785,34.668,27.832,4.395,0
10139.361,8.301,26.855,33.691,25.391,1.465,0
10139.365,32.715,27.832,34.668,34.180,65.430,0
10139.369,42.969,27.344,36.133,35.645,87.891,0
10139.372,14.648,26.367,33.691,27.832,41.504,0
10139.376,-1.465,26.855,33.203,25.879,-14.648,0
10139.380,30.273,29.297,36.621,33.203,29.785,0
10139.384,47.363,29.785,36.133,39.551,109.375,0
10139.388,23.926,27.344,35.645,30.762,51.758,0
10139.392,9.277,29.297,34.668,22.949,-19.531,0
10139.396,27.832,31.250,34.180,30.273,25.879,0
10139.400,42.969,28.809,31.738,33.203,63.965,0
10139.404,33.203,34.180,30.273,23.438,48.828,0
10139.408,18.066,34.180,34.668,21.484,18.066,0
10139.412,16.113,24.902,32.715,23.438,-9.277,0
10139.415,32.715,25.879,32.227,26.367,13.184,0
10139.419,33.691,30.762,37.109,29.785,61.523,0
10139.423,21.973,29.297,35.156,37.109,56.152,0
10139.427,19.043,30.762,30.762,37.598,-11.719,0
10139.431,20.996,28.809,32.227,20.996,0.488,0
10139.435,22.949,27.344,30.762,15.625,78.613,0
10139.439,19.531,34.180,28.809,20.996,53.711,0
10139.443,11.719,32.715,28.320,17.090,-6.836,0
10139.447,23.926,32.227,26.855,23.926,-11.719,0
10139.451,46.875,33.691,26.855,36.133,45.410,0
10139.455,37.109,29.785,28.320,37.109,38.086,0
10139.458,15.625,31.250,28.809,27.344,7.324,0
10139.462,26.367,33.203,28.809,31.250,20.996,0
10139.466,53.711,32.227,30.273,44.434,38.086,0
10139.470,44.434,31.250,30.762,38.574,51.270,0
10139.474,15.137,34.668,30.762,28.809,22.461,0
10139.478,17.578,36.621,32.227,29.785,26.367,0
10139.482,46.387,32.227,29.297,37.598,74.219,0
10139.486,52.246,33.691,29.297,40.527,69.336,0
10139.490,31.250,35.645,33.203,31.738,12.695,0
10139.494,15.625,34.668,32.227,23.926,-16.602,0
10139.497,33.203,32.227,29.785,29.785,34.668,0
10139.501,52.246,28.320,30.762,35.645,72.754,0
10139.505,24.902,27.344,33.691,31.250,35.156,0
10139.509,8.301,30.273,35.156,29.785,-10.742,0
10139.513,27.832,31.250,29.785,31.738,34.180,0
10139.517,51.270,33.203,29.297,38.086,106.445,0
10139.521,34.668,35.156,32.715,37.598,65.918,0
10139.525,14.648,32.715,32.227,30.762,-13.672,0
10139.529,24.414,32.227,25.879,27.832,-7.812,0
10139.533,45.898,31.738,28.809,32.715,47.852,0
10139.537,42.480,33.691,35.156,37.109,88.379,0
10139.540,24.902,35.645,31.738,35.156,41.992,0
10139.544,30.273,33.203,30.273,33.691,1.953,0
10139.548,46.875,32.715,29.785,33.203,43.457,0
10139.552,47.363,32.715,31.738,34.180,71.777,0
10139.556,23.926,27.344,35.156,31.250,34.180,0
10139.560,11.719,24.902,34.180,28.320,-35.645,0
10139.564,33.203,29.297,33.691,30.273,4.883,0
10139.568,45.898,34.668,34.668,30.273,75.684,0
10139.572,25.879,29.785,30.762,24.414,65.430,0
10139.576,11.719,26.855,31.250,22.461,4.395,0
10139.580,26.367,27.832,30.762,30.762,-2.441,0
10139.583,50.293,27.832,31.738,36.621,61.523,0
10139.587,40.527,28.320,32.715,33.691,61.523,0
10139.591,19.043,27.832,31.738,26.855,11.230,0
10139.595,25.391,28.809,32.715,32.227,-0.977,0
10139.599,50.781,29.785,30.273,41.016,41.016,0
10139.603,49.316,29.785,29.785,35.645,75.195,0
10139.607,19.531,28.809,28.809,22.949,31.738,0
10139.611,11.719,30.762,28.320,23.438,-10.742,0
10139.615,38.574,31.250,30.762,34.180,38.574,0
10139.619,46.875,29.785,30.273,32.715,78.125,0
10139.622,21.484,32.227,30.762,26.367,18.555,0
10139.626,9.766,33.203,29.297,20.996,-72.754,0
10139.630,32.227,31.250,29.785,21.484,-9.766,0
10139.634,53.711,28.809,27.832,27.832,82.031,0
10139.638,34.180,31.738,27.832,22.949,34.668,0
10139.642,10.254,35.156,30.762,16.602,-29.297,0
10139.646,23.926,30.762,33.203,22.461,0.000,0
10139.650,46.387,24.414,29.785,29.297,73.730,0
10139.654,33.691,26.855,29.297,23.926,69.824,0
10139.658,11.230,30.273,33.203,18.555,-1.953,0
10139.662,13.672,29.297,32.715,19.043,17.090,0
10139.665,32.715,30.762,35.645,25.879,99.609,0
10139.669,42.480,34.668,37.109,30.273,102.051,0
10139.673,25.391,31.250,32.227,24.902,18.066,0
10139.677,16.602,25.391,29.297,20.020,23.438,0
10139.681,37.598,27.832,33.203,29.297,84.473,0
10139.685,45.898,31.250,38.086,30.762,64.453,0
10139.689,25.391,32.715,38.574,20.996,5.371,0
10139.693,14.160,36.621,35.156,20.508,-11.230,0
10139.697,32.227,34.180,29.785,26.855,35.156,0
10139.701,47.852,30.762,35.156,37.598,102.051,0
10139.705,24.902,27.832,36.133,27.344,75.684,0
10139.708,9.277,26.367,31.738,17.090,-2.930,0
10139.712,23.926,30.762,37.109,27.832,-18.066,0
10139.716,43.457,32.715,39.551,34.668,9.766,0
10139.720,36.133,30.273,37.598,28.320,38.086,0
10139.724,14.648,30.762,34.668,19.531,30.762,0
10139.728,16.602,30.762,29.785,17.578,2.441,0
10139.732,35.645,27.832,30.762,25.391,7.324,0
10139.736,37.598,28.809,35.645,30.273,58.105,0
10139.740,10.254,30.762,34.668,21.973,11.230,0
10139.744,-0.977,30.273,30.762,19.531,-24.414,0
10139.747,24.414,27.832,32.715,26.367,33.691,0
10139.751,42.480,29.297,34.180,31.738,85.938,0
10139.755,20.996,29.785,33.691,23.438,57.129,0
10139.759,7.324,26.367,33.203,20.020,-0.488,0
10139.763,26.367,28.809,34.668,27.832,7.812,0
10139.767,41.992,35.156,33.691,27.832,65.430,0
10139.771,29.297,35.645,28.320,21.484,66.895,0
10139.775,11.230,30.762,28.809,17.578,1.953,0
10139.779,17.578,27.344,28.809,19.043,5.859,0
10139.783,37.598,27.344,27.832,26.367,67.871,0
10139.787,41.504,30.273,35.156,30.273,84.473,0
10139.790,27.832,33.203,35.156,20.996,29.297,0
10139.794,33.203,35.645,35.156,17.578,-15.625,0
10139.798,65.430,35.156,38.086,22.949,31.738,0
10139.802,75.684,30.273,30.762,19.043,43.945,0
10139.806,58.594,29.297,28.809,10.742,1.953,0
10139.810,44.434,31.738,29.297,6.348,-6.348,0
10139.814,60.059,31.738,31.250,17.090,21.973,0
10139.818,72.754,33.691,34.180,25.879,67.871,0
10139.822,39.551,33.203,34.180,24.902,39.551,0
10139.826,12.695,31.738,32.227,25.391,-2.930,0
10139.830,25.391,28.809,30.762,28.809,18.555,0
10139.833,41.504,27.832,34.668,38.086,54.199,0
10139.837,26.367,26.855,36.621,31.738,17.578,0
10139.841,9.277,28.809,34.180,18.555,-47.852,0
10139.845,17.090,30.762,36.621,18.555,-44.434,0
10139.849,41.016,30.273,38.086,28.809,23.438,0
10139.853,41.016,30.762,35.156,32.227,53.223,0
10139.857,17.090,31.250,37.109,25.391,26.367,0
10139.861,3.418,33.203,34.668,21.484,21.973,0
10139.865,21.484,33.691,35.156,28.320,37.109,0
10139.869,40.527,33.691,39.062,34.180,67.871,0
10139.872,24.902,32.227,32.715,27.344,41.992,0
10139.876,8.789,29.785,28.320,22.949,-15.137,0
10139.880,27.344,29.297,32.227,32.715,9.277,0
10139.884,44.434,29.297,35.156,42.969,68.848,0
10139.888,28.809,30.762,34.668,32.715,49.805,0
10139.892,11.719,32.715,32.227,23.926,21.973,0
10139.896,20.508,28.320,33.691,29.785,31.250,0
10139.900,40.039,27.832,35.645,36.133,68.848,0
10139.904,28.320,29.785,37.109,33.203,76.660,0
10139.908,6.348,25.391,38.574,23.926,17.090,0
10139.912,18.555,29.297,36.133,25.879,-26.367,0
10139.915,41.016,31.250,34.180,33.691,40.039,0
10139.919,39.551,23.926,36.621,33.691,103.516,0
10139.923,18.555,24.414,36.133,29.297,22.949,0
10139.927,13.672,27.832,34.668,28.809,-54.199,0
10139.931,31.738,28.809,30.273,31.738,27.344,0
10139.935,40.527,31.250,31.738,35.645,83.496,0
10139.939,24.414,33.691,36.621,31.738,16.113,0
10139.943,6.348,28.320,35.645,26.855,-13.184,0
10139.947,23.926,25.879,36.621,32.227,35.156,0
10139.951,44.434,26.855,35.645,33.691,68.359,0
10139.955,29.297,26.367,35.156,26.855,28.320,0
10139.958,13.184,30.273,33.203,22.461,10.742,0
10139.962,29.785,28.809,33.203,25.391,14.160,0
10139.966,49.805,26.855,33.691,31.250,68.359,0
10139.970,49.316,31.738,32.715,22.949,81.055,0
10139.974,32.715,33.203,34.180,15.137,1.953,0
10139.978,23.926,27.344,37.598,22.461,-28.809,0
10139.982,46.875,27.832,34.180,33.203,41.016,0
10139.986,51.758,32.227,26.855,31.250,98.633,0
10139.990,22.949,26.855,27.344,22.949,25.879,0
10139.994,17.090,25.879,30.762,23.438,-21.973,0
10139.997,41.016,29.297,34.180,27.832,25.391,0
10140.001,54.199,30.273,37.598,30.762,62.012,0
10140.005,36.133,30.762,34.180,22.461,26.855,0
10140.009,21.973,31.250,28.809,15.625,-6.836,0
10140.013,38.086,32.227,29.297,22.949,20.508,0
10140.017,59.082,30.273,29.297,30.273,60.547,0
10140.021,46.387,32.715,30.762,30.273,55.664,0
10140.025,22.949,33.691,33.691,23.438,0.488,0
10140.029,29.785,31.250,34.180,23.438,4.395,0
10140.033,49.316,35.645,32.227,32.715,56.152,0
10140.037,46.875,35.645,32.227,29.297,48.828,0
10140.040,26.855,31.250,33.691,20.996,-4.883,0
10140.044,23.926,30.762,35.156,18.555,-7.812,0
10140.048,43.457,32.227,34.180,27.344,15.137,0
10140.052,47.852,34.668,31.738,27.344,41.992,0
10140.056,25.879,34.180,30.762,21.973,30.762,0
10140.060,10.742,31.250,31.738,17.578,-44.922,0
10140.064,26.855,30.762,34.668,21.973,-24.414,0
10140.068,41.016,32.227,33.203,31.250,78.613,0
10140.072,25.391,35.645,30.762,24.414,39.551,0
10140.076,14.160,37.109,32.715,21.973,-29.297,0
10140.080,20.996,35.156,36.133,29.785,-0.488,0
10140.083,34.180,35.156,35.156,32.715,41.992,0
10140.087,23.926,33.691,30.273,24.902,29.785,0
10140.091,5.371,30.762,35.645,23.438,-5.371,0
10140.095,11.230,35.645,40.527,31.250,-10.254,0
10140.099,35.645,33.691,35.156,35.156,45.410,0
10140.103,38.086,29.297,36.621,35.156,44.922,0
10140.107,13.672,33.203,40.039,32.715,-14.160,0
10140.111,4.883,31.738,34.668,30.273,-13.672,0
10140.115,28.320,33.203,33.691,37.109,38.086,0
10140.119,41.992,33.203,35.156,40.039,77.148,0
10140.122,12.695,30.273,33.203,32.227,41.504,0
10140.126,-6.348,29.297,37.109,33.691,-18.555,0
10140.130,20.996,29.297,41.016,41.504,12.207,0
10140.134,44.434,31.250,37.598,37.598,68.848,0
10140.138,23.438,30.273,37.109,29.785,40.527,0
10140.142,5.371,30.762,37.598,24.902,-10.254,0
10140.146,19.043,31.250,35.156,28.320,0.977,0
10140.150,36.133,31.250,33.203,28.320,47.852,0
10140.154,29.297,31.738,32.227,20.508,37.598,0
10140.158,9.766,32.227,30.273,17.578,-9.277,0
10140.162,17.578,34.180,30.762,20.996,-3.418,0
10140.165,41.016,33.691,35.156,28.320,32.715,0
10140.169,36.621,30.273,36.133,28.809,44.922,0
10140.173,14.648,28.320,36.621,21.973,32.715,0
10140.177,5.371,27.832,37.109,23.926,0.977,0
10140.181,29.297,28.320,36.621,35.645,37.109,0
10140.185,38.574,31.250,35.645,37.109,79.590,0
10140.189,19.043,32.715,35.156,30.273,12.207,0
10140.193,6.836,33.203,39.062,26.855,-43.457,0
10140.197,21.484,32.227,38.086,24.902,-0.488,0
10140.201,47.852,30.762,37.109,31.738,81.055,0
10140.205,35.645,27.344,35.645,32.715,69.336,0
10140.208,7.324,27.344,35.645,27.344,-11.719,0
10140.212,15.625,28.809,35.645,29.785,4.883,0
10140.216,40.039,28.809,32.227,33.691,73.242,0
10140.220,38.574,33.691,32.227,31.250,80.566,0
10140.224,20.508,32.227,35.645,25.879,52.734,0
10140.228,19.043,30.273,36.133,25.879,21.973,0
10140.232,38.086,30.273,34.180,30.273,73.242,0
10140.236,41.992,29.785,34.180,34.668,98.145,0
10140.240,16.113,32.715,34.668,25.879,0.977,0
10140.244,5.859,32.227,33.691,20.020,-47.363,0
10140.247,28.809,29.297,30.762,29.297,18.555,0
10140.251,41.992,31.738,34.180,35.645,47.363,0
10140.255,26.855,33.691,36.621,33.691,17.090,0
10140.259,9.766,32.227,37.598,27.832,2.441,0
10140.263,22.461,31.250,40.039,28.809,31.250,0
10140.267,47.363,31.738,37.109,35.156,66.406,0
10140.271,38.574,33.203,32.715,30.762,34.668,0
10140.275,19.043,33.691,32.227,22.949,-30.762,0
10140.279,24.902,31.738,33.691,27.832,-21.973,0
10140.283,44.922,29.785,29.785,35.156,39.551,0
10140.287,41.992,29.785,29.297,26.367,36.621,0
10140.290,23.438,33.203,34.668,20.996,-5.859,0
10140.294,16.113,32.715,33.203,22.461,-30.762,0
10140.298,36.133,32.715,37.598,30.762,6.836,0
10140.302,51.758,34.668,44.922,41.504,76.172,0
10140.306,18.066,31.738,38.574,29.785,63.477,0
10140.310,2.441,30.762,32.227,20.020,12.207,0
10140.314,30.273,31.250,35.156,29.785,56.641,0
10140.318,47.852,27.344,37.109,34.668,112.793,0
10140.322,31.250,28.809,36.133,28.320,63.477,0
10140.326,17.578,33.691,38.574,26.367,42.480,0
10140.330,31.738,31.250,40.527,32.715,28.320,0
10140.333,47.363,31.738,37.109,34.668,46.875,0
10140.337,36.621,32.715,35.645,21.484,71.777,0
10140.341,16.602,29.785,38.086,19.531,11.230,0
10140.345,20.508,33.691,40.039,24.902,-20.996,0
10140.349,44.434,35.156,39.062,26.367,60.059,0
10140.353,46.387,34.180,38.086,30.273,110.352,0
10140.357,22.949,33.691,34.668,24.902,43.945,0
10140.361,15.137,32.227,34.180,27.832,18.066,0
10140.365,40.039,31.250,36.133,36.133,49.805,0
10140.369,51.758,26.855,35.156,36.621,76.172,0
10140.372,36.621,29.785,38.574,36.621,25.879,0
10140.376,20.508,32.715,38.086,33.203,-18.066,0
10140.380,32.227,29.785,38.086,33.203,17.578,0
10140.384,49.316,28.320,39.551,42.480,48.340,0
10140.388,26.367,29.297,34.668,36.621,41.504,0
10140.392,8.301,33.203,34.180,24.902,-24.414,0
10140.396,23.438,32.227,35.645,33.203,-4.395,0
10140.400,40.039,27.344,34.180,39.062,83.984,0
10140.404,33.203,28.809,35.645,32.715,62.988,0
10140.408,15.625,32.227,37.109,24.902,-7.812,0
10140.412,17.090,35.645,36.621,22.461,-0.977,0
10140.415,42.969,34.180,36.621,29.785,67.871,0
10140.419,45.898,30.762,36.133,28.809,65.918,0
10140.423,22.461,34.668,31.738,22.461,12.695,0
10140.427,17.090,37.598,30.762,21.973,-6.348,0
10140.431,38.574,35.156,33.691,27.344,44.922,0
10140.435,55.176,34.180,33.203,34.180,96.680,0
10140.439,33.691,35.645,29.785,34.668,62.500,0
10140.443,17.578,36.621,33.203,31.738,27.344,0
10140.447,34.668,35.156,36.621,32.227,26.855,0
10140.451,55.664,35.645,34.668,39.062,58.105,0
10140.455,40.039,32.227,38.574,39.551,63.965,0
10140.458,19.531,32.227,41.016,32.715,26.855,0
10140.462,29.785,33.691,38.574,30.762,21.973,0
10140.466,52.246,35.156,34.668,35.156,50.293,0
10140.470,46.875,37.109,30.273,27.832,46.875,0
10140.474,13.184,34.668,31.738,17.090,24.902,0
10140.478,9.766,34.668,34.180,16.113,4.395,0
10140.482,42.480,38.086,36.133,22.461,10.742,0
10140.486,54.688,37.598,37.598,28.809,54.688,0
10140.490,29.297,33.691,37.109,30.762,40.039,0
10140.494,16.602,33.691,40.039,29.297,3.906,0
10140.497,37.598,33.203,37.598,33.691,27.344,0
10140.501,51.270,32.715,34.668,43.457,63.477,0
10140.505,23.438,33.203,37.598,31.250,65.918,0
10140.509,0.488,33.203,36.621,19.531,-6.836,0
10140.513,16.602,33.203,37.598,23.926,-22.461,0
10140.517,39.062,32.227,37.598,26.855,40.527,0
10140.521,32.715,32.715,35.645,28.320,9.277,0
10140.525,14.648,34.668,38.574,24.902,-50.781,0
10140.529,24.902,32.715,38.574,21.484,-20.020,0
10140.533,45.410,32.227,33.691,31.250,61.035,0
10140.537,41.504,32.227,37.109,30.273,68.848,0
10140.540,12.695,31.250,38.086,18.555,-6.836,0
10140.544,2.930,31.250,35.645,18.555,-38.086,0
10140.548,28.809,31.250,34.180,28.320,36.133,0
10140.552,37.109,31.250,32.715,29.785,74.707,0
10140.556,11.230,30.273,35.156,21.484,26.855,0
10140.560,3.418,30.762,38.086,27.344,-9.766,0
10140.564,30.273,29.785,36.133,36.133,20.508,0
10140.568,46.875,24.902,36.133,38.086,76.172,0
10140.572,34.668,26.367,38.574,36.621,40.527,0
10140.576,15.137,27.832,32.715,27.832,-19.043,0
10140.580,23.926,28.809,34.180,28.320,10.742,0
10140.583,48.828,33.691,35.156,33.691,65.430,0
10140.587,51.758,37.109,30.273,24.902,54.688,0
10140.591,41.016,38.574,31.250,13.184,15.625,0
10140.595,49.805,37.598,31.738,13.672,26.367,0
10140.599,79.590,36.133,33.691,21.484,73.242,0
10140.603,82.520,32.715,31.738,22.949,79.590,0
10140.607,60.547,32.715,30.273,19.531,8.301,0
10140.611,38.574,29.785,29.785,21.973,-19.531,0
10140.615,44.922,30.273,33.691,33.203,22.949,0
10140.619,54.688,31.738,37.598,38.574,42.969,0
10140.622,30.273,30.273,37.598,36.621,21.484,0
10140.626,10.742,31.250,36.621,35.645,-5.859,0
10140.630,24.414,30.762,37.598,38.574,13.672,0
10140.634,41.992,32.227,37.109,41.504,59.570,0
10140.638,32.227,32.227,34.668,39.062,47.852,0
10140.642,14.648,29.297,33.691,33.691,-1.465,0
10140.646,20.996,27.344,34.668,31.738,-12.695,0
10140.650,45.898,29.785,34.668,41.016,36.621,0
10140.654,38.574,28.809,37.598,39.062,40.039,0
10140.658,15.137,27.832,38.086,29.297,-36.621,0
10140.662,14.160,27.832,33.203,25.391,-47.852,0
10140.665,33.203,26.855,32.715,27.832,21.484,0
10140.669,45.898,28.320,32.227,27.344,59.082,0
10140.673,22.949,30.273,33.691,23.926,13.184,0
10140.677,5.371,33.203,34.668,21.973,-4.395,0
10140.681,29.297,30.273,35.645,31.250,40.039,0
10140.685,47.363,27.344,35.645,37.598,85.449,0
10140.689,27.344,31.738,34.668,29.297,67.871,0
10140.693,11.230,32.227,34.668,25.391,13.184,0
10140.697,28.809,32.227,33.203,29.785,10.742,0
10140.701,44.434,35.645,31.250,31.738,62.988,0
10140.705,27.344,34.668,32.227,26.855,40.039,0
10140.708,8.789,26.855,32.715,22.461,-24.902,0
10140.712,19.043,28.320,31.738,25.391,-16.602,0
10140.716,39.062,32.227,33.203,36.133,54.688,0
10140.720,36.133,29.297,31.738,35.645,74.219,0
10140.724,18.555,33.203,34.180,31.250,22.949,0
10140.728,18.555,33.203,37.109,29.785,7.324,0
10140.732,41.504,31.738,39.062,32.715,50.293,0
10140.736,50.781,33.203,38.574,34.180,51.270,0
10140.740,26.855,29.785,35.156,24.902,36.621,0
10140.744,11.230,31.250,34.180,24.902,19.531,0
10140.747,31.738,32.227,35.156,33.691,45.410,0
10140.751,47.852,32.715,36.621,34.668,67.383,2
10140.755,35.156,34.180,36.621,31.250,55.664,0
10140.759,17.090,32.715,36.621,25.391,24.902,0
10140.763,28.320,32.715,35.156,30.273,-6.348,0
10140.767,49.316,35.156,34.668,32.715,32.227,0
10140.771,38.574,35.156,35.156,31.250,54.688,0
10140.775,18.555,32.227,35.645,32.227,4.883,0
10140.779,21.973,32.715,38.086,32.715,-3.418,0
10140.783,51.270,34.180,41.504,41.992,36.621,0
10140.787,52.734,32.227,36.133,42.480,41.504,0
10140.790,26.855,30.273,35.156,34.180,12.695,0
10140.794,20.020,30.762,41.016,31.738,-6.836,0
10140.798,37.109,31.250,40.039,34.668,24.414,0
10140.802,48.828,27.832,38.086,37.109,72.266,0
