timestamps,TP9,AF7,AF8,TP10,Right AUX,Marker0
1542824322.796,44.434,42.969,64.941,34.180,49.316,0
1542824322.800,48.340,29.785,75.195,26.855,52.734,0
1542824322.804,42.480,23.438,67.383,13.672,40.039,0
1542824322.808,38.086,39.551,55.176,6.836,35.645,0
1542824322.812,38.086,52.246,63.965,10.742,66.406,0
1542824322.816,39.551,41.992,74.219,17.578,70.801,0
1542824322.820,34.180,31.250,83.496,7.812,43.457,0
1542824322.824,34.668,43.945,85.449,2.441,-14.160,0
1542824322.827,42.480,46.875,93.750,10.742,22.461,0
1542824322.831,34.668,43.945,109.863,11.719,34.180,0
1542824322.835,30.273,36.133,119.141,4.883,-7.324,0
1542824322.839,28.809,31.738,123.047,5.371,15.625,0
1542824322.843,30.273,45.410,122.559,5.371,57.617,0
1542824322.847,31.250,49.805,122.559,6.836,26.367,0
1542824322.851,27.344,41.992,119.629,9.277,-6.348,0
1542824322.855,30.762,40.039,119.141,19.043,27.344,0
1542824322.859,31.250,36.133,130.859,23.926,63.965,0
1542824322.863,40.527,18.066,145.020,25.391,22.461,0
1542824322.867,45.898,21.484,148.926,30.762,12.695,0
1542824322.870,38.574,44.922,145.996,15.137,56.641,0
1542824322.874,30.762,50.781,142.090,9.277,59.570,0
1542824322.878,27.344,47.363,142.578,18.066,48.828,0
1542824322.882,35.645,46.387,145.020,15.137,3.906,0
1542824322.886,29.297,36.621,148.926,15.625,-24.414,0
1542824322.890,24.902,37.109,148.926,17.090,9.277,0
1542824322.894,31.250,48.340,147.949,13.672,64.941,0
1542824322.898,35.156,46.387,147.949,17.090,52.246,0
1542824322.902,43.457,41.016,148.926,28.320,-26.367,0
1542824322.906,36.621,33.203,146.973,32.227,35.156,0
1542824322.909,39.551,34.180,134.766,30.762,109.863,0
1542824322.913,43.945,45.410,125.488,19.531,52.734,0
1542824322.917,41.992,48.828,130.859,14.160,47.363,0
1542824322.921,55.176,51.270,134.277,23.438,56.641,0
1542824322.925,49.316,46.875,125.977,18.555,39.551,0
1542824322.929,41.504,41.992,123.047,17.578,30.762,0
1542824322.933,49.316,48.828,126.953,26.855,27.344,0
1542824322.937,47.363,47.852,126.953,31.250,42.969,0
1542824322.941,43.945,45.898,123.047,27.344,15.137,0
1542824322.945,44.434,47.852,126.953,21.973,17.578,0
1542824322.949,33.203,36.133,129.883,16.113,35.645,0
1542824322.952,27.832,34.668,120.605,9.277,32.715,0
1542824322.956,35.645,36.621,116.211,14.648,23.926,0
1542824322.960,35.645,35.645,116.699,18.555,13.672,0
1542824322.964,29.785,45.898,110.840,8.789,39.551,0
1542824322.968,31.738,45.898,109.375,7.324,-6.836,0
1542824322.972,41.504,43.457,112.793,13.672,11.230,0
1542824322.976,43.945,45.410,114.258,10.254,44.922,0
1542824322.980,46.387,46.387,115.723,17.578,-9.277,0
1542824322.984,57.617,46.875,105.957,34.668,0.977,0
1542824322.988,55.176,44.922,95.215,35.156,16.113,0
1542824322.992,28.809,48.828,95.703,17.578,67.383,0
1542824322.995,27.832,40.527,94.727,5.859,87.891,0
1542824322.999,43.945,37.109,86.914,10.742,34.180,0
1542824323.003,34.180,53.223,82.031,4.883,33.691,0
1542824323.007,41.992,56.641,83.984,17.090,38.574,0
1542824323.011,52.246,44.922,82.031,25.391,23.438,0
1542824323.015,45.898,28.320,73.242,24.902,12.695,0
1542824323.019,43.945,29.297,70.801,25.391,-1.953,0
1542824323.023,36.621,41.016,77.637,25.879,8.789,0
1542824323.027,35.645,50.293,77.148,34.668,29.785,0
1542824323.031,28.809,53.223,73.730,25.391,43.945,0
1542824323.034,29.785,46.875,73.730,15.625,29.297,0
1542824323.038,41.016,47.852,74.707,23.438,2.441,0
1542824323.042,42.969,52.246,71.777,28.320,32.715,0
1542824323.046,46.875,50.781,67.383,28.809,94.727,0
1542824323.050,44.434,44.434,68.359,24.414,88.379,0
1542824323.054,48.340,36.621,65.918,24.902,32.227,0
1542824323.058,51.758,41.504,56.152,40.527,26.367,0
1542824323.062,41.016,41.016,52.734,36.621,7.324,0
1542824323.066,22.949,40.527,44.922,13.672,42.480,0
1542824323.070,18.066,50.293,41.504,13.184,92.285,0
1542824323.074,21.973,47.852,50.781,15.625,36.133,0
1542824323.077,18.555,43.457,53.223,16.113,13.672,0
1542824323.081,26.367,43.945,54.199,17.090,-41.504,0
1542824323.085,28.809,35.156,54.199,19.043,1.465,0
1542824323.089,31.250,32.227,54.199,22.949,58.594,0
1542824323.093,30.762,35.645,54.688,22.461,37.598,0
1542824323.097,18.555,40.527,54.688,23.926,61.035,0
1542824323.101,20.996,55.664,48.828,33.203,39.062,0
1542824323.105,26.367,49.805,47.363,24.414,32.715,0
1542824323.109,27.832,39.551,50.293,10.742,37.109,0
1542824323.113,35.156,41.992,49.316,19.043,14.648,0
1542824323.117,20.996,36.621,41.504,17.578,20.996,0
1542824323.120,9.766,32.227,39.062,8.301,49.316,0
1542824323.124,15.625,39.062,47.363,30.273,16.113,0
1542824323.128,13.672,48.340,37.598,35.156,5.859,0
1542824323.132,14.648,41.504,35.645,26.855,34.668,0
1542824323.136,22.461,35.156,41.016,30.273,16.602,0
1542824323.140,17.578,43.945,39.062,30.762,17.578,0
1542824323.144,17.090,47.363,40.527,23.438,10.254,0
1542824323.148,19.043,38.086,40.527,18.555,4.395,0
1542824323.152,9.277,32.227,39.062,13.672,11.230,0
1542824323.156,14.160,39.062,39.062,7.324,-17.090,0
1542824323.159,16.602,41.992,36.621,9.277,14.160,0
1542824323.163,8.301,40.527,41.992,13.184,51.758,0
1542824323.167,11.230,31.250,48.340,20.020,28.320,0
1542824323.171,15.137,29.297,41.992,17.578,25.879,0
1542824323.175,25.391,39.062,43.457,17.578,36.133,0
1542824323.179,21.484,39.062,54.199,24.414,66.406,0
1542824323.183,13.184,18.555,47.363,29.785,62.012,0
1542824323.187,12.695,15.625,41.504,34.180,25.391,0
1542824323.191,8.301,45.410,33.203,35.156,-62.988,0
1542824323.195,4.395,44.434,33.691,26.367,-78.613,0
1542824323.199,-7.812,40.039,41.504,11.719,-70.312,0
1542824323.202,-17.090,39.551,38.086,6.348,-29.785,0
1542824323.206,-19.531,31.738,34.668,12.207,55.664,0
1542824323.210,-10.254,36.621,32.227,18.555,57.129,0
1542824323.214,8.789,39.551,34.668,34.180,7.324,0
1542824323.218,-15.137,35.156,36.133,13.672,-12.207,0
1542824323.222,-36.133,36.133,32.715,-3.906,26.855,0
1542824323.226,-22.949,35.156,34.668,-2.930,57.129,0
1542824323.230,-47.363,35.156,31.738,-26.367,26.367,0
1542824323.234,-68.848,41.016,28.320,-38.086,18.555,0
1542824323.238,-80.078,40.039,35.156,-40.527,12.695,0
1542824323.242,-101.562,36.621,30.273,-50.781,22.949,0
1542824323.245,-116.211,41.504,23.926,-78.125,26.855,0
1542824323.249,-119.141,37.598,20.996,-100.098,47.852,0
1542824323.253,-106.445,45.410,18.066,-76.172,68.848,0
1542824323.257,-109.863,46.875,32.227,-73.242,37.598,0
1542824323.261,-98.145,40.527,37.109,-72.754,10.254,0
1542824323.265,-98.145,36.133,25.879,-64.941,6.348,0
1542824323.269,-115.234,23.438,25.391,-70.801,34.668,0
1542824323.273,-108.887,25.879,33.691,-56.152,68.848,0
1542824323.277,-86.914,34.668,38.086,-32.715,61.523,0
1542824323.281,-67.383,42.480,41.016,-32.227,-2.930,0
1542824323.284,-62.012,46.875,36.621,-39.551,-27.344,0
1542824323.288,-64.453,42.480,37.109,-23.438,67.383,0
1542824323.292,-61.523,34.180,41.504,-22.949,80.078,0
1542824323.296,-56.152,41.016,42.969,-20.508,30.273,0
1542824323.300,-54.199,43.457,41.992,-11.719,33.203,0
1542824323.304,-33.691,46.387,37.598,-0.977,32.715,0
1542824323.308,-20.996,47.363,43.945,-5.371,37.598,0
1542824323.312,-29.297,39.551,46.875,7.324,32.715,0
1542824323.316,-29.297,39.551,43.945,22.949,35.645,0
1542824323.320,-20.020,40.039,25.879,15.625,32.227,0
1542824323.324,-22.949,39.062,22.461,9.766,-23.926,0
1542824323.327,-28.320,26.855,40.039,14.160,-9.766,0
1542824323.331,-23.926,28.809,47.363,25.391,16.602,0
1542824323.335,-8.301,45.898,46.875,24.902,42.480,0
1542824323.339,2.441,40.039,45.410,10.254,7.324,0
1542824323.343,-8.789,27.832,42.969,0.488,-34.668,0
1542824323.347,-7.812,33.691,35.156,5.859,-6.836,0
1542824323.351,-11.719,45.410,38.574,5.371,-27.344,0
1542824323.355,-6.836,43.457,49.316,12.695,-42.480,0
1542824323.359,-1.953,43.945,51.270,27.832,-33.691,0
1542824323.363,-3.906,49.805,41.992,27.344,14.160,0
1542824323.367,-2.930,50.293,37.598,34.180,49.805,0
1542824323.370,3.906,48.340,38.086,36.621,26.855,0
1542824323.374,0.977,49.316,30.273,29.297,34.180,0
1542824323.378,-5.859,46.387,35.645,34.668,51.758,0
1542824323.382,3.906,41.992,32.715,32.715,7.324,0
1542824323.386,9.766,32.715,11.230,23.438,20.508,0
1542824323.390,18.555,33.203,22.461,28.809,37.598,0
1542824323.394,5.859,44.922,42.480,17.090,41.504,0
1542824323.398,-13.184,47.852,43.457,8.301,20.508,0
1542824323.402,-4.395,41.016,46.387,23.438,23.438,0
1542824323.406,-7.812,30.762,52.246,41.992,37.109,0
1542824323.409,13.672,32.715,49.316,39.551,-2.930,0
1542824323.413,5.859,38.574,42.480,29.785,39.062,0
1542824323.417,-8.789,33.691,41.992,29.785,81.055,0
1542824323.421,-2.441,31.250,41.992,14.648,61.523,0
1542824323.425,5.371,42.480,35.645,16.113,19.043,0
1542824323.429,22.461,41.504,34.668,25.391,34.180,0
1542824323.433,19.043,35.645,37.109,27.832,73.242,0
1542824323.437,7.324,35.156,36.133,24.414,26.855,0
1542824323.441,11.719,36.133,27.344,26.367,44.434,0
1542824323.445,18.555,42.969,25.391,28.320,15.137,0
1542824323.449,7.812,37.109,37.109,36.621,-22.461,0
1542824323.452,1.953,37.109,28.809,40.039,-0.977,0
1542824323.456,4.883,38.574,20.508,14.648,41.504,0
1542824323.460,3.418,35.645,30.762,9.277,18.555,0
1542824323.464,-3.418,36.133,36.621,18.555,-10.742,0
1542824323.468,-3.418,43.457,43.945,20.508,56.641,0
1542824323.472,-4.395,45.898,40.527,6.836,32.227,0
1542824323.476,5.371,43.945,31.738,8.789,-17.090,0
1542824323.480,5.859,43.457,33.203,25.391,10.254,0
1542824323.484,1.953,53.223,37.598,27.344,48.340,0
1542824323.488,39.062,58.594,43.945,41.504,34.180,0
1542824323.492,32.227,42.480,33.691,51.270,17.578,0
1542824323.495,2.930,38.086,20.020,15.137,42.480,0
1542824323.499,-4.395,30.762,26.367,0.488,56.152,0
1542824323.503,-4.883,27.344,36.133,13.184,6.348,0
1542824323.507,7.812,40.527,43.945,24.902,10.742,0
1542824323.511,20.508,41.504,41.992,40.527,29.297,0
1542824323.515,27.344,31.738,44.922,35.156,27.344,0
1542824323.519,19.531,32.715,48.828,35.645,12.695,0
1542824323.523,20.996,39.062,34.180,39.551,-28.809,0
1542824323.527,23.926,42.969,38.086,20.020,-9.277,0
1542824323.531,25.879,44.922,49.805,12.695,51.758,0
1542824323.534,28.809,45.898,44.922,28.320,10.254,0
1542824323.538,29.297,36.621,43.945,30.762,11.230,0
1542824323.542,44.922,33.203,43.945,39.551,37.598,0
1542824323.546,25.879,42.480,33.203,34.180,16.602,0
1542824323.550,7.812,40.527,28.320,14.160,2.441,0
1542824323.554,17.578,38.574,33.691,23.926,28.320,0
1542824323.558,10.254,31.738,32.227,9.766,72.754,0
1542824323.562,15.137,34.180,33.203,-0.977,8.789,0
1542824323.566,22.949,50.781,42.480,7.324,-32.715,0
1542824323.570,20.508,42.969,40.527,21.484,-9.277,0
1542824323.574,16.113,34.668,41.016,26.367,46.875,0
1542824323.577,22.949,39.062,50.293,9.277,55.664,0
1542824323.581,32.715,37.598,45.898,16.602,9.277,0
1542824323.585,30.762,40.527,40.527,24.902,62.500,0
1542824323.589,32.715,41.016,39.551,24.902,62.500,0
1542824323.593,36.133,41.992,38.574,18.555,23.926,0
1542824323.597,27.832,49.316,38.086,9.277,18.066,0
1542824323.601,22.461,50.781,39.062,13.184,-5.371,0
1542824323.605,20.508,46.875,39.062,2.930,39.551,0
1542824323.609,5.371,47.852,41.504,-6.836,36.621,0
1542824323.613,10.254,53.711,46.875,-9.766,-2.441,0
1542824323.617,9.277,55.664,49.316,-12.695,51.758,0
1542824323.620,-0.488,54.688,48.340,-22.461,30.273,0
1542824323.624,-14.160,53.223,41.992,-38.086,18.555,0
1542824323.628,-19.043,49.316,35.645,-35.156,74.219,0
1542824323.632,-19.043,54.688,43.945,-31.250,93.262,0
1542824323.636,-50.293,57.617,42.480,-70.312,89.844,0
1542824323.640,-63.477,52.734,30.273,-85.449,106.445,0
1542824323.644,-50.781,54.688,30.762,-76.172,104.980,0
1542824323.648,-60.547,58.105,34.180,-98.633,57.617,0
1542824323.652,-71.777,57.617,35.156,-117.188,25.879,0
1542824323.656,-82.520,62.500,31.250,-120.117,26.367,0
1542824323.659,-98.633,61.523,28.320,-120.605,-13.184,0
1542824323.663,-103.027,56.641,31.738,-128.906,-0.977,0
1542824323.667,-94.727,69.336,25.879,-136.719,-16.113,0
1542824323.671,-87.402,71.289,25.879,-128.418,13.672,0
1542824323.675,-83.496,67.871,35.645,-120.605,73.730,0
1542824323.679,-72.754,68.848,34.180,-114.746,52.734,0
1542824323.683,-47.363,64.941,33.203,-102.051,83.008,0
1542824323.687,-30.273,62.988,34.668,-87.891,36.621,0
1542824323.691,-41.016,66.895,34.180,-83.984,-31.250,0
1542824323.695,-30.762,67.871,37.109,-69.336,-14.160,0
1542824323.699,-0.977,66.406,39.551,-39.062,-25.391,0
1542824323.702,2.930,65.918,43.457,-38.574,-0.977,0
1542824323.706,-3.418,56.641,50.781,-51.758,3.906,0
1542824323.710,21.484,49.316,60.059,-30.273,-14.160,0
1542824323.714,47.363,45.898,56.152,1.465,-10.742,0
1542824323.718,50.293,32.227,48.340,14.160,28.320,0
1542824323.722,66.406,34.668,51.758,32.227,48.340,0
1542824323.726,88.379,48.340,55.176,56.641,18.066,0
1542824323.730,96.191,47.363,56.152,59.570,23.926,0
1542824323.734,109.375,33.691,57.129,58.594,18.066,0
1542824323.738,124.512,36.621,61.523,85.449,-16.113,0
1542824323.742,136.719,30.273,66.895,97.656,-19.043,0
1542824323.745,139.648,14.648,65.430,106.934,5.371,0
1542824323.749,144.531,14.648,66.406,122.559,53.223,0
1542824323.753,171.875,19.531,68.848,127.930,49.316,0
1542824323.757,179.199,18.555,72.754,143.066,29.297,0
1542824323.761,176.758,9.766,78.613,152.344,38.086,0
1542824323.765,179.199,15.137,74.219,146.973,5.371,0
1542824323.769,191.895,27.832,71.289,148.438,-16.113,0
1542824323.773,192.871,24.414,78.125,151.855,20.020,0
1542824323.777,173.340,13.672,82.031,145.020,44.922,0
1542824323.781,172.852,15.625,75.195,147.949,21.484,0
1542824323.784,182.617,20.508,70.801,153.809,29.785,0
1542824323.788,197.266,14.648,70.312,148.438,-14.648,0
1542824323.792,187.012,12.207,75.195,143.066,-18.066,0
1542824323.796,167.480,14.648,78.613,140.137,5.859,0
1542824323.800,163.574,9.766,78.125,138.184,22.461,0
1542824323.804,160.645,2.930,74.219,134.277,42.969,0
1542824323.808,170.410,9.277,75.684,128.906,59.570,0
1542824323.812,164.062,22.461,80.078,117.676,79.102,0
1542824323.816,150.879,29.785,70.801,106.445,23.926,0
1542824323.820,141.113,29.297,67.871,108.887,12.695,0
1542824323.824,134.277,28.320,78.613,100.586,14.160,0
1542824323.827,137.207,29.297,78.613,92.285,34.668,0
1542824323.831,129.883,26.855,72.754,88.379,23.926,0
1542824323.835,126.953,21.973,82.520,94.238,19.043,0
1542824323.839,137.207,19.531,89.355,97.656,3.418,0
1542824323.843,135.254,17.578,86.914,96.680,53.711,0
1542824323.847,121.582,16.602,82.031,96.191,74.219,0
1542824323.851,125.488,23.438,79.102,86.426,47.363,0
1542824323.855,123.535,31.738,77.637,89.844,94.238,0
1542824323.859,108.398,25.391,77.148,90.820,45.410,0
1542824323.863,116.211,22.949,71.777,83.984,12.207,0
1542824323.867,124.512,22.949,66.895,88.379,9.277,0
1542824323.870,124.512,21.973,71.777,91.309,12.695,0
1542824323.874,116.699,36.133,72.754,86.914,69.824,0
1542824323.878,102.051,36.621,66.406,74.707,46.387,0
1542824323.882,90.332,30.762,55.176,70.312,-14.648,0
1542824323.886,91.309,30.273,52.734,71.289,-30.273,0
1542824323.890,100.586,23.926,57.617,75.195,40.527,0
1542824323.894,94.238,24.414,48.340,63.965,83.984,0
1542824323.898,90.332,32.715,53.223,59.082,33.203,0
1542824323.902,84.473,26.855,53.711,62.988,52.734,0
1542824323.906,82.031,22.461,40.039,53.711,34.668,0
1542824323.909,83.008,27.832,45.898,57.617,-10.742,0
1542824323.913,76.660,28.809,54.688,67.871,35.645,0
1542824323.917,70.312,24.414,52.246,57.129,32.227,0
1542824323.921,68.359,21.973,50.781,46.875,-24.902,0
1542824323.925,75.195,30.273,50.781,47.363,-23.926,0
1542824323.929,68.848,32.227,50.781,53.223,-1.465,0
1542824323.933,64.453,27.832,44.922,49.805,-13.184,0
1542824323.937,72.266,27.344,43.457,41.504,7.812,0
1542824323.941,69.824,20.996,43.457,41.016,58.105,0
1542824323.945,66.406,22.461,42.480,47.852,9.766,0
1542824323.949,63.965,30.273,38.086,41.016,-6.836,0
1542824323.952,71.777,33.203,39.062,44.434,-5.371,0
1542824323.956,66.895,32.227,44.434,51.758,77.148,0
1542824323.960,60.547,34.668,43.945,52.246,99.609,0
1542824323.964,70.312,40.039,41.504,52.246,32.227,0
1542824323.968,70.801,44.434,42.969,43.457,36.621,0
1542824323.972,71.289,40.039,42.969,45.410,61.523,0
1542824323.976,62.500,33.203,35.156,47.852,74.707,0
1542824323.980,61.035,31.250,31.738,35.156,44.922,0
1542824323.984,61.523,28.809,35.156,31.250,20.996,0
1542824323.988,51.758,25.391,38.574,32.227,15.137,0
1542824323.992,56.152,29.785,33.691,33.203,54.199,0
1542824323.995,50.293,39.551,25.391,32.227,72.266,0
1542824323.999,41.504,41.504,28.809,32.715,42.480,0
1542824324.003,45.898,39.551,34.668,27.832,39.551,0
1542824324.007,40.039,41.016,29.297,17.578,29.785,0
1542824324.011,40.039,40.039,30.762,24.902,3.418,0
1542824324.015,41.504,36.621,38.086,41.504,-20.020,0
1542824324.019,38.574,35.645,38.574,34.180,-23.438,0
1542824324.023,41.504,37.109,32.715,29.297,-4.883,0
1542824324.027,42.969,36.621,28.809,29.297,49.805,0
1542824324.031,48.828,41.992,30.762,23.926,41.016,0
1542824324.034,54.688,41.016,31.738,28.809,48.828,0
1542824324.038,56.152,32.715,28.809,31.738,65.430,0
1542824324.042,46.875,29.785,23.438,32.715,27.832,0
1542824324.046,42.969,29.297,21.484,37.598,-5.371,0
1542824324.050,39.062,43.457,24.414,37.598,-9.766,0
1542824324.054,31.250,40.527,28.320,26.367,16.113,0
1542824324.058,37.109,29.785,30.273,29.297,15.137,0
1542824324.062,47.363,32.715,23.926,30.762,73.242,0
1542824324.066,45.410,33.203,18.555,26.855,63.965,0
1542824324.070,36.621,33.203,15.625,22.949,-3.906,0
1542824324.074,34.668,41.992,16.602,13.184,-41.504,0
1542824324.077,25.879,46.875,20.508,11.230,14.648,0
1542824324.081,30.273,41.016,19.043,14.648,78.125,0
1542824324.085,33.203,35.156,16.113,21.484,23.438,0
1542824324.089,25.879,32.227,20.996,26.855,0.488,0
1542824324.093,21.484,32.715,22.949,21.484,64.453,0
1542824324.097,23.438,30.273,19.043,20.020,68.359,0
1542824324.101,32.227,33.691,20.508,22.949,-13.184,0
1542824324.105,42.969,41.504,16.113,17.578,-27.344,0
1542824324.109,40.039,39.551,18.555,19.531,19.531,0
1542824324.113,32.715,33.691,24.902,27.344,21.973,0
1542824324.117,30.762,30.273,26.367,39.551,1.465,0
1542824324.120,31.250,36.133,26.855,40.039,38.086,0
1542824324.124,30.273,43.457,24.414,34.180,18.066,0
1542824324.128,27.832,42.480,25.391,24.414,20.020,0
1542824324.132,32.715,36.621,25.391,15.137,70.801,0
1542824324.136,32.715,33.203,21.484,17.090,60.547,0
1542824324.140,23.438,33.691,21.484,16.602,-4.883,0
1542824324.144,27.832,39.551,25.391,20.996,-1.465,0
1542824324.148,24.902,41.992,24.414,28.809,27.344,0
1542824324.152,26.367,39.062,21.973,17.090,20.996,0
1542824324.156,25.391,35.156,19.043,7.324,0.000,0
1542824324.159,25.879,35.156,20.020,7.812,-7.812,0
1542824324.163,30.273,42.480,25.879,12.207,11.230,0
1542824324.167,17.578,43.457,26.855,7.812,-3.906,0
1542824324.171,16.113,34.668,27.344,2.441,49.805,0
1542824324.175,17.090,32.227,25.879,9.766,125.488,0
1542824324.179,16.602,33.203,21.484,16.113,56.641,0
1542824324.183,16.113,29.297,19.531,22.949,40.039,0
1542824324.187,16.602,32.715,20.020,14.160,50.781,0
1542824324.191,19.531,32.715,22.461,7.812,-27.344,0
1542824324.195,26.855,32.715,24.902,23.438,48.828,0
1542824324.199,37.109,41.992,28.320,26.855,108.887,0
1542824324.202,38.574,42.969,32.227,25.391,26.367,0
1542824324.206,37.109,39.551,29.785,25.879,31.738,0
1542824324.210,36.621,45.410,27.344,21.973,62.500,0
1542824324.214,34.668,45.410,29.785,21.484,99.121,0
1542824324.218,40.527,36.621,26.367,28.809,62.012,0
1542824324.222,41.992,32.227,26.367,26.855,-30.762,0
1542824324.226,39.062,33.203,29.785,23.926,-14.648,0
1542824324.230,34.180,28.809,34.668,36.621,21.973,0
1542824324.234,31.250,19.531,34.180,25.391,-1.465,0
1542824324.238,33.203,27.344,38.086,9.277,35.156,0
1542824324.242,43.945,44.434,33.691,18.555,63.965,0
1542824324.245,38.574,42.969,25.879,18.066,41.016,0
1542824324.249,25.391,34.668,33.203,14.648,67.383,0
1542824324.253,38.086,35.156,34.180,15.137,104.492,0
1542824324.257,39.551,32.715,31.738,8.789,64.941,0
1542824324.261,38.086,27.832,30.273,4.883,-1.465,0
1542824324.265,34.668,32.715,25.391,3.906,-6.836,0
1542824324.269,28.320,41.016,24.902,14.160,38.574,0
1542824324.273,36.133,47.852,27.344,24.902,-8.301,0
1542824324.277,30.762,43.945,27.832,25.879,-29.785,0
1542824324.281,26.855,33.203,26.855,20.020,-2.441,0
1542824324.284,29.297,30.762,26.367,12.695,-5.371,0
1542824324.288,31.250,32.715,26.855,11.230,29.297,0
1542824324.292,30.762,28.320,29.785,14.160,-15.137,0
1542824324.296,27.832,33.691,29.297,10.742,3.906,0
1542824324.300,34.668,44.434,30.762,14.160,34.668,0
1542824324.304,38.574,37.109,30.273,11.230,27.344,0
1542824324.308,45.410,33.203,27.344,10.254,-21.973,0
1542824324.312,29.297,35.645,29.297,19.531,5.371,0
1542824324.316,19.043,31.738,27.832,19.531,20.508,0
1542824324.320,24.414,29.297,26.855,17.578,-26.367,0
1542824324.324,21.484,29.785,28.320,3.418,17.090,0
1542824324.327,27.832,32.227,24.902,-6.836,43.945,0
1542824324.331,33.691,37.598,24.414,8.301,27.344,0
1542824324.335,25.879,37.109,21.973,9.766,23.926,0
1542824324.339,20.020,27.832,16.602,3.418,62.988,0
1542824324.343,15.625,31.738,19.531,10.742,31.738,0
1542824324.347,25.391,38.086,21.484,20.508,21.973,0
1542824324.351,32.227,24.414,21.973,13.672,28.809,0
1542824324.355,21.484,26.855,26.367,-1.465,6.836,0
1542824324.359,18.066,38.574,25.391,-6.348,-20.020,0
1542824324.363,20.508,34.668,18.555,5.859,-18.066,0
1542824324.367,28.809,32.715,20.020,4.395,48.828,0
1542824324.370,34.668,37.598,23.926,3.418,52.734,0
1542824324.374,30.273,36.621,20.508,16.113,65.918,0
1542824324.378,30.762,26.367,22.461,20.020,47.852,0
1542824324.382,41.016,23.926,26.855,20.996,48.828,0
1542824324.386,48.340,32.715,27.832,15.625,45.898,0
1542824324.390,40.039,33.203,28.320,11.719,47.363,0
1542824324.394,32.715,34.668,22.461,21.973,31.250,0
1542824324.398,22.949,26.855,26.367,24.414,-29.785,0
1542824324.402,28.320,23.926,30.762,14.160,23.926,0
1542824324.406,36.621,36.621,20.996,11.719,77.148,0
1542824324.409,29.785,36.621,20.020,12.695,42.969,0
1542824324.413,28.809,34.668,28.809,2.930,24.902,0
1542824324.417,26.367,41.016,32.227,-7.812,-9.766,0
1542824324.421,34.668,38.086,25.391,-0.977,-32.227,0
1542824324.425,44.434,35.645,20.996,11.230,2.441,0
1542824324.429,51.270,39.551,21.973,13.672,10.254,0
1542824324.433,49.316,35.156,21.484,8.301,14.160,0
1542824324.437,34.180,33.691,21.973,14.160,9.766,0
1542824324.441,37.598,39.551,23.438,18.066,16.113,0
1542824324.445,51.270,37.109,25.391,10.742,7.812,0
1542824324.449,54.199,34.180,23.926,8.789,9.277,0
1542824324.452,52.734,32.227,25.879,11.719,35.645,0
1542824324.456,46.387,35.645,24.414,15.137,34.180,0
1542824324.460,41.992,41.016,17.090,11.719,52.734,0
1542824324.464,46.387,37.598,15.137,7.324,20.020,0
1542824324.468,49.805,42.480,14.160,9.277,-7.812,0
1542824324.472,46.387,43.945,14.648,12.695,32.715,0
1542824324.476,47.363,41.504,16.113,12.207,0.977,0
1542824324.480,50.293,34.668,17.578,6.348,8.301,0
1542824324.484,56.152,26.855,24.414,10.742,55.176,0
1542824324.488,56.152,37.109,26.367,16.602,58.594,0
1542824324.492,45.898,48.828,20.508,17.090,84.473,0
1542824324.495,36.621,45.898,17.578,15.137,83.496,0
1542824324.499,35.645,41.016,19.043,19.043,41.992,0
1542824324.503,44.922,27.344,24.414,15.625,13.184,0
1542824324.507,51.758,24.414,22.461,19.531,1.953,0
1542824324.511,56.152,41.992,19.531,20.020,20.996,0
1542824324.515,54.199,49.316,18.555,14.160,39.551,0
1542824324.519,49.316,48.340,17.578,9.766,29.785,0
1542824324.523,58.105,40.039,24.902,4.883,45.898,0
1542824324.527,59.082,36.621,24.414,6.348,76.660,0
1542824324.531,36.133,41.016,21.484,3.906,27.832,0
1542824324.534,25.879,38.086,25.879,6.836,16.602,0
1542824324.538,36.133,36.133,28.320,14.648,34.180,0
1542824324.542,43.457,38.086,30.762,10.254,47.363,0
1542824324.546,44.922,38.086,23.438,8.301,-5.371,0
1542824324.550,44.434,41.504,19.531,14.648,-47.363,0
1542824324.554,44.922,36.133,21.484,7.812,19.043,0
1542824324.558,48.340,38.086,20.508,7.324,23.926,0
1542824324.562,39.551,44.434,22.461,7.812,11.719,0
1542824324.566,42.969,41.016,25.879,3.418,22.949,0
1542824324.570,50.293,42.480,25.879,8.789,-0.488,0
1542824324.574,34.180,38.086,26.855,14.648,-16.602,0
1542824324.577,35.645,37.598,28.320,10.742,25.879,0
1542824324.581,38.086,41.504,26.367,13.184,43.945,0
1542824324.585,21.973,37.598,26.367,10.742,21.484,0
1542824324.589,27.344,31.738,27.832,11.719,-12.207,0
1542824324.593,36.133,26.367,20.996,26.367,32.715,0
1542824324.597,34.180,32.715,15.137,13.672,66.406,0
1542824324.601,39.551,39.551,17.578,2.441,-4.883,0
1542824324.605,46.387,31.250,25.391,7.324,-9.277,0
1542824324.609,46.387,32.227,26.367,-0.488,67.383,0
1542824324.613,44.434,38.086,23.438,0.977,54.688,0
1542824324.617,33.691,36.621,23.438,18.066,1.465,0
1542824324.620,29.785,41.016,22.949,11.719,20.508,0
1542824324.624,34.668,40.039,24.902,10.254,19.531,0
1542824324.628,32.715,42.969,22.949,10.254,-33.203,0
1542824324.632,40.039,41.992,21.973,1.465,-31.250,0
1542824324.636,41.992,46.875,30.273,5.371,66.895,0
1542824324.640,45.410,52.246,31.738,2.930,69.336,0
1542824324.644,54.199,39.551,29.785,14.160,51.270,0
1542824324.648,53.223,38.086,33.203,20.020,57.129,0
1542824324.652,41.016,39.551,19.043,1.465,56.152,0
1542824324.656,24.414,37.598,10.254,-11.719,44.434,0
1542824324.659,13.672,38.574,16.602,-22.949,-10.254,0
1542824324.663,-3.906,40.527,15.137,-43.457,5.371,0
1542824324.667,1.465,45.410,18.066,-27.832,49.805,0
1542824324.671,6.348,47.852,25.879,-26.367,59.082,0
1542824324.675,-39.551,43.945,16.113,-73.242,78.125,0
1542824324.679,-49.316,42.969,9.766,-92.773,42.969,0
1542824324.683,-59.082,49.316,10.742,-99.609,11.719,0
1542824324.687,-76.660,56.152,11.230,-121.582,16.113,0
1542824324.691,-92.285,56.152,12.207,-137.695,36.621,0
1542824324.695,-120.117,66.406,3.906,-150.879,62.500,0
1542824324.699,-128.906,68.848,-3.906,-169.922,78.125,0
1542824324.702,-163.574,58.594,-8.789,-208.496,43.945,0
1542824324.706,-185.059,58.105,-14.648,-226.074,-5.371,0
1542824324.710,-184.082,65.918,-11.230,-207.520,21.484,0
1542824324.714,-206.055,70.312,-6.836,-229.004,68.848,0
1542824324.718,-215.332,66.895,-19.043,-249.023,48.340,0
1542824324.722,-224.609,65.918,-31.738,-250.000,-26.855,0
1542824324.726,-245.605,63.965,-20.508,-279.297,-30.762,0
1542824324.730,-246.094,65.918,-2.441,-278.320,10.742,0
1542824324.734,-223.145,60.059,-14.648,-269.043,25.879,0
1542824324.738,-203.613,67.871,-37.109,-254.883,20.508,0
1542824324.742,-221.191,73.730,-36.621,-250.000,41.992,0
1542824324.745,-250.488,59.570,-35.645,-265.625,51.270,0
1542824324.749,-221.680,52.734,-41.504,-241.211,19.531,0
1542824324.753,-198.730,54.199,-23.926,-229.492,27.832,0
1542824324.757,-196.289,40.527,-5.371,-229.980,74.219,0
1542824324.761,-167.969,49.805,-11.719,-197.266,121.582,0
1542824324.765,-161.621,73.242,-17.090,-196.777,40.039,0
1542824324.769,-150.879,63.965,-11.230,-192.871,-39.062,0
1542824324.773,-83.008,53.711,-11.230,-125.977,28.320,0
1542824324.777,-75.684,53.223,-18.555,-112.793,31.738,0
1542824324.781,-91.309,51.270,-14.648,-125.000,-32.715,0
1542824324.784,-51.758,44.922,1.953,-88.379,8.301,0
1542824324.788,-46.875,40.039,0.000,-74.707,22.949,0
1542824324.792,-20.508,40.039,-15.137,-68.359,72.266,0
1542824324.796,8.789,33.691,-5.859,-38.086,81.543,0
1542824324.800,26.855,36.621,9.277,-17.578,8.789,0
1542824324.804,41.016,41.016,21.484,0.488,11.230,0
1542824324.808,55.176,41.992,13.672,16.602,-8.301,0
1542824324.812,60.059,42.969,-1.953,27.344,28.320,0
1542824324.816,64.453,34.668,5.859,35.156,81.543,0
1542824324.820,87.891,25.391,16.113,30.273,20.020,0
1542824324.824,96.191,24.902,19.531,42.480,-21.484,0
1542824324.827,86.914,27.344,22.461,67.383,23.438,0
1542824324.831,86.426,21.484,19.531,52.734,49.316,0
1542824324.835,94.238,18.066,19.043,35.645,24.902,0
1542824324.839,102.051,21.973,27.344,58.594,21.484,0
1542824324.843,102.539,32.715,24.902,67.383,41.504,0
1542824324.847,107.422,37.598,15.137,63.477,44.434,0
1542824324.851,109.375,28.809,18.066,61.035,36.621,0
1542824324.855,102.539,29.785,28.320,68.848,51.758,0
1542824324.859,108.887,32.227,21.973,87.891,23.926,0
1542824324.863,118.652,30.762,11.719,82.031,40.527,0
1542824324.867,116.699,29.297,22.461,76.172,-6.348,0
1542824324.870,108.887,22.461,23.438,82.031,-23.926,0
1542824324.874,110.352,24.902,27.344,83.496,-8.789,0
1542824324.878,120.117,29.297,34.180,84.473,-54.688,0
1542824324.882,116.211,29.785,28.320,74.219,1.953,0
1542824324.886,114.258,31.250,24.902,81.055,13.184,0
1542824324.890,127.441,35.645,26.367,94.727,44.922,0
1542824324.894,119.141,38.574,20.996,80.078,59.570,0
1542824324.898,105.469,28.320,22.949,78.125,-19.043,0
1542824324.902,104.492,22.949,34.180,83.984,9.277,0
1542824324.906,113.281,27.832,29.785,83.984,39.551,0
1542824324.909,122.559,30.273,22.949,79.102,31.738,0
1542824324.913,122.070,32.227,37.598,73.730,-14.648,0
1542824324.917,121.094,35.645,37.109,82.520,1.953,0
1542824324.921,111.328,33.691,29.785,84.961,34.180,0
1542824324.925,114.746,27.344,31.250,78.613,47.363,0
1542824324.929,127.441,29.785,33.203,78.125,64.941,0
1542824324.933,120.117,34.180,41.016,85.449,41.504,0
1542824324.937,110.840,33.203,22.461,85.449,42.969,0
1542824324.941,116.699,44.922,14.648,77.148,-16.602,0
1542824324.945,118.652,35.645,38.574,83.496,31.738,0
1542824324.949,108.887,16.113,39.062,84.473,79.102,0
1542824324.952,117.676,29.297,29.785,69.824,45.898,0
1542824324.956,119.629,41.016,35.156,61.523,-13.672,0
1542824324.960,102.051,35.156,36.133,57.129,-28.809,0
1542824324.964,103.516,35.156,40.039,65.918,-16.602,0
1542824324.968,105.469,37.109,50.293,67.383,31.250,0
1542824324.972,108.398,35.156,43.457,69.336,20.996,0
1542824324.976,107.422,34.668,41.504,74.219,-15.137,0
1542824324.980,116.699,32.227,42.969,91.309,50.293,0
1542824324.984,133.789,31.250,41.504,96.680,39.551,0
1542824324.988,124.512,29.297,35.645,87.891,20.996,0
1542824324.992,95.703,31.250,33.203,62.988,66.406,0
1542824324.995,99.121,38.086,36.621,50.293,56.152,0
1542824324.999,124.512,40.039,35.156,73.242,-4.883,0
1542824325.003,122.559,44.434,35.156,83.008,-20.020,0
1542824325.007,126.953,45.898,38.574,82.520,-12.695,0
1542824325.011,134.277,44.922,41.016,82.031,-22.949,0
1542824325.015,128.418,42.969,42.969,86.426,-13.672,0
1542824325.019,140.625,42.480,41.016,89.355,33.203,0
1542824325.023,156.250,47.363,41.992,88.867,47.363,0
1542824325.027,143.555,50.781,38.086,88.379,36.621,0
1542824325.031,131.836,48.828,24.414,75.195,-27.832,0
1542824325.034,131.348,44.434,28.320,82.031,-69.336,0
1542824325.038,129.883,37.109,41.016,92.773,43.457,0
1542824325.042,131.836,35.156,40.527,79.102,11.230,0
1542824325.046,128.418,32.715,37.598,75.684,-12.207,0
1542824325.050,121.582,31.738,34.180,80.078,40.039,0
1542824325.054,118.164,32.227,35.645,64.941,47.852,0
1542824325.058,124.023,26.855,38.086,63.965,53.223,0
1542824325.062,139.160,26.855,32.227,70.312,41.504,0
1542824325.066,138.184,33.691,32.227,78.613,35.156,0
1542824325.070,130.371,37.598,29.297,87.402,53.223,0
1542824325.074,121.582,31.738,26.367,70.801,85.449,0
1542824325.077,120.605,30.762,24.902,59.082,32.715,0
1542824325.081,122.070,38.574,25.879,60.059,-2.441,0
1542824325.085,118.164,42.969,37.598,41.992,51.758,0
1542824325.089,118.164,33.203,33.203,33.691,50.293,0
1542824325.093,111.816,33.203,32.227,42.480,12.695,0
1542824325.097,98.145,38.086,34.180,41.992,16.113,0
1542824325.101,106.445,31.738,22.949,55.176,-20.508,0
1542824325.105,112.305,31.250,19.531,50.781,-27.344,0
1542824325.109,103.516,32.715,26.367,42.969,-9.766,0
1542824325.113,101.562,31.738,37.598,58.105,-12.207,0
1542824325.117,97.168,41.992,33.203,57.129,20.996,0
1542824325.120,90.820,46.387,28.320,46.387,14.160,0
1542824325.124,88.867,35.156,32.227,51.270,-40.527,0
1542824325.128,94.238,39.551,35.645,62.988,-31.250,0
1542824325.132,90.332,43.945,33.203,64.453,34.180,0
1542824325.136,76.172,31.738,30.762,49.316,15.625,0
1542824325.140,87.891,25.391,36.133,55.664,-23.438,0
1542824325.144,95.703,28.809,38.574,65.918,37.598,0
1542824325.148,82.520,37.598,28.809,44.434,99.609,0
1542824325.152,84.473,33.691,18.555,33.691,93.262,0
1542824325.156,88.867,31.250,35.645,35.156,93.750,0
1542824325.159,87.402,41.504,31.250,41.016,77.637,0
1542824325.163,87.402,36.133,14.160,34.180,35.645,0
1542824325.167,84.961,33.691,28.809,29.785,47.852,0
1542824325.171,89.355,36.621,38.574,37.109,71.289,0
1542824325.175,74.219,34.668,32.715,44.922,50.781,0
1542824325.179,63.477,32.715,27.344,41.504,17.090,0
1542824325.183,70.312,27.832,22.949,34.180,80.078,0
1542824325.187,79.102,34.668,23.438,38.086,121.582,0
1542824325.191,83.984,38.086,29.297,38.086,27.344,0
1542824325.195,100.098,38.086,38.086,44.922,46.875,0
1542824325.199,105.957,42.969,34.180,32.227,24.902,0
1542824325.202,83.984,31.738,27.832,27.344,-46.875,0
1542824325.206,80.566,27.832,32.715,32.227,2.441,0
1542824325.210,88.379,38.574,39.062,31.250,21.484,0
1542824325.214,98.145,32.715,33.203,35.156,9.277,0
1542824325.218,104.980,26.855,27.344,37.109,0.977,0
1542824325.222,110.352,20.996,41.992,46.875,38.086,0
1542824325.226,111.816,35.156,40.527,52.246,49.316,0
1542824325.230,102.051,58.105,25.879,47.852,29.785,0
1542824325.234,94.727,43.945,31.738,40.039,41.504,0
1542824325.238,92.773,31.738,35.156,27.344,24.414,0
1542824325.242,94.238,37.598,33.203,43.457,51.270,0
1542824325.245,87.891,41.992,34.180,46.387,30.762,0
1542824325.249,78.613,40.527,35.156,39.551,-26.855,0
1542824325.253,79.590,37.109,28.809,35.156,11.230,0
1542824325.257,79.590,32.715,26.367,20.020,57.617,0
1542824325.261,83.008,27.832,27.832,32.227,10.254,0
1542824325.265,83.008,35.645,30.273,43.457,-12.695,0
1542824325.269,88.379,45.898,29.785,42.969,38.574,0
1542824325.273,88.379,40.527,20.996,38.086,38.086,0
1542824325.277,75.684,35.645,22.461,45.898,61.523,0
1542824325.281,70.801,31.738,34.180,56.152,105.469,0
1542824325.284,65.918,25.391,36.621,41.016,53.223,0
1542824325.288,70.801,32.227,35.156,32.715,33.203,0
1542824325.292,70.312,43.945,29.297,26.367,34.668,0
1542824325.296,68.359,31.250,26.855,28.320,59.570,0
1542824325.300,68.848,21.484,31.250,36.133,49.316,0
1542824325.304,71.289,29.785,27.344,37.598,32.715,0
1542824325.308,73.242,34.668,26.855,42.480,79.590,0
1542824325.312,70.801,50.781,37.598,36.621,81.055,0
1542824325.316,64.941,58.105,30.762,22.461,13.672,0
1542824325.320,52.246,41.016,15.625,10.742,6.348,0
1542824325.324,59.570,35.645,28.320,14.160,41.504,0
1542824325.327,63.477,33.203,39.062,18.555,20.508,0
1542824325.331,59.082,33.691,35.156,20.020,-11.230,0
1542824325.335,68.359,42.969,37.109,26.855,11.230,0
1542824325.339,62.988,45.410,36.133,31.738,32.227,0
1542824325.343,54.199,44.922,35.156,33.203,28.320,0
1542824325.347,58.594,37.109,35.645,36.133,1.465,0
1542824325.351,60.059,35.645,32.715,29.297,-4.395,0
1542824325.355,48.340,43.457,33.203,27.832,23.438,0
1542824325.359,41.992,42.969,35.156,18.555,64.941,0
1542824325.363,49.316,30.762,40.039,16.602,108.887,0
1542824325.367,43.457,28.320,38.086,18.555,117.188,0
1542824325.370,47.363,36.621,21.484,10.742,8.789,0
1542824325.374,50.781,39.551,25.879,23.438,9.766,0
1542824325.378,47.852,36.621,40.039,37.598,55.176,0
1542824325.382,48.828,38.574,41.992,28.809,16.113,0
1542824325.386,43.457,45.410,38.574,19.531,2.441,0
1542824325.390,44.922,38.086,27.344,20.020,57.617,0
1542824325.394,39.062,31.250,21.484,10.254,93.262,0
1542824325.398,34.668,40.527,27.344,12.207,39.062,0
1542824325.402,40.039,47.852,34.180,19.043,20.996,0
1542824325.406,52.246,46.875,34.668,22.949,-3.906,0
1542824325.409,61.523,43.457,37.598,41.016,-15.137,0
1542824325.413,32.715,36.621,29.785,21.973,2.441,0
1542824325.417,12.207,31.250,30.762,-2.930,-9.766,0
1542824325.421,23.926,26.367,41.992,-2.441,-10.742,0
1542824325.425,9.766,31.738,36.133,-20.508,19.531,0
1542824325.429,-9.766,40.527,25.391,-28.320,17.578,0
1542824325.433,2.930,33.691,31.738,-17.090,22.461,0
1542824325.437,3.418,31.250,40.527,-15.625,-0.977,0
1542824325.441,-3.418,33.203,31.250,-12.695,-18.066,0
1542824325.445,4.395,22.949,19.531,-14.160,56.641,0
1542824325.449,3.418,26.367,28.809,-18.555,52.246,0
1542824325.452,2.930,52.246,40.039,-19.043,31.250,0
1542824325.456,5.371,58.594,37.109,-10.742,26.855,0
1542824325.460,2.441,41.016,32.227,-19.531,9.277,0
1542824325.464,9.277,33.203,40.039,-16.113,32.227,0
1542824325.468,13.184,36.621,37.109,0.488,54.199,0
1542824325.472,11.719,31.738,26.855,-2.930,21.973,0
1542824325.476,13.184,34.180,29.785,-0.488,-36.133,0
1542824325.480,20.020,42.969,34.668,13.184,-28.320,0
1542824325.484,19.531,42.969,33.691,6.348,14.160,0
1542824325.488,16.602,41.016,32.227,5.371,40.039,0
1542824325.492,29.785,37.598,31.250,2.930,67.871,0
1542824325.495,29.297,37.598,32.715,5.371,51.270,0
1542824325.499,34.180,41.016,41.504,41.504,57.129,0
1542824325.503,37.598,42.480,41.504,27.344,61.035,0
1542824325.507,27.832,37.109,31.250,7.324,14.648,0
1542824325.511,20.508,38.574,25.391,4.395,30.762,0
1542824325.515,23.926,36.133,34.668,-2.930,43.945,0
1542824325.519,41.504,32.715,44.434,17.578,38.574,0
1542824325.523,41.992,41.016,35.156,33.691,28.809,0
1542824325.527,32.715,44.922,21.973,25.879,20.996,0
1542824325.531,41.992,44.922,25.879,30.273,-3.418,0
1542824325.534,39.551,45.898,36.133,21.973,-5.859,0
1542824325.538,28.320,36.621,34.668,12.207,-7.324,0
1542824325.542,29.297,35.645,29.785,14.160,0.488,0
1542824325.546,30.273,40.527,19.043,12.207,50.293,0
1542824325.550,29.785,40.527,22.949,11.230,11.230,0
1542824325.554,38.574,42.480,37.109,8.789,-15.137,0
1542824325.558,47.363,39.062,37.598,6.836,37.598,0
1542824325.562,33.203,36.133,31.738,10.254,20.020,0
1542824325.566,23.438,45.410,41.016,19.531,-42.969,0
1542824325.570,33.691,42.480,46.875,24.902,-10.742,0
1542824325.574,38.574,36.621,40.039,21.484,55.664,0
1542824325.577,34.668,43.457,33.691,20.020,86.914,0
1542824325.581,36.621,41.504,32.715,20.996,96.191,0
1542824325.585,44.922,34.180,37.109,22.949,58.105,0
1542824325.589,52.246,41.016,33.203,25.879,6.836,0
1542824325.593,54.199,52.246,28.809,21.973,20.996,0
1542824325.597,53.711,54.199,31.250,22.461,16.113,0
1542824325.601,48.340,47.852,34.180,27.344,-8.789,0
1542824325.605,42.480,40.039,32.715,18.066,-8.789,0
1542824325.609,45.410,38.574,34.180,16.113,32.227,0
1542824325.613,38.574,46.387,38.574,15.625,31.738,0
1542824325.617,33.203,46.387,37.598,12.207,16.113,0
1542824325.620,43.945,38.086,34.668,21.973,26.367,0
1542824325.624,41.992,37.109,34.668,28.809,19.043,0
1542824325.628,36.621,37.598,35.156,24.414,6.836,0
1542824325.632,34.180,34.180,34.668,26.367,-7.324,0
1542824325.636,41.992,38.086,34.180,31.250,37.109,0
1542824325.640,41.992,37.598,36.621,32.715,34.180,0
1542824325.644,36.133,24.414,35.645,25.391,-30.762,0
1542824325.648,43.945,37.598,29.785,20.508,29.297,0
1542824325.652,46.875,57.129,28.809,30.762,80.078,0
1542824325.656,46.387,53.711,27.344,20.996,35.156,0
1542824325.659,51.270,45.898,30.762,19.531,-0.488,0
1542824325.663,49.316,45.898,35.156,27.344,-21.973,0
1542824325.667,46.875,46.387,31.738,22.949,6.836,0
1542824325.671,47.852,32.715,27.832,17.578,59.570,0
1542824325.675,39.062,29.785,30.273,16.602,62.500,0
1542824325.679,44.922,45.898,29.785,29.297,29.297,0
1542824325.683,56.152,53.711,30.762,44.434,15.137,0
1542824325.687,56.152,41.992,32.715,40.527,32.227,0
1542824325.691,42.969,42.969,32.715,11.719,10.742,0
1542824325.695,39.062,56.641,36.133,7.324,-20.020,0
1542824325.699,48.828,53.223,33.691,23.926,4.395,0
1542824325.702,52.734,43.945,29.297,29.297,53.223,0
1542824325.706,51.270,41.016,29.785,25.391,56.641,0
1542824325.710,46.875,47.363,27.832,20.020,57.129,0
1542824325.714,52.246,42.969,26.367,29.297,58.105,0
1542824325.718,56.152,34.180,32.715,27.344,60.547,0
1542824325.722,42.969,41.504,36.133,17.578,3.418,0
1542824325.726,44.434,43.945,28.809,37.598,-44.922,0
1542824325.730,52.734,41.504,25.391,41.992,-9.766,0
1542824325.734,49.805,44.922,27.832,24.414,27.832,0
1542824325.738,50.781,42.969,22.461,18.066,27.832,0
1542824325.742,47.852,40.039,22.949,25.391,17.090,0
1542824325.745,48.340,33.691,31.250,30.273,15.137,0
1542824325.749,51.270,38.086,34.180,25.879,59.570,0
1542824325.753,46.387,47.852,35.645,27.832,43.457,0
1542824325.757,50.293,41.992,36.621,34.180,22.461,0
1542824325.761,59.570,43.457,32.227,28.320,29.785,0
1542824325.765,47.363,48.340,19.043,26.855,23.438,0
1542824325.769,41.016,46.875,23.438,25.879,46.875,0
1542824325.773,46.387,44.434,31.738,20.996,60.547,0
1542824325.777,46.875,45.898,34.180,17.578,4.883,0
1542824325.781,46.387,50.293,34.180,15.625,-2.930,0
1542824325.784,40.527,35.645,30.273,17.578,50.293,0
1542824325.788,44.434,25.879,25.391,24.902,42.480,0
1542824325.792,44.922,43.457,29.297,29.297,1.953,0
1542824325.796,43.457,46.875,34.180,24.902,-36.621,0
1542824325.800,39.062,43.945,22.949,21.484,-6.348,0
1542824325.804,35.156,36.621,13.672,13.184,50.781,0
1542824325.808,44.922,30.273,19.531,18.555,62.988,0
1542824325.812,44.922,34.668,25.391,16.602,43.457,0
1542824325.816,44.434,32.227,24.414,3.418,50.781,0
1542824325.820,53.223,40.527,25.391,6.348,78.125,0
1542824325.824,55.176,49.316,23.926,12.207,89.355,0
1542824325.827,53.711,48.340,26.367,16.602,50.781,0
1542824325.831,56.641,47.852,25.391,20.508,-24.902,0
1542824325.835,67.383,47.363,20.020,28.320,-25.391,0
1542824325.839,67.871,37.109,21.484,30.762,-22.949,0
1542824325.843,57.129,37.109,21.973,17.578,-16.602,0
1542824325.847,53.711,41.992,26.855,19.531,16.113,0
1542824325.851,52.246,38.086,32.227,16.602,15.137,0
1542824325.855,45.898,41.504,28.809,13.672,22.461,0
1542824325.859,43.945,41.992,33.691,21.973,36.621,0
1542824325.863,39.062,36.133,34.668,17.090,30.762,0
1542824325.867,42.480,36.621,22.949,19.043,6.348,0
1542824325.870,41.992,35.156,24.414,19.531,-16.113,0
1542824325.874,38.086,45.410,33.691,26.367,-0.488,0
1542824325.878,43.945,56.641,30.762,31.250,16.113,0
1542824325.882,51.270,49.316,27.344,18.555,35.156,0
1542824325.886,53.711,44.434,32.227,15.625,39.551,0
1542824325.890,49.316,38.086,24.902,20.996,3.906,0
1542824325.894,40.039,34.180,20.020,28.809,-5.371,0
1542824325.898,51.758,37.109,31.738,27.344,32.715,0
1542824325.902,63.477,34.668,35.645,27.344,46.387,0
1542824325.906,57.617,30.762,35.156,36.621,48.828,0
1542824325.909,49.316,38.086,33.203,32.715,49.805,0
1542824325.913,43.945,46.875,29.785,23.438,46.875,0
1542824325.917,46.875,48.340,31.250,14.160,26.367,0
1542824325.921,58.594,46.875,37.109,16.602,66.406,0
1542824325.925,64.453,40.527,34.180,33.203,36.133,0
1542824325.929,54.688,48.340,24.414,33.203,16.602,0
1542824325.933,49.316,48.340,34.180,31.738,54.199,0
1542824325.937,42.969,39.062,35.156,25.879,14.160,0
1542824325.941,29.297,36.621,24.902,11.719,41.016,0
1542824325.945,39.551,28.809,27.344,20.020,32.227,0
1542824325.949,41.992,29.297,32.227,27.344,16.113,0
1542824325.952,45.898,47.852,26.855,26.855,44.922,0
1542824325.956,69.336,53.711,22.949,41.992,11.719,0
1542824325.960,64.453,50.781,21.973,32.227,38.574,0
1542824325.964,20.508,50.781,21.973,-3.418,41.992,0
1542824325.968,8.789,48.340,21.484,1.465,13.184,0
1542824325.972,7.324,40.527,24.902,-1.953,19.531,0
1542824325.976,-9.766,36.133,20.020,-23.926,73.730,0
1542824325.980,-18.066,52.246,16.113,-27.344,50.293,0
1542824325.984,-32.715,54.688,11.719,-31.738,3.906,0
1542824325.988,-27.832,46.875,10.254,-44.922,68.848,0
1542824325.992,-21.973,42.969,14.648,-56.641,36.621,0
1542824325.995,-27.832,45.410,14.160,-59.082,16.602,0
1542824325.999,-32.715,50.781,19.043,-57.129,-3.418,0
1542824326.003,-29.297,41.504,16.602,-46.387,-18.555,0
1542824326.007,-25.879,44.922,4.395,-44.434,7.324,0
1542824326.011,-17.578,58.594,11.230,-40.039,19.531,0
1542824326.015,-10.742,41.016,11.230,-40.039,-35.645,0
1542824326.019,-18.066,31.250,3.418,-44.434,-41.992,0
1542824326.023,-19.043,37.598,16.602,-38.086,-19.043,0
1542824326.027,-9.277,44.434,25.391,-29.785,11.230,0
1542824326.031,0.488,53.223,25.391,-25.391,37.109,0
1542824326.034,1.465,46.875,26.367,-22.461,-26.367,0
1542824326.038,3.906,38.086,20.020,-23.926,-67.871,0
1542824326.042,1.953,41.504,8.301,-21.484,-46.875,0
1542824326.046,1.465,42.480,10.254,-24.902,8.789,0
1542824326.050,9.277,39.551,19.043,-23.926,22.949,0
1542824326.054,14.648,47.852,28.809,-7.812,31.738,0
1542824326.058,18.066,45.898,26.367,-4.883,24.902,0
1542824326.062,22.949,40.039,21.484,-11.230,-43.457,0
1542824326.066,23.926,36.621,28.320,-13.672,-28.320,0
1542824326.070,22.461,33.203,36.621,-2.930,-3.418,0
1542824326.074,17.090,35.156,31.738,-3.418,-8.789,0
1542824326.077,16.113,41.992,17.578,-14.160,45.898,0
1542824326.081,28.809,43.945,19.043,-1.465,73.242,0
1542824326.085,24.414,32.715,32.227,2.441,61.523,0
1542824326.089,19.531,32.227,35.156,4.883,25.391,0
1542824326.093,37.598,41.504,32.227,19.531,42.969,0
1542824326.097,41.504,42.969,32.227,17.578,40.039,0
1542824326.101,45.898,48.340,37.598,20.508,43.945,0
1542824326.105,45.898,51.758,36.133,22.461,69.824,0
1542824326.109,32.715,45.898,31.738,11.719,70.312,0
1542824326.113,29.785,33.691,32.227,6.348,37.598,0
1542824326.117,25.879,35.645,31.250,9.277,-32.227,0
1542824326.120,29.785,41.504,33.691,8.301,-19.043,0
1542824326.124,38.574,38.574,38.086,1.953,33.203,0
1542824326.128,23.926,38.574,31.250,-0.977,58.105,0
1542824326.132,20.508,31.738,27.344,4.395,35.156,0
1542824326.136,29.785,30.273,22.949,6.836,-22.461,0
1542824326.140,35.645,43.457,13.672,12.695,-19.043,0
1542824326.144,31.250,41.992,31.250,15.625,-5.859,0
1542824326.148,26.855,37.598,44.922,19.531,12.207,0
1542824326.152,30.762,40.527,43.457,23.926,26.367,0
1542824326.156,25.879,34.668,25.879,21.973,54.199,0
1542824326.159,29.785,33.691,21.973,22.461,83.984,0
1542824326.163,28.320,42.480,38.574,16.602,24.902,0
1542824326.167,25.391,43.457,42.480,16.602,27.344,0
1542824326.171,32.227,43.945,39.551,26.367,15.625,0
1542824326.175,33.691,47.852,36.621,31.250,18.066,0
1542824326.179,33.203,41.992,41.992,35.645,17.578,0
1542824326.183,34.668,37.109,41.016,37.109,0.488,0
1542824326.187,35.156,42.969,25.391,37.109,65.430,0
1542824326.191,36.133,46.875,27.344,25.391,73.730,0
1542824326.195,33.691,45.898,40.039,22.949,36.621,0
1542824326.199,24.902,46.387,35.156,20.996,27.832,0
1542824326.202,15.625,34.668,22.949,7.812,10.742,0
1542824326.206,11.719,22.461,22.949,9.277,43.945,0
1542824326.210,17.578,30.273,28.320,20.996,35.645,0
1542824326.214,21.484,37.109,30.273,21.973,44.434,0
1542824326.218,35.645,39.062,33.691,23.926,46.387,0
1542824326.222,37.598,34.180,36.621,18.555,12.207,0
1542824326.226,31.250,32.715,27.344,9.766,-15.137,0
1542824326.230,25.879,36.133,25.391,12.695,20.508,0
1542824326.234,27.344,41.504,40.039,15.625,72.266,0
1542824326.238,45.898,51.270,24.414,25.391,71.777,0
1542824326.242,35.645,46.875,18.555,23.926,63.477,0
1542824326.245,18.555,39.551,29.785,14.648,45.898,0
1542824326.249,21.973,38.574,33.691,15.137,22.461,0
1542824326.253,19.531,29.297,37.598,21.484,21.973,0
1542824326.257,28.320,31.250,27.832,26.855,56.152,0
1542824326.261,34.180,47.852,28.320,24.414,33.203,0
1542824326.265,33.203,48.340,35.645,25.879,-11.719,0
1542824326.269,47.852,32.227,34.668,45.410,0.000,0
1542824326.273,44.434,29.297,39.062,53.711,10.742,0
1542824326.277,8.789,42.969,34.668,16.602,24.414,0
1542824326.281,-14.648,42.480,27.344,-7.324,32.715,0
1542824326.284,-14.160,35.156,30.762,-4.395,19.531,0
1542824326.288,-22.461,32.227,29.297,-29.297,28.809,0
1542824326.292,-25.391,33.691,30.273,-35.645,49.805,0
1542824326.296,-30.762,44.922,27.344,-28.809,17.090,0
1542824326.300,-45.410,47.852,17.578,-40.527,37.109,0
1542824326.304,-44.922,41.992,19.043,-40.039,48.340,0
1542824326.308,-51.270,37.598,7.812,-50.293,24.902,0
1542824326.312,-57.129,39.551,3.418,-50.293,44.922,0
1542824326.316,-52.734,41.016,20.996,-40.527,59.570,0
1542824326.320,-44.922,39.551,19.531,-38.574,39.551,0
1542824326.324,-28.320,44.434,11.719,-26.855,23.438,0
1542824326.327,-24.902,50.293,17.090,-19.531,-2.930,0
1542824326.331,-32.715,45.898,17.090,-19.043,-8.789,0
1542824326.335,-21.484,40.039,19.531,-19.043,7.324,0
1542824326.339,-9.277,42.480,22.949,-17.090,41.992,0
1542824326.343,-13.184,32.715,26.855,-12.207,27.832,0
1542824326.347,-12.207,25.879,30.273,-2.930,-13.672,0
1542824326.351,-7.812,32.227,23.438,-1.465,25.879,0
1542824326.355,-5.371,37.598,26.367,-13.184,49.805,0
1542824326.359,6.348,46.875,30.762,-4.883,62.012,0
1542824326.363,6.348,45.410,18.555,6.836,13.672,0
1542824326.367,10.742,45.898,25.391,7.324,21.973,0
1542824326.370,14.160,55.176,37.598,8.789,20.996,0
1542824326.374,7.324,50.781,33.203,20.508,45.410,0
1542824326.378,6.348,40.039,30.762,26.855,24.414,0
1542824326.382,7.812,47.363,32.715,20.996,4.883,0
1542824326.386,12.695,44.434,29.785,10.254,5.859,0
1542824326.390,16.602,39.551,36.133,15.625,-24.414,0
1542824326.394,20.996,43.945,40.527,21.484,18.555,0
1542824326.398,30.762,38.574,34.180,20.020,11.230,0
1542824326.402,34.180,38.086,36.133,42.969,29.297,0
1542824326.406,24.902,32.715,29.785,36.621,40.527,0
1542824326.409,20.020,30.762,22.461,9.277,37.598,0
1542824326.413,15.625,38.086,27.832,13.672,41.016,0
1542824326.417,15.137,39.062,38.086,21.484,34.668,0
1542824326.421,16.602,41.992,49.316,15.137,78.125,0
1542824326.425,13.184,37.598,38.574,13.672,68.359,0
1542824326.429,15.625,32.227,25.879,17.578,11.719,0
1542824326.433,12.207,38.574,34.180,15.625,22.461,0
1542824326.437,15.137,39.551,35.645,17.578,63.965,0
1542824326.441,19.531,37.109,40.527,16.602,49.805,0
1542824326.445,19.043,36.621,45.410,16.602,27.832,0
1542824326.449,40.039,37.598,41.992,39.551,42.480,0
1542824326.452,41.016,41.992,37.598,42.969,26.855,0
1542824326.456,-4.395,44.434,29.785,8.789,47.363,0
1542824326.460,-5.371,39.062,29.297,10.742,32.227,0
1542824326.464,2.930,42.969,35.156,9.766,7.812,0
1542824326.468,-3.418,49.316,33.203,-11.719,13.184,0
1542824326.472,9.277,45.898,31.738,4.395,40.527,0
1542824326.476,1.465,36.621,30.273,8.301,113.281,0
1542824326.480,5.371,35.645,28.320,3.418,73.242,0
1542824326.484,20.508,38.086,28.320,17.090,-3.418,0
1542824326.488,16.113,41.016,29.297,19.531,53.711,0
1542824326.492,13.184,44.434,25.879,26.367,31.738,0
1542824326.495,5.859,35.156,21.973,16.113,-67.383,0
1542824326.499,9.277,33.691,28.320,13.184,-28.320,0
1542824326.503,17.090,39.062,36.621,22.949,45.898,0
1542824326.507,10.742,36.133,32.227,14.160,43.457,0
1542824326.511,11.230,43.945,27.344,24.902,11.230,0
1542824326.515,17.578,51.758,29.785,20.508,-4.883,0
1542824326.519,25.879,41.504,37.109,14.648,31.250,0
1542824326.523,46.875,33.203,41.504,46.387,53.711,0
1542824326.527,47.852,38.086,35.156,47.852,39.551,0
1542824326.531,21.973,35.645,33.691,21.484,18.066,0
1542824326.534,14.160,37.598,41.016,15.137,15.137,0
1542824326.538,40.527,40.527,44.434,41.016,37.109,0
1542824326.542,60.547,38.574,46.387,60.059,65.918,0
1542824326.546,62.012,41.016,48.828,56.152,43.457,0
1542824326.550,66.895,40.039,47.852,60.059,22.461,0
1542824326.554,65.918,35.645,48.828,69.336,46.387,0
1542824326.558,64.941,38.086,49.316,68.848,19.531,0
1542824326.562,83.008,45.410,50.293,82.031,-31.250,0
1542824326.566,94.727,49.316,54.688,84.473,-37.598,0
1542824326.570,99.121,48.828,56.641,80.566,-20.020,0
1542824326.574,104.980,51.758,57.129,98.145,43.945,0
1542824326.577,108.398,53.711,57.617,95.703,42.480,0
1542824326.581,104.492,50.293,56.641,92.285,-10.742,0
1542824326.585,101.562,45.410,54.688,105.469,-9.277,0
1542824326.589,98.633,40.039,46.387,103.027,30.273,0
1542824326.593,91.797,37.109,43.945,85.449,-2.441,0
1542824326.597,98.633,37.109,47.363,84.961,-3.418,0
1542824326.601,96.191,37.598,44.434,93.750,23.926,0
1542824326.605,86.914,30.273,52.734,87.891,6.836,0
1542824326.609,92.773,30.762,53.223,83.008,36.133,0
1542824326.613,85.938,45.898,35.645,78.125,38.574,0
1542824326.617,66.406,40.039,28.809,73.242,41.504,0
1542824326.620,58.594,38.574,35.156,67.383,32.227,0
1542824326.624,56.152,46.875,46.875,53.711,54.688,0
1542824326.628,60.059,44.434,49.316,61.035,79.102,0
1542824326.632,66.406,42.480,40.039,64.453,70.801,0
1542824326.636,64.453,49.805,41.504,60.059,63.965,0
1542824326.640,58.594,49.805,46.387,62.012,52.734,0
1542824326.644,56.641,45.898,37.109,49.805,102.051,0
1542824326.648,56.641,44.922,35.156,46.387,75.684,0
1542824326.652,61.523,34.180,47.852,59.082,46.875,0
1542824326.656,62.500,29.297,48.828,53.711,45.898,0
1542824326.659,56.641,36.133,37.598,53.223,-5.859,0
1542824326.663,57.129,37.109,37.109,59.082,-33.203,0
1542824326.667,54.199,44.434,36.621,49.805,42.969,0
1542824326.671,57.129,51.270,33.691,48.340,58.594,0
1542824326.675,55.176,50.293,35.156,47.363,-12.207,0
1542824326.679,47.363,46.875,37.598,40.527,12.695,0
1542824326.683,53.223,39.062,51.270,36.621,70.801,0
1542824326.687,46.387,41.016,43.457,38.574,38.574,0
1542824326.691,38.574,40.527,28.320,51.270,60.059,0
1542824326.695,42.969,42.969,37.109,46.387,93.262,0
1542824326.699,41.016,47.363,41.992,32.227,34.668,0
1542824326.702,34.180,43.457,39.062,30.762,-21.973,0
1542824326.706,32.715,43.457,37.598,30.762,4.395,0
1542824326.710,29.785,41.992,40.527,17.090,-26.855,0
1542824326.714,35.156,43.457,29.785,11.230,-32.715,0
1542824326.718,44.434,48.828,26.855,26.855,43.457,0
1542824326.722,49.316,52.734,38.574,31.250,33.203,0
1542824326.726,53.223,42.969,39.062,30.762,27.344,0
1542824326.730,45.410,42.480,36.133,33.691,43.457,0
1542824326.734,41.504,51.758,38.086,29.297,33.203,0
1542824326.738,43.457,45.410,36.133,25.879,53.223,0
1542824326.742,43.945,39.551,31.738,36.621,36.621,0
1542824326.745,41.992,44.922,28.809,40.039,42.480,0
1542824326.749,43.457,48.340,32.227,30.273,28.809,0
1542824326.753,43.945,44.434,35.645,27.832,44.434,0
1542824326.757,40.039,43.945,34.668,33.203,61.523,0
1542824326.761,36.621,44.434,34.668,31.250,-7.812,0
1542824326.765,40.527,42.969,37.598,33.691,31.250,0
1542824326.769,36.133,42.480,39.551,32.227,10.254,0
1542824326.773,34.668,35.645,41.992,23.926,-54.199,0
1542824326.777,35.156,33.203,34.668,22.949,-25.879,0
1542824326.781,36.133,35.156,26.367,26.855,22.949,0
1542824326.784,38.086,40.039,33.691,28.320,-12.695,0
1542824326.788,36.133,39.551,41.992,22.461,-14.160,0
1542824326.792,39.551,43.945,36.621,20.508,37.109,0
1542824326.796,42.480,49.316,25.879,26.367,41.504,0
1542824326.800,44.922,46.875,24.414,29.785,45.410,0
1542824326.804,35.645,45.898,19.531,24.902,56.641,0
1542824326.808,29.785,33.691,21.973,22.461,56.641,0
1542824326.812,31.250,32.227,22.461,22.949,37.598,0
1542824326.816,20.996,40.039,26.855,18.066,66.895,0
1542824326.820,25.879,37.109,40.039,21.484,88.379,0
1542824326.824,31.250,29.785,41.504,26.367,23.438,0
1542824326.827,24.902,31.250,37.598,22.461,12.695,0
1542824326.831,22.949,37.109,29.297,18.555,-5.371,0
1542824326.835,22.949,38.086,25.391,24.902,-18.066,0
1542824326.839,24.414,38.086,21.484,32.227,24.414,0
1542824326.843,24.902,40.039,28.320,27.832,13.672,0
1542824326.847,19.043,41.016,29.785,23.926,33.203,0
1542824326.851,19.043,41.504,22.949,20.508,24.902,0
1542824326.855,30.762,41.016,29.785,28.809,25.879,0
1542824326.859,33.203,42.480,20.996,29.785,76.172,0
1542824326.863,28.809,43.945,10.742,17.578,21.973,0
1542824326.867,34.180,40.039,21.973,21.973,17.090,0
1542824326.870,32.715,37.598,42.480,30.762,42.969,0
1542824326.874,33.691,49.805,38.574,31.738,1.465,0
1542824326.878,29.297,46.387,19.531,35.156,70.801,0
1542824326.882,14.648,38.086,29.297,30.762,15.137,0
1542824326.886,26.367,40.527,42.480,24.414,-49.805,0
1542824326.890,45.410,35.645,40.039,45.410,44.922,0
1542824326.894,18.555,42.969,18.066,20.996,66.406,0
1542824326.898,-29.297,44.922,6.348,-33.203,3.906,0
1542824326.902,-30.762,39.551,13.672,-39.062,33.691,0
1542824326.906,-32.227,46.875,11.230,-45.898,64.941,0
1542824326.909,-59.570,57.617,2.930,-80.566,22.461,0
1542824326.913,-71.777,68.848,-12.207,-99.121,-2.441,0
1542824326.917,-101.074,45.898,-28.809,-107.422,6.348,0
1542824326.921,-127.930,22.949,-10.742,-133.789,45.410,0
1542824326.925,-147.461,42.480,2.441,-159.668,73.242,0
1542824326.929,-186.523,60.059,-14.648,-183.594,113.281,0
1542824326.933,-165.039,63.965,-8.789,-163.574,59.570,0
1542824326.937,-142.090,59.082,4.395,-142.578,-7.324,0
1542824326.941,-151.855,49.316,4.883,-145.020,-8.301,0
1542824326.945,-128.906,48.828,7.812,-125.000,47.363,0
1542824326.949,-111.816,45.410,6.348,-117.188,65.918,0
1542824326.952,-101.074,50.781,-11.230,-106.934,27.832,0
1542824326.956,-90.820,49.316,-5.859,-89.844,54.199,0
1542824326.960,-77.637,41.992,11.230,-76.660,56.641,0
1542824326.964,-66.406,42.969,8.789,-66.406,27.344,0
1542824326.968,-55.176,38.574,21.973,-60.059,23.438,0
1542824326.972,-48.340,39.062,27.832,-51.270,30.273,0
1542824326.976,-45.410,40.039,23.438,-44.922,33.203,0
1542824326.980,-41.992,35.156,29.297,-36.133,9.277,0
1542824326.984,-34.668,41.992,28.320,-22.461,-37.109,0
1542824326.988,-24.902,53.223,18.066,-16.113,11.230,0
1542824326.992,-13.184,49.316,21.973,-21.973,42.480,0
1542824326.995,-8.301,42.969,25.391,-28.320,9.277,0
1542824326.999,-10.742,38.086,28.320,-21.484,-35.156,0
1542824327.003,-8.301,38.574,29.785,-4.883,-18.555,0
1542824327.007,-0.977,46.387,25.879,13.672,-17.578,0
1542824327.011,0.977,49.316,32.715,4.395,-37.109,0
1542824327.015,2.930,42.969,36.621,-8.301,-10.254,0
1542824327.019,3.906,38.086,35.645,2.930,-4.883,0
1542824327.023,6.836,41.016,40.527,15.625,5.371,0
1542824327.027,19.043,44.434,40.527,18.066,46.387,0
1542824327.031,15.625,44.922,37.109,7.324,75.195,0
1542824327.034,18.066,44.434,36.133,6.348,5.859,0
1542824327.038,26.855,40.039,33.203,11.230,-6.836,0
1542824327.042,15.625,35.645,35.645,5.859,31.738,0
1542824327.046,14.160,43.457,34.668,15.137,14.160,0
1542824327.050,15.137,50.293,33.203,21.484,38.574,0
1542824327.054,11.719,51.270,37.598,11.719,-8.301,0
1542824327.058,18.555,55.664,39.551,20.020,-42.480,0
1542824327.062,22.461,49.805,25.879,23.438,-26.855,0
1542824327.066,24.414,41.016,18.555,9.766,2.930,0
1542824327.070,30.273,35.645,33.203,15.137,40.039,0
1542824327.074,36.133,31.250,37.598,10.742,42.480,0
1542824327.077,36.133,35.645,35.156,16.113,15.137,0
1542824327.081,32.227,47.852,33.691,24.414,-17.090,0
1542824327.085,23.438,50.293,32.227,6.836,36.621,0
1542824327.089,19.531,47.363,34.180,15.137,41.504,0
1542824327.093,21.973,38.086,29.297,23.926,-12.695,0
1542824327.097,16.602,32.715,29.297,7.812,-13.184,0
1542824327.101,15.625,40.039,33.203,4.883,-0.977,0
1542824327.105,17.090,46.875,30.273,4.395,20.020,0
1542824327.109,19.531,46.387,28.809,2.930,9.766,0
1542824327.113,17.090,40.527,31.250,7.324,23.438,0
1542824327.117,9.277,34.668,33.203,15.625,42.480,0
1542824327.120,16.113,41.016,27.832,13.672,0.488,0
1542824327.124,36.133,43.945,27.832,7.812,-3.906,0
1542824327.128,33.691,35.645,34.668,25.879,-18.555,0
1542824327.132,10.742,36.133,33.203,27.344,-21.973,0
1542824327.136,9.766,43.457,33.203,12.207,39.551,0
1542824327.140,16.113,40.527,38.086,8.789,70.312,0
1542824327.144,20.996,38.574,35.156,2.930,74.219,0
1542824327.148,23.926,35.645,33.691,-1.953,70.801,0
1542824327.152,26.855,38.574,33.691,17.090,42.480,0
1542824327.156,34.668,45.410,26.367,23.438,30.762,0
1542824327.159,39.062,41.504,23.926,15.625,12.207,0
1542824327.163,44.922,37.598,35.645,19.531,7.324,0
1542824327.167,64.941,45.898,41.992,27.344,51.758,0
1542824327.171,65.918,50.293,39.551,31.738,32.227,0
1542824327.175,51.758,40.039,32.715,30.273,-7.324,0
1542824327.179,37.109,41.992,23.926,19.043,50.781,0
1542824327.183,29.785,50.781,27.344,22.949,95.215,0
1542824327.187,32.715,50.781,33.203,24.414,9.766,0
1542824327.191,33.691,44.434,28.809,9.277,-8.301,0
1542824327.195,32.715,44.922,23.438,7.324,2.930,0
1542824327.199,25.391,51.270,26.855,18.555,44.922,0
1542824327.202,28.320,41.992,36.133,21.484,75.195,0
1542824327.206,34.180,36.133,34.668,8.789,-2.930,0
1542824327.210,41.992,41.992,23.438,6.348,16.602,0
1542824327.214,44.434,46.387,23.438,19.043,77.148,0
1542824327.218,41.504,49.805,37.109,21.973,25.879,0
1542824327.222,46.387,47.363,38.574,13.672,15.625,0
1542824327.226,52.734,41.016,25.879,17.090,43.945,0
1542824327.230,39.062,40.039,19.531,17.090,27.344,0
1542824327.234,32.715,38.086,26.855,8.301,23.438,0
1542824327.238,43.945,27.344,41.016,12.695,15.137,0
1542824327.242,44.922,17.578,39.062,16.602,19.531,0
1542824327.245,35.156,28.809,34.180,15.625,47.363,0
1542824327.249,32.715,45.898,37.598,14.648,66.406,0
1542824327.253,39.062,50.781,38.086,19.531,76.172,0
1542824327.257,45.898,37.598,35.645,31.738,83.984,0
1542824327.261,50.293,26.855,36.621,25.879,54.688,0
1542824327.265,46.875,39.551,35.645,18.066,39.062,0
1542824327.269,53.711,46.387,30.273,14.648,19.043,0
1542824327.273,59.570,43.457,30.273,17.090,-50.293,0
1542824327.277,49.805,37.109,30.273,17.578,-1.465,0
1542824327.281,47.852,33.691,27.344,7.812,67.871,0
1542824327.284,53.223,40.039,28.320,8.789,8.301,0
1542824327.288,50.293,39.062,37.598,15.137,9.766,0
1542824327.292,45.410,36.621,33.691,26.855,39.551,0
1542824327.296,52.734,45.898,27.832,29.785,59.082,0
1542824327.300,52.246,45.410,27.344,19.531,32.227,0
1542824327.304,45.410,37.109,25.391,19.531,-26.855,0
1542824327.308,43.457,29.297,29.785,12.207,-22.949,0
1542824327.312,41.504,28.809,28.809,16.602,20.020,0
1542824327.316,41.504,28.320,34.668,24.902,31.250,0
1542824327.320,38.086,31.250,40.039,20.996,23.438,0
1542824327.324,32.715,37.109,37.109,13.184,10.254,0
1542824327.327,41.016,37.598,35.645,9.277,16.602,0
1542824327.331,55.176,39.062,30.273,11.230,46.875,0
1542824327.335,58.105,41.016,33.203,10.254,40.527,0
1542824327.339,60.547,36.133,32.715,11.230,13.672,0
1542824327.343,46.875,37.598,19.043,8.301,19.043,0
1542824327.347,34.668,41.992,22.949,16.113,34.180,0
1542824327.351,36.133,35.156,21.484,25.879,9.766,0
1542824327.355,35.645,40.039,21.973,27.344,7.324,0
1542824327.359,35.645,36.133,35.156,20.996,48.340,0
1542824327.363,41.016,28.320,35.645,14.648,37.109,0
1542824327.367,47.852,37.109,34.668,27.832,23.438,0
1542824327.370,47.363,41.992,35.645,28.320,-9.277,0
1542824327.374,44.922,36.133,33.203,16.113,15.137,0
1542824327.378,41.016,38.574,36.133,9.277,58.105,0
1542824327.382,38.086,44.434,34.180,10.254,67.871,0
1542824327.386,30.273,41.016,31.250,14.160,47.852,0
1542824327.390,23.926,36.621,36.133,26.367,25.879,0
1542824327.394,54.199,37.598,36.621,45.898,46.875,0
1542824327.398,65.430,40.527,38.574,44.434,37.598,0
1542824327.402,40.527,39.062,41.992,22.949,-26.367,0
1542824327.406,28.809,36.133,42.480,0.977,24.414,0
1542824327.409,38.086,48.340,37.598,21.484,72.754,0
1542824327.413,52.246,50.293,40.527,39.062,31.250,0
1542824327.417,57.617,35.645,47.852,40.527,-15.137,0
1542824327.421,70.312,41.992,43.945,55.664,6.348,0
1542824327.425,63.965,41.504,49.316,46.387,47.852,0
1542824327.429,48.340,36.133,48.340,35.645,26.367,0
1542824327.433,59.082,43.945,43.945,41.016,65.918,0
1542824327.437,70.312,40.527,45.898,47.363,60.059,0
1542824327.441,76.660,40.039,45.410,54.199,28.809,0
1542824327.445,86.426,49.805,41.504,57.617,6.348,0
1542824327.449,90.332,48.828,48.828,65.430,19.531,0
1542824327.452,83.008,40.039,48.828,64.941,29.785,0
1542824327.456,90.332,35.645,33.691,66.895,9.766,0
1542824327.460,92.773,35.156,27.832,72.266,19.043,0
1542824327.464,74.707,25.391,29.297,64.941,17.578,0
1542824327.468,59.570,30.762,35.645,52.246,41.504,0
1542824327.472,61.035,45.410,41.016,51.270,17.090,0
1542824327.476,60.059,29.785,38.086,46.875,17.578,0
1542824327.480,62.012,23.926,36.621,43.945,34.668,0
1542824327.484,70.312,35.645,41.016,44.922,20.996,0
1542824327.488,64.941,43.457,45.410,44.922,32.715,0
1542824327.492,69.824,52.246,42.969,56.641,-12.695,0
1542824327.495,67.871,50.781,34.180,43.457,-31.250,0
1542824327.499,61.523,41.992,34.668,29.297,53.711,0
1542824327.503,62.988,39.062,38.574,41.504,38.574,0
1542824327.507,68.359,36.621,27.344,40.039,10.742,0
1542824327.511,75.684,29.785,21.484,41.504,53.711,0
1542824327.515,67.383,34.180,29.297,41.504,30.273,0
1542824327.519,62.012,41.992,32.715,29.297,30.762,0
1542824327.523,77.637,40.527,37.598,39.062,25.879,0
1542824327.527,77.637,31.250,42.480,38.574,15.137,0
1542824327.531,61.523,39.551,33.691,24.902,25.391,0
1542824327.534,61.523,52.734,31.250,25.391,12.207,0
1542824327.538,61.523,52.246,40.039,21.973,26.367,0
1542824327.542,60.059,49.316,34.668,32.715,37.109,0
1542824327.546,62.988,39.551,28.320,34.180,-21.484,0
1542824327.550,65.430,38.086,37.109,27.832,-45.410,0
1542824327.554,64.453,46.387,41.992,35.645,-35.645,0
1542824327.558,53.711,37.109,38.086,30.762,25.879,0
1542824327.562,54.688,35.156,37.598,25.391,44.434,0
1542824327.566,51.270,42.969,41.016,21.484,39.551,0
1542824327.570,49.316,46.875,36.621,24.414,48.340,0
1542824327.574,61.523,41.992,34.668,35.645,20.996,0
1542824327.577,63.965,39.551,33.691,33.203,3.418,0
1542824327.581,70.801,34.668,29.785,48.828,30.273,0
1542824327.585,54.199,31.250,39.062,33.691,12.207,0
1542824327.589,12.207,31.250,44.434,6.348,8.789,0
1542824327.593,23.926,35.156,44.922,21.484,56.152,0
1542824327.597,51.270,41.016,46.387,42.480,55.664,0
1542824327.601,41.504,39.551,47.852,40.039,55.176,0
1542824327.605,42.969,37.598,48.340,40.039,33.691,0
1542824327.609,55.664,43.457,53.711,42.969,9.766,0
1542824327.613,72.266,48.340,62.988,42.480,38.574,0
1542824327.617,76.660,41.992,65.430,52.734,45.410,0
1542824327.620,66.406,26.855,57.129,54.688,41.504,0
1542824327.624,73.730,17.578,53.223,63.477,98.633,0
1542824327.628,83.984,29.785,50.781,80.078,63.965,0
1542824327.632,77.637,38.086,52.734,95.703,20.508,0
1542824327.636,83.984,22.461,62.988,102.051,19.043,0
1542824327.640,84.473,19.531,69.336,99.609,-10.254,0
1542824327.644,76.660,24.414,61.523,94.238,20.020,0
1542824327.648,85.938,17.578,61.035,93.262,59.082,0
1542824327.652,94.238,29.297,65.918,105.469,52.246,0
1542824327.656,91.797,37.109,63.477,74.707,3.906,0
1542824327.659,85.938,34.668,61.035,65.430,9.766,0
1542824327.663,100.098,33.691,71.289,95.215,41.016,0
1542824327.667,104.980,37.598,65.918,85.938,25.879,0
1542824327.671,104.492,35.156,60.547,104.980,11.719,0
1542824327.675,108.887,22.949,76.172,119.141,35.645,0
1542824327.679,83.984,18.555,73.242,78.613,46.387,0
1542824327.683,71.777,22.949,63.965,68.359,8.301,0
1542824327.687,96.191,23.438,62.988,83.008,44.434,0
1542824327.691,97.656,18.555,59.082,69.824,48.340,0
1542824327.695,94.238,8.301,61.523,82.031,-7.812,0
1542824327.699,104.980,4.395,68.848,86.426,24.414,0
1542824327.702,109.375,22.461,72.266,82.520,13.672,0
1542824327.706,108.887,31.738,73.730,106.934,21.973,0
1542824327.710,105.469,14.648,65.918,101.562,53.711,0
1542824327.714,102.051,3.906,59.570,84.473,58.105,0
1542824327.718,94.727,16.113,53.223,88.867,66.406,0
1542824327.722,89.844,36.133,35.156,83.984,46.387,0
1542824327.726,97.168,32.715,37.109,78.125,34.180,0
1542824327.730,90.332,29.785,49.805,65.918,55.176,0
1542824327.734,75.684,30.762,47.852,64.941,21.484,0
1542824327.738,73.242,32.227,39.062,74.219,-60.059,0
1542824327.742,78.613,36.621,44.434,65.918,-20.020,0
1542824327.745,74.219,38.086,48.828,54.199,50.781,0
1542824327.749,70.801,31.738,35.645,55.176,38.574,0
1542824327.753,79.102,25.879,30.273,68.848,23.438,0
1542824327.757,79.590,31.250,33.691,62.988,66.895,0
1542824327.761,68.359,27.832,33.203,50.781,57.129,0
1542824327.765,62.988,21.973,32.715,46.875,7.324,0
1542824327.769,72.266,30.273,37.109,37.598,-2.441,0
1542824327.773,78.125,36.133,36.133,41.016,-0.488,0
1542824327.777,63.965,35.156,27.832,54.688,53.711,0
1542824327.781,66.895,29.297,20.508,53.223,46.387,0
1542824327.784,88.867,22.461,22.949,56.641,-6.836,0
1542824327.788,82.520,26.855,28.320,56.641,39.062,0
1542824327.792,85.449,34.668,22.949,38.086,52.246,0
1542824327.796,108.398,41.504,22.461,61.035,23.926,0
1542824327.800,115.723,41.992,25.391,66.895,-14.648,0
1542824327.804,119.629,36.133,17.090,43.945,-39.551,0
1542824327.808,111.816,28.809,16.602,50.293,28.320,0
1542824327.812,90.820,22.949,21.484,47.363,-2.441,0
1542824327.816,90.820,26.367,14.648,36.133,4.883,0
1542824327.820,97.168,30.762,8.301,31.250,41.504,0
1542824327.824,100.098,30.762,8.789,20.996,20.996,0
1542824327.827,116.211,34.668,11.719,34.180,47.852,0
1542824327.831,120.117,37.109,9.766,43.457,68.848,0
1542824327.835,112.305,39.551,4.395,32.227,56.152,0
1542824327.839,117.676,43.457,10.742,31.250,36.133,0
1542824327.843,124.512,38.086,12.695,38.086,31.250,0
1542824327.847,138.672,30.762,0.977,50.781,12.207,0
1542824327.851,144.531,32.227,0.000,55.176,30.762,0
1542824327.855,153.320,36.621,3.418,45.410,58.105,0
1542824327.859,156.738,31.250,6.836,49.805,-14.648,0
1542824327.863,150.391,24.414,13.184,40.039,-30.762,0
1542824327.867,149.902,25.879,14.160,15.625,23.438,0
1542824327.870,156.738,25.879,16.113,15.137,17.090,0
1542824327.874,161.133,23.438,15.137,26.855,32.715,0
1542824327.878,145.996,38.574,12.207,38.086,19.531,0
1542824327.882,129.883,40.527,17.578,20.508,9.277,0
1542824327.886,128.418,25.391,15.625,8.301,-0.977,0
1542824327.890,123.535,20.020,4.883,24.414,14.160,0
1542824327.894,118.164,23.926,0.977,23.926,29.297,0
1542824327.898,115.723,27.344,7.812,14.160,-10.254,0
1542824327.902,98.633,18.555,18.555,25.879,24.902,0
1542824327.906,83.496,12.207,15.625,37.598,90.332,0
1542824327.909,80.078,23.438,13.672,32.715,57.129,0
1542824327.913,82.520,24.902,17.578,20.508,44.434,0
1542824327.917,88.867,22.949,17.090,-0.488,18.066,0
1542824327.921,84.961,31.250,11.719,2.930,-0.488,0
1542824327.925,78.125,25.391,12.207,17.090,35.156,0
1542824327.929,82.031,18.555,18.555,20.508,16.113,0
1542824327.933,80.078,23.438,22.949,23.926,14.648,0
1542824327.937,77.637,27.832,27.832,24.414,69.824,0
1542824327.941,76.660,32.715,28.320,19.043,91.797,0
1542824327.945,72.266,32.715,25.879,31.250,49.316,0
1542824327.949,74.707,31.738,27.832,36.133,39.551,0
1542824327.952,76.660,23.438,35.156,43.457,58.105,0
1542824327.956,59.570,22.949,35.645,23.926,24.414,0
1542824327.960,50.293,35.156,30.273,15.137,1.465,0
1542824327.964,47.363,36.133,35.156,22.949,39.551,0
1542824327.968,23.438,28.809,42.480,4.883,71.777,0
1542824327.972,6.836,15.137,29.297,1.465,53.711,0
1542824327.976,-4.883,14.648,32.715,-3.418,18.555,0
1542824327.980,-8.301,21.973,68.848,-8.789,-3.906,0
1542824327.984,-3.418,20.996,69.824,-12.695,-0.488,0
1542824327.988,-15.625,13.184,65.430,-11.230,-0.488,0
1542824327.992,-32.715,5.371,80.078,-7.812,-11.230,0
1542824327.995,-52.734,-2.441,83.008,-27.832,40.527,0
1542824327.999,-61.035,1.465,86.426,-37.598,122.070,0
1542824328.003,-50.293,8.789,95.215,-29.785,64.453,0
1542824328.007,-45.898,9.277,95.215,-31.738,62.500,0
1542824328.011,-37.598,1.953,94.238,9.766,48.828,0
1542824328.015,-24.414,3.906,99.121,30.273,-25.879,0
1542824328.019,-26.367,7.812,104.492,-2.930,-34.180,0
1542824328.023,-37.109,12.207,95.703,5.859,-40.527,0
1542824328.027,-26.855,11.719,84.473,24.414,19.043,0
1542824328.031,-15.625,3.906,79.590,14.160,-19.531,0
1542824328.034,-19.531,6.348,82.520,14.160,-33.691,0
1542824328.038,-22.461,13.184,88.379,21.484,21.973,0
1542824328.042,-21.484,15.625,82.031,5.859,57.617,0
1542824328.046,-22.949,14.160,76.172,0.977,34.668,0
1542824328.050,-19.531,13.672,74.707,5.371,10.254,0
1542824328.054,-10.742,17.090,70.312,0.977,35.645,0
1542824328.058,-19.531,20.508,70.312,2.930,23.438,0
1542824328.062,-23.438,24.902,65.430,-2.441,19.043,0
1542824328.066,-18.066,23.926,55.664,-5.859,43.457,0
1542824328.070,-5.859,15.625,51.758,6.348,26.367,0
1542824328.074,-5.371,20.020,44.434,0.488,0.000,0
1542824328.077,-14.160,22.949,52.246,-4.395,15.625,0
1542824328.081,-12.207,18.555,57.129,6.836,22.949,0
1542824328.085,-4.395,21.973,48.340,8.301,32.715,0
1542824328.089,7.324,25.391,45.410,-2.441,42.480,0
1542824328.093,7.324,24.902,47.852,-9.277,21.973,0
1542824328.097,16.602,28.809,49.805,11.719,1.953,0
1542824328.101,20.020,32.227,53.223,25.391,6.836,0
1542824328.105,3.418,30.273,51.270,21.973,22.461,0
1542824328.109,11.719,26.855,49.805,38.574,-0.977,0
1542824328.113,28.809,31.738,51.758,32.227,-3.418,0
1542824328.117,28.320,35.645,40.039,17.090,12.207,0
1542824328.120,23.926,43.457,32.227,19.043,26.367,0
1542824328.124,19.043,41.016,33.203,15.137,24.414,0
1542824328.128,14.648,32.715,37.109,9.766,-29.297,0
1542824328.132,5.371,27.832,31.250,7.812,-3.418,0
1542824328.136,-9.277,26.367,27.832,8.789,42.480,0
1542824328.140,-6.348,30.273,41.016,13.184,33.691,0
1542824328.144,-1.465,28.809,42.969,9.766,62.500,0
1542824328.148,3.418,27.832,41.016,5.859,44.434,0
1542824328.152,1.953,27.832,39.551,11.230,16.113,0
1542824328.156,-2.930,31.250,37.109,17.578,20.996,0
1542824328.159,3.906,30.762,36.133,18.555,59.570,0
1542824328.163,4.395,26.367,36.621,7.812,45.410,0
1542824328.167,9.277,32.227,41.504,11.719,11.230,0
1542824328.171,26.855,37.109,41.504,30.762,32.715,0
1542824328.175,40.039,36.621,40.039,32.715,14.160,0
1542824328.179,58.105,42.969,48.340,38.574,0.000,0
1542824328.183,58.105,44.434,52.246,25.879,36.133,0
1542824328.187,43.945,37.598,47.852,2.930,29.297,0
1542824328.191,26.855,40.039,42.480,2.441,17.578,0
1542824328.195,35.156,41.504,33.203,17.090,3.418,0
1542824328.199,46.875,41.504,25.391,20.996,27.344,0
1542824328.202,24.414,53.711,31.738,0.977,50.781,0
1542824328.206,-13.672,61.035,22.461,-48.340,29.297,0
1542824328.210,-48.828,63.477,0.977,-114.746,34.180,0
1542824328.214,-74.219,62.500,-2.930,-134.766,51.758,0
1542824328.218,-110.840,60.059,-10.254,-144.531,39.551,0
1542824328.222,-134.277,68.848,-15.137,-175.781,26.367,0
1542824328.226,-142.578,76.172,-10.254,-200.195,49.805,0
1542824328.230,-163.574,74.707,-30.273,-212.402,56.152,0
1542824328.234,-178.711,77.148,-52.246,-221.191,27.344,0
1542824328.238,-176.270,79.102,-37.598,-221.680,58.105,0
1542824328.242,-166.504,74.219,-31.738,-210.449,54.199,0
1542824328.245,-156.738,82.520,-50.293,-199.219,15.137,0
1542824328.249,-146.484,92.285,-55.664,-183.594,54.199,0
1542824328.253,-126.953,94.238,-48.828,-168.945,76.172,0
1542824328.257,-124.512,90.332,-49.316,-165.527,89.844,0
1542824328.261,-141.113,71.777,-54.688,-154.785,42.480,0
1542824328.265,-112.793,71.289,-66.895,-134.766,-7.812,0
1542824328.269,-88.867,82.031,-63.965,-145.996,3.906,0
1542824328.273,-83.496,71.289,-49.805,-126.465,33.691,0
1542824328.277,-71.777,62.500,-53.711,-105.469,50.781,0
1542824328.281,-69.336,57.129,-54.688,-97.168,69.336,0
1542824328.284,-69.824,60.547,-51.270,-77.637,96.680,0
1542824328.288,-73.242,60.547,-47.852,-70.801,69.336,0
1542824328.292,-59.082,36.621,-35.156,-43.457,-1.465,0
1542824328.296,-60.547,31.250,-27.832,-26.855,0.000,0
1542824328.300,-76.660,47.363,-27.344,-29.785,5.371,0
1542824328.304,-61.523,38.086,-17.090,-20.996,-39.551,0
1542824328.308,-34.668,34.180,-15.625,-3.418,-17.578,0
1542824328.312,-42.480,34.668,-5.859,-0.977,-35.645,0
1542824328.316,-33.691,24.414,9.277,2.930,-12.207,0
1542824328.320,0.977,26.367,4.395,8.789,-8.789,0
1542824328.324,8.301,18.066,1.465,1.465,0.488,0
1542824328.327,-27.344,18.066,1.465,17.090,65.430,0
1542824328.331,-57.617,23.438,13.672,30.273,63.965,0
1542824328.335,-64.941,21.484,27.832,25.391,35.645,0
1542824328.339,-69.336,23.438,25.391,50.781,52.246,0
1542824328.343,-55.176,21.973,30.762,68.848,31.738,0
1542824328.347,-47.852,19.043,35.156,78.125,17.578,0
1542824328.351,-37.598,21.484,28.320,65.918,16.602,0
1542824328.355,-34.668,19.531,34.180,66.895,33.691,0
1542824328.359,-53.711,20.020,38.086,87.891,58.594,0
1542824328.363,-52.734,18.066,37.109,82.520,4.395,0
1542824328.367,-36.133,10.254,39.551,71.289,63.965,0
1542824328.370,-35.156,16.602,26.367,76.172,48.828,0
1542824328.374,-57.129,23.438,18.066,96.680,3.906,0
1542824328.378,-64.941,21.484,21.973,79.102,32.227,0
1542824328.382,-61.523,23.438,20.996,83.984,25.391,0
1542824328.386,-58.594,35.645,5.859,83.984,77.148,0
1542824328.390,-46.875,31.738,-2.930,51.270,78.125,0
1542824328.394,-46.875,29.785,-51.758,41.504,15.137,0
1542824328.398,-49.805,29.785,-130.859,54.688,37.109,0
1542824328.402,-55.664,20.996,-159.668,52.734,30.762,0
1542824328.406,-53.223,26.367,-169.922,39.062,8.789,0
1542824328.409,-46.387,36.133,-180.664,35.645,49.805,0
1542824328.413,-43.945,48.828,-199.707,22.949,12.207,0
1542824328.417,-45.898,52.734,-215.820,31.738,25.391,0
1542824328.421,-49.805,46.875,-217.773,33.691,50.293,0
1542824328.425,-43.945,43.945,-217.285,23.438,0.977,0
1542824328.429,-40.527,46.387,-210.449,38.086,-0.488,0
1542824328.433,-28.320,36.133,-199.707,41.504,34.668,0
1542824328.437,-17.090,25.391,-193.359,56.152,-2.930,0
1542824328.441,-9.277,39.062,-190.918,74.707,7.812,0
1542824328.445,6.348,53.711,-187.500,53.711,75.195,0
1542824328.449,-14.160,37.598,-175.293,32.715,19.531,0
1542824328.452,-20.020,31.250,-164.062,30.273,0.977,0
1542824328.456,3.906,58.594,-153.809,53.223,2.930,0
1542824328.460,-5.371,62.500,-146.484,68.359,6.348,0
1542824328.464,0.488,49.316,-148.438,52.246,57.617,0
1542824328.468,20.508,52.246,-153.809,20.508,18.555,0
1542824328.472,15.137,42.969,-152.344,4.883,-36.621,0
1542824328.476,6.348,41.016,-136.230,22.949,-10.254,0
1542824328.480,-12.695,55.176,-116.211,30.762,64.941,0
1542824328.484,3.418,50.293,-104.980,39.551,50.781,0
1542824328.488,20.996,35.645,-98.633,26.367,19.531,0
1542824328.492,16.113,46.875,-102.051,2.441,36.621,0
1542824328.495,22.949,59.082,-99.609,13.184,14.648,0
1542824328.499,30.762,36.621,-84.473,7.324,-22.461,0
1542824328.503,40.527,44.434,-70.801,12.695,-21.973,0
1542824328.507,42.480,65.430,-59.570,28.320,0.977,0
1542824328.511,26.855,78.125,-55.664,27.344,1.953,0
1542824328.515,38.086,73.242,-51.270,37.598,7.812,0
1542824328.519,48.828,71.777,-54.199,34.668,29.297,0
1542824328.523,56.641,66.895,-54.688,32.715,26.855,0
1542824328.527,77.148,36.621,-35.645,48.828,37.109,0
1542824328.531,87.402,44.922,-28.320,43.457,31.738,0
1542824328.534,92.773,73.730,-23.926,45.410,-0.488,0
1542824328.538,103.516,68.848,-11.230,62.988,45.410,0
1542824328.542,124.023,31.738,-12.695,84.473,78.125,0
1542824328.546,127.441,41.992,-23.926,69.336,28.320,0
1542824328.550,116.699,103.027,-22.949,35.156,27.832,0
1542824328.554,115.234,107.422,-18.066,27.344,61.035,0
1542824328.558,101.562,94.727,-13.672,22.949,42.969,0
1542824328.562,97.656,71.777,1.953,25.391,5.859,0
1542824328.566,106.445,82.031,6.836,37.109,39.062,0
1542824328.570,117.676,92.773,4.395,27.832,46.875,0
1542824328.574,157.715,78.613,3.906,38.574,56.641,0
1542824328.577,206.055,90.820,8.301,83.984,40.039,0
1542824328.581,204.590,88.379,1.465,63.965,5.371,0
1542824328.585,187.012,77.148,-10.742,12.207,32.715,0
1542824328.589,233.887,87.891,-26.367,5.859,45.898,0
1542824328.593,257.812,87.402,-39.551,-7.324,11.719,0
1542824328.597,274.902,68.359,-64.453,-39.551,17.090,0
1542824328.601,283.203,38.086,-99.609,-70.312,52.246,0
1542824328.605,291.504,16.602,-124.512,-95.215,36.621,0
1542824328.609,328.125,10.742,-159.668,-112.793,-7.324,0
1542824328.613,352.539,-8.301,-173.340,-127.441,31.250,0
1542824328.617,383.301,21.484,-166.504,-124.512,29.297,0
1542824328.620,395.020,41.504,-173.340,-146.484,46.387,0
1542824328.624,402.832,23.926,-175.781,-154.785,76.172,0
1542824328.628,407.227,29.785,-169.434,-141.602,25.391,0
1542824328.632,404.785,45.898,-165.527,-155.273,21.484,0
1542824328.636,421.875,46.875,-158.691,-162.109,49.316,0
1542824328.640,440.430,57.129,-154.785,-151.855,44.434,0
1542824328.644,409.180,14.160,-154.785,-165.039,41.504,0
1542824328.648,391.113,-2.930,-147.461,-150.391,68.359,0
1542824328.652,411.133,60.547,-133.789,-109.863,49.316,0
1542824328.656,398.438,79.590,-124.512,-104.492,21.484,0
1542824328.659,386.230,81.055,-113.281,-102.539,34.668,0
1542824328.663,375.488,98.633,-99.609,-88.867,21.973,0
1542824328.667,372.070,91.797,-89.844,-66.406,35.156,0
1542824328.671,383.789,64.941,-80.566,-36.133,17.090,0
1542824328.675,382.812,84.473,-62.988,-14.648,40.527,0
1542824328.679,386.719,104.980,-62.012,-25.391,50.293,0
1542824328.683,349.609,96.191,-64.453,-10.742,3.906,0
1542824328.687,326.172,98.145,-45.898,0.000,-3.418,0
1542824328.691,347.168,93.262,-27.832,0.488,31.738,0
1542824328.695,356.445,85.449,-24.414,6.348,55.664,0
1542824328.699,333.496,96.191,-25.391,8.301,49.316,0
1542824328.702,317.871,101.562,-20.020,38.086,26.367,0
1542824328.706,317.383,104.980,-7.324,50.293,22.461,0
1542824328.710,323.242,107.910,3.906,48.340,26.855,0
1542824328.714,339.355,91.797,8.301,61.523,56.641,0
1542824328.718,333.008,88.867,15.625,69.336,37.598,0
1542824328.722,300.293,111.328,6.836,34.180,48.340,0
1542824328.726,317.871,116.699,4.395,28.809,66.895,0
1542824328.730,334.473,90.332,20.020,58.594,10.254,0
1542824328.734,310.547,78.125,18.555,57.617,16.113,0
1542824328.738,305.664,93.750,18.066,41.504,35.645,0
1542824328.742,318.359,102.051,20.020,40.039,14.648,0
1542824328.745,328.613,93.262,16.113,54.199,-7.324,0
1542824328.749,341.309,97.168,20.996,69.824,36.621,0
1542824328.753,338.867,100.098,27.832,76.172,68.848,0
1542824328.757,337.402,85.938,21.973,63.477,9.766,0
1542824328.761,348.145,85.449,22.461,71.289,18.555,0
1542824328.765,329.102,91.797,22.949,91.797,21.484,0
1542824328.769,311.035,85.938,20.020,79.102,-18.555,0
1542824328.773,312.500,90.820,9.766,61.035,49.805,0
1542824328.777,312.500,82.520,18.066,66.406,50.781,0
1542824328.781,306.641,77.148,26.855,83.984,15.625,0
1542824328.784,295.410,71.289,14.648,62.988,23.438,0
1542824328.788,297.852,34.180,17.578,37.598,-9.766,0
1542824328.792,304.688,36.621,22.949,40.039,12.207,0
1542824328.796,275.879,72.754,20.508,56.152,34.668,0
1542824328.800,269.043,96.191,29.297,69.824,0.000,0
1542824328.804,266.602,97.168,32.227,49.805,30.273,0
1542824328.808,239.746,83.496,22.461,44.434,51.758,0
1542824328.812,226.074,76.172,25.879,58.105,60.547,0
1542824328.816,235.352,68.359,27.344,57.617,31.250,0
1542824328.820,224.609,62.988,35.156,55.176,-8.789,0
1542824328.824,198.242,65.430,33.691,41.992,-0.488,0
1542824328.827,193.359,75.195,19.531,55.176,14.160,0
1542824328.831,181.641,70.312,29.297,82.031,14.160,0
1542824328.835,162.598,74.707,51.270,98.633,32.227,0
1542824328.839,141.602,67.871,60.059,93.262,45.410,0
1542824328.843,114.746,66.895,46.387,64.453,58.105,0
1542824328.847,91.797,73.242,36.621,60.059,59.570,0
1542824328.851,85.938,71.289,49.805,73.242,19.043,0
1542824328.855,92.773,65.430,44.434,70.801,26.367,0
1542824328.859,93.262,62.012,35.645,59.082,29.785,0
1542824328.863,93.750,75.195,45.898,64.453,-19.043,0
1542824328.867,79.590,74.219,53.223,64.453,-31.250,0
1542824328.870,68.359,64.453,49.316,56.641,-6.836,0
1542824328.874,64.453,66.406,48.340,55.664,-23.926,0
1542824328.878,51.758,70.312,54.199,57.617,12.207,0
1542824328.882,33.691,72.754,51.270,46.875,-0.488,0
1542824328.886,30.273,74.219,45.898,44.922,-37.598,0
1542824328.890,25.391,77.637,49.805,56.641,9.277,0
1542824328.894,21.973,74.219,59.082,57.617,26.855,0
1542824328.898,14.160,78.613,63.477,61.523,-32.715,0
1542824328.902,-0.488,88.379,66.406,67.383,-37.598,0
1542824328.906,-14.160,85.938,68.848,78.125,44.434,0
1542824328.909,-39.551,87.402,67.383,74.707,40.527,0
1542824328.913,-58.594,84.473,55.664,49.316,8.301,0
1542824328.917,-67.871,80.078,55.176,48.340,30.273,0
1542824328.921,-68.848,79.590,55.176,53.223,27.832,0
1542824328.925,-67.383,81.543,63.965,61.035,19.043,0
1542824328.929,-65.430,80.566,75.195,70.312,4.883,0
1542824328.933,-62.500,70.801,68.359,75.684,-2.441,0
1542824328.937,-65.918,68.359,64.941,81.543,2.441,0
1542824328.941,-82.031,69.336,64.453,62.988,-32.227,0
1542824328.945,-75.684,63.477,71.777,74.707,42.480,0
1542824328.949,-52.734,74.219,67.871,90.332,53.223,0
1542824328.952,-47.363,84.473,65.430,69.824,22.461,0
1542824328.956,-65.430,75.195,65.918,53.711,80.078,0
1542824328.960,-59.082,71.289,63.965,61.035,83.008,0
1542824328.964,-57.129,81.055,62.988,54.688,47.852,0
1542824328.968,-70.312,84.473,60.059,55.664,-9.277,0
1542824328.972,-73.730,74.219,64.941,71.777,34.668,0
1542824328.976,-72.266,70.312,68.359,81.543,54.199,0
1542824328.980,-73.242,76.172,64.941,88.867,20.020,0
1542824328.984,-75.684,79.590,64.453,94.727,84.473,0
1542824328.988,-68.848,70.801,65.430,91.797,79.590,0
1542824328.992,-62.500,54.688,69.336,80.566,59.082,0
1542824328.995,-64.941,50.781,64.453,82.520,52.246,0
1542824328.999,-74.219,57.129,55.664,68.359,27.832,0
1542824329.003,-66.895,59.570,47.852,57.129,18.066,0
1542824329.007,-77.637,48.828,45.410,74.707,34.180,0
1542824329.011,-68.359,48.340,44.434,68.848,80.078,0
1542824329.015,-56.152,51.758,42.969,42.969,46.875,0
1542824329.019,-71.777,50.293,46.387,40.527,42.480,0
1542824329.023,-82.520,44.434,51.270,42.969,60.059,0
1542824329.027,-101.074,43.457,52.246,14.648,87.891,0
1542824329.031,-88.867,45.410,44.434,22.461,78.125,0
1542824329.034,-63.965,47.852,48.340,51.758,42.480,0
1542824329.038,-62.988,59.082,42.480,52.246,95.703,0
1542824329.042,-52.246,41.504,37.598,31.250,84.473,0
1542824329.046,-54.199,28.320,43.945,63.477,10.742,0
1542824329.050,-73.730,32.227,40.527,84.473,3.418,0
1542824329.054,-60.059,36.621,26.367,40.527,13.672,0
1542824329.058,-18.555,37.109,24.902,27.832,38.086,0
1542824329.062,-2.441,36.621,28.809,46.875,30.762,0
1542824329.066,-7.324,40.527,25.391,39.062,40.527,0
1542824329.070,-14.160,33.203,25.879,50.293,36.133,0
1542824329.074,-2.441,21.973,30.762,65.430,35.645,0
1542824329.077,3.906,24.902,23.438,31.738,51.758,0
1542824329.081,8.301,33.203,19.043,23.926,40.039,0
1542824329.085,2.441,37.109,27.832,39.062,51.758,0
1542824329.089,-2.441,35.156,29.785,22.461,14.648,0
1542824329.093,1.465,23.926,29.297,22.949,-15.137,0
1542824329.097,-2.930,27.344,29.297,12.207,28.320,0
1542824329.101,26.367,40.039,30.273,16.602,19.531,0
1542824329.105,31.738,30.762,41.016,47.852,-19.531,0
1542824329.109,4.395,20.996,26.855,32.227,16.602,0
1542824329.113,-11.230,13.672,20.508,42.969,-6.836,0
1542824329.117,-4.883,15.137,41.992,35.645,-57.129,0
1542824329.120,7.324,23.438,14.648,2.441,-4.395,0
1542824329.124,1.465,30.762,20.020,6.836,63.477,0
1542824329.128,-20.996,31.250,42.969,19.043,45.410,0
1542824329.132,-30.762,25.391,13.184,4.883,5.371,0
1542824329.136,-12.207,21.484,22.949,11.230,4.883,0
1542824329.140,-10.742,24.902,27.344,20.996,61.523,0
1542824329.144,-4.883,28.809,20.508,27.832,109.375,0
1542824329.148,11.719,30.762,20.020,69.824,54.688,0
1542824329.152,20.996,32.715,26.367,58.105,24.414,0
1542824329.156,28.809,32.227,34.668,43.945,34.668,0
1542824329.159,32.715,28.809,24.902,54.199,12.695,0
1542824329.163,-5.859,26.367,30.762,7.324,25.879,0
1542824329.167,-1.465,25.391,33.203,-7.324,11.230,0
1542824329.171,48.340,34.668,16.113,23.926,8.789,0
1542824329.175,54.199,31.738,11.230,47.363,42.480,0
1542824329.179,49.316,32.715,13.672,33.691,46.875,0
1542824329.183,49.805,33.691,9.766,14.648,61.035,0
1542824329.187,27.344,19.043,11.719,21.973,35.645,0
1542824329.191,30.762,19.043,12.695,37.109,0.488,0
1542824329.195,29.785,16.113,22.949,47.363,51.758,0
1542824329.199,42.480,14.648,27.832,14.160,36.133,0
1542824329.202,63.477,26.367,11.719,-6.348,-48.828,0
1542824329.206,51.270,25.391,15.625,32.715,-5.859,0
1542824329.210,50.781,25.879,27.344,40.039,52.734,0
1542824329.214,60.547,34.180,28.320,30.762,52.246,0
1542824329.218,40.527,26.855,30.273,31.250,27.832,0
1542824329.222,50.781,33.203,22.461,22.949,11.230,0
1542824329.226,64.941,32.227,32.227,11.719,-31.738,0
1542824329.230,47.852,25.391,32.715,15.625,-1.465,0
1542824329.234,46.875,38.086,17.090,20.508,12.207,0
1542824329.238,31.738,28.320,21.484,37.598,29.785,0
1542824329.242,20.020,8.789,20.020,36.621,43.457,0
1542824329.245,26.855,23.926,15.625,14.648,1.465,0
1542824329.249,39.551,51.270,24.414,10.254,39.062,0
1542824329.253,41.504,41.504,34.668,19.043,63.965,0
1542824329.257,57.617,30.273,35.156,35.156,23.438,0
1542824329.261,63.965,29.785,30.762,57.617,7.812,0
1542824329.265,37.109,20.996,37.109,77.148,42.969,0
1542824329.269,38.086,28.809,23.438,54.199,22.461,0
1542824329.273,34.180,36.133,27.344,44.922,20.508,0
1542824329.277,30.273,33.203,43.945,68.848,10.742,0
1542824329.281,40.527,39.062,36.621,54.688,27.832,0
1542824329.284,44.434,48.340,27.832,18.555,52.734,0
1542824329.288,55.664,45.410,35.156,22.949,47.363,0
1542824329.292,49.805,44.922,35.156,32.715,32.227,0
1542824329.296,51.270,44.922,27.832,9.277,41.504,0
1542824329.300,45.410,39.062,35.156,21.484,22.949,0
1542824329.304,32.227,30.273,39.062,38.086,-45.410,0
1542824329.308,19.043,24.902,29.785,49.316,-44.922,0
1542824329.312,24.414,37.598,30.762,55.664,0.977,0
1542824329.316,27.832,43.457,26.367,45.410,38.086,0
1542824329.320,36.133,36.133,5.859,34.180,24.902,0
1542824329.324,54.199,37.109,13.184,31.738,53.711,0
1542824329.327,50.293,38.086,28.809,64.941,71.289,0
1542824329.331,51.270,34.180,26.367,63.965,90.332,0
1542824329.335,27.832,39.062,25.391,29.297,81.055,0
1542824329.339,25.391,34.180,27.344,18.066,73.242,0
1542824329.343,51.270,34.180,34.668,35.645,63.965,0
1542824329.347,56.641,39.551,37.109,70.801,-2.441,0
1542824329.351,52.734,30.762,38.574,70.801,-15.137,0
1542824329.355,68.848,24.902,42.480,83.496,4.395,0
1542824329.359,74.707,22.949,38.574,88.379,9.766,0
1542824329.363,64.453,23.926,37.109,74.219,24.414,0
1542824329.367,58.594,26.367,38.574,58.594,8.789,0
1542824329.370,60.059,31.738,42.969,56.152,15.137,0
1542824329.374,52.734,38.086,38.086,56.641,22.461,0
1542824329.378,55.664,28.320,26.855,56.641,18.555,0
1542824329.382,73.242,18.066,22.949,72.266,22.949,0
1542824329.386,72.266,16.602,21.484,67.383,12.695,0
1542824329.390,55.176,23.438,30.273,63.965,37.109,0
1542824329.394,54.199,31.738,37.598,70.312,38.086,0
1542824329.398,61.035,36.133,36.133,74.707,-10.742,0
1542824329.402,60.547,31.250,34.668,84.961,-21.484,0
1542824329.406,55.664,37.109,30.762,65.430,44.434,0
1542824329.409,46.875,38.574,37.109,49.316,51.270,0
1542824329.413,54.199,27.832,33.203,56.152,27.344,0
1542824329.417,59.570,21.973,9.766,53.711,63.477,0
1542824329.421,64.453,20.508,10.742,46.875,38.086,0
1542824329.425,61.523,30.273,21.484,54.688,47.363,0
1542824329.429,53.711,27.344,28.809,63.965,64.453,0
1542824329.433,47.363,29.785,28.809,65.918,33.691,0
1542824329.437,53.711,33.691,20.020,58.594,51.758,0
1542824329.441,71.289,27.344,25.879,51.270,36.133,0
1542824329.445,70.312,34.180,24.902,46.875,12.695,0
1542824329.449,73.242,44.434,19.531,49.805,16.602,0
1542824329.452,73.242,28.809,32.715,61.035,3.906,0
1542824329.456,79.590,9.766,32.227,50.781,-19.531,0
1542824329.460,94.727,21.484,28.809,61.035,-37.109,0
1542824329.464,83.984,39.551,26.367,72.754,22.949,0
1542824329.468,75.195,33.203,13.184,57.617,20.508,0
1542824329.472,75.195,22.461,16.113,58.594,-3.418,0
1542824329.476,71.289,22.461,23.926,40.527,7.812,0
1542824329.480,77.637,30.273,31.250,23.926,13.184,0
1542824329.484,83.496,32.227,26.855,47.363,35.645,0
1542824329.488,86.426,21.973,12.207,60.059,32.715,0
1542824329.492,80.566,24.414,18.555,30.762,-8.301,0
1542824329.495,62.500,28.320,27.832,10.254,-13.184,0
1542824329.499,67.383,26.855,28.809,17.090,21.484,0
1542824329.503,63.965,29.785,22.461,27.344,54.688,0
1542824329.507,54.688,32.227,21.973,26.367,41.992,0
1542824329.511,60.059,29.297,28.809,22.949,32.227,0
1542824329.515,71.289,27.344,29.297,34.180,76.660,0
1542824329.519,77.148,32.715,33.203,33.691,86.914,0
1542824329.523,73.730,33.203,34.180,19.531,68.359,0
1542824329.527,74.219,26.367,38.574,28.320,63.477,0
1542824329.531,82.520,31.250,43.945,17.578,72.754,0
1542824329.534,88.867,30.762,37.109,27.832,45.898,0
1542824329.538,105.957,25.391,30.273,68.359,27.832,0
1542824329.542,91.797,35.156,32.715,44.434,43.945,0
1542824329.546,57.617,43.457,28.809,9.277,0.000,0
1542824329.550,37.598,41.016,25.391,2.930,-35.645,0
1542824329.554,33.691,39.062,31.250,-13.672,6.348,0
1542824329.558,32.227,42.969,20.020,-40.039,4.395,0
1542824329.562,-13.184,34.180,14.648,-58.594,0.977,0
1542824329.566,-41.992,33.691,16.602,-72.754,37.109,0
1542824329.570,-45.410,46.875,-10.254,-95.215,32.715,0
1542824329.574,-65.430,52.734,-39.551,-108.887,-5.371,0
1542824329.577,-76.660,44.922,-14.160,-115.723,22.461,0
1542824329.581,-54.199,42.480,8.789,-105.957,44.434,0
1542824329.585,-52.246,58.594,-15.625,-111.816,24.902,0
1542824329.589,-57.129,42.969,-23.926,-112.793,-9.277,0
1542824329.593,-53.711,29.785,-21.484,-108.887,-11.719,0
1542824329.597,-59.082,40.039,-15.625,-114.746,38.086,0
1542824329.601,-76.172,40.527,-4.883,-104.980,54.199,0
1542824329.605,-71.289,36.133,-4.395,-91.797,15.137,0
1542824329.609,-44.434,30.762,-5.371,-82.031,17.578,0
1542824329.613,-27.832,35.645,-12.695,-61.035,24.414,0
1542824329.617,-18.555,46.875,-12.695,-42.480,17.578,0
1542824329.620,-15.625,44.922,-1.465,-37.109,5.859,0
1542824329.624,2.441,48.340,10.742,-38.086,-21.973,0
1542824329.628,10.742,46.875,8.301,-35.645,-46.387,0
1542824329.632,-0.977,42.969,12.207,-36.621,14.160,0
1542824329.636,-1.465,40.039,21.973,-33.691,75.195,0
1542824329.640,11.719,39.062,16.113,-9.766,92.773,0
1542824329.644,14.160,41.992,2.930,0.977,83.984,0
1542824329.648,10.254,38.086,15.625,-10.742,41.504,0
1542824329.652,11.230,40.039,29.785,-13.672,49.316,0
1542824329.656,14.160,44.922,28.320,0.977,52.246,0
1542824329.659,10.742,40.527,20.996,8.301,-20.020,0
1542824329.663,8.789,35.645,11.230,-13.184,-29.785,0
1542824329.667,12.695,33.691,11.230,-25.879,32.227,0
1542824329.671,12.207,21.973,22.949,-13.184,56.641,0
1542824329.675,13.672,28.320,37.109,-5.859,67.871,0
1542824329.679,17.090,49.316,32.227,-0.488,57.617,0
1542824329.683,17.090,47.363,22.949,2.441,30.273,0
1542824329.687,16.113,35.156,35.645,1.953,29.297,0
1542824329.691,14.648,31.738,40.527,10.742,69.336,0
1542824329.695,21.484,36.621,23.926,26.855,-2.441,0
1542824329.699,9.766,44.922,23.926,28.320,-41.016,0
1542824329.702,-3.418,40.039,32.227,13.184,47.363,0
1542824329.706,4.883,31.738,25.391,8.789,39.551,0
1542824329.710,7.324,39.062,20.508,-0.977,37.109,0
1542824329.714,0.000,33.691,29.297,-4.883,50.293,0
1542824329.718,8.789,23.926,41.504,9.277,76.660,0
1542824329.722,25.879,32.715,36.133,10.742,32.227,0
1542824329.726,19.043,44.434,34.668,19.531,-8.301,0
1542824329.730,2.441,47.363,39.551,28.809,16.113,0
1542824329.734,9.277,45.898,41.016,17.090,23.926,0
1542824329.738,26.367,46.875,49.316,13.184,17.578,0
1542824329.742,17.090,39.551,34.668,28.809,9.766,0
1542824329.745,1.465,29.785,19.043,22.949,0.000,0
1542824329.749,4.883,32.715,28.809,11.230,-8.789,0
1542824329.753,7.324,37.109,37.109,19.531,38.574,0
1542824329.757,14.648,35.156,46.387,8.301,16.113,0
1542824329.761,19.043,32.227,44.434,-1.953,-34.668,0
1542824329.765,19.043,38.574,35.645,4.883,6.836,0
1542824329.769,18.555,41.992,35.156,12.207,55.176,0
1542824329.773,12.207,28.320,35.645,20.508,44.434,0
1542824329.777,6.836,31.738,42.969,15.625,6.348,0
1542824329.781,-4.883,40.039,41.016,-8.301,-3.906,0
1542824329.784,0.977,41.016,34.180,10.254,42.480,0
1542824329.788,12.207,42.969,38.574,26.855,41.992,0
1542824329.792,13.184,44.922,49.805,18.066,35.156,0
1542824329.796,16.113,45.898,57.617,30.273,28.320,0
1542824329.800,20.020,50.293,62.988,40.527,33.203,0
1542824329.804,15.137,47.852,45.898,13.184,41.016,0
1542824329.808,5.859,38.086,31.738,7.324,1.953,0
1542824329.812,-5.859,47.852,50.293,-1.465,30.273,0
1542824329.816,-40.527,48.340,38.574,-57.617,51.270,0
1542824329.820,-56.152,41.504,27.344,-65.918,37.598,0
1542824329.824,-77.148,57.617,22.949,-89.844,0.977,0
1542824329.827,-122.070,54.199,24.414,-135.254,-24.902,0
1542824329.831,-147.949,52.246,20.020,-169.922,-34.180,0
1542824329.835,-170.410,69.336,-2.441,-193.359,-69.336,0
1542824329.839,-200.684,71.777,-1.465,-214.844,-32.227,0
1542824329.843,-209.961,69.824,3.418,-233.398,40.039,0
1542824329.847,-198.730,62.988,5.859,-218.750,58.105,0
1542824329.851,-192.871,60.059,8.789,-207.031,56.641,0
1542824329.855,-185.059,60.547,11.719,-190.918,72.266,0
1542824329.859,-161.621,50.293,19.531,-173.340,29.785,0
1542824329.863,-131.836,35.156,18.066,-151.855,-19.043,0
1542824329.867,-114.746,41.504,16.113,-122.070,7.812,0
1542824329.870,-98.145,54.688,15.625,-101.562,38.086,0
1542824329.874,-66.895,51.758,20.508,-79.102,66.895,0
1542824329.878,-40.527,55.664,19.043,-58.105,117.676,0
1542824329.882,-23.438,53.223,9.766,-43.945,63.477,0
1542824329.886,-4.883,51.758,16.602,-13.184,62.012,0
1542824329.890,8.301,46.875,20.508,-7.812,24.414,0
1542824329.894,15.137,36.133,20.020,-1.953,-23.438,0
1542824329.898,31.250,30.273,25.879,13.184,8.789,0
1542824329.902,62.012,18.066,36.621,21.973,29.785,0
1542824329.906,72.266,23.926,33.203,33.691,23.438,0
1542824329.909,69.336,30.273,32.227,43.457,5.859,0
1542824329.913,81.055,26.855,50.293,74.219,73.242,0
1542824329.917,87.891,38.086,48.340,89.844,55.664,0
1542824329.921,99.121,37.598,29.297,81.543,38.086,0
1542824329.925,105.469,31.738,31.250,86.914,36.621,0
1542824329.929,104.492,31.738,44.434,91.797,-30.762,0
1542824329.933,103.516,26.855,38.086,79.590,-15.625,0
1542824329.937,102.051,18.066,39.062,82.520,11.230,0
1542824329.941,104.980,24.902,41.992,85.449,11.719,0
1542824329.945,106.445,27.344,29.297,77.637,68.848,0
1542824329.949,96.191,18.066,47.852,80.078,86.426,0
1542824329.952,95.215,25.879,57.129,86.426,23.438,0
1542824329.956,107.910,27.344,38.086,91.797,27.344,0
1542824329.960,112.793,11.719,39.551,90.820,6.836,0
1542824329.964,98.145,12.207,39.062,75.195,0.488,0
1542824329.968,94.238,28.809,37.109,79.590,20.020,0
1542824329.972,96.680,39.062,41.016,91.309,33.203,0
1542824329.976,91.309,34.668,36.621,83.984,32.227,0
1542824329.980,94.727,30.762,38.086,88.867,10.254,0
1542824329.984,104.980,31.738,39.062,102.051,16.113,0
1542824329.988,112.305,29.785,41.504,106.445,0.488,0
1542824329.992,100.586,30.273,40.527,94.238,4.395,0
1542824329.995,99.609,39.062,40.039,72.754,32.227,0
1542824329.999,98.145,35.156,44.922,79.102,57.129,0
1542824330.003,85.449,16.602,33.691,83.984,42.969,0
1542824330.007,90.820,21.973,42.969,76.172,27.832,0
1542824330.011,101.562,35.156,42.480,69.824,87.402,0
1542824330.015,93.262,32.227,20.508,66.895,97.656,0
1542824330.019,97.168,28.809,26.367,70.312,20.020,0
1542824330.023,93.262,28.809,29.297,67.871,16.113,0
1542824330.027,76.660,22.461,31.250,65.430,0.488,0
1542824330.031,78.125,22.461,38.574,61.523,-30.762,0
1542824330.034,75.684,24.414,34.668,65.918,-2.441,0
1542824330.038,66.895,29.785,38.086,71.289,20.508,0
1542824330.042,68.848,31.250,34.668,66.895,13.672,0
1542824330.046,81.543,38.574,20.508,63.965,3.418,0
1542824330.050,78.125,38.086,21.973,71.777,-0.488,0
1542824330.054,71.777,20.020,30.762,87.402,39.551,0
1542824330.058,78.613,35.645,34.180,85.938,17.090,0
1542824330.062,78.613,52.246,27.832,66.895,-0.488,0
1542824330.066,64.453,35.156,30.273,52.246,44.434,0
1542824330.070,57.129,32.715,39.062,45.898,32.715,0
1542824330.074,66.406,34.668,37.109,60.059,44.434,0
1542824330.077,59.082,20.508,30.762,60.059,65.430,0
1542824330.081,60.059,24.414,20.508,49.316,54.688,0
1542824330.085,69.336,28.809,25.391,55.176,58.594,0
1542824330.089,60.547,21.484,35.156,59.570,41.504,0
1542824330.093,59.570,24.414,37.109,56.152,24.414,0
1542824330.097,54.688,36.621,33.691,51.758,20.508,0
1542824330.101,52.246,33.203,21.973,51.270,40.039,0
1542824330.105,63.477,30.762,14.160,55.176,31.250,0
1542824330.109,58.594,37.598,14.648,51.270,22.949,0
1542824330.113,53.711,37.598,20.020,35.645,74.707,0
1542824330.117,59.570,27.344,15.625,30.762,6.348,0
1542824330.120,62.012,19.531,8.789,30.762,-26.855,0
1542824330.124,53.711,30.762,14.160,33.691,-20.020,0
1542824330.128,50.781,37.598,25.391,44.922,9.277,0
1542824330.132,61.523,34.668,30.273,48.340,71.777,0
1542824330.136,60.547,30.762,32.227,42.969,14.160,0
1542824330.140,49.805,37.109,32.227,33.691,20.508,0
1542824330.144,55.664,42.480,31.738,30.273,50.781,0
1542824330.148,58.594,35.156,32.715,37.598,18.555,0
1542824330.152,51.270,29.785,24.902,33.203,29.785,0
1542824330.156,49.805,35.156,23.438,38.086,15.137,0
1542824330.159,41.992,34.668,27.344,33.691,25.879,0
1542824330.163,28.809,33.203,21.973,18.555,58.105,0
1542824330.167,27.832,35.156,24.414,15.137,17.090,0
1542824330.171,38.086,38.574,31.738,20.508,7.324,0
1542824330.175,34.668,35.156,33.203,31.738,42.969,0
1542824330.179,24.414,36.133,33.691,26.367,17.090,0
1542824330.183,21.973,32.715,35.156,33.203,35.645,0
1542824330.187,30.273,24.902,40.039,34.180,91.797,0
1542824330.191,28.320,36.133,35.645,21.484,48.828,0
1542824330.195,31.738,47.363,28.809,34.180,54.688,0
1542824330.199,42.480,39.062,22.461,49.805,49.805,0
1542824330.202,48.340,34.668,12.695,53.711,38.574,0
1542824330.206,25.391,37.598,8.301,34.668,30.762,0
1542824330.210,9.766,31.738,17.578,17.090,2.441,0
1542824330.214,21.973,34.180,18.555,21.484,33.203,0
1542824330.218,11.719,43.945,10.742,18.066,82.520,0
1542824330.222,13.672,39.551,8.301,14.648,48.828,0
1542824330.226,13.672,33.203,8.789,8.301,-4.395,0
1542824330.230,0.000,39.551,6.348,12.207,0.488,0
1542824330.234,17.090,41.504,6.348,18.066,69.336,0
1542824330.238,21.973,37.109,7.324,5.859,52.246,0
1542824330.242,14.160,37.109,4.395,12.695,-6.836,0
1542824330.245,21.973,34.180,7.812,20.020,53.223,0
1542824330.249,20.996,29.297,17.090,20.508,77.637,0
1542824330.253,23.926,26.367,26.855,30.762,63.965,0
1542824330.257,37.598,30.762,13.184,34.180,60.059,0
1542824330.261,34.668,41.504,0.977,25.879,65.918,0
1542824330.265,20.508,37.598,12.695,29.785,61.523,0
1542824330.269,17.090,35.645,24.902,25.391,3.906,0
1542824330.273,20.020,48.340,16.113,17.090,-14.160,0
1542824330.277,44.434,54.199,14.648,28.809,0.977,0
1542824330.281,43.457,48.828,22.461,27.832,-10.254,0
1542824330.284,21.973,40.527,20.508,14.648,-22.461,0
1542824330.288,18.066,26.855,19.531,13.672,27.344,0
1542824330.292,18.066,27.832,15.137,28.320,-19.531,0
1542824330.296,24.902,36.133,11.230,28.320,7.324,0
1542824330.300,26.367,32.227,19.531,28.320,57.617,0
1542824330.304,23.438,35.156,25.879,32.227,17.090,0
1542824330.308,26.855,42.480,23.926,31.250,-28.809,0
1542824330.312,24.902,39.551,19.043,22.949,-22.461,0
1542824330.316,28.809,38.574,17.578,21.484,48.828,0
1542824330.320,26.855,43.457,20.996,23.438,38.574,0
1542824330.324,18.555,47.363,20.020,14.648,16.602,0
1542824330.327,15.625,40.527,22.461,13.672,12.695,0
1542824330.331,11.230,27.344,24.414,18.066,-0.977,0
1542824330.335,16.113,34.180,26.367,30.762,26.367,0
1542824330.339,20.020,39.062,31.738,32.715,56.641,0
1542824330.343,25.391,37.109,27.832,23.926,18.555,0
1542824330.347,22.949,49.316,18.066,20.020,14.648,0
1542824330.351,11.719,52.246,20.508,20.020,-15.625,0
1542824330.355,16.602,40.527,21.484,33.691,-35.645,0
1542824330.359,16.602,35.645,27.832,24.414,-49.805,0
1542824330.363,13.184,37.598,37.598,16.602,-3.418,0
1542824330.367,11.719,41.016,34.668,16.602,76.660,0
1542824330.370,1.953,37.598,33.203,2.441,50.781,0
1542824330.374,-1.465,29.297,35.156,8.301,52.734,0
1542824330.378,-2.441,34.180,28.320,11.230,64.941,0
1542824330.382,-4.395,37.598,26.855,5.859,48.340,0
1542824330.386,7.812,28.320,26.855,11.719,41.992,0
1542824330.390,16.602,27.832,28.320,17.090,-2.930,0
1542824330.394,13.672,39.062,32.227,22.461,-0.977,0
1542824330.398,8.789,44.922,31.738,19.531,88.867,0
1542824330.402,4.883,41.504,25.879,13.184,85.938,0
1542824330.406,13.184,26.855,25.879,18.066,43.457,0
1542824330.409,12.695,29.297,26.855,22.461,28.809,0
1542824330.413,-0.977,38.574,23.926,0.977,12.207,0
1542824330.417,12.695,38.086,28.809,2.930,51.758,0
1542824330.421,20.020,35.156,29.785,23.438,83.984,0
1542824330.425,8.301,33.203,34.180,8.789,38.574,0
1542824330.429,10.254,40.527,35.645,13.184,18.555,0
1542824330.433,17.090,37.109,32.227,24.902,27.832,0
1542824330.437,26.855,37.598,31.250,37.109,83.496,0
1542824330.441,20.508,33.691,22.461,35.645,39.062,0
1542824330.445,15.625,22.461,19.531,26.367,-14.648,0
1542824330.449,18.555,34.668,22.461,28.809,19.043,0
1542824330.452,19.043,43.945,21.973,23.438,49.316,0
1542824330.456,11.719,41.504,25.879,23.926,62.988,0
1542824330.460,6.348,38.574,25.391,20.996,42.969,0
1542824330.464,5.371,33.203,26.367,18.066,25.879,0
1542824330.468,10.742,23.438,29.785,22.461,13.672,0
1542824330.472,9.277,25.391,28.809,23.438,18.066,0
1542824330.476,2.441,37.109,23.926,12.207,59.570,0
1542824330.480,0.000,36.621,22.949,5.859,36.133,0
1542824330.484,-1.465,37.598,22.949,13.672,-17.578,0
1542824330.488,5.859,39.551,20.508,14.648,3.418,0
1542824330.492,4.883,40.039,21.973,8.301,36.133,0
1542824330.495,-4.883,43.457,24.902,10.742,-20.508,0
1542824330.499,0.000,45.410,23.926,17.090,-9.766,0
1542824330.503,8.301,45.410,20.996,14.160,34.668,0
1542824330.507,6.836,44.922,16.602,8.301,62.988,0
1542824330.511,1.953,41.992,13.184,12.695,65.918,0
1542824330.515,-2.930,37.598,14.648,16.602,20.020,0
1542824330.519,-1.953,36.621,21.484,22.949,52.734,0
1542824330.523,3.906,41.016,28.320,25.879,50.781,0
1542824330.527,7.324,42.480,32.715,13.184,59.570,0
1542824330.531,9.277,28.809,37.109,18.066,16.113,0
1542824330.534,13.672,21.973,33.203,21.973,-19.531,0
1542824330.538,30.762,33.203,27.344,43.945,-13.184,0
1542824330.542,33.691,38.574,36.621,52.734,-10.254,0
1542824330.546,3.418,43.945,40.039,17.578,34.668,0
1542824330.550,-29.785,40.527,28.809,-4.395,26.367,0
1542824330.554,-30.762,33.691,28.320,-12.695,14.160,0
1542824330.558,-20.020,25.879,36.621,1.465,40.527,0
1542824330.562,-60.547,19.531,36.133,-26.367,18.555,0
1542824330.566,-81.055,34.180,34.668,-62.012,-31.738,0
1542824330.570,-79.102,50.781,20.508,-69.336,-5.371,0
1542824330.574,-87.402,48.340,5.371,-72.266,27.344,0
1542824330.577,-95.703,44.922,18.066,-81.055,-17.090,0
1542824330.581,-97.656,43.457,22.461,-82.031,-18.066,0
1542824330.585,-90.820,31.250,16.113,-69.824,38.086,0
1542824330.589,-91.309,30.273,18.555,-69.336,22.949,0
1542824330.593,-79.102,37.109,24.414,-50.781,62.012,0
1542824330.597,-61.035,44.922,22.461,-33.691,34.180,0
1542824330.601,-51.758,44.922,23.438,-34.180,-3.906,0
1542824330.605,-42.969,43.945,26.367,-29.785,19.531,0
1542824330.609,-41.992,44.922,27.344,-23.926,87.402,0
1542824330.613,-41.016,40.039,35.156,-22.949,87.891,0
1542824330.617,-33.691,40.527,33.691,-20.508,65.918,0
1542824330.620,-34.668,41.016,24.902,-16.113,82.520,0
1542824330.624,-30.273,41.504,28.809,-3.906,7.812,0
1542824330.628,-20.020,40.527,33.691,1.953,52.734,0
1542824330.632,-19.043,37.109,32.715,5.371,86.426,0
1542824330.636,-15.625,27.344,35.645,10.742,44.922,0
1542824330.640,-10.742,19.043,28.809,13.672,57.617,0
1542824330.644,-7.812,32.715,24.902,12.695,72.266,0
1542824330.648,-5.371,41.504,35.156,6.836,25.879,0
1542824330.652,7.812,36.621,33.691,20.996,33.691,0
1542824330.656,3.418,50.781,28.809,20.508,26.855,0
1542824330.659,-4.883,57.129,27.344,11.719,40.527,0
1542824330.663,-0.977,46.387,25.879,15.625,65.918,0
1542824330.667,-9.766,46.387,27.832,11.230,66.895,0
1542824330.671,-7.812,41.992,27.344,3.906,67.383,0
1542824330.675,-0.488,35.156,29.297,10.742,-8.789,0
1542824330.679,-9.766,34.180,26.367,19.043,-20.996,0
1542824330.683,-15.137,33.203,18.555,4.395,40.039,0
1542824330.687,-5.859,35.645,22.461,-2.441,29.297,0
1542824330.691,-3.906,30.762,27.344,17.578,-1.953,0
1542824330.695,-7.812,24.414,22.949,9.766,-1.953,0
1542824330.699,-2.930,29.297,22.949,0.977,19.043,0
1542824330.702,-0.488,39.551,28.320,14.648,27.344,0
1542824330.706,-5.371,40.527,26.367,16.113,-10.742,0
1542824330.710,-9.766,43.457,21.973,10.742,-17.578,0
1542824330.714,-1.465,48.340,22.949,18.555,-10.254,0
1542824330.718,8.789,34.668,25.391,30.762,2.930,0
1542824330.722,0.488,22.949,24.414,33.691,9.766,0
1542824330.726,1.953,28.809,26.855,28.320,39.062,0
1542824330.730,6.348,28.320,31.738,25.391,40.039,0
1542824330.734,-0.977,35.645,29.297,30.762,1.465,0
1542824330.738,-0.977,47.363,22.461,32.715,-1.465,0
1542824330.742,-1.465,44.922,24.414,25.391,27.832,0
1542824330.745,5.859,47.852,28.320,17.090,45.410,0
1542824330.749,12.207,56.641,27.832,20.508,11.230,0
1542824330.753,4.883,57.129,20.996,22.461,-18.066,0
1542824330.757,0.488,43.457,15.625,19.531,3.418,0
1542824330.761,-3.418,33.203,14.160,15.137,20.508,0
1542824330.765,-4.395,36.621,6.348,13.184,3.418,0
1542824330.769,0.488,37.109,14.648,19.043,46.387,0
1542824330.773,-1.465,35.645,28.320,12.695,47.852,0
1542824330.777,1.953,35.645,24.414,4.883,15.137,0
1542824330.781,13.184,32.227,27.832,5.859,39.062,0
1542824330.784,2.930,38.574,30.762,19.531,23.926,0
1542824330.788,-3.418,39.551,30.273,19.043,37.598,0
1542824330.792,-5.371,34.668,22.461,11.719,37.598,0
1542824330.796,-13.184,35.156,22.461,18.555,-1.465,0
1542824330.800,-13.672,26.367,32.227,10.254,62.012,0
1542824330.804,-3.418,28.809,29.297,11.719,59.082,0
1542824330.808,-7.812,37.598,28.809,21.973,-3.418,0
1542824330.812,-7.324,42.480,27.832,29.297,23.438,0
1542824330.816,6.836,43.457,29.297,29.297,61.523,0
1542824330.820,2.441,44.434,29.297,24.414,26.367,0
1542824330.824,9.766,47.852,30.273,32.715,0.977,0
1542824330.827,7.324,34.668,35.645,28.320,-5.371,0
1542824330.831,-7.324,29.785,26.855,10.254,3.906,0
1542824330.835,-4.395,39.062,21.484,9.766,25.391,0
1542824330.839,6.348,34.180,26.367,19.043,-0.488,0
1542824330.843,8.789,37.109,21.973,16.602,1.465,0
1542824330.847,-6.836,46.875,20.508,6.836,35.156,0
1542824330.851,-6.348,46.875,17.090,7.324,49.316,0
1542824330.855,-4.883,44.922,16.602,1.953,13.184,0
1542824330.859,-8.301,43.945,18.066,0.488,-3.906,0
1542824330.863,-2.441,42.480,18.555,7.324,22.461,0
1542824330.867,2.930,43.457,24.902,6.348,49.316,0
1542824330.870,1.465,41.992,27.832,6.348,3.418,0
1542824330.874,8.301,41.992,29.785,17.578,-49.805,0
1542824330.878,13.672,52.246,29.785,22.949,-70.312,0
1542824330.882,3.906,44.922,27.832,19.043,-43.945,0
1542824330.886,9.277,32.715,22.949,22.949,18.555,0
1542824330.890,18.066,39.551,19.043,20.996,59.082,0
1542824330.894,9.766,53.223,14.160,9.277,24.414,0
1542824330.898,-3.906,51.758,12.695,5.859,-2.930,0
1542824330.902,-6.836,40.039,20.508,6.836,26.367,0
1542824330.906,-0.488,37.598,23.926,9.766,46.875,0
1542824330.909,-2.441,40.039,22.461,10.254,41.016,0
1542824330.913,8.301,44.434,24.902,12.207,27.344,0
1542824330.917,5.371,41.992,27.832,27.832,35.645,0
1542824330.921,-1.953,40.039,31.738,29.785,53.223,0
1542824330.925,4.883,48.828,24.414,20.996,16.113,0
1542824330.929,11.719,49.805,18.066,10.742,-10.254,0
1542824330.933,19.531,42.480,30.762,4.395,-14.648,0
1542824330.937,9.766,42.969,36.133,7.812,-10.254,0
1542824330.941,-2.441,41.992,25.391,3.418,34.668,0
1542824330.945,-1.953,36.133,29.785,3.418,36.621,0
1542824330.949,-1.953,39.062,28.320,8.301,34.668,0
1542824330.952,-4.395,41.992,18.555,17.090,-7.324,0
1542824330.956,-4.883,38.574,18.066,3.906,2.441,0
1542824330.960,-2.441,43.457,24.414,0.977,62.500,0
1542824330.964,-3.418,48.340,31.250,23.438,-8.789,0
1542824330.968,0.977,47.363,20.020,20.508,14.160,0
1542824330.972,3.906,49.805,16.602,15.625,75.195,0
1542824330.976,0.000,46.875,26.855,30.273,68.359,0
1542824330.980,3.906,43.457,30.273,25.879,33.203,0
1542824330.984,0.977,43.457,23.926,-0.488,-15.137,0
1542824330.988,0.000,39.551,27.832,5.371,9.277,0
1542824330.992,7.324,37.598,25.391,18.066,38.086,0
1542824330.995,1.953,36.621,19.043,11.719,35.156,0
1542824330.999,0.977,36.621,26.855,14.648,23.926,0
1542824331.003,2.441,34.668,35.645,17.578,-1.465,0
1542824331.007,-8.789,41.992,36.621,17.578,31.250,0
1542824331.011,-8.301,44.434,20.508,21.484,70.312,0
1542824331.015,-0.488,38.574,18.555,11.719,50.781,0
1542824331.019,-1.953,42.969,24.414,-6.348,51.270,0
1542824331.023,-1.465,48.828,23.926,4.395,70.312,0
1542824331.027,12.207,31.738,30.762,33.203,76.660,0
1542824331.031,20.020,22.949,33.691,27.344,24.414,0
1542824331.034,-0.977,41.016,31.250,5.859,-28.809,0
1542824331.038,-4.395,51.758,27.832,0.488,-28.809,0
1542824331.042,0.977,51.270,26.367,5.371,-34.668,0
1542824331.046,13.672,46.387,31.738,18.066,14.648,0
1542824331.050,43.457,53.223,33.691,25.879,54.688,0
1542824331.054,36.621,60.059,32.227,26.855,27.344,0
1542824331.058,35.645,50.781,33.203,36.621,47.852,0
1542824331.062,46.875,49.805,30.273,46.875,55.664,0
1542824331.066,45.410,54.688,29.785,46.875,41.016,0
1542824331.070,65.430,58.594,27.832,57.617,24.414,0
1542824331.074,74.219,64.453,22.949,50.781,40.039,0
1542824331.077,62.012,63.965,22.461,39.062,57.617,0
1542824331.081,61.035,65.430,21.484,62.012,27.344,0
1542824331.085,63.965,69.336,20.508,62.988,-9.277,0
1542824331.089,64.453,64.453,23.438,53.223,14.160,0
1542824331.093,82.031,66.406,23.438,67.383,30.273,0
1542824331.097,80.566,72.754,19.531,70.801,-25.879,0
1542824331.101,57.617,72.754,15.137,59.570,-6.348,0
1542824331.105,62.988,70.312,15.625,57.129,66.406,0
1542824331.109,89.355,73.242,18.066,64.941,82.031,0
1542824331.113,77.637,71.289,22.949,56.641,70.801,0
1542824331.117,62.012,55.664,29.785,45.410,42.969,0
1542824331.120,88.379,51.758,34.668,63.477,44.434,0
1542824331.124,94.238,57.129,28.809,73.242,6.348,0
1542824331.128,72.754,53.223,27.344,52.246,-13.184,0
1542824331.132,78.613,53.223,34.180,53.223,37.109,0
1542824331.136,74.707,65.918,36.133,67.383,17.090,0
1542824331.140,65.918,61.035,44.434,71.777,13.184,0
1542824331.144,78.613,58.105,47.852,60.547,21.484,0
1542824331.148,68.359,57.129,53.223,46.387,18.066,0
1542824331.152,58.594,50.293,62.988,56.152,43.457,0
1542824331.156,61.035,51.270,65.918,46.387,5.371,0
1542824331.159,62.500,49.316,67.383,39.062,10.254,0
1542824331.163,67.871,46.387,67.871,45.410,26.855,0
1542824331.167,76.172,42.480,69.336,53.223,3.418,0
1542824331.171,70.312,40.039,75.684,62.012,-0.488,0
1542824331.175,54.199,36.621,70.801,44.434,9.277,0
1542824331.179,50.293,39.551,68.359,31.250,20.508,0
1542824331.183,54.199,49.316,73.242,42.480,48.340,0
1542824331.187,56.641,46.875,76.172,56.152,30.273,0
1542824331.191,67.871,44.434,67.383,62.988,12.207,0
1542824331.195,67.871,46.387,61.035,71.289,26.367,0
1542824331.199,60.059,47.852,81.543,67.871,3.418,0
1542824331.202,54.199,32.715,79.590,46.875,37.598,0
1542824331.206,35.156,25.391,64.941,23.926,53.223,0
1542824331.210,20.996,35.156,66.895,19.531,1.465,0
1542824331.214,28.320,43.457,71.289,20.020,55.176,0
1542824331.218,48.828,41.504,73.730,31.250,32.715,0
1542824331.222,48.340,31.250,70.801,45.898,-17.090,0
1542824331.226,43.457,26.855,65.918,40.039,53.711,0
1542824331.230,59.082,38.574,66.406,43.457,64.941,0
1542824331.234,58.594,48.828,49.805,50.293,31.250,0
1542824331.238,43.945,43.457,45.898,42.480,41.504,0
1542824331.242,43.945,45.898,56.641,28.320,24.902,0
1542824331.245,41.504,44.922,62.500,30.273,33.203,0
1542824331.249,48.340,41.016,69.336,51.270,28.809,0
1542824331.253,58.594,40.039,62.012,52.246,12.207,0
1542824331.257,62.012,40.039,49.316,52.246,49.316,0
1542824331.261,61.035,43.457,48.828,41.992,-1.465,0
1542824331.265,67.871,43.945,56.641,33.203,-16.602,0
1542824331.269,74.219,39.551,59.082,43.457,51.758,0
1542824331.273,63.965,33.691,57.617,41.016,37.109,0
1542824331.277,56.641,40.039,55.664,49.316,15.137,0
1542824331.281,59.082,39.551,51.758,62.012,38.086,0
1542824331.284,52.734,34.668,49.316,38.086,38.574,0
1542824331.288,42.480,39.551,53.711,17.578,5.371,0
1542824331.292,41.504,42.480,57.129,20.020,-14.160,0
1542824331.296,48.828,35.645,50.781,26.367,25.879,0
1542824331.300,65.430,35.645,48.828,42.969,23.926,0
1542824331.304,82.520,46.875,52.246,58.594,16.113,0
1542824331.308,73.242,39.062,51.758,55.664,62.012,0
1542824331.312,49.316,29.297,51.270,46.387,54.688,0
1542824331.316,46.387,45.410,60.059,40.039,15.625,0
1542824331.320,55.176,49.805,62.012,46.387,36.133,0
1542824331.324,51.270,42.480,42.969,41.016,19.531,0
1542824331.327,56.641,43.457,33.691,36.133,-19.531,0
1542824331.331,61.523,41.504,44.434,53.711,33.203,0
1542824331.335,47.852,34.668,51.270,52.734,67.383,0
1542824331.339,58.594,37.598,55.664,33.691,58.105,0
1542824331.343,75.195,42.480,64.453,23.926,32.227,0
1542824331.347,55.176,41.504,51.270,30.273,-32.715,0
1542824331.351,41.504,40.039,35.156,49.805,-19.531,0
1542824331.355,36.133,36.133,48.828,48.340,71.777,0
1542824331.359,37.598,36.621,54.688,36.621,9.277,0
1542824331.363,51.758,37.109,52.734,28.809,5.371,0
1542824331.367,53.711,36.133,54.688,32.715,31.250,0
1542824331.370,61.035,37.109,49.805,41.992,2.930,0
1542824331.374,63.965,36.133,46.387,27.832,-27.832,0
1542824331.378,64.453,30.273,46.387,14.160,20.508,0
1542824331.382,72.266,32.227,46.387,18.555,44.922,0
1542824331.386,83.984,35.156,47.852,33.203,37.109,0
1542824331.390,83.496,32.227,49.316,37.109,64.941,0
1542824331.394,79.590,27.832,46.875,24.414,75.684,0
1542824331.398,89.844,29.297,43.945,27.344,41.016,0
1542824331.402,89.844,32.715,44.434,22.949,46.387,0
1542824331.406,82.520,31.250,45.898,18.066,50.781,0
1542824331.409,83.496,30.273,49.805,24.902,62.500,0
1542824331.413,82.520,27.344,51.758,33.203,96.191,0
1542824331.417,74.707,29.785,49.805,24.902,66.406,0
1542824331.421,71.289,34.180,48.828,15.137,61.035,0
1542824331.425,69.824,28.320,51.758,33.203,21.973,0
1542824331.429,62.988,29.785,53.711,30.762,57.129,0
1542824331.433,69.336,34.668,49.316,12.695,99.609,0
1542824331.437,86.914,32.227,46.387,21.973,88.867,0
1542824331.441,79.590,28.809,46.875,26.367,107.910,0
1542824331.445,71.289,22.949,43.945,16.113,50.293,0
1542824331.449,82.520,22.461,44.922,3.418,28.809,0
1542824331.452,84.473,34.180,50.293,4.395,8.789,0
1542824331.456,84.473,38.574,50.293,19.043,9.766,0
1542824331.460,87.891,33.203,50.293,24.414,46.875,0
1542824331.464,84.473,26.367,52.734,18.555,31.738,0
1542824331.468,80.078,25.879,56.641,13.672,18.555,0
1542824331.472,82.031,23.438,56.641,12.207,20.996,0
1542824331.476,83.984,25.391,62.500,5.371,19.531,0
1542824331.480,91.309,33.691,94.727,12.695,11.719,0
1542824331.484,96.680,23.926,126.465,13.184,2.441,0
1542824331.488,80.566,16.113,141.602,0.000,41.992,0
1542824331.492,73.730,15.137,156.250,-0.488,91.309,0
1542824331.495,76.172,16.113,163.574,5.859,51.758,0
1542824331.499,71.777,20.508,164.551,2.441,-31.738,0
1542824331.503,67.871,18.066,164.551,-8.789,-17.090,0
1542824331.507,65.430,18.555,165.527,-5.371,49.805,0
1542824331.511,76.660,27.832,165.527,15.137,35.645,0
1542824331.515,79.590,28.809,160.645,-4.395,-36.133,0
1542824331.519,77.637,21.484,159.180,-7.812,-29.297,0
1542824331.523,83.496,22.461,156.738,0.000,-7.324,0
1542824331.527,79.590,26.367,155.762,-0.488,-15.137,0
1542824331.531,47.363,21.484,153.809,6.348,19.531,0
1542824331.534,35.645,15.625,146.973,-1.465,31.738,0
1542824331.538,56.152,16.602,139.160,-3.906,52.734,0
1542824331.542,52.734,10.254,137.695,-0.488,93.750,0
1542824331.546,39.062,21.973,140.137,-0.977,38.086,0
1542824331.550,35.156,29.785,132.812,-3.906,29.785,0
1542824331.554,36.621,25.879,127.930,-12.695,28.809,0
1542824331.558,53.711,27.832,128.418,-13.184,-39.551,0
1542824331.562,39.551,25.391,118.652,-13.184,1.953,0
1542824331.566,36.133,32.715,115.234,-13.184,37.109,0
1542824331.570,56.152,26.367,114.746,-5.371,42.969,0
1542824331.574,51.270,16.602,109.863,16.113,24.902,0
1542824331.577,39.551,22.949,115.234,22.949,45.410,0
1542824331.581,32.227,28.320,112.305,12.695,26.367,0
1542824331.585,27.832,32.715,108.887,-1.953,1.953,0
1542824331.589,29.297,27.832,110.352,3.418,1.465,0
1542824331.593,27.344,22.461,108.887,10.742,11.230,0
1542824331.597,27.344,26.367,104.492,13.184,35.645,0
1542824331.601,32.227,25.391,102.051,17.578,-8.789,0
1542824331.605,35.645,25.391,100.586,0.000,15.137,0
1542824331.609,29.297,30.762,93.750,-10.254,70.312,0
1542824331.613,36.621,29.785,85.449,3.418,81.055,0
1542824331.617,38.086,32.227,86.426,-3.906,37.598,0
1542824331.620,18.555,30.273,91.309,4.395,57.129,0
1542824331.624,26.855,24.414,91.797,20.996,45.898,0
1542824331.628,36.621,24.414,92.285,20.020,49.316,0
1542824331.632,26.855,26.855,89.844,19.531,52.734,0
1542824331.636,20.020,28.809,84.473,22.949,-11.719,0
1542824331.640,24.414,34.668,80.566,14.648,35.645,0
1542824331.644,22.461,37.109,78.125,2.930,72.266,0
1542824331.648,24.414,29.785,77.148,13.184,20.996,0
1542824331.652,21.973,26.855,75.195,12.695,10.254,0
1542824331.656,19.043,29.297,73.242,9.766,37.109,0
1542824331.659,35.156,30.273,73.242,10.742,41.016,0
1542824331.663,37.109,27.832,71.289,13.184,27.344,0
1542824331.667,24.902,28.809,66.406,2.441,58.594,0
1542824331.671,19.043,27.344,63.477,-10.254,92.773,0
1542824331.675,13.672,27.344,65.918,-12.695,12.695,0
1542824331.679,-3.418,25.391,68.359,-25.391,-47.852,0
1542824331.683,-9.766,15.625,60.547,-14.648,-27.344,0
1542824331.687,-4.395,10.742,52.246,-9.766,-36.621,0
1542824331.691,-5.371,16.602,48.340,-24.902,-33.203,0
1542824331.695,-1.465,22.949,45.410,-23.926,50.293,0
1542824331.699,1.465,28.320,45.898,-22.461,77.637,0
1542824331.702,-2.441,30.273,46.387,-13.672,52.734,0
1542824331.706,-9.766,27.832,47.363,-6.348,43.457,0
1542824331.710,-17.090,26.367,46.387,-16.602,54.688,0
1542824331.714,-10.742,26.367,36.621,-16.602,29.297,0
1542824331.718,-11.719,25.879,34.668,-16.113,14.160,0
1542824331.722,-16.602,26.855,33.691,-17.578,3.418,0
1542824331.726,-9.766,22.949,31.738,-13.672,26.855,0
1542824331.730,-2.930,17.578,30.273,-15.625,50.781,0
1542824331.734,-14.648,20.996,25.879,-27.832,22.949,0
