timestamps,TP9,AF7,AF8,TP10,Right AUX,Marker0
1542906462.369,61.035,46.387,35.645,56.641,-16.602,0
1542906462.373,51.758,49.316,35.645,49.805,-27.832,0
1542906462.377,43.457,36.133,34.180,43.457,9.277,0
1542906462.381,58.105,31.738,39.551,51.758,47.852,0
1542906462.385,60.059,36.133,41.016,54.199,27.344,0
1542906462.389,51.270,41.016,33.691,54.199,-36.133,0
1542906462.393,55.664,47.363,34.180,56.641,-41.504,0
1542906462.397,56.641,40.527,39.551,50.781,32.715,0
1542906462.401,60.059,30.762,40.039,49.316,21.484,0
1542906462.405,75.195,36.621,38.574,59.082,19.531,0
1542906462.409,77.637,30.762,33.203,62.500,81.543,0
1542906462.412,64.453,29.297,34.668,58.105,57.617,0
1542906462.416,61.035,46.387,28.809,59.570,35.645,0
1542906462.420,67.871,41.992,14.648,50.781,42.480,0
1542906462.424,58.594,23.926,26.367,50.293,39.551,0
1542906462.428,44.434,31.738,40.527,55.176,53.711,0
1542906462.432,47.852,47.363,49.316,57.129,72.266,0
1542906462.436,64.453,51.758,52.734,62.500,60.059,0
1542906462.440,74.707,49.805,48.828,52.246,31.250,0
1542906462.444,71.289,41.016,38.574,54.688,18.066,0
1542906462.448,68.848,26.855,28.809,62.988,68.848,0
1542906462.452,73.730,11.230,25.879,61.035,82.031,0
1542906462.455,88.867,20.020,27.344,92.285,-11.719,0
1542906462.459,86.914,45.410,20.508,91.797,-29.785,0
1542906462.463,52.734,61.523,23.926,42.969,-0.977,0
1542906462.467,41.504,62.500,34.668,31.738,26.855,0
1542906462.471,53.223,56.152,39.062,41.504,33.691,0
1542906462.475,74.219,63.477,41.992,51.758,43.945,0
1542906462.479,86.426,71.289,34.180,56.152,54.688,0
1542906462.483,72.754,47.852,17.090,41.016,3.418,0
1542906462.487,62.988,34.668,13.672,38.574,15.625,0
1542906462.491,60.547,47.363,18.066,47.363,84.473,0
1542906462.494,65.430,51.270,14.160,46.387,98.633,0
1542906462.498,75.195,47.363,16.602,46.875,87.402,0
1542906462.502,75.195,47.363,25.391,50.293,65.430,0
1542906462.506,72.754,50.293,22.949,48.340,47.852,0
1542906462.510,78.125,50.293,15.625,46.875,80.566,0
1542906462.514,79.590,56.641,23.438,50.293,56.152,0
1542906462.518,72.266,62.012,26.855,49.316,13.672,0
1542906462.522,70.312,49.316,18.555,41.992,50.781,0
1542906462.526,66.406,41.016,25.879,47.363,27.832,0
1542906462.530,73.242,45.410,38.574,53.711,5.371,0
1542906462.534,77.637,48.828,34.668,57.617,3.906,0
1542906462.537,61.035,47.852,26.367,62.500,64.453,0
1542906462.541,57.129,42.969,21.484,60.059,96.191,0
1542906462.545,64.941,35.645,28.809,56.641,61.035,0
1542906462.549,75.684,40.527,30.762,55.176,39.551,0
1542906462.553,73.730,47.852,22.461,57.617,25.879,0
1542906462.557,79.102,48.340,33.691,60.059,25.391,0
1542906462.561,79.590,50.781,38.574,52.734,47.852,0
1542906462.565,59.570,43.945,30.273,49.805,60.059,0
1542906462.569,54.199,45.898,28.809,56.641,60.059,0
1542906462.573,58.105,55.664,27.344,60.547,27.832,0
1542906462.577,65.918,52.734,26.855,60.059,-0.977,0
1542906462.580,55.664,39.062,26.367,58.105,5.371,0
1542906462.584,58.105,34.180,29.297,59.570,-2.930,0
1542906462.588,67.383,37.109,31.738,53.223,29.297,0
1542906462.592,60.547,39.551,29.785,56.152,11.719,0
1542906462.596,64.941,37.109,32.227,65.918,-10.254,0
1542906462.600,71.289,33.203,35.156,55.664,12.695,0
1542906462.604,65.430,39.551,37.109,45.898,6.836,0
1542906462.608,59.082,41.504,42.480,44.922,27.344,0
1542906462.612,60.059,44.434,40.039,47.852,44.434,0
1542906462.616,53.711,48.340,30.762,50.781,71.777,0
1542906462.619,51.758,42.969,28.320,53.711,68.359,0
1542906462.623,63.477,41.016,35.156,50.781,21.973,0
1542906462.627,66.406,47.852,45.410,54.199,40.039,0
1542906462.631,63.965,51.270,58.105,56.152,62.500,0
1542906462.635,61.035,48.828,59.082,56.152,33.691,0
1542906462.639,64.453,58.105,60.547,62.500,44.922,0
1542906462.643,61.035,54.688,59.082,50.293,84.961,0
1542906462.647,60.059,53.711,57.129,47.363,24.414,0
1542906462.651,62.988,67.871,75.195,45.898,7.812,0
1542906462.655,34.668,49.805,81.543,21.973,33.203,0
1542906462.659,42.480,41.016,83.008,41.992,-6.836,0
1542906462.662,53.711,75.195,90.820,42.480,13.184,0
1542906462.666,0.488,87.891,95.703,-23.926,46.387,0
1542906462.670,-48.340,86.426,99.609,-60.059,17.578,0
1542906462.674,-64.941,97.656,113.281,-75.195,-16.602,0
1542906462.678,-68.359,98.633,127.441,-94.238,34.668,0
1542906462.682,-86.426,111.816,119.629,-117.676,74.219,0
1542906462.686,-118.164,126.465,122.070,-152.344,28.320,0
1542906462.690,-129.883,124.023,135.742,-158.691,-5.859,0
1542906462.694,-134.277,118.164,140.137,-163.086,-22.461,0
1542906462.698,-165.039,122.070,129.883,-182.129,-30.273,0
1542906462.702,-167.480,129.395,122.070,-175.781,-10.254,0
1542906462.705,-143.066,139.160,123.535,-154.297,4.883,0
1542906462.709,-146.973,148.438,108.398,-167.480,-14.648,0
1542906462.713,-142.578,137.695,105.957,-169.922,21.973,0
1542906462.717,-109.375,133.789,116.699,-136.719,11.230,0
1542906462.721,-104.980,135.742,102.539,-131.348,-13.672,0
1542906462.725,-97.168,108.398,88.379,-127.441,19.531,0
1542906462.729,-67.383,86.914,93.262,-99.609,91.309,0
1542906462.733,-55.664,101.074,90.332,-77.637,62.012,0
1542906462.737,-41.992,116.699,69.824,-74.707,17.090,0
1542906462.741,-16.113,116.699,44.434,-52.246,77.148,0
1542906462.744,19.531,101.562,40.039,-4.395,53.711,0
1542906462.748,32.715,77.637,41.504,14.160,71.289,0
1542906462.752,36.133,70.312,29.297,24.414,77.637,0
1542906462.756,75.684,55.664,18.555,63.477,51.270,0
1542906462.760,98.145,40.039,9.766,78.613,58.594,0
1542906462.764,82.520,33.203,-7.324,66.895,3.418,0
1542906462.768,92.285,23.926,-17.578,78.125,10.742,0
1542906462.772,97.656,33.691,-19.043,88.379,34.668,0
1542906462.776,100.586,36.133,-15.625,89.844,23.926,0
1542906462.780,125.000,21.484,-21.484,104.004,74.219,0
1542906462.784,127.930,16.602,-31.738,116.211,78.613,0
1542906462.787,125.488,22.461,-30.762,116.699,43.457,0
1542906462.791,139.160,19.043,-25.879,115.723,10.254,0
1542906462.795,144.531,10.254,-29.785,112.793,25.391,0
1542906462.799,150.879,14.648,-31.250,113.770,33.691,0
1542906462.803,151.855,17.090,-31.738,126.465,47.363,0
1542906462.807,144.043,16.113,-33.203,135.742,54.688,0
1542906462.811,142.578,20.508,-36.621,124.512,54.688,0
1542906462.815,156.250,16.602,-31.738,124.023,82.520,0
1542906462.819,156.250,15.137,-28.320,125.488,67.871,0
1542906462.823,135.254,14.160,-29.785,118.164,29.297,0
1542906462.827,129.883,8.789,-19.531,121.582,5.371,0
1542906462.830,136.230,17.090,-7.812,124.512,43.945,0
1542906462.834,142.090,18.555,-5.371,126.953,22.949,0
1542906462.838,145.996,7.812,-16.113,127.930,-4.883,0
1542906462.842,137.207,11.719,-26.855,117.676,5.859,0
1542906462.846,120.117,10.254,-20.996,105.469,9.277,0
1542906462.850,123.047,-6.348,-12.207,110.840,63.477,0
1542906462.854,127.441,4.883,-10.254,108.398,80.566,0
1542906462.858,132.812,28.320,-10.254,101.074,37.598,0
1542906462.862,127.930,32.715,-1.953,111.816,21.484,0
1542906462.866,106.445,23.438,-12.695,108.398,1.953,0
1542906462.869,104.492,10.254,-19.531,96.680,48.828,0
1542906462.873,117.676,14.160,1.953,102.539,95.215,0
1542906462.877,130.371,27.832,14.648,111.816,78.613,0
1542906462.881,128.906,23.926,7.324,106.445,110.352,0
1542906462.885,118.652,16.113,4.883,100.098,55.664,0
1542906462.889,116.211,21.973,16.113,107.910,46.875,0
1542906462.893,116.699,27.832,9.277,112.305,49.316,0
1542906462.897,114.746,28.809,0.000,112.305,-23.926,0
1542906462.901,123.535,27.344,1.465,111.328,33.691,0
1542906462.905,116.699,17.578,-1.465,102.539,79.102,0
1542906462.909,111.328,16.113,12.207,98.145,53.223,0
1542906462.912,103.516,21.484,21.973,98.145,77.148,0
1542906462.916,102.539,35.156,22.949,91.797,84.961,0
1542906462.920,114.746,40.039,22.949,97.656,6.836,0
1542906462.924,97.168,27.344,17.090,96.680,19.531,0
1542906462.928,77.148,20.996,5.371,87.402,18.066,0
1542906462.932,77.148,20.996,-3.418,87.402,39.062,0
1542906462.936,86.914,11.719,4.395,83.496,87.891,0
1542906462.940,97.656,17.090,21.484,89.355,32.227,0
1542906462.944,112.793,33.691,29.297,96.680,-0.977,0
1542906462.948,114.746,36.133,36.621,102.539,23.438,0
1542906462.952,104.492,45.898,30.273,106.445,38.086,0
1542906462.955,131.348,48.828,-0.977,118.164,-4.883,0
1542906462.959,131.836,31.738,7.812,114.258,-42.480,0
1542906462.963,82.031,17.090,33.203,77.637,-11.230,0
1542906462.967,63.477,16.113,27.344,67.871,46.387,0
1542906462.971,74.707,13.184,28.809,81.055,67.871,0
1542906462.975,85.449,16.113,35.645,88.379,68.359,0
1542906462.979,92.285,15.625,33.691,101.562,65.430,0
1542906462.983,111.816,6.836,38.574,108.398,77.637,0
1542906462.987,116.699,4.883,49.805,109.863,44.922,0
1542906462.991,117.188,-0.488,41.016,122.070,-15.137,0
1542906462.994,129.883,-7.324,33.691,126.465,4.395,0
1542906462.998,126.465,-1.953,41.504,127.441,-17.090,0
1542906463.002,135.742,7.812,36.133,142.578,-50.293,0
1542906463.006,142.090,7.812,27.832,138.672,35.645,0
1542906463.010,130.859,-6.836,37.109,123.047,60.547,0
1542906463.014,118.652,-19.043,46.387,124.512,56.641,0
1542906463.018,130.859,3.906,47.852,135.742,48.828,0
1542906463.022,129.395,15.137,43.945,133.789,-27.344,0
1542906463.026,113.281,17.090,38.574,126.465,32.227,0
1542906463.030,113.770,29.297,37.598,126.465,48.340,0
1542906463.034,111.328,32.715,37.598,124.023,26.367,0
1542906463.037,106.934,31.738,41.504,117.188,78.613,0
1542906463.041,104.492,29.297,46.875,104.980,60.547,0
1542906463.045,95.215,23.438,41.504,93.262,52.246,0
1542906463.049,83.496,7.812,39.062,91.309,57.617,0
1542906463.053,99.121,2.441,41.016,101.562,0.000,0
1542906463.057,113.770,17.578,49.316,97.168,-11.719,0
1542906463.061,108.398,26.855,51.270,86.914,28.809,0
1542906463.065,101.562,36.133,48.340,91.797,45.898,0
1542906463.069,89.844,41.992,51.270,102.539,44.922,0
1542906463.073,97.168,43.457,49.805,109.375,47.852,0
1542906463.077,94.238,42.969,39.062,104.004,100.586,0
1542906463.080,85.938,34.668,43.945,100.586,99.609,0
1542906463.084,90.332,22.461,50.781,92.773,41.992,0
1542906463.088,88.867,21.973,46.387,89.844,35.645,0
1542906463.092,85.938,30.762,50.293,89.355,53.223,0
1542906463.096,85.449,35.156,50.293,81.055,62.012,0
1542906463.100,93.750,37.598,38.086,85.938,47.363,0
1542906463.104,94.727,36.621,42.480,83.984,61.523,0
1542906463.108,85.938,38.574,45.410,78.613,40.527,0
1542906463.112,87.891,47.363,41.504,80.566,30.273,0
1542906463.116,98.145,51.758,49.316,89.844,28.320,0
1542906463.119,96.191,56.152,48.828,91.309,54.199,0
1542906463.123,80.566,49.805,41.016,76.660,81.055,0
1542906463.127,68.359,40.039,38.574,64.453,44.922,0
1542906463.131,73.730,37.109,41.504,65.918,43.457,0
1542906463.135,76.660,28.320,40.039,69.336,50.293,0
1542906463.139,77.637,24.414,42.480,67.383,51.270,0
1542906463.143,84.961,35.156,35.156,67.871,35.645,0
1542906463.147,80.078,45.898,18.555,67.383,37.109,0
1542906463.151,78.125,39.062,23.438,72.754,82.520,0
1542906463.155,79.590,40.039,41.992,83.008,32.715,0
1542906463.159,72.754,49.316,56.152,74.219,13.672,0
1542906463.162,72.754,45.410,56.641,58.594,61.035,0
1542906463.166,69.824,43.457,48.340,62.500,49.316,0
1542906463.170,62.500,41.992,38.086,62.988,23.438,0
1542906463.174,74.219,39.551,34.180,56.152,26.367,0
1542906463.178,77.148,34.668,31.250,62.500,20.020,0
1542906463.182,55.664,30.762,30.273,73.242,52.246,0
1542906463.186,67.871,33.691,24.414,85.449,11.230,0
1542906463.190,101.074,45.898,23.438,100.098,25.879,0
1542906463.194,71.777,44.434,55.176,69.336,47.363,0
1542906463.198,53.223,29.297,63.477,47.363,-4.883,0
1542906463.202,77.148,22.461,56.641,75.684,8.301,0
1542906463.205,62.012,24.414,44.922,63.965,17.578,0
1542906463.209,69.824,26.367,26.855,65.430,57.617,0
1542906463.213,86.914,26.855,35.645,71.289,18.555,0
1542906463.217,81.543,26.367,33.203,73.730,-4.883,0
1542906463.221,98.633,21.973,19.531,88.379,62.012,0
1542906463.225,106.934,24.414,26.855,77.637,17.090,0
1542906463.229,93.262,30.273,37.109,67.871,11.230,0
1542906463.233,71.777,26.855,41.992,75.195,1.465,0
1542906463.237,59.570,31.250,44.922,77.148,-49.805,0
1542906463.241,73.730,35.645,44.434,75.684,-5.859,0
1542906463.244,75.684,28.320,41.992,74.219,52.246,0
1542906463.248,75.195,35.156,40.039,67.871,62.500,0
1542906463.252,90.820,50.781,34.668,78.125,75.684,0
1542906463.256,85.938,32.715,25.879,80.078,134.277,0
1542906463.260,78.125,23.438,24.414,77.637,117.676,0
1542906463.264,79.102,33.203,34.180,72.266,39.551,0
1542906463.268,78.613,37.598,41.016,63.477,8.301,0
1542906463.272,89.355,49.805,46.875,77.148,8.789,0
1542906463.276,84.473,38.574,43.457,79.590,39.551,0
1542906463.280,77.148,29.297,36.133,65.430,23.438,0
1542906463.284,86.426,39.551,37.598,60.059,19.043,0
1542906463.287,70.801,28.809,29.297,61.035,25.391,0
1542906463.291,63.477,22.949,30.762,65.918,40.039,0
1542906463.295,71.777,32.715,37.598,63.965,75.195,0
1542906463.299,62.012,33.203,33.691,58.105,54.199,0
1542906463.303,67.871,47.852,42.969,62.012,44.434,0
1542906463.307,78.613,43.945,47.363,65.918,41.504,0
1542906463.311,74.707,26.855,41.016,62.500,17.090,0
1542906463.315,67.383,29.785,41.504,66.406,-12.207,0
1542906463.319,63.477,35.645,36.621,64.453,-55.664,0
1542906463.323,71.777,29.297,28.320,65.918,-0.488,0
1542906463.327,77.148,27.344,27.832,71.777,36.133,0
1542906463.330,78.125,42.480,32.715,67.383,12.695,0
1542906463.334,86.426,50.781,36.621,75.684,26.855,0
1542906463.338,81.543,43.945,35.645,69.824,44.434,0
1542906463.342,71.289,43.945,32.227,57.617,58.594,0
1542906463.346,74.219,56.641,41.016,68.359,28.809,0
1542906463.350,79.102,41.016,27.344,71.289,17.578,0
1542906463.354,100.586,34.180,20.508,95.703,86.914,0
1542906463.358,83.008,43.457,45.898,87.402,98.145,0
1542906463.362,30.762,29.297,52.246,24.902,72.754,0
1542906463.366,25.391,23.926,34.180,9.277,29.785,0
1542906463.369,23.926,25.879,34.180,19.043,28.320,0
1542906463.373,3.906,24.902,43.457,0.488,72.266,0
1542906463.377,-13.184,26.367,43.945,-19.043,65.430,0
1542906463.381,-39.551,17.578,54.199,-41.504,16.602,0
1542906463.385,-45.410,13.184,52.734,-46.875,-7.324,0
1542906463.389,-34.180,19.531,47.852,-41.016,5.859,0
1542906463.393,-23.438,23.926,47.363,-35.645,72.266,0
1542906463.397,-2.930,34.668,43.945,-18.066,64.941,0
1542906463.401,7.324,38.574,45.410,-6.348,39.551,0
1542906463.405,-4.395,37.109,44.922,-7.812,52.734,0
1542906463.409,2.441,41.504,43.945,5.859,12.695,0
1542906463.412,13.184,39.551,38.086,21.973,54.688,0
1542906463.416,10.254,26.855,35.645,19.531,108.398,0
1542906463.420,22.461,11.719,43.457,24.414,45.410,0
1542906463.424,21.484,16.113,31.738,26.855,36.133,0
1542906463.428,27.832,40.039,24.902,16.113,38.574,0
1542906463.432,43.945,56.641,40.527,20.508,44.434,0
1542906463.436,44.434,58.594,48.340,25.391,25.879,0
1542906463.440,35.156,52.734,43.945,20.020,-20.508,0
1542906463.444,22.461,38.574,37.598,17.578,7.812,0
1542906463.448,24.902,30.273,37.109,17.578,23.926,0
1542906463.452,31.738,31.738,37.598,23.926,12.207,0
1542906463.455,23.438,34.668,35.156,30.273,30.762,0
1542906463.459,21.484,31.250,29.785,27.344,24.414,0
1542906463.463,28.809,36.621,30.273,29.297,-22.461,0
1542906463.467,36.133,27.832,27.832,35.645,0.977,0
1542906463.471,42.480,23.926,28.809,41.504,38.086,0
1542906463.475,44.922,40.527,39.551,41.016,43.945,0
1542906463.479,44.434,44.922,38.574,38.574,33.691,0
1542906463.483,44.434,49.805,41.016,41.992,19.531,0
1542906463.487,54.688,55.664,45.898,44.922,25.391,0
1542906463.491,50.293,49.805,29.297,39.551,79.102,0
1542906463.494,48.828,38.086,24.414,32.227,72.754,0
1542906463.498,57.129,30.762,30.273,35.156,17.090,0
1542906463.502,68.848,37.109,26.367,50.781,-1.465,0
1542906463.506,106.445,49.805,22.461,78.613,11.719,0
1542906463.510,100.098,49.805,22.949,80.078,19.531,0
1542906463.514,30.762,29.297,26.855,29.785,1.465,0
1542906463.518,6.348,28.809,28.809,4.395,22.949,0
1542906463.522,23.926,40.527,36.133,12.207,26.367,0
1542906463.526,17.090,33.691,41.992,5.371,28.320,0
1542906463.530,3.418,24.902,42.969,-7.812,55.176,0
1542906463.534,0.000,31.250,45.898,-2.441,31.738,0
1542906463.537,6.348,55.664,42.480,5.859,-26.855,0
1542906463.541,1.465,50.781,28.809,-6.836,7.812,0
1542906463.545,0.000,34.180,29.785,-13.184,52.734,0
1542906463.549,10.742,25.879,30.273,0.000,42.480,0
1542906463.553,19.043,29.785,30.273,16.113,51.270,0
1542906463.557,33.203,44.434,33.203,16.602,68.359,0
1542906463.561,49.316,42.969,28.809,25.879,70.801,0
1542906463.565,58.594,33.203,23.438,40.527,16.602,0
1542906463.569,58.105,33.203,33.691,42.480,10.254,0
1542906463.573,44.434,33.203,27.344,38.574,40.039,0
1542906463.577,36.621,34.180,10.742,26.855,25.879,0
1542906463.580,60.547,52.246,38.086,27.344,5.859,0
1542906463.584,54.688,65.918,51.270,32.227,7.812,0
1542906463.588,28.809,56.152,32.227,26.367,48.828,0
1542906463.592,36.133,57.617,27.832,38.086,38.086,0
1542906463.596,56.152,62.012,34.668,45.410,41.504,0
1542906463.600,64.453,48.340,37.598,40.039,93.750,0
1542906463.604,60.059,34.668,25.879,43.945,103.027,0
1542906463.608,64.453,56.152,20.020,46.875,107.910,0
1542906463.612,55.176,55.176,14.160,39.062,71.289,0
1542906463.616,48.340,32.715,10.254,37.598,40.527,0
1542906463.619,54.688,43.457,25.879,40.527,17.090,0
1542906463.623,39.062,48.340,35.156,33.691,20.508,0
1542906463.627,42.480,54.199,45.898,49.316,23.438,0
1542906463.631,49.805,56.641,55.176,52.246,-18.555,0
1542906463.635,46.387,44.922,48.828,40.039,-0.977,0
1542906463.639,51.758,48.828,37.109,45.410,41.016,0
1542906463.643,57.129,43.945,21.973,39.551,66.406,0
1542906463.647,60.059,39.551,31.738,37.598,74.219,0
1542906463.651,62.500,49.316,41.992,47.363,-24.414,0
1542906463.655,67.871,40.039,26.855,44.922,-76.172,0
1542906463.659,69.824,37.109,23.438,46.387,17.090,0
1542906463.662,69.824,42.480,29.297,53.711,60.059,0
1542906463.666,75.195,41.992,33.691,53.223,54.688,0
1542906463.670,81.055,51.270,36.133,54.688,39.062,0
1542906463.674,66.406,43.945,27.832,55.664,32.715,0
1542906463.678,76.660,28.809,22.949,61.035,67.383,0
1542906463.682,113.770,53.711,38.086,77.637,33.691,0
1542906463.686,82.031,63.477,50.781,67.383,6.348,0
1542906463.690,29.297,54.199,43.945,36.621,-11.230,0
1542906463.694,20.996,54.688,37.598,16.602,-18.066,0
1542906463.698,31.738,54.688,28.809,12.695,76.172,0
1542906463.702,39.062,53.711,21.484,20.020,39.062,0
1542906463.705,35.156,51.758,24.902,20.996,-20.508,0
1542906463.709,41.016,53.223,34.180,24.414,36.133,0
1542906463.713,44.434,46.875,37.109,27.832,24.414,0
1542906463.717,53.223,49.316,37.109,34.180,0.000,0
1542906463.721,62.012,42.480,36.621,36.621,66.895,0
1542906463.725,65.430,24.414,32.715,42.480,57.129,0
1542906463.729,67.383,43.457,26.855,50.781,-5.371,0
1542906463.733,60.059,55.664,21.484,52.734,10.742,0
1542906463.737,48.340,41.504,24.414,49.316,43.945,0
1542906463.741,45.898,42.969,31.738,45.898,46.875,0
1542906463.744,52.734,53.223,36.133,48.828,19.043,0
1542906463.748,55.176,58.105,44.922,48.828,34.180,0
1542906463.752,48.340,56.641,51.758,50.293,30.273,0
1542906463.756,44.434,34.180,41.016,49.805,48.828,0
1542906463.760,64.453,45.898,35.645,54.199,17.090,0
1542906463.764,63.477,61.035,38.086,61.035,13.184,0
1542906463.768,46.387,26.855,33.203,51.758,28.320,0
1542906463.772,54.199,30.762,41.992,44.922,20.508,0
1542906463.776,44.922,48.340,40.039,45.898,22.949,0
1542906463.780,38.086,48.828,28.809,43.457,22.461,0
1542906463.784,55.664,59.082,34.180,43.457,-1.953,0
1542906463.787,69.824,58.105,42.480,48.340,25.391,0
1542906463.791,61.035,48.340,29.785,41.992,71.289,0
1542906463.795,61.523,45.898,21.484,38.086,42.969,0
1542906463.799,62.988,38.574,33.691,44.434,39.551,0
1542906463.803,49.805,33.691,33.203,37.109,54.688,0
1542906463.807,60.547,48.828,27.344,38.574,80.078,0
1542906463.811,64.453,66.406,33.691,51.758,94.727,0
1542906463.815,44.434,54.688,40.039,45.898,81.055,0
1542906463.819,37.598,43.945,41.504,39.062,52.246,0
1542906463.823,54.199,55.664,43.945,54.199,37.598,0
1542906463.827,61.035,51.270,31.250,57.129,29.297,0
1542906463.830,58.105,40.039,20.996,46.875,30.273,0
1542906463.834,71.289,45.898,34.668,49.316,28.809,0
1542906463.838,76.172,48.828,38.086,44.922,10.742,0
1542906463.842,75.684,41.992,41.016,46.875,-13.184,0
1542906463.846,91.797,38.574,41.504,43.945,14.160,0
1542906463.850,68.848,45.898,33.203,46.387,92.773,0
1542906463.854,28.809,46.387,31.250,52.246,31.250,0
1542906463.858,41.504,42.480,38.086,50.293,-4.395,0
1542906463.862,48.340,39.551,40.039,50.293,33.691,0
1542906463.866,40.039,28.809,38.086,51.270,54.199,0
1542906463.869,41.016,32.227,38.574,52.734,105.469,0
1542906463.873,58.105,50.781,38.574,58.105,96.680,0
1542906463.877,69.336,50.781,38.086,60.547,28.809,0
1542906463.881,50.781,29.785,40.527,54.199,62.500,0
1542906463.885,51.270,37.598,34.180,57.129,53.223,0
1542906463.889,66.895,43.945,21.973,56.152,44.434,0
1542906463.893,70.312,44.922,39.062,52.734,26.855,0
1542906463.897,70.312,40.039,55.664,50.781,10.254,0
1542906463.901,61.523,30.273,46.387,44.922,-12.695,0
1542906463.905,51.270,37.598,39.551,41.504,-2.441,0
1542906463.909,51.270,42.480,36.133,44.922,101.562,0
1542906463.912,58.105,53.223,41.504,52.734,27.832,0
1542906463.916,69.824,56.641,40.527,57.617,-10.742,0
1542906463.920,72.754,38.086,23.926,48.828,76.660,0
1542906463.924,72.266,34.180,19.043,42.480,120.117,0
1542906463.928,67.871,34.668,25.879,48.340,48.828,0
1542906463.932,51.270,42.969,36.133,51.270,20.508,0
1542906463.936,44.922,50.781,33.203,47.852,40.039,0
1542906463.940,55.176,41.504,23.926,57.617,24.414,0
1542906463.944,56.641,35.645,27.344,62.988,41.504,0
1542906463.948,61.523,41.016,34.668,51.758,38.574,0
1542906463.952,66.406,42.969,40.039,43.945,41.504,0
1542906463.955,60.547,37.109,41.016,46.387,62.012,0
1542906463.959,64.941,36.133,32.715,54.688,-17.578,0
1542906463.963,75.684,41.504,36.621,53.711,-33.203,0
1542906463.967,78.613,42.969,41.992,49.805,38.086,0
1542906463.971,56.152,35.645,36.621,49.805,60.547,0
1542906463.975,49.805,47.363,37.109,52.734,9.277,0
1542906463.979,53.223,52.246,47.363,51.270,14.160,0
1542906463.983,36.621,35.156,33.203,39.551,81.055,0
1542906463.987,38.574,36.621,18.066,43.945,85.938,0
1542906463.991,85.938,28.320,32.227,84.961,81.543,0
1542906463.994,119.141,35.645,40.527,106.445,87.402,0
1542906463.998,83.496,61.523,33.203,59.570,14.648,0
1542906464.002,58.105,57.129,23.926,18.555,1.465,0
1542906464.006,78.125,47.363,19.043,37.598,20.020,0
1542906464.010,82.031,46.875,17.090,57.129,6.836,0
1542906464.014,45.898,45.898,15.137,45.410,20.508,0
1542906464.018,43.457,48.828,12.695,47.852,51.758,0
1542906464.022,64.453,63.477,5.371,64.941,29.297,0
1542906464.026,82.031,82.520,1.465,69.824,18.555,0
1542906464.030,105.469,78.613,-0.977,76.172,37.109,0
1542906464.034,112.793,73.730,0.977,73.242,57.617,0
1542906464.037,111.816,70.801,-3.906,72.754,76.660,0
1542906464.041,113.770,70.801,-8.301,80.078,28.320,0
1542906464.045,104.492,84.961,-6.348,66.895,31.738,0
1542906464.049,96.680,87.402,-10.254,65.918,30.273,0
1542906464.053,103.516,82.031,-12.695,76.660,-7.324,0
1542906464.057,111.816,89.355,-18.555,86.426,42.969,0
1542906464.061,103.516,89.355,-22.949,73.242,49.805,0
1542906464.065,112.305,75.684,-26.855,62.500,41.992,0
1542906464.069,142.090,84.961,-30.762,85.449,53.711,0
1542906464.073,125.000,93.262,-21.973,85.938,23.438,0
1542906464.077,114.258,83.008,-12.207,73.242,-23.926,0
1542906464.080,109.863,82.520,-9.277,77.148,64.453,0
1542906464.084,92.773,81.055,-11.719,83.496,94.238,0
1542906464.088,116.211,72.754,-11.719,73.730,-1.953,0
1542906464.092,122.559,61.523,-4.395,65.918,45.898,0
1542906464.096,110.840,64.453,5.859,76.172,100.098,0
1542906464.100,105.469,75.684,7.812,83.008,51.758,0
1542906464.104,90.332,69.824,11.230,84.961,69.824,0
1542906464.108,88.379,64.941,12.695,86.426,68.848,0
1542906464.112,83.984,63.965,12.207,80.078,25.879,0
1542906464.116,85.938,65.918,16.113,84.473,54.199,0
1542906464.119,101.074,75.684,15.137,86.426,89.355,0
1542906464.123,104.492,84.473,16.602,78.125,24.902,0
1542906464.127,119.141,75.684,28.320,96.191,1.953,0
1542906464.131,143.555,57.129,26.855,93.750,68.359,0
1542906464.135,119.141,46.875,10.254,62.500,65.430,0
1542906464.139,87.891,55.664,15.625,59.570,27.832,0
1542906464.143,87.402,74.219,26.855,68.359,19.531,0
1542906464.147,84.961,74.219,31.250,68.848,25.391,0
1542906464.151,80.566,66.895,34.668,67.383,13.672,0
1542906464.155,79.102,61.035,29.297,65.918,31.250,0
1542906464.159,80.566,56.641,22.949,58.594,48.340,0
1542906464.162,93.750,64.941,24.902,56.641,27.832,0
1542906464.166,94.727,61.523,27.344,56.152,13.672,0
1542906464.170,73.242,53.711,23.926,60.059,28.320,0
1542906464.174,53.223,60.059,30.762,68.359,43.457,0
1542906464.178,51.758,55.664,41.016,60.547,23.926,0
1542906464.182,63.477,51.270,35.645,57.617,47.852,0
1542906464.186,74.707,51.758,28.809,63.477,87.402,0
1542906464.190,68.359,46.387,27.832,55.176,78.613,0
1542906464.194,62.012,54.199,20.020,49.805,44.434,0
1542906464.198,64.453,64.453,13.184,53.711,36.133,0
1542906464.202,74.707,64.941,23.926,60.547,57.617,0
1542906464.205,76.172,60.547,36.133,62.012,27.344,0
1542906464.209,70.312,56.152,37.109,60.547,8.301,0
1542906464.213,77.637,53.711,41.504,62.012,23.438,0
1542906464.217,83.984,54.199,47.363,64.941,51.758,0
1542906464.221,85.449,45.898,37.598,61.035,52.246,0
1542906464.225,94.727,43.945,28.809,52.246,33.691,0
1542906464.229,75.684,46.387,32.715,53.711,58.105,0
1542906464.233,50.781,44.434,33.691,52.734,138.672,0
1542906464.237,56.641,50.781,34.668,57.617,92.285,0
1542906464.241,56.152,47.852,45.410,60.547,13.184,0
1542906464.244,54.199,42.969,41.992,54.199,28.320,0
1542906464.248,51.758,53.223,25.391,52.246,32.715,0
1542906464.252,37.598,56.641,24.414,49.805,36.621,0
1542906464.256,37.109,45.898,39.062,46.875,9.766,0
1542906464.260,47.363,55.664,52.734,64.453,40.039,0
1542906464.264,44.434,40.527,39.551,68.359,57.617,0
1542906464.268,45.410,9.277,16.602,42.969,51.758,0
1542906464.272,57.617,23.926,11.230,41.016,38.574,0
1542906464.276,68.848,30.762,17.578,54.199,35.645,0
1542906464.280,99.609,37.598,31.738,83.496,26.367,0
1542906464.284,83.984,61.523,39.551,72.754,30.273,0
1542906464.287,25.879,67.871,39.551,20.020,9.766,0
1542906464.291,42.969,64.453,33.691,31.738,-22.461,0
1542906464.295,67.383,66.895,19.531,43.945,-9.277,0
1542906464.299,80.078,51.758,16.113,47.852,6.836,0
1542906464.303,104.004,54.688,14.160,66.406,73.730,0
1542906464.307,90.332,65.430,5.371,55.176,59.570,0
1542906464.311,95.215,54.199,8.789,64.941,-11.230,0
1542906464.315,99.121,55.176,6.348,69.824,33.691,0
1542906464.319,92.285,64.941,3.906,72.266,49.316,0
1542906464.323,104.492,67.871,5.371,88.867,48.340,0
1542906464.327,112.793,63.477,1.465,86.914,47.363,0
1542906464.330,119.141,61.523,8.301,89.355,62.988,0
1542906464.334,122.559,56.641,14.648,93.262,79.590,0
1542906464.338,113.770,52.246,5.371,90.332,38.086,0
1542906464.342,90.820,62.012,-1.465,78.125,50.781,0
1542906464.346,101.074,81.055,17.578,85.449,85.449,0
1542906464.350,115.234,85.449,33.691,97.656,62.500,0
1542906464.354,84.473,63.477,20.996,76.660,11.230,0
1542906464.358,82.031,67.383,22.461,78.613,47.852,0
1542906464.362,92.285,68.359,24.902,79.102,53.223,0
1542906464.366,83.008,43.945,20.020,68.848,43.457,0
1542906464.369,81.055,47.852,21.484,72.266,47.852,0
1542906464.373,95.215,66.895,30.273,74.707,71.777,0
1542906464.377,110.352,65.918,34.180,73.242,49.316,0
1542906464.381,111.816,62.500,25.879,72.754,19.531,0
1542906464.385,103.516,62.012,28.809,77.148,13.672,0
1542906464.389,94.727,62.012,23.438,80.078,1.465,0
1542906464.393,81.543,62.988,26.855,78.613,3.418,0
1542906464.397,77.148,63.965,41.504,83.984,29.785,0
1542906464.401,80.078,63.477,35.156,84.961,55.176,0
1542906464.405,81.055,52.734,32.227,73.730,28.320,0
1542906464.409,88.867,52.246,30.762,78.613,2.441,0
1542906464.412,99.121,57.617,27.832,78.613,0.488,0
1542906464.416,98.633,55.176,36.621,74.707,15.625,0
1542906464.420,98.633,50.781,40.527,73.730,49.805,0
1542906464.424,96.680,44.434,36.621,67.871,50.781,0
1542906464.428,92.773,48.828,30.762,65.918,31.738,0
1542906464.432,87.891,55.664,27.344,73.730,29.785,0
1542906464.436,74.219,59.570,32.227,73.730,28.320,0
1542906464.440,79.590,65.918,37.109,80.566,11.230,0
1542906464.444,88.867,62.500,27.344,84.473,13.184,0
1542906464.448,91.309,38.086,26.855,73.242,9.766,0
1542906464.452,89.844,34.668,30.273,70.801,-8.789,0
1542906464.455,88.379,39.551,28.320,74.219,-3.906,0
1542906464.459,87.891,42.480,30.273,68.848,8.789,0
1542906464.463,92.285,62.988,31.738,59.570,15.137,0
1542906464.467,89.844,68.359,38.086,62.012,-46.387,0
1542906464.471,74.219,63.477,41.016,63.965,-83.008,0
1542906464.475,62.012,57.129,38.086,69.336,-55.176,0
1542906464.479,53.223,52.734,45.410,69.336,-29.785,0
1542906464.483,56.152,51.758,38.574,67.383,85.938,0
1542906464.487,91.797,57.129,22.949,90.332,115.234,0
1542906464.491,101.562,57.129,38.086,97.168,25.879,0
1542906464.494,47.852,47.363,62.500,41.504,-19.043,0
1542906464.498,-2.441,47.852,61.035,-3.418,-21.484,0
1542906464.502,0.488,51.758,62.988,0.977,-12.695,0
1542906464.506,10.254,62.012,68.848,-16.113,20.020,0
1542906464.510,-13.672,65.430,69.824,-55.664,42.480,0
1542906464.514,-38.574,63.965,73.730,-58.594,39.062,0
1542906464.518,-42.480,68.359,78.613,-49.316,24.414,0
1542906464.522,-62.012,72.754,83.008,-69.336,65.430,0
1542906464.526,-78.613,76.172,82.031,-96.680,84.961,0
1542906464.530,-74.707,78.613,82.520,-91.797,46.875,0
1542906464.534,-87.891,78.125,83.984,-83.984,67.383,0
1542906464.537,-92.773,68.848,82.031,-88.867,27.344,0
1542906464.541,-81.055,66.895,75.684,-83.496,21.484,0
1542906464.545,-76.660,74.707,72.266,-81.055,71.289,0
1542906464.549,-77.637,71.777,74.707,-92.773,11.719,0
1542906464.553,-71.777,85.938,75.684,-94.238,-27.344,0
1542906464.557,-58.105,111.816,81.055,-76.660,52.734,0
1542906464.561,-41.992,109.863,85.449,-58.105,79.590,0
1542906464.565,-35.156,84.961,69.824,-51.758,90.820,0
1542906464.569,-42.480,57.617,48.828,-43.457,69.336,0
1542906464.573,-33.691,58.105,52.246,-32.227,56.641,0
1542906464.577,-8.301,63.965,59.570,-32.715,44.922,0
1542906464.580,7.324,36.133,44.434,-25.879,21.484,0
1542906464.584,13.184,16.602,23.926,-14.160,46.387,0
1542906464.588,15.625,22.461,31.738,-3.906,27.832,0
1542906464.592,19.531,22.949,44.434,13.184,11.230,0
1542906464.596,12.695,15.137,40.039,14.160,55.176,0
1542906464.600,11.230,20.996,38.574,10.254,20.020,0
1542906464.604,24.414,28.809,39.062,17.578,18.555,0
1542906464.608,32.227,32.715,47.852,21.973,122.559,0
1542906464.612,41.016,39.062,61.523,41.016,87.891,0
1542906464.616,41.504,41.016,49.316,43.457,67.383,0
1542906464.619,29.297,32.715,40.527,24.414,74.219,0
1542906464.623,37.598,42.480,58.105,21.973,51.270,0
1542906464.627,43.457,53.711,67.383,5.859,56.641,0
1542906464.631,14.648,41.992,66.406,-19.043,38.574,0
1542906464.635,-22.949,52.246,80.078,-26.367,22.461,0
1542906464.639,-39.551,64.941,88.379,-48.340,20.996,0
1542906464.643,-42.480,59.082,92.773,-75.195,57.129,0
1542906464.647,-44.922,79.590,105.957,-76.172,80.566,0
1542906464.651,-71.777,105.469,104.980,-104.980,51.758,0
1542906464.655,-99.121,113.281,104.492,-131.836,31.250,0
1542906464.659,-120.117,107.910,98.145,-125.000,60.059,0
1542906464.662,-108.398,93.262,97.168,-89.844,35.156,0
1542906464.666,-78.613,91.797,99.121,-84.961,3.906,0
1542906464.670,-71.289,107.910,88.379,-103.027,29.297,0
1542906464.674,-59.570,103.027,76.172,-81.055,59.570,0
1542906464.678,-57.617,92.773,86.426,-78.125,83.008,0
1542906464.682,-46.875,96.680,76.660,-60.547,52.734,0
1542906464.686,-2.441,104.492,57.129,-18.066,40.527,0
1542906464.690,19.043,90.332,53.223,-7.812,111.328,0
1542906464.694,42.969,70.801,37.109,23.438,100.586,0
1542906464.698,78.125,72.754,22.461,48.828,72.754,0
1542906464.702,82.031,58.105,6.348,50.781,89.355,0
1542906464.705,98.633,34.180,-9.277,91.309,51.270,0
1542906464.709,105.957,41.016,-9.766,110.352,24.414,0
1542906464.713,108.887,38.574,-10.254,111.816,41.992,0
1542906464.717,158.203,29.785,-9.766,151.367,33.203,0
1542906464.721,159.668,26.855,-4.883,145.996,53.711,0
1542906464.725,149.414,24.414,-15.625,133.301,4.395,0
1542906464.729,157.227,11.719,-14.648,141.602,-48.828,0
1542906464.733,149.414,-1.465,-14.160,145.508,35.156,0
1542906464.737,163.086,9.766,-19.043,164.062,75.195,0
1542906464.741,177.734,-13.184,-16.602,160.645,21.973,0
1542906464.744,181.152,-35.645,-18.066,156.250,7.812,0
1542906464.748,171.875,-22.949,-13.672,161.133,5.859,0
1542906464.752,156.250,-7.812,-20.996,147.461,10.742,0
1542906464.756,162.109,10.742,-20.996,157.227,65.918,0
1542906464.760,169.434,2.930,-6.836,161.133,40.039,0
1542906464.764,175.293,0.488,-9.766,145.508,10.254,0
1542906464.768,173.340,11.719,-16.602,145.508,34.180,0
1542906464.772,156.738,6.348,-6.836,142.090,44.922,0
1542906464.776,145.508,12.695,-3.418,141.113,13.184,0
1542906464.780,148.926,11.230,-0.977,147.461,-14.160,0
1542906464.784,151.367,-1.953,-0.977,147.461,-76.660,0
1542906464.787,128.418,-11.719,-4.883,144.531,-26.855,0
1542906464.791,116.699,-17.090,-3.906,135.742,63.477,0
1542906464.795,117.676,-5.859,-7.812,125.000,18.555,0
1542906464.799,130.859,11.719,0.488,131.348,-18.066,0
1542906464.803,135.742,8.301,8.789,133.789,-33.203,0
1542906464.807,128.418,5.371,-3.418,125.000,25.391,0
1542906464.811,132.324,13.184,-3.418,119.629,36.621,0
1542906464.815,143.555,11.230,13.184,122.559,-0.977,0
1542906464.819,143.066,4.395,11.719,128.418,30.273,0
1542906464.823,134.277,3.906,6.348,135.254,17.090,0
1542906464.827,133.301,16.113,17.090,128.906,13.184,0
1542906464.830,117.188,16.113,20.996,112.793,62.988,0
1542906464.834,96.191,10.742,19.043,102.051,31.738,0
1542906464.838,104.980,19.043,16.602,103.027,40.527,0
1542906464.842,112.793,21.973,19.531,112.305,61.523,0
1542906464.846,110.840,16.113,27.344,115.234,53.711,0
1542906464.850,112.793,8.789,20.508,112.305,84.473,0
1542906464.854,110.840,9.766,16.602,114.746,38.574,0
1542906464.858,98.145,9.277,19.043,104.980,-19.531,0
1542906464.862,94.727,11.719,17.090,89.355,-18.555,0
1542906464.866,102.539,24.902,20.020,88.867,53.711,0
1542906464.869,103.027,29.297,24.902,89.844,84.473,0
1542906464.873,95.215,28.809,27.832,90.820,39.551,0
1542906464.877,90.820,31.738,30.762,94.727,34.180,0
1542906464.881,127.441,33.691,14.648,121.094,78.125,0
1542906464.885,152.344,30.762,17.090,145.508,58.105,0
1542906464.889,103.027,14.160,41.992,104.980,24.414,0
1542906464.893,84.961,1.465,46.387,79.102,31.738,0
1542906464.897,93.750,-5.859,49.316,85.449,33.203,0
1542906464.901,73.242,-4.395,51.270,67.871,47.852,0
1542906464.905,75.684,3.418,50.781,71.289,62.012,0
1542906464.909,61.035,0.977,62.500,72.754,55.176,0
1542906464.912,66.895,-5.371,72.266,80.566,63.477,0
1542906464.916,82.031,-14.648,85.938,86.426,19.043,0
1542906464.920,55.664,-26.367,87.891,64.453,0.977,0
1542906464.924,47.852,-41.016,75.684,63.477,88.379,0
1542906464.928,48.828,-45.898,81.055,69.336,144.043,0
1542906464.932,42.969,-31.738,91.797,72.754,78.613,0
1542906464.936,30.273,-29.297,94.727,74.219,-10.742,0
1542906464.940,20.020,-38.086,89.844,79.590,-67.383,0
1542906464.944,37.598,-38.086,83.008,92.285,-10.742,0
1542906464.948,53.711,-34.180,78.613,87.891,86.426,0
1542906464.952,62.988,-31.250,79.590,88.379,41.016,0
1542906464.955,60.547,-33.203,75.195,85.449,21.484,0
1542906464.959,58.105,-28.809,81.055,81.055,3.906,0
1542906464.963,72.266,-11.719,87.402,85.938,25.391,0
1542906464.967,76.660,-10.254,76.172,84.961,26.367,0
1542906464.971,70.801,-11.719,68.848,86.426,38.574,0
1542906464.975,62.012,1.953,68.848,74.707,63.965,0
1542906464.979,51.270,6.348,66.895,70.312,19.043,0
1542906464.983,59.082,12.207,72.754,88.379,42.969,0
1542906464.987,68.848,10.742,66.406,82.520,36.133,0
1542906464.991,65.918,0.000,56.641,75.195,7.812,0
1542906464.994,50.781,-1.465,56.152,69.824,22.949,0
1542906464.998,53.711,-3.906,58.105,60.059,41.992,0
1542906465.002,69.336,-3.906,55.664,72.266,56.152,0
1542906465.006,58.594,6.348,54.688,76.660,41.992,0
1542906465.010,52.734,14.648,55.176,71.777,3.418,0
1542906465.014,57.129,16.113,45.410,66.895,44.922,0
1542906465.018,72.266,25.879,52.734,65.918,57.129,0
1542906465.022,87.402,38.574,66.406,84.473,31.250,0
1542906465.026,55.664,24.902,58.105,79.102,15.137,0
1542906465.030,31.250,8.789,50.293,64.941,62.012,0
1542906465.034,41.504,8.789,47.852,70.801,114.746,0
1542906465.037,52.246,18.066,52.246,76.172,44.434,0
1542906465.041,62.500,23.438,54.199,73.242,-3.418,0
1542906465.045,71.289,21.973,45.898,68.359,-1.465,0
1542906465.049,73.242,30.273,43.945,62.012,5.859,0
1542906465.053,58.105,43.457,60.547,70.312,47.363,0
1542906465.057,44.922,37.598,56.152,67.871,30.762,0
1542906465.061,46.387,21.973,44.434,51.270,12.207,0
1542906465.065,50.781,25.879,55.176,62.500,61.035,0
1542906465.069,52.734,42.480,55.664,68.359,75.195,0
1542906465.073,40.039,31.250,34.668,56.152,75.684,0
1542906465.077,39.062,17.578,29.297,52.246,59.082,0
1542906465.080,41.504,18.555,37.109,50.781,47.363,0
1542906465.084,53.223,27.832,39.062,56.641,48.828,0
1542906465.088,71.289,42.480,43.945,65.430,68.848,0
1542906465.092,62.012,36.133,48.340,59.082,41.504,0
1542906465.096,40.527,24.414,46.875,49.316,40.527,0
1542906465.100,31.738,23.926,38.086,49.316,15.137,0
1542906465.104,45.410,40.527,37.598,55.176,8.789,0
1542906465.108,64.941,54.688,43.945,62.988,47.363,0
1542906465.112,51.270,35.645,35.156,52.246,46.875,0
1542906465.116,78.613,28.809,23.438,70.801,35.156,0
1542906465.119,112.793,40.527,36.133,100.586,21.484,0
1542906465.123,62.012,29.297,53.711,64.453,51.270,0
1542906465.127,30.273,14.648,53.223,41.016,66.406,0
1542906465.131,47.363,12.207,44.434,51.758,44.922,0
1542906465.135,55.176,12.695,48.340,49.316,60.547,0
1542906465.139,46.875,0.488,63.477,55.664,57.617,0
1542906465.143,41.016,-5.371,67.871,64.453,58.594,0
1542906465.147,29.297,-7.812,64.941,54.199,49.316,0
1542906465.151,35.645,-13.672,79.102,66.406,10.742,0
1542906465.155,39.062,-16.602,97.168,71.777,29.785,0
1542906465.159,27.344,-23.438,93.262,58.105,18.066,0
1542906465.162,34.668,-20.020,84.473,68.848,37.109,0
1542906465.166,40.527,-12.207,84.473,67.383,68.848,0
1542906465.170,29.785,-24.902,85.938,53.711,-14.648,0
1542906465.174,42.969,-34.668,85.449,66.406,-17.090,0
1542906465.178,56.152,-22.949,91.309,80.566,36.621,0
1542906465.182,40.039,-18.555,87.891,74.219,14.648,0
1542906465.186,50.781,-19.043,84.473,77.637,7.812,0
1542906465.190,62.500,-16.602,82.031,86.914,22.949,0
1542906465.194,52.246,-17.090,71.289,78.125,-2.930,0
1542906465.198,50.293,-1.953,69.336,76.172,27.344,0
1542906465.202,55.176,1.953,61.035,77.148,58.594,0
1542906465.205,61.035,-8.301,59.082,80.566,63.477,0
1542906465.209,54.688,-6.348,59.570,66.406,71.289,0
1542906465.213,48.828,1.953,57.129,51.758,18.555,0
1542906465.217,49.805,8.789,57.617,60.547,13.184,0
1542906465.221,47.852,12.695,59.570,61.523,77.637,0
1542906465.225,56.641,23.926,67.383,62.988,57.617,0
1542906465.229,64.453,25.391,75.195,65.918,39.062,0
1542906465.233,71.289,14.648,64.453,68.359,36.133,0
1542906465.237,88.379,14.160,54.688,68.848,-6.348,0
1542906465.241,87.891,12.695,50.293,70.801,-38.086,0
1542906465.244,52.734,4.395,46.387,73.730,-8.301,0
1542906465.248,33.203,4.395,50.293,71.289,6.836,0
1542906465.252,49.805,20.508,51.270,68.848,-18.066,0
1542906465.256,58.105,25.879,46.875,62.500,-5.859,0
1542906465.260,52.734,18.066,48.340,61.523,4.395,0
1542906465.264,45.898,23.926,45.898,67.871,38.574,0
1542906465.268,51.758,32.715,50.781,75.195,54.688,0
1542906465.272,60.059,25.879,58.594,77.148,9.766,0
1542906465.276,65.430,22.949,54.688,80.078,10.742,0
1542906465.280,67.871,36.133,50.293,81.055,54.199,0
1542906465.284,64.453,30.762,41.504,67.871,76.172,0
1542906465.287,67.871,25.391,47.363,71.289,69.336,0
1542906465.291,64.941,26.367,54.688,75.684,15.137,0
1542906465.295,57.129,23.438,47.852,67.383,0.977,0
1542906465.299,58.594,24.414,47.852,62.500,0.000,0
1542906465.303,62.988,22.949,41.016,54.688,20.996,0
1542906465.307,74.219,29.297,32.227,55.664,31.250,0
1542906465.311,100.098,42.969,31.738,72.266,44.434,0
1542906465.315,104.492,44.434,30.273,75.684,69.336,0
1542906465.319,95.703,33.691,23.438,71.777,4.395,0
1542906465.323,81.543,20.996,38.086,72.754,6.836,0
1542906465.327,59.570,19.043,53.223,72.754,35.156,0
1542906465.330,34.668,31.250,42.969,69.336,43.945,0
1542906465.334,25.879,32.715,32.715,54.199,29.297,0
1542906465.338,47.363,29.785,34.180,48.828,13.184,0
1542906465.342,51.270,35.645,43.457,41.504,46.387,0
1542906465.346,52.246,25.391,54.688,42.480,78.613,0
1542906465.350,58.105,9.277,55.176,45.898,90.820,0
1542906465.354,69.824,8.789,56.152,58.105,61.035,0
1542906465.358,70.801,9.766,56.641,64.453,61.523,0
1542906465.362,54.688,25.391,52.246,56.641,100.586,0
1542906465.366,57.617,47.852,50.293,55.664,74.707,0
1542906465.369,74.219,48.828,45.898,67.871,42.969,0
1542906465.373,82.031,40.527,35.156,64.941,88.379,0
1542906465.377,83.984,27.832,35.645,51.270,62.988,0
1542906465.381,73.242,30.273,43.945,51.758,43.945,0
1542906465.385,72.754,30.273,38.574,52.734,30.762,0
1542906465.389,88.379,27.832,30.762,61.035,21.973,0
1542906465.393,83.496,32.227,37.598,64.941,43.457,0
1542906465.397,77.148,31.250,44.434,53.711,7.812,0
1542906465.401,71.289,34.180,42.969,56.152,37.109,0
1542906465.405,59.082,23.438,33.203,60.547,38.574,0
1542906465.409,61.523,24.414,37.598,61.523,-12.695,0
1542906465.412,61.523,46.387,34.668,67.871,18.066,0
1542906465.416,63.477,48.340,19.531,62.012,48.340,0
1542906465.420,62.988,42.969,29.297,47.852,70.312,0
1542906465.424,51.758,35.156,45.898,52.734,104.492,0
1542906465.428,47.852,22.949,57.129,63.477,45.898,0
1542906465.432,53.223,35.156,48.340,63.965,-9.766,0
1542906465.436,61.035,45.898,37.109,62.012,-2.930,0
1542906465.440,64.453,43.457,42.480,57.129,14.160,0
1542906465.444,66.406,41.992,29.297,56.152,73.242,0
1542906465.448,68.359,44.434,15.137,61.523,74.707,0
1542906465.452,69.336,53.223,23.438,60.059,35.645,0
1542906465.455,72.754,42.969,34.668,55.176,-0.977,0
1542906465.459,75.195,21.973,28.809,56.641,13.184,0
1542906465.463,62.988,39.551,33.691,58.594,88.379,0
1542906465.467,55.176,60.059,43.945,64.453,61.523,0
1542906465.471,57.617,52.246,38.086,61.035,1.465,0
1542906465.475,54.688,40.527,32.227,49.805,17.090,0
1542906465.479,65.918,34.668,31.250,48.828,74.219,0
1542906465.483,87.402,44.434,40.527,61.035,57.129,0
1542906465.487,77.637,41.992,41.504,58.105,20.996,0
1542906465.491,60.059,25.391,25.391,42.480,11.230,0
1542906465.494,46.875,33.203,17.578,38.574,52.734,0
1542906465.498,35.645,36.133,24.902,41.504,112.305,0
1542906465.502,37.109,43.457,27.344,42.969,76.172,0
1542906465.506,41.992,50.293,30.762,37.598,4.395,0
1542906465.510,54.199,44.434,39.062,43.457,10.742,0
1542906465.514,59.570,34.668,37.598,48.340,52.734,0
1542906465.518,60.059,28.320,38.086,43.457,70.801,0
1542906465.522,54.199,40.527,36.621,41.504,50.293,0
1542906465.526,58.594,51.758,35.156,51.270,38.086,0
1542906465.530,70.312,44.434,34.180,48.340,12.695,0
1542906465.534,64.941,34.668,23.926,39.062,-32.715,0
1542906465.537,46.387,43.945,21.484,47.363,-31.738,0
1542906465.541,35.645,49.316,27.344,42.480,5.859,0
1542906465.545,42.969,46.875,36.133,39.551,64.941,0
1542906465.549,71.289,47.852,41.504,53.223,52.734,0
1542906465.553,85.449,46.387,32.227,58.594,47.363,0
1542906465.557,61.523,35.645,24.902,55.176,2.441,0
1542906465.561,53.711,41.504,30.762,49.316,-17.090,0
1542906465.565,59.082,46.387,37.109,47.852,84.961,0
1542906465.569,64.453,38.086,46.387,54.199,98.633,0
1542906465.573,79.590,37.109,41.992,49.316,97.656,0
1542906465.577,72.754,38.574,21.484,37.598,95.215,0
1542906465.580,71.289,50.293,15.625,47.852,-10.742,0
1542906465.584,65.430,47.852,21.973,56.641,33.691,0
1542906465.588,47.852,38.086,25.879,46.387,32.715,0
1542906465.592,54.688,51.270,32.715,42.480,-2.930,0
1542906465.596,60.059,41.016,25.391,44.922,53.223,0
1542906465.600,68.359,30.273,20.508,50.293,62.012,0
1542906465.604,73.730,28.320,32.715,56.152,29.297,0
1542906465.608,90.820,19.531,36.133,76.172,-47.852,0
1542906465.612,125.000,35.645,29.297,114.258,-5.859,0
1542906465.616,75.195,60.059,8.301,74.707,42.480,0
1542906465.619,5.859,61.035,6.348,8.789,20.996,0
1542906465.623,12.207,61.523,23.438,5.371,32.715,0
1542906465.627,11.719,60.059,26.855,-7.812,12.207,0
1542906465.631,13.672,45.410,30.273,-27.832,7.812,0
1542906465.635,-10.254,55.664,20.020,-62.500,1.953,0
1542906465.639,-66.895,66.406,1.465,-84.473,-18.555,0
1542906465.643,-71.289,51.270,-5.859,-82.031,-10.742,0
1542906465.647,-68.359,65.430,-4.395,-93.262,13.184,0
1542906465.651,-84.961,84.473,11.719,-109.863,89.844,0
1542906465.655,-86.914,91.309,23.438,-116.211,41.016,0
1542906465.659,-94.238,94.727,12.695,-127.930,19.043,0
1542906465.662,-90.332,77.637,-5.371,-129.395,66.406,0
1542906465.666,-84.961,72.754,-15.625,-115.234,59.082,0
1542906465.670,-75.684,79.590,-5.859,-106.445,6.348,0
1542906465.674,-51.270,78.613,2.441,-96.680,0.488,0
1542906465.678,-39.062,80.078,2.441,-76.172,96.680,0
1542906465.682,-29.297,75.684,-2.930,-57.129,74.219,0
1542906465.686,-23.438,65.430,-6.348,-48.340,24.414,0
1542906465.690,-23.926,63.477,-1.953,-42.969,52.246,0
1542906465.694,-10.742,72.266,3.418,-31.250,32.227,0
1542906465.698,-6.348,75.195,2.930,-23.926,-0.977,0
1542906465.702,-6.836,68.848,-3.906,-23.926,-34.180,0
1542906465.705,34.180,75.195,-5.859,-10.254,31.738,0
1542906465.709,50.293,77.148,-5.859,-4.395,55.176,0
1542906465.713,30.273,77.637,-1.465,0.000,32.227,0
1542906465.717,20.020,73.242,16.602,10.742,-9.766,0
1542906465.721,0.000,47.363,16.602,-3.418,-15.137,0
1542906465.725,3.418,51.270,7.324,-1.953,5.859,0
1542906465.729,24.902,70.801,18.066,18.555,-20.020,0
1542906465.733,28.809,70.801,24.414,17.578,23.926,0
1542906465.737,18.066,62.500,19.043,14.648,34.668,0
1542906465.741,19.531,58.594,13.672,17.578,47.852,0
1542906465.744,33.691,65.918,7.812,18.555,55.664,0
1542906465.748,41.016,66.406,-3.418,26.855,57.617,0
1542906465.752,47.852,57.129,-2.441,36.133,116.699,0
1542906465.756,55.176,65.430,23.926,40.527,89.844,0
1542906465.760,55.664,60.059,34.180,40.039,-15.137,0
1542906465.764,58.105,48.828,25.391,32.715,-26.367,0
1542906465.768,68.359,62.500,34.668,37.598,28.320,0
1542906465.772,77.148,60.059,36.621,39.551,40.039,0
1542906465.776,62.988,57.617,27.832,41.992,103.027,0
1542906465.780,49.805,66.406,19.531,43.457,113.281,0
1542906465.784,53.711,64.941,9.277,35.156,76.660,0
1542906465.787,52.734,58.594,6.836,30.762,57.617,0
1542906465.791,42.480,58.105,16.602,36.133,0.977,0
1542906465.795,42.969,65.430,35.645,42.969,56.641,0
1542906465.799,52.246,71.777,37.109,46.387,92.773,0
1542906465.803,56.152,61.523,23.438,41.992,81.543,0
1542906465.807,64.453,49.316,24.414,41.504,42.480,0
1542906465.811,83.984,64.453,39.062,52.246,41.504,0
1542906465.815,91.309,75.195,29.297,51.270,31.738,0
1542906465.819,73.730,54.199,9.277,44.434,-42.480,0
1542906465.823,62.988,45.898,13.184,42.969,18.555,0
1542906465.827,63.965,42.969,19.043,42.969,17.578,0
1542906465.830,69.824,46.387,33.203,58.594,-23.438,0
1542906465.834,74.219,59.570,36.133,62.500,40.527,0
1542906465.838,60.547,59.570,22.949,45.898,69.824,0
1542906465.842,74.707,55.664,30.273,62.500,41.016,0
1542906465.846,96.680,46.387,32.227,90.332,74.707,0
1542906465.850,62.500,46.875,23.438,67.383,111.816,0
1542906465.854,42.969,61.035,22.949,40.527,52.734,0
1542906465.858,78.125,63.477,29.785,57.129,-9.277,0
1542906465.862,71.289,49.805,24.902,46.387,-38.574,0
1542906465.866,49.805,47.363,26.855,39.551,-25.879,0
1542906465.869,61.523,55.664,39.551,53.711,-16.602,0
1542906465.873,69.824,53.223,37.598,50.293,6.348,0
1542906465.877,79.590,57.129,41.992,62.500,39.551,0
1542906465.881,84.473,58.105,41.016,78.613,30.762,0
1542906465.885,90.332,43.457,20.020,63.477,35.156,0
1542906465.889,92.285,30.762,13.184,56.641,41.992,0
1542906465.893,64.453,36.621,19.043,62.012,33.203,0
1542906465.897,50.781,42.969,21.973,57.617,43.945,0
1542906465.901,65.918,49.316,25.879,57.617,26.367,0
1542906465.905,68.359,54.688,28.320,62.988,18.066,0
1542906465.909,56.641,47.363,35.156,62.500,34.180,0
1542906465.912,46.875,50.293,43.457,63.965,24.902,0
1542906465.916,59.082,50.781,41.016,63.965,88.867,0
1542906465.920,74.219,49.805,39.551,64.453,86.426,0
1542906465.924,63.477,54.199,41.016,60.059,31.738,0
1542906465.928,63.965,50.293,37.109,56.152,17.578,0
1542906465.932,79.590,39.551,26.855,59.082,7.324,0
1542906465.936,73.242,36.621,21.973,54.199,54.199,0
1542906465.940,71.777,37.109,37.109,58.105,71.777,0
1542906465.944,67.383,44.434,42.480,59.570,84.961,0
1542906465.948,66.895,50.293,37.598,55.176,95.703,0
1542906465.952,72.754,52.734,34.668,55.176,30.273,0
1542906465.955,60.059,55.176,37.109,58.105,29.297,0
1542906465.959,61.035,50.293,36.133,61.035,65.918,0
1542906465.963,77.637,53.223,33.203,72.266,26.367,0
1542906465.967,79.590,56.641,39.551,73.242,-1.953,0
1542906465.971,76.172,46.875,44.922,66.406,68.848,0
1542906465.975,78.125,29.297,39.551,61.523,43.457,0
1542906465.979,74.707,30.762,32.227,55.176,-27.832,0
1542906465.983,63.965,43.457,41.992,68.359,-14.160,0
1542906465.987,59.570,44.922,46.875,66.406,12.695,0
1542906465.991,59.082,41.504,41.504,50.781,26.367,0
1542906465.994,46.875,41.992,44.434,48.340,41.016,0
1542906465.998,46.387,37.598,40.039,47.852,53.223,0
1542906466.002,62.500,38.574,32.715,53.711,-25.391,0
1542906466.006,70.801,44.922,38.086,54.199,0.000,0
1542906466.010,67.871,40.527,28.809,50.781,17.578,0
1542906466.014,75.684,47.363,24.902,62.988,-7.324,0
1542906466.018,75.684,40.527,27.344,56.152,38.086,0
1542906466.022,68.359,29.785,35.645,47.363,82.520,0
1542906466.026,79.102,38.574,50.293,56.152,125.977,0
1542906466.030,79.102,50.293,43.945,50.781,73.242,0
1542906466.034,59.082,52.734,26.855,41.992,18.066,0
1542906466.037,60.059,48.828,21.973,43.945,21.973,0
1542906466.041,56.641,42.969,28.809,44.434,28.320,0
1542906466.045,60.059,41.016,38.086,52.246,14.160,0
1542906466.049,89.355,43.457,43.945,57.129,48.828,0
1542906466.053,93.750,44.434,47.363,55.176,51.758,0
1542906466.057,74.707,39.062,44.922,59.082,-32.227,0
1542906466.061,64.941,35.645,35.156,48.340,18.555,0
1542906466.065,65.430,49.805,37.109,44.434,46.875,0
1542906466.069,58.594,58.105,40.039,51.758,-15.625,0
1542906466.073,48.340,54.688,36.621,53.223,-13.672,0
1542906466.077,53.223,60.547,37.109,56.152,53.711,0
1542906466.080,55.176,51.270,33.691,58.594,57.129,0
1542906466.084,61.523,36.133,23.926,55.664,1.465,0
1542906466.088,74.219,37.109,23.926,57.129,19.043,0
1542906466.092,66.406,42.480,34.668,62.500,-19.531,0
1542906466.096,77.148,46.875,48.828,63.477,11.230,0
1542906466.100,91.309,46.875,44.922,63.965,53.223,0
1542906466.104,62.988,47.363,31.738,58.105,55.664,0
1542906466.108,47.363,51.758,33.203,48.828,74.707,0
1542906466.112,52.246,54.199,37.109,47.852,26.855,0
1542906466.116,53.223,44.922,33.203,52.734,-13.184,0
1542906466.119,67.871,49.316,40.527,62.500,28.809,0
1542906466.123,63.477,54.199,42.969,72.754,37.598,0
1542906466.127,48.340,41.016,22.461,60.059,37.598,0
1542906466.131,46.387,38.574,22.949,55.664,48.340,0
1542906466.135,58.594,41.504,38.574,63.477,67.871,0
1542906466.139,66.406,40.039,45.410,62.988,101.562,0
1542906466.143,68.359,44.922,43.945,58.594,66.406,0
1542906466.147,72.266,42.480,33.691,48.828,22.949,0
1542906466.151,59.570,32.715,21.484,41.016,46.387,0
1542906466.155,60.059,35.645,21.973,43.457,37.598,0
1542906466.159,62.500,41.016,31.738,47.363,65.430,0
1542906466.162,71.289,54.199,43.945,55.176,29.785,0
1542906466.166,71.777,50.293,36.133,49.316,1.465,0
1542906466.170,64.453,43.945,19.531,47.363,24.414,0
1542906466.174,69.824,51.758,22.949,56.641,-2.930,0
1542906466.178,61.035,47.852,27.832,49.805,2.441,0
1542906466.182,73.242,28.320,33.203,71.777,11.230,0
1542906466.186,103.516,36.133,41.992,105.469,-14.160,0
1542906466.190,56.641,57.617,30.762,52.246,10.254,0
1542906466.194,1.953,50.781,20.020,-4.395,-8.301,0
1542906466.198,26.367,37.109,30.762,19.043,35.156,0
1542906466.202,30.762,49.805,29.297,8.301,54.199,0
1542906466.205,19.531,55.176,27.344,-16.602,59.082,0
1542906466.209,33.691,50.293,37.109,-9.766,120.605,0
1542906466.213,20.996,57.129,33.691,-28.809,78.125,0
1542906466.217,-0.488,57.617,29.297,-28.320,47.363,0
1542906466.221,0.977,54.688,27.344,-7.324,3.418,0
1542906466.225,1.465,49.805,20.996,-4.883,23.438,0
1542906466.229,0.977,36.133,11.230,-1.953,52.246,0
1542906466.233,10.742,47.852,3.906,7.812,23.926,0
1542906466.237,20.508,64.941,9.277,9.277,12.695,0
1542906466.241,30.762,71.289,25.391,19.531,15.137,0
1542906466.244,32.227,70.312,25.879,25.879,-1.465,0
1542906466.248,32.715,47.363,27.344,15.137,27.344,0
1542906466.252,55.664,42.480,42.969,22.949,11.230,0
1542906466.256,58.105,54.199,35.645,32.227,-3.906,0
1542906466.260,48.828,60.059,23.438,34.180,51.270,0
1542906466.264,50.781,55.176,6.348,38.574,32.715,0
1542906466.268,62.012,52.734,-6.836,41.504,69.336,0
1542906466.272,60.059,63.965,13.672,35.645,68.848,0
1542906466.276,41.016,59.570,40.039,24.902,22.461,0
1542906466.280,45.898,52.734,53.223,38.574,38.574,0
1542906466.284,55.664,53.711,41.504,45.410,4.395,0
1542906466.287,52.734,39.551,25.391,37.598,41.504,0
1542906466.291,62.012,41.016,28.320,35.156,90.820,0
1542906466.295,72.266,60.547,43.457,40.527,16.602,0
1542906466.299,54.199,63.477,38.574,45.410,-40.527,0
1542906466.303,48.340,60.547,28.809,50.293,24.414,0
1542906466.307,54.688,62.988,33.203,52.246,74.219,0
1542906466.311,57.617,59.082,37.109,48.828,24.902,0
1542906466.315,56.152,52.246,30.762,39.062,38.574,0
1542906466.319,57.129,43.457,32.227,43.945,130.859,0
1542906466.323,63.965,41.504,35.156,53.223,126.465,0
1542906466.327,52.734,45.410,29.297,49.316,31.738,0
1542906466.330,62.988,46.387,35.645,50.293,65.918,0
1542906466.334,76.172,45.410,40.039,48.340,85.938,0
1542906466.338,58.105,45.410,41.016,50.781,7.812,0
1542906466.342,61.035,47.363,46.875,68.359,-10.742,0
1542906466.346,62.988,40.527,40.527,62.500,29.785,0
1542906466.350,62.012,46.387,30.273,46.875,60.547,0
1542906466.354,69.336,53.223,25.391,53.223,60.547,0
1542906466.358,68.848,48.828,23.438,60.547,74.219,0
1542906466.362,72.266,50.293,22.461,57.129,97.168,0
1542906466.366,72.266,47.852,30.273,59.082,62.500,0
1542906466.369,74.707,48.340,44.922,61.523,-9.766,0
1542906466.373,89.355,43.945,41.504,54.688,-4.883,0
1542906466.377,77.148,45.410,29.297,54.199,36.133,0
1542906466.381,50.293,45.898,27.344,62.988,79.590,0
1542906466.385,45.898,45.898,33.203,59.082,109.863,0
1542906466.389,58.105,50.781,41.504,53.711,35.645,0
1542906466.393,73.242,56.152,47.363,65.918,-0.488,0
1542906466.397,72.754,55.176,39.551,62.012,32.715,0
1542906466.401,64.941,44.434,27.832,46.387,56.641,0
1542906466.405,79.102,40.039,29.297,54.199,45.898,0
1542906466.409,90.820,42.969,36.621,61.035,24.902,0
1542906466.412,73.730,37.598,47.852,58.105,-21.484,0
1542906466.416,69.336,28.809,48.828,60.059,-6.836,0
1542906466.420,64.453,44.922,45.410,66.895,-20.020,0
1542906466.424,46.387,61.035,43.457,62.988,-66.406,0
1542906466.428,46.387,47.852,38.574,54.199,1.465,0
1542906466.432,67.871,46.875,41.016,56.152,5.371,0
1542906466.436,75.195,55.176,31.250,56.641,0.488,0
1542906466.440,61.035,49.316,25.879,50.781,109.375,0
1542906466.444,53.223,46.875,38.086,51.270,82.520,0
1542906466.448,54.688,43.457,41.992,49.316,-13.672,0
1542906466.452,63.477,45.898,40.527,49.316,28.320,0
1542906466.455,66.406,41.016,40.527,56.641,59.082,0
1542906466.459,60.547,34.180,35.645,52.734,59.082,0
1542906466.463,65.918,39.062,30.762,42.480,0.000,0
1542906466.467,58.594,45.898,37.598,42.480,-56.152,0
1542906466.471,48.340,54.199,37.109,45.410,-0.977,0
1542906466.475,50.293,58.105,26.367,45.898,57.129,0
1542906466.479,51.270,50.293,28.809,40.527,20.996,0
1542906466.483,66.406,44.434,35.645,39.551,2.441,0
1542906466.487,73.242,39.551,36.621,45.898,18.555,0
1542906466.491,78.613,39.062,41.016,49.805,13.672,0
1542906466.494,80.078,43.457,41.016,51.758,56.641,0
1542906466.498,65.430,44.434,41.504,60.547,37.109,0
1542906466.502,64.453,42.969,47.363,67.383,-12.207,0
1542906466.506,62.012,34.180,29.297,52.246,-3.418,0
1542906466.510,63.965,26.855,14.648,48.340,30.762,0
1542906466.514,61.523,33.691,25.391,60.059,41.504,0
1542906466.518,51.758,43.945,35.156,57.129,57.129,0
1542906466.522,57.129,49.805,41.016,49.316,52.734,0
1542906466.526,73.242,54.199,35.156,58.594,26.367,0
1542906466.530,106.934,53.223,34.180,91.309,23.926,0
1542906466.534,91.797,46.387,46.875,84.961,9.766,0
1542906466.537,43.457,40.039,54.199,45.410,57.617,0
1542906466.541,29.785,26.367,51.270,39.551,72.754,0
1542906466.545,25.391,18.555,52.734,43.457,32.227,0
1542906466.549,25.879,14.648,57.617,27.832,19.531,0
1542906466.553,36.133,6.836,55.664,24.414,4.395,0
1542906466.557,23.438,5.371,47.852,34.180,0.000,0
1542906466.561,28.809,5.371,45.898,38.086,14.648,0
1542906466.565,57.129,12.695,63.965,57.617,51.758,0
1542906466.569,64.941,25.879,71.289,77.148,80.078,0
1542906466.573,58.594,13.672,54.199,64.453,81.543,0
1542906466.577,44.922,11.230,43.945,41.992,131.836,0
1542906466.580,40.527,29.785,48.828,40.527,127.441,0
1542906466.584,44.434,31.250,46.387,49.805,41.992,0
1542906466.588,55.664,24.902,45.898,57.129,70.801,0
1542906466.592,50.293,19.043,43.945,50.781,100.098,0
1542906466.596,51.270,28.809,43.457,50.293,38.086,0
1542906466.600,65.918,28.809,46.875,61.523,15.137,0
1542906466.604,54.199,19.531,53.711,71.777,59.082,0
1542906466.608,41.504,28.809,48.340,72.266,75.684,0
1542906466.612,44.434,27.344,33.691,62.012,15.137,0
1542906466.616,62.500,40.039,53.711,64.453,23.926,0
1542906466.619,70.312,43.945,62.500,56.641,99.609,0
1542906466.623,41.504,33.203,41.504,40.039,119.141,0
1542906466.627,35.156,40.527,36.133,40.527,94.727,0
1542906466.631,45.410,34.180,43.945,41.016,83.984,0
1542906466.635,57.129,32.227,43.945,44.922,68.848,0
1542906466.639,65.430,33.691,41.016,45.898,40.039,0
1542906466.643,60.059,22.461,36.133,41.016,10.254,0
1542906466.647,60.059,27.832,30.762,47.852,54.688,0
1542906466.651,57.617,36.621,35.645,57.129,53.223,0
1542906466.655,60.547,33.691,46.387,62.500,24.414,0
1542906466.659,67.383,36.621,41.504,58.105,67.383,0
1542906466.662,66.406,48.340,34.668,53.223,85.449,0
1542906466.666,75.195,45.410,43.457,47.852,42.480,0
1542906466.670,74.219,28.809,48.340,37.109,48.340,0
1542906466.674,74.219,36.621,49.316,51.270,23.926,0
1542906466.678,79.590,41.504,45.898,65.918,21.484,0
1542906466.682,60.059,24.902,32.227,48.828,75.684,0
1542906466.686,55.176,29.297,23.438,41.016,40.527,0
1542906466.690,56.152,42.480,30.273,48.828,8.789,0
1542906466.694,59.082,41.016,36.621,52.246,-9.277,0
1542906466.698,55.664,48.828,39.062,58.105,-42.969,0
1542906466.702,47.363,47.852,40.527,54.688,3.906,0
1542906466.705,52.246,34.180,39.551,50.781,33.691,0
1542906466.709,56.152,29.785,45.410,51.270,39.551,0
1542906466.713,55.176,34.180,42.969,42.480,39.062,0
1542906466.717,58.594,39.551,42.969,45.898,46.387,0
1542906466.721,60.547,30.273,37.598,51.270,29.785,0
1542906466.725,67.383,31.738,24.902,44.434,-48.340,0
1542906466.729,83.984,49.316,28.320,46.387,-29.785,0
1542906466.733,81.055,62.500,42.480,57.129,16.113,0
1542906466.737,53.711,51.270,37.109,57.129,15.625,0
1542906466.741,48.828,35.645,31.250,46.875,25.391,0
1542906466.744,57.617,41.504,45.898,49.805,31.250,0
1542906466.748,66.895,47.363,49.805,55.176,28.320,0
1542906466.752,63.477,35.156,34.668,51.270,50.781,0
1542906466.756,61.035,29.785,23.926,44.922,40.527,0
1542906466.760,71.289,36.133,30.273,40.527,37.598,0
1542906466.764,66.895,35.645,38.086,42.969,2.441,0
1542906466.768,50.293,41.992,38.574,47.852,-49.805,0
1542906466.772,46.875,47.852,28.320,47.852,-46.875,0
1542906466.776,52.246,40.527,27.344,45.898,28.809,0
1542906466.780,53.711,39.062,41.016,47.363,66.406,0
1542906466.784,51.758,32.715,44.922,49.805,58.105,0
1542906466.787,61.035,30.762,42.480,50.781,124.512,0
1542906466.791,75.195,41.016,41.504,49.316,94.238,0
1542906466.795,61.523,33.691,36.133,47.363,37.109,0
1542906466.799,45.410,39.551,40.039,53.223,52.246,0
1542906466.803,48.340,50.293,40.039,41.504,44.922,0
1542906466.807,59.082,50.293,39.551,47.363,50.293,0
1542906466.811,65.918,46.387,36.133,59.570,38.086,0
1542906466.815,66.895,41.504,27.832,55.664,46.875,0
1542906466.819,60.547,38.086,28.320,55.664,86.426,0
1542906466.823,51.270,41.504,37.598,58.594,54.199,0
1542906466.827,60.547,41.504,42.969,61.035,47.363,0
1542906466.830,70.801,41.992,42.969,55.664,59.082,0
1542906466.834,61.035,48.828,47.852,61.523,19.531,0
1542906466.838,53.711,47.852,46.875,61.523,-18.555,0
1542906466.842,51.758,48.340,46.387,60.059,10.254,0
1542906466.846,50.293,43.457,51.270,56.152,50.293,0
1542906466.850,68.848,52.246,62.988,50.293,39.551,0
1542906466.854,68.359,57.617,66.406,51.758,32.715,0
1542906466.858,43.945,41.504,50.781,38.574,50.781,0
1542906466.862,48.828,49.316,57.129,38.086,44.922,0
1542906466.866,34.668,49.316,76.660,38.574,7.812,0
1542906466.869,26.855,52.734,102.539,46.875,8.301,0
1542906466.873,20.508,70.801,94.727,31.738,67.383,0
1542906466.877,-23.926,63.965,82.031,-26.367,43.945,0
1542906466.881,-42.969,65.918,103.516,-53.223,-29.785,0
1542906466.885,-49.805,70.801,124.512,-62.988,10.254,0
1542906466.889,-69.336,88.379,130.371,-92.773,84.473,0
1542906466.893,-91.797,107.910,124.023,-128.906,81.055,0
1542906466.897,-113.770,96.680,144.531,-142.578,22.949,0
1542906466.901,-132.812,99.609,158.691,-151.367,17.090,0
1542906466.905,-137.695,114.746,140.137,-165.527,54.199,0
1542906466.909,-138.672,111.816,142.090,-179.688,46.387,0
1542906466.912,-131.348,109.375,157.715,-158.691,8.301,0
1542906466.916,-131.836,119.141,144.531,-134.277,50.293,0
1542906466.920,-137.207,112.793,125.000,-146.484,41.016,0
1542906466.924,-109.863,85.449,123.047,-133.789,20.020,0
1542906466.928,-87.891,75.195,113.770,-110.352,36.621,0
1542906466.932,-62.988,94.727,97.656,-76.660,10.742,0
1542906466.936,-41.016,89.844,83.496,-55.176,36.621,0
1542906466.940,-29.785,79.102,62.012,-51.758,100.586,0
1542906466.944,-1.953,73.730,57.617,-25.879,85.938,0
1542906466.948,28.320,50.781,44.922,-1.465,2.930,0
1542906466.952,55.664,40.527,27.832,23.926,-7.324,0
1542906466.955,68.848,42.480,19.531,47.852,-7.812,0
1542906466.959,76.172,37.598,7.324,58.594,27.832,0
1542906466.963,86.914,25.391,-7.324,77.637,61.035,0
1542906466.967,119.141,23.438,-22.461,102.051,23.926,0
1542906466.971,136.719,20.020,-21.973,105.469,17.578,0
1542906466.975,138.184,31.738,-8.301,116.211,84.473,0
1542906466.979,136.719,56.152,-6.348,115.723,97.168,0
1542906466.983,131.348,49.316,-25.879,104.004,35.156,0
1542906466.987,138.184,44.434,-41.992,110.352,3.418,0
1542906466.991,138.184,59.082,-48.340,108.887,26.367,0
1542906466.994,138.184,61.035,-56.641,108.398,50.781,0
1542906466.998,146.973,48.828,-62.012,112.793,19.043,0
1542906467.002,163.574,53.223,-62.500,116.211,-39.551,0
1542906467.006,167.480,67.383,-63.477,124.512,-15.137,0
1542906467.010,149.902,62.012,-66.406,122.559,24.414,0
1542906467.014,153.320,57.617,-69.336,123.535,21.484,0
1542906467.018,155.762,65.430,-72.754,113.281,74.707,0
1542906467.022,133.789,58.105,-81.055,96.680,96.680,0
1542906467.026,151.855,63.477,-74.707,124.023,59.570,0
1542906467.030,169.922,68.848,-73.730,142.090,31.250,0
1542906467.034,163.086,66.406,-76.660,130.371,32.227,0
1542906467.037,163.086,62.500,-68.848,124.512,82.031,0
1542906467.041,173.340,55.664,-59.570,122.559,92.773,0
1542906467.045,198.730,63.477,-52.734,122.070,66.406,0
1542906467.049,197.266,65.430,-50.781,129.883,24.902,0
1542906467.053,152.344,66.895,-45.898,125.977,-4.395,0
1542906467.057,143.066,54.688,-39.062,122.559,51.270,0
1542906467.061,155.273,42.480,-33.691,126.465,117.676,0
1542906467.065,148.926,40.039,-40.039,125.488,95.703,0
1542906467.069,134.277,32.227,-46.387,119.629,44.434,0
1542906467.073,133.789,45.898,-35.645,120.117,63.477,0
1542906467.077,126.953,61.035,-9.766,126.953,45.410,0
1542906467.080,115.234,55.176,1.465,121.094,41.504,0
1542906467.084,120.117,43.945,-8.789,108.887,80.078,0
1542906467.088,123.047,40.039,-10.742,102.539,67.383,0
1542906467.092,128.418,48.828,-2.441,105.957,53.223,0
1542906467.096,130.859,49.316,-1.465,106.445,48.828,0
1542906467.100,120.605,41.992,-2.441,103.027,47.852,0
1542906467.104,118.164,37.598,-5.859,98.145,-8.789,0
1542906467.108,125.488,41.504,-9.766,102.051,-17.578,0
1542906467.112,118.652,41.504,-7.812,104.980,23.926,0
1542906467.116,107.422,33.203,2.441,98.633,41.016,0
1542906467.119,112.793,25.879,10.742,101.074,17.090,0
1542906467.123,121.094,28.320,9.766,99.609,-12.207,0
1542906467.127,111.328,32.715,11.719,92.285,-12.695,0
1542906467.131,104.004,37.598,17.090,88.379,7.324,0
1542906467.135,104.004,45.410,20.996,87.891,56.641,0
1542906467.139,84.961,42.480,24.902,89.844,85.449,0
1542906467.143,76.172,43.457,19.043,95.215,104.004,0
1542906467.147,79.590,42.969,12.207,90.820,95.215,0
1542906467.151,78.125,32.715,12.207,78.613,46.387,0
1542906467.155,98.145,37.109,22.461,88.379,-3.418,0
1542906467.159,115.234,44.434,27.344,89.844,-23.438,0
1542906467.162,101.074,37.109,13.184,72.266,-26.367,0
1542906467.166,79.102,30.762,13.184,66.406,-11.230,0
1542906467.170,71.289,23.926,20.020,67.871,-33.691,0
1542906467.174,84.473,20.996,20.020,75.195,3.418,0
1542906467.178,78.125,35.156,24.902,69.336,29.785,0
1542906467.182,84.961,45.898,27.832,61.523,47.852,0
1542906467.186,124.512,42.480,13.184,81.543,64.941,0
1542906467.190,149.902,40.039,13.184,118.652,42.969,0
1542906467.194,118.164,28.809,36.621,100.586,30.762,0
1542906467.198,60.547,24.414,42.969,53.711,68.359,0
1542906467.202,35.156,18.555,41.992,45.898,61.523,0
1542906467.205,39.062,14.648,49.316,60.547,35.156,0
1542906467.209,30.273,7.812,58.105,50.781,70.312,0
1542906467.213,20.508,-3.906,53.223,44.922,69.336,0
1542906467.217,33.691,-8.789,53.223,57.617,46.875,0
1542906467.221,36.133,-19.531,63.477,48.828,63.965,0
1542906467.225,38.574,-28.809,76.660,41.992,69.336,0
1542906467.229,26.367,-28.809,90.820,45.898,25.391,0
1542906467.233,13.672,-29.297,90.332,47.363,18.066,0
1542906467.237,14.160,-28.320,82.031,50.781,9.277,0
1542906467.241,23.926,-26.367,81.055,68.848,-3.418,0
1542906467.244,33.691,-27.832,82.031,82.520,-2.441,0
1542906467.248,37.109,-32.715,76.660,78.613,34.668,0
1542906467.252,49.316,-27.832,79.102,71.777,52.246,0
1542906467.256,40.527,-23.926,77.148,77.637,64.941,0
1542906467.260,37.598,-25.879,73.730,87.891,33.691,0
1542906467.264,60.547,-18.555,70.801,81.055,2.441,0
1542906467.268,62.988,-12.207,59.570,68.848,65.430,0
1542906467.272,40.527,-4.883,51.758,69.336,26.367,0
1542906467.276,37.598,2.930,51.758,69.336,55.664,0
1542906467.280,39.551,3.418,50.293,56.641,63.477,0
1542906467.284,32.715,1.953,58.105,52.734,28.809,0
1542906467.287,37.109,-0.977,71.777,60.547,59.570,0
1542906467.291,46.875,2.441,70.312,62.012,71.289,0
1542906467.295,62.012,9.277,63.477,59.570,72.754,0
1542906467.299,71.289,6.348,58.105,58.594,39.551,0
1542906467.303,73.730,14.648,49.805,60.059,44.434,0
1542906467.307,89.355,13.184,48.340,70.312,41.992,0
1542906467.311,79.590,0.488,53.711,71.777,8.789,0
1542906467.315,44.922,11.230,58.594,69.336,10.742,0
1542906467.319,28.320,20.020,47.363,72.266,16.113,0
1542906467.323,47.852,22.461,46.875,72.266,52.246,0
1542906467.327,70.312,25.879,58.105,72.266,-3.418,0
1542906467.330,62.988,13.184,55.176,55.664,-49.805,0
1542906467.334,57.617,12.207,51.270,54.688,-10.254,0
1542906467.338,59.082,20.508,51.758,63.477,7.324,0
1542906467.342,62.012,20.508,49.316,60.059,-39.551,0
1542906467.346,76.172,23.438,49.316,61.035,-39.551,0
1542906467.350,94.238,30.762,49.316,64.941,3.906,0
1542906467.354,93.750,29.297,43.945,62.988,30.273,0
1542906467.358,74.707,26.367,43.457,62.012,-3.418,0
1542906467.362,53.223,27.832,46.387,66.895,-62.012,0
1542906467.366,37.109,28.320,52.734,65.430,-11.230,0
1542906467.369,40.039,23.926,57.129,61.523,64.941,0
1542906467.373,61.035,16.602,59.082,69.824,34.180,0
1542906467.377,71.289,24.902,58.105,71.777,22.949,0
1542906467.381,88.379,34.668,48.340,69.336,26.855,0
1542906467.385,85.938,37.598,41.992,76.660,39.062,0
1542906467.389,49.316,35.645,37.598,63.477,40.527,0
1542906467.393,41.504,26.855,32.715,46.875,22.949,0
1542906467.397,71.777,26.367,45.410,55.176,34.668,0
1542906467.401,104.492,33.691,52.734,64.941,72.266,0
1542906467.405,104.492,28.809,35.156,57.617,43.945,0
1542906467.409,104.492,33.203,33.691,56.152,-32.227,0
1542906467.412,64.941,31.250,39.062,53.223,24.902,0
1542906467.416,3.418,11.719,44.922,47.363,61.035,0
1542906467.420,-0.977,15.625,51.758,37.109,28.320,0
1542906467.424,18.555,29.785,43.945,29.297,17.578,0
1542906467.428,42.969,40.039,39.062,51.270,51.270,0
1542906467.432,54.688,42.480,43.457,69.336,-3.418,0
1542906467.436,51.758,36.621,48.828,56.152,-12.695,0
1542906467.440,41.504,15.137,44.922,30.273,23.438,0
1542906467.444,42.969,17.578,42.480,28.809,29.297,0
1542906467.448,44.434,30.762,36.621,32.227,85.449,0
1542906467.452,42.969,35.645,34.180,36.133,102.051,0
1542906467.455,56.152,33.691,37.598,59.082,17.578,0
1542906467.459,48.340,23.926,38.086,60.059,17.578,0
1542906467.463,41.992,27.344,48.340,79.102,26.367,0
1542906467.467,58.105,19.531,49.316,121.094,-9.277,0
1542906467.471,50.293,17.090,41.992,116.211,7.324,0
1542906467.475,27.344,31.250,45.898,92.285,35.645,0
1542906467.479,39.062,43.945,45.410,34.668,66.895,0
1542906467.483,55.176,39.551,37.598,-26.855,59.082,0
1542906467.487,46.387,27.832,34.668,-31.250,70.801,0
1542906467.491,61.523,33.203,42.480,9.766,92.773,0
1542906467.494,69.824,35.156,43.457,40.039,67.871,0
1542906467.498,43.457,35.156,37.109,44.922,33.691,0
1542906467.502,31.250,33.691,31.738,23.926,27.344,0
1542906467.506,54.199,34.668,37.598,11.719,33.203,0
1542906467.510,74.219,34.180,47.852,-8.301,34.668,0
1542906467.514,61.035,31.738,39.551,-20.996,46.387,0
1542906467.518,78.125,38.086,33.203,38.574,54.199,0
1542906467.522,69.336,28.809,41.016,62.988,18.555,0
1542906467.526,28.320,24.414,51.758,41.992,-3.906,0
1542906467.530,27.832,24.414,55.664,45.898,-3.906,0
1542906467.534,29.785,22.461,51.270,29.785,21.973,0
1542906467.537,30.762,12.695,47.852,3.418,53.223,0
1542906467.541,54.688,3.906,50.293,4.883,24.414,0
1542906467.545,72.754,19.531,51.270,14.648,39.551,0
1542906467.549,77.148,23.926,34.668,31.738,55.176,0
1542906467.553,53.223,21.484,18.555,35.156,58.594,0
1542906467.557,43.945,25.879,29.785,42.969,30.762,0
1542906467.561,51.758,25.391,42.480,38.574,43.457,0
1542906467.565,61.035,16.113,48.340,27.344,45.410,0
1542906467.569,54.688,14.160,47.852,35.156,-4.395,0
1542906467.573,45.410,35.156,44.922,32.715,-18.066,0
1542906467.577,86.914,50.781,43.457,33.203,28.320,0
1542906467.580,92.773,46.875,34.668,38.086,34.668,0
1542906467.584,90.332,43.945,39.062,43.945,47.363,0
1542906467.588,82.031,38.574,40.527,65.918,76.660,0
1542906467.592,23.438,29.785,33.203,78.613,72.266,0
1542906467.596,59.082,40.527,33.203,69.824,62.012,0
1542906467.600,90.332,48.340,22.949,51.758,81.543,0
1542906467.604,-20.020,39.062,27.344,56.641,120.117,0
1542906467.608,-74.219,41.992,42.480,54.688,59.082,0
1542906467.612,-20.508,43.457,42.480,43.457,16.602,0
1542906467.616,17.578,42.480,39.062,31.738,16.113,0
1542906467.619,42.969,41.992,38.086,37.598,30.762,0
1542906467.623,51.758,33.691,29.785,43.457,84.961,0
1542906467.627,66.406,40.039,21.484,41.992,75.684,0
1542906467.631,76.660,55.664,20.508,53.711,12.207,0
1542906467.635,72.754,65.918,26.855,54.199,41.504,0
1542906467.639,77.148,63.477,31.250,50.293,54.199,0
1542906467.643,70.801,53.711,33.203,63.477,28.320,0
1542906467.647,77.148,48.340,37.109,82.520,-26.855,0
1542906467.651,88.379,41.992,31.250,70.801,-37.598,0
1542906467.655,71.777,36.133,20.508,57.617,66.895,0
1542906467.659,69.336,42.969,24.414,55.664,40.039,0
1542906467.662,85.449,51.270,35.156,40.527,-15.625,0
1542906467.666,79.102,44.922,37.598,45.898,7.324,0
1542906467.670,70.312,38.086,33.691,63.477,23.926,0
1542906467.674,94.727,26.855,35.156,92.773,31.738,0
1542906467.678,107.422,18.555,39.551,100.586,24.414,0
1542906467.682,80.566,36.621,43.457,36.621,12.695,0
1542906467.686,69.336,54.688,41.992,-15.625,43.457,0
1542906467.690,79.590,53.223,37.109,16.602,40.527,0
1542906467.694,74.707,43.945,26.367,30.762,20.508,0
1542906467.698,84.473,35.645,29.297,22.949,55.176,0
1542906467.702,79.102,20.996,46.387,39.062,36.133,0
1542906467.705,65.430,30.273,52.734,51.758,9.766,0
1542906467.709,81.543,56.152,48.340,54.199,-29.785,0
1542906467.713,69.824,55.176,41.992,51.758,-2.441,0
1542906467.717,56.641,39.062,43.457,53.711,-1.953,0
1542906467.721,47.852,30.762,53.223,58.594,12.207,0
1542906467.725,43.457,39.551,57.129,61.523,91.309,0
1542906467.729,66.895,48.340,55.664,61.035,66.406,0
1542906467.733,78.125,37.109,52.246,62.012,17.578,0
1542906467.737,74.707,26.367,52.734,64.941,51.270,0
1542906467.741,73.242,38.086,53.223,61.523,31.738,0
1542906467.744,61.035,44.434,49.805,44.434,-9.766,0
1542906467.748,53.223,39.551,58.594,46.387,-5.371,0
1542906467.752,64.453,40.527,67.383,76.172,25.879,0
1542906467.756,59.082,35.645,66.895,83.008,-10.742,0
1542906467.760,68.359,41.504,54.688,70.312,-20.996,0
1542906467.764,91.309,55.176,34.668,58.594,19.531,0
1542906467.768,87.402,48.828,33.203,61.523,18.066,0
1542906467.772,79.590,47.363,53.223,61.035,-20.020,0
1542906467.776,75.684,53.223,68.359,76.172,-13.184,0
1542906467.780,56.152,56.641,75.195,71.777,47.852,0
1542906467.784,40.039,49.316,71.777,55.664,62.012,0
1542906467.787,65.430,49.805,61.523,70.312,52.734,0
1542906467.791,86.426,55.176,65.430,79.590,75.684,0
1542906467.795,68.848,52.734,67.383,63.477,75.684,0
1542906467.799,46.875,52.246,62.988,58.594,48.340,0
1542906467.803,66.895,51.758,58.594,62.500,59.570,0
1542906467.807,95.215,51.758,54.688,55.664,78.613,0
1542906467.811,107.910,57.617,51.270,63.965,62.988,0
1542906467.815,86.426,53.223,47.852,53.711,56.152,0
1542906467.819,35.156,51.758,49.316,50.781,94.238,0
1542906467.823,17.578,40.527,56.152,49.316,53.711,0
1542906467.827,49.316,32.227,48.340,52.246,39.062,0
1542906467.830,63.477,55.664,36.621,43.457,48.828,0
1542906467.834,16.602,62.500,37.109,3.418,21.973,0
1542906467.838,9.277,55.664,41.992,-0.977,22.461,0
1542906467.842,41.992,70.312,44.434,33.203,4.883,0
1542906467.846,27.344,67.383,52.246,47.363,18.066,0
1542906467.850,10.742,55.176,51.270,32.227,60.059,0
1542906467.854,21.484,63.965,37.598,17.090,34.180,0
1542906467.858,26.367,52.246,37.109,23.438,70.801,0
1542906467.862,40.527,39.062,37.598,39.551,88.867,0
1542906467.866,42.480,50.293,37.598,28.809,60.059,0
1542906467.869,25.391,46.387,38.574,18.555,86.426,0
1542906467.873,39.551,41.504,39.062,40.039,35.156,0
1542906467.877,57.617,40.527,36.133,46.875,-1.465,0
1542906467.881,58.594,42.480,34.668,40.039,-11.230,0
1542906467.885,57.617,50.293,36.133,40.527,-1.953,0
1542906467.889,61.035,52.734,35.645,36.133,55.664,0
1542906467.893,87.402,58.105,41.016,54.688,50.293,0
1542906467.897,87.402,54.199,40.039,74.219,14.648,0
1542906467.901,55.664,35.156,36.133,54.688,5.859,0
1542906467.905,32.715,30.762,35.645,30.273,32.227,0
1542906467.909,37.109,43.945,34.668,29.297,75.195,0
1542906467.912,62.988,46.875,40.527,51.270,49.316,0
1542906467.916,73.730,40.527,40.039,53.711,12.695,0
1542906467.920,65.430,43.945,21.973,30.273,39.551,0
1542906467.924,86.426,32.715,24.902,45.410,0.000,0
1542906467.928,68.848,15.625,44.434,51.270,6.348,0
1542906467.932,24.414,26.367,42.969,32.227,22.461,0
1542906467.936,18.555,41.992,42.969,37.598,26.367,0
1542906467.940,21.973,43.945,36.133,29.785,26.855,0
1542906467.944,26.855,47.363,30.273,28.809,-38.086,0
1542906467.948,47.852,54.199,39.062,43.457,31.738,0
1542906467.952,57.129,39.062,43.457,45.410,89.844,0
1542906467.955,47.852,27.832,39.062,45.898,89.355,0
1542906467.959,46.387,38.086,35.156,42.969,90.820,0
1542906467.963,53.711,42.480,34.668,54.688,27.344,0
1542906467.967,49.805,41.504,35.156,47.852,16.602,0
1542906467.971,47.852,46.387,43.945,32.715,17.578,0
1542906467.975,53.223,42.480,47.363,52.734,21.973,0
1542906467.979,48.828,15.625,29.297,48.340,44.922,0
1542906467.983,51.758,13.672,22.949,37.109,84.961,0
1542906467.987,65.430,34.180,37.109,52.734,113.281,0
1542906467.991,58.105,39.062,40.039,49.316,74.707,0
1542906467.994,32.715,40.527,38.574,38.574,43.457,0
1542906467.998,31.738,44.922,43.457,43.945,36.133,0
1542906468.002,40.527,33.203,39.062,31.738,35.156,0
1542906468.006,50.781,31.250,28.809,24.414,-9.766,0
1542906468.010,38.086,29.297,28.809,30.762,-4.395,0
1542906468.014,24.902,23.926,32.715,34.668,20.508,0
1542906468.018,34.180,30.273,31.738,27.832,-10.254,0
1542906468.022,39.551,36.133,34.180,28.809,51.270,0
1542906468.026,55.176,37.109,37.598,42.480,76.172,0
1542906468.030,63.477,36.133,35.645,46.387,36.133,0
1542906468.034,58.105,34.668,35.156,38.574,42.969,0
1542906468.037,45.898,37.109,40.527,38.086,33.203,0
1542906468.041,40.039,44.922,41.992,34.668,16.602,0
1542906468.045,45.410,42.969,35.645,30.762,51.758,0
1542906468.049,47.363,35.156,33.203,33.203,64.941,0
1542906468.053,51.270,33.691,37.598,33.691,11.230,0
1542906468.057,60.547,35.156,37.598,35.156,32.715,0
1542906468.061,55.176,38.086,29.297,34.180,39.551,0
1542906468.065,43.945,36.133,29.297,27.832,22.461,0
1542906468.069,47.363,33.203,35.156,35.645,-0.977,0
1542906468.073,45.410,37.598,32.227,43.457,-29.297,0
1542906468.077,39.062,38.574,29.297,37.109,-1.465,0
1542906468.080,26.367,30.273,36.133,32.715,18.555,0
1542906468.084,42.480,33.691,41.504,36.133,64.941,0
1542906468.088,67.383,39.551,35.645,34.668,58.594,0
1542906468.092,53.223,36.133,30.273,22.949,52.734,0
1542906468.096,45.410,44.434,37.109,36.621,61.035,0
1542906468.100,38.086,46.875,38.086,45.898,54.199,0
1542906468.104,15.137,35.645,29.785,28.320,17.578,0
1542906468.108,23.926,32.715,31.250,21.484,-3.418,0
1542906468.112,49.805,34.668,33.203,16.602,40.039,0
1542906468.116,43.457,35.156,28.320,20.996,47.363,0
1542906468.119,22.461,31.738,25.879,12.695,19.531,0
1542906468.123,20.996,32.715,27.344,17.090,3.418,0
1542906468.127,20.020,39.551,30.273,29.297,-17.090,0
1542906468.131,31.738,42.969,33.203,23.926,5.371,0
1542906468.135,36.621,46.875,35.645,17.090,80.566,0
1542906468.139,27.832,44.922,29.785,7.812,108.398,0
1542906468.143,27.832,35.156,25.391,13.184,36.621,0
1542906468.147,40.527,32.715,24.902,30.273,-20.020,0
1542906468.151,59.570,23.438,24.902,29.785,-3.418,0
1542906468.155,76.172,17.578,23.926,40.039,76.660,0
1542906468.159,66.406,52.734,30.273,39.062,67.383,0
1542906468.162,32.227,64.941,33.203,5.371,44.922,0
1542906468.166,12.207,52.734,27.344,-12.207,67.383,0
1542906468.170,18.555,54.688,14.648,-8.301,30.762,0
1542906468.174,27.832,49.805,9.766,-1.465,-9.766,0
1542906468.178,24.902,51.270,20.508,3.906,41.504,0
1542906468.182,29.297,51.270,18.066,2.441,74.219,0
1542906468.186,52.734,47.852,17.578,7.324,57.617,0
1542906468.190,64.453,48.828,21.973,16.602,59.570,0
1542906468.194,65.918,51.758,12.207,13.672,42.969,0
1542906468.198,61.523,55.176,13.184,20.508,-15.137,0
1542906468.202,49.316,47.852,19.531,26.855,-6.836,0
1542906468.205,30.762,39.551,17.578,21.484,38.086,0
1542906468.209,31.250,31.738,25.879,40.039,22.461,0
1542906468.213,39.062,34.180,32.715,47.852,48.828,0
1542906468.217,41.992,49.316,24.902,41.504,50.781,0
1542906468.221,64.453,54.688,23.438,45.898,9.766,0
1542906468.225,70.312,50.781,25.879,35.645,29.297,0
1542906468.229,60.547,52.246,32.227,41.016,55.176,0
1542906468.233,70.312,60.059,29.785,54.688,67.383,0
1542906468.237,82.031,49.805,13.672,55.176,25.391,0
1542906468.241,80.078,44.434,17.090,57.129,13.184,0
1542906468.244,86.914,55.664,26.855,62.012,35.645,0
1542906468.248,93.262,56.641,17.578,68.359,20.996,0
1542906468.252,91.797,44.434,21.973,66.406,17.578,0
1542906468.256,113.281,44.434,38.574,66.895,18.555,0
1542906468.260,141.602,55.176,39.551,74.707,45.898,0
1542906468.264,82.520,48.828,27.344,70.801,74.219,0
1542906468.268,23.438,38.574,31.738,71.289,50.293,0
1542906468.272,44.434,52.246,30.762,71.289,-43.457,0
1542906468.276,68.848,63.965,31.250,74.219,13.184,0
1542906468.280,67.871,57.129,39.062,87.891,68.848,0
1542906468.284,64.941,56.641,35.156,84.473,0.488,0
1542906468.287,83.008,38.086,30.762,87.891,28.320,0
1542906468.291,84.473,8.301,32.715,100.098,36.621,0
1542906468.295,79.590,40.039,47.852,88.867,15.137,0
1542906468.299,95.215,56.641,55.176,95.703,40.039,0
1542906468.303,121.582,27.832,46.387,124.512,20.020,0
1542906468.307,96.191,51.270,24.414,78.613,20.508,0
1542906468.311,42.969,76.660,15.625,19.043,6.836,0
1542906468.315,44.434,69.824,33.203,28.809,71.777,0
1542906468.319,41.016,60.059,38.574,29.785,62.012,0
1542906468.323,41.016,50.293,31.738,30.762,-37.598,0
1542906468.327,54.688,51.758,26.855,2.930,79.590,0
1542906468.330,55.664,47.363,28.320,-14.648,38.574,0
1542906468.334,43.457,24.902,23.926,2.930,-18.066,0
1542906468.338,20.508,55.176,-5.371,-12.695,51.270,0
1542906468.342,-18.555,101.562,-17.090,-34.668,24.902,0
1542906468.346,-22.461,101.074,5.859,-33.691,43.457,0
1542906468.350,9.277,100.098,32.715,-21.484,80.566,0
1542906468.354,2.930,81.055,26.367,-53.223,58.105,0
1542906468.358,-42.969,92.773,3.418,-68.848,51.758,0
1542906468.362,-95.703,119.141,13.184,-52.246,68.359,0
1542906468.366,-85.938,104.492,18.555,-52.734,89.844,0
1542906468.369,-53.223,100.586,16.113,-62.012,62.500,0
1542906468.373,-34.180,108.398,0.000,-47.363,27.344,0
1542906468.377,-29.297,121.094,-25.391,-45.898,35.156,0
1542906468.381,-7.812,94.727,-20.508,-50.781,62.012,0
1542906468.385,13.184,79.102,-11.230,-49.805,76.660,0
1542906468.389,19.531,91.309,-16.602,-57.129,51.758,0
1542906468.393,43.457,97.168,-19.531,-39.062,49.805,0
1542906468.397,51.758,107.422,-14.648,-36.621,30.273,0
1542906468.401,41.504,105.957,-5.371,-18.066,13.672,0
1542906468.405,36.133,120.605,9.277,-21.484,41.992,0
1542906468.409,54.688,128.906,16.602,-45.898,49.316,0
1542906468.412,77.637,129.395,-2.441,-46.387,45.898,0
1542906468.416,97.656,128.418,-28.320,-38.086,86.914,0
1542906468.420,79.590,116.211,26.367,-27.344,43.945,0
1542906468.424,23.438,111.328,31.738,-17.578,-12.207,0
1542906468.428,-63.965,123.047,-26.367,9.766,-17.090,0
1542906468.432,-60.547,108.887,-9.766,18.555,3.418,0
1542906468.436,23.926,69.824,-49.805,32.715,67.871,0
1542906468.440,6.836,133.301,4.883,-22.461,89.844,0
1542906468.444,-23.438,178.223,121.582,-88.379,61.035,0
1542906468.448,21.484,174.316,116.211,-42.969,-2.930,0
1542906468.452,53.223,184.082,72.266,-24.414,9.277,0
1542906468.455,83.008,192.871,77.148,-3.418,24.902,0
1542906468.459,75.195,233.398,83.496,32.715,-12.695,0
1542906468.463,55.664,269.043,80.078,17.578,20.020,0
1542906468.467,77.148,320.312,94.238,16.113,39.062,0
1542906468.471,91.309,352.539,112.793,34.668,6.836,0
1542906468.475,107.422,397.949,130.859,60.059,21.484,0
1542906468.479,142.090,448.730,138.184,63.965,39.551,0
1542906468.483,145.508,496.582,168.457,71.289,51.758,0
1542906468.487,134.766,526.855,170.898,104.004,6.348,0
1542906468.491,140.137,537.598,167.969,104.492,-20.996,0
1542906468.494,118.652,520.996,197.754,82.520,-3.418,0
1542906468.498,117.188,520.020,200.684,97.168,-12.695,0
1542906468.502,195.801,630.371,226.562,170.898,11.230,0
1542906468.506,171.875,676.270,250.488,132.324,35.156,0
1542906468.510,121.582,660.156,215.820,60.547,28.320,0
1542906468.514,141.602,668.945,225.098,76.660,35.645,0
1542906468.518,113.281,666.992,228.027,81.543,15.625,0
1542906468.522,121.094,662.109,215.820,95.215,2.441,0
1542906468.526,93.750,606.934,289.062,71.777,44.434,0
1542906468.530,77.148,677.246,341.309,70.801,42.969,0
1542906468.534,147.461,683.105,280.273,102.539,12.207,0
1542906468.537,142.090,658.691,234.863,79.590,45.898,0
1542906468.541,104.980,778.320,318.359,66.406,56.152,0
1542906468.545,63.477,788.086,384.766,35.645,21.973,0
1542906468.549,25.391,793.457,435.547,16.113,16.113,0
1542906468.553,59.570,841.797,467.773,32.227,43.457,0
1542906468.557,68.359,898.438,465.332,18.066,62.012,0
1542906468.561,75.195,923.828,493.164,21.973,57.617,0
1542906468.565,124.512,935.059,512.695,76.172,34.180,0
1542906468.569,138.184,984.375,508.301,102.539,-23.926,0
1542906468.573,151.855,-997.070,542.969,97.656,-17.578,0
1542906468.577,151.367,997.070,588.379,104.004,36.133,0
1542906468.580,162.598,999.512,610.840,111.328,52.734,0
1542906468.584,225.098,999.512,640.137,152.832,14.160,0
1542906468.588,210.938,999.512,648.926,156.738,24.414,0
1542906468.592,168.945,999.512,643.555,78.125,50.293,0
1542906468.596,205.078,999.512,674.805,65.918,44.434,0
1542906468.600,236.816,999.512,661.621,123.535,-27.344,0
1542906468.604,207.520,999.512,672.852,103.027,-10.742,0
1542906468.608,181.152,999.512,722.168,88.867,58.105,0
1542906468.612,110.840,999.512,716.309,111.816,-0.977,0
1542906468.616,68.848,999.512,741.211,71.777,19.043,0
1542906468.619,70.312,999.512,758.301,5.859,90.820,0
1542906468.623,97.656,999.512,732.910,13.184,102.539,0
1542906468.627,130.859,999.512,743.652,35.156,74.707,0
1542906468.631,166.992,999.512,772.461,50.293,59.570,0
1542906468.635,244.629,999.512,763.672,112.793,47.852,0
1542906468.639,246.582,999.512,745.605,124.512,19.531,0
1542906468.643,209.961,999.512,758.301,93.750,17.578,0
1542906468.647,233.887,999.512,759.766,98.633,13.184,0
1542906468.651,272.461,999.512,761.719,122.070,4.883,0
1542906468.655,298.340,999.512,764.160,116.699,-21.973,0
1542906468.659,313.477,999.512,748.047,108.398,-18.066,0
1542906468.662,320.801,999.512,766.602,139.648,9.277,0
1542906468.666,327.637,999.512,801.758,134.766,14.160,0
1542906468.670,308.105,999.512,793.945,113.770,26.855,0
1542906468.674,320.801,997.070,775.879,117.676,61.523,0
1542906468.678,346.680,-998.535,766.602,119.141,87.402,0
1542906468.682,346.680,979.492,758.301,131.836,48.828,0
1542906468.686,323.730,910.645,719.238,150.879,56.152,0
1542906468.690,274.414,832.031,681.152,139.160,67.871,0
1542906468.694,278.809,772.461,689.453,125.488,55.664,0
1542906468.698,266.602,757.812,704.102,131.348,89.844,0
1542906468.702,235.840,736.328,686.035,121.094,73.242,0
1542906468.705,241.211,700.195,652.344,117.188,34.180,0
1542906468.709,265.625,659.180,628.418,119.141,27.832,0
1542906468.713,301.758,616.699,592.773,124.023,2.930,0
1542906468.717,302.734,567.383,572.266,157.227,24.414,0
1542906468.721,303.711,502.930,570.801,161.133,30.273,0
1542906468.725,323.242,478.027,554.199,129.883,52.734,0
1542906468.729,304.688,452.637,527.832,125.000,93.262,0
1542906468.733,297.852,402.832,483.887,133.789,48.828,0
1542906468.737,307.617,399.414,454.590,113.770,17.578,0
1542906468.741,307.617,394.531,461.426,98.145,63.965,0
1542906468.744,320.312,367.188,445.801,108.887,67.871,0
1542906468.748,333.008,338.867,445.801,141.602,27.832,0
1542906468.752,334.473,300.293,437.500,136.719,-21.973,0
1542906468.756,336.426,261.719,401.855,108.398,-1.953,0
1542906468.760,313.477,234.863,386.230,122.559,12.207,0
1542906468.764,286.133,229.492,375.488,120.605,-37.109,0
1542906468.768,298.828,223.145,340.332,96.680,34.668,0
1542906468.772,329.590,217.773,315.918,129.883,46.387,0
1542906468.776,321.289,195.312,321.289,145.020,16.113,0
1542906468.780,285.156,158.203,320.801,113.770,60.547,0
1542906468.784,270.508,150.879,306.152,101.074,51.270,0
1542906468.787,252.441,142.578,298.828,84.961,62.500,0
1542906468.791,253.906,127.441,290.527,63.477,83.008,0
1542906468.795,264.160,120.117,279.785,57.617,73.242,0
1542906468.799,228.027,105.469,286.133,62.500,1.465,0
1542906468.803,195.801,95.703,282.227,50.781,-1.953,0
1542906468.807,204.102,70.801,265.137,48.340,40.527,0
1542906468.811,183.594,46.875,251.465,46.387,41.504,0
1542906468.815,179.199,50.293,256.348,35.156,19.043,0
1542906468.819,198.242,19.531,282.715,23.926,-9.766,0
1542906468.823,138.184,-0.488,293.457,-6.836,28.809,0
1542906468.827,84.961,20.020,288.574,-22.461,78.125,0
1542906468.830,57.129,11.719,292.480,-23.926,84.473,0
1542906468.834,49.805,-8.301,298.340,-37.598,12.695,0
1542906468.838,54.199,-14.648,291.016,-46.875,-12.695,0
1542906468.842,50.293,-25.879,275.391,-46.387,55.176,0
1542906468.846,66.895,-45.898,270.508,-38.086,65.918,0
1542906468.850,75.195,-64.941,278.320,-8.789,37.109,0
1542906468.854,50.293,-49.805,276.855,13.184,69.824,0
1542906468.858,51.758,-44.922,274.414,-12.207,34.180,0
1542906468.862,58.105,-69.824,256.348,-30.273,11.230,0
1542906468.866,34.668,-84.473,251.465,-2.441,58.594,0
1542906468.869,35.645,-89.355,260.742,-20.508,41.504,0
1542906468.873,32.715,-94.727,236.328,-29.297,3.906,0
1542906468.877,51.758,-117.188,221.191,25.391,-38.574,0
1542906468.881,67.383,-110.352,230.957,62.500,-2.930,0
1542906468.885,35.645,-105.957,229.004,63.477,45.410,0
1542906468.889,31.738,-145.508,233.398,57.617,46.387,0
1542906468.893,30.273,-148.438,211.426,55.176,41.016,0
1542906468.897,35.156,-152.832,190.918,79.590,37.598,0
1542906468.901,61.523,-151.855,177.734,104.004,49.805,0
1542906468.905,80.078,-146.484,154.297,109.863,47.363,0
1542906468.909,56.641,-175.293,143.066,126.953,26.855,0
1542906468.912,53.711,-180.664,122.559,125.488,15.137,0
1542906468.916,104.492,-179.688,98.145,153.809,91.797,0
1542906468.920,116.699,-196.289,81.543,182.129,54.199,0
1542906468.924,112.305,-212.402,64.941,182.129,7.324,0
1542906468.928,164.062,-206.055,50.781,232.910,38.086,0
1542906468.932,196.289,-203.125,19.531,245.605,50.781,0
1542906468.936,187.988,-215.820,4.883,238.281,64.453,0
1542906468.940,197.754,-215.332,-1.953,247.559,31.250,0
1542906468.944,216.797,-219.238,-14.648,237.793,16.113,0
1542906468.948,187.988,-225.586,-21.973,238.770,30.762,0
1542906468.952,206.055,-218.750,-44.434,267.090,23.926,0
1542906468.955,240.234,-214.355,-46.387,280.273,-20.996,0
1542906468.959,235.840,-215.332,-48.828,244.141,20.996,0
1542906468.963,285.156,-201.660,-63.965,289.551,31.250,0
1542906468.967,288.574,-204.590,-69.336,326.172,-40.527,0
1542906468.971,227.051,-234.375,-88.379,265.137,-20.996,0
1542906468.975,242.676,-234.863,-80.078,270.508,-17.090,0
1542906468.979,249.512,-218.750,-46.875,294.922,17.578,0
1542906468.983,219.727,-216.309,-45.898,250.488,62.012,0
1542906468.987,254.395,-213.379,-60.547,237.793,56.152,0
1542906468.991,297.363,-209.473,-67.383,286.621,42.969,0
1542906468.994,329.102,-224.121,-73.242,307.617,57.617,0
1542906468.998,260.254,-221.191,-63.965,268.066,81.543,0
1542906469.002,139.648,-206.055,-50.293,235.840,73.242,0
1542906469.006,145.508,-209.473,-59.570,233.887,9.766,0
1542906469.010,191.895,-215.820,-68.848,237.305,-27.832,0
1542906469.014,198.242,-204.590,-63.477,238.770,0.000,0
1542906469.018,176.270,-189.453,-54.199,230.957,8.301,0
1542906469.022,171.875,-177.246,-57.129,201.660,1.465,0
1542906469.026,184.570,-174.805,-65.430,201.172,6.836,0
1542906469.030,187.988,-181.641,-62.988,210.938,-0.977,0
1542906469.034,204.590,-171.387,-58.594,198.730,24.902,0
1542906469.037,193.359,-180.664,-67.871,186.035,97.168,0
1542906469.041,173.340,-196.289,-71.289,191.895,74.707,0
1542906469.045,169.434,-195.312,-55.176,194.336,72.266,0
1542906469.049,170.898,-188.965,-42.480,179.199,55.664,0
1542906469.053,174.805,-181.641,-50.781,141.113,66.406,0
1542906469.057,158.203,-181.641,-67.871,103.027,96.680,0
1542906469.061,147.461,-186.035,-77.148,103.027,49.316,0
1542906469.065,153.809,-212.402,-69.336,114.746,17.578,0
1542906469.069,165.039,-220.703,-54.199,135.254,15.137,0
1542906469.073,141.113,-182.129,-61.523,144.531,29.785,0
1542906469.077,127.441,-170.898,-68.848,117.188,52.246,0
1542906469.080,149.414,-180.664,-55.176,110.840,54.688,0
1542906469.084,129.883,-190.430,-56.641,104.004,38.574,0
1542906469.088,91.797,-199.707,-71.289,96.191,51.758,0
1542906469.092,76.660,-203.613,-70.312,98.145,34.668,0
1542906469.096,81.543,-204.590,-70.801,84.961,43.945,0
1542906469.100,86.426,-205.566,-62.988,85.449,63.477,0
1542906469.104,88.379,-208.496,-56.641,104.980,58.594,0
1542906469.108,79.590,-201.660,-61.523,108.887,41.504,0
1542906469.112,69.824,-199.707,-64.453,101.074,5.859,0
1542906469.116,100.098,-203.125,-68.359,105.957,1.953,0
1542906469.119,127.441,-188.965,-71.777,105.469,17.090,0
1542906469.123,123.535,-187.988,-76.660,91.309,20.996,0
1542906469.127,124.512,-188.965,-90.820,85.938,35.645,0
1542906469.131,77.148,-180.176,-86.914,97.168,44.434,0
1542906469.135,52.246,-185.059,-65.430,98.633,44.922,0
1542906469.139,53.223,-197.754,-60.059,100.586,40.039,0
1542906469.143,41.016,-202.148,-60.059,87.402,83.008,0
1542906469.147,33.203,-192.383,-60.547,57.129,69.824,0
1542906469.151,30.762,-184.082,-64.941,57.129,52.734,0
1542906469.155,65.918,-181.152,-69.824,65.918,22.949,0
1542906469.159,83.008,-175.781,-70.801,80.566,9.766,0
1542906469.162,77.637,-170.898,-65.430,76.172,29.785,0
1542906469.166,68.848,-176.270,-70.801,75.684,82.031,0
1542906469.170,62.500,-181.641,-83.008,91.797,69.824,0
1542906469.174,69.336,-180.664,-80.078,104.980,-23.926,0
1542906469.178,83.008,-180.664,-77.637,109.375,-17.578,0
1542906469.182,86.914,-171.875,-76.660,114.258,23.438,0
1542906469.186,87.891,-161.621,-75.684,99.121,37.109,0
1542906469.190,79.102,-154.785,-79.590,51.270,36.133,0
1542906469.194,78.125,-159.668,-74.219,38.086,62.988,0
1542906469.198,129.883,-151.855,-65.430,76.660,78.613,0
1542906469.202,113.770,-134.766,-71.289,98.145,67.871,0
1542906469.205,66.895,-152.344,-68.848,91.309,-7.324,0
1542906469.209,53.223,-165.527,-56.641,88.379,-16.602,0
1542906469.213,44.434,-151.855,-57.617,79.590,14.648,0
1542906469.217,35.156,-143.066,-62.012,81.055,35.645,0
1542906469.221,33.203,-152.832,-62.988,77.148,50.293,0
1542906469.225,66.406,-146.973,-68.848,75.684,-43.457,0
1542906469.229,84.961,-129.883,-68.359,94.238,-21.484,0
1542906469.233,109.863,-123.047,-66.895,104.980,59.570,0
1542906469.237,127.930,-118.652,-59.082,110.840,0.488,0
1542906469.241,83.008,-118.652,-51.758,92.773,29.297,0
1542906469.244,47.363,-130.371,-64.941,102.539,88.867,0
1542906469.248,117.188,-132.812,-84.961,162.109,60.547,0
1542906469.252,132.812,-135.254,-62.012,167.969,38.574,0
1542906469.256,72.266,-136.719,-35.156,118.652,37.109,0
1542906469.260,72.754,-132.812,-42.480,91.309,13.672,0
1542906469.264,74.707,-142.578,-26.367,87.891,39.551,0
1542906469.268,70.312,-143.066,-16.602,96.680,75.684,0
1542906469.272,70.801,-149.414,-21.973,94.727,20.996,0
1542906469.276,58.594,-163.086,-25.879,87.402,22.949,0
1542906469.280,58.594,-167.969,-11.230,102.539,-0.977,0
1542906469.284,62.012,-180.664,-12.207,116.699,6.836,0
1542906469.287,59.570,-185.059,-33.691,104.492,69.824,0
1542906469.291,41.992,-183.105,-28.809,74.219,7.812,0
1542906469.295,44.434,-179.688,-5.371,81.543,27.344,0
1542906469.299,39.551,-179.688,24.414,107.422,56.152,0
1542906469.303,28.320,-187.500,23.438,101.074,42.969,0
1542906469.307,38.574,-188.477,2.441,100.586,49.805,0
1542906469.311,37.109,-182.129,-3.418,102.539,22.949,0
1542906469.315,54.199,-161.133,-12.695,101.562,29.785,0
1542906469.319,56.641,-163.574,-17.578,95.703,63.965,0
1542906469.323,51.758,-175.293,-1.465,87.891,61.035,0
1542906469.327,82.031,-168.457,5.859,95.703,52.734,0
1542906469.330,67.383,-170.898,-14.160,84.473,29.785,0
1542906469.334,19.043,-161.133,-15.625,66.895,-3.906,0
1542906469.338,21.973,-142.578,-18.555,56.152,-2.441,0
1542906469.342,40.039,-141.602,-28.320,61.035,31.250,0
1542906469.346,60.547,-133.789,-23.926,66.895,77.637,0
1542906469.350,55.176,-126.953,-36.133,72.754,79.102,0
1542906469.354,60.059,-122.070,-46.875,87.891,44.922,0
1542906469.358,72.266,-110.840,-31.250,87.891,11.719,0
1542906469.362,68.359,-119.141,-4.395,85.938,55.176,0
1542906469.366,70.312,-117.676,2.441,74.219,33.691,0
1542906469.369,40.039,-123.047,-6.836,77.148,-20.020,0
1542906469.373,20.996,-132.324,-18.066,85.449,-24.902,0
1542906469.377,60.547,-106.445,-15.137,84.961,-1.953,0
1542906469.381,74.707,-98.633,-20.020,74.219,61.523,0
1542906469.385,58.594,-115.723,-33.691,67.383,96.191,0
1542906469.389,53.223,-118.164,-25.391,73.242,92.773,0
1542906469.393,64.941,-88.867,-20.020,65.918,75.195,0
1542906469.397,72.754,-84.473,-20.996,61.035,83.496,0
1542906469.401,57.129,-112.305,-12.207,68.359,56.152,0
1542906469.405,57.129,-100.098,-18.066,52.246,46.875,0
1542906469.409,63.965,-84.473,-27.344,40.039,42.480,0
1542906469.412,41.016,-89.355,-21.973,45.410,16.602,0
1542906469.416,33.691,-78.125,-32.227,58.594,14.160,0
1542906469.420,49.316,-69.336,-39.551,71.777,35.156,0
1542906469.424,35.156,-82.031,-29.785,52.734,61.035,0
1542906469.428,20.020,-84.473,-21.484,36.621,32.227,0
1542906469.432,31.738,-78.613,-20.508,50.293,13.184,0
1542906469.436,41.504,-82.520,-21.484,42.969,40.527,0
1542906469.440,44.434,-79.590,-20.508,30.273,96.191,0
1542906469.444,33.203,-79.102,-24.414,33.203,64.941,0
1542906469.448,26.855,-98.145,-19.043,41.992,25.879,0
1542906469.452,48.828,-96.191,-17.090,46.875,-19.531,0
1542906469.455,63.477,-68.848,-25.879,27.832,-20.996,0
1542906469.459,50.781,-55.176,-31.738,20.508,27.832,0
1542906469.463,34.668,-55.176,-26.855,19.043,14.160,0
1542906469.467,23.926,-50.293,-11.719,33.203,17.578,0
1542906469.471,25.391,-44.434,-7.324,51.270,45.410,0
1542906469.475,31.738,-51.758,-16.113,46.387,38.086,0
1542906469.479,19.531,-58.594,-25.879,18.555,-15.625,0
1542906469.483,30.273,-53.223,-22.949,12.207,20.508,0
1542906469.487,63.477,-42.969,-17.578,30.273,44.434,0
1542906469.491,66.895,-42.969,-19.043,36.133,61.035,0
1542906469.494,58.594,-52.246,-21.484,40.527,73.730,0
1542906469.498,35.645,-57.129,-16.602,51.758,75.195,0
1542906469.502,49.316,-45.898,-13.184,53.223,55.664,0
1542906469.506,53.711,-42.969,-20.020,45.410,43.945,0
1542906469.510,44.922,-40.039,-30.273,48.828,51.270,0
1542906469.514,70.801,-31.250,-24.414,64.453,80.078,0
1542906469.518,62.500,-33.691,-12.207,48.828,89.355,0
1542906469.522,78.125,-28.809,-8.301,34.180,107.910,0
1542906469.526,108.398,-39.551,-10.742,57.129,69.824,0
1542906469.530,98.145,-39.551,-25.879,61.035,35.156,0
1542906469.534,61.035,-26.855,-32.715,57.129,32.715,0
1542906469.537,19.531,-33.691,-30.762,51.270,33.203,0
1542906469.541,15.625,-43.945,-11.719,43.945,-17.578,0
1542906469.545,44.434,-56.152,9.277,73.242,-54.688,0
1542906469.549,71.289,-48.340,0.488,74.707,25.391,0
1542906469.553,75.195,-41.504,-18.066,49.316,32.715,0
1542906469.557,57.617,-36.133,-16.602,52.734,24.414,0
1542906469.561,40.039,-23.926,-14.160,51.270,53.223,0
1542906469.565,36.621,-24.414,-16.602,49.805,70.312,0
1542906469.569,56.641,-21.973,-19.531,58.594,17.578,0
1542906469.573,85.938,-15.625,-27.344,74.707,-4.883,0
1542906469.577,112.305,-16.113,-21.973,95.703,64.941,0
1542906469.580,65.918,-37.598,-4.883,84.961,30.273,0
1542906469.584,20.996,-50.293,-6.348,51.270,5.859,0
1542906469.588,52.246,-30.273,-14.648,39.551,3.906,0
1542906469.592,55.664,-17.578,-14.160,50.293,-20.020,0
1542906469.596,67.871,-24.902,-18.555,60.059,28.320,0
1542906469.600,80.566,-24.902,-37.598,83.496,69.336,0
1542906469.604,73.242,-32.715,-31.250,103.027,23.926,0
1542906469.608,93.750,-50.293,5.371,92.285,25.879,0
1542906469.612,86.426,-49.316,0.977,89.844,53.711,0
1542906469.616,60.059,-31.250,-8.301,71.289,34.668,0
1542906469.619,67.871,-14.160,-8.789,66.895,-5.859,0
1542906469.623,69.824,-21.484,-21.973,74.707,12.695,0
1542906469.627,60.059,-20.996,-16.113,58.594,74.219,0
1542906469.631,76.172,-6.836,6.836,64.941,31.250,0
1542906469.635,66.895,-12.695,21.484,83.496,-14.648,0
1542906469.639,38.574,-20.996,17.090,70.312,24.902,0
1542906469.643,49.805,-9.766,4.395,54.199,64.941,0
1542906469.647,87.402,-3.906,-5.859,83.984,85.449,0
1542906469.651,86.914,-16.113,-16.602,82.031,73.242,0
1542906469.655,48.828,-22.949,-15.625,52.734,67.383,0
1542906469.659,36.133,-24.414,-5.859,45.410,47.852,0
1542906469.662,55.176,-28.809,-5.859,62.012,65.918,0
1542906469.666,83.984,-20.996,-1.953,65.918,81.543,0
1542906469.670,78.613,1.953,8.789,60.547,37.109,0
1542906469.674,55.176,13.672,6.348,74.219,44.922,0
1542906469.678,69.824,3.906,-0.977,81.543,19.043,0
1542906469.682,59.570,-18.066,-5.859,77.148,36.621,0
1542906469.686,58.105,-7.812,-2.930,69.336,17.578,0
1542906469.690,83.984,7.812,4.883,61.523,-50.781,0
1542906469.694,93.262,2.441,13.672,69.824,-8.789,0
1542906469.698,69.824,-1.953,18.066,69.336,-23.926,0
1542906469.702,47.852,-1.953,14.160,63.477,-14.648,0
1542906469.705,60.547,6.348,5.859,65.430,49.316,0
1542906469.709,78.125,10.742,6.348,62.988,31.738,0
1542906469.713,86.426,-9.766,28.809,78.613,26.855,0
1542906469.717,103.027,-21.973,33.691,117.676,47.363,0
1542906469.721,100.098,2.441,8.301,117.188,71.289,0
1542906469.725,72.266,21.484,-7.812,74.707,95.215,0
1542906469.729,60.059,25.391,-10.742,56.152,48.828,0
1542906469.733,66.895,24.902,-10.254,62.500,-15.625,0
1542906469.737,74.219,25.879,-8.789,56.641,-4.395,0
1542906469.741,89.355,33.691,-17.090,54.688,50.293,0
1542906469.744,103.516,36.133,-19.531,72.266,59.570,0
1542906469.748,95.215,43.457,-20.996,57.617,96.680,0
1542906469.752,90.332,44.434,-26.855,42.969,80.566,0
1542906469.756,82.520,39.062,-23.926,54.199,32.227,0
1542906469.760,86.426,50.293,-27.832,61.523,28.320,0
1542906469.764,83.496,45.898,-39.551,52.246,32.715,0
1542906469.768,84.473,42.480,-42.480,52.734,15.625,0
1542906469.772,87.402,38.086,-40.527,67.871,0.000,0
1542906469.776,88.379,21.484,-32.227,70.312,37.109,0
1542906469.780,85.938,23.926,-31.250,59.570,48.340,0
1542906469.784,62.988,29.785,-36.621,64.941,56.641,0
1542906469.787,56.152,22.461,-26.367,69.336,23.438,0
1542906469.791,80.078,21.484,-20.020,61.035,25.879,0
1542906469.795,103.516,22.461,-22.949,57.617,50.293,0
1542906469.799,94.238,20.020,-20.508,52.734,40.039,0
1542906469.803,74.707,19.531,-20.996,41.016,74.707,0
1542906469.807,61.035,15.137,-16.113,54.199,62.500,0
1542906469.811,51.758,28.320,-17.578,61.035,43.457,0
1542906469.815,68.848,38.086,-15.137,63.477,93.750,0
1542906469.819,74.219,33.203,0.977,74.219,104.004,0
1542906469.823,43.945,39.062,-9.277,53.223,62.012,0
1542906469.827,54.199,36.133,-20.020,54.199,44.434,0
1542906469.830,63.477,24.414,-6.836,57.617,28.809,0
1542906469.834,43.945,15.137,6.836,48.340,32.715,0
1542906469.838,51.758,19.531,4.395,45.410,77.148,0
1542906469.842,58.105,27.832,0.000,41.016,40.039,0
1542906469.846,73.730,31.738,-1.465,33.691,3.906,0
1542906469.850,76.660,24.414,-2.441,50.293,-1.465,0
1542906469.854,39.062,18.066,-2.930,56.152,-48.340,0
1542906469.858,49.805,13.672,-1.953,33.691,-46.875,0
1542906469.862,70.312,9.766,-5.371,40.039,1.953,0
1542906469.866,55.664,13.184,-3.418,62.988,28.809,0
1542906469.869,53.711,17.090,0.488,58.594,64.453,0
1542906469.873,53.223,7.812,-7.812,48.828,86.426,0
1542906469.877,72.266,0.000,-9.277,71.777,40.039,0
1542906469.881,73.242,20.508,-2.930,66.895,43.457,0
1542906469.885,61.035,33.203,2.930,45.898,30.273,0
1542906469.889,45.410,29.297,16.602,60.059,32.227,0
1542906469.893,23.926,17.090,7.812,56.641,37.109,0
1542906469.897,21.484,14.648,-1.953,46.387,20.020,0
1542906469.901,28.809,16.602,9.277,49.805,50.293,0
1542906469.905,49.805,14.160,7.812,59.082,33.203,0
1542906469.909,48.340,16.602,2.441,61.035,32.227,0
1542906469.912,42.480,22.949,12.207,53.223,0.488,0
1542906469.916,48.828,25.879,12.695,51.270,-17.090,0
1542906469.920,59.570,23.926,8.301,44.922,51.758,0
1542906469.924,66.406,19.531,15.137,61.523,33.203,0
1542906469.928,61.523,22.461,2.441,57.129,7.812,0
1542906469.932,72.266,10.254,-2.441,60.059,34.180,0
1542906469.936,74.219,-5.859,16.113,71.289,44.434,0
1542906469.940,57.129,8.301,23.926,48.828,40.527,0
1542906469.944,40.527,16.602,12.695,48.828,0.977,0
1542906469.948,53.711,30.273,4.395,63.965,5.371,0
1542906469.952,68.359,49.316,4.395,53.711,16.113,0
1542906469.955,51.758,34.180,6.836,46.875,-2.441,0
1542906469.959,59.570,14.648,9.766,67.871,17.090,0
1542906469.963,92.773,17.090,9.766,94.727,44.922,0
1542906469.967,77.148,24.414,13.672,89.844,57.129,0
1542906469.971,35.645,28.809,13.184,45.898,7.812,0
1542906469.975,40.527,35.156,-0.977,19.043,-1.465,0
1542906469.979,62.500,38.086,-4.883,31.738,37.598,0
1542906469.983,77.148,36.133,0.000,51.270,27.832,0
1542906469.987,57.129,40.039,-2.930,44.434,-12.695,0
1542906469.991,41.992,36.621,0.000,40.527,-33.203,0
1542906469.994,62.500,33.691,3.418,59.082,-23.926,0
1542906469.998,83.984,34.180,-3.906,53.223,62.012,0
1542906470.002,69.824,38.086,-11.719,50.781,87.402,0
1542906470.006,51.270,38.574,-12.207,52.734,10.742,0
1542906470.010,83.008,20.996,0.488,64.941,5.859,0
1542906470.014,76.172,20.996,0.000,80.078,46.875,0
1542906470.018,58.594,41.992,-18.555,64.941,6.836,0
1542906470.022,71.289,39.062,-15.625,53.223,-1.465,0
1542906470.026,76.172,27.832,8.301,72.266,29.785,0
1542906470.030,55.664,30.762,14.648,64.453,40.039,0
1542906470.034,56.641,43.457,9.277,56.641,14.648,0
1542906470.037,70.801,48.828,1.953,57.129,35.645,0
1542906470.041,57.617,38.086,1.465,49.316,54.199,0
1542906470.045,61.035,25.879,8.789,67.871,32.715,0
1542906470.049,69.336,21.973,12.207,87.402,26.367,0
1542906470.053,68.848,24.414,5.371,71.289,19.043,0
1542906470.057,72.754,20.020,9.766,72.754,38.086,0
1542906470.061,72.754,24.902,6.348,82.031,60.547,0
1542906470.065,71.777,39.551,-6.348,58.594,53.711,0
1542906470.069,63.477,23.438,6.348,56.641,42.480,0
1542906470.073,57.617,20.996,10.742,70.312,57.617,0
1542906470.077,73.730,30.273,11.719,64.453,59.082,0
1542906470.080,73.730,27.832,11.230,47.363,8.301,0
1542906470.084,57.129,21.484,6.348,49.805,11.230,0
1542906470.088,63.477,20.996,4.883,73.242,37.109,0
1542906470.092,62.500,24.902,5.859,78.125,19.043,0
1542906470.096,60.059,29.785,5.859,78.125,32.715,0
1542906470.100,72.754,31.738,10.742,85.449,81.543,0
1542906470.104,78.125,22.949,26.855,82.031,55.176,0
1542906470.108,56.641,25.391,26.367,53.711,3.906,0
1542906470.112,42.969,21.484,12.207,49.805,-13.184,0
1542906470.116,61.523,14.648,-1.465,57.617,-23.926,0
1542906470.119,60.059,14.648,1.953,56.152,28.809,0
1542906470.123,52.246,21.973,11.230,57.129,23.926,0
1542906470.127,54.688,24.414,17.578,42.969,-20.508,0
1542906470.131,38.574,24.902,21.484,51.758,29.297,0
1542906470.135,40.039,36.133,8.301,54.688,37.109,0
1542906470.139,47.852,26.855,11.719,51.270,54.688,0
1542906470.143,28.320,10.742,18.066,58.105,80.078,0
1542906470.147,40.527,18.555,13.184,51.270,58.594,0
1542906470.151,57.129,15.137,14.160,46.875,93.262,0
1542906470.155,62.500,13.184,15.625,53.711,65.918,0
1542906470.159,73.730,28.320,17.578,58.105,31.250,0
1542906470.162,70.801,30.762,18.555,66.895,64.453,0
1542906470.166,39.062,21.973,16.602,61.035,89.355,0
1542906470.170,13.672,21.484,8.301,40.527,71.777,0
1542906470.174,21.484,19.531,9.766,43.945,54.199,0
1542906470.178,48.340,23.926,12.695,49.316,33.203,0
1542906470.182,64.453,29.785,0.977,54.688,80.566,0
1542906470.186,59.570,20.996,9.277,65.918,70.801,0
1542906470.190,55.664,12.695,21.973,51.270,33.691,0
1542906470.194,41.016,12.695,22.461,46.875,86.426,0
1542906470.198,50.293,18.066,22.949,51.270,50.293,0
1542906470.202,64.453,19.043,18.555,47.852,-25.879,0
1542906470.205,50.781,4.883,12.695,59.082,-18.066,0
1542906470.209,58.594,5.371,2.441,60.059,-2.441,0
1542906470.213,64.941,32.227,-1.465,47.363,70.801,0
1542906470.217,67.383,48.340,-4.883,42.480,126.953,0
1542906470.221,81.543,45.410,-8.301,38.086,61.523,0
1542906470.225,35.156,30.762,9.766,37.109,59.082,0
1542906470.229,17.578,18.066,34.668,52.734,70.801,0
1542906470.233,42.480,23.438,27.832,61.523,38.086,0
1542906470.237,39.062,28.320,11.719,54.688,23.926,0
1542906470.241,31.250,24.902,10.254,46.387,55.176,0
1542906470.244,39.062,22.949,14.648,48.828,56.152,0
1542906470.248,39.551,19.531,33.691,72.754,85.449,0
1542906470.252,51.270,16.113,31.738,64.453,52.246,0
1542906470.256,44.922,13.672,10.254,31.738,12.695,0
1542906470.260,37.598,0.000,8.301,41.016,32.227,0
1542906470.264,49.316,-2.441,10.254,50.781,9.766,0
1542906470.268,49.316,7.324,-0.488,42.480,10.254,0
1542906470.272,63.965,21.484,-2.441,55.176,34.180,0
1542906470.276,64.453,26.855,9.277,60.059,20.508,0
1542906470.280,60.547,13.672,21.484,53.711,-0.977,0
1542906470.284,58.105,25.879,11.719,36.133,68.848,0
1542906470.287,69.336,38.086,2.441,41.016,70.312,0
1542906470.291,47.852,24.902,20.020,42.480,-42.480,0
1542906470.295,29.297,19.043,19.531,46.875,-35.156,0
1542906470.299,41.992,22.461,7.324,62.500,50.781,0
1542906470.303,62.012,21.973,10.742,69.824,39.062,0
1542906470.307,69.824,19.531,1.953,76.172,38.574,0
1542906470.311,69.824,16.602,-3.418,57.129,36.621,0
1542906470.315,66.406,7.812,1.953,50.781,16.602,0
1542906470.319,42.480,5.859,2.930,40.039,60.059,0
1542906470.323,45.410,16.602,6.348,31.250,42.480,0
1542906470.327,63.477,19.043,13.672,35.156,20.508,0
1542906470.330,66.406,12.695,13.672,51.270,2.441,0
1542906470.334,94.238,23.438,1.953,83.496,36.621,0
1542906470.338,87.402,26.855,10.742,73.242,75.195,0
1542906470.342,8.789,12.695,29.785,32.715,51.270,0
1542906470.346,1.953,9.277,24.902,38.086,22.949,0
1542906470.350,46.387,5.859,17.090,49.805,-45.410,0
1542906470.354,32.715,0.488,27.344,41.992,-20.508,0
1542906470.358,21.484,2.441,32.715,45.410,69.336,0
1542906470.362,32.227,-0.977,23.926,41.992,59.082,0
1542906470.366,35.156,-7.812,18.066,54.199,7.812,0
1542906470.369,41.504,-2.441,20.508,74.219,-30.762,0
1542906470.373,45.898,1.953,18.066,60.059,-1.465,0
1542906470.377,49.316,4.395,15.137,53.223,137.207,0
1542906470.381,53.711,-0.977,22.949,61.523,123.047,0
1542906470.385,49.316,-6.348,23.926,55.664,-1.953,0
1542906470.389,52.246,-2.930,15.625,44.434,3.418,0
1542906470.393,44.922,-4.883,20.508,37.109,29.297,0
1542906470.397,42.969,6.348,21.484,59.082,56.641,0
1542906470.401,52.246,13.672,15.137,62.500,57.129,0
1542906470.405,69.336,14.160,9.766,47.363,17.090,0
1542906470.409,61.035,10.742,10.742,46.387,5.859,0
1542906470.412,32.227,7.812,25.391,45.898,58.105,0
1542906470.416,43.945,16.602,28.320,47.363,69.336,0
1542906470.420,62.500,26.855,19.531,49.316,36.621,0
1542906470.424,45.898,18.066,22.461,65.430,45.410,0
1542906470.428,39.551,3.418,31.738,60.059,35.156,0
1542906470.432,54.688,2.441,15.625,45.898,35.156,0
1542906470.436,34.668,4.395,2.441,51.270,83.984,0
1542906470.440,45.410,4.883,8.789,58.594,83.008,0
1542906470.444,48.340,9.766,19.531,48.828,73.730,0
1542906470.448,42.480,9.766,21.973,45.410,65.918,0
1542906470.452,37.598,11.230,24.414,48.828,71.289,0
1542906470.455,33.203,12.207,24.902,41.504,32.227,0
1542906470.459,50.781,3.906,15.137,46.387,-38.574,0
1542906470.463,41.016,10.742,19.043,33.203,-8.301,0
1542906470.467,46.387,21.484,16.602,38.574,6.348,0
1542906470.471,61.035,33.203,0.000,44.434,1.465,0
1542906470.475,65.918,29.785,12.695,46.875,17.090,0
1542906470.479,39.551,13.184,31.250,43.945,41.992,0
1542906470.483,23.438,8.301,24.414,52.246,22.461,0
1542906470.487,50.781,-0.488,24.902,53.711,-15.625,0
1542906470.491,51.270,3.906,13.672,37.598,27.832,0
1542906470.494,39.062,21.484,-0.977,46.387,33.691,0
1542906470.498,34.180,13.672,1.953,46.875,6.836,0
1542906470.502,44.922,11.230,7.324,36.621,44.434,0
1542906470.506,45.898,11.230,23.926,39.551,54.688,0
1542906470.510,52.246,15.625,29.297,41.992,69.824,0
1542906470.514,72.754,27.344,28.809,39.062,58.594,0
1542906470.518,38.574,24.414,28.809,37.109,-23.438,0
1542906470.522,1.953,15.137,14.648,35.156,7.812,0
1542906470.526,13.672,11.719,14.648,45.898,70.801,0
1542906470.530,36.133,12.207,11.230,51.758,76.660,0
1542906470.534,45.898,22.949,7.812,40.527,49.805,0
1542906470.537,51.758,19.531,16.113,25.879,55.176,0
1542906470.541,59.570,7.324,22.949,29.297,12.207,0
1542906470.545,66.895,19.043,11.230,40.039,-16.113,0
1542906470.549,36.621,32.715,0.977,44.434,58.105,0
1542906470.553,11.230,26.855,17.090,49.805,78.125,0
1542906470.557,45.898,11.719,30.273,42.480,52.734,0
1542906470.561,62.012,11.719,21.484,38.086,40.039,0
1542906470.565,52.734,18.555,11.719,32.227,55.664,0
1542906470.569,47.363,25.879,14.648,28.320,45.898,0
1542906470.573,42.969,27.832,19.043,47.852,-2.930,0
1542906470.577,35.156,23.926,18.066,46.875,-14.648,0
1542906470.580,38.574,31.738,15.137,41.504,18.555,0
1542906470.584,46.387,37.109,19.043,53.223,73.730,0
1542906470.588,58.105,25.879,17.090,53.223,84.961,0
1542906470.592,64.941,9.766,14.160,69.336,28.809,0
1542906470.596,54.688,10.742,19.531,55.664,-16.113,0
1542906470.600,33.203,25.391,16.113,11.719,31.738,0
1542906470.604,27.344,34.668,2.930,23.438,48.340,0
1542906470.608,51.758,32.715,7.812,39.062,3.906,0
1542906470.612,67.383,20.508,14.160,33.691,-3.906,0
1542906470.616,62.500,16.113,16.602,46.387,4.395,0
1542906470.619,60.547,24.902,25.391,68.359,13.184,0
1542906470.623,63.477,33.203,3.906,68.359,0.977,0
1542906470.627,62.988,30.762,-13.672,27.832,14.160,0
1542906470.631,23.926,19.043,14.648,22.949,91.797,0
1542906470.635,34.180,21.973,27.832,52.734,93.750,0
1542906470.639,43.457,20.508,23.926,42.480,-30.762,0
1542906470.643,39.062,20.508,21.973,40.039,-50.781,0
1542906470.647,45.410,35.645,12.695,51.758,54.688,0
1542906470.651,49.316,33.203,3.418,47.363,40.039,0
1542906470.655,65.430,19.531,9.766,24.902,-9.277,0
1542906470.659,60.059,25.879,22.461,29.297,25.879,0
1542906470.662,45.410,35.156,20.508,46.387,30.273,0
1542906470.666,51.270,37.109,21.484,52.734,74.219,0
1542906470.670,52.246,39.062,24.414,46.875,70.312,0
1542906470.674,50.781,30.762,22.461,42.480,-7.324,0
1542906470.678,77.637,20.020,24.414,60.547,31.738,0
1542906470.682,68.359,21.973,17.578,67.871,94.238,0
1542906470.686,33.203,23.438,14.648,55.664,63.477,0
1542906470.690,41.992,27.344,20.020,55.176,77.148,0
1542906470.694,86.914,36.133,17.090,61.035,46.387,0
1542906470.698,73.730,31.738,5.859,62.012,-24.902,0
1542906470.702,60.059,31.250,11.719,47.363,10.254,0
1542906470.705,73.730,37.598,18.555,36.133,36.133,0
1542906470.709,61.523,37.598,17.090,45.410,69.336,0
1542906470.713,63.965,36.621,28.320,48.340,2.441,0
1542906470.717,48.340,28.320,32.227,58.594,-8.789,0
1542906470.721,25.879,16.113,20.996,52.734,70.312,0
1542906470.725,42.480,20.508,9.766,38.086,34.668,0
1542906470.729,59.082,25.879,12.695,55.176,30.762,0
1542906470.733,62.988,14.648,21.973,48.340,54.688,0
1542906470.737,81.543,24.902,15.137,36.621,73.730,0
1542906470.741,73.242,37.109,13.672,65.430,72.754,0
1542906470.744,71.289,34.180,20.996,56.152,29.297,0
1542906470.748,67.383,36.621,19.043,23.438,75.684,0
1542906470.752,67.871,32.227,13.672,42.969,58.105,0
1542906470.756,80.078,35.645,11.230,57.129,11.719,0
1542906470.760,75.195,43.945,9.277,48.340,20.020,0
1542906470.764,61.523,37.109,14.648,52.734,20.996,0
1542906470.768,60.547,27.344,16.602,54.199,41.992,0
1542906470.772,73.730,36.621,16.113,51.270,60.059,0
1542906470.776,63.477,38.086,23.926,45.410,18.555,0
1542906470.780,72.266,29.785,21.484,70.801,-8.301,0
1542906470.784,104.004,31.738,19.043,82.520,-0.977,0
1542906470.787,57.617,22.949,26.855,52.734,2.930,0
1542906470.791,34.180,8.789,33.203,42.480,45.898,0
1542906470.795,69.824,4.883,25.879,46.875,72.266,0
1542906470.799,53.223,11.719,16.113,40.039,60.547,0
1542906470.803,51.758,28.809,10.742,41.016,43.457,0
1542906470.807,43.457,28.320,26.367,49.316,68.359,0
1542906470.811,62.500,23.926,44.434,62.012,49.316,0
1542906470.815,72.266,31.738,29.785,64.453,9.277,0
1542906470.819,46.875,27.344,20.996,41.016,68.848,0
1542906470.823,50.293,26.367,31.738,50.293,100.098,0
1542906470.827,58.105,23.438,31.250,61.035,53.223,0
1542906470.830,70.312,15.625,20.020,47.363,56.152,0
1542906470.834,65.430,17.578,20.020,47.852,43.945,0
1542906470.838,72.266,23.926,20.996,60.547,31.250,0
1542906470.842,73.242,27.344,22.461,73.242,35.645,0
1542906470.846,42.969,22.949,24.414,53.711,3.906,0
1542906470.850,45.898,22.461,20.996,48.340,0.000,0
1542906470.854,62.988,19.043,22.949,62.012,37.109,0
1542906470.858,64.941,16.602,28.809,50.293,41.504,0
1542906470.862,62.012,21.484,33.691,61.523,45.410,0
1542906470.866,55.664,25.879,22.949,64.941,24.414,0
1542906470.869,55.176,23.926,19.531,51.270,-12.695,0
1542906470.873,58.594,26.855,30.273,41.992,4.395,0
1542906470.877,73.242,23.926,35.645,44.434,5.371,0
1542906470.881,85.449,12.207,21.484,57.617,-7.324,0
1542906470.885,102.539,19.531,27.344,56.641,4.883,0
1542906470.889,86.914,33.203,34.180,59.082,24.414,0
1542906470.893,49.805,26.855,14.648,62.988,-49.316,0
1542906470.897,62.500,18.066,5.859,63.965,-46.875,0
1542906470.901,61.035,32.715,7.812,60.547,-2.930,0
1542906470.905,44.434,46.875,20.508,56.641,4.883,0
1542906470.909,50.781,43.457,22.949,50.781,32.715,0
1542906470.912,58.594,38.086,19.043,41.992,0.977,0
1542906470.916,71.289,34.668,23.926,58.105,-3.906,0
1542906470.920,75.195,19.043,21.484,70.312,-1.953,0
1542906470.924,89.355,22.949,12.207,63.965,33.691,0
1542906470.928,89.844,35.645,17.090,59.082,74.219,0
1542906470.932,62.012,26.367,24.414,27.832,63.965,0
1542906470.936,57.129,29.785,20.996,25.391,67.871,0
1542906470.940,49.316,36.133,10.742,36.133,31.738,0
1542906470.944,59.570,34.668,13.184,34.180,15.137,0
1542906470.948,72.266,31.250,19.531,44.922,18.066,0
1542906470.952,77.637,37.109,10.254,53.711,-11.719,0
1542906470.955,67.383,37.109,8.789,51.758,47.363,0
1542906470.959,50.781,31.250,13.672,50.781,81.055,0
1542906470.963,48.340,29.297,14.160,51.270,32.227,0
1542906470.967,62.012,31.738,16.113,51.758,42.480,0
1542906470.971,80.078,36.133,15.137,48.828,35.645,0
1542906470.975,68.359,33.691,16.113,44.922,24.414,0
1542906470.979,58.594,29.297,20.508,41.504,23.438,0
1542906470.983,51.270,35.156,15.625,45.410,29.297,0
1542906470.987,56.641,36.621,16.602,43.457,58.105,0
1542906470.991,64.453,17.090,14.160,26.367,-1.465,0
1542906470.994,66.895,6.348,11.230,44.434,43.945,0
1542906470.998,65.918,24.902,10.742,62.012,40.039,0
1542906471.002,48.828,36.621,9.766,49.805,31.738,0
1542906471.006,46.387,36.133,12.695,34.668,58.105,0
1542906471.010,53.223,39.062,16.602,45.898,0.488,0
1542906471.014,48.828,36.621,21.484,50.781,33.203,0
1542906471.018,52.734,24.414,20.508,18.555,99.121,0
1542906471.022,66.895,20.020,17.578,25.879,57.617,0
1542906471.026,62.988,23.926,10.254,47.852,96.680,0
1542906471.030,40.039,20.508,12.207,37.598,87.402,0
1542906471.034,49.316,25.879,14.648,36.621,24.414,0
1542906471.037,58.105,32.715,16.602,41.504,21.973,0
1542906471.041,50.781,22.949,20.020,43.457,20.020,0
1542906471.045,58.594,23.438,20.508,50.293,28.320,0
1542906471.049,57.617,32.227,16.113,37.598,70.312,0
1542906471.053,39.551,32.227,12.207,41.016,73.730,0
1542906471.057,29.297,18.555,15.137,41.016,42.969,0
1542906471.061,42.969,21.484,12.695,27.344,25.391,0
1542906471.065,61.523,40.039,7.324,28.809,33.203,0
1542906471.069,54.199,41.504,12.695,31.738,37.598,0
1542906471.073,54.688,39.062,19.043,46.387,0.000,0
1542906471.077,45.898,27.832,18.555,49.805,13.672,0
1542906471.080,53.711,10.742,14.648,42.969,45.410,0
1542906471.084,85.449,16.113,9.277,39.551,10.742,0
1542906471.088,60.547,28.809,16.602,37.109,-12.207,0
1542906471.092,49.805,32.227,21.484,41.016,23.438,0
1542906471.096,47.852,24.902,14.648,44.922,39.062,0
1542906471.100,38.086,25.391,14.648,47.363,70.801,0
1542906471.104,56.641,33.691,8.789,39.062,74.707,0
1542906471.108,58.594,24.414,2.930,30.273,78.613,0
1542906471.112,59.570,22.949,14.160,39.062,45.898,0
1542906471.116,63.965,28.809,16.602,36.133,-4.395,0
1542906471.119,44.922,26.367,10.254,30.273,66.895,0
1542906471.123,48.828,24.902,13.672,42.480,27.832,0
1542906471.127,50.293,20.996,20.020,53.223,-24.414,0
1542906471.131,35.645,13.672,16.602,47.852,34.180,0
1542906471.135,44.922,2.441,10.742,36.133,36.133,0
1542906471.139,55.176,6.348,5.371,37.109,34.668,0
1542906471.143,47.852,28.320,1.953,33.203,65.918,0
1542906471.147,39.551,33.691,9.766,35.156,73.242,0
1542906471.151,41.016,34.180,27.832,21.973,-15.625,0
1542906471.155,44.434,38.574,30.273,9.277,-7.812,0
1542906471.159,41.504,34.180,21.973,28.809,59.082,0
1542906471.162,33.203,27.832,18.066,45.410,57.617,0
1542906471.166,49.805,29.297,14.160,37.598,62.012,0
1542906471.170,50.781,30.273,16.602,25.391,76.660,0
1542906471.174,36.133,24.902,18.066,33.203,47.852,0
1542906471.178,38.574,26.855,14.648,31.738,25.879,0
1542906471.182,43.457,34.668,12.695,29.297,80.566,0
1542906471.186,65.918,29.297,15.625,42.969,72.266,0
1542906471.190,59.570,24.414,10.254,42.969,-3.418,0
1542906471.194,32.227,27.344,6.836,37.109,-2.441,0
1542906471.198,34.668,26.855,13.184,42.969,57.617,0
1542906471.202,43.457,22.461,16.602,42.969,98.145,0
1542906471.205,60.547,30.273,23.438,54.688,79.590,0
1542906471.209,46.875,37.598,15.137,56.641,39.551,0
1542906471.213,26.367,33.691,7.812,31.250,44.922,0
1542906471.217,55.664,20.020,13.672,39.551,58.594,0
1542906471.221,80.078,14.648,13.184,70.801,36.621,0
1542906471.225,50.781,29.785,16.602,55.664,-15.137,0
1542906471.229,37.109,39.551,17.578,32.715,-34.668,0
1542906471.233,50.781,35.156,17.090,33.691,31.250,0
1542906471.237,38.574,42.969,9.766,34.180,73.242,0
1542906471.241,32.227,48.340,2.441,32.227,66.895,0
1542906471.244,50.781,41.992,0.000,28.809,25.879,0
1542906471.248,50.781,40.039,-8.301,36.621,34.180,0
