timestamps,TP9,AF7,AF8,TP10,Right AUX,Marker0
1542736097.803,16.602,32.715,21.973,14.160,47.852,0
1542736097.807,23.438,36.133,16.113,26.367,31.250,0
1542736097.811,12.695,36.621,18.555,32.715,26.855,0
1542736097.815,12.207,39.551,20.508,35.156,34.180,0
1542736097.819,22.949,38.574,24.902,-0.488,2.930,0
1542736097.823,20.996,38.086,27.344,12.207,-34.668,0
1542736097.826,14.648,37.598,20.508,53.223,-1.465,0
1542736097.830,24.414,39.062,11.719,27.832,27.832,0
1542736097.834,36.133,41.992,15.137,27.344,63.477,0
1542736097.838,25.879,37.598,17.090,14.648,75.195,0
1542736097.842,8.301,34.180,15.137,25.391,52.246,0
1542736097.846,10.742,37.598,20.508,49.316,81.055,0
1542736097.850,16.113,36.133,19.531,16.113,61.523,0
1542736097.854,11.230,35.156,14.648,5.859,37.598,0
1542736097.858,4.883,31.738,13.184,20.020,38.574,0
1542736097.862,7.324,29.297,13.672,36.133,50.781,0
1542736097.866,40.527,31.250,15.137,37.109,22.461,0
1542736097.869,52.734,34.180,10.742,13.184,25.391,0
1542736097.873,20.020,40.527,13.672,27.832,114.746,0
1542736097.877,22.461,37.598,23.926,46.875,67.383,0
1542736097.881,43.457,34.180,27.832,38.086,56.152,0
1542736097.885,38.086,31.250,27.832,39.551,49.316,0
1542736097.889,26.855,33.691,20.996,24.414,-12.695,0
1542736097.893,10.742,28.320,20.020,44.434,24.414,0
1542736097.897,17.578,22.949,21.973,41.016,-8.789,0
1542736097.901,41.504,28.320,21.973,37.598,-28.809,0
1542736097.905,27.832,29.297,28.809,52.246,5.859,0
1542736097.908,11.719,31.250,24.902,30.762,53.223,0
1542736097.912,41.504,32.715,19.043,36.621,17.578,0
1542736097.916,26.367,32.227,24.902,21.484,-21.973,0
1542736097.920,23.438,34.668,27.344,7.812,39.551,0
1542736097.924,45.410,32.227,24.902,32.227,38.086,0
1542736097.928,29.297,19.043,27.832,48.340,52.734,0
1542736097.932,17.578,24.902,24.414,30.762,49.805,0
1542736097.936,26.855,29.785,24.414,20.020,52.734,0
1542736097.940,35.645,25.391,29.785,39.062,40.527,0
1542736097.944,39.551,33.691,25.391,40.039,28.809,0
1542736097.948,44.922,38.086,23.926,37.109,63.965,0
1542736097.951,26.855,35.645,29.785,30.762,28.809,0
1542736097.955,22.949,31.250,25.879,26.367,-18.066,0
1542736097.959,20.020,26.855,22.461,58.105,-5.859,0
1542736097.963,26.367,25.391,28.320,61.035,-1.953,0
1542736097.967,41.504,29.297,26.855,42.480,-12.207,0
1542736097.971,31.250,30.762,25.879,38.086,16.602,0
1542736097.975,45.898,31.250,31.250,42.969,42.480,0
1542736097.979,41.504,31.250,26.367,38.574,49.316,0
1542736097.983,27.344,30.762,24.902,38.086,-36.133,0
1542736097.987,22.461,32.715,28.809,34.180,-32.227,0
1542736097.991,27.344,33.691,27.344,23.438,58.105,0
1542736097.994,53.711,36.133,28.809,45.410,41.016,0
1542736097.998,40.527,34.668,30.762,49.316,46.875,0
1542736098.002,24.414,33.691,28.809,26.855,6.836,0
1542736098.006,38.086,36.621,21.484,43.945,-2.930,0
1542736098.010,49.805,34.668,22.949,54.199,77.148,0
1542736098.014,37.598,33.203,27.832,39.551,69.336,0
1542736098.018,28.320,31.738,24.414,33.203,49.316,0
1542736098.022,31.250,29.297,25.391,46.387,8.301,0
1542736098.026,35.156,28.809,27.832,51.270,-0.977,0
1542736098.030,48.828,30.273,23.438,59.082,37.598,0
1542736098.033,60.547,34.180,21.973,59.570,88.867,0
1542736098.037,56.152,29.785,26.367,24.902,90.332,0
1542736098.041,13.184,22.949,31.738,22.949,28.809,0
1542736098.045,7.812,20.508,33.691,34.180,0.977,0
1542736098.049,8.789,16.113,29.297,38.086,2.930,0
1542736098.053,17.578,21.973,25.391,43.945,28.320,0
1542736098.057,47.363,29.297,23.438,33.691,6.836,0
1542736098.061,43.945,27.344,19.531,38.574,-26.367,0
1542736098.065,39.551,28.809,22.949,61.523,-37.109,0
1542736098.069,37.598,30.762,31.250,51.270,-11.719,0
1542736098.073,48.828,31.738,31.738,18.066,-9.277,0
1542736098.076,37.598,31.738,24.414,36.133,-10.742,0
1542736098.080,27.832,26.855,24.414,56.641,45.410,0
1542736098.084,39.062,26.367,26.855,57.129,17.090,0
1542736098.088,43.945,33.691,25.391,64.453,9.277,0
1542736098.092,38.086,40.039,21.973,50.781,60.547,0
1542736098.096,39.551,37.598,23.438,47.363,47.363,0
1542736098.100,40.039,34.180,24.902,48.340,7.324,0
1542736098.104,40.527,33.691,28.320,57.129,-5.859,0
1542736098.108,41.016,36.133,27.832,52.734,34.668,0
1542736098.112,40.527,36.621,23.438,62.988,56.152,0
1542736098.116,48.828,35.645,25.391,70.801,35.645,0
1542736098.119,53.223,38.574,25.879,20.996,32.227,0
1542736098.123,70.312,36.621,24.902,36.621,27.344,0
1542736098.127,54.688,31.738,26.855,69.824,91.797,0
1542736098.131,34.180,27.832,32.227,66.895,123.047,0
1542736098.135,38.086,30.273,31.250,58.105,72.754,0
1542736098.139,37.598,32.715,28.809,45.410,52.246,0
1542736098.143,26.855,30.273,34.180,62.988,69.824,0
1542736098.147,24.414,31.738,33.691,66.406,96.191,0
1542736098.151,48.340,29.297,29.297,48.828,81.055,0
1542736098.155,53.223,25.879,24.902,33.691,41.016,0
1542736098.158,35.156,25.391,23.438,45.898,-14.648,0
1542736098.162,55.664,22.949,29.785,73.730,-6.348,0
1542736098.166,46.387,26.367,23.438,25.391,17.578,0
1542736098.170,13.672,38.574,10.254,0.977,68.359,0
1542736098.174,18.066,48.340,9.277,29.297,75.195,0
1542736098.178,35.156,47.363,12.695,33.691,20.020,0
1542736098.182,59.082,51.758,6.836,19.043,34.668,0
1542736098.186,52.246,53.711,-1.465,18.555,18.555,0
1542736098.190,36.133,46.875,0.000,52.246,-2.441,0
1542736098.194,51.758,51.270,5.859,26.855,-30.762,0
1542736098.198,36.133,49.316,7.324,29.297,-4.883,0
1542736098.201,14.160,38.086,9.766,56.152,17.578,0
1542736098.205,35.645,41.016,6.348,48.828,28.320,0
1542736098.209,29.785,43.457,8.789,21.973,19.043,0
1542736098.213,26.367,38.574,19.531,1.465,-5.371,0
1542736098.217,18.555,35.645,20.020,20.508,12.695,0
1542736098.221,20.020,34.668,19.043,39.551,-60.059,0
1542736098.225,47.852,42.969,17.578,17.090,-25.391,0
1542736098.229,44.922,39.062,16.113,31.738,31.250,0
1542736098.233,24.414,29.785,14.648,68.359,-12.207,0
1542736098.237,45.410,26.367,15.625,52.246,-19.043,0
1542736098.241,52.734,21.973,20.508,41.016,36.133,0
1542736098.244,34.180,28.809,18.066,37.598,65.430,0
1542736098.248,21.973,34.180,18.555,35.156,62.012,0
1542736098.252,14.160,33.203,20.996,43.457,100.586,0
1542736098.256,15.625,30.762,18.555,17.578,23.926,0
1542736098.260,13.184,26.367,19.043,17.090,-28.809,0
1542736098.264,18.066,33.203,19.531,26.855,9.277,0
1542736098.268,15.137,37.109,22.949,14.648,22.461,0
1542736098.272,27.344,38.086,23.438,34.668,53.223,0
1542736098.276,28.320,45.410,18.066,31.250,64.453,0
1542736098.280,-5.859,38.574,16.113,-7.812,48.828,0
1542736098.283,16.113,33.203,21.484,-10.254,-16.113,0
1542736098.287,25.879,34.668,20.020,19.531,-34.180,0
1542736098.291,14.648,33.691,17.090,19.043,-1.953,0
1542736098.295,31.250,33.691,15.625,-5.859,44.434,0
1542736098.299,8.301,29.297,15.137,16.113,61.035,0
1542736098.303,-4.395,26.855,16.113,2.930,25.879,0
1542736098.307,31.738,30.273,21.973,7.324,22.461,0
1542736098.311,41.992,37.109,24.902,61.035,27.832,0
1542736098.315,17.090,35.156,21.973,20.020,31.738,0
1542736098.319,8.789,34.180,19.531,1.953,50.781,0
1542736098.323,2.930,35.156,18.066,1.953,19.043,0
1542736098.326,27.344,36.621,18.555,7.324,-57.617,0
1542736098.330,36.621,34.668,21.484,27.832,-20.020,0
1542736098.334,32.227,29.785,24.414,41.016,11.719,0
1542736098.338,33.691,38.574,27.832,41.992,-26.855,0
1542736098.342,15.137,39.551,26.855,34.180,-27.344,0
1542736098.346,39.062,33.203,24.414,51.270,-23.438,0
1542736098.350,51.270,29.297,26.855,50.781,10.254,0
1542736098.354,51.270,29.785,20.020,45.410,10.254,0
1542736098.358,39.062,36.133,17.578,30.273,-5.371,0
1542736098.362,34.668,36.621,17.578,22.461,-17.578,0
1542736098.366,62.012,30.273,18.555,20.020,-33.203,0
1542736098.369,53.223,30.762,18.066,31.738,8.789,0
1542736098.373,45.898,30.762,20.020,27.832,32.715,0
1542736098.377,34.180,26.855,22.949,15.625,-16.113,0
1542736098.381,17.090,23.926,24.902,46.875,-34.668,0
1542736098.385,14.160,19.043,25.391,47.363,-40.039,0
1542736098.389,13.184,15.625,20.508,2.441,26.367,0
1542736098.393,15.625,15.137,19.531,-1.465,92.285,0
1542736098.397,9.277,20.996,16.602,8.301,95.703,0
1542736098.401,18.066,26.855,12.695,6.348,104.004,0
1542736098.405,39.062,22.949,17.578,23.438,51.758,0
1542736098.408,31.738,27.344,20.508,24.414,38.086,0
1542736098.412,32.715,25.391,22.949,36.133,26.367,0
1542736098.416,28.320,22.461,26.855,35.156,5.371,0
1542736098.420,9.766,25.879,20.508,5.371,104.004,0
1542736098.424,0.977,22.949,17.578,14.160,131.348,0
1542736098.428,42.969,24.414,20.020,6.836,78.125,0
1542736098.432,36.133,21.484,26.367,0.488,84.961,0
1542736098.436,0.000,15.625,27.344,21.484,31.250,0
1542736098.440,12.207,18.555,26.855,32.227,-4.395,0
1542736098.444,21.484,16.113,27.832,41.992,28.809,0
1542736098.448,17.578,20.996,23.438,-1.465,4.395,0
1542736098.451,21.484,27.344,21.973,-12.695,10.742,0
1542736098.455,26.367,21.973,23.926,21.484,34.668,0
1542736098.459,29.785,24.414,24.414,34.668,39.062,0
1542736098.463,19.043,26.367,25.391,22.949,60.059,0
1542736098.467,21.484,28.320,21.484,3.418,48.828,0
1542736098.471,22.461,32.227,18.066,30.273,91.309,0
1542736098.475,29.785,31.738,22.949,33.691,67.871,0
1542736098.479,46.387,28.320,24.902,35.645,-7.324,0
1542736098.483,32.227,27.832,21.484,46.875,34.668,0
1542736098.487,8.789,28.320,19.043,34.668,110.840,0
1542736098.491,25.879,29.785,21.484,33.691,93.262,0
1542736098.494,49.805,36.133,23.926,39.062,43.945,0
1542736098.498,25.879,37.598,20.508,47.363,52.246,0
1542736098.502,25.879,30.762,20.020,30.762,51.270,0
1542736098.506,27.344,29.785,24.902,24.414,48.340,0
1542736098.510,9.766,33.203,27.832,42.969,35.156,0
1542736098.514,24.902,30.762,26.855,32.227,41.016,0
1542736098.518,31.738,32.227,27.344,41.992,65.918,0
1542736098.522,27.832,33.691,22.461,53.223,52.734,0
1542736098.526,37.598,29.297,19.531,18.066,26.855,0
1542736098.530,24.902,30.762,23.926,15.625,36.621,0
1542736098.533,10.742,36.133,21.973,37.109,41.016,0
1542736098.537,17.578,37.598,22.949,39.062,14.160,0
1542736098.541,36.621,31.250,27.832,35.645,32.227,0
1542736098.545,41.504,30.762,28.320,20.020,18.555,0
1542736098.549,24.414,40.527,24.414,41.016,13.184,0
1542736098.553,35.156,37.598,28.809,57.129,35.156,0
1542736098.557,47.852,42.480,29.297,36.621,0.977,0
1542736098.561,46.387,46.875,24.414,40.527,28.320,0
1542736098.565,39.062,34.668,26.855,53.223,56.152,0
1542736098.569,41.992,38.086,25.391,53.711,84.961,0
1542736098.573,32.715,41.992,23.438,54.688,75.195,0
1542736098.576,26.855,34.668,26.367,50.293,24.414,0
1542736098.580,35.645,37.109,24.414,42.480,19.531,0
1542736098.584,50.781,40.527,17.090,42.480,28.809,0
1542736098.588,57.617,40.039,21.484,44.922,56.641,0
1542736098.592,43.945,39.551,25.879,45.898,-0.977,0
1542736098.596,33.691,41.504,24.414,37.598,-22.949,0
1542736098.600,44.434,49.316,21.484,43.945,-0.977,0
1542736098.604,39.551,45.410,22.461,43.945,2.930,0
1542736098.608,9.766,40.039,23.438,36.133,3.906,0
1542736098.612,34.180,40.039,22.949,52.246,-25.879,0
1542736098.616,57.129,37.109,23.926,30.762,25.879,0
1542736098.619,41.016,32.715,22.461,24.902,43.457,0
1542736098.623,46.875,33.691,20.996,56.641,10.742,0
1542736098.627,43.945,31.738,24.902,47.363,4.395,0
1542736098.631,31.250,27.832,27.344,62.012,39.062,0
1542736098.635,41.992,26.855,27.344,67.383,31.250,0
1542736098.639,37.598,26.367,26.367,42.969,5.859,0
1542736098.643,23.926,25.391,22.461,36.133,20.996,0
1542736098.647,41.992,26.367,24.414,40.527,10.742,0
1542736098.651,72.754,32.227,27.832,44.922,35.156,0
1542736098.655,49.316,32.227,25.879,40.039,60.547,0
1542736098.658,31.738,32.227,23.926,38.574,53.223,0
1542736098.662,35.645,31.738,22.949,39.551,61.523,0
1542736098.666,34.180,29.785,21.484,39.062,50.293,0
1542736098.670,62.500,32.715,22.461,56.152,31.738,0
1542736098.674,59.082,32.715,25.879,54.199,-11.719,0
1542736098.678,37.109,28.320,22.949,48.828,36.621,0
1542736098.682,43.945,24.902,19.043,46.875,62.988,0
1542736098.686,73.242,25.879,18.066,41.504,56.152,0
1542736098.690,66.895,27.344,16.602,39.551,76.172,0
1542736098.694,38.086,31.250,18.066,56.152,36.133,0
1542736098.698,32.715,28.320,22.949,73.242,-5.859,0
1542736098.701,33.691,21.973,22.461,42.969,13.672,0
1542736098.705,44.922,25.879,21.484,44.434,41.016,0
1542736098.709,39.551,32.715,19.531,78.613,52.734,0
1542736098.713,35.645,35.156,20.996,72.266,37.109,0
1542736098.717,47.852,36.133,22.949,47.852,44.434,0
1542736098.721,43.945,36.621,17.090,31.738,31.250,0
1542736098.725,49.805,35.645,19.043,42.480,-5.859,0
1542736098.729,50.293,40.527,15.625,49.316,23.926,0
1542736098.733,40.527,37.598,16.113,50.293,61.035,0
1542736098.737,31.738,32.715,24.902,57.129,33.203,0
1542736098.741,37.598,38.086,20.020,38.086,-0.488,0
1542736098.744,60.547,38.086,16.602,64.453,3.906,0
1542736098.748,56.641,40.527,18.555,57.617,6.836,0
1542736098.752,42.480,41.504,17.090,21.484,45.898,0
1542736098.756,37.109,39.062,15.625,33.203,62.988,0
1542736098.760,25.879,36.621,14.648,41.992,45.410,0
1542736098.764,42.969,32.227,17.578,53.223,16.602,0
1542736098.768,44.434,32.227,24.414,64.453,70.801,0
1542736098.772,46.387,40.039,25.879,69.824,76.660,0
1542736098.776,48.828,45.410,26.855,38.574,20.508,0
1542736098.780,30.273,50.293,23.926,46.387,-36.621,0
1542736098.783,30.273,52.246,20.508,54.199,-59.570,0
1542736098.787,46.387,47.363,23.926,62.988,-18.066,0
1542736098.791,62.500,48.340,24.414,65.918,17.578,0
1542736098.795,39.062,43.457,23.438,38.574,21.973,0
1542736098.799,27.344,37.109,27.344,35.645,49.805,0
1542736098.803,32.227,41.016,26.855,37.598,1.953,0
1542736098.807,45.898,47.852,20.996,35.156,-24.414,0
1542736098.811,30.762,46.875,19.043,36.133,16.113,0
1542736098.815,23.438,45.898,19.043,32.715,26.367,0
1542736098.819,34.668,44.922,20.996,20.508,41.016,0
1542736098.823,31.250,40.039,20.996,29.297,-8.789,0
1542736098.826,26.855,36.133,26.855,49.805,-16.113,0
1542736098.830,28.320,38.086,24.902,45.898,33.691,0
1542736098.834,29.297,41.992,24.414,36.133,2.441,0
1542736098.838,22.461,37.598,27.832,36.621,-22.461,0
1542736098.842,21.484,32.715,22.461,30.762,33.691,0
1542736098.846,30.762,33.691,23.438,41.504,7.812,0
1542736098.850,24.414,40.039,25.879,42.480,6.836,0
1542736098.854,9.766,41.016,27.832,39.551,15.625,0
1542736098.858,11.230,35.645,29.297,45.898,-24.902,0
1542736098.862,24.902,33.691,26.367,14.160,38.086,0
1542736098.866,28.320,33.203,28.809,1.953,70.801,0
1542736098.869,13.184,35.156,28.320,33.691,38.086,0
1542736098.873,12.207,37.598,27.832,40.039,-0.488,0
1542736098.877,17.578,39.062,33.691,45.898,-7.324,0
1542736098.881,16.113,37.109,34.668,46.387,4.395,0
1542736098.885,28.809,39.551,28.809,21.484,31.250,0
1542736098.889,27.344,43.457,25.879,4.883,46.387,0
1542736098.893,29.785,45.898,21.973,12.207,72.754,0
1542736098.897,48.828,47.363,21.973,50.781,13.672,0
1542736098.901,32.715,41.992,25.391,51.758,-15.137,0
1542736098.905,30.762,37.598,26.855,41.992,40.527,0
1542736098.908,57.617,37.598,30.762,67.871,-0.977,0
1542736098.912,39.551,35.645,30.273,62.988,40.527,0
1542736098.916,25.879,35.156,31.738,50.293,55.176,0
1542736098.920,41.504,39.062,28.320,54.199,40.527,0
1542736098.924,49.316,40.527,22.461,57.617,50.781,0
1542736098.928,47.363,42.969,25.879,67.871,25.391,0
1542736098.932,45.898,41.016,26.367,60.059,27.832,0
1542736098.936,30.273,39.551,25.879,39.062,24.902,0
1542736098.940,49.316,31.738,25.879,46.387,40.039,0
1542736098.944,42.480,24.414,26.367,54.688,34.668,0
1542736098.948,19.043,28.809,31.250,55.176,-1.953,0
1542736098.951,23.438,28.320,30.762,45.410,0.488,0
1542736098.955,30.762,28.320,26.367,33.691,2.441,0
1542736098.959,39.551,30.273,26.367,49.316,68.848,0
1542736098.963,36.621,25.391,26.855,58.105,64.453,0
1542736098.967,39.062,23.438,24.414,42.969,27.344,0
1542736098.971,48.340,30.762,23.438,26.855,62.500,0
1542736098.975,46.387,32.715,25.391,29.297,57.129,0
1542736098.979,55.176,32.227,21.973,49.316,-12.695,0
1542736098.983,39.551,28.809,15.625,48.828,-19.043,0
1542736098.987,21.973,27.832,21.973,68.359,54.688,0
1542736098.991,41.504,29.297,25.879,60.547,53.223,0
1542736098.994,34.668,24.902,22.461,38.574,10.742,0
1542736098.998,27.344,25.391,21.484,40.039,16.602,0
1542736099.002,33.691,26.367,18.555,18.066,40.039,0
1542736099.006,44.922,17.090,17.090,20.508,31.738,0
1542736099.010,39.062,17.578,20.508,26.855,59.082,0
1542736099.014,25.879,21.973,20.996,25.391,63.477,0
1542736099.018,23.438,20.020,22.949,27.344,28.320,0
1542736099.022,13.184,20.020,20.020,23.926,43.457,0
1542736099.026,25.879,20.508,20.508,36.621,52.734,0
1542736099.030,35.645,26.367,18.066,39.062,81.055,0
1542736099.033,35.645,33.691,19.043,39.551,77.637,0
1542736099.037,20.020,31.738,22.949,33.203,10.254,0
1542736099.041,14.648,24.902,21.484,8.301,15.625,0
1542736099.045,22.461,25.391,26.367,-13.184,58.594,0
1542736099.049,23.438,34.180,19.531,1.953,71.289,0
1542736099.053,48.340,38.574,6.836,29.297,52.246,0
1542736099.057,41.016,35.156,16.602,33.691,32.715,0
1542736099.061,-0.488,32.715,24.414,15.137,38.086,0
1542736099.065,0.000,24.902,29.297,25.391,37.598,0
1542736099.069,27.344,25.391,33.691,51.270,29.785,0
1542736099.073,45.410,31.738,41.504,37.109,55.664,0
1542736099.076,52.734,34.668,40.039,42.969,82.031,0
1542736099.080,37.598,28.320,36.621,41.016,90.332,0
1542736099.084,15.625,20.996,47.363,49.805,99.121,0
1542736099.088,28.320,20.508,48.828,52.246,129.883,0
1542736099.092,42.969,20.020,49.805,5.371,103.027,0
1542736099.096,40.527,17.090,58.594,6.348,82.520,0
1542736099.100,36.621,15.625,56.641,55.176,137.695,0
1542736099.104,41.504,12.207,67.383,86.914,144.531,0
1542736099.108,51.270,6.348,83.008,71.777,183.594,0
1542736099.112,68.848,15.625,77.637,77.637,217.285,0
1542736099.116,67.383,25.391,67.871,101.074,257.324,0
1542736099.119,80.566,33.203,79.590,84.473,348.633,0
1542736099.123,51.270,26.367,79.102,66.895,398.438,0
1542736099.127,58.594,13.184,66.406,80.566,425.293,0
1542736099.131,81.543,15.625,68.848,91.309,431.152,0
1542736099.135,46.387,13.672,70.801,74.707,453.613,0
1542736099.139,72.266,14.160,68.848,112.305,492.188,0
1542736099.143,111.816,19.531,71.289,160.645,500.977,0
1542736099.147,110.840,25.391,73.730,124.023,466.309,0
1542736099.151,76.660,25.391,73.730,88.379,444.336,0
1542736099.155,71.289,24.902,72.266,97.168,459.961,0
1542736099.158,90.820,17.578,71.289,122.070,434.570,0
1542736099.162,105.469,13.672,69.824,141.113,392.578,0
1542736099.166,116.699,16.602,67.871,145.508,400.391,0
1542736099.170,113.281,12.207,67.383,136.230,437.988,0
1542736099.174,170.410,14.160,67.383,158.203,439.941,0
1542736099.178,181.152,21.484,70.801,167.969,440.918,0
1542736099.182,109.375,15.625,71.777,96.680,436.035,0
1542736099.186,100.098,9.766,67.383,102.051,443.848,0
1542736099.190,130.859,9.766,66.406,158.203,502.930,0
1542736099.194,151.855,17.578,61.523,183.105,480.957,0
1542736099.198,137.207,24.902,59.082,187.012,445.312,0
1542736099.201,146.973,22.461,64.453,156.250,426.270,0
1542736099.205,163.574,20.020,64.453,165.039,388.672,0
1542736099.209,156.738,22.949,62.500,184.570,337.891,0
1542736099.213,148.438,23.438,59.570,199.219,295.410,0
1542736099.217,174.805,22.461,59.570,168.945,250.977,0
1542736099.221,186.523,22.949,62.012,123.535,171.875,0
1542736099.225,184.570,26.367,61.035,170.898,85.938,0
1542736099.229,158.691,34.668,56.641,172.852,3.906,0
1542736099.233,132.324,33.691,57.617,137.207,-59.570,0
1542736099.237,137.207,36.621,51.758,139.160,-153.320,0
1542736099.241,107.422,30.762,47.852,136.230,-250.977,0
1542736099.244,116.211,15.137,52.734,143.555,-297.363,0
1542736099.248,135.254,14.160,51.270,163.086,-387.207,0
1542736099.252,128.906,22.949,45.898,132.324,-488.770,0
1542736099.256,117.188,24.414,45.898,102.539,-540.039,0
1542736099.260,113.281,26.367,44.922,113.770,-592.773,0
1542736099.264,88.867,31.738,48.828,83.008,-585.449,0
1542736099.268,99.609,33.203,50.293,83.496,-500.488,0
1542736099.272,124.023,33.691,43.457,92.773,-487.793,0
1542736099.276,82.520,35.645,41.016,106.445,-498.047,0
1542736099.280,66.895,31.250,37.598,104.004,-465.332,0
1542736099.283,56.152,30.273,35.645,55.176,-430.176,0
1542736099.287,54.688,30.762,30.762,51.758,-395.996,0
1542736099.291,78.613,29.297,32.715,81.055,-366.211,0
1542736099.295,97.656,28.320,42.480,75.684,-329.590,0
1542736099.299,66.406,29.785,41.016,49.805,-300.781,0
1542736099.303,41.504,33.691,38.086,47.852,-311.523,0
1542736099.307,62.988,38.574,38.086,63.477,-219.238,0
1542736099.311,73.242,42.969,36.133,88.379,-222.656,0
1542736099.315,60.547,39.062,35.156,69.336,-243.652,0
1542736099.319,33.203,36.621,34.668,48.828,-185.547,0
1542736099.323,41.504,40.039,27.344,32.715,-206.055,0
1542736099.326,46.387,36.133,24.414,26.855,-183.105,0
1542736099.330,35.645,33.691,31.250,4.395,-129.395,0
1542736099.334,31.738,40.039,23.926,-39.062,-100.098,0
1542736099.338,42.969,41.504,17.090,-12.695,-91.309,0
1542736099.342,43.457,40.039,18.555,51.758,-114.746,0
1542736099.346,22.949,40.527,19.531,16.602,-37.109,0
1542736099.350,18.555,43.457,14.648,-15.137,123.535,0
1542736099.354,27.832,41.992,15.625,42.969,276.855,0
1542736099.358,24.414,37.598,26.855,35.156,435.547,0
1542736099.362,-7.812,31.738,30.273,2.441,593.750,0
1542736099.366,-13.672,33.203,25.391,18.066,764.648,0
1542736099.369,11.230,39.551,16.113,-5.859,902.344,0
1542736099.373,22.949,41.992,12.207,2.441,969.238,0
1542736099.377,29.297,41.504,13.672,25.391,995.605,0
1542736099.381,21.973,35.156,15.137,21.973,999.512,0
1542736099.385,41.992,31.738,12.695,45.410,998.535,0
1542736099.389,65.430,43.945,13.184,21.973,999.512,0
1542736099.393,49.805,47.852,27.832,6.348,999.512,0
1542736099.397,41.504,42.969,34.180,-2.930,999.512,0
1542736099.401,57.129,42.969,34.668,53.711,999.512,0
1542736099.405,83.984,41.504,42.969,124.023,999.512,0
1542736099.408,110.352,39.551,47.852,127.930,999.512,0
1542736099.412,116.211,36.621,46.875,156.738,999.512,0
1542736099.416,147.461,36.133,46.387,150.391,999.512,0
1542736099.420,174.805,40.039,45.410,117.676,999.512,0
1542736099.424,145.996,43.457,45.898,120.117,999.512,0
1542736099.428,135.254,45.898,42.969,109.863,999.512,0
1542736099.432,108.887,34.668,43.457,135.742,999.512,0
1542736099.436,108.398,28.809,44.434,159.668,999.023,0
1542736099.440,126.465,40.039,31.250,138.184,999.023,0
1542736099.444,109.863,39.062,31.738,134.277,998.535,0
1542736099.448,99.609,29.297,41.504,142.090,987.305,0
1542736099.451,124.512,32.715,36.621,140.625,956.055,0
1542736099.455,111.816,41.016,30.762,124.512,915.039,0
1542736099.459,74.707,42.480,24.414,92.285,839.844,0
1542736099.463,107.910,41.992,22.461,120.117,752.441,0
1542736099.467,125.977,39.551,25.879,113.281,706.543,0
1542736099.471,65.918,32.227,34.668,77.148,662.598,0
1542736099.475,58.105,27.344,38.574,48.828,590.332,0
1542736099.479,93.262,32.227,27.344,75.195,524.902,0
1542736099.483,90.820,35.645,20.996,118.164,494.141,0
1542736099.487,88.867,33.691,24.414,96.191,446.289,0
1542736099.491,97.656,34.668,21.973,59.570,369.141,0
1542736099.494,93.262,34.668,21.484,74.707,318.359,0
1542736099.498,67.383,31.250,19.531,104.980,275.391,0
1542736099.502,73.242,27.344,16.113,82.520,217.773,0
1542736099.506,74.707,29.785,15.137,59.082,162.109,0
1542736099.510,51.270,31.250,20.020,51.270,99.609,0
1542736099.514,64.453,27.832,19.043,43.945,41.016,0
1542736099.518,74.707,26.855,15.137,72.266,-13.184,0
1542736099.522,68.848,26.855,20.020,65.918,-75.195,0
1542736099.526,57.617,31.738,19.531,21.484,-119.141,0
1542736099.530,47.363,36.133,20.020,53.223,-149.414,0
1542736099.533,62.500,40.527,21.973,80.078,-175.781,0
1542736099.537,71.289,39.062,20.020,57.129,-229.980,0
1542736099.541,71.777,34.668,19.531,45.410,-312.988,0
1542736099.545,89.355,36.133,21.484,52.246,-362.793,0
1542736099.549,85.449,40.039,20.508,38.086,-405.273,0
1542736099.553,58.105,38.574,15.625,41.992,-444.336,0
1542736099.557,41.992,35.156,14.648,58.105,-465.332,0
1542736099.561,78.613,41.504,13.672,45.410,-504.395,0
1542736099.565,92.285,48.828,13.672,46.387,-525.879,0
1542736099.569,63.477,46.875,19.043,59.082,-570.312,0
1542736099.573,62.988,43.945,21.484,48.828,-604.492,0
1542736099.576,59.082,44.922,20.996,28.320,-611.816,0
1542736099.580,47.363,43.457,21.484,37.598,-646.973,0
1542736099.584,45.898,41.016,22.949,58.105,-698.730,0
1542736099.588,78.125,42.480,22.461,56.641,-704.102,0
1542736099.592,101.074,46.387,13.184,-14.160,-708.984,0
1542736099.596,62.988,45.410,9.277,-9.766,-724.121,0
1542736099.600,36.133,42.969,16.113,46.387,-711.426,0
1542736099.604,82.031,43.457,23.438,52.246,-725.098,0
1542736099.608,106.934,46.875,27.344,61.523,-724.121,0
1542736099.612,74.219,46.387,25.879,31.250,-750.977,0
1542736099.616,54.688,41.992,24.902,21.973,-764.160,0
1542736099.619,52.734,37.109,28.809,16.113,-738.770,0
1542736099.623,70.312,41.016,19.531,17.090,-743.164,0
1542736099.627,64.941,49.316,8.789,31.738,-762.207,0
1542736099.631,49.316,43.945,19.043,22.949,-778.320,0
1542736099.635,68.359,40.527,27.344,33.691,-773.438,0
1542736099.639,57.129,41.504,26.367,-12.207,-753.906,0
1542736099.643,53.223,35.645,26.855,-2.930,-755.859,0
1542736099.647,78.125,33.691,24.902,45.410,-743.652,0
1542736099.651,83.984,36.133,21.484,11.719,-736.328,0
1542736099.655,64.941,36.133,16.602,-2.441,-752.441,0
1542736099.658,65.918,30.762,16.113,18.066,-772.461,0
1542736099.662,75.684,26.367,18.555,-2.441,-733.398,0
1542736099.666,67.871,34.668,17.090,12.695,-657.227,0
1542736099.670,52.734,35.156,19.043,31.250,-694.336,0
1542736099.674,63.477,30.762,21.484,1.953,-661.133,0
1542736099.678,64.941,30.762,20.996,10.742,-609.375,0
1542736099.682,64.453,29.297,22.949,38.574,-604.004,0
1542736099.686,62.500,29.297,22.461,37.109,-566.406,0
1542736099.690,71.289,27.344,22.949,38.086,-528.809,0
1542736099.694,86.426,24.902,25.391,14.648,-494.141,0
1542736099.698,46.875,23.438,24.414,22.461,-497.070,0
1542736099.701,40.039,22.949,27.344,29.785,-515.137,0
1542736099.705,56.641,24.902,27.344,32.715,-458.496,0
1542736099.709,42.969,31.738,21.484,56.641,-462.402,0
1542736099.713,62.500,36.133,24.414,59.082,-425.781,0
1542736099.717,88.379,34.668,30.762,44.922,-353.027,0
1542736099.721,83.496,32.715,30.762,51.758,-343.750,0
1542736099.725,63.477,34.180,24.902,46.387,-255.371,0
1542736099.729,57.129,30.273,22.461,0.000,-260.742,0
1542736099.733,82.520,31.250,23.926,-7.324,-266.113,0
1542736099.737,93.750,36.621,23.926,25.391,-256.348,0
1542736099.741,77.148,30.762,19.531,40.039,-294.922,0
1542736099.744,48.340,20.996,26.367,20.508,-269.043,0
1542736099.748,93.750,14.648,34.668,-9.277,-193.359,0
1542736099.752,114.258,21.973,27.832,22.949,-163.086,0
1542736099.756,68.848,39.551,15.137,37.598,-164.062,0
1542736099.760,77.637,50.293,9.277,2.930,-183.105,0
1542736099.764,91.309,46.387,13.184,-8.301,-142.578,0
1542736099.768,69.336,48.828,6.836,-13.672,-112.793,0
1542736099.772,26.855,56.641,-4.395,-19.531,-124.512,0
1542736099.776,20.020,60.059,-12.207,-8.789,-121.582,0
1542736099.780,42.969,62.012,-16.113,-8.301,-118.652,0
1542736099.783,44.922,65.918,-18.066,-29.297,-81.055,0
1542736099.787,26.855,68.359,-28.320,-35.156,-51.270,0
1542736099.791,34.668,73.730,-29.785,-38.086,-61.523,0
1542736099.795,32.715,80.078,-25.391,-53.223,-54.199,0
1542736099.799,7.324,79.590,-29.297,-38.574,-40.527,0
1542736099.803,-0.977,78.613,-31.738,-52.246,-34.668,0
1542736099.807,-9.766,75.195,-32.715,-93.750,-60.059,0
1542736099.811,12.695,77.637,-34.180,-53.223,-104.980,0
1542736099.815,24.414,78.125,-34.180,-37.598,-22.949,0
1542736099.819,12.207,79.102,-28.320,-50.293,-19.043,0
1542736099.823,15.625,75.195,-20.508,-34.668,-66.406,0
1542736099.826,35.645,65.430,-16.602,-28.809,-49.316,0
1542736099.830,41.992,62.500,-10.742,-39.062,-58.105,0
1542736099.834,29.785,64.453,-8.301,-49.805,-89.844,0
1542736099.838,35.156,64.453,-8.301,-26.855,-67.383,0
1542736099.842,41.504,57.617,-5.371,-25.391,-61.523,0
1542736099.846,64.453,56.641,-6.348,-16.602,-11.719,0
1542736099.850,61.035,52.734,-4.395,2.930,-20.996,0
1542736099.854,29.785,47.852,1.953,35.645,-72.754,0
1542736099.858,41.992,51.758,1.953,21.484,-48.340,0
1542736099.862,55.176,49.316,0.000,-3.418,-33.691,0
1542736099.866,51.758,44.434,3.906,7.324,-8.789,0
1542736099.869,56.641,48.828,-1.465,5.859,8.789,0
1542736099.873,62.988,47.363,-0.488,30.273,-35.156,0
1542736099.877,59.570,42.969,6.836,4.883,-96.191,0
1542736099.881,75.684,47.852,6.348,-5.371,-55.176,0
1542736099.885,81.055,45.898,5.371,29.297,24.902,0
1542736099.889,50.293,40.039,7.812,37.109,-6.348,0
1542736099.893,72.754,38.574,10.742,39.062,-22.949,0
1542736099.897,90.820,43.945,9.766,41.504,-28.809,0
1542736099.901,48.340,44.434,11.230,42.969,-21.484,0
1542736099.905,48.340,41.992,13.672,38.574,-1.465,0
1542736099.908,54.199,41.992,12.207,43.945,-7.324,0
1542736099.912,59.570,41.992,8.789,42.480,20.020,0
1542736099.916,83.984,41.504,11.230,61.035,1.465,0
1542736099.920,104.492,47.363,12.207,37.109,-25.879,0
1542736099.924,69.824,54.199,15.137,34.180,-51.270,0
1542736099.928,53.223,47.363,18.066,46.875,-58.105,0
1542736099.932,102.539,48.828,14.160,21.973,-39.551,0
1542736099.936,94.238,49.316,19.043,50.293,-69.336,0
1542736099.940,59.082,39.062,24.414,63.477,-50.781,0
1542736099.944,67.383,36.133,22.461,71.777,-2.930,0
1542736099.948,82.031,40.039,21.484,68.848,-9.277,0
1542736099.951,78.125,36.133,28.809,74.707,-62.012,0
1542736099.955,81.055,34.180,23.926,58.105,-66.406,0
1542736099.959,104.492,38.086,20.508,20.020,-23.438,0
1542736099.963,87.402,41.016,26.367,67.871,0.000,0
1542736099.967,73.242,41.504,27.832,98.145,23.438,0
1542736099.971,75.684,37.598,25.879,82.520,-5.859,0
1542736099.975,80.566,35.645,24.902,91.309,-33.691,0
1542736099.979,95.215,36.621,27.832,69.824,-43.457,0
1542736099.983,94.727,38.086,27.832,70.801,-19.531,0
1542736099.987,88.379,38.574,28.809,73.242,-18.066,0
1542736099.991,110.840,42.480,30.273,58.594,-49.316,0
1542736099.994,114.258,45.410,27.344,78.613,-39.551,0
1542736099.998,93.750,40.527,29.297,82.520,-38.574,0
1542736100.002,93.750,34.668,32.715,64.941,-3.906,0
1542736100.006,98.145,29.785,32.715,69.824,3.418,0
1542736100.010,109.863,28.809,35.156,69.824,-44.922,0
1542736100.014,107.422,33.203,31.738,58.594,-11.719,0
1542736100.018,103.516,39.062,23.926,83.008,-61.523,0
1542736100.022,122.070,37.109,25.879,88.867,-26.367,0
1542736100.026,128.906,30.762,30.762,109.375,9.277,0
1542736100.030,97.656,30.762,29.785,108.398,-5.371,0
1542736100.033,109.863,33.203,27.344,64.941,33.691,0
1542736100.037,106.445,27.344,29.785,91.309,50.293,0
1542736100.041,116.699,23.926,30.273,141.113,23.926,0
1542736100.045,118.652,28.320,28.809,104.980,12.207,0
1542736100.049,72.266,27.832,26.855,83.008,-20.020,0
1542736100.053,89.355,30.762,24.902,96.680,-40.039,0
1542736100.057,111.816,33.691,25.391,103.516,-18.066,0
1542736100.061,110.352,39.551,23.438,101.562,-35.156,0
1542736100.065,99.121,38.086,24.902,119.141,-32.227,0
1542736100.069,109.375,36.133,30.273,101.562,17.578,0
1542736100.073,104.980,36.621,30.762,52.734,65.430,0
1542736100.076,105.957,34.180,27.832,101.074,29.785,0
1542736100.080,116.699,37.109,26.855,123.047,-40.527,0
1542736100.084,109.863,38.086,28.320,87.891,0.000,0
1542736100.088,126.953,40.527,30.273,128.906,11.230,0
1542736100.092,110.840,41.504,30.762,130.371,-12.695,0
1542736100.096,86.426,37.109,27.344,94.238,33.691,0
1542736100.100,108.887,35.645,27.832,97.656,-42.969,0
1542736100.104,114.258,36.133,29.297,111.816,-52.734,0
1542736100.108,135.254,38.574,27.832,104.004,7.812,0
1542736100.112,133.301,37.598,30.273,114.258,41.016,0
1542736100.116,129.883,33.203,29.785,122.559,2.930,0
1542736100.119,109.375,34.180,22.461,111.328,21.973,0
1542736100.123,94.238,35.156,21.484,119.141,86.426,0
1542736100.127,121.582,35.156,24.414,104.492,54.688,0
1542736100.131,122.070,34.180,24.902,86.914,19.531,0
1542736100.135,105.469,33.203,22.949,105.957,36.621,0
1542736100.139,129.395,29.297,24.902,109.375,29.785,0
1542736100.143,133.789,28.809,24.902,82.031,-20.996,0
1542736100.147,122.070,31.250,20.508,99.121,-6.836,0
1542736100.151,115.723,30.762,21.973,90.332,-15.625,0
1542736100.155,110.352,33.691,26.855,99.609,21.973,0
1542736100.158,118.164,36.133,27.832,104.980,24.414,0
1542736100.162,115.723,36.621,26.367,84.961,16.602,0
1542736100.166,88.867,40.527,24.414,90.820,23.438,0
1542736100.170,83.496,38.086,21.973,106.445,28.809,0
1542736100.174,109.375,31.250,24.414,91.309,79.590,0
1542736100.178,118.164,29.297,24.902,58.105,57.129,0
1542736100.182,111.328,33.203,23.926,74.219,52.246,0
1542736100.186,111.328,37.109,24.414,74.219,116.211,0
1542736100.190,103.516,35.645,24.414,72.754,96.680,0
1542736100.194,117.676,37.109,25.879,80.566,20.020,0
1542736100.198,123.535,39.062,21.973,67.383,21.973,0
1542736100.201,120.605,31.250,16.113,63.477,13.184,0
1542736100.205,125.000,28.809,21.484,73.242,3.418,0
1542736100.209,93.750,40.039,20.508,61.523,53.711,0
1542736100.213,78.125,45.410,17.090,56.641,91.309,0
1542736100.217,89.355,36.621,20.508,28.809,46.387,0
1542736100.221,62.500,27.344,20.020,3.418,31.738,0
1542736100.225,26.855,27.344,13.672,0.000,61.523,0
1542736100.229,15.625,26.855,15.625,-6.348,61.523,0
1542736100.233,18.555,20.996,19.531,-30.762,54.688,0
1542736100.237,2.930,19.043,14.648,-28.809,41.504,0
1542736100.241,8.789,19.043,12.695,-20.996,-10.742,0
1542736100.244,12.207,18.555,13.672,-86.426,35.645,0
1542736100.248,-17.090,16.113,12.695,-122.559,79.102,0
1542736100.252,-38.574,10.742,7.812,-79.590,27.832,0
1542736100.256,-21.484,14.160,7.812,-74.707,20.996,0
1542736100.260,-9.766,18.066,11.230,-85.938,38.574,0
1542736100.264,-1.465,21.973,11.230,-62.988,22.949,0
1542736100.268,10.254,25.879,11.230,-53.711,-6.348,0
1542736100.272,13.672,21.973,15.137,-41.992,16.113,0
1542736100.276,6.836,12.207,14.648,-36.621,32.715,0
1542736100.280,20.996,11.719,16.113,-40.527,2.441,0
1542736100.283,36.133,14.160,15.137,-45.898,64.453,0
1542736100.287,35.645,14.648,15.625,-4.883,80.078,0
1542736100.291,45.410,18.555,17.578,-1.953,20.508,0
1542736100.295,50.781,17.578,14.160,-21.484,16.113,0
1542736100.299,53.223,20.508,17.578,-23.438,21.973,0
1542736100.303,65.918,21.973,20.996,-22.461,50.781,0
1542736100.307,79.102,23.926,20.020,-53.711,13.184,0
1542736100.311,61.035,26.855,22.461,-11.719,20.508,0
1542736100.315,37.598,27.344,24.414,24.414,46.875,0
1542736100.319,48.340,29.785,22.461,-13.184,-7.324,0
1542736100.323,78.613,31.250,23.438,15.137,39.062,0
1542736100.326,72.266,26.855,28.320,45.410,79.590,0
1542736100.330,68.848,20.996,31.250,27.344,23.438,0
1542736100.334,81.055,23.926,24.414,-12.695,64.453,0
1542736100.338,65.918,21.973,16.602,-21.484,99.609,0
1542736100.342,73.242,21.484,20.020,27.344,63.477,0
1542736100.346,54.688,19.043,31.738,10.742,105.469,0
1542736100.350,17.090,0.488,39.551,-40.527,63.477,0
1542736100.354,33.691,-10.254,39.062,-73.730,-25.391,0
1542736100.358,13.184,-13.672,39.062,-98.633,-5.859,0
1542736100.362,-99.609,-28.809,38.086,-143.066,20.020,0
1542736100.366,-115.723,-44.434,35.645,-163.086,3.906,0
1542736100.369,-88.867,-53.223,37.598,-133.301,-8.301,0
1542736100.373,-118.652,-62.500,37.598,-167.969,54.199,0
1542736100.377,-148.926,-85.938,35.156,-224.121,58.105,0
1542736100.381,-142.578,-100.586,36.621,-211.914,48.828,0
1542736100.385,-129.395,-95.703,42.480,-181.152,83.984,0
1542736100.389,-144.531,-96.680,40.039,-206.055,107.910,0
1542736100.393,-144.043,-101.562,32.227,-212.891,110.352,0
1542736100.397,-137.207,-105.469,28.809,-171.387,62.500,0
1542736100.401,-134.277,-110.352,31.250,-189.453,-7.812,0
1542736100.405,-114.258,-111.328,34.180,-190.918,-14.160,0
1542736100.408,-112.305,-114.746,33.203,-167.480,5.371,0
1542736100.412,-113.281,-113.770,31.250,-175.781,40.527,0
1542736100.416,-119.141,-108.398,31.250,-161.133,44.434,0
1542736100.420,-105.957,-103.027,31.738,-132.812,41.504,0
1542736100.424,-80.566,-98.633,28.320,-111.816,20.020,0
1542736100.428,-59.082,-91.797,23.926,-89.844,-30.762,0
1542736100.432,-26.855,-80.566,20.020,-71.777,-7.812,0
1542736100.436,-24.414,-71.289,16.113,-72.266,11.230,0
1542736100.440,-27.832,-65.430,19.043,-53.711,-17.578,0
1542736100.444,-5.371,-59.570,22.949,-31.738,-6.348,0
1542736100.448,4.883,-56.152,23.438,1.465,-1.465,0
1542736100.451,20.996,-51.758,25.391,23.926,-2.930,0
1542736100.455,57.617,-43.457,25.879,15.625,0.000,0
1542736100.459,65.430,-33.691,26.367,-0.488,-12.207,0
1542736100.463,37.598,-30.762,27.832,-3.906,5.371,0
1542736100.467,37.109,-31.738,30.762,-12.207,-2.441,0
1542736100.471,45.410,-24.902,28.809,-11.719,-29.785,0
1542736100.475,66.895,-18.555,20.508,15.625,-9.277,0
1542736100.479,72.754,-12.695,18.555,26.367,-59.082,0
1542736100.483,35.156,-13.672,26.855,-7.324,-7.812,0
1542736100.487,42.969,-12.695,27.344,-16.113,23.926,0
1542736100.491,64.453,-9.277,23.926,24.414,-27.832,0
1542736100.494,64.453,-12.207,25.879,40.039,41.992,0
1542736100.498,80.078,-8.301,25.391,41.992,58.594,0
1542736100.502,95.703,-1.953,24.414,46.875,1.953,0
1542736100.506,74.219,0.488,22.461,45.410,4.883,0
1542736100.510,79.590,3.418,20.996,25.879,19.043,0
1542736100.514,100.098,4.883,23.926,49.316,18.066,0
1542736100.518,91.797,4.395,27.832,55.664,52.734,0
1542736100.522,83.984,7.812,25.391,35.156,41.992,0
1542736100.526,77.148,10.254,20.020,43.457,-0.977,0
1542736100.530,66.895,9.277,20.996,47.363,-7.812,0
1542736100.533,63.477,9.277,25.879,57.617,17.578,0
1542736100.537,81.543,8.301,21.973,50.781,30.273,0
1542736100.541,87.891,12.695,17.578,41.504,4.883,0
1542736100.545,108.398,14.648,20.508,53.711,2.441,0
1542736100.549,98.633,13.184,24.414,61.523,33.691,0
1542736100.553,67.871,16.113,24.414,58.594,49.316,0
1542736100.557,65.918,20.508,23.926,53.223,57.617,0
1542736100.561,64.453,24.414,22.461,44.922,25.879,0
1542736100.565,99.121,23.926,20.508,64.941,30.762,0
1542736100.569,108.398,25.879,22.949,77.148,86.914,0
1542736100.573,83.496,23.438,23.926,35.645,67.871,0
1542736100.576,74.707,15.137,23.926,44.922,68.848,0
1542736100.580,84.473,16.602,21.484,64.453,21.484,0
1542736100.584,80.078,24.902,16.602,52.246,9.277,0
1542736100.588,71.289,28.809,22.461,72.754,44.434,0
1542736100.592,76.660,30.762,25.879,55.176,2.930,0
1542736100.596,91.309,36.133,18.066,53.223,22.461,0
1542736100.600,105.957,42.969,18.555,59.082,64.453,0
1542736100.604,100.586,44.922,23.926,54.688,49.805,0
1542736100.608,64.941,38.574,24.902,81.055,56.152,0
1542736100.612,64.453,36.621,23.926,53.223,20.996,0
1542736100.616,91.309,38.574,22.949,45.410,29.297,0
1542736100.619,93.750,34.180,24.902,64.453,113.770,0
1542736100.623,68.848,33.691,28.809,67.871,124.512,0
1542736100.627,44.922,32.715,30.273,73.730,98.145,0
1542736100.631,73.242,30.273,26.855,57.129,69.336,0
1542736100.635,89.844,35.645,25.391,41.504,112.793,0
1542736100.639,81.543,39.062,26.855,61.035,119.629,0
1542736100.643,88.867,36.133,28.320,87.891,88.379,0
1542736100.647,74.707,36.133,32.715,71.777,81.543,0
1542736100.651,58.105,36.133,31.738,42.969,84.473,0
1542736100.655,68.359,35.156,28.809,70.801,97.168,0
1542736100.658,98.633,40.039,30.762,71.777,121.582,0
1542736100.662,76.172,38.086,30.273,58.105,187.500,0
1542736100.666,73.242,36.621,26.855,44.434,208.984,0
1542736100.670,73.730,39.062,21.484,41.016,200.684,0
1542736100.674,56.152,36.621,20.020,59.082,395.996,0
1542736100.678,65.430,33.203,26.367,77.148,803.711,0
1542736100.682,57.617,29.297,33.691,63.477,-991.699,0
1542736100.686,56.641,29.297,26.855,22.949,990.723,0
1542736100.690,61.523,24.902,29.785,78.125,996.582,0
1542736100.694,48.828,21.484,35.645,98.633,-999.512,0
1542736100.698,74.219,26.367,26.367,62.012,999.512,0
1542736100.701,87.891,33.203,22.461,48.828,999.512,0
1542736100.705,82.031,30.273,25.391,36.133,999.512,0
1542736100.709,68.848,25.879,29.785,32.715,999.512,0
1542736100.713,57.617,27.832,34.668,73.242,999.512,0
1542736100.717,59.082,28.320,40.039,67.871,999.512,0
1542736100.721,57.129,24.414,38.574,44.434,999.512,0
1542736100.725,75.195,23.926,37.109,62.988,999.512,0
1542736100.729,65.918,28.320,32.715,20.996,999.512,0
1542736100.733,54.199,27.832,25.391,10.254,999.512,0
1542736100.737,43.457,23.926,26.855,62.988,999.512,0
1542736100.741,44.922,18.555,32.227,63.477,999.512,0
1542736100.744,58.594,17.090,34.180,73.730,-1000.000,0
1542736100.748,52.734,20.020,35.645,82.520,997.559,0
1542736100.752,53.711,19.531,37.109,53.223,998.047,0
1542736100.756,46.875,16.113,37.598,22.949,993.652,0
1542736100.760,28.809,20.508,33.203,16.602,891.113,0
1542736100.764,36.133,20.996,36.133,41.992,754.883,0
1542736100.768,43.945,21.484,40.527,40.527,628.906,0
1542736100.772,40.039,26.367,38.086,41.504,497.559,0
1542736100.776,50.293,26.855,45.410,67.383,373.535,0
1542736100.780,68.848,31.738,41.504,16.113,215.820,0
1542736100.783,47.852,36.133,39.062,-7.812,87.402,0
1542736100.787,8.789,29.297,46.387,38.574,-17.578,0
1542736100.791,17.090,24.902,46.387,46.387,-122.070,0
1542736100.795,16.113,20.996,50.781,-11.719,-249.023,0
1542736100.799,5.371,6.836,50.781,20.996,-354.492,0
1542736100.803,21.973,33.691,40.039,21.973,-447.266,0
1542736100.807,-32.227,49.316,22.949,-90.332,-596.680,0
1542736100.811,-73.730,48.340,12.207,-113.281,-789.062,0
1542736100.815,-107.422,65.430,3.418,-114.746,-943.848,0
1542736100.819,-125.488,82.031,-1.953,-150.879,-974.609,0
1542736100.823,-151.855,87.891,-3.418,-181.641,-968.750,0
1542736100.826,-185.059,98.145,-11.719,-209.961,-973.633,0
1542736100.830,-194.336,104.980,-19.531,-257.324,-972.656,0
1542736100.834,-240.234,115.723,-12.207,-263.672,-973.145,0
1542736100.838,-235.352,138.184,-24.902,-260.742,-973.145,0
1542736100.842,-212.402,142.578,-30.762,-281.250,-972.656,0
1542736100.846,-245.117,142.090,-27.832,-320.801,-972.656,0
1542736100.850,-263.672,159.668,-40.039,-373.535,-972.656,0
1542736100.854,-292.969,167.480,-43.457,-357.422,-973.145,0
1542736100.858,-270.996,177.246,-43.945,-313.965,-973.145,0
1542736100.862,-288.086,188.477,-46.387,-304.199,-972.656,0
1542736100.866,-279.297,183.594,-52.734,-328.613,-973.145,0
1542736100.869,-249.023,185.059,-47.363,-330.566,-970.215,0
1542736100.873,-264.160,186.523,-41.504,-322.754,-974.121,0
1542736100.877,-268.555,190.430,-43.945,-322.266,-956.055,0
1542736100.881,-263.184,181.152,-45.898,-276.367,-857.422,0
1542736100.885,-220.703,162.598,-37.598,-228.027,-777.832,0
1542736100.889,-190.430,154.297,-22.949,-248.047,-774.414,0
1542736100.893,-224.121,157.715,-27.832,-262.207,-715.332,0
1542736100.897,-194.824,156.250,-30.762,-233.398,-646.484,0
1542736100.901,-124.023,149.902,-28.809,-192.871,-616.699,0
1542736100.905,-90.820,140.625,-21.484,-148.438,-587.891,0
1542736100.908,-121.094,129.395,-14.160,-151.855,-533.691,0
1542736100.912,-109.375,122.559,-18.555,-106.934,-466.797,0
1542736100.916,-49.316,115.723,-15.625,-50.293,-462.891,0
1542736100.920,-37.109,109.375,-10.254,-65.430,-387.695,0
1542736100.924,-12.695,111.328,-16.602,-64.453,-344.238,0
1542736100.928,-5.371,104.004,-17.090,-7.324,-387.207,0
1542736100.932,-5.371,83.984,-9.766,0.000,-369.141,0
1542736100.936,1.465,73.242,-7.324,-32.715,-327.637,0
1542736100.940,21.484,63.477,-0.977,12.207,-289.062,0
1542736100.944,61.523,54.688,1.953,54.688,-241.211,0
1542736100.948,51.758,45.898,1.465,7.812,-235.840,0
1542736100.951,48.340,38.574,2.930,7.324,-230.957,0
1542736100.955,88.379,36.133,3.906,81.055,-210.938,0
1542736100.959,112.793,28.809,2.930,119.629,-234.375,0
1542736100.963,102.539,20.020,4.883,94.727,-172.852,0
1542736100.967,109.863,16.602,8.301,85.449,-128.906,0
1542736100.971,130.371,18.066,6.348,124.023,-189.453,0
1542736100.975,153.320,11.719,9.766,161.133,-166.016,0
1542736100.979,158.203,6.348,15.137,153.320,-128.906,0
1542736100.983,152.344,3.418,16.113,140.137,-148.438,0
1542736100.987,162.109,0.488,18.555,143.555,-146.484,0
1542736100.991,169.922,-6.348,21.973,153.320,-127.930,0
1542736100.994,161.133,-10.742,26.367,173.828,-135.742,0
1542736100.998,171.875,-7.324,22.949,181.641,-97.656,0
1542736101.002,179.688,-8.789,17.578,184.570,-31.738,0
1542736101.006,177.246,-13.184,19.531,194.336,-80.078,0
1542736101.010,194.336,-12.695,22.461,220.215,-125.488,0
1542736101.014,203.125,-17.090,23.926,236.816,-74.707,0
1542736101.018,213.867,-22.461,26.367,181.152,-57.617,0
1542736101.022,228.516,-19.043,29.297,187.012,-67.383,0
1542736101.026,216.797,-16.602,30.762,225.098,-59.570,0
1542736101.030,209.473,-21.484,34.180,227.539,-10.254,0
1542736101.033,213.867,-24.902,37.109,228.027,-47.852,0
1542736101.037,218.750,-23.926,34.668,224.121,-71.289,0
1542736101.041,226.562,-23.438,30.762,209.961,16.113,0
1542736101.045,224.121,-25.879,25.879,158.203,1.953,0
1542736101.049,208.496,-28.809,31.250,199.219,-35.645,0
1542736101.053,207.031,-29.785,35.156,259.766,-32.227,0
1542736101.057,207.520,-25.879,35.156,220.703,-55.176,0
1542736101.061,188.477,-23.926,36.621,189.941,-50.293,0
1542736101.065,196.777,-21.973,30.273,184.082,-47.363,0
1542736101.069,210.938,-18.066,28.320,208.496,13.672,0
1542736101.073,193.848,-21.973,33.691,205.566,22.461,0
1542736101.076,175.293,-26.367,35.645,183.594,-54.199,0
1542736101.080,168.945,-28.320,36.133,208.496,-62.012,0
1542736101.084,179.199,-25.879,35.645,192.383,25.879,0
1542736101.088,166.504,-27.344,33.691,184.570,32.715,0
1542736101.092,162.109,-23.438,29.297,170.410,-21.484,0
1542736101.096,167.480,-17.090,31.738,159.180,-49.316,0
1542736101.100,156.738,-13.184,33.203,192.383,-2.930,0
1542736101.104,171.875,-8.301,33.203,178.223,-24.414,0
1542736101.108,170.410,-14.648,38.086,162.598,-62.500,0
1542736101.112,123.047,-17.578,41.504,165.039,-71.777,0
1542736101.116,125.488,-11.719,40.527,122.070,-109.863,0
1542736101.119,138.672,-6.836,38.574,108.398,-83.496,0
1542736101.123,135.742,0.000,32.715,160.156,-76.172,0
1542736101.127,145.508,2.441,33.691,183.105,-80.078,0
1542736101.131,134.766,2.441,35.645,155.273,-45.410,0
1542736101.135,108.887,10.742,33.691,139.160,-65.918,0
1542736101.139,123.047,13.672,31.250,118.164,-65.918,0
1542736101.143,127.441,9.277,29.297,121.582,-32.227,0
1542736101.147,117.188,7.324,27.832,107.422,-55.176,0
1542736101.151,95.703,4.883,27.344,76.172,-78.613,0
1542736101.155,103.027,2.930,32.227,130.371,-104.492,0
1542736101.158,110.352,2.930,34.180,151.855,-101.562,0
1542736101.162,119.141,8.789,26.367,115.723,-60.059,0
1542736101.166,119.629,4.883,26.367,94.727,-64.453,0
1542736101.170,96.680,4.883,26.855,114.258,-41.504,0
1542736101.174,112.305,12.695,28.320,119.629,-9.766,0
1542736101.178,111.816,12.207,28.809,79.102,-33.203,0
1542736101.182,90.332,12.695,27.344,61.523,-75.684,0
1542736101.186,96.191,16.113,28.809,65.430,-117.676,0
1542736101.190,114.258,20.020,25.879,87.402,-94.727,0
1542736101.194,100.586,18.066,25.391,111.328,-50.781,0
1542736101.198,68.359,17.578,29.785,113.281,-38.574,0
1542736101.201,76.172,18.555,33.203,99.121,3.418,0
1542736101.205,86.914,17.578,30.762,68.359,-16.602,0
1542736101.209,87.402,21.973,27.832,65.918,-68.359,0
1542736101.213,76.660,24.902,29.785,101.562,-0.488,0
1542736101.217,73.242,23.926,26.855,88.379,-1.953,0
1542736101.221,86.914,25.879,23.438,60.547,25.879,0
1542736101.225,80.566,24.414,21.973,80.566,12.207,0
1542736101.229,81.055,19.043,26.367,87.891,-7.812,0
1542736101.233,69.824,16.602,26.367,41.504,24.414,0
1542736101.237,78.613,17.578,19.043,48.828,36.133,0
1542736101.241,95.703,21.484,18.066,80.078,53.711,0
1542736101.244,56.641,16.113,31.738,76.172,7.812,0
1542736101.248,23.438,12.207,38.574,47.852,-19.043,0
1542736101.252,26.855,17.090,33.203,34.180,-22.461,0
1542736101.256,33.203,17.090,29.297,40.039,-48.340,0
1542736101.260,19.043,8.789,29.785,33.691,16.602,0
1542736101.264,13.184,10.254,25.879,0.000,91.797,0
1542736101.268,59.082,12.695,25.879,11.230,110.352,0
1542736101.272,52.246,7.812,26.855,28.809,56.152,0
1542736101.276,20.996,11.719,18.555,42.480,25.879,0
1542736101.280,47.363,15.137,20.996,62.012,47.852,0
1542736101.283,61.035,17.090,24.902,45.410,1.953,0
1542736101.287,54.688,15.625,25.879,56.152,13.184,0
1542736101.291,47.852,14.648,29.785,67.383,15.625,0
1542736101.295,44.922,15.137,28.320,58.105,13.672,0
1542736101.299,65.430,16.602,30.762,47.852,-9.277,0
1542736101.303,66.406,22.461,30.762,33.203,21.484,0
1542736101.307,38.574,20.996,28.320,33.691,25.879,0
1542736101.311,37.598,21.484,32.715,46.875,-7.812,0
1542736101.315,50.781,29.297,33.203,43.945,47.852,0
1542736101.319,64.941,33.691,25.391,49.316,71.289,0
1542736101.323,47.852,29.785,23.926,66.895,24.414,0
1542736101.326,63.477,27.344,25.879,84.473,-7.812,0
1542736101.330,69.824,24.902,23.926,63.477,29.785,0
1542736101.334,49.805,23.438,24.902,32.227,22.461,0
1542736101.338,70.312,26.855,26.367,40.527,20.020,0
1542736101.342,72.266,24.902,23.438,41.504,68.848,0
1542736101.346,41.016,24.414,26.367,33.203,59.082,0
1542736101.350,28.809,26.855,27.832,35.156,19.531,0
1542736101.354,44.434,24.414,29.297,42.480,47.852,0
1542736101.358,43.457,24.902,29.785,45.898,15.137,0
1542736101.362,32.715,28.320,31.250,66.406,4.883,0
1542736101.366,41.504,28.809,29.785,59.570,48.828,0
1542736101.369,51.758,28.320,22.461,52.734,52.246,0
1542736101.373,35.156,30.762,21.973,52.246,1.465,0
1542736101.377,45.898,31.250,27.344,25.879,37.598,0
1542736101.381,57.617,31.250,23.926,24.902,42.969,0
1542736101.385,37.109,27.344,21.484,50.293,43.945,0
1542736101.389,47.852,28.320,22.949,21.973,72.754,0
1542736101.393,62.988,32.227,26.367,18.066,35.156,0
1542736101.397,63.965,31.250,23.926,31.250,59.570,0
1542736101.401,56.152,33.203,19.043,29.785,94.238,0
1542736101.405,41.992,31.738,23.438,79.590,72.754,0
1542736101.408,29.785,27.832,27.344,69.336,16.113,0
1542736101.412,29.297,23.926,25.879,21.484,64.941,0
1542736101.416,58.105,24.414,26.855,44.434,145.996,0
1542736101.420,67.871,23.438,31.738,60.059,75.684,0
1542736101.424,41.992,20.996,28.809,43.945,92.773,0
1542736101.428,31.250,26.367,27.344,24.902,129.395,0
1542736101.432,41.992,24.414,29.297,52.734,65.918,0
1542736101.436,47.852,25.391,30.762,68.359,83.984,0
1542736101.440,57.129,26.367,29.297,54.199,98.633,0
1542736101.444,73.242,27.344,25.879,33.203,42.969,0
1542736101.448,75.684,25.391,26.855,45.410,45.410,0
1542736101.451,70.801,23.926,24.902,47.363,55.176,0
1542736101.455,56.152,26.367,26.367,43.457,40.039,0
1542736101.459,40.039,24.902,28.809,51.270,54.688,0
1542736101.463,35.156,22.461,24.414,43.457,84.961,0
1542736101.467,46.387,22.461,22.949,58.105,100.586,0
1542736101.471,58.594,24.902,23.438,68.848,116.699,0
1542736101.475,48.340,28.809,24.902,69.336,89.844,0
1542736101.479,37.109,24.902,28.809,36.133,73.730,0
1542736101.483,51.758,24.902,27.832,36.133,73.730,0
1542736101.487,61.035,30.762,28.809,49.316,99.121,0
1542736101.491,42.480,35.645,27.832,10.742,98.633,0
1542736101.494,65.918,43.457,23.438,56.152,83.496,0
1542736101.498,77.637,43.945,26.855,76.172,57.129,0
1542736101.502,39.062,38.574,25.879,63.477,49.316,0
1542736101.506,45.898,39.551,28.809,70.312,70.312,0
1542736101.510,35.156,40.527,29.297,57.129,110.840,0
1542736101.514,33.691,36.621,30.273,62.012,141.602,0
1542736101.518,58.594,37.109,28.320,38.574,112.793,0
1542736101.522,24.414,32.227,21.484,22.461,123.047,0
1542736101.526,26.855,29.297,20.508,30.762,146.484,0
1542736101.530,55.664,26.367,23.926,30.273,119.141,0
1542736101.533,33.203,21.973,22.461,45.410,69.336,0
1542736101.537,24.902,27.344,22.461,2.441,29.297,0
1542736101.541,34.668,31.738,29.297,5.859,61.035,0
1542736101.545,37.109,31.738,27.832,69.824,59.082,0
1542736101.549,41.016,29.785,24.902,54.688,57.617,0
1542736101.553,37.598,28.809,23.926,36.133,49.316,0
1542736101.557,33.203,30.273,26.367,34.668,35.645,0
1542736101.561,57.129,34.668,29.785,26.855,78.613,0
1542736101.565,62.500,31.738,30.762,56.152,78.613,0
1542736101.569,48.828,33.691,27.832,48.828,36.621,0
1542736101.573,50.293,41.504,25.879,25.391,71.777,0
1542736101.576,24.902,36.621,29.297,26.855,84.473,0
1542736101.580,35.156,33.691,30.273,41.016,59.570,0
1542736101.584,59.570,38.574,28.320,40.527,58.594,0
1542736101.588,41.992,34.668,26.367,4.883,20.996,0
1542736101.592,36.621,28.809,25.391,19.043,35.156,0
1542736101.596,32.227,32.227,25.391,54.688,113.770,0
1542736101.600,16.113,32.715,20.508,35.645,90.820,0
1542736101.604,28.320,32.715,18.066,27.832,70.801,0
1542736101.608,50.781,34.180,18.555,44.922,34.668,0
1542736101.612,37.598,32.227,16.602,-0.977,-20.508,0
1542736101.616,40.527,27.344,20.996,-2.930,15.625,0
1542736101.619,38.574,27.344,25.391,46.387,51.758,0
1542736101.623,28.320,27.344,23.926,35.156,-18.066,0
1542736101.627,50.781,20.508,32.715,58.594,-9.766,0
1542736101.631,64.453,30.273,31.250,45.410,89.844,0
1542736101.635,80.078,47.363,17.090,35.645,33.203,0
1542736101.639,73.730,49.805,19.531,92.285,27.344,0
1542736101.643,77.637,52.246,20.508,93.262,42.969,0
1542736101.647,103.027,52.246,13.672,76.660,-50.781,0
1542736101.651,103.516,45.410,20.020,85.938,-51.758,0
1542736101.655,92.285,42.969,23.438,87.402,10.254,0
1542736101.658,118.652,50.293,15.625,61.523,10.254,0
1542736101.662,118.164,53.711,18.066,77.148,11.230,0
1542736101.666,107.910,48.340,24.902,118.652,11.230,0
1542736101.670,84.473,40.527,27.832,87.402,-1.465,0
1542736101.674,69.824,39.551,29.785,18.066,-41.504,0
1542736101.678,75.684,37.598,29.785,43.945,6.836,0
1542736101.682,82.520,33.691,26.367,96.191,32.227,0
1542736101.686,83.496,35.156,22.949,82.520,-17.090,0
1542736101.690,64.941,39.551,21.973,64.453,46.387,0
1542736101.694,55.176,40.527,22.949,79.590,48.340,0
1542736101.698,56.152,41.504,21.973,69.824,29.785,0
1542736101.701,76.172,43.457,22.461,20.996,78.125,0
1542736101.705,69.824,40.039,25.391,35.645,55.664,0
1542736101.709,72.266,41.016,29.785,82.520,47.363,0
1542736101.713,54.199,41.016,31.250,81.055,55.664,0
1542736101.717,40.039,37.598,33.691,73.242,11.719,0
1542736101.721,67.383,37.598,35.645,64.453,-51.270,0
1542736101.725,67.871,37.598,34.668,57.129,-7.324,0
1542736101.729,68.359,42.480,28.320,37.109,59.082,0
1542736101.733,64.941,43.457,28.320,58.105,20.508,0
1542736101.737,72.266,38.574,31.250,79.590,-3.418,0
1542736101.741,69.336,33.691,28.809,43.945,-38.086,0
1542736101.744,58.105,31.250,28.809,57.617,-22.949,0
1542736101.748,57.129,32.227,29.297,64.941,29.297,0
1542736101.752,68.848,36.133,29.297,66.406,16.602,0
1542736101.756,65.918,36.621,30.762,76.660,-11.719,0
1542736101.760,61.523,35.156,30.273,50.293,-8.301,0
1542736101.764,77.148,37.109,30.762,29.785,2.441,0
1542736101.768,106.934,41.992,26.855,38.574,37.598,0
1542736101.772,79.590,41.016,20.996,29.785,78.125,0
1542736101.776,36.621,33.203,29.297,39.062,81.055,0
1542736101.780,44.922,29.297,34.668,85.449,83.496,0
1542736101.783,49.316,28.320,31.738,72.266,24.902,0
1542736101.787,56.641,32.715,29.297,25.879,15.137,0
1542736101.791,40.039,31.250,28.320,35.645,15.625,0
1542736101.795,48.340,28.320,30.273,66.895,8.789,0
1542736101.799,54.199,31.738,28.809,70.801,35.645,0
1542736101.803,54.688,35.645,29.785,66.895,60.059,0
1542736101.807,71.777,35.645,28.320,43.945,10.254,0
1542736101.811,57.129,35.156,24.414,44.434,8.301,0
1542736101.815,53.223,33.691,23.438,56.641,72.754,0
1542736101.819,62.500,34.180,22.949,23.926,25.391,0
1542736101.823,57.129,29.297,26.855,9.277,-30.273,0
1542736101.826,66.895,24.414,27.344,49.805,-25.391,0
1542736101.830,43.945,25.879,26.367,73.242,20.996,0
1542736101.834,43.457,33.691,28.320,54.199,68.848,0
1542736101.838,57.129,37.109,28.320,67.871,45.410,0
1542736101.842,65.430,31.250,32.715,60.059,36.621,0
1542736101.846,58.594,34.668,31.738,61.035,36.133,0
1542736101.850,41.992,40.527,27.344,50.293,52.246,0
1542736101.854,38.086,38.574,31.250,21.484,4.395,0
1542736101.858,42.480,38.086,33.691,29.785,-32.227,0
1542736101.862,62.012,41.016,29.297,52.734,41.016,0
1542736101.866,44.922,41.016,30.762,68.359,59.570,0
1542736101.869,36.621,40.039,31.250,32.715,16.113,0
1542736101.873,50.781,39.551,34.668,42.969,-31.250,0
1542736101.877,47.363,37.598,35.156,67.871,44.434,0
1542736101.881,59.570,40.039,29.785,33.203,100.586,0
1542736101.885,56.641,42.480,31.738,48.340,43.945,0
1542736101.889,43.457,39.062,34.180,52.734,12.695,0
1542736101.893,45.898,38.086,29.297,35.645,23.926,0
1542736101.897,45.410,39.062,23.438,36.621,44.922,0
1542736101.901,37.598,37.598,20.020,43.945,69.824,0
1542736101.905,38.574,40.039,22.461,51.270,38.086,0
1542736101.908,43.457,41.016,25.879,0.000,16.602,0
1542736101.912,48.828,42.480,25.391,14.648,65.918,0
1542736101.916,40.527,46.387,27.344,54.688,56.152,0
1542736101.920,29.297,42.969,26.855,52.734,5.371,0
1542736101.924,44.922,41.504,20.020,58.594,21.484,0
1542736101.928,44.922,41.016,20.508,60.547,12.695,0
1542736101.932,35.645,34.668,22.461,41.504,-3.906,0
1542736101.936,42.969,41.504,27.344,3.418,-2.441,0
1542736101.940,41.504,46.875,31.250,31.250,-8.301,0
1542736101.944,49.805,46.387,28.320,73.730,11.719,0
1542736101.948,17.578,34.180,24.414,32.715,-17.090,0
1542736101.951,22.461,42.480,27.832,15.625,-10.254,0
1542736101.955,45.898,56.641,29.785,52.734,21.973,0
1542736101.959,37.109,30.762,17.090,53.711,47.852,0
1542736101.963,38.086,17.578,19.531,16.113,40.527,0
1542736101.967,50.293,35.156,33.691,26.367,32.227,0
1542736101.971,50.781,38.574,24.414,46.875,30.762,0
1542736101.975,29.297,25.879,13.672,-3.418,-19.531,0
1542736101.979,20.508,23.438,19.531,-17.578,-38.086,0
1542736101.983,21.484,27.832,17.090,11.230,-0.977,0
1542736101.987,14.160,26.367,9.766,26.855,-3.906,0
1542736101.991,15.625,29.785,11.230,43.457,13.672,0
1542736101.994,15.625,39.551,26.367,19.043,1.953,0
1542736101.998,7.812,36.133,29.785,-10.254,23.438,0
1542736102.002,14.648,33.691,17.090,-26.855,44.922,0
1542736102.006,25.879,33.203,16.113,-5.859,20.020,0
1542736102.010,21.973,32.715,22.949,28.320,-13.672,0
1542736102.014,17.090,30.762,18.555,19.043,-35.156,0
1542736102.018,17.090,29.785,20.996,27.832,-3.906,0
1542736102.022,-1.953,28.320,36.133,-5.859,32.227,0
1542736102.026,3.418,24.902,34.668,-23.438,62.500,0
1542736102.030,24.902,32.715,34.668,37.109,74.219,0
1542736102.033,21.973,36.621,38.086,43.945,95.703,0
1542736102.037,14.648,20.996,32.715,21.484,73.730,0
1542736102.041,5.859,16.602,36.133,32.227,10.742,0
1542736102.045,7.324,16.602,40.039,79.102,-47.363,0
1542736102.049,36.133,18.066,34.180,74.219,-11.230,0
1542736102.053,21.484,21.484,32.715,-21.973,26.855,0
1542736102.057,-0.977,12.695,28.809,-13.184,-10.254,0
1542736102.061,10.254,9.766,33.691,42.969,-25.391,0
1542736102.065,10.254,15.625,38.086,35.645,7.324,0
1542736102.069,11.230,8.789,31.738,63.477,14.648,0
1542736102.073,31.738,11.230,35.156,64.941,-17.578,0
1542736102.076,34.180,19.531,37.598,20.020,2.930,0
1542736102.080,33.691,14.160,27.832,37.109,52.246,0
1542736102.084,32.227,19.043,38.574,54.688,54.199,0
1542736102.088,33.691,22.949,44.434,46.875,13.184,0
1542736102.092,17.578,8.301,27.344,45.410,37.109,0
1542736102.096,-0.488,-2.441,26.367,39.551,125.488,0
1542736102.100,14.160,0.000,26.855,14.160,58.594,0
1542736102.104,15.137,1.953,27.344,8.789,1.953,0
1542736102.108,12.207,1.465,26.367,23.438,33.691,0
1542736102.112,1.953,2.930,22.461,20.996,62.012,0
1542736102.116,13.184,0.977,31.738,30.273,59.082,0
1542736102.119,14.648,-2.930,32.715,14.648,38.086,0
1542736102.123,8.301,-1.465,27.344,37.598,50.293,0
1542736102.127,41.016,4.395,29.297,59.082,66.406,0
1542736102.131,51.270,4.395,22.949,42.480,49.316,0
1542736102.135,38.574,4.883,15.137,48.340,8.301,0
1542736102.139,28.320,27.832,28.320,46.875,60.547,0
1542736102.143,23.926,31.738,36.133,43.457,87.402,0
1542736102.147,29.785,3.906,26.367,43.945,71.777,0
1542736102.151,35.156,-2.441,19.043,51.270,73.730,0
1542736102.155,40.527,0.488,18.555,60.059,57.129,0
1542736102.158,46.387,4.395,28.320,36.621,35.645,0
1542736102.162,59.570,17.090,28.809,20.996,-15.625,0
1542736102.166,49.805,16.602,15.625,40.527,1.465,0
1542736102.170,27.832,8.789,13.672,49.316,95.215,0
1542736102.174,26.367,9.766,15.625,36.133,57.129,0
1542736102.178,28.320,14.648,20.996,25.391,-72.754,0
1542736102.182,29.297,14.648,20.020,28.809,18.066,0
1542736102.186,37.598,10.742,15.625,39.062,40.039,0
1542736102.190,15.137,10.742,20.020,50.781,-11.230,0
1542736102.194,12.695,16.602,24.414,22.461,9.277,0
1542736102.198,42.969,14.648,17.090,-11.719,55.664,0
1542736102.201,50.781,20.508,22.461,35.645,42.969,0
1542736102.205,46.387,25.879,23.438,55.176,20.996,0
1542736102.209,50.781,20.996,21.973,59.082,18.066,0
1542736102.213,47.363,21.973,30.762,53.711,-3.418,0
1542736102.217,39.062,25.879,24.414,28.320,40.039,0
1542736102.221,41.016,28.320,18.066,45.898,48.828,0
1542736102.225,40.039,31.738,20.020,51.270,56.152,0
1542736102.229,28.320,33.203,22.461,25.879,70.801,0
1542736102.233,16.113,28.809,20.020,35.645,81.055,0
1542736102.237,21.484,25.391,12.207,36.621,47.852,0
1542736102.241,29.297,33.203,20.508,31.738,54.688,0
1542736102.244,31.738,35.156,23.926,24.414,60.059,0
1542736102.248,47.363,39.551,22.949,48.340,0.977,0
1542736102.252,40.527,44.922,25.879,66.406,18.555,0
1542736102.256,13.672,24.902,26.367,9.277,72.754,0
1542736102.260,25.879,7.812,17.090,2.441,60.547,0
1542736102.264,44.922,10.254,12.207,45.410,-7.324,0
1542736102.268,36.133,18.066,17.578,70.801,13.672,0
1542736102.272,29.297,28.320,23.438,59.570,77.637,0
1542736102.276,29.785,34.668,27.344,44.434,109.375,0
1542736102.280,49.316,31.250,20.996,53.223,113.770,0
1542736102.283,47.363,30.762,16.113,32.227,84.961,0
1542736102.287,25.391,26.367,18.066,16.602,58.105,0
1542736102.291,29.785,20.020,17.090,19.531,76.660,0
1542736102.295,42.969,17.578,18.555,37.109,58.594,0
1542736102.299,51.758,20.996,19.531,33.691,37.109,0
1542736102.303,36.621,19.531,20.996,53.711,34.180,0
1542736102.307,46.387,22.461,25.879,62.988,15.625,0
1542736102.311,60.547,25.391,18.066,38.574,31.250,0
1542736102.315,36.621,17.578,14.160,40.039,73.242,0
1542736102.319,34.668,14.160,22.461,34.668,67.871,0
1542736102.323,49.805,22.461,26.855,2.930,50.781,0
1542736102.326,35.645,26.367,24.414,30.762,70.312,0
1542736102.330,41.992,22.949,22.949,66.895,50.781,0
1542736102.334,34.180,18.555,23.926,48.828,-1.465,0
1542736102.338,27.832,13.672,19.043,49.805,67.383,0
1542736102.342,41.992,13.672,18.066,35.645,94.238,0
1542736102.346,50.293,22.949,22.461,19.531,23.438,0
1542736102.350,59.082,22.949,18.066,42.480,42.969,0
1542736102.354,41.504,21.973,19.531,67.871,97.168,0
1542736102.358,38.574,20.996,13.672,50.781,113.770,0
1542736102.362,33.691,16.602,16.602,39.551,96.191,0
1542736102.366,11.719,14.648,17.090,28.809,79.102,0
1542736102.369,39.551,25.391,12.695,50.781,48.828,0
1542736102.373,62.500,30.273,20.020,61.035,51.758,0
1542736102.377,47.852,22.461,16.113,33.691,104.492,0
1542736102.381,26.855,21.973,12.207,40.039,88.379,0
1542736102.385,43.457,20.996,14.648,42.480,16.602,0
1542736102.389,39.551,23.438,18.066,22.461,27.344,0
1542736102.393,24.902,24.414,26.855,29.785,48.828,0
1542736102.397,60.547,30.762,25.879,74.707,67.871,0
1542736102.401,64.453,20.508,10.742,50.781,45.410,0
1542736102.405,44.434,8.301,6.836,30.762,3.418,0
1542736102.408,58.105,15.625,13.672,62.988,-17.090,0
1542736102.412,49.805,14.160,20.996,35.645,-6.836,0
1542736102.416,36.621,8.789,27.832,40.039,43.457,0
1542736102.420,47.363,3.906,38.574,56.152,27.344,0
1542736102.424,53.711,-3.906,41.992,33.691,-9.766,0
1542736102.428,60.059,-11.719,39.062,80.566,29.297,0
1542736102.432,42.969,-25.391,28.320,75.195,53.223,0
1542736102.436,57.617,-19.043,31.738,53.711,69.824,0
1542736102.440,81.543,-3.418,46.387,76.660,55.664,0
1542736102.444,56.641,-4.883,36.133,51.758,37.109,0
1542736102.448,62.500,-2.930,22.949,52.246,34.668,0
1542736102.451,64.453,-0.977,29.785,56.641,39.551,0
1542736102.455,70.312,6.836,41.504,70.801,38.086,0
1542736102.459,61.035,11.719,38.086,73.730,-12.207,0
1542736102.463,50.781,5.859,36.133,66.895,-7.812,0
1542736102.467,50.781,3.418,41.016,83.984,46.387,0
1542736102.471,50.781,6.836,36.133,77.148,21.484,0
1542736102.475,66.406,12.207,30.762,51.270,4.883,0
1542736102.479,63.477,12.207,36.133,60.547,42.969,0
1542736102.483,48.828,4.883,31.738,77.148,-7.324,0
1542736102.487,62.988,4.883,30.762,63.965,20.996,0
1542736102.491,80.078,17.090,41.016,83.496,1.465,0
1542736102.494,62.500,20.020,39.062,96.191,-67.871,0
1542736102.498,47.852,8.301,31.250,76.172,29.297,0
1542736102.502,51.270,14.160,36.133,42.480,38.574,0
1542736102.506,64.941,40.527,47.852,42.480,-14.648,0
1542736102.510,84.961,52.734,37.598,79.102,16.602,0
1542736102.514,81.055,28.809,30.762,78.125,10.742,0
1542736102.518,84.473,9.766,25.391,71.289,-2.441,0
1542736102.522,60.547,13.672,23.438,55.176,2.441,0
1542736102.526,49.805,13.184,22.461,43.457,-8.301,0
1542736102.530,64.453,15.137,23.438,86.914,10.742,0
1542736102.533,69.824,15.137,27.832,95.703,14.160,0
1542736102.537,80.566,26.367,27.832,48.828,27.832,0
1542736102.541,62.988,32.227,21.973,55.664,19.531,0
1542736102.545,52.246,28.320,20.996,62.988,-0.488,0
1542736102.549,48.828,27.344,18.555,34.180,0.488,0
1542736102.553,60.059,30.762,18.555,34.668,20.508,0
1542736102.557,66.895,30.762,21.484,44.434,55.176,0
1542736102.561,68.848,29.785,24.902,76.172,61.035,0
1542736102.565,72.266,29.297,23.926,55.664,65.918,0
1542736102.569,60.547,21.484,20.508,11.230,47.852,0
1542736102.573,57.129,23.926,21.973,50.293,-4.395,0
1542736102.576,49.805,28.809,24.902,85.938,53.223,0
1542736102.580,48.340,32.227,22.461,41.504,62.500,0
1542736102.584,44.922,30.762,13.184,-11.230,13.672,0
1542736102.588,51.758,23.926,12.207,20.020,-18.066,0
1542736102.592,55.664,25.879,15.137,41.992,18.066,0
1542736102.596,57.617,27.344,18.555,47.363,4.883,0
1542736102.600,62.500,31.250,22.949,68.848,-37.598,0
1542736102.604,66.406,31.738,21.484,68.359,-16.113,0
1542736102.608,51.270,29.297,17.578,53.711,-18.555,0
1542736102.612,39.062,33.691,22.461,68.359,27.832,0
1542736102.616,76.660,33.203,27.832,52.734,17.578,0
1542736102.619,59.570,29.297,22.461,8.301,13.184,0
1542736102.623,34.668,27.832,20.996,35.156,28.320,0
1542736102.627,62.988,26.855,28.809,67.383,-51.758,0
1542736102.631,61.523,28.809,28.809,65.430,-40.039,0
1542736102.635,24.414,36.133,11.230,46.387,5.859,0
1542736102.639,-3.418,41.016,8.301,22.949,-11.230,0
1542736102.643,38.086,53.223,6.836,49.316,-4.395,0
1542736102.647,23.438,47.363,0.000,39.551,-28.809,0
1542736102.651,-22.461,21.484,2.441,-30.762,-1.953,0
1542736102.655,-4.883,14.648,0.488,-49.805,45.898,0
1542736102.658,-1.953,18.066,-0.977,-41.016,26.367,0
1542736102.662,-17.578,25.879,-3.418,-17.090,2.441,0
1542736102.666,-15.137,34.668,0.488,7.812,-12.207,0
1542736102.670,5.859,25.391,-2.441,21.484,-7.812,0
1542736102.674,40.039,27.344,-2.930,-14.648,13.184,0
1542736102.678,17.090,38.086,6.836,-39.551,44.434,0
1542736102.682,15.625,42.969,19.531,30.273,8.789,0
1542736102.686,43.457,30.762,10.742,42.969,-62.988,0
1542736102.690,20.508,13.184,-4.395,14.160,-31.250,0
1542736102.694,26.367,18.555,3.906,7.812,22.949,0
1542736102.698,26.367,27.344,11.230,-0.488,38.086,0
1542736102.701,12.695,55.176,22.949,-0.977,38.574,0
1542736102.705,22.461,71.289,27.832,36.621,18.066,0
1542736102.709,20.996,36.621,19.043,53.223,-2.930,0
1542736102.713,23.438,15.625,17.090,38.574,12.695,0
1542736102.717,26.367,25.391,14.160,32.715,29.785,0
1542736102.721,21.484,32.227,7.812,-18.555,8.789,0
1542736102.725,54.688,34.668,1.465,-1.465,6.836,0
1542736102.729,60.059,35.645,9.277,33.691,6.348,0
1542736102.733,1.465,34.668,17.090,31.738,21.973,0
1542736102.737,10.254,41.504,14.160,0.000,25.879,0
1542736102.741,22.949,46.387,11.719,-43.945,-0.488,0
1542736102.744,11.230,43.945,18.555,2.930,49.805,0
1542736102.748,20.508,44.922,22.461,51.758,48.340,0
1542736102.752,23.438,45.898,23.926,34.180,-0.488,0
1542736102.756,39.062,42.480,22.461,28.320,11.230,0
1542736102.760,38.574,40.039,22.461,36.133,-16.113,0
1542736102.764,39.551,40.039,27.832,31.250,35.645,0
1542736102.768,48.340,41.016,31.250,17.578,82.520,0
1542736102.772,40.527,41.992,28.320,13.184,70.312,0
1542736102.776,26.855,40.527,18.555,27.344,44.922,0
1542736102.780,33.203,41.504,19.531,39.062,9.766,0
1542736102.783,50.293,43.457,28.809,51.270,40.527,0
1542736102.787,47.852,42.480,23.438,57.617,73.242,0
1542736102.791,48.340,45.410,22.949,22.949,35.156,0
1542736102.795,42.480,52.246,30.273,2.930,-32.227,0
1542736102.799,35.156,46.875,23.926,20.508,-2.930,0
1542736102.803,23.438,44.922,19.043,20.508,67.383,0
1542736102.807,28.320,40.527,25.391,39.551,90.332,0
1542736102.811,46.387,30.273,23.438,64.453,9.277,0
1542736102.815,44.434,30.762,17.090,32.715,22.949,0
1542736102.819,15.625,39.551,23.926,6.836,68.359,0
1542736102.823,21.973,47.363,27.344,23.926,29.297,0
1542736102.826,34.668,35.645,20.020,20.996,37.109,0
1542736102.830,27.344,30.273,21.973,43.457,48.340,0
1542736102.834,30.762,36.133,27.832,1.953,81.543,0
1542736102.838,23.438,38.574,22.461,-45.410,53.223,0
1542736102.842,6.836,34.180,22.461,14.648,39.551,0
1542736102.846,16.113,28.809,23.438,15.137,50.781,0
1542736102.850,12.207,29.785,16.113,10.254,21.973,0
1542736102.854,5.859,36.133,20.508,16.113,40.527,0
1542736102.858,15.137,37.109,26.855,23.438,40.039,0
1542736102.862,23.926,35.645,16.602,8.789,26.855,0
1542736102.866,20.508,38.086,13.184,10.742,36.133,0
1542736102.869,28.320,35.156,19.043,0.000,17.090,0
1542736102.873,25.879,36.621,17.090,-33.203,-0.488,0
1542736102.877,-12.207,37.598,16.113,-26.367,51.758,0
1542736102.881,-13.672,24.414,19.531,-3.906,75.684,0
1542736102.885,0.488,24.902,26.367,25.391,44.922,0
1542736102.889,-14.160,32.715,24.902,6.836,12.207,0
1542736102.893,5.859,41.504,20.508,-24.902,32.715,0
1542736102.897,19.043,60.547,34.180,-8.301,71.289,0
1542736102.901,5.859,34.180,22.949,8.789,71.777,0
1542736102.905,3.418,9.766,10.742,3.906,-0.488,0
1542736102.908,6.348,16.602,18.555,-5.859,2.441,0
1542736102.912,-13.184,20.020,17.090,-12.695,23.438,0
1542736102.916,-16.113,27.832,17.578,-24.414,25.879,0
1542736102.920,3.418,29.785,19.043,-29.785,84.473,0
1542736102.924,6.348,22.949,20.508,-25.879,91.309,0
1542736102.928,-1.953,23.926,25.879,-29.785,34.180,0
1542736102.932,-4.395,27.344,30.762,-15.625,11.230,0
1542736102.936,-1.953,29.785,27.344,31.250,35.156,0
1542736102.940,-6.836,36.621,28.809,-0.488,14.160,0
1542736102.944,7.324,50.781,34.668,-24.902,10.742,0
1542736102.948,-19.043,37.109,28.809,0.977,30.273,0
1542736102.951,-52.734,15.625,18.555,-31.250,37.598,0
1542736102.955,-36.621,22.949,27.832,-31.250,72.266,0
1542736102.959,-61.035,23.926,30.762,-38.574,68.359,0
1542736102.963,-111.816,36.133,15.625,-120.117,8.789,0
1542736102.967,-98.633,62.988,9.277,-145.020,81.543,0
1542736102.971,-124.512,67.871,14.160,-145.020,115.234,0
1542736102.975,-155.273,70.801,9.277,-177.246,49.805,0
1542736102.979,-154.785,75.684,14.648,-175.781,88.867,0
1542736102.983,-190.430,76.660,27.832,-182.617,92.773,0
1542736102.987,-206.055,82.031,28.320,-246.582,52.734,0
1542736102.991,-223.145,73.730,24.902,-281.250,24.414,0
1542736102.994,-253.906,80.566,17.578,-241.211,36.133,0
1542736102.998,-243.652,88.867,18.066,-241.699,55.176,0
1542736103.002,-236.328,85.449,20.508,-280.273,54.688,0
1542736103.006,-240.723,84.473,26.367,-281.738,76.172,0
1542736103.010,-245.605,95.703,33.203,-276.367,77.148,0
1542736103.014,-242.188,96.191,36.621,-270.996,72.754,0
1542736103.018,-243.164,80.078,39.551,-251.953,66.895,0
1542736103.022,-246.094,80.078,33.203,-228.027,46.875,0
1542736103.026,-211.914,94.727,20.996,-240.723,38.086,0
1542736103.030,-183.594,97.656,12.695,-229.004,24.902,0
1542736103.033,-187.988,93.262,19.043,-194.824,13.184,0
1542736103.037,-175.293,100.098,37.598,-178.223,12.695,0
1542736103.041,-155.762,111.816,38.574,-208.496,27.832,0
1542736103.045,-148.926,103.516,21.484,-209.473,-20.996,0
1542736103.049,-104.492,96.191,22.949,-129.395,-19.043,0
1542736103.053,-95.703,87.402,33.691,-134.766,15.137,0
1542736103.057,-111.328,79.102,39.551,-135.254,8.789,0
1542736103.061,-81.055,87.402,31.250,-90.820,37.598,0
1542736103.065,-43.945,94.238,13.672,-41.016,84.473,0
1542736103.069,-19.531,84.473,19.531,1.465,36.621,0
1542736103.073,7.812,67.871,30.762,-15.137,7.812,0
1542736103.076,28.320,63.477,31.738,6.348,64.941,0
1542736103.080,11.719,56.641,27.832,35.156,30.762,0
1542736103.084,54.688,49.805,17.578,37.598,-18.066,0
1542736103.088,105.957,50.293,10.742,34.180,-12.207,0
1542736103.092,105.469,47.852,18.555,70.801,27.832,0
1542736103.096,98.145,42.969,23.926,97.168,71.777,0
1542736103.100,99.609,41.992,13.184,101.074,60.059,0
1542736103.104,134.277,38.574,15.137,136.719,34.180,0
1542736103.108,152.832,30.762,24.902,165.039,-5.859,0
1542736103.112,145.996,35.156,17.578,151.855,-26.367,0
1542736103.116,163.574,43.457,5.859,132.812,-3.906,0
1542736103.119,195.312,44.922,4.883,148.438,0.000,0
1542736103.123,189.941,45.410,14.160,146.484,29.785,0
1542736103.127,182.129,41.016,20.020,168.457,49.316,0
1542736103.131,191.406,33.203,17.090,180.176,8.301,0
1542736103.135,209.473,22.949,16.113,163.574,0.977,0
1542736103.139,204.102,23.438,16.602,165.527,27.832,0
1542736103.143,190.918,29.297,17.090,194.824,26.855,0
1542736103.147,199.219,29.785,17.578,229.980,36.133,0
1542736103.151,200.195,25.391,18.066,231.934,29.785,0
1542736103.155,203.613,22.949,19.043,189.941,91.309,0
1542736103.158,239.746,22.949,18.555,182.617,98.145,0
1542736103.162,258.301,21.973,21.484,218.262,-3.418,0
1542736103.166,219.727,20.508,26.367,192.383,-6.836,0
1542736103.170,194.336,16.602,26.855,173.828,9.766,0
1542736103.174,193.848,13.672,28.809,213.867,21.484,0
1542736103.178,210.449,16.113,31.250,203.613,38.086,0
1542736103.182,215.332,17.578,28.809,177.246,73.730,0
1542736103.186,190.430,25.879,27.832,206.055,49.316,0
1542736103.190,187.988,25.391,22.461,208.984,49.805,0
1542736103.194,192.871,14.648,25.391,209.473,77.637,0
1542736103.198,207.520,14.648,33.691,187.988,85.938,0
1542736103.201,189.453,15.625,30.762,176.758,79.102,0
1542736103.205,141.113,15.137,27.832,175.293,74.707,0
1542736103.209,153.809,8.301,25.879,171.875,79.590,0
1542736103.213,167.969,10.742,28.320,171.875,96.680,0
1542736103.217,151.367,20.020,26.367,139.160,106.445,0
1542736103.221,137.207,20.508,26.367,127.930,89.844,0
1542736103.225,131.836,20.020,23.926,154.297,81.055,0
1542736103.229,140.137,20.508,22.461,166.992,62.988,0
1542736103.233,125.000,18.066,28.809,147.949,100.586,0
1542736103.237,136.719,17.090,26.855,145.508,77.637,0
1542736103.241,149.902,20.508,24.902,151.855,20.020,0
1542736103.244,136.230,20.996,28.320,136.719,64.453,0
1542736103.248,131.836,22.461,25.879,102.051,105.957,0
1542736103.252,119.629,20.508,25.391,114.746,77.637,0
1542736103.256,125.488,21.973,25.391,139.160,67.871,0
1542736103.260,130.371,22.461,18.066,122.559,113.770,0
1542736103.264,110.352,19.531,21.484,94.727,146.484,0
1542736103.268,120.117,24.902,32.227,118.164,131.348,0
1542736103.272,120.117,22.461,29.297,123.047,111.816,0
1542736103.276,105.469,19.043,24.414,74.707,105.469,0
1542736103.280,104.004,25.879,25.391,89.355,125.488,0
1542736103.283,115.723,33.203,26.855,118.164,147.461,0
1542736103.287,121.094,35.156,24.902,107.910,165.039,0
1542736103.291,107.910,36.133,22.949,113.770,173.340,0
1542736103.295,102.539,37.598,25.391,119.141,197.266,0
1542736103.299,104.492,35.645,25.879,76.172,218.262,0
1542736103.303,106.934,36.621,24.414,68.359,214.355,0
1542736103.307,111.328,36.621,27.832,92.285,242.188,0
1542736103.311,99.121,36.133,23.926,84.473,312.988,0
1542736103.315,85.938,34.180,22.461,90.332,340.332,0
1542736103.319,84.961,29.785,24.414,72.266,301.758,0
1542736103.323,87.891,28.809,25.391,52.246,306.152,0
1542736103.326,99.609,30.273,29.785,84.961,329.102,0
1542736103.330,101.562,33.203,26.367,86.426,347.656,0
1542736103.334,86.426,30.273,24.902,78.125,337.402,0
1542736103.338,77.637,27.832,31.250,95.215,328.613,0
1542736103.342,74.707,28.320,27.832,85.938,338.379,0
1542736103.346,80.078,31.738,26.367,50.293,322.266,0
1542736103.350,81.055,28.320,27.832,59.570,296.387,0
1542736103.354,77.148,22.461,23.926,61.523,285.645,0
1542736103.358,75.195,26.855,20.996,57.129,299.316,0
1542736103.362,77.148,19.043,19.043,62.012,269.531,0
1542736103.366,74.219,22.949,26.855,72.754,214.844,0
1542736103.369,67.383,34.668,29.785,50.293,222.168,0
1542736103.373,89.355,37.109,26.367,28.809,229.492,0
1542736103.377,89.355,39.551,23.438,80.078,149.414,0
1542736103.381,76.660,38.574,22.461,99.609,131.836,0
1542736103.385,76.172,36.133,30.762,60.059,176.758,0
1542736103.389,62.500,34.180,29.785,28.320,147.461,0
1542736103.393,54.199,32.227,23.926,54.199,104.004,0
1542736103.397,62.988,31.738,26.367,84.961,89.844,0
1542736103.401,67.383,32.227,28.809,60.059,69.824,0
1542736103.405,69.824,35.645,26.367,44.434,37.109,0
1542736103.408,67.871,35.156,27.344,70.312,-4.395,0
1542736103.412,55.664,23.926,24.902,62.500,-20.508,0
1542736103.416,58.594,23.926,22.949,42.480,-20.020,0
1542736103.420,48.340,29.785,26.855,50.781,-51.758,0
1542736103.424,59.082,30.762,23.926,52.246,-92.773,0
1542736103.428,74.707,39.062,22.949,45.410,-80.566,0
1542736103.432,59.082,33.203,23.438,25.391,-48.340,0
1542736103.436,65.918,27.344,21.973,51.758,-84.473,0
1542736103.440,41.992,33.203,20.996,32.715,-99.121,0
1542736103.444,38.086,32.227,19.043,41.016,-101.074,0
1542736103.448,61.523,31.250,19.531,51.758,-139.160,0
1542736103.451,46.387,35.156,23.926,21.484,-155.762,0
1542736103.455,46.387,33.203,26.855,48.340,-147.949,0
1542736103.459,57.617,30.762,34.180,58.105,-145.996,0
1542736103.463,69.336,37.109,32.715,49.805,-133.301,0
1542736103.467,59.082,32.227,22.949,68.359,-127.441,0
1542736103.471,41.016,26.367,20.020,30.273,-176.270,0
1542736103.475,51.758,33.691,23.438,-5.371,-140.137,0
1542736103.479,37.598,35.645,25.879,59.570,-106.445,0
1542736103.483,22.949,31.250,26.855,76.172,-114.258,0
1542736103.487,54.688,36.133,30.762,56.641,-99.121,0
1542736103.491,68.359,41.992,27.832,47.852,-124.512,0
1542736103.494,55.664,39.062,24.414,22.461,-144.043,0
1542736103.498,57.129,41.504,26.367,3.906,-106.934,0
1542736103.502,41.992,44.922,22.949,55.176,-67.871,0
1542736103.506,35.645,41.504,20.020,81.543,-113.281,0
1542736103.510,67.871,39.551,23.438,48.340,-134.277,0
1542736103.514,67.383,45.410,31.250,49.805,-138.184,0
1542736103.518,50.293,47.852,36.621,42.480,-161.621,0
1542736103.522,52.246,47.363,30.273,46.387,-147.949,0
1542736103.526,65.430,49.805,28.320,80.078,-170.410,0
1542736103.530,55.664,53.223,35.156,79.590,-153.809,0
1542736103.533,37.598,49.805,25.391,40.527,-112.793,0
1542736103.537,42.480,38.086,22.461,49.316,-129.395,0
1542736103.541,51.270,34.668,26.855,61.035,-139.648,0
1542736103.545,44.922,44.922,24.414,29.785,-142.578,0
1542736103.549,14.648,45.898,22.949,7.812,-111.328,0
1542736103.553,-16.602,34.180,21.973,-24.902,-98.633,0
1542736103.557,0.000,31.250,18.555,-20.996,-75.195,0
1542736103.561,18.555,37.109,13.184,-16.602,-101.562,0
1542736103.565,7.812,36.621,14.648,-44.922,-57.129,0
1542736103.569,-16.113,34.668,12.207,-18.555,22.949,0
1542736103.573,-25.879,37.598,11.230,-3.906,21.484,0
1542736103.576,-28.809,36.133,12.695,-5.371,-3.418,0
1542736103.580,-22.949,33.203,9.277,-3.906,-39.551,0
1542736103.584,-7.812,31.738,10.742,-15.625,-5.371,0
1542736103.588,-11.230,29.297,15.625,-32.227,28.809,0
1542736103.592,-6.836,34.180,18.066,-26.855,51.270,0
1542736103.596,12.207,39.551,17.090,-1.465,92.773,0
1542736103.600,15.625,34.668,16.113,13.672,101.074,0
1542736103.604,11.719,32.227,16.602,29.297,130.371,0
1542736103.608,6.836,36.621,11.719,40.527,132.324,0
1542736103.612,33.203,37.109,15.137,18.555,140.137,0
1542736103.616,40.527,35.645,21.484,1.953,136.230,0
1542736103.619,10.254,32.227,20.508,4.883,106.934,0
1542736103.623,16.113,28.320,20.996,-1.465,106.445,0
1542736103.627,22.461,28.320,20.508,29.297,106.445,0
1542736103.631,22.949,36.621,38.086,58.594,92.773,0
1542736103.635,31.738,36.133,39.062,21.484,78.613,0
1542736103.639,42.480,28.809,25.391,37.109,89.355,0
1542736103.643,23.926,30.273,29.785,31.250,78.613,0
1542736103.647,13.672,24.902,29.785,20.996,4.883,0
1542736103.651,26.855,24.902,23.926,20.020,-16.602,0
1542736103.655,34.668,26.855,22.949,11.230,22.461,0
1542736103.658,39.062,25.879,23.926,23.438,14.160,0
1542736103.662,43.945,27.832,23.926,37.598,0.488,0
1542736103.666,31.250,30.273,26.367,29.785,26.367,0
1542736103.670,19.531,27.344,28.320,44.434,22.949,0
1542736103.674,26.367,26.855,29.785,64.941,15.625,0
1542736103.678,31.738,27.832,27.344,46.875,-25.391,0
1542736103.682,34.668,32.227,26.855,35.156,-47.363,0
1542736103.686,48.340,38.574,25.391,20.996,-23.438,0
1542736103.690,48.340,34.668,23.926,28.320,-26.367,0
1542736103.694,23.926,37.109,25.391,49.805,-7.324,0
1542736103.698,22.949,40.527,27.832,32.715,-3.418,0
1542736103.701,41.992,40.527,28.809,37.598,-1.953,0
1542736103.705,48.340,36.621,21.484,48.340,-0.977,0
1542736103.709,60.059,32.227,18.555,34.180,25.391,0
1542736103.713,63.477,34.668,21.484,44.434,66.406,0
1542736103.717,52.246,32.227,25.879,50.293,62.012,0
1542736103.721,38.086,29.297,24.414,40.527,83.008,0
1542736103.725,32.227,23.438,22.461,68.848,104.980,0
1542736103.729,49.316,26.367,21.973,70.801,120.117,0
1542736103.733,71.777,30.762,20.020,47.363,159.668,0
1542736103.737,70.312,27.344,31.250,32.227,221.191,0
1542736103.741,59.570,28.320,29.297,21.484,218.262,0
1542736103.744,51.758,32.227,12.695,44.434,232.422,0
1542736103.748,39.551,23.926,17.090,50.293,264.160,0
1542736103.752,46.875,16.602,21.484,41.992,271.484,0
1542736103.756,67.383,19.531,18.555,26.367,298.340,0
1542736103.760,67.383,24.414,20.020,45.898,357.910,0
1542736103.764,38.574,25.391,20.508,80.078,389.160,0
1542736103.768,25.879,20.996,25.391,69.824,413.574,0
1542736103.772,50.781,20.996,26.367,52.246,445.801,0
1542736103.776,64.453,25.391,22.461,67.383,456.055,0
1542736103.780,62.500,26.367,22.949,74.219,479.004,0
1542736103.783,50.781,28.809,29.785,64.941,494.141,0
1542736103.787,42.969,30.273,31.250,62.500,487.793,0
1542736103.791,64.453,33.203,23.438,51.758,500.488,0
1542736103.795,70.312,28.320,24.414,38.574,494.141,0
1542736103.799,45.898,24.414,25.391,46.875,476.562,0
1542736103.803,39.551,28.320,25.879,68.359,469.727,0
1542736103.807,47.363,23.438,28.809,59.082,456.055,0
1542736103.811,68.848,22.949,24.902,41.992,435.547,0
1542736103.815,55.176,24.902,23.926,13.184,442.871,0
1542736103.819,30.762,23.926,29.785,30.273,459.473,0
1542736103.823,57.129,27.832,26.855,69.824,426.270,0
1542736103.826,61.523,30.273,21.973,69.824,400.391,0
1542736103.830,54.688,26.367,26.367,49.805,393.555,0
1542736103.834,42.969,22.461,30.273,41.016,400.391,0
1542736103.838,40.527,21.973,29.785,47.363,403.809,0
1542736103.842,41.504,21.973,33.691,51.270,395.996,0
1542736103.846,57.617,27.832,30.762,67.871,410.156,0
1542736103.850,59.570,29.785,28.320,49.805,407.715,0
1542736103.854,42.969,21.973,27.344,50.293,380.371,0
1542736103.858,44.922,22.461,30.762,70.312,373.535,0
1542736103.862,40.039,28.320,30.273,74.707,378.906,0
1542736103.866,37.598,29.297,21.484,48.340,377.441,0
1542736103.869,53.223,24.902,21.973,-14.160,350.586,0
1542736103.873,53.223,23.926,26.367,5.371,315.918,0
1542736103.877,50.781,21.484,27.832,70.801,312.988,0
1542736103.881,49.805,19.043,29.785,99.121,339.355,0
1542736103.885,41.016,19.043,27.344,74.707,318.359,0
1542736103.889,47.363,14.648,26.367,29.785,291.992,0
1542736103.893,55.176,17.578,22.461,33.203,303.223,0
1542736103.897,69.824,23.926,23.438,54.688,298.340,0
1542736103.901,49.316,17.090,29.785,43.945,291.016,0
1542736103.905,40.039,17.578,24.902,42.480,281.738,0
1542736103.908,48.828,23.438,27.344,48.340,274.414,0
1542736103.912,24.414,22.949,31.250,37.598,276.855,0
1542736103.916,17.578,23.926,28.320,6.348,236.328,0
1542736103.920,34.180,25.879,26.855,24.902,226.074,0
1542736103.924,34.180,27.344,32.227,59.570,250.488,0
1542736103.928,27.344,25.391,33.203,35.645,247.559,0
1542736103.932,20.996,23.438,31.250,33.203,228.516,0
1542736103.936,17.090,22.949,30.762,60.547,213.379,0
1542736103.940,35.645,26.367,30.762,7.812,217.773,0
1542736103.944,39.551,28.320,27.344,-49.316,201.172,0
1542736103.948,37.109,30.273,23.438,3.418,180.664,0
1542736103.951,22.461,28.320,24.902,47.852,203.125,0
1542736103.955,14.648,28.809,26.855,54.688,232.910,0
1542736103.959,23.926,34.180,31.738,37.109,204.102,0
1542736103.963,5.859,33.691,36.621,50.293,161.133,0
1542736103.967,15.625,31.250,37.598,41.992,185.059,0
1542736103.971,29.785,32.227,33.203,-17.578,175.781,0
1542736103.975,9.766,34.180,26.855,-34.668,144.043,0
1542736103.979,33.203,33.691,27.832,-6.348,138.672,0
1542736103.983,27.832,38.086,32.227,15.625,127.441,0
1542736103.987,-0.488,37.598,32.227,11.230,107.910,0
1542736103.991,11.719,34.668,33.203,6.348,102.051,0
1542736103.994,4.883,41.016,37.109,-19.531,105.957,0
1542736103.998,7.324,47.852,33.203,-1.465,125.977,0
1542736104.002,13.672,42.480,32.227,32.227,140.625,0
1542736104.006,-2.930,49.316,41.016,9.277,118.164,0
1542736104.010,-19.531,50.781,34.180,-31.250,107.910,0
1542736104.014,-29.297,41.016,21.973,-46.387,124.023,0
1542736104.018,-41.016,48.828,31.250,-38.086,108.887,0
1542736104.022,-75.195,45.410,36.133,-62.988,97.168,0
1542736104.026,-104.004,37.598,30.273,-116.699,102.539,0
1542736104.030,-150.879,54.688,41.992,-167.480,103.027,0
1542736104.033,-223.633,60.059,52.246,-231.445,112.793,0
1542736104.037,-267.090,41.504,57.617,-269.043,96.680,0
1542736104.041,-267.090,36.621,69.336,-290.039,55.664,0
1542736104.045,-272.949,50.781,69.336,-296.875,95.703,0
1542736104.049,-308.594,61.523,65.430,-316.406,133.789,0
1542736104.053,-334.473,59.570,64.453,-316.406,114.746,0
1542736104.057,-300.293,63.965,64.453,-290.039,102.051,0
1542736104.061,-273.926,73.730,62.012,-287.598,82.520,0
1542736104.065,-269.043,81.055,54.688,-289.551,97.168,0
1542736104.069,-225.098,85.938,44.922,-282.715,84.473,0
1542736104.073,-175.781,87.402,41.504,-202.148,58.594,0
1542736104.076,-161.133,86.914,30.762,-184.570,58.594,0
1542736104.080,-117.676,81.543,22.461,-184.082,58.594,0
1542736104.084,-83.984,72.266,27.344,-79.102,101.074,0
1542736104.088,-65.918,66.895,30.273,-30.762,100.586,0
1542736104.092,-37.109,60.059,30.273,-33.691,84.961,0
1542736104.096,-11.719,53.223,28.809,-28.320,92.773,0
1542736104.100,2.930,45.410,26.367,-21.484,99.609,0
1542736104.104,20.508,43.457,27.344,-13.184,99.121,0
1542736104.108,55.664,40.527,23.438,26.855,80.566,0
1542736104.112,41.504,32.715,23.438,41.016,70.801,0
1542736104.116,17.578,26.855,21.484,25.391,51.270,0
1542736104.119,47.852,23.926,19.531,51.758,77.148,0
1542736104.123,70.801,24.414,21.484,81.543,110.352,0
1542736104.127,83.496,22.949,23.438,84.961,87.402,0
1542736104.131,102.539,22.949,22.949,84.961,77.148,0
1542736104.135,98.145,25.879,23.926,81.055,79.102,0
1542736104.139,103.027,23.438,23.926,99.121,57.129,0
1542736104.143,99.609,24.414,19.531,125.000,56.152,0
1542736104.147,99.609,30.273,19.531,129.395,96.191,0
1542736104.151,110.840,25.391,20.996,125.488,103.027,0
1542736104.155,111.816,21.484,20.996,119.141,84.473,0
1542736104.158,113.281,24.902,23.438,142.090,49.805,0
1542736104.162,109.375,23.926,24.414,132.812,18.555,0
1542736104.166,113.770,25.879,23.926,114.746,60.547,0
1542736104.170,125.000,28.320,24.414,126.953,81.055,0
1542736104.174,132.812,25.391,23.438,118.652,46.875,0
1542736104.178,125.488,22.949,23.926,97.656,25.879,0
1542736104.182,118.652,21.973,24.902,126.465,45.898,0
1542736104.186,114.258,19.531,24.414,162.598,57.129,0
1542736104.190,119.629,20.996,22.949,137.695,83.496,0
1542736104.194,136.230,22.949,21.973,103.516,52.734,0
1542736104.198,131.836,22.949,18.555,93.262,39.551,0
1542736104.201,133.301,26.367,18.555,124.023,51.270,0
1542736104.205,144.043,29.785,19.531,180.664,-3.906,0
1542736104.209,129.395,27.832,18.555,159.180,9.766,0
1542736104.213,130.859,25.391,22.949,114.258,29.785,0
1542736104.217,157.227,21.484,18.555,143.066,17.090,0
1542736104.221,127.441,16.602,19.531,156.250,32.227,0
1542736104.225,119.629,18.066,23.926,137.207,49.805,0
1542736104.229,148.926,22.461,16.113,124.512,39.551,0
1542736104.233,142.090,25.391,6.348,111.328,49.805,0
1542736104.237,143.066,20.508,10.742,129.395,45.898,0
1542736104.241,153.320,15.137,19.531,149.414,6.348,0
1542736104.244,139.648,20.508,18.066,144.531,2.930,0
1542736104.248,134.766,20.996,15.625,132.812,-2.441,0
1542736104.252,148.926,22.461,16.113,130.859,3.418,0
1542736104.256,128.418,22.461,17.578,136.230,11.230,0
1542736104.260,131.836,17.090,14.160,120.605,11.719,0
1542736104.264,128.418,17.090,16.602,118.652,20.508,0
1542736104.268,115.723,16.113,21.484,115.723,1.953,0
1542736104.272,130.371,19.043,19.531,113.770,12.695,0
1542736104.276,123.535,21.973,18.555,111.816,19.043,0
1542736104.280,111.328,20.020,20.020,118.164,0.977,0
1542736104.283,115.723,21.973,20.996,127.930,-26.367,0
1542736104.287,121.094,22.461,19.043,104.980,-24.414,0
1542736104.291,135.254,21.973,19.043,125.488,-6.836,0
1542736104.295,139.648,26.855,20.020,120.117,-38.574,0
1542736104.299,98.145,26.367,17.578,98.145,-29.297,0
1542736104.303,96.191,20.020,16.602,139.648,-12.695,0
1542736104.307,118.164,21.973,24.902,124.023,-21.973,0
1542736104.311,64.453,14.160,27.832,42.480,-39.062,0
1542736104.315,46.387,2.441,16.113,23.438,-30.762,0
1542736104.319,81.543,3.418,10.254,43.457,-30.762,0
1542736104.323,42.480,5.859,12.207,39.551,-62.988,0
1542736104.326,21.484,2.930,9.766,18.555,-53.223,0
1542736104.330,37.109,-1.953,10.254,41.016,-35.645,0
1542736104.334,23.438,-3.418,15.625,38.086,-65.918,0
1542736104.338,25.879,-1.465,13.672,29.297,-90.820,0
1542736104.342,40.527,3.418,9.766,47.363,-93.750,0
1542736104.346,33.691,4.883,10.742,47.363,-98.633,0
1542736104.350,30.762,5.371,10.742,30.762,-91.797,0
1542736104.354,59.570,9.766,10.254,25.879,-107.422,0
1542736104.358,45.898,13.672,9.277,55.664,-107.910,0
1542736104.362,14.160,11.719,12.695,75.195,-94.238,0
1542736104.366,16.602,11.719,16.602,59.570,-88.379,0
1542736104.369,29.785,14.160,16.113,44.922,-102.539,0
1542736104.373,26.367,16.113,18.066,45.898,-97.656,0
1542736104.377,32.715,17.090,25.391,67.871,-96.680,0
1542736104.381,32.715,17.090,21.973,47.852,-131.836,0
1542736104.385,11.230,17.578,15.625,24.414,-159.668,0
1542736104.389,21.973,18.066,20.020,31.250,-129.883,0
1542736104.393,30.273,18.555,22.949,52.246,-126.953,0
1542736104.397,33.691,21.484,20.996,47.852,-180.176,0
1542736104.401,32.227,23.438,18.555,32.715,-177.734,0
1542736104.405,18.555,16.602,24.902,60.059,-179.688,0
1542736104.408,17.578,16.602,29.297,52.246,-190.918,0
1542736104.412,34.180,24.902,23.926,70.801,-173.340,0
1542736104.416,41.504,24.414,27.832,60.547,-153.320,0
1542736104.420,33.203,21.973,31.250,5.859,-149.414,0
1542736104.424,62.500,29.297,26.367,18.066,-175.293,0
1542736104.428,41.992,30.273,25.879,48.340,-184.570,0
1542736104.432,30.762,24.414,28.809,76.660,-203.125,0
1542736104.436,47.852,28.809,29.297,78.613,-215.820,0
1542736104.440,29.785,30.273,32.227,67.871,-208.496,0
1542736104.444,48.340,29.297,31.738,71.777,-224.609,0
1542736104.448,75.195,29.297,29.297,49.316,-214.355,0
1542736104.451,39.062,21.484,26.367,15.137,-161.621,0
1542736104.455,19.043,21.484,23.438,18.066,-168.945,0
1542736104.459,36.621,23.438,24.902,45.410,-179.688,0
1542736104.463,44.922,20.020,25.391,61.035,-161.621,0
1542736104.467,37.109,24.902,28.809,55.664,-196.289,0
1542736104.471,49.805,31.738,24.414,45.898,-200.195,0
1542736104.475,59.570,31.250,21.973,17.090,-188.965,0
1542736104.479,27.344,34.180,25.391,25.391,-187.500,0
1542736104.483,24.414,37.598,25.879,30.762,-193.848,0
1542736104.487,49.805,35.156,27.832,2.930,-192.383,0
1542736104.491,45.410,34.180,27.832,49.316,-172.363,0
1542736104.494,38.086,36.621,29.297,77.637,-187.988,0
1542736104.498,57.129,37.598,30.762,51.758,-183.105,0
1542736104.502,64.453,39.551,25.879,31.738,-183.105,0
1542736104.506,27.832,38.574,26.855,37.598,-189.453,0
1542736104.510,31.250,31.250,29.785,45.410,-174.316,0
1542736104.514,51.758,30.762,30.273,70.312,-169.922,0
1542736104.518,64.941,34.180,35.645,55.664,-159.668,0
1542736104.522,46.875,33.203,31.250,30.762,-152.344,0
1542736104.526,24.902,34.180,25.879,40.039,-161.133,0
1542736104.530,31.250,32.715,29.297,11.230,-159.668,0
1542736104.533,44.922,31.738,26.855,5.859,-192.383,0
1542736104.537,62.500,34.668,22.949,68.359,-200.684,0
1542736104.541,42.969,34.668,24.902,68.848,-171.875,0
1542736104.545,42.480,31.250,24.414,41.504,-176.270,0
1542736104.549,41.992,30.762,21.484,38.086,-163.086,0
1542736104.553,28.320,31.250,21.484,15.137,-145.508,0
1542736104.557,31.250,29.297,22.461,31.250,-162.109,0
1542736104.561,42.969,28.809,26.367,58.105,-161.133,0
1542736104.565,51.270,29.785,21.484,51.758,-161.621,0
1542736104.569,29.785,28.320,19.531,34.668,-184.082,0
1542736104.573,38.086,24.414,25.879,36.133,-190.918,0
1542736104.576,57.617,22.949,24.414,45.410,-193.848,0
1542736104.580,47.363,21.973,21.484,20.508,-201.172,0
1542736104.584,54.688,22.949,21.484,15.625,-149.902,0
1542736104.588,31.738,22.949,26.367,48.828,-121.094,0
1542736104.592,21.973,23.926,34.180,34.180,-165.039,0
1542736104.596,41.504,25.879,35.645,49.805,-186.035,0
1542736104.600,39.551,23.438,38.574,49.316,-194.824,0
1542736104.604,57.617,24.902,44.922,-3.418,-206.543,0
1542736104.608,45.898,27.832,44.922,18.555,-218.262,0
1542736104.612,26.367,24.902,41.016,47.852,-205.566,0
1542736104.616,44.922,25.879,44.434,65.918,-174.316,0
1542736104.619,55.176,26.855,41.992,60.059,-176.758,0
1542736104.623,38.086,21.484,42.480,35.645,-198.242,0
1542736104.627,48.828,22.461,45.410,35.645,-196.777,0
1542736104.631,31.738,26.855,41.992,33.203,-164.551,0
1542736104.635,24.414,25.391,40.039,42.969,-175.293,0
1542736104.639,41.992,20.996,30.762,33.691,-185.059,0
1542736104.643,27.832,17.090,30.273,36.133,-180.176,0
1542736104.647,34.668,16.113,41.504,27.344,-160.645,0
1542736104.651,47.363,22.949,39.062,4.883,-113.281,0
1542736104.655,34.180,28.320,36.133,28.809,-127.441,0
1542736104.658,20.508,27.344,35.645,55.176,-168.457,0
1542736104.662,35.156,27.344,37.598,75.684,-155.273,0
1542736104.666,54.199,28.320,40.527,50.781,-152.344,0
1542736104.670,37.598,30.762,31.738,61.523,-185.059,0
1542736104.674,29.297,32.715,27.344,59.082,-162.109,0
1542736104.678,32.227,32.227,28.320,-16.602,-154.297,0
1542736104.682,29.785,30.762,26.367,-14.648,-166.504,0
1542736104.686,45.410,35.156,24.902,36.621,-141.113,0
1542736104.690,39.551,39.551,25.879,40.527,-127.930,0
1542736104.694,52.734,33.203,26.367,34.668,-136.719,0
1542736104.698,63.965,31.250,28.320,49.316,-125.488,0
1542736104.701,45.410,34.668,29.785,67.383,-94.238,0
1542736104.705,39.551,26.855,29.297,81.543,-67.383,0
1542736104.709,39.551,22.949,32.227,46.875,-71.289,0
1542736104.713,55.176,32.227,28.320,17.090,-62.012,0
1542736104.717,64.941,38.574,22.461,51.758,-19.043,0
1542736104.721,55.176,37.598,27.344,69.336,28.809,0
1542736104.725,55.176,36.133,27.344,39.062,56.641,0
1542736104.729,62.500,33.203,27.832,66.406,31.250,0
1542736104.733,57.617,33.691,30.273,89.355,32.715,0
1542736104.737,46.875,34.180,24.902,40.527,74.707,0
1542736104.741,48.828,32.227,20.508,5.859,71.777,0
1542736104.744,41.992,36.621,18.066,9.766,92.773,0
1542736104.748,29.785,43.945,17.578,38.574,120.605,0
1542736104.752,28.809,47.363,21.484,59.082,83.984,0
1542736104.756,33.203,42.480,21.973,43.945,66.406,0
1542736104.760,54.199,38.086,20.508,39.551,97.656,0
1542736104.764,51.270,41.504,23.438,41.504,117.676,0
1542736104.768,38.574,44.922,23.438,34.180,126.953,0
1542736104.772,37.109,41.016,23.926,41.992,132.324,0
1542736104.776,35.645,38.574,29.297,66.895,136.719,0
1542736104.780,41.504,39.551,31.738,72.754,167.969,0
1542736104.783,40.527,44.922,27.832,25.879,198.730,0
1542736104.787,45.410,46.875,27.832,22.949,186.523,0
1542736104.791,40.527,40.039,28.809,36.621,168.457,0
1542736104.795,31.250,36.621,28.809,27.344,178.711,0
1542736104.799,50.293,38.574,31.250,9.766,180.664,0
1542736104.803,61.035,38.574,29.297,29.785,174.805,0
1542736104.807,47.363,35.156,29.297,56.152,192.383,0
1542736104.811,33.691,35.645,29.297,43.945,197.754,0
1542736104.815,31.250,36.133,28.320,9.766,179.688,0
1542736104.819,40.039,37.109,29.297,33.203,154.297,0
1542736104.823,44.434,34.668,24.414,61.523,165.527,0
1542736104.826,52.246,34.180,20.508,41.016,205.566,0
1542736104.830,48.828,41.016,23.438,19.531,211.426,0
1542736104.834,35.645,37.109,22.949,44.434,187.988,0
1542736104.838,41.016,31.738,26.367,63.965,181.152,0
1542736104.842,43.945,35.156,27.344,9.277,197.266,0
1542736104.846,40.039,36.621,29.785,-13.672,214.844,0
1542736104.850,40.527,34.668,32.715,43.945,208.496,0
1542736104.854,34.180,30.762,29.297,56.152,202.637,0
1542736104.858,28.809,33.691,30.273,60.547,212.891,0
1542736104.862,42.480,39.551,29.785,71.777,213.867,0
1542736104.866,57.129,41.504,29.297,33.203,212.891,0
1542736104.869,40.039,40.527,28.809,4.395,225.098,0
1542736104.873,41.992,35.645,26.855,27.344,213.867,0
1542736104.877,32.715,31.738,25.879,31.738,211.914,0
1542736104.881,31.250,32.227,27.344,23.438,226.562,0
1542736104.885,35.645,36.621,28.809,32.227,217.285,0
1542736104.889,20.508,35.645,30.762,36.133,201.172,0
1542736104.893,48.340,35.645,28.320,34.668,208.008,0
1542736104.897,54.688,40.527,25.391,62.012,218.262,0
1542736104.901,42.969,38.574,25.391,54.688,185.547,0
1542736104.905,38.574,32.227,25.391,31.738,189.453,0
1542736104.908,31.250,34.668,26.367,25.879,197.754,0
1542736104.912,33.203,41.504,21.484,35.645,186.523,0
1542736104.916,33.691,41.504,19.043,55.664,197.754,0
1542736104.920,55.176,39.551,22.461,33.203,159.668,0
1542736104.924,38.086,36.621,20.996,11.230,120.605,0
1542736104.928,16.602,31.250,19.531,29.297,159.180,0
1542736104.932,41.016,32.715,19.043,27.344,182.617,0
1542736104.936,50.293,42.969,19.043,41.992,159.668,0
1542736104.940,35.645,44.434,19.043,50.293,133.301,0
1542736104.944,44.434,40.527,21.484,34.668,125.977,0
1542736104.948,45.898,40.039,23.438,45.410,136.230,0
1542736104.951,43.945,33.691,26.367,38.086,137.207,0
1542736104.955,39.551,33.691,25.391,26.367,104.492,0
1542736104.959,46.875,35.156,21.973,40.039,100.098,0
1542736104.963,41.504,33.691,21.973,54.199,104.980,0
1542736104.967,24.902,31.250,22.949,61.035,101.074,0
1542736104.971,36.133,26.367,20.508,52.734,104.980,0
1542736104.975,44.434,22.949,20.996,48.340,101.074,0
1542736104.979,39.551,21.484,21.973,32.715,110.352,0
1542736104.983,32.715,25.391,22.461,50.781,130.859,0
1542736104.987,25.391,25.391,25.879,37.109,117.188,0
1542736104.991,37.109,26.367,23.438,27.344,100.586,0
1542736104.994,59.570,29.297,23.438,75.684,102.539,0
1542736104.998,29.785,27.832,26.855,80.566,79.102,0
1542736105.002,27.344,29.297,26.855,37.109,82.031,0
1542736105.006,49.316,28.809,33.203,29.297,97.656,0
1542736105.010,27.344,24.414,27.344,28.809,88.379,0
1542736105.014,31.250,25.391,20.020,5.859,76.172,0
1542736105.018,39.551,28.809,22.461,31.250,72.754,0
1542736105.022,23.438,29.785,19.531,29.297,82.031,0
1542736105.026,20.508,26.367,18.555,50.781,88.867,0
1542736105.030,39.062,27.344,21.484,65.430,84.961,0
1542736105.033,26.855,27.344,23.926,24.414,96.191,0
1542736105.037,7.812,25.391,20.996,42.480,112.305,0
1542736105.041,45.898,24.414,20.020,45.410,67.383,0
1542736105.045,56.641,21.973,20.996,35.645,30.273,0
1542736105.049,24.902,26.855,17.578,43.457,87.891,0
1542736105.053,26.367,33.691,17.578,38.574,101.562,0
1542736105.057,30.273,31.738,19.531,20.508,42.480,0
1542736105.061,20.508,30.273,21.973,37.109,61.523,0
1542736105.065,38.574,33.691,21.973,58.105,114.258,0
1542736105.069,43.945,30.273,20.020,41.016,107.422,0
1542736105.073,31.250,29.785,20.020,58.594,78.125,0
1542736105.076,45.898,32.227,19.531,55.664,84.961,0
1542736105.080,43.457,30.762,20.508,27.832,86.914,0
1542736105.084,29.297,28.809,22.949,24.902,104.004,0
1542736105.088,27.832,27.832,22.949,24.902,104.980,0
1542736105.092,16.602,24.414,20.020,50.293,97.656,0
1542736105.096,22.461,23.438,22.461,66.406,91.309,0
1542736105.100,26.367,26.855,25.391,54.199,91.309,0
1542736105.104,20.996,25.879,28.320,36.133,98.633,0
1542736105.108,33.691,26.367,28.320,11.230,82.520,0
1542736105.112,60.059,25.879,28.320,22.461,105.957,0
1542736105.116,44.434,23.438,28.320,40.527,117.676,0
1542736105.119,21.484,27.344,24.902,33.203,107.422,0
1542736105.123,32.715,26.855,27.832,53.711,100.586,0
1542736105.127,20.996,23.438,25.391,36.133,108.887,0
1542736105.131,20.508,24.902,23.438,17.578,113.770,0
1542736105.135,31.738,30.762,26.367,27.344,107.422,0
1542736105.139,22.949,38.086,21.973,17.090,119.629,0
1542736105.143,12.695,42.969,20.508,25.879,115.723,0
1542736105.147,19.531,41.992,23.438,27.832,113.770,0
1542736105.151,22.461,37.109,22.949,43.457,98.145,0
1542736105.155,25.391,38.574,22.461,49.805,121.094,0
1542736105.158,32.715,35.645,25.391,55.664,149.414,0
1542736105.162,54.688,24.902,32.227,62.500,134.766,0
1542736105.166,69.824,23.926,33.691,56.152,137.695,0
1542736105.170,41.504,38.086,25.879,41.992,155.762,0
1542736105.174,33.691,43.457,23.438,26.367,169.434,0
1542736105.178,62.500,41.504,21.973,42.969,159.180,0
1542736105.182,86.426,49.805,16.113,95.215,162.598,0
1542736105.186,109.863,51.270,13.672,84.473,155.273,0
1542736105.190,121.094,43.457,16.113,100.586,137.207,0
1542736105.194,106.934,44.434,16.602,96.191,122.070,0
1542736105.198,106.445,42.480,20.996,80.566,124.512,0
1542736105.201,104.980,40.527,27.832,139.648,133.789,0
1542736105.205,97.656,45.898,28.809,146.484,128.906,0
1542736105.209,75.195,43.457,30.273,111.328,135.254,0
1542736105.213,74.707,40.527,23.926,89.355,135.254,0
1542736105.217,82.520,41.016,20.996,106.934,119.629,0
1542736105.221,81.543,43.457,24.414,95.215,136.719,0
1542736105.225,82.520,44.434,27.344,83.496,133.301,0
1542736105.229,84.473,44.434,22.949,93.750,131.836,0
1542736105.233,86.914,42.480,21.484,88.867,137.695,0
1542736105.237,81.543,39.551,22.949,59.570,125.488,0
1542736105.241,82.031,38.086,23.438,59.570,110.840,0
1542736105.244,63.477,37.109,29.297,100.586,140.137,0
1542736105.248,75.195,40.039,29.297,120.117,177.734,0
1542736105.252,74.219,41.016,26.855,86.914,132.812,0
1542736105.256,69.336,39.062,29.785,52.734,117.676,0
1542736105.260,75.195,40.039,30.273,55.176,129.395,0
1542736105.264,48.340,39.551,29.297,46.387,110.840,0
1542736105.268,53.223,39.062,29.785,76.172,121.094,0
1542736105.272,64.453,42.969,29.785,115.234,108.398,0
1542736105.276,67.383,45.410,27.832,96.680,81.543,0
1542736105.280,65.918,47.852,27.344,64.941,70.801,0
1542736105.283,69.336,47.363,25.879,70.312,79.102,0
1542736105.287,73.242,48.828,25.391,70.801,118.652,0
1542736105.291,58.105,54.688,24.902,58.105,105.957,0
1542736105.295,54.688,52.734,22.461,43.945,85.449,0
1542736105.299,68.359,50.781,22.461,57.129,91.309,0
1542736105.303,86.426,50.293,24.902,83.496,95.215,0
1542736105.307,80.078,48.340,23.438,84.473,92.285,0
1542736105.311,60.059,44.922,20.020,49.805,83.008,0
1542736105.315,63.477,42.969,21.484,61.035,78.125,0
1542736105.319,49.316,46.387,19.531,35.645,67.383,0
1542736105.323,38.574,45.898,22.949,39.551,55.176,0
1542736105.326,52.246,41.504,25.879,91.309,33.203,0
1542736105.330,53.711,41.504,24.414,85.449,18.555,0
1542736105.334,46.387,42.969,25.391,65.430,31.738,0
1542736105.338,41.504,38.574,18.066,43.457,42.480,0
1542736105.342,58.105,28.320,20.996,54.688,48.340,0
1542736105.346,46.875,26.367,24.414,66.406,49.805,0
1542736105.350,34.668,29.785,23.438,43.457,26.367,0
1542736105.354,42.969,22.949,29.297,59.082,30.762,0
1542736105.358,37.109,20.020,30.762,88.379,41.016,0
1542736105.362,43.945,26.367,25.879,62.500,14.648,0
1542736105.366,41.016,28.809,28.809,39.551,34.668,0
1542736105.369,32.227,28.809,28.809,18.066,29.297,0
1542736105.373,37.109,32.227,27.832,19.531,-0.488,0
1542736105.377,41.016,35.645,23.438,48.828,14.648,0
1542736105.381,56.641,38.086,18.066,40.527,34.668,0
1542736105.385,56.152,35.645,24.414,50.781,18.066,0
1542736105.389,36.621,31.738,29.297,54.688,6.836,0
1542736105.393,35.645,33.203,27.832,54.688,10.742,0
1542736105.397,22.461,29.297,23.438,58.594,-5.859,0
1542736105.401,13.672,24.902,25.391,60.547,-10.742,0
1542736105.405,22.949,27.832,29.297,29.785,3.418,0
1542736105.408,23.926,31.250,24.414,17.578,-2.930,0
1542736105.412,27.344,29.785,23.438,42.480,-29.297,0
1542736105.416,32.227,27.832,28.320,43.945,-34.180,0
1542736105.420,47.363,34.668,26.367,37.109,-36.621,0
1542736105.424,37.109,36.133,24.902,52.246,-31.250,0
1542736105.428,26.855,30.273,26.367,40.527,-51.758,0
1542736105.432,40.039,28.809,25.879,24.902,-71.289,0
1542736105.436,41.504,33.203,24.902,36.133,-35.645,0
1542736105.440,31.250,35.156,22.461,39.551,-20.996,0
1542736105.444,27.344,33.203,17.578,54.688,-16.113,0
1542736105.448,33.691,35.156,20.020,30.762,-19.531,0
1542736105.451,38.086,36.133,24.414,17.578,-36.133,0
1542736105.455,44.922,24.902,23.926,70.801,-29.297,0
1542736105.459,47.363,28.320,23.438,102.539,-30.273,0
1542736105.463,36.621,41.504,16.602,41.504,-52.734,0
1542736105.467,19.531,45.898,7.324,-3.418,-68.848,0
1542736105.471,31.738,51.270,6.836,39.062,-72.266,0
1542736105.475,37.109,52.246,9.277,53.711,-39.062,0
1542736105.479,40.039,56.641,3.418,43.945,-56.641,0
1542736105.483,42.480,57.617,0.977,39.062,-63.965,0
1542736105.487,28.320,50.781,4.883,55.176,-41.504,0
1542736105.491,37.598,46.875,7.812,27.832,-66.895,0
1542736105.494,52.246,45.410,11.719,25.879,-67.383,0
1542736105.498,42.480,45.410,14.160,41.016,-77.148,0
1542736105.502,40.039,43.457,13.184,53.223,-50.293,0
1542736105.506,50.293,38.574,11.719,58.594,-51.270,0
1542736105.510,41.504,39.551,13.184,24.414,-92.285,0
1542736105.514,35.156,41.504,16.602,40.039,-84.473,0
1542736105.518,44.434,41.016,12.695,52.246,-79.590,0
1542736105.522,42.480,38.574,12.207,61.035,-87.891,0
1542736105.526,40.039,37.109,14.648,67.871,-95.703,0
1542736105.530,38.086,39.551,13.672,34.668,-87.402,0
1542736105.533,30.273,35.156,16.602,23.438,-77.148,0
1542736105.537,44.922,34.180,15.625,45.898,-89.844,0
1542736105.541,42.969,36.133,14.648,45.410,-103.516,0
1542736105.545,26.367,34.668,19.043,51.270,-92.773,0
1542736105.549,40.527,35.645,19.043,55.176,-104.492,0
1542736105.553,38.574,38.086,14.160,59.082,-103.516,0
1542736105.557,27.832,34.180,14.160,71.289,-86.914,0
1542736105.561,32.715,31.250,19.531,43.457,-90.820,0
1542736105.565,44.434,33.203,19.531,8.301,-104.004,0
1542736105.569,38.086,34.180,17.578,23.926,-110.840,0
1542736105.573,23.438,35.156,20.508,44.922,-118.652,0
1542736105.576,40.039,31.250,24.902,61.035,-104.980,0
1542736105.580,38.574,28.809,24.414,62.988,-71.777,0
1542736105.584,28.320,30.762,23.438,57.129,-80.078,0
1542736105.588,46.875,35.156,19.531,40.039,-101.074,0
1542736105.592,43.945,38.574,19.531,30.762,-120.117,0
1542736105.596,31.250,43.457,21.973,54.199,-117.188,0
1542736105.600,21.973,41.016,19.531,76.660,-109.375,0
1542736105.604,37.598,37.109,19.531,80.566,-99.609,0
1542736105.608,62.988,39.062,19.043,39.551,-98.145,0
1542736105.612,37.109,37.109,21.484,30.273,-122.070,0
1542736105.616,22.461,39.062,18.555,69.336,-155.762,0
1542736105.619,26.855,35.156,19.531,49.316,-135.254,0
1542736105.623,29.297,31.738,23.438,43.457,-118.652,0
1542736105.627,32.715,34.180,23.926,63.965,-105.469,0
1542736105.631,35.156,29.785,25.879,12.207,-98.145,0
1542736105.635,24.902,27.344,25.879,13.184,-121.582,0
1542736105.639,33.203,31.738,20.020,50.293,-109.375,0
1542736105.643,40.039,30.273,16.113,47.363,-78.613,0
1542736105.647,26.367,26.367,22.461,50.781,-82.031,0
1542736105.651,33.691,27.344,24.414,60.059,-103.027,0
1542736105.655,32.227,28.809,19.531,65.430,-105.469,0
1542736105.658,23.926,27.344,20.996,43.457,-118.652,0
1542736105.662,58.594,30.273,20.020,56.152,-121.582,0
1542736105.666,40.527,33.203,19.531,62.500,-110.352,0
1542736105.670,21.973,31.250,17.090,12.207,-102.539,0
1542736105.674,45.410,29.785,18.555,-14.648,-104.004,0
1542736105.678,9.277,31.738,22.949,20.996,-99.609,0
1542736105.682,10.254,33.691,19.043,41.504,-87.891,0
1542736105.686,28.809,35.645,23.926,44.922,-85.449,0
1542736105.690,9.766,36.133,27.832,54.688,-66.895,0
1542736105.694,24.414,38.086,22.949,39.062,-71.289,0
1542736105.698,25.391,36.621,21.973,18.555,-96.680,0
1542736105.701,23.438,36.621,17.578,20.508,-114.746,0
1542736105.705,48.828,34.668,20.508,43.945,-106.445,0
1542736105.709,37.109,29.785,27.832,36.621,-88.867,0
1542736105.713,44.434,30.762,23.438,31.738,-91.797,0
1542736105.717,53.711,35.156,20.020,56.641,-83.496,0
1542736105.721,30.273,33.691,20.996,50.781,-85.449,0
1542736105.725,34.668,31.250,19.043,26.855,-54.199,0
1542736105.729,58.105,34.180,16.602,27.344,-47.363,0
1542736105.733,55.176,26.367,21.973,40.527,-31.738,0
1542736105.737,39.551,19.043,26.367,58.594,-44.434,0
1542736105.741,41.992,19.043,23.926,61.523,-32.715,0
1542736105.744,46.387,20.996,18.066,37.598,-3.906,0
1542736105.748,50.293,26.855,11.719,10.742,-11.719,0
1542736105.752,64.941,25.879,14.648,70.801,12.695,0
1542736105.756,52.246,18.066,24.414,58.105,39.062,0
1542736105.760,-14.648,14.648,26.855,13.672,42.969,0
1542736105.764,-8.789,13.184,31.250,15.625,64.453,0
1542736105.768,17.578,4.395,41.016,17.090,98.145,0
1542736105.772,20.508,0.977,36.621,18.066,113.770,0
1542736105.776,15.625,6.836,32.715,-24.414,117.188,0
1542736105.780,27.344,6.836,33.203,11.719,133.789,0
1542736105.783,24.902,2.930,28.320,49.805,179.199,0
1542736105.787,7.324,9.277,33.203,34.180,189.941,0
1542736105.791,39.062,20.508,34.668,20.996,175.293,0
1542736105.795,41.016,16.113,34.668,29.785,182.129,0
1542736105.799,15.137,7.324,29.785,54.688,198.730,0
1542736105.803,28.320,11.230,25.879,54.199,216.797,0
1542736105.807,19.531,6.836,25.879,-10.254,223.145,0
1542736105.811,17.090,13.184,24.902,-23.438,245.605,0
1542736105.815,29.297,20.996,37.598,70.801,230.957,0
1542736105.819,23.926,9.766,40.527,39.062,232.422,0
1542736105.823,5.371,7.812,24.902,-20.020,177.246,0
1542736105.826,-1.465,18.555,17.090,15.137,159.668,0
1542736105.830,25.391,25.391,24.902,32.715,190.918,0
1542736105.834,38.086,21.973,32.227,38.086,131.836,0
1542736105.838,46.387,30.762,30.762,26.367,57.129,0
1542736105.842,57.129,32.227,27.832,-14.160,53.223,0
1542736105.846,32.227,21.484,27.344,10.742,18.555,0
1542736105.850,20.020,23.438,25.391,62.012,-85.449,0
1542736105.854,4.883,23.438,31.738,57.129,-200.195,0
1542736105.858,22.949,26.855,36.621,62.012,-247.559,0
1542736105.862,38.574,28.809,29.785,21.973,-249.512,0
1542736105.866,33.691,26.855,29.785,17.090,-282.227,0
1542736105.869,41.016,27.832,28.809,24.902,-322.266,0
1542736105.873,47.363,32.227,32.715,31.738,-341.309,0
1542736105.877,45.898,35.156,35.645,65.918,-355.957,0
1542736105.881,41.992,28.320,32.715,21.484,-389.160,0
1542736105.885,41.992,22.461,34.668,4.395,-447.266,0
1542736105.889,19.531,19.043,28.809,38.086,-474.121,0
1542736105.893,9.277,14.160,29.785,49.316,-454.590,0
1542736105.897,32.227,16.113,33.203,17.090,-479.492,0
1542736105.901,64.941,26.855,28.809,19.043,-499.023,0
1542736105.905,53.711,29.297,25.879,25.879,-463.379,0
1542736105.908,29.785,22.461,26.855,15.625,-452.148,0
1542736105.912,20.996,24.902,24.902,14.160,-430.176,0
1542736105.916,13.184,27.832,28.320,14.648,-417.969,0
1542736105.920,28.320,21.973,33.203,30.762,-420.898,0
1542736105.924,42.480,21.484,36.133,37.598,-409.180,0
1542736105.928,24.414,22.461,36.621,50.781,-414.551,0
1542736105.932,15.625,16.113,36.133,63.965,-391.602,0
1542736105.936,32.715,24.414,33.203,23.926,-334.961,0
1542736105.940,39.551,30.273,35.645,28.809,-336.426,0
1542736105.944,9.766,20.508,38.086,35.645,-339.844,0
1542736105.948,21.973,31.250,29.297,-5.859,-293.457,0
1542736105.951,36.133,37.598,29.785,5.371,-249.023,0
1542736105.955,24.902,30.273,38.086,17.090,-229.980,0
1542736105.959,26.367,38.574,28.320,-12.695,-212.891,0
1542736105.963,19.531,38.574,24.414,-5.859,-227.539,0
1542736105.967,30.762,32.227,31.250,14.160,-206.055,0
1542736105.971,23.438,34.180,37.109,1.465,-173.340,0
1542736105.975,-0.977,35.645,35.156,21.484,-161.133,0
1542736105.979,3.418,35.156,32.227,17.578,-174.805,0
1542736105.983,7.812,33.203,28.320,-27.832,-165.039,0
1542736105.987,17.090,39.062,24.414,24.902,-142.578,0
1542736105.991,38.086,42.480,31.738,32.227,-172.363,0
1542736105.994,30.762,38.086,33.691,-7.324,-117.676,0
1542736105.998,17.578,38.574,29.785,9.766,-77.148,0
1542736106.002,50.781,40.527,31.250,12.695,-53.711,0
1542736106.006,49.805,44.434,31.738,15.625,-45.410,0
1542736106.010,25.391,49.316,27.832,18.066,-29.785,0
1542736106.014,27.832,51.758,30.273,-3.418,-62.500,0
1542736106.018,60.059,47.363,34.668,38.086,-82.520,0
1542736106.022,77.148,45.410,27.344,109.863,-81.055,0
1542736106.026,75.195,51.758,26.855,89.355,-27.832,0
1542736106.030,80.078,60.547,37.598,82.031,-31.250,0
1542736106.033,74.707,58.594,41.504,94.238,-37.598,0
1542736106.037,86.914,49.805,36.621,87.891,-23.438,0
1542736106.041,100.098,50.781,33.203,107.910,-27.832,0
1542736106.045,104.004,54.688,36.133,101.562,-15.625,0
1542736106.049,98.633,53.711,40.039,101.074,-14.160,0
1542736106.053,111.328,54.688,41.504,101.074,27.344,0
1542736106.057,122.559,52.246,43.457,130.859,55.176,0
1542736106.061,129.883,46.875,46.387,152.344,14.648,0
1542736106.065,129.395,52.734,39.062,142.090,13.672,0
1542736106.069,115.234,48.340,38.574,129.395,38.574,0
1542736106.073,122.070,40.039,43.457,128.906,21.973,0
1542736106.076,120.605,49.316,41.504,104.980,-43.945,0
1542736106.080,119.141,50.781,42.480,98.633,-37.598,0
1542736106.084,116.699,44.922,32.715,137.695,-13.672,0
1542736106.088,130.859,40.039,33.203,142.578,-63.477,0
1542736106.092,121.582,38.086,37.109,122.559,-16.113,0
1542736106.096,92.773,38.086,29.785,122.070,25.391,0
1542736106.100,97.168,38.086,35.156,120.605,-17.090,0
1542736106.104,107.422,42.480,35.156,87.402,-11.719,0
1542736106.108,100.098,41.016,34.180,99.609,15.625,0
1542736106.112,93.750,39.062,34.180,113.281,4.883,0
1542736106.116,101.562,42.480,29.785,84.961,11.230,0
1542736106.119,81.055,40.039,29.785,77.148,-19.531,0
1542736106.123,75.195,38.086,30.273,102.051,-2.441,0
1542736106.127,95.703,40.527,27.832,119.629,-9.277,0
1542736106.131,85.938,40.039,27.832,114.746,-71.289,0
1542736106.135,86.426,43.945,33.691,86.914,6.836,0
1542736106.139,69.824,43.945,29.785,63.965,6.348,0
1542736106.143,76.660,34.180,26.367,85.449,-4.883,0
1542736106.147,83.984,33.691,27.344,86.914,-16.602,0
1542736106.151,57.129,33.691,27.344,74.707,-35.156,0
1542736106.155,67.871,32.227,29.297,96.680,50.781,0
1542736106.158,92.773,30.273,27.832,71.777,11.719,0
1542736106.162,92.773,28.320,27.344,50.293,-9.277,0
1542736106.166,76.172,29.297,25.391,87.891,48.340,0
1542736106.170,60.059,20.996,23.926,90.820,31.738,0
1542736106.174,54.199,22.949,15.137,86.426,-23.926,0
1542736106.178,77.148,33.691,18.066,100.586,-34.180,0
1542736106.182,64.941,26.367,32.227,112.793,33.691,0
1542736106.186,49.805,21.973,36.621,73.730,49.805,0
1542736106.190,64.941,34.180,26.367,26.367,17.578,0
1542736106.194,55.664,33.203,18.066,40.039,62.500,0
1542736106.198,62.012,30.273,20.996,83.984,78.613,0
1542736106.201,77.637,32.227,22.461,71.289,30.273,0
1542736106.205,64.453,28.809,26.855,32.227,44.434,0
1542736106.209,42.480,31.738,23.438,49.316,4.883,0
1542736106.213,42.480,22.949,29.297,71.777,-41.504,0
1542736106.217,53.223,24.414,28.809,82.520,-21.973,0
1542736106.221,45.410,35.645,19.043,62.500,53.711,0
1542736106.225,31.738,30.762,20.508,26.367,95.215,0
1542736106.229,43.945,25.391,33.691,41.992,24.902,0
1542736106.233,64.453,23.438,36.621,73.242,18.555,0
1542736106.237,52.246,19.531,27.832,72.754,17.090,0
1542736106.241,25.879,24.902,28.809,40.039,6.348,0
1542736106.244,44.922,35.645,24.902,32.715,13.672,0
1542736106.248,32.227,31.250,25.391,54.688,-1.953,0
1542736106.252,32.715,24.414,31.738,64.941,-4.395,0
1542736106.256,55.664,23.926,25.879,52.246,38.574,0
1542736106.260,62.988,24.902,22.949,49.805,23.438,0
1542736106.264,57.617,12.207,34.180,67.383,-11.719,0
1542736106.268,41.016,8.789,41.016,44.922,8.789,0
1542736106.272,43.457,27.832,27.832,25.391,17.578,0
1542736106.276,49.805,36.621,20.508,48.828,38.086,0
1542736106.280,36.133,35.156,23.438,60.547,20.996,0
1542736106.283,46.875,30.273,22.949,62.012,5.859,0
1542736106.287,61.035,35.645,14.648,45.898,-7.324,0
1542736106.291,55.176,40.527,9.766,30.273,-43.945,0
1542736106.295,43.457,32.715,16.113,58.105,-47.852,0
1542736106.299,7.324,23.926,22.461,62.012,-44.922,0
1542736106.303,0.488,21.973,18.066,7.812,-17.578,0
1542736106.307,14.648,25.391,11.230,0.488,10.742,0
1542736106.311,40.039,34.668,9.766,29.785,-7.812,0
1542736106.315,65.918,34.180,12.207,67.383,11.719,0
1542736106.319,56.152,27.832,9.766,83.496,24.902,0
1542736106.323,53.223,29.785,9.766,35.156,3.418,0
1542736106.326,42.480,28.320,18.555,32.227,0.000,0
1542736106.330,27.344,24.414,19.531,41.992,20.996,0
1542736106.334,39.062,28.320,15.625,43.945,23.926,0
1542736106.338,42.969,31.250,19.043,36.133,12.207,0
1542736106.342,38.086,29.785,21.973,38.574,36.621,0
1542736106.346,44.922,26.855,18.066,21.484,32.227,0
1542736106.350,50.293,28.320,17.090,12.695,18.066,0
1542736106.354,41.016,26.855,23.438,61.523,19.043,0
1542736106.358,39.062,25.391,24.414,52.734,34.668,0
1542736106.362,35.645,24.414,26.367,29.785,43.457,0
1542736106.366,34.668,24.414,29.785,40.039,26.855,0
1542736106.369,40.039,33.691,20.508,28.320,26.367,0
1542736106.373,48.828,37.598,20.996,21.973,40.039,0
1542736106.377,45.410,38.086,21.973,41.504,79.102,0
1542736106.381,39.551,33.691,26.367,46.387,30.762,0
1542736106.385,35.156,26.855,32.227,51.758,-45.410,0
1542736106.389,35.156,35.645,26.367,26.855,-36.133,0
1542736106.393,52.734,45.898,21.484,1.465,-26.855,0
1542736106.397,51.270,45.410,26.367,22.949,-5.371,0
1542736106.401,35.645,38.086,28.320,39.062,13.672,0
1542736106.405,29.785,37.109,33.203,44.922,57.617,0
1542736106.408,19.043,39.062,38.086,54.688,52.246,0
1542736106.412,14.160,45.410,37.598,60.059,78.125,0
1542736106.416,14.160,39.062,44.434,43.457,76.660,0
1542736106.420,29.785,33.691,38.086,20.508,23.438,0
1542736106.424,37.598,41.992,25.391,7.324,48.340,0
1542736106.428,-1.465,41.504,32.715,9.277,55.176,0
1542736106.432,1.953,35.156,35.645,11.230,11.719,0
1542736106.436,12.207,38.086,27.832,-49.316,79.102,0
1542736106.440,-69.336,41.504,26.367,-87.891,89.355,0
1542736106.444,-142.090,33.203,29.785,-117.188,33.691,0
1542736106.448,-147.461,42.969,27.832,-151.855,50.781,0
1542736106.451,-163.086,54.199,30.762,-161.621,27.832,0
1542736106.455,-199.707,51.270,39.551,-222.168,20.020,0
1542736106.459,-244.141,41.504,36.133,-247.559,40.527,0
1542736106.463,-273.926,41.992,31.738,-243.652,82.520,0
1542736106.467,-303.223,36.133,35.645,-270.996,68.848,0
1542736106.471,-290.039,30.273,38.574,-290.527,16.113,0
1542736106.475,-266.602,35.156,36.621,-296.387,15.625,0
1542736106.479,-283.203,41.504,29.785,-309.082,66.406,0
1542736106.483,-274.414,42.480,25.879,-304.199,90.332,0
1542736106.487,-268.555,43.457,32.227,-268.066,36.621,0
1542736106.491,-273.926,37.598,37.598,-293.457,0.977,0
1542736106.494,-247.559,35.645,31.250,-278.320,52.734,0
1542736106.498,-228.516,37.109,24.902,-232.910,97.168,0
1542736106.502,-211.914,30.273,24.902,-203.613,47.363,0
1542736106.506,-182.617,30.273,24.414,-173.340,41.504,0
1542736106.510,-165.527,27.832,27.832,-166.504,94.238,0
1542736106.514,-128.418,22.461,27.832,-146.484,55.664,0
1542736106.518,-93.262,20.996,20.508,-104.492,51.758,0
1542736106.522,-101.074,14.648,15.137,-90.820,64.941,0
1542736106.526,-81.543,6.348,19.043,-55.176,61.035,0
1542736106.530,-51.758,13.184,10.742,-44.434,84.473,0
1542736106.533,-22.461,16.602,8.301,-50.781,86.426,0
1542736106.537,10.254,17.090,14.160,-8.789,127.930,0
1542736106.541,32.227,19.043,8.301,24.902,162.598,0
1542736106.545,39.551,16.602,0.488,36.133,195.312,0
1542736106.549,36.133,14.160,-2.441,51.270,232.910,0
1542736106.553,58.105,12.695,1.953,53.711,311.035,0
1542736106.557,95.215,16.113,1.465,65.430,393.066,0
1542736106.561,93.750,16.602,-0.977,61.035,386.230,0
1542736106.565,97.168,15.137,2.441,79.102,403.320,0
1542736106.569,105.469,10.742,8.789,115.234,432.129,0
1542736106.573,123.047,10.742,9.766,143.066,446.289,0
1542736106.576,126.465,15.137,9.766,135.742,488.770,0
1542736106.580,114.746,10.254,12.207,106.445,488.770,0
1542736106.584,135.254,5.371,9.766,125.488,457.031,0
1542736106.588,146.484,7.812,7.324,143.555,488.281,0
1542736106.592,127.930,6.836,10.742,153.809,517.578,0
1542736106.596,114.258,1.465,15.137,135.254,518.066,0
1542736106.600,138.184,2.441,10.254,126.465,541.016,0
1542736106.604,144.531,8.789,5.859,123.535,513.184,0
1542736106.608,154.297,13.184,3.906,90.332,498.535,0
1542736106.612,134.277,9.277,5.371,73.730,534.668,0
1542736106.616,105.957,2.441,13.672,81.543,533.203,0
1542736106.619,130.371,4.883,13.184,116.699,520.996,0
1542736106.623,125.488,5.859,9.277,139.648,527.344,0
1542736106.627,110.352,9.277,13.184,143.555,546.875,0
1542736106.631,147.949,20.996,10.742,133.301,560.059,0
1542736106.635,148.438,20.996,9.766,111.816,522.949,0
