timestamps,TP9,AF7,AF8,TP10,Right AUX,Marker0
1542735248.387,46.387,35.645,33.203,39.062,39.551,0
1542735248.391,43.457,35.645,35.156,35.645,68.359,0
1542735248.395,42.969,36.621,37.598,41.016,29.785,0
1542735248.399,43.945,40.039,33.691,41.504,-9.766,0
1542735248.403,44.922,42.969,31.738,39.551,1.465,0
1542735248.406,44.434,39.551,33.691,36.621,11.230,0
1542735248.410,41.504,36.133,37.598,43.457,38.574,0
1542735248.414,45.410,38.574,38.574,44.434,43.945,0
1542735248.418,49.805,40.527,35.645,49.805,-2.441,0
1542735248.422,44.434,38.574,37.109,44.922,55.176,0
1542735248.426,45.410,36.133,40.039,47.363,90.820,0
1542735248.430,45.898,34.668,40.039,50.781,14.648,0
1542735248.434,45.898,34.668,34.668,46.387,-35.645,0
1542735248.438,45.410,37.598,33.203,52.246,34.668,0
1542735248.442,44.922,41.992,37.598,55.176,63.477,0
1542735248.446,45.410,41.992,38.574,53.223,29.785,0
1542735248.449,40.527,40.527,37.598,52.246,52.734,0
1542735248.453,43.457,43.457,38.574,46.387,70.312,0
1542735248.457,42.480,44.922,41.504,41.992,25.391,0
1542735248.461,36.621,40.527,42.969,35.645,-5.859,0
1542735248.465,41.016,37.598,39.062,34.668,40.527,0
1542735248.469,42.969,36.621,37.109,40.527,51.758,0
1542735248.473,32.715,35.645,36.621,43.945,-11.719,0
1542735248.477,58.105,36.621,34.180,49.316,31.738,0
1542735248.481,62.500,35.156,32.715,44.922,41.992,0
1542735248.485,40.039,37.598,36.133,49.316,11.719,0
1542735248.489,50.293,41.016,39.551,54.688,44.434,0
1542735248.492,46.387,38.086,38.574,51.758,79.102,0
1542735248.496,44.434,38.574,39.062,45.410,101.074,0
1542735248.500,46.875,40.527,41.016,56.152,65.918,0
1542735248.504,46.875,41.016,39.551,60.547,41.504,0
1542735248.508,55.176,42.480,39.551,35.156,20.996,0
1542735248.512,50.293,42.480,39.062,39.551,15.625,0
1542735248.516,48.828,40.039,39.062,43.457,24.414,0
1542735248.520,52.246,39.551,38.086,35.645,-0.488,0
1542735248.524,41.016,40.039,34.668,26.367,-8.301,0
1542735248.528,38.574,39.551,31.250,32.715,-34.668,0
1542735248.531,45.898,39.062,34.180,41.504,-25.391,0
1542735248.535,47.363,40.039,41.504,46.875,53.223,0
1542735248.539,40.527,39.062,41.504,44.922,60.059,0
1542735248.543,48.340,38.086,37.598,45.410,46.875,0
1542735248.547,41.504,38.574,37.598,41.504,96.191,0
1542735248.551,35.645,37.598,35.645,40.039,110.352,0
1542735248.555,43.945,39.062,37.598,56.641,43.945,0
1542735248.559,42.969,42.480,43.457,54.688,57.129,0
1542735248.563,51.758,39.551,41.504,40.039,93.262,0
1542735248.567,43.945,38.574,38.574,35.645,63.477,0
1542735248.571,27.344,38.086,37.109,30.273,3.906,0
1542735248.574,33.691,36.621,35.645,28.809,-20.020,0
1542735248.578,42.480,35.645,38.086,34.180,-27.832,0
1542735248.582,38.574,32.715,37.109,29.297,13.672,0
1542735248.586,31.738,33.691,35.645,27.344,40.039,0
1542735248.590,36.621,35.645,38.086,35.156,23.926,0
1542735248.594,33.203,34.180,39.551,41.016,-15.137,0
1542735248.598,36.133,34.180,36.133,25.391,16.113,0
1542735248.602,61.523,36.133,34.668,16.602,50.781,0
1542735248.606,41.992,33.203,36.133,28.809,17.578,0
1542735248.610,24.902,34.668,36.133,24.902,23.926,0
1542735248.614,38.086,36.621,37.598,23.926,62.012,0
1542735248.617,36.621,38.086,38.574,33.203,26.367,0
1542735248.621,31.738,35.645,37.109,29.785,24.902,0
1542735248.625,34.668,37.109,35.645,20.996,57.129,0
1542735248.629,35.645,39.062,37.109,26.855,62.500,0
1542735248.633,34.668,34.180,41.992,30.273,42.480,0
1542735248.637,38.086,30.762,42.969,36.133,35.645,0
1542735248.641,29.297,29.785,43.457,40.527,13.672,0
1542735248.645,38.086,32.227,44.434,37.598,47.852,0
1542735248.649,35.645,34.180,47.363,39.062,53.711,0
1542735248.653,27.832,37.109,46.387,32.715,-15.625,0
1542735248.656,32.715,34.180,45.898,41.016,-27.344,0
1542735248.660,41.992,29.785,46.875,48.340,-29.297,0
1542735248.664,39.062,31.250,47.852,38.574,15.625,0
1542735248.668,31.738,34.180,46.875,33.203,85.449,0
1542735248.672,35.156,34.668,48.340,37.598,41.504,0
1542735248.676,41.992,32.227,50.293,47.852,-38.574,0
1542735248.680,41.504,36.133,51.270,45.410,23.926,0
1542735248.684,36.133,38.574,51.270,34.668,69.336,0
1542735248.688,32.227,34.668,49.316,39.062,5.859,0
1542735248.692,34.668,33.691,50.781,44.434,-3.906,0
1542735248.696,54.199,34.180,52.246,42.969,-2.441,0
1542735248.699,41.016,36.133,51.758,28.809,31.250,0
1542735248.703,24.414,37.109,50.293,15.137,46.875,0
1542735248.707,28.320,36.621,49.316,20.508,79.102,0
1542735248.711,27.344,40.527,58.594,27.344,103.516,0
1542735248.715,21.484,43.457,62.012,19.531,68.359,0
1542735248.719,6.836,45.410,51.758,3.418,46.875,0
1542735248.723,14.160,44.922,52.246,4.395,54.199,0
1542735248.727,10.254,53.711,51.270,14.648,20.020,0
1542735248.731,-8.789,46.875,49.805,6.348,-4.395,0
1542735248.735,-14.648,35.645,51.758,-33.691,-0.488,0
1542735248.739,-19.043,48.340,52.246,-46.387,-4.395,0
1542735248.742,-45.410,51.758,57.617,-47.852,12.207,0
1542735248.746,-46.875,45.898,64.453,-45.410,-19.531,0
1542735248.750,-32.715,58.105,64.453,-40.527,-50.293,0
1542735248.754,-80.566,62.988,58.594,-90.332,0.488,0
1542735248.758,-120.117,55.176,67.871,-124.023,50.781,0
1542735248.762,-124.512,50.293,75.684,-123.535,66.406,0
1542735248.766,-132.812,52.734,80.566,-141.113,66.895,0
1542735248.770,-157.715,56.152,83.984,-165.039,50.781,0
1542735248.774,-163.574,54.199,81.055,-168.945,42.480,0
1542735248.778,-164.062,60.059,83.008,-168.457,52.734,0
1542735248.781,-177.246,63.965,79.590,-186.035,12.695,0
1542735248.785,-166.504,62.988,79.590,-172.363,-8.789,0
1542735248.789,-162.598,66.895,69.336,-167.969,49.316,0
1542735248.793,-150.391,67.871,55.664,-173.340,64.941,0
1542735248.797,-112.305,61.523,51.270,-135.742,77.637,0
1542735248.801,-98.145,61.523,47.363,-106.445,131.836,0
1542735248.805,-85.938,60.547,51.270,-102.539,96.191,0
1542735248.809,-80.078,44.434,59.570,-84.961,-13.184,0
1542735248.813,-56.641,38.574,54.199,-56.152,-15.137,0
1542735248.817,-25.391,45.410,47.363,-22.461,40.527,0
1542735248.821,-16.602,41.992,42.969,-20.996,31.738,0
1542735248.824,-17.578,34.180,38.574,-22.949,31.250,0
1542735248.828,-3.418,33.203,37.598,1.465,31.250,0
1542735248.832,4.883,31.250,34.180,8.301,-11.230,0
1542735248.836,15.625,32.715,30.762,0.488,-1.465,0
1542735248.840,36.133,24.902,30.273,19.043,34.668,0
1542735248.844,39.551,16.602,25.879,44.922,47.363,0
1542735248.848,73.242,19.531,24.414,53.223,46.387,0
1542735248.852,83.496,21.973,24.902,57.129,38.574,0
1542735248.856,64.941,20.996,22.949,70.801,-7.324,0
1542735248.860,72.266,17.578,24.414,74.707,-45.898,0
1542735248.864,77.637,14.648,25.879,81.543,16.602,0
1542735248.867,85.449,17.578,20.508,86.426,20.508,0
1542735248.871,88.867,20.508,15.625,84.961,-11.230,0
1542735248.875,98.145,24.902,18.066,83.008,-51.270,0
1542735248.879,102.051,26.367,19.531,82.520,-0.488,0
1542735248.883,102.539,23.926,20.996,90.820,62.988,0
1542735248.887,111.816,24.414,21.484,95.703,22.461,0
1542735248.891,109.375,21.484,20.508,90.332,45.410,0
1542735248.895,89.844,16.602,23.438,86.914,61.035,0
1542735248.899,93.262,18.555,24.414,93.750,57.129,0
1542735248.903,102.051,19.531,26.855,98.145,76.660,0
1542735248.906,94.238,16.602,28.809,101.074,66.406,0
1542735248.910,88.867,16.113,20.996,90.332,1.953,0
1542735248.914,100.098,15.137,20.996,95.703,-28.320,0
1542735248.918,104.004,19.531,22.949,100.098,13.184,0
1542735248.922,108.398,26.367,22.461,83.008,15.137,0
1542735248.926,105.957,22.949,28.809,94.238,14.648,0
1542735248.930,83.496,19.531,30.762,89.844,57.617,0
1542735248.934,77.637,23.926,24.902,77.637,67.871,0
1542735248.938,77.637,23.926,20.996,78.613,60.059,0
1542735248.942,73.730,22.461,24.902,70.801,96.680,0
1542735248.946,76.172,22.949,32.715,75.195,109.863,0
1542735248.949,76.172,22.461,38.574,87.402,44.922,0
1542735248.953,77.637,26.367,36.133,83.496,57.129,0
1542735248.957,85.449,28.809,29.785,83.008,11.230,0
1542735248.961,83.008,21.484,31.250,85.449,-24.902,0
1542735248.965,83.496,20.020,30.273,84.473,10.254,0
1542735248.969,82.031,24.902,35.645,80.566,15.625,0
1542735248.973,75.684,33.203,38.574,79.590,41.504,0
1542735248.977,76.172,31.250,37.109,89.355,42.969,0
1542735248.981,74.707,23.926,38.574,98.633,50.781,0
1542735248.985,81.055,25.391,38.574,83.984,60.547,0
1542735248.989,69.824,25.879,36.621,65.430,26.367,0
1542735248.992,73.242,27.344,35.156,65.430,34.668,0
1542735248.996,79.102,31.250,37.109,52.246,64.941,0
1542735249.000,60.059,28.809,38.086,44.922,10.254,0
1542735249.004,58.594,27.832,38.086,50.293,36.133,0
1542735249.008,55.176,25.879,41.504,53.711,58.594,0
1542735249.012,54.688,26.367,41.992,52.246,20.996,0
1542735249.016,63.965,31.250,37.109,54.688,40.527,0
1542735249.020,69.824,23.926,38.086,60.547,33.203,0
1542735249.024,55.176,22.461,39.551,52.734,52.246,0
1542735249.028,55.664,33.691,39.062,50.293,13.672,0
1542735249.031,68.359,35.645,39.062,46.387,10.254,0
1542735249.035,69.824,32.715,41.016,59.570,98.633,0
1542735249.039,58.594,32.715,42.969,58.594,50.781,0
1542735249.043,44.434,28.809,41.992,40.527,38.574,0
1542735249.047,52.734,29.297,42.480,46.875,82.520,0
1542735249.051,62.500,31.250,43.457,51.270,63.965,0
1542735249.055,59.082,36.133,42.480,43.945,22.949,0
1542735249.059,57.129,42.969,41.016,47.363,14.648,0
1542735249.063,46.387,44.434,44.434,51.270,53.711,0
1542735249.067,61.035,41.016,44.434,41.504,88.379,0
1542735249.071,65.430,38.086,41.016,30.273,96.191,0
1542735249.074,36.133,45.410,41.504,25.879,72.266,0
1542735249.078,46.875,49.805,41.016,33.691,14.648,0
1542735249.082,55.176,44.922,35.645,32.227,9.277,0
1542735249.086,54.199,44.434,35.156,41.992,-1.953,0
1542735249.090,47.363,41.016,45.898,57.129,-9.277,0
1542735249.094,46.387,38.086,45.410,60.547,12.695,0
1542735249.098,49.805,41.016,41.992,44.922,-18.066,0
1542735249.102,51.758,41.992,43.457,31.738,-4.395,0
1542735249.106,46.387,45.898,41.016,32.227,48.828,0
1542735249.110,41.504,42.969,38.574,33.203,57.129,0
1542735249.114,37.109,35.645,39.062,28.809,52.246,0
1542735249.117,37.598,41.992,39.551,29.297,-20.020,0
1542735249.121,46.875,44.922,41.992,38.574,-50.293,0
1542735249.125,52.734,40.039,49.805,47.852,9.766,0
1542735249.129,43.457,42.480,50.293,34.668,37.109,0
1542735249.133,42.969,41.016,45.898,22.461,-1.465,0
1542735249.137,53.223,43.457,48.828,36.133,19.043,0
1542735249.141,46.387,41.016,47.363,51.270,48.828,0
1542735249.145,39.062,37.598,37.109,40.039,50.781,0
1542735249.149,41.992,41.504,41.992,29.785,92.285,0
1542735249.153,51.758,40.527,48.340,48.340,109.863,0
1542735249.156,42.480,41.016,45.898,46.387,69.336,0
1542735249.160,39.062,41.504,45.898,41.016,30.273,0
1542735249.164,37.109,44.434,44.922,27.344,2.441,0
1542735249.168,32.715,45.410,45.410,18.555,-29.297,0
1542735249.172,43.457,43.945,42.480,26.855,52.734,0
1542735249.176,39.551,42.969,40.039,30.273,98.145,0
1542735249.180,41.504,41.504,42.969,43.457,24.414,0
1542735249.184,48.828,41.992,45.410,44.922,13.184,0
1542735249.188,41.016,42.480,45.898,52.246,23.926,0
1542735249.192,33.691,40.039,44.922,43.945,-23.926,0
1542735249.196,40.039,40.527,41.504,29.785,-30.273,0
1542735249.199,36.133,42.969,37.598,33.691,-12.207,0
1542735249.203,36.133,41.504,37.598,33.691,-23.926,0
1542735249.207,41.992,41.992,40.527,27.344,22.949,0
1542735249.211,36.133,44.434,38.574,32.715,75.684,0
1542735249.215,34.180,43.945,36.133,34.180,37.598,0
1542735249.219,43.457,41.992,37.598,38.086,25.879,0
1542735249.223,38.086,42.480,39.551,29.297,27.344,0
1542735249.227,26.855,42.969,35.156,20.508,49.805,0
1542735249.231,16.113,37.598,35.645,21.484,82.031,0
1542735249.235,8.789,38.574,36.133,20.996,26.855,0
1542735249.239,22.949,41.504,28.320,23.926,18.555,0
1542735249.242,28.320,38.574,27.832,28.809,11.719,0
1542735249.246,24.902,37.109,31.250,30.273,52.246,0
1542735249.250,20.508,33.691,32.227,25.391,79.590,0
1542735249.254,15.137,37.109,31.738,26.367,18.066,0
1542735249.258,29.785,42.969,31.738,21.484,-22.461,0
1542735249.262,26.367,41.992,33.203,20.508,15.625,0
1542735249.266,20.996,42.480,36.133,33.203,31.250,0
1542735249.270,24.414,44.434,37.598,25.391,-6.348,0
1542735249.274,25.879,44.922,34.668,10.254,33.691,0
1542735249.278,28.809,43.457,35.156,16.113,20.020,0
1542735249.281,31.250,46.875,38.574,20.508,14.160,0
1542735249.285,33.203,50.293,38.574,26.367,54.688,0
1542735249.289,24.902,45.898,38.574,27.344,9.766,0
1542735249.293,26.367,47.852,38.086,19.043,6.348,0
1542735249.297,27.832,51.758,36.621,23.438,58.594,0
1542735249.301,23.926,52.734,38.574,18.555,45.898,0
1542735249.305,20.020,55.664,40.039,11.719,1.465,0
1542735249.309,21.484,58.105,41.016,16.113,3.418,0
1542735249.313,21.973,62.012,41.504,10.254,20.020,0
1542735249.317,1.953,56.641,37.109,-11.230,35.156,0
1542735249.321,-4.395,56.152,34.180,-13.184,71.289,0
1542735249.324,-15.625,62.500,42.480,-18.555,25.391,0
1542735249.328,-36.621,63.477,37.598,-39.551,0.977,0
1542735249.332,-44.434,71.777,36.133,-55.176,47.852,0
1542735249.336,-33.691,83.008,36.133,-52.734,59.082,0
1542735249.340,-36.621,91.309,35.156,-51.758,25.879,0
1542735249.344,-95.215,84.961,55.664,-95.703,-20.508,0
1542735249.348,-139.648,78.613,75.195,-141.113,-19.531,0
1542735249.352,-133.789,80.078,66.895,-140.625,13.184,0
1542735249.356,-104.004,79.590,58.594,-97.168,-2.441,0
1542735249.360,-97.168,75.195,70.312,-96.191,-11.230,0
1542735249.364,-129.883,59.082,84.473,-126.465,31.250,0
1542735249.367,-138.672,51.758,94.727,-108.887,6.836,0
1542735249.371,-116.211,45.898,98.145,-108.887,16.602,0
1542735249.375,-90.820,38.574,100.098,-95.215,52.246,0
1542735249.379,-72.754,28.320,108.398,-68.359,62.500,0
1542735249.383,-60.547,15.625,113.770,-45.898,55.176,0
1542735249.387,-36.133,19.531,107.910,-20.020,8.301,0
1542735249.391,-13.184,18.066,105.469,-10.254,-10.254,0
1542735249.395,-4.395,0.977,107.910,4.395,24.902,0
1542735249.399,9.766,-3.418,103.516,25.391,0.000,0
1542735249.403,38.574,4.395,94.238,69.824,-11.719,0
1542735249.406,71.777,4.395,89.844,84.961,25.879,0
1542735249.410,94.238,5.371,86.914,93.750,21.973,0
1542735249.414,98.633,8.301,76.172,117.676,11.719,0
1542735249.418,118.164,4.395,74.707,142.578,40.527,0
1542735249.422,138.672,3.906,74.707,156.250,65.918,0
1542735249.426,158.691,6.348,65.430,164.551,43.457,0
1542735249.430,170.410,8.301,62.012,176.270,47.363,0
1542735249.434,174.316,9.277,57.617,179.688,26.855,0
1542735249.438,175.293,14.648,50.781,184.082,21.973,0
1542735249.442,174.805,14.160,50.781,187.988,9.766,0
1542735249.446,178.711,15.625,46.875,188.965,12.695,0
1542735249.449,181.641,16.113,46.875,189.453,26.855,0
1542735249.453,179.688,16.113,43.945,186.523,44.434,0
1542735249.457,179.199,20.508,40.527,191.406,54.199,0
1542735249.461,180.176,19.531,40.527,183.594,16.602,0
1542735249.465,168.457,15.137,37.598,181.641,44.922,0
1542735249.469,168.457,21.973,36.621,180.664,68.359,0
1542735249.473,173.828,26.367,38.086,183.105,51.758,0
1542735249.477,177.246,26.855,35.645,178.223,23.438,0
1542735249.481,166.992,29.785,33.691,171.875,16.113,0
1542735249.485,158.691,31.250,34.668,177.734,32.715,0
1542735249.489,160.645,32.227,35.645,177.246,2.441,0
1542735249.492,158.691,30.762,37.109,171.387,27.832,0
1542735249.496,161.133,37.109,35.156,164.551,38.574,0
1542735249.500,169.922,38.574,36.621,158.691,3.906,0
1542735249.504,157.227,36.133,38.086,147.949,55.664,0
1542735249.508,145.996,38.086,32.715,144.043,93.262,0
1542735249.512,145.020,37.109,34.668,148.926,21.484,0
1542735249.516,134.766,36.621,37.109,151.855,5.859,0
1542735249.520,141.602,36.621,35.645,156.250,38.086,0
1542735249.524,142.090,39.062,36.621,152.344,46.875,0
1542735249.528,140.625,41.016,37.109,145.020,63.477,0
1542735249.531,142.090,39.551,40.039,146.484,59.082,0
1542735249.535,145.996,39.551,38.086,134.277,66.895,0
1542735249.539,131.348,38.086,38.086,126.465,58.105,0
1542735249.543,118.164,38.086,42.969,135.254,19.043,0
1542735249.547,124.512,39.551,45.898,152.832,25.391,0
1542735249.551,131.348,43.457,49.805,144.043,55.176,0
1542735249.555,141.602,48.340,52.734,130.859,81.543,0
1542735249.559,128.906,44.922,53.223,137.695,85.449,0
1542735249.563,116.699,42.480,46.875,136.230,88.379,0
1542735249.567,125.488,46.875,43.945,132.324,27.832,0
1542735249.571,129.883,47.852,42.969,124.512,23.438,0
1542735249.574,118.652,43.945,40.527,119.629,58.105,0
1542735249.578,122.070,42.969,42.480,116.699,16.113,0
1542735249.582,114.746,42.480,42.480,117.188,50.293,0
1542735249.586,101.562,42.969,40.039,116.699,100.098,0
1542735249.590,106.934,42.480,39.551,123.047,54.688,0
1542735249.594,103.516,41.504,40.527,119.141,39.062,0
1542735249.598,110.352,42.480,43.945,99.121,6.836,0
1542735249.602,127.441,44.922,43.945,107.910,2.441,0
1542735249.606,119.629,46.387,42.480,105.957,30.273,0
1542735249.610,109.863,46.875,44.434,108.398,40.039,0
1542735249.614,116.211,46.875,47.363,108.398,35.645,0
1542735249.617,112.793,44.922,42.480,97.656,19.043,0
1542735249.621,106.445,47.852,37.598,106.445,39.551,0
1542735249.625,114.746,49.316,41.504,116.699,41.992,0
1542735249.629,117.188,49.316,43.457,115.723,45.410,0
1542735249.633,127.930,48.828,37.598,107.422,14.648,0
1542735249.637,133.301,45.410,35.156,108.887,-3.906,0
1542735249.641,123.047,44.922,35.645,117.676,48.828,0
1542735249.645,125.000,45.898,35.645,127.930,81.543,0
1542735249.649,115.234,43.945,37.109,118.164,84.961,0
1542735249.653,120.117,45.410,35.645,111.816,6.348,0
1542735249.656,121.094,48.828,37.598,119.629,72.754,0
1542735249.660,118.164,49.316,38.574,106.934,180.664,0
1542735249.664,112.305,45.898,38.574,101.562,63.965,0
1542735249.668,113.770,45.410,43.457,112.793,51.758,0
1542735249.672,135.254,43.945,49.805,127.930,59.570,0
1542735249.676,144.531,58.105,39.551,126.465,40.527,0
1542735249.680,119.141,64.453,31.738,100.586,40.527,0
1542735249.684,122.070,50.781,45.898,106.934,67.383,0
1542735249.688,109.375,46.875,53.223,92.285,45.410,0
1542735249.692,52.734,55.664,41.992,52.734,-13.184,0
1542735249.696,23.438,57.617,35.645,26.855,36.621,0
1542735249.699,21.973,59.082,34.180,7.324,48.340,0
1542735249.703,8.301,63.477,32.715,-13.672,-14.160,0
1542735249.707,-2.441,57.129,38.086,-23.438,31.738,0
1542735249.711,20.020,56.641,30.273,-47.363,51.758,0
1542735249.715,-3.418,57.129,22.949,-50.781,11.719,0
1542735249.719,-41.504,58.594,21.484,-59.570,1.953,0
1542735249.723,-26.855,53.711,22.949,-65.430,14.160,0
1542735249.727,-8.789,51.270,32.715,-29.297,9.277,0
1542735249.731,7.812,58.594,35.156,3.418,-0.977,0
1542735249.735,18.555,57.129,25.391,1.953,-20.508,0
1542735249.739,23.438,49.316,21.973,-6.348,-22.461,0
1542735249.742,43.457,52.734,26.367,-0.488,20.020,0
1542735249.746,32.715,62.500,29.785,-6.836,32.715,0
1542735249.750,28.320,60.547,32.227,-7.812,27.344,0
1542735249.754,40.039,50.293,29.785,-1.953,35.156,0
1542735249.758,21.973,49.805,25.391,12.695,21.484,0
1542735249.762,25.391,50.781,31.250,20.508,18.066,0
1542735249.766,47.852,50.781,34.668,9.766,1.953,0
1542735249.770,55.176,54.199,34.668,19.531,20.508,0
1542735249.774,53.711,52.246,36.621,36.621,16.602,0
1542735249.778,60.547,50.293,35.156,45.410,0.488,0
1542735249.781,62.500,50.781,33.691,42.969,8.301,0
1542735249.785,54.199,49.316,36.621,52.734,0.488,0
1542735249.789,56.641,46.875,39.062,66.406,36.133,0
1542735249.793,52.734,48.828,36.621,49.805,45.410,0
1542735249.797,61.035,51.270,35.156,40.527,48.340,0
1542735249.801,81.543,51.758,34.180,56.152,61.035,0
1542735249.805,79.590,47.363,38.086,60.059,5.371,0
1542735249.809,65.430,43.945,40.039,51.758,9.766,0
1542735249.813,75.195,45.898,38.086,52.246,36.133,0
1542735249.817,75.195,43.457,41.016,48.340,18.066,0
1542735249.821,65.918,41.016,43.945,79.102,20.996,0
1542735249.824,102.539,46.387,43.457,67.383,36.133,0
1542735249.828,101.562,51.270,38.574,29.297,18.066,0
1542735249.832,69.824,53.223,38.574,44.922,-10.254,0
1542735249.836,78.613,52.734,47.852,65.918,1.465,0
1542735249.840,78.613,46.875,49.316,72.754,54.199,0
1542735249.844,111.816,44.434,45.410,77.148,35.645,0
1542735249.848,129.883,48.828,46.875,79.102,31.738,0
1542735249.852,92.773,50.293,45.898,64.941,49.805,0
1542735249.856,68.359,49.316,47.852,63.477,54.688,0
1542735249.860,69.824,48.340,48.828,58.594,58.105,0
1542735249.864,77.637,41.504,37.109,56.152,1.465,0
1542735249.867,90.820,40.039,37.598,66.895,38.086,0
1542735249.871,93.262,38.086,45.410,89.355,83.984,0
1542735249.875,94.727,37.598,49.316,96.191,31.250,0
1542735249.879,102.051,37.109,50.781,93.262,32.227,0
1542735249.883,106.445,43.457,45.410,79.102,20.996,0
1542735249.887,89.355,46.875,45.410,61.523,-16.113,0
1542735249.891,96.191,45.898,47.363,76.660,-41.992,0
1542735249.895,107.910,45.410,50.781,80.078,-48.340,0
1542735249.899,103.027,41.992,48.828,83.984,26.367,0
1542735249.903,111.328,44.434,47.852,87.402,40.527,0
1542735249.906,117.676,48.828,53.223,85.938,43.457,0
1542735249.910,115.234,48.828,46.387,78.125,70.801,0
1542735249.914,159.180,54.199,33.691,59.570,50.293,0
1542735249.918,156.738,56.152,34.180,63.477,20.508,0
1542735249.922,121.094,41.016,43.457,92.773,0.977,0
1542735249.926,136.719,33.203,46.387,95.215,64.453,0
1542735249.930,117.676,51.758,38.086,98.145,103.516,0
1542735249.934,123.535,57.617,47.363,98.145,90.820,0
1542735249.938,141.602,47.852,59.570,83.984,85.938,0
1542735249.942,102.051,44.922,42.969,56.152,61.035,0
1542735249.946,49.805,44.922,30.273,11.230,37.598,0
1542735249.949,21.973,40.039,36.133,-2.441,51.758,0
1542735249.953,44.434,38.086,41.016,11.230,23.438,0
1542735249.957,63.477,53.711,30.273,7.324,31.250,0
1542735249.961,41.016,49.805,26.367,-29.297,44.434,0
1542735249.965,45.410,46.875,29.297,-61.523,-26.367,0
1542735249.969,53.223,51.758,25.391,-73.242,55.176,0
1542735249.973,47.363,50.293,25.879,-91.309,77.148,0
1542735249.977,41.016,50.781,22.949,-116.699,41.016,0
1542735249.981,51.270,48.340,20.020,-80.078,43.945,0
1542735249.985,62.012,53.223,17.578,-90.820,-2.930,0
1542735249.989,80.566,54.199,31.250,-132.812,15.137,0
1542735249.992,101.562,41.992,45.898,-94.238,69.824,0
1542735249.996,92.285,34.180,22.949,-45.898,72.754,0
1542735250.000,110.840,41.504,9.277,-1.465,49.805,0
1542735250.004,160.645,49.805,19.531,3.418,49.805,0
1542735250.008,165.039,45.410,25.391,3.906,75.195,0
1542735250.012,126.953,32.715,30.273,30.762,20.508,0
1542735250.016,137.207,31.738,31.250,27.344,13.672,0
1542735250.020,153.320,39.062,27.344,30.762,36.133,0
1542735250.024,138.184,41.016,26.855,36.133,27.344,0
1542735250.028,191.406,40.039,30.273,34.668,45.898,0
1542735250.031,216.309,40.527,32.227,55.176,65.918,0
1542735250.035,175.293,44.922,33.691,70.801,45.898,0
1542735250.039,168.457,45.410,31.738,64.453,30.273,0
1542735250.043,183.105,44.922,28.320,58.594,66.406,0
1542735250.047,205.566,48.340,30.762,92.285,38.086,0
1542735250.051,210.938,41.504,31.738,110.840,29.785,0
1542735250.055,205.566,36.133,34.180,109.863,-2.930,0
1542735250.059,202.148,33.691,40.527,149.414,-12.207,0
1542735250.063,197.754,34.180,38.574,175.781,10.254,0
1542735250.067,234.375,43.945,32.227,139.160,-20.996,0
1542735250.071,244.629,42.480,40.039,104.492,51.270,0
1542735250.074,243.652,45.410,45.898,112.793,93.750,0
1542735250.078,242.676,55.176,34.668,115.234,32.715,0
1542735250.082,240.723,51.270,33.203,127.930,-1.465,0
1542735250.086,261.719,41.992,40.527,112.793,30.762,0
1542735250.090,229.004,36.133,44.922,108.887,41.504,0
1542735250.094,226.562,37.598,44.434,118.652,-34.180,0
1542735250.098,253.418,43.457,43.457,148.438,4.883,0
1542735250.102,250.977,38.574,48.828,167.969,64.941,0
1542735250.106,249.512,38.086,46.875,144.043,59.082,0
1542735250.110,250.977,40.039,44.434,172.363,73.730,0
1542735250.114,249.023,34.668,42.969,174.805,67.383,0
1542735250.117,244.629,31.250,35.645,142.090,33.203,0
1542735250.121,233.398,28.809,39.551,169.922,26.855,0
1542735250.125,242.676,29.297,44.434,164.062,80.078,0
1542735250.129,264.160,40.039,49.805,172.852,92.285,0
1542735250.133,260.742,44.922,54.688,183.105,71.289,0
1542735250.137,237.305,38.574,59.570,183.594,48.828,0
1542735250.141,236.816,34.668,70.312,207.031,-13.672,0
1542735250.145,261.230,36.133,63.477,209.961,-8.301,0
1542735250.149,250.000,41.504,54.199,207.031,22.949,0
1542735250.153,233.398,36.133,61.035,207.520,15.137,0
1542735250.156,250.000,28.320,61.035,223.633,21.484,0
1542735250.160,258.789,27.344,59.570,224.609,16.602,0
1542735250.164,232.910,29.785,54.688,217.285,66.895,0
1542735250.168,212.891,25.391,53.711,225.586,66.406,0
1542735250.172,216.797,23.926,53.711,239.746,9.277,0
1542735250.176,231.934,29.297,55.176,243.164,18.555,0
1542735250.180,219.727,27.344,58.594,241.211,23.926,0
1542735250.184,209.961,24.902,58.594,237.305,7.812,0
1542735250.188,200.684,23.926,62.500,225.586,11.230,0
1542735250.192,218.262,33.691,66.895,249.512,41.016,0
1542735250.196,213.379,33.203,66.406,254.395,52.734,0
1542735250.199,214.355,26.367,52.734,202.148,51.270,0
1542735250.203,213.867,28.320,48.340,211.914,26.367,0
1542735250.207,187.012,24.414,59.570,229.980,10.254,0
1542735250.211,187.500,20.996,62.500,228.516,62.988,0
1542735250.215,187.500,18.555,60.059,232.910,95.703,0
1542735250.219,184.082,21.973,64.453,266.113,20.508,0
1542735250.223,180.664,26.855,61.035,275.879,6.348,0
1542735250.227,184.570,28.809,54.688,252.441,-5.859,0
1542735250.231,181.641,31.738,58.594,262.695,-4.395,0
1542735250.235,169.922,33.203,58.105,261.230,2.930,0
1542735250.239,167.969,32.715,55.664,250.977,-0.488,0
1542735250.242,187.988,34.180,61.523,262.207,28.320,0
1542735250.246,175.293,33.691,61.035,227.539,43.457,0
1542735250.250,138.184,27.344,56.152,217.773,23.438,0
1542735250.254,151.855,32.715,56.641,242.676,4.883,0
1542735250.258,169.434,33.691,58.105,232.422,68.848,0
1542735250.262,144.043,25.391,53.223,211.914,88.379,0
1542735250.266,117.676,19.043,50.293,208.008,77.148,0
1542735250.270,127.930,19.043,60.547,247.070,85.449,0
1542735250.274,133.301,25.879,56.641,218.262,65.430,0
1542735250.278,133.301,25.391,52.734,194.336,30.762,0
1542735250.281,127.930,24.902,62.988,219.238,38.574,0
1542735250.285,122.559,29.785,71.777,246.582,41.016,0
1542735250.289,128.906,28.320,76.660,233.398,2.441,0
1542735250.293,121.094,24.902,69.336,227.539,8.301,0
1542735250.297,114.258,25.391,54.688,243.652,6.348,0
1542735250.301,131.348,28.320,55.176,234.375,19.043,0
1542735250.305,130.371,32.227,65.430,225.586,66.406,0
1542735250.309,104.492,17.578,72.754,218.750,61.523,0
1542735250.313,100.098,10.254,67.383,224.609,62.500,0
1542735250.317,102.051,28.320,49.805,217.773,47.852,0
1542735250.321,110.840,32.715,48.340,225.098,-39.062,0
1542735250.324,94.727,27.344,56.152,238.281,-29.785,0
1542735250.328,73.242,20.996,55.664,252.441,-26.855,0
1542735250.332,87.402,16.602,61.035,259.277,-73.730,0
1542735250.336,99.121,21.973,61.523,242.188,-4.395,0
1542735250.340,94.238,28.809,58.594,241.699,25.391,0
1542735250.344,97.656,35.156,59.082,253.906,14.648,0
1542735250.348,104.004,33.691,55.176,254.395,13.672,0
1542735250.352,93.262,32.715,56.152,261.230,22.461,0
1542735250.356,88.867,31.250,51.758,247.070,16.113,0
1542735250.360,68.848,18.555,45.898,236.816,19.043,0
1542735250.364,31.738,30.273,48.828,247.559,83.496,0
1542735250.367,38.086,36.621,49.316,234.863,52.734,0
1542735250.371,71.289,20.996,47.852,249.512,12.695,0
1542735250.375,63.477,16.113,51.270,224.609,92.773,0
1542735250.379,45.898,17.090,49.805,203.613,55.176,0
1542735250.383,58.594,21.484,41.016,234.863,-10.742,0
1542735250.387,50.293,25.879,41.016,229.004,24.414,0
1542735250.391,20.508,20.996,50.293,211.426,0.488,0
1542735250.395,46.875,18.555,55.176,231.445,62.500,0
1542735250.399,66.895,25.391,53.223,237.793,98.633,0
1542735250.403,39.062,25.391,41.016,223.145,36.133,0
1542735250.406,21.484,22.949,39.551,198.730,30.762,0
1542735250.410,36.133,28.809,46.875,200.684,48.828,0
1542735250.414,57.617,28.320,53.711,217.285,34.668,0
1542735250.418,56.641,23.926,52.246,219.727,39.551,0
1542735250.422,39.551,23.438,48.340,239.258,47.363,0
1542735250.426,17.090,29.785,49.805,238.281,43.457,0
1542735250.430,35.645,16.602,60.059,248.535,83.008,0
1542735250.434,54.688,19.043,52.246,243.164,62.988,0
1542735250.438,47.852,34.668,35.156,220.703,9.766,0
1542735250.442,41.016,21.973,40.039,213.379,17.578,0
1542735250.446,41.992,21.484,41.992,192.871,53.223,0
1542735250.449,45.898,21.973,44.922,175.293,56.641,0
1542735250.453,55.664,22.461,43.945,202.637,30.273,0
1542735250.457,34.668,29.785,40.039,210.938,65.430,0
1542735250.461,28.320,29.297,38.574,177.734,79.590,0
1542735250.465,33.203,40.527,35.645,171.875,43.457,0
1542735250.469,29.297,25.391,35.645,173.340,51.270,0
1542735250.473,34.180,29.785,33.691,160.645,66.406,0
1542735250.477,26.367,36.133,31.250,158.691,14.648,0
1542735250.481,36.133,26.367,39.062,156.738,17.578,0
1542735250.485,24.902,29.297,44.434,147.461,23.926,0
1542735250.489,16.113,29.785,33.203,149.902,31.738,0
1542735250.492,9.766,24.414,40.527,159.180,28.320,0
1542735250.496,2.930,20.996,44.922,162.598,9.766,0
1542735250.500,27.344,26.855,30.762,166.504,-12.695,0
1542735250.504,12.695,27.344,21.484,155.762,-44.434,0
1542735250.508,-9.766,25.879,24.414,140.137,-1.465,0
1542735250.512,-9.277,33.691,35.156,137.207,35.156,0
1542735250.516,-2.441,26.855,46.875,130.859,8.789,0
1542735250.520,8.789,17.090,56.152,139.648,-21.973,0
1542735250.524,-11.719,39.551,40.039,130.859,48.828,0
1542735250.528,-20.996,43.457,33.203,114.746,96.680,0
1542735250.531,10.742,22.949,45.898,126.465,70.312,0
1542735250.535,14.648,25.879,45.898,136.719,11.230,0
1542735250.539,37.109,29.297,39.551,173.340,5.859,0
1542735250.543,56.641,40.527,36.133,181.152,9.766,0
1542735250.547,4.883,45.898,32.227,116.699,24.414,0
1542735250.551,15.137,56.641,23.926,118.652,31.250,0
1542735250.555,68.848,52.246,30.273,157.227,16.602,0
1542735250.559,78.613,46.875,33.691,167.480,78.125,0
1542735250.563,56.641,59.082,20.508,170.898,73.242,0
1542735250.567,64.941,69.336,10.742,156.738,43.945,0
1542735250.571,94.727,72.266,12.695,158.691,74.707,0
1542735250.574,98.633,67.871,16.602,172.363,41.504,0
1542735250.578,90.820,69.824,14.648,164.551,13.672,0
1542735250.582,77.148,67.383,19.043,166.992,6.348,0
1542735250.586,86.426,84.961,19.531,187.012,39.062,0
1542735250.590,77.637,75.684,26.855,171.387,63.965,0
1542735250.594,78.125,51.758,27.832,174.805,54.199,0
1542735250.598,103.027,56.152,24.902,163.086,62.012,0
1542735250.602,68.848,76.172,24.414,128.906,71.289,0
1542735250.606,62.988,77.637,17.578,134.277,70.312,0
1542735250.610,104.980,60.059,24.902,161.133,49.805,0
1542735250.614,67.871,63.965,34.668,153.320,2.441,0
1542735250.617,56.152,62.988,38.086,130.371,-5.859,0
1542735250.621,89.844,59.082,31.250,143.555,24.414,0
1542735250.625,78.613,48.828,32.715,151.367,21.484,0
1542735250.629,50.293,59.082,30.762,132.324,18.066,0
1542735250.633,49.316,59.082,26.367,128.418,47.852,0
1542735250.637,56.152,41.992,34.668,131.348,82.520,0
1542735250.641,50.781,41.504,41.992,157.227,57.617,0
1542735250.645,42.969,52.246,41.016,142.578,40.039,0
1542735250.649,41.016,46.387,42.969,122.559,35.645,0
1542735250.653,36.621,43.945,44.434,150.879,68.359,0
1542735250.656,27.344,47.852,43.945,128.906,64.453,0
1542735250.660,19.043,42.480,46.387,117.188,-0.977,0
1542735250.664,31.738,46.387,42.969,129.883,38.086,0
1542735250.668,36.133,43.457,42.969,126.465,76.660,0
1542735250.672,34.668,34.668,46.387,122.559,64.941,0
1542735250.676,12.207,64.941,42.969,109.863,51.758,0
1542735250.680,-6.836,53.711,42.480,110.840,85.449,0
1542735250.684,-0.488,22.461,51.758,116.699,32.715,0
1542735250.688,18.555,35.645,44.922,131.348,2.930,0
1542735250.692,29.297,38.574,37.598,144.531,45.410,0
1542735250.696,22.461,33.203,45.898,133.789,60.547,0
1542735250.699,20.020,33.203,47.363,129.883,57.617,0
1542735250.703,19.043,38.574,47.363,122.559,8.301,0
1542735250.707,5.371,31.738,53.223,113.281,-5.371,0
1542735250.711,0.000,39.551,48.828,110.352,-47.363,0
1542735250.715,6.348,46.387,44.922,117.188,-37.598,0
1542735250.719,-4.395,34.668,48.828,117.676,38.086,0
1542735250.723,-10.254,33.691,49.316,116.699,62.500,0
1542735250.727,16.113,37.109,53.223,126.465,46.387,0
1542735250.731,24.414,41.016,51.270,126.953,30.762,0
1542735250.735,-4.883,39.551,51.758,121.094,10.254,0
1542735250.739,-0.488,40.039,49.316,109.863,-3.418,0
1542735250.742,-0.488,40.527,52.246,111.328,-28.320,0
1542735250.746,-18.066,32.227,52.734,116.211,-3.906,0
1542735250.750,8.301,29.297,50.293,121.094,22.949,0
1542735250.754,-6.348,30.273,53.711,119.141,-8.789,0
1542735250.758,-21.484,49.316,47.363,109.863,4.883,0
1542735250.762,-1.465,54.199,51.758,110.352,-38.086,0
1542735250.766,1.465,35.156,63.477,109.375,2.930,0
1542735250.770,-7.812,33.691,53.223,109.375,18.555,0
1542735250.774,-14.160,26.855,50.781,118.652,38.574,0
1542735250.778,0.000,22.949,52.734,132.812,97.168,0
1542735250.781,4.395,24.902,49.805,104.980,35.156,0
1542735250.785,-12.695,23.438,48.340,108.887,73.730,0
1542735250.789,-9.766,20.996,48.340,112.305,95.215,0
1542735250.793,-2.930,19.043,54.688,100.586,11.719,0
1542735250.797,-13.672,18.066,56.641,116.211,32.715,0
1542735250.801,-10.254,19.531,61.035,109.375,73.730,0
1542735250.805,-1.465,30.762,55.176,104.004,49.805,0
1542735250.809,-6.348,32.227,56.152,107.910,-3.418,0
1542735250.813,-11.719,28.320,63.477,101.074,-7.324,0
1542735250.817,-22.461,23.926,62.012,93.262,29.785,0
1542735250.821,-18.555,19.531,55.664,100.586,68.848,0
1542735250.824,-0.488,21.484,57.129,110.352,41.992,0
1542735250.828,-5.371,25.391,61.523,119.141,32.715,0
1542735250.832,-7.324,30.273,61.035,99.121,83.984,0
1542735250.836,-11.719,31.738,63.477,101.074,68.359,0
1542735250.840,7.812,29.785,60.059,97.656,20.020,0
1542735250.844,-4.395,27.344,60.059,72.754,41.992,0
1542735250.848,-1.465,33.203,67.871,98.633,58.105,0
1542735250.852,6.836,37.109,62.988,86.914,78.125,0
1542735250.856,-34.180,30.762,58.594,54.688,54.199,0
1542735250.860,-11.230,30.762,59.082,75.684,23.438,0
1542735250.864,-17.578,31.250,55.176,93.262,22.949,0
1542735250.867,-23.438,29.297,57.617,91.309,-21.484,0
1542735250.871,-25.391,31.250,74.219,55.176,62.988,0
1542735250.875,-23.926,22.461,76.172,69.824,76.660,0
1542735250.879,8.789,25.879,60.547,112.305,6.836,0
1542735250.883,-6.836,30.273,62.988,115.723,-7.324,0
1542735250.887,10.254,21.973,67.871,120.117,33.203,0
1542735250.891,1.465,26.855,65.430,97.656,89.355,0
1542735250.895,-19.531,33.203,64.453,107.910,40.039,0
1542735250.899,-22.949,21.973,68.359,92.773,-1.465,0
1542735250.903,2.441,26.367,65.918,97.656,53.711,0
1542735250.906,30.273,36.133,61.523,124.023,34.668,0
1542735250.910,10.742,28.320,60.547,116.211,30.762,0
1542735250.914,9.277,22.949,61.523,137.695,71.289,0
1542735250.918,-16.113,21.973,64.453,158.691,39.062,0
1542735250.922,-5.371,29.785,67.871,133.301,47.363,0
1542735250.926,5.371,29.297,67.871,97.168,41.504,0
1542735250.930,-3.418,26.855,63.965,110.840,15.137,0
1542735250.934,-1.465,23.926,64.453,125.000,38.086,0
1542735250.938,-0.488,26.367,64.941,119.629,34.668,0
1542735250.942,28.809,32.227,63.965,140.625,31.250,0
1542735250.946,25.879,33.203,68.359,136.719,0.488,0
1542735250.949,-5.371,31.250,73.730,122.559,36.621,0
1542735250.953,2.441,31.738,76.172,127.441,20.020,0
1542735250.957,29.785,39.551,69.824,127.930,11.230,0
1542735250.961,20.508,29.297,70.801,146.973,44.922,0
1542735250.965,-2.441,22.461,70.801,148.438,33.203,0
1542735250.969,-17.578,24.902,71.777,119.629,-18.066,0
1542735250.973,-20.996,29.785,68.848,111.328,7.324,0
1542735250.977,-9.766,31.250,63.477,93.262,35.156,0
1542735250.981,2.441,25.391,67.383,94.238,-20.996,0
1542735250.985,-2.930,26.367,65.430,107.910,-27.344,0
1542735250.989,-12.695,27.344,62.012,107.422,39.551,0
1542735250.992,-2.441,27.832,63.965,113.770,61.523,0
1542735250.996,9.766,30.273,60.059,111.816,-27.832,0
1542735251.000,9.766,27.832,60.059,106.934,-9.766,0
1542735251.004,6.348,26.367,61.523,110.352,86.426,0
1542735251.008,-9.766,28.809,56.152,102.539,71.777,0
1542735251.012,-18.066,28.809,59.082,99.609,52.734,0
1542735251.016,-15.137,30.273,58.594,94.238,24.902,0
1542735251.020,-9.277,28.809,57.129,96.680,20.508,0
1542735251.024,10.254,32.227,60.547,105.957,51.758,0
1542735251.028,-5.371,39.551,57.129,87.891,50.781,0
1542735251.031,-41.992,35.645,61.035,67.383,36.133,0
1542735251.035,-41.016,28.809,65.918,80.566,-33.203,0
1542735251.039,-34.668,28.809,61.523,93.750,5.859,0
1542735251.043,-13.672,35.156,58.105,87.402,75.195,0
1542735251.047,-11.719,37.109,58.594,85.938,0.488,0
1542735251.051,-41.504,32.715,60.547,72.266,2.930,0
1542735251.055,-49.316,43.457,65.430,61.035,92.285,0
1542735251.059,-47.852,51.270,64.941,51.270,63.477,0
1542735251.063,-47.363,42.480,62.500,47.852,27.344,0
1542735251.067,-66.406,41.016,63.965,41.992,22.461,0
1542735251.071,-86.426,35.645,66.406,25.879,29.297,0
1542735251.074,-93.750,39.062,70.312,7.812,70.801,0
1542735251.078,-102.051,41.992,71.777,-9.766,78.125,0
1542735251.082,-120.117,39.062,75.195,-19.043,58.594,0
1542735251.086,-130.371,43.945,78.125,-24.414,35.156,0
1542735251.090,-120.605,40.039,80.566,-25.879,16.602,0
1542735251.094,-93.262,41.992,79.102,-34.180,-0.977,0
1542735251.098,-113.770,49.805,81.055,-41.504,-26.855,0
1542735251.102,-165.527,45.410,89.355,-66.406,16.113,0
1542735251.106,-170.410,34.668,86.426,-65.430,67.871,0
1542735251.110,-145.508,34.668,83.008,-42.969,79.102,0
1542735251.114,-131.836,40.527,84.961,-56.152,1.953,0
1542735251.117,-139.160,34.180,88.379,-56.641,15.625,0
1542735251.121,-117.188,29.785,88.379,-18.066,74.219,0
1542735251.125,-82.031,35.645,81.055,0.977,32.227,0
1542735251.129,-93.262,38.086,72.266,-3.418,27.344,0
1542735251.133,-106.934,32.715,62.988,-9.766,45.410,0
1542735251.137,-101.562,32.715,60.547,4.395,38.574,0
1542735251.141,-54.199,28.809,61.035,31.250,22.461,0
1542735251.145,-42.480,27.832,56.152,38.086,-3.418,0
1542735251.149,-51.758,32.227,50.781,26.855,48.340,0
1542735251.153,-30.273,34.180,46.387,42.480,85.449,0
1542735251.156,-20.020,30.273,42.969,58.594,24.902,0
1542735251.160,7.812,26.855,39.551,73.242,2.930,0
1542735251.164,20.508,29.785,36.133,101.074,25.391,0
1542735251.168,16.113,22.949,34.668,117.188,58.594,0
1542735251.172,31.738,21.973,28.809,107.910,88.867,0
1542735251.176,41.504,29.785,22.949,105.469,89.355,0
1542735251.180,30.762,24.902,29.297,122.070,70.312,0
1542735251.184,38.574,19.531,28.809,130.371,50.293,0
1542735251.188,66.406,26.367,22.461,128.906,22.461,0
1542735251.192,46.387,24.902,19.043,116.211,61.523,0
1542735251.196,50.293,23.438,20.020,115.723,26.855,0
1542735251.199,65.430,21.484,25.391,116.699,-18.555,0
1542735251.203,75.195,21.973,26.367,134.766,-5.371,0
1542735251.207,98.145,27.344,20.996,151.855,-2.441,0
1542735251.211,92.285,29.785,18.066,146.973,30.762,0
1542735251.215,75.195,27.344,21.484,140.625,53.223,0
1542735251.219,68.848,23.926,28.809,145.508,21.973,0
1542735251.223,79.102,28.320,27.344,161.133,22.461,0
1542735251.227,76.172,30.762,23.438,151.855,60.059,0
1542735251.231,77.148,31.250,29.297,145.996,-2.930,0
1542735251.235,88.867,31.738,38.086,135.742,-5.371,0
1542735251.239,89.355,33.203,32.227,130.859,33.203,0
1542735251.242,87.891,34.180,21.484,142.090,61.035,0
1542735251.246,74.707,31.250,32.715,155.273,26.367,0
1542735251.250,58.594,35.156,39.551,157.715,-32.227,0
1542735251.254,75.195,38.574,30.273,146.484,29.785,0
1542735251.258,80.566,36.621,29.785,134.277,50.293,0
1542735251.262,72.266,34.668,33.203,133.789,25.391,0
1542735251.266,79.102,36.133,28.809,116.699,38.086,0
1542735251.270,56.641,38.086,27.832,95.703,13.672,0
1542735251.274,45.898,38.086,31.738,92.285,37.598,0
1542735251.278,59.570,43.457,30.273,106.445,41.992,0
1542735251.281,61.523,45.410,29.785,132.324,48.828,0
1542735251.285,69.336,41.016,37.109,110.352,60.059,0
1542735251.289,62.988,38.574,43.457,106.934,26.855,0
1542735251.293,41.992,38.574,46.387,106.445,14.648,0
1542735251.297,25.879,37.598,43.945,79.102,-0.488,0
1542735251.301,32.227,34.668,32.715,67.383,56.152,0
1542735251.305,42.969,38.574,34.668,74.219,106.445,0
1542735251.309,62.988,46.875,44.434,104.492,26.855,0
1542735251.313,63.477,46.875,43.945,101.074,28.320,0
1542735251.317,34.180,47.363,47.852,85.449,78.125,0
1542735251.321,12.695,48.828,50.293,73.242,54.199,0
1542735251.324,8.789,49.805,50.293,62.012,32.715,0
1542735251.328,9.766,56.152,60.059,54.199,48.828,0
1542735251.332,-17.578,50.781,47.363,27.344,11.230,0
1542735251.336,-49.316,59.570,39.062,9.766,-31.738,0
1542735251.340,-61.523,68.848,49.805,-12.695,-14.160,0
1542735251.344,-81.543,80.078,56.152,-41.992,2.441,0
1542735251.348,-112.305,85.938,53.711,-59.082,12.207,0
1542735251.352,-133.789,81.543,51.758,-85.938,44.434,0
1542735251.356,-172.363,77.148,73.242,-126.953,62.012,0
1542735251.360,-205.078,73.242,92.773,-149.414,50.781,0
1542735251.364,-218.262,76.660,98.633,-168.945,-15.625,0
1542735251.367,-227.051,64.453,105.469,-166.504,-8.789,0
1542735251.371,-214.844,55.664,118.652,-153.809,56.152,0
1542735251.375,-213.867,38.086,124.512,-157.715,48.340,0
1542735251.379,-168.457,30.273,129.395,-110.840,55.176,0
1542735251.383,-154.297,26.367,135.254,-73.242,68.359,0
1542735251.387,-170.898,13.184,131.348,-88.379,43.945,0
1542735251.391,-112.305,14.160,113.281,-55.176,41.504,0
1542735251.395,-84.473,9.277,112.793,-27.344,81.543,0
1542735251.399,-108.398,-4.883,116.211,-48.340,62.988,0
1542735251.403,-81.543,-10.742,102.051,-20.996,-3.418,0
1542735251.406,-36.621,-12.695,102.539,37.598,-3.418,0
1542735251.410,-34.180,-9.766,97.168,53.223,44.922,0
1542735251.414,-17.578,-5.371,87.891,58.594,45.410,0
1542735251.418,7.812,-6.836,80.566,78.613,43.945,0
1542735251.422,11.719,-10.254,78.613,83.008,52.734,0
1542735251.426,31.250,-7.324,76.172,90.332,31.738,0
1542735251.430,54.688,0.488,67.383,110.840,1.953,0
1542735251.434,54.199,-1.465,60.547,119.629,-29.785,0
1542735251.438,53.711,-1.953,52.246,120.605,-2.930,0
1542735251.442,71.289,0.488,54.199,134.766,16.602,0
1542735251.446,83.496,1.465,52.246,143.555,-7.812,0
1542735251.449,84.961,4.883,46.875,143.555,18.066,0
1542735251.453,79.102,3.906,48.340,140.625,72.266,0
1542735251.457,82.031,-2.441,47.363,139.648,95.215,0
1542735251.461,83.008,0.977,41.504,144.043,94.727,0
1542735251.465,86.426,5.859,36.133,140.137,21.484,0
1542735251.469,91.309,4.883,33.691,143.555,-28.809,0
1542735251.473,86.914,6.836,31.738,154.785,70.312,0
1542735251.477,88.379,9.766,31.738,147.461,93.750,0
1542735251.481,95.215,11.230,34.668,143.555,28.320,0
1542735251.485,99.121,7.812,38.086,139.648,-4.883,0
1542735251.489,104.492,8.789,40.527,146.973,5.371,0
1542735251.492,110.352,15.625,39.551,155.762,4.883,0
1542735251.496,101.562,16.113,38.086,154.297,36.621,0
1542735251.500,94.727,17.578,39.062,153.320,31.738,0
1542735251.504,110.352,18.066,36.133,144.531,55.664,0
1542735251.508,105.469,23.438,34.668,147.461,56.152,0
1542735251.512,96.191,21.484,35.156,159.180,-6.836,0
1542735251.516,104.492,18.066,31.250,155.273,21.484,0
1542735251.520,109.375,23.438,34.668,143.066,16.602,0
1542735251.524,118.652,22.461,37.109,140.137,0.977,0
1542735251.528,114.746,22.949,35.645,139.648,3.906,0
1542735251.531,89.355,25.391,36.621,149.414,-5.859,0
1542735251.535,88.867,24.902,32.715,142.090,-20.020,0
1542735251.539,95.215,27.344,33.691,137.695,-24.414,0
1542735251.543,99.121,27.832,37.109,143.555,34.180,0
1542735251.547,97.656,28.320,32.227,136.719,78.125,0
1542735251.551,91.309,32.227,34.180,131.836,6.348,0
1542735251.555,97.656,32.227,38.086,133.301,41.992,0
1542735251.559,88.379,27.344,35.645,129.883,85.449,0
1542735251.563,76.660,28.320,32.715,125.000,86.914,0
1542735251.567,74.707,33.203,33.203,120.117,73.242,0
1542735251.571,59.570,35.156,33.203,108.887,51.758,0
1542735251.574,51.758,35.645,31.738,112.793,54.688,0
1542735251.578,58.594,32.227,36.133,118.652,41.992,0
1542735251.582,64.941,29.785,33.691,106.445,18.066,0
1542735251.586,73.730,23.926,29.297,109.375,17.578,0
1542735251.590,104.004,19.043,35.645,147.461,58.105,0
1542735251.594,120.117,26.855,40.527,161.621,36.621,0
1542735251.598,88.867,41.016,32.227,107.910,49.805,0
1542735251.602,66.406,44.434,29.785,104.980,49.805,0
1542735251.606,93.262,36.621,36.133,159.180,-26.855,0
1542735251.610,132.812,43.945,28.809,161.621,-20.996,0
1542735251.614,139.160,50.293,17.090,157.227,36.133,0
1542735251.617,154.297,52.734,11.719,183.594,97.168,0
1542735251.621,173.340,46.875,15.137,198.730,118.164,0
1542735251.625,153.809,39.551,26.855,199.707,40.527,0
1542735251.629,158.691,49.805,19.531,206.055,-5.859,0
1542735251.633,176.758,50.293,15.625,200.684,23.438,0
1542735251.637,197.754,54.199,18.555,215.332,74.707,0
1542735251.641,204.102,59.082,18.066,235.840,23.926,0
1542735251.645,205.078,58.594,20.996,231.934,23.926,0
1542735251.649,206.055,62.500,22.949,220.703,60.547,0
1542735251.653,183.594,63.477,25.879,223.145,12.695,0
1542735251.656,187.988,62.500,27.344,214.355,19.531,0
1542735251.660,195.312,57.129,23.926,206.055,39.062,0
1542735251.664,175.781,54.688,26.367,207.520,40.527,0
1542735251.668,176.758,52.734,27.344,200.684,53.711,0
1542735251.672,176.758,53.711,28.320,199.707,49.805,0
1542735251.676,166.504,54.199,28.809,200.684,14.648,0
1542735251.680,150.391,49.316,33.203,196.777,27.832,0
1542735251.684,135.254,47.363,29.297,170.898,47.363,0
1542735251.688,140.625,42.480,27.344,161.133,21.484,0
1542735251.692,162.109,50.781,38.086,170.410,13.184,0
1542735251.696,149.414,59.082,39.551,177.246,50.781,0
1542735251.699,140.137,55.176,40.527,173.340,22.949,0
1542735251.703,137.695,51.758,40.039,162.598,-11.230,0
1542735251.707,135.254,49.805,39.062,158.691,48.340,0
1542735251.711,145.508,46.387,41.504,170.898,1.465,0
1542735251.715,139.160,46.875,42.480,175.781,8.301,0
1542735251.719,132.324,50.293,43.457,165.039,32.227,0
1542735251.723,116.699,50.781,41.992,148.438,-32.715,0
1542735251.727,126.953,49.805,41.016,145.508,-21.973,0
1542735251.731,126.953,49.805,41.504,138.184,16.602,0
1542735251.735,105.957,45.410,47.852,134.766,56.641,0
1542735251.739,102.051,43.945,47.852,135.254,49.316,0
1542735251.742,85.938,46.387,38.574,109.863,26.367,0
1542735251.746,88.867,45.898,41.992,95.215,33.691,0
1542735251.750,82.031,42.480,43.945,96.191,28.320,0
1542735251.754,66.406,39.551,41.504,103.027,21.973,0
1542735251.758,51.758,37.109,39.551,91.309,39.551,0
1542735251.762,41.992,33.691,40.039,83.496,12.695,0
1542735251.766,53.711,33.203,41.504,89.844,-14.160,0
1542735251.770,59.082,35.645,40.039,92.773,38.574,0
1542735251.774,56.152,37.109,43.457,83.496,45.898,0
1542735251.778,58.105,32.715,44.922,77.148,2.441,0
1542735251.781,61.035,64.941,35.156,66.895,-4.883,0
1542735251.785,54.688,53.223,41.504,82.031,39.551,0
1542735251.789,43.457,13.184,49.805,99.609,40.039,0
1542735251.793,49.316,28.809,41.992,75.684,47.363,0
1542735251.797,67.871,36.621,42.969,78.125,4.395,0
1542735251.801,84.473,38.086,45.898,89.844,-6.836,0
1542735251.805,79.102,38.574,45.898,90.820,47.852,0
1542735251.809,79.590,38.086,41.504,85.449,35.156,0
1542735251.813,70.312,32.227,44.922,97.656,27.832,0
1542735251.817,61.035,29.785,47.363,88.379,63.965,0
1542735251.821,73.242,32.715,46.387,73.242,70.312,0
1542735251.824,75.684,38.574,44.922,85.938,28.809,0
1542735251.828,62.500,36.133,44.922,90.332,23.438,0
1542735251.832,52.734,29.785,44.922,90.820,11.230,0
1542735251.836,60.059,34.668,42.969,92.773,10.254,0
1542735251.840,60.059,35.156,43.457,82.031,58.594,0
1542735251.844,59.082,35.645,42.480,83.496,42.969,0
1542735251.848,52.734,36.621,44.434,88.867,-2.930,0
1542735251.852,46.875,29.297,49.316,90.332,51.758,0
1542735251.856,53.711,28.320,50.293,101.074,53.711,0
1542735251.860,65.430,34.668,49.316,100.586,-2.441,0
1542735251.864,76.660,36.621,50.781,105.957,-24.414,0
1542735251.867,62.988,33.691,52.734,107.422,15.625,0
1542735251.871,54.688,33.203,49.316,97.168,72.266,0
1542735251.875,53.711,30.273,49.805,88.379,56.152,0
1542735251.879,60.547,25.391,52.734,92.285,40.039,0
1542735251.883,88.867,25.879,56.641,128.906,60.059,0
1542735251.887,81.055,45.898,41.992,112.793,24.414,0
1542735251.891,45.410,52.246,33.691,64.941,-35.645,0
1542735251.895,39.062,41.992,41.992,78.613,74.707,0
1542735251.899,24.902,45.410,38.574,75.195,127.441,0
1542735251.903,-4.883,46.875,31.250,11.230,57.617,0
1542735251.906,-11.230,50.293,25.879,-2.441,37.598,0
1542735251.910,-34.180,44.434,28.320,-11.230,56.152,0
1542735251.914,-69.336,41.016,22.461,-52.734,4.395,0
1542735251.918,-93.750,41.992,22.949,-66.406,8.789,0
1542735251.922,-100.586,37.598,29.297,-92.773,17.578,0
1542735251.926,-122.559,34.180,28.320,-111.328,3.418,0
1542735251.930,-153.320,27.344,29.785,-111.328,-13.672,0
1542735251.934,-152.832,31.738,20.508,-150.391,7.324,0
1542735251.938,-152.832,33.691,16.602,-176.758,2.930,0
1542735251.942,-170.410,27.832,22.461,-166.992,10.742,0
1542735251.946,-176.758,26.367,20.996,-162.109,49.805,0
1542735251.949,-179.688,34.180,12.207,-162.109,76.172,0
1542735251.953,-192.383,37.109,16.602,-171.875,75.195,0
1542735251.957,-200.684,31.250,23.926,-190.430,23.926,0
1542735251.961,-172.852,25.879,24.902,-169.434,12.695,0
1542735251.965,-179.688,25.391,25.879,-150.391,67.383,0
1542735251.969,-216.797,25.391,23.438,-190.918,60.547,0
1542735251.973,-189.453,25.391,20.996,-180.176,16.602,0
1542735251.977,-147.949,22.461,25.391,-151.367,0.977,0
1542735251.981,-140.137,22.461,28.809,-152.344,10.254,0
1542735251.985,-132.812,28.809,25.391,-135.742,19.043,0
1542735251.989,-111.328,26.855,21.973,-121.094,18.066,0
1542735251.992,-99.121,30.273,20.996,-86.914,30.273,0
1542735251.996,-83.496,36.621,23.926,-69.336,60.547,0
1542735252.000,-81.055,35.156,24.902,-68.848,46.387,0
1542735252.004,-74.219,34.668,24.414,-63.477,37.598,0
1542735252.008,-60.059,39.062,25.391,-48.340,78.613,0
1542735252.012,-48.828,37.109,31.738,-33.691,1.953,0
1542735252.016,-54.199,32.715,34.180,-29.297,-6.836,0
1542735252.020,-45.410,34.668,31.738,-10.742,11.230,0
1542735252.024,-24.414,35.645,34.180,-4.883,18.555,0
1542735252.028,-21.973,40.039,35.645,-15.137,43.945,0
1542735252.031,-18.555,39.062,30.762,-15.625,49.316,0
1542735252.035,-22.949,31.250,35.156,0.000,54.688,0
1542735252.039,-16.602,32.227,37.109,19.531,36.621,0
1542735252.043,-4.883,39.062,34.180,19.043,74.219,0
1542735252.047,-4.395,41.016,37.109,15.137,39.551,0
1542735252.051,-2.930,40.527,36.133,26.367,23.926,0
1542735252.055,1.953,37.109,32.227,23.438,59.082,0
1542735252.059,-2.930,35.645,35.645,32.715,36.621,0
1542735252.063,0.488,36.621,33.691,35.156,56.152,0
1542735252.067,2.441,35.645,27.832,19.043,61.523,0
1542735252.071,4.883,37.109,27.344,21.484,4.883,0
1542735252.074,5.371,35.156,34.668,24.902,-38.086,0
1542735252.078,31.738,31.738,40.039,60.059,-22.949,0
1542735252.082,65.430,38.086,41.016,92.773,-8.789,0
1542735252.086,26.367,41.992,35.156,71.289,11.719,0
1542735252.090,-31.250,35.156,41.016,7.324,35.156,0
1542735252.094,-40.039,36.133,44.922,-23.926,62.988,0
1542735252.098,-41.992,37.598,38.086,-21.973,125.977,0
1542735252.102,-68.359,33.203,36.133,-34.668,110.352,0
1542735252.106,-69.336,32.715,34.668,-34.668,0.977,0
1542735252.110,-58.594,33.203,31.738,-36.621,-52.246,0
1542735252.114,-57.129,35.156,29.785,-41.992,2.930,0
1542735252.117,-47.363,32.715,31.250,-35.156,53.223,0
1542735252.121,-42.969,34.180,27.832,-30.762,23.926,0
1542735252.125,-39.062,34.180,26.855,-8.301,26.367,0
1542735252.129,-19.531,31.250,33.203,10.254,1.953,0
1542735252.133,0.977,34.668,35.645,11.230,2.930,0
1542735252.137,-13.184,38.086,35.645,25.391,40.039,0
1542735252.141,-8.301,40.039,32.715,32.715,-6.836,0
1542735252.145,6.348,41.992,32.227,31.250,-24.414,0
1542735252.149,0.977,43.457,36.621,29.785,0.488,0
1542735252.153,2.441,39.551,33.691,33.203,9.277,0
1542735252.156,1.953,35.156,28.320,29.785,11.719,0
1542735252.160,1.953,36.133,32.715,36.133,-20.020,0
1542735252.164,7.812,39.062,36.133,40.039,10.254,0
1542735252.168,13.672,39.062,35.156,33.691,28.809,0
1542735252.172,8.789,36.621,36.621,35.645,39.551,0
1542735252.176,10.254,36.133,34.668,35.645,67.383,0
1542735252.180,12.207,37.109,29.785,49.316,72.266,0
1542735252.184,14.648,36.133,33.203,44.434,42.969,0
1542735252.188,23.926,31.738,40.039,43.945,8.301,0
1542735252.192,36.133,34.180,38.086,51.270,52.246,0
1542735252.196,17.090,38.574,33.691,41.504,41.016,0
1542735252.199,14.160,39.062,35.156,43.945,-5.859,0
1542735252.203,34.668,41.504,38.574,52.734,-7.324,0
1542735252.207,25.879,44.434,38.574,46.875,13.184,0
1542735252.211,18.555,40.527,36.133,45.898,41.992,0
1542735252.215,17.090,31.738,39.062,42.480,46.875,0
1542735252.219,15.137,29.297,37.598,36.621,37.109,0
1542735252.223,27.344,38.086,30.273,52.246,78.125,0
1542735252.227,39.062,42.969,28.809,53.711,49.805,0
1542735252.231,20.020,38.086,28.809,36.133,42.969,0
1542735252.235,14.648,38.086,26.367,41.992,98.145,0
1542735252.239,27.832,37.598,26.855,39.062,73.242,0
1542735252.242,24.902,34.668,33.203,42.480,81.055,0
1542735252.246,21.973,34.180,33.691,50.293,38.574,0
1542735252.250,22.461,30.273,32.715,41.504,3.418,0
1542735252.254,39.062,31.250,34.668,51.758,3.418,0
1542735252.258,23.926,31.250,39.551,46.387,4.395,0
1542735252.262,15.625,28.809,41.504,49.316,65.918,0
1542735252.266,15.625,32.715,37.598,54.199,37.598,0
1542735252.270,11.719,31.250,38.574,52.734,-14.648,0
1542735252.274,38.574,33.203,39.062,56.152,-34.180,0
1542735252.278,40.527,37.598,38.574,46.387,-18.066,0
1542735252.281,37.598,39.062,40.039,46.875,14.648,0
1542735252.285,31.250,36.133,41.016,53.711,-10.254,0
1542735252.289,31.250,34.668,41.504,61.523,22.461,0
1542735252.293,40.039,35.645,41.504,50.781,25.879,0
1542735252.297,29.785,30.273,41.504,50.293,1.465,0
1542735252.301,21.973,28.809,39.062,58.594,-1.465,0
1542735252.305,27.832,35.156,37.598,50.781,-5.371,0
1542735252.309,33.203,36.133,39.551,64.453,41.504,0
1542735252.313,25.391,30.762,41.992,69.336,56.641,0
1542735252.317,29.785,34.668,41.992,62.500,47.852,0
1542735252.321,52.246,37.109,42.480,77.148,41.504,0
1542735252.324,46.387,34.668,46.387,83.008,42.969,0
1542735252.328,41.992,39.062,44.922,56.152,51.270,0
1542735252.332,48.828,37.598,45.898,46.875,73.730,0
1542735252.336,40.039,32.715,46.875,60.547,68.359,0
1542735252.340,41.016,33.691,41.992,72.754,77.637,0
1542735252.344,29.297,35.645,43.457,65.918,61.035,0
1542735252.348,18.555,38.574,44.434,45.410,18.066,0
1542735252.352,29.785,37.598,43.457,53.223,6.836,0
1542735252.356,40.039,32.715,43.945,62.012,22.461,0
1542735252.360,34.668,33.691,38.086,44.434,34.180,0
1542735252.364,29.297,33.691,39.062,51.758,83.008,0
1542735252.367,36.621,36.133,42.969,54.199,78.613,0
1542735252.371,38.086,38.086,38.086,39.062,32.227,0
1542735252.375,39.551,40.527,36.621,48.340,61.035,0
1542735252.379,25.879,40.527,34.668,46.387,1.953,0
1542735252.383,25.391,33.203,37.109,42.969,34.180,0
1542735252.387,38.086,37.598,40.527,42.480,72.754,0
1542735252.391,32.715,39.551,39.062,42.480,13.184,0
1542735252.395,29.785,36.133,41.504,49.805,32.715,0
1542735252.399,40.039,38.574,41.016,59.570,54.199,0
1542735252.403,39.551,40.039,41.504,65.430,51.758,0
1542735252.406,38.086,41.504,44.922,59.570,80.566,0
1542735252.410,26.367,42.480,44.434,69.336,57.129,0
1542735252.414,19.043,34.180,45.898,56.641,22.949,0
1542735252.418,23.926,27.832,45.410,28.809,51.270,0
1542735252.422,19.043,34.180,39.062,41.016,25.391,0
1542735252.426,26.367,38.086,40.039,59.082,-42.480,0
1542735252.430,23.438,35.156,46.387,59.570,-8.301,0
1542735252.434,19.043,35.156,45.898,58.594,14.648,0
1542735252.438,33.203,35.645,45.898,63.477,42.480,0
1542735252.442,30.762,34.180,45.410,61.035,26.367,0
1542735252.446,27.832,36.133,44.922,69.824,0.488,0
1542735252.449,27.832,32.227,50.781,68.359,39.551,0
1542735252.453,24.414,32.715,48.828,58.105,-29.785,0
1542735252.457,27.832,35.156,43.945,57.129,-3.418,0
1542735252.461,41.504,38.574,42.480,54.688,39.062,0
1542735252.465,34.180,34.180,41.504,44.434,-38.574,0
1542735252.469,31.738,30.273,42.480,35.156,-4.883,0
1542735252.473,40.527,36.621,43.457,42.969,30.762,0
1542735252.477,37.598,39.062,42.969,48.828,0.488,0
1542735252.481,34.668,37.109,46.387,49.316,48.828,0
1542735252.485,31.250,36.621,45.410,54.199,83.008,0
1542735252.489,36.621,34.668,42.480,59.082,31.250,0
1542735252.492,42.480,35.156,42.969,54.688,14.160,0
1542735252.496,37.109,36.621,43.457,42.969,83.984,0
1542735252.500,38.086,35.156,47.852,64.453,77.148,0
1542735252.504,37.109,34.668,44.922,62.988,40.039,0
1542735252.508,36.621,35.156,43.457,43.945,69.336,0
1542735252.512,34.668,31.250,47.852,50.781,24.902,0
1542735252.516,34.668,25.879,45.410,54.688,7.324,0
1542735252.520,39.551,27.832,45.898,58.594,36.621,0
1542735252.524,33.691,35.156,43.457,54.688,25.879,0
1542735252.528,25.879,32.715,41.016,70.801,6.836,0
1542735252.531,31.738,28.320,42.480,73.242,11.719,0
1542735252.535,33.691,28.320,44.922,54.688,45.410,0
1542735252.539,48.340,36.133,43.945,57.617,32.715,0
1542735252.543,56.641,35.645,46.387,58.594,70.801,0
1542735252.547,34.180,32.715,46.875,58.105,40.527,0
1542735252.551,20.996,34.180,45.410,66.895,-52.246,0
1542735252.555,28.809,31.738,44.922,78.613,31.250,0
1542735252.559,44.434,35.156,40.527,71.289,106.445,0
1542735252.563,51.270,34.180,38.086,66.406,39.551,0
1542735252.567,46.387,35.156,37.109,68.359,37.109,0
1542735252.571,38.574,37.598,39.062,75.195,43.457,0
1542735252.574,40.527,36.133,42.480,82.031,-0.488,0
1542735252.578,45.410,35.156,39.062,65.918,-11.230,0
1542735252.582,32.227,33.691,37.598,57.129,10.742,0
1542735252.586,33.203,31.250,41.504,66.406,44.922,0
1542735252.590,53.223,25.391,43.945,69.336,28.809,0
1542735252.594,43.457,30.273,41.504,49.805,24.414,0
1542735252.598,32.715,33.203,37.598,54.688,12.695,0
1542735252.602,40.039,29.297,37.109,60.547,34.180,0
1542735252.606,35.156,26.855,41.992,52.734,89.844,0
1542735252.610,39.551,32.715,46.387,58.105,90.332,0
1542735252.614,50.293,36.621,47.363,71.289,37.109,0
1542735252.617,42.480,30.273,49.316,72.266,17.578,0
1542735252.621,37.598,32.227,47.363,63.965,22.461,0
1542735252.625,49.316,36.621,42.969,76.172,15.137,0
1542735252.629,50.293,32.715,43.457,78.125,20.020,0
1542735252.633,47.363,31.738,47.363,66.406,46.387,0
1542735252.637,46.387,31.738,49.805,66.406,21.973,0
1542735252.641,43.457,27.344,44.922,72.754,11.719,0
1542735252.645,44.922,21.484,43.945,78.613,56.152,0
1542735252.649,38.574,23.926,47.363,74.219,52.246,0
1542735252.653,37.109,25.879,43.945,74.219,-8.789,0
1542735252.656,44.922,22.949,43.457,79.102,-9.766,0
1542735252.660,41.504,21.484,43.945,79.590,3.906,0
1542735252.664,48.340,26.855,45.410,74.219,-1.465,0
1542735252.668,45.898,29.297,47.363,83.008,54.688,0
1542735252.672,40.527,28.320,44.434,84.473,-10.742,0
1542735252.676,46.875,29.297,42.969,73.242,-23.438,0
1542735252.680,50.781,27.832,41.992,77.148,23.438,0
1542735252.684,44.434,28.320,45.410,73.242,18.066,0
1542735252.688,46.875,31.738,44.922,79.590,-2.441,0
1542735252.692,52.246,29.785,44.434,81.543,23.438,0
1542735252.696,46.875,30.762,46.387,82.520,59.570,0
1542735252.699,32.715,32.715,44.922,69.336,12.695,0
1542735252.703,45.410,31.250,43.457,62.012,34.668,0
1542735252.707,61.035,31.250,44.922,77.637,67.383,0
1542735252.711,45.410,34.668,45.410,88.379,33.203,0
1542735252.715,41.504,34.668,43.457,65.430,21.973,0
1542735252.719,52.734,35.156,47.363,62.012,37.598,0
1542735252.723,61.523,36.621,47.363,81.543,12.207,0
1542735252.727,53.711,32.227,44.434,62.500,27.832,0
1542735252.731,52.734,29.785,48.340,64.453,56.641,0
1542735252.735,60.059,33.203,53.223,72.754,56.641,0
1542735252.739,65.918,39.551,47.363,76.660,26.367,0
1542735252.742,59.082,41.504,41.016,75.684,-6.348,0
1542735252.746,49.805,34.668,50.781,70.801,1.465,0
1542735252.750,58.594,35.156,51.758,76.172,32.715,0
1542735252.754,55.664,39.551,47.363,77.637,12.695,0
1542735252.758,51.758,34.668,47.852,72.266,-51.270,0
1542735252.762,48.340,33.203,44.922,64.453,19.531,0
1542735252.766,41.504,32.227,47.363,64.453,62.988,0
1542735252.770,32.227,32.715,48.828,70.312,-1.953,0
1542735252.774,32.227,28.809,43.457,65.430,-8.789,0
1542735252.778,39.551,24.902,39.551,70.801,20.996,0
1542735252.781,26.855,30.273,38.574,55.176,41.992,0
1542735252.785,25.391,29.297,41.992,41.504,17.578,0
1542735252.789,30.273,33.691,43.945,61.523,37.598,0
1542735252.793,37.109,35.156,47.852,68.359,46.875,0
1542735252.797,44.922,27.832,50.781,57.617,21.484,0
1542735252.801,37.598,28.320,46.387,53.711,100.586,0
1542735252.805,37.598,29.297,43.945,63.477,86.914,0
1542735252.809,32.227,30.273,41.992,68.848,31.738,0
1542735252.813,20.996,23.926,44.922,62.988,44.434,0
1542735252.817,30.762,25.879,44.922,65.430,36.621,0
1542735252.821,38.086,33.203,41.016,75.684,9.766,0
1542735252.824,39.062,31.738,44.434,59.082,68.359,0
1542735252.828,34.668,30.762,44.434,45.898,90.332,0
1542735252.832,47.363,33.691,44.434,56.152,26.855,0
1542735252.836,49.805,33.691,43.945,67.383,56.152,0
1542735252.840,42.480,32.227,42.480,67.871,68.359,0
1542735252.844,48.828,32.715,45.410,73.730,12.207,0
1542735252.848,45.898,36.133,47.363,76.660,66.406,0
1542735252.852,50.293,39.551,43.945,63.965,62.012,0
1542735252.856,52.734,36.133,42.480,62.012,51.270,0
1542735252.860,43.945,30.273,47.363,62.012,50.293,0
1542735252.864,41.016,34.180,46.387,59.570,-29.785,0
1542735252.867,49.805,35.645,43.945,59.570,-40.527,0
1542735252.871,47.852,33.203,51.270,49.805,-22.461,0
1542735252.875,49.316,33.203,51.270,46.875,20.996,0
1542735252.879,55.664,34.668,43.945,62.500,44.434,0
1542735252.883,46.387,36.133,40.527,58.594,34.180,0
1542735252.887,33.691,32.715,44.434,49.316,41.504,0
1542735252.891,33.691,31.250,43.457,54.688,94.727,0
1542735252.895,34.668,32.715,39.551,70.312,73.730,0
1542735252.899,50.781,32.227,38.086,66.895,55.664,0
1542735252.903,56.152,29.297,40.039,62.988,110.352,0
1542735252.906,41.504,33.691,44.922,70.312,40.527,0
1542735252.910,41.992,41.504,42.480,73.242,-6.836,0
1542735252.914,57.617,43.457,40.527,70.801,2.441,0
1542735252.918,46.387,39.551,40.039,56.641,5.859,0
1542735252.922,30.273,33.203,39.062,55.176,51.270,0
1542735252.926,33.691,35.156,40.527,57.617,77.148,0
1542735252.930,38.086,33.691,41.504,53.223,95.215,0
1542735252.934,39.062,33.691,39.062,54.688,54.199,0
1542735252.938,39.062,34.668,36.133,60.059,-16.113,0
1542735252.942,41.504,31.738,39.551,65.430,27.832,0
1542735252.946,37.109,32.715,39.551,61.523,12.207,0
1542735252.949,41.016,34.668,41.016,68.359,37.598,0
1542735252.953,49.805,37.109,40.039,69.824,81.543,0
1542735252.957,39.551,35.156,35.645,56.152,50.293,0
1542735252.961,46.875,38.574,37.598,69.336,67.383,0
1542735252.965,56.152,37.109,39.062,75.684,35.156,0
1542735252.969,43.945,32.227,41.504,76.660,-17.090,0
1542735252.973,41.504,33.691,42.480,76.172,1.465,0
1542735252.977,51.758,33.691,42.480,72.754,79.590,0
1542735252.981,39.062,35.645,44.922,86.426,59.082,0
1542735252.985,43.945,34.668,41.992,76.660,50.293,0
1542735252.989,47.852,32.227,41.016,62.012,35.156,0
1542735252.992,45.410,33.203,44.434,61.035,-21.484,0
1542735252.996,51.270,34.668,44.434,64.941,71.289,0
1542735253.000,50.781,37.109,40.039,70.801,67.871,0
1542735253.004,78.125,40.527,31.738,83.496,45.898,0
1542735253.008,105.957,39.062,36.133,107.910,90.820,0
1542735253.012,76.172,28.320,50.781,93.262,7.324,0
1542735253.016,46.387,25.391,54.688,68.848,9.277,0
1542735253.020,43.945,24.902,62.500,75.684,38.574,0
1542735253.024,34.180,10.742,76.660,67.383,37.598,0
1542735253.028,34.668,-1.465,82.031,71.289,34.180,0
1542735253.031,30.273,-5.371,89.844,80.566,-6.836,0
1542735253.035,32.715,-10.254,97.656,62.012,2.441,0
1542735253.039,35.156,-17.090,99.609,71.289,63.477,0
1542735253.043,25.879,-25.391,108.887,73.242,71.289,0
1542735253.047,13.184,-32.227,118.652,75.195,38.574,0
1542735253.051,16.602,-29.785,116.699,84.473,70.801,0
1542735253.055,37.598,-27.344,113.770,90.820,82.520,0
1542735253.059,43.945,-25.879,112.305,100.098,14.648,0
1542735253.063,57.129,-21.484,106.445,102.051,59.570,0
1542735253.067,52.734,-19.043,103.027,111.816,55.664,0
1542735253.071,40.527,-15.137,97.656,104.980,-6.836,0
1542735253.074,49.316,-10.254,92.773,101.074,45.898,0
1542735253.078,54.688,-8.301,93.262,89.355,36.133,0
1542735253.082,49.316,-8.789,87.402,71.777,-17.578,0
1542735253.086,48.828,-3.906,80.566,87.891,-18.066,0
1542735253.090,55.176,-0.488,82.031,99.121,53.711,0
1542735253.094,52.734,0.000,79.590,84.473,92.285,0
1542735253.098,52.734,1.465,75.684,80.078,64.453,0
1542735253.102,47.363,3.418,73.730,69.824,51.758,0
1542735253.106,43.457,4.883,73.730,83.984,49.316,0
1542735253.110,49.316,3.418,74.707,95.703,19.531,0
1542735253.114,41.504,6.348,70.801,83.496,-4.395,0
1542735253.117,38.086,7.812,67.383,79.102,31.250,0
1542735253.121,45.898,8.789,61.035,74.219,66.895,0
1542735253.125,47.852,13.672,59.082,75.684,51.758,0
1542735253.129,57.129,18.555,62.012,85.938,7.324,0
1542735253.133,56.641,19.043,60.547,88.379,11.230,0
1542735253.137,52.734,18.555,56.152,70.312,18.066,0
1542735253.141,61.523,23.926,50.781,64.941,-8.789,0
1542735253.145,58.594,25.391,52.734,83.008,-17.578,0
1542735253.149,44.922,23.438,53.711,85.449,-11.230,0
1542735253.153,52.734,25.391,52.246,90.820,48.340,0
1542735253.156,61.523,25.879,53.223,91.797,110.352,0
1542735253.160,56.152,24.414,49.805,89.355,54.688,0
1542735253.164,57.617,23.438,50.293,104.004,-8.301,0
1542735253.168,49.805,21.484,54.199,97.656,0.000,0
1542735253.172,50.293,21.973,49.316,87.402,38.574,0
1542735253.176,57.617,21.973,45.410,95.215,21.973,0
1542735253.180,47.852,24.414,43.945,92.773,-8.789,0
1542735253.184,45.410,25.879,42.969,90.332,46.875,0
1542735253.188,53.223,25.879,45.410,94.727,73.730,0
1542735253.192,56.152,26.855,42.969,87.402,8.301,0
1542735253.196,50.293,27.344,42.480,88.867,-3.418,0
1542735253.199,39.551,25.879,43.945,87.891,27.344,0
1542735253.203,44.434,27.832,38.574,85.938,61.035,0
1542735253.207,59.570,28.809,35.645,98.633,30.273,0
1542735253.211,47.852,24.902,40.039,86.426,-6.348,0
1542735253.215,45.898,25.391,39.551,83.496,3.906,0
1542735253.219,47.852,28.809,38.086,86.426,29.785,0
1542735253.223,50.781,26.367,39.062,81.055,50.781,0
1542735253.227,56.641,24.414,40.039,88.379,33.691,0
1542735253.231,44.434,24.902,38.086,79.590,23.438,0
1542735253.235,48.828,24.414,36.133,81.543,29.297,0
1542735253.239,51.270,26.367,33.691,81.055,-12.695,0
1542735253.242,41.016,28.320,28.320,65.918,35.156,0
1542735253.246,40.039,27.832,30.762,70.312,127.930,0
1542735253.250,44.922,25.879,34.668,77.148,90.820,0
1542735253.254,41.992,25.391,39.062,79.590,36.621,0
1542735253.258,34.180,29.297,38.574,74.707,54.688,0
1542735253.262,39.062,27.832,35.645,58.105,33.203,0
1542735253.266,49.805,26.855,35.156,62.012,36.133,0
1542735253.270,46.875,24.414,35.156,66.406,39.551,0
1542735253.274,38.574,26.855,35.156,65.430,43.945,0
1542735253.278,39.062,28.320,35.645,57.129,74.219,0
1542735253.281,29.297,26.367,39.062,70.801,0.977,0
1542735253.285,31.250,28.809,38.574,74.219,-30.762,0
1542735253.289,37.598,31.250,36.621,55.664,29.785,0
1542735253.293,32.715,27.832,37.598,63.477,36.621,0
1542735253.297,46.387,23.438,37.109,88.867,-2.930,0
1542735253.301,74.707,28.809,33.691,115.234,4.883,0
1542735253.305,66.895,29.297,39.551,109.375,65.918,0
1542735253.309,35.645,26.855,48.828,64.941,5.371,0
1542735253.313,21.484,27.344,45.898,66.406,-8.301,0
1542735253.317,55.664,25.879,44.922,103.516,32.715,0
1542735253.321,88.867,21.973,54.199,127.441,58.105,0
1542735253.324,88.867,23.438,54.199,145.020,90.332,0
1542735253.328,113.281,25.879,51.270,155.762,59.570,0
1542735253.332,134.277,31.250,51.758,168.457,62.500,0
1542735253.336,123.047,43.457,43.457,146.973,64.453,0
1542735253.340,103.516,41.504,40.039,130.371,39.551,0
1542735253.344,102.539,38.086,41.504,131.348,54.199,0
1542735253.348,104.980,34.180,41.016,130.371,81.543,0
1542735253.352,103.027,31.738,39.062,136.719,38.574,0
1542735253.356,98.633,28.809,38.086,140.625,30.762,0
1542735253.360,96.680,26.367,38.574,139.648,56.152,0
1542735253.364,104.492,30.273,41.016,140.137,25.391,0
1542735253.367,97.168,31.738,42.969,135.742,21.484,0
1542735253.371,92.285,34.668,43.945,138.672,2.441,0
1542735253.375,97.168,33.691,43.457,132.812,23.438,0
1542735253.379,86.914,32.227,40.527,111.328,32.227,0
1542735253.383,74.707,33.203,42.969,115.723,37.109,0
1542735253.387,71.777,31.738,43.457,120.117,43.945,0
1542735253.391,77.637,29.785,45.898,103.516,20.020,0
1542735253.395,73.242,28.320,43.457,97.656,70.312,0
1542735253.399,59.570,32.715,39.062,105.469,94.727,0
1542735253.403,55.664,33.203,38.574,107.910,95.215,0
1542735253.406,63.477,33.203,38.574,104.492,90.820,0
1542735253.410,64.941,35.645,43.945,99.609,24.414,0
1542735253.414,61.035,38.574,41.992,83.984,10.254,0
1542735253.418,61.035,37.598,38.574,87.402,47.363,0
1542735253.422,50.293,33.691,38.086,90.820,49.805,0
1542735253.426,40.039,32.715,35.645,84.961,40.039,0
1542735253.430,49.805,32.227,35.645,72.266,7.812,0
1542735253.434,42.969,29.297,35.645,48.828,18.066,0
1542735253.438,28.320,28.320,35.156,60.059,58.594,0
1542735253.442,28.320,30.762,35.645,66.895,67.871,0
1542735253.446,24.902,31.250,39.062,59.082,70.312,0
1542735253.449,24.902,33.691,38.574,60.547,62.988,0
1542735253.453,27.832,37.109,35.645,61.035,74.707,0
1542735253.457,22.949,33.203,37.109,51.758,67.871,0
1542735253.461,20.508,34.180,36.621,51.758,19.043,0
1542735253.465,12.695,35.156,30.273,47.852,8.301,0
1542735253.469,7.324,31.738,33.203,44.434,45.898,0
1542735253.473,14.160,33.691,36.621,44.434,83.008,0
1542735253.477,16.602,33.691,32.227,45.898,44.434,0
1542735253.481,9.766,34.668,32.227,33.691,14.160,0
1542735253.485,6.348,33.691,34.180,36.133,1.953,0
1542735253.489,11.230,34.668,31.738,42.969,22.461,0
1542735253.492,13.672,36.621,34.180,40.039,43.945,0
1542735253.496,8.789,36.621,35.645,45.898,32.715,0
1542735253.500,11.719,34.180,36.133,36.621,31.738,0
1542735253.504,15.137,35.156,35.156,24.414,-2.441,0
1542735253.508,17.578,34.180,35.156,37.598,-31.250,0
1542735253.512,19.531,33.691,37.109,39.551,24.414,0
1542735253.516,20.508,36.621,38.086,41.016,120.605,0
1542735253.520,20.020,37.109,40.039,51.758,103.516,0
1542735253.524,20.996,39.062,39.062,51.758,-10.742,0
1542735253.528,20.996,38.574,43.945,52.246,-34.668,0
1542735253.531,20.508,34.180,43.457,62.012,3.418,0
1542735253.535,35.156,36.621,41.016,70.801,-0.488,0
1542735253.539,47.363,42.969,43.945,76.660,-12.695,0
1542735253.543,35.645,42.969,39.062,52.734,-20.996,0
1542735253.547,14.648,45.898,27.832,16.602,19.531,0
1542735253.551,-14.160,44.922,30.273,-1.465,53.223,0
1542735253.555,-22.949,36.621,35.156,-0.977,17.090,0
1542735253.559,-15.625,40.039,33.691,-4.395,10.254,0
1542735253.563,-25.391,39.551,31.738,-13.672,29.297,0
1542735253.567,-18.066,33.203,32.227,0.977,42.969,0
1542735253.571,1.953,37.598,32.227,24.414,36.621,0
1542735253.574,2.441,38.574,32.715,21.973,72.754,0
1542735253.578,-3.906,35.645,29.785,-3.418,91.309,0
1542735253.582,-2.441,37.598,33.691,14.160,56.641,0
1542735253.586,6.836,40.527,35.645,28.320,63.965,0
1542735253.590,11.230,37.598,29.297,20.508,83.984,0
1542735253.594,4.883,40.039,30.273,26.855,44.434,0
1542735253.598,0.977,44.434,32.715,37.598,25.879,0
1542735253.602,11.719,41.016,35.156,36.621,20.508,0
1542735253.606,12.695,40.039,38.086,39.551,-11.230,0
1542735253.610,2.930,39.551,36.621,33.691,55.664,0
1542735253.614,11.230,38.574,32.227,25.879,86.914,0
1542735253.617,19.043,39.551,35.156,32.715,21.973,0
1542735253.621,20.996,41.504,34.668,30.762,5.371,0
1542735253.625,15.625,41.992,32.715,33.203,-13.672,0
1542735253.629,6.836,37.598,36.621,37.598,20.996,0
1542735253.633,18.555,36.621,35.156,30.273,38.574,0
1542735253.637,15.625,38.574,33.203,35.156,-11.230,0
1542735253.641,10.742,38.086,33.691,40.039,9.766,0
1542735253.645,11.719,37.598,28.809,29.785,21.484,0
1542735253.649,5.859,35.156,25.879,28.320,26.367,0
1542735253.653,7.324,34.668,29.297,15.625,11.719,0
1542735253.656,14.648,35.156,30.762,19.043,2.441,0
1542735253.660,9.766,33.203,32.715,33.203,3.906,0
1542735253.664,11.719,30.273,33.203,36.133,41.992,0
1542735253.668,19.531,33.203,33.203,39.062,69.336,0
1542735253.672,13.184,37.109,34.668,28.809,19.043,0
1542735253.676,20.508,34.180,35.645,31.250,10.254,0
1542735253.680,22.949,36.621,35.645,31.250,41.504,0
1542735253.684,18.555,38.086,36.621,32.715,80.078,0
1542735253.688,18.555,35.156,36.621,39.551,69.824,0
1542735253.692,19.531,36.133,34.180,21.484,40.527,0
1542735253.696,19.043,36.621,35.156,21.973,47.852,0
1542735253.699,21.484,39.551,33.691,31.250,43.945,0
1542735253.703,28.809,41.016,32.715,35.645,20.508,0
1542735253.707,20.020,42.969,35.645,36.133,45.898,0
1542735253.711,20.996,38.574,34.180,44.434,22.949,0
1542735253.715,45.410,26.855,38.574,72.266,-7.812,0
1542735253.719,60.059,34.668,41.016,65.918,0.977,0
1542735253.723,39.551,47.852,27.344,39.551,7.812,0
1542735253.727,22.461,52.734,15.625,30.273,5.371,0
1542735253.731,35.156,47.363,19.043,40.527,20.020,0
1542735253.735,39.062,45.898,22.949,47.363,17.578,0
1542735253.739,29.297,53.223,12.207,50.293,18.066,0
1542735253.742,47.852,54.688,10.742,64.453,62.988,0
1542735253.746,53.711,48.340,16.113,61.523,89.355,0
1542735253.750,47.363,45.410,15.625,58.594,54.199,0
1542735253.754,53.223,50.293,14.160,54.199,24.414,0
1542735253.758,53.223,51.270,14.648,53.223,28.809,0
1542735253.762,49.805,49.805,12.207,45.898,13.184,0
1542735253.766,45.898,48.828,15.625,41.016,52.734,0
1542735253.770,47.852,46.387,22.461,49.805,69.336,0
1542735253.774,49.316,47.363,22.949,57.129,22.949,0
1542735253.778,37.598,46.387,20.996,51.270,37.109,0
1542735253.781,29.785,43.457,22.461,47.363,77.148,0
1542735253.785,33.691,42.969,20.020,43.945,76.660,0
1542735253.789,40.039,44.922,18.555,51.758,67.871,0
1542735253.793,44.434,44.922,23.438,55.176,56.152,0
1542735253.797,42.969,45.898,22.949,48.340,51.758,0
1542735253.801,42.969,44.922,22.461,59.570,46.875,0
1542735253.805,41.504,41.504,27.832,60.059,10.254,0
1542735253.809,42.480,41.992,25.391,47.852,-44.922,0
1542735253.813,42.480,40.039,25.391,47.852,-37.109,0
1542735253.817,39.062,41.016,26.855,44.434,10.254,0
1542735253.821,46.875,44.922,25.391,49.805,68.359,0
1542735253.824,42.969,43.457,26.367,47.363,45.410,0
1542735253.828,43.945,43.457,28.320,43.945,-14.648,0
1542735253.832,48.340,44.922,31.738,49.805,-3.906,0
1542735253.836,42.969,42.969,32.715,50.293,24.902,0
1542735253.840,37.598,42.969,27.344,50.293,61.523,0
1542735253.844,41.016,39.551,27.832,43.945,70.312,0
1542735253.848,37.109,40.039,32.715,44.434,23.926,0
1542735253.852,29.785,43.457,31.738,44.922,41.992,0
1542735253.856,32.227,41.504,32.715,44.434,121.094,0
1542735253.860,29.785,42.969,33.203,44.922,74.707,0
1542735253.864,36.133,45.410,33.203,41.992,22.949,0
1542735253.867,38.574,43.457,31.738,41.016,18.555,0
1542735253.871,31.250,40.527,33.203,44.434,16.602,0
1542735253.875,30.762,41.016,34.180,38.574,57.617,0
1542735253.879,34.668,38.574,31.738,33.203,72.266,0
1542735253.883,28.809,35.156,27.344,41.016,43.945,0
1542735253.887,17.090,35.645,25.391,34.668,37.598,0
1542735253.891,23.438,37.598,30.762,20.020,48.340,0
1542735253.895,29.297,36.621,32.715,26.367,62.012,0
1542735253.899,30.762,34.668,32.227,43.457,73.730,0
1542735253.903,26.367,36.621,31.250,42.969,36.621,0
1542735253.906,22.461,35.156,36.133,31.738,-18.555,0
1542735253.910,29.785,32.715,37.109,28.320,15.137,0
1542735253.914,27.832,35.156,34.180,39.062,88.379,0
1542735253.918,27.832,36.133,31.738,36.133,66.895,0
1542735253.922,32.715,36.133,31.250,26.855,49.805,0
1542735253.926,38.086,39.551,38.086,38.086,13.672,0
1542735253.930,39.551,41.016,39.062,36.133,43.945,0
1542735253.934,32.715,35.645,37.109,37.109,134.766,0
1542735253.938,30.273,34.668,37.109,36.133,122.070,0
1542735253.942,31.738,35.645,33.691,31.250,90.332,0
1542735253.946,31.738,36.621,34.668,42.480,41.504,0
1542735253.949,32.715,41.992,37.598,42.969,25.391,0
1542735253.953,32.227,42.480,39.551,33.691,83.984,0
1542735253.957,30.273,39.062,38.574,34.180,27.344,0
1542735253.961,35.156,38.086,36.133,41.016,-21.973,0
1542735253.965,30.273,40.039,35.645,42.480,17.578,0
1542735253.969,35.156,39.062,36.133,33.203,6.348,0
1542735253.973,37.109,34.180,37.109,35.645,19.043,0
1542735253.977,31.250,33.691,37.598,37.109,38.574,0
1542735253.981,32.227,38.086,39.062,41.992,7.812,0
1542735253.985,33.203,38.086,38.574,50.781,10.742,0
1542735253.989,32.227,33.203,31.738,47.852,37.109,0
1542735253.992,33.203,36.133,34.668,37.109,12.695,0
1542735253.996,33.203,39.551,40.527,30.273,-21.484,0
1542735254.000,27.832,37.598,36.621,39.062,26.855,0
1542735254.004,31.250,36.621,34.668,46.387,14.160,0
1542735254.008,33.691,37.109,37.109,41.992,22.949,0
1542735254.012,21.484,39.551,37.109,39.062,89.844,0
1542735254.016,26.367,41.504,34.668,42.969,20.508,0
1542735254.020,29.785,41.016,36.621,45.410,-2.441,0
1542735254.024,33.691,42.969,41.504,48.828,34.180,0
1542735254.028,38.086,44.922,40.527,45.410,47.363,0
1542735254.031,35.645,45.410,33.203,48.340,46.387,0
1542735254.035,41.504,41.992,32.715,50.781,42.969,0
1542735254.039,35.645,39.062,33.203,49.805,34.180,0
1542735254.043,35.156,39.551,33.691,46.387,4.395,0
1542735254.047,35.156,41.016,35.156,42.969,-13.184,0
1542735254.051,30.273,39.551,34.668,49.316,15.137,0
1542735254.055,32.227,35.645,34.668,42.969,56.152,0
1542735254.059,29.785,41.504,36.133,35.645,16.113,0
1542735254.063,32.227,41.992,39.551,41.016,49.316,0
1542735254.067,38.574,38.086,44.434,49.316,45.410,0
1542735254.071,41.992,43.457,44.922,47.852,41.992,0
1542735254.074,46.387,43.457,41.992,46.387,5.859,0
1542735254.078,39.551,39.062,39.062,50.293,-12.695,0
1542735254.082,34.668,37.109,39.062,44.434,61.035,0
1542735254.086,46.875,38.574,41.016,49.316,62.988,0
1542735254.090,35.645,36.133,40.039,48.828,61.035,0
1542735254.094,27.832,29.785,37.598,42.480,7.324,0
1542735254.098,36.621,31.738,38.574,45.410,-23.926,0
1542735254.102,38.574,36.621,38.574,40.527,15.625,0
1542735254.106,41.504,36.133,35.645,45.410,59.570,0
1542735254.110,43.457,33.203,37.109,49.805,41.992,0
1542735254.114,41.016,31.250,39.551,31.738,9.277,0
1542735254.117,34.180,35.156,36.621,44.434,36.621,0
1542735254.121,29.297,39.551,35.645,55.664,3.906,0
1542735254.125,37.109,36.621,36.133,34.180,-3.418,0
1542735254.129,42.480,35.156,35.645,29.785,67.383,0
1542735254.133,45.410,35.645,36.133,32.715,20.508,0
1542735254.137,33.203,30.762,39.551,37.598,8.301,0
1542735254.141,24.414,32.715,39.062,43.945,90.820,0
1542735254.145,36.133,33.203,39.551,41.992,93.750,0
1542735254.149,34.668,30.762,45.898,50.293,38.086,0
1542735254.153,30.762,40.039,47.852,51.270,47.852,0
1542735254.156,32.715,31.738,42.969,47.852,35.156,0
1542735254.160,35.645,21.484,36.621,51.270,1.953,0
1542735254.164,36.621,25.391,34.668,54.199,5.859,0
1542735254.168,44.922,27.832,40.039,59.082,-1.953,0
1542735254.172,41.992,28.320,44.434,49.316,31.250,0
1542735254.176,38.574,28.320,41.992,45.410,90.820,0
1542735254.180,41.016,27.832,41.016,41.992,23.438,0
1542735254.184,47.852,33.691,40.527,44.922,-25.391,0
1542735254.188,46.875,32.715,42.480,50.781,-32.227,0
1542735254.192,33.691,25.879,43.945,50.293,20.508,0
1542735254.196,39.062,34.180,43.945,55.176,89.355,0
1542735254.199,42.969,40.039,49.805,62.012,37.598,0
1542735254.203,36.133,34.180,47.852,57.617,20.996,0
1542735254.207,37.598,31.250,43.457,46.875,54.199,0
1542735254.211,44.434,31.738,47.363,48.828,42.480,0
1542735254.215,43.945,33.203,47.852,55.176,40.039,0
1542735254.219,40.527,32.715,36.133,51.758,58.594,0
1542735254.223,37.598,30.762,28.320,38.574,29.297,0
1542735254.227,32.715,32.227,28.320,35.156,12.207,0
1542735254.231,41.504,37.109,30.762,39.062,55.664,0
1542735254.235,38.086,40.527,36.621,47.852,36.621,0
1542735254.239,33.203,37.598,41.016,65.918,-13.184,0
1542735254.242,27.832,30.762,42.480,51.270,16.113,0
1542735254.246,33.691,31.250,38.086,25.391,55.664,0
1542735254.250,34.180,36.133,37.109,23.926,33.691,0
1542735254.254,33.691,35.156,41.016,27.344,34.668,0
1542735254.258,28.809,30.762,39.062,31.738,28.809,0
1542735254.262,30.762,34.180,33.691,40.039,50.781,0
1542735254.266,37.109,36.621,33.203,43.457,1.953,0
1542735254.270,35.645,31.738,38.086,49.805,-59.082,0
1542735254.274,27.832,29.297,40.039,48.340,34.668,0
1542735254.278,22.949,33.203,40.527,40.527,59.570,0
1542735254.281,33.691,34.180,42.969,37.109,20.508,0
1542735254.285,37.598,34.668,40.039,34.668,53.711,0
1542735254.289,62.988,44.434,36.621,56.152,89.844,0
1542735254.293,83.008,41.016,45.898,81.055,54.199,0
1542735254.297,32.227,21.973,52.734,42.480,12.207,0
1542735254.301,0.488,15.625,54.199,9.766,6.348,0
1542735254.305,26.367,17.578,60.547,35.645,9.277,0
1542735254.309,38.574,18.555,59.082,58.105,25.879,0
1542735254.313,46.387,21.484,57.129,72.754,13.184,0
1542735254.317,54.688,21.973,62.012,69.824,45.410,0
1542735254.321,56.641,25.879,62.012,72.754,70.312,0
1542735254.324,55.176,27.344,56.641,64.941,37.598,0
1542735254.328,35.156,21.484,49.805,50.781,45.898,0
1542735254.332,36.133,19.531,45.898,51.758,4.883,0
1542735254.336,44.922,22.461,49.316,49.805,-28.809,0
1542735254.340,43.457,30.273,51.270,58.594,1.465,0
1542735254.344,42.969,32.227,48.828,48.828,35.156,0
1542735254.348,40.039,22.949,48.828,39.062,41.016,0
1542735254.352,50.781,21.973,47.852,50.781,24.902,0
1542735254.356,62.012,29.785,47.363,56.152,44.922,0
1542735254.360,53.711,31.250,44.922,61.035,28.809,0
1542735254.364,47.852,29.297,41.992,57.617,22.461,0
1542735254.367,44.922,29.297,41.992,58.594,24.414,0
1542735254.371,43.945,27.832,41.992,58.594,38.086,0
1542735254.375,45.898,30.762,41.016,45.410,47.363,0
1542735254.379,37.598,28.809,41.504,48.340,31.738,0
1542735254.383,25.391,28.320,39.551,49.805,5.859,0
1542735254.387,30.273,27.832,39.551,41.992,-12.695,0
1542735254.391,36.133,28.320,37.109,32.227,-26.367,0
1542735254.395,34.668,34.668,36.621,39.062,-13.672,0
1542735254.399,41.992,39.551,35.645,47.363,16.113,0
1542735254.403,47.363,40.039,34.180,41.504,20.020,0
1542735254.406,35.645,32.715,39.062,40.527,3.906,0
1542735254.410,30.762,29.297,36.133,44.922,-4.883,0
1542735254.414,39.062,30.762,32.227,36.621,37.598,0
1542735254.418,31.738,32.227,39.551,27.832,61.035,0
1542735254.422,36.621,32.715,42.969,40.527,18.555,0
1542735254.426,36.133,30.762,37.598,46.387,0.977,0
1542735254.430,20.020,31.250,34.668,31.738,36.621,0
1542735254.434,29.297,35.645,36.621,31.250,61.523,0
1542735254.438,32.227,39.062,36.621,42.969,49.805,0
1542735254.442,21.973,31.250,37.109,43.457,14.160,0
1542735254.446,22.461,24.902,39.551,42.969,48.340,0
1542735254.449,28.320,25.879,35.645,43.945,30.762,0
1542735254.453,33.203,25.879,36.621,50.293,-6.836,0
1542735254.457,40.527,28.320,39.551,47.852,24.414,0
1542735254.461,37.109,30.273,38.574,38.574,17.578,0
1542735254.465,34.180,30.273,38.086,27.832,56.152,0
1542735254.469,41.504,32.715,39.062,42.480,61.523,0
1542735254.473,37.598,34.668,35.645,47.852,52.734,0
1542735254.477,30.762,35.156,29.785,38.574,83.496,0
1542735254.481,39.551,36.133,36.621,49.316,50.781,0
1542735254.485,31.738,36.621,39.062,46.387,27.344,0
1542735254.489,42.480,39.062,37.109,60.059,32.715,0
1542735254.492,54.199,39.062,46.387,62.988,-0.488,0
1542735254.496,29.297,33.203,53.711,39.551,13.184,0
1542735254.500,20.020,30.762,46.387,31.738,-5.371,0
1542735254.504,17.090,35.645,43.457,20.508,-11.230,0
1542735254.508,7.324,31.738,46.875,10.742,41.016,0
1542735254.512,-4.395,22.949,46.387,0.977,69.824,0
1542735254.516,-8.789,23.926,43.945,3.418,62.988,0
1542735254.520,1.465,30.762,43.945,10.742,42.480,0
1542735254.524,2.441,35.645,45.898,0.000,54.688,0
1542735254.528,-16.602,36.621,48.340,-7.812,67.383,0
1542735254.531,-15.137,31.738,46.387,-7.324,73.242,0
1542735254.535,-2.441,29.297,42.480,3.906,70.312,0
1542735254.539,15.625,32.227,45.410,22.461,86.914,0
1542735254.543,19.043,30.273,47.852,22.461,90.332,0
1542735254.547,16.113,25.391,40.039,23.438,80.078,0
1542735254.551,18.066,26.855,39.062,16.113,79.102,0
1542735254.555,18.555,32.715,42.969,16.113,31.738,0
1542735254.559,26.855,37.109,36.621,28.809,-5.371,0
1542735254.563,27.344,41.016,41.504,32.227,16.602,0
1542735254.567,30.762,39.062,45.410,35.156,49.316,0
1542735254.571,36.621,38.574,40.527,38.086,57.129,0
1542735254.574,32.715,39.551,37.109,33.691,21.484,0
1542735254.578,31.738,33.691,33.691,30.273,14.648,0
1542735254.582,36.621,33.203,33.691,29.785,34.180,0
1542735254.586,34.668,33.691,35.645,36.621,19.043,0
1542735254.590,30.273,34.668,34.668,43.945,10.254,0
1542735254.594,37.109,41.992,32.715,29.297,-2.441,0
1542735254.598,34.180,35.645,30.762,22.461,-4.883,0
1542735254.602,34.668,30.273,31.250,41.016,-27.832,0
1542735254.606,38.574,32.227,35.156,40.527,-36.621,0
1542735254.610,32.227,35.156,37.598,31.738,5.859,0
1542735254.614,42.480,36.621,38.574,37.598,19.043,0
1542735254.617,32.227,35.645,41.016,32.715,39.551,0
1542735254.621,20.996,36.621,39.551,27.344,-0.488,0
1542735254.625,31.250,38.574,36.133,31.250,-22.949,0
1542735254.629,36.133,40.039,34.180,32.227,25.391,0
1542735254.633,30.762,40.039,36.621,33.203,59.570,0
1542735254.637,27.832,39.551,36.621,33.691,63.477,0
1542735254.641,27.344,39.551,28.320,34.668,28.809,0
1542735254.645,33.691,43.945,35.156,32.227,29.297,0
1542735254.649,35.156,43.945,43.945,27.832,23.438,0
1542735254.653,31.250,42.969,38.574,33.691,12.695,0
1542735254.656,31.250,41.016,37.598,33.203,35.156,0
1542735254.660,31.250,34.668,32.227,30.762,71.777,0
1542735254.664,28.809,36.621,30.762,39.551,102.051,0
1542735254.668,24.902,43.945,37.598,36.133,90.332,0
1542735254.672,25.391,36.621,36.133,28.320,69.824,0
1542735254.676,29.785,29.297,35.645,32.715,91.309,0
1542735254.680,27.832,32.715,34.180,44.434,64.941,0
1542735254.684,28.320,32.227,31.250,46.387,31.250,0
1542735254.688,33.691,39.062,36.133,44.922,1.953,0
1542735254.692,29.785,41.504,41.992,48.340,-4.395,0
1542735254.696,25.879,32.227,37.109,38.574,20.996,0
1542735254.699,29.297,32.715,37.598,33.691,38.574,0
1542735254.703,30.273,37.598,43.457,41.016,27.832,0
1542735254.707,32.715,35.645,39.551,42.480,17.578,0
1542735254.711,31.250,32.715,33.203,43.457,25.391,0
1542735254.715,23.926,39.062,33.691,37.109,39.551,0
1542735254.719,18.066,38.086,35.156,26.367,36.621,0
1542735254.723,24.902,28.320,35.645,31.250,0.000,0
1542735254.727,26.367,31.250,34.668,39.062,8.301,0
1542735254.731,17.578,30.762,24.414,38.086,5.371,0
1542735254.735,16.113,28.809,23.926,32.227,9.766,0
1542735254.739,20.508,34.180,38.574,31.738,34.668,0
1542735254.742,17.090,35.156,36.133,36.133,-29.785,0
1542735254.746,15.625,26.855,34.668,17.090,22.949,0
1542735254.750,15.625,20.020,41.016,0.488,68.359,0
1542735254.754,9.277,18.066,33.691,13.184,-16.602,0
1542735254.758,15.137,19.531,30.762,22.949,22.461,0
1542735254.762,20.020,26.367,36.621,27.344,36.621,0
1542735254.766,16.113,33.203,36.133,24.902,-6.836,0
1542735254.770,22.461,30.273,34.668,32.715,49.316,0
1542735254.774,28.809,25.391,34.180,39.062,108.887,0
1542735254.778,23.926,28.320,40.039,37.598,69.336,0
1542735254.781,23.926,30.762,43.457,33.203,-4.883,0
1542735254.785,20.508,29.785,31.738,30.762,-9.277,0
1542735254.789,17.090,34.180,33.203,43.945,17.090,0
1542735254.793,19.043,31.738,48.340,41.504,34.668,0
1542735254.797,25.391,24.902,47.363,19.531,44.434,0
1542735254.801,32.227,32.715,41.504,22.461,34.668,0
1542735254.805,25.879,41.992,41.016,23.926,92.285,0
1542735254.809,24.414,35.645,41.992,27.832,68.359,0
1542735254.813,24.414,30.273,38.574,32.715,16.113,0
1542735254.817,23.438,33.203,33.203,32.227,58.594,0
1542735254.821,26.855,30.273,32.227,30.762,34.668,0
1542735254.824,22.949,29.785,33.203,34.668,32.715,0
1542735254.828,18.555,27.344,33.691,38.574,15.137,0
1542735254.832,20.020,27.344,32.715,19.531,24.902,0
1542735254.836,27.344,34.668,35.156,12.207,8.789,0
1542735254.840,32.715,37.598,33.691,23.926,0.488,0
1542735254.844,30.273,34.180,36.133,33.203,56.152,0
1542735254.848,25.391,33.203,36.621,28.809,27.832,0
1542735254.852,29.297,39.062,33.203,27.344,31.250,0
1542735254.856,32.715,42.480,37.109,41.016,25.879,0
1542735254.860,24.902,36.133,34.668,40.527,-2.441,0
1542735254.864,20.996,35.645,35.156,23.438,25.391,0
1542735254.867,27.344,43.457,32.715,24.902,-0.488,0
1542735254.871,25.391,36.621,27.832,36.621,2.930,0
1542735254.875,22.461,32.715,30.762,44.922,32.715,0
1542735254.879,33.691,35.156,32.227,38.086,43.945,0
1542735254.883,34.668,35.645,34.668,19.531,56.152,0
1542735254.887,23.438,39.551,37.109,24.902,2.441,0
1542735254.891,24.902,41.504,41.992,40.039,10.254,0
1542735254.895,22.949,35.645,37.109,38.574,-3.906,0
1542735254.899,37.109,31.738,32.715,38.086,-49.316,0
1542735254.903,50.293,37.109,38.086,50.293,2.441,0
1542735254.906,19.531,29.785,43.945,31.738,30.273,0
1542735254.910,15.625,20.020,39.551,3.906,39.062,0
1542735254.914,33.691,20.020,36.133,15.137,46.387,0
1542735254.918,26.367,30.762,44.922,24.902,52.246,0
1542735254.922,31.738,39.062,40.527,36.133,-3.906,0
1542735254.926,28.809,29.297,36.133,32.227,-73.242,0
1542735254.930,13.672,23.438,40.527,17.578,-18.555,0
1542735254.934,3.418,26.855,39.062,21.973,77.148,0
1542735254.938,10.254,28.809,39.551,29.785,81.055,0
1542735254.942,28.320,28.809,46.387,33.203,22.949,0
1542735254.946,20.020,25.879,47.852,38.086,93.750,0
1542735254.949,27.832,25.391,37.109,49.805,101.562,0
1542735254.953,41.016,29.785,35.645,38.086,58.105,0
1542735254.957,6.348,34.668,39.551,17.578,59.570,0
1542735254.961,-0.488,30.762,34.180,27.832,18.555,0
1542735254.965,16.113,34.668,37.598,33.691,51.270,0
1542735254.969,19.531,48.340,39.551,23.926,51.758,0
1542735254.973,24.414,41.016,34.668,18.066,25.879,0
1542735254.977,24.414,22.949,38.086,24.902,26.367,0
1542735254.981,30.762,27.832,41.504,36.133,11.230,0
1542735254.985,30.762,34.668,40.527,35.645,30.273,0
1542735254.989,34.668,33.691,41.504,36.621,76.660,0
1542735254.992,41.504,32.227,37.598,40.527,28.809,0
1542735254.996,31.738,33.691,33.691,30.762,-11.719,0
1542735255.000,36.133,36.621,32.715,33.691,48.828,0
1542735255.004,36.133,34.180,29.785,33.203,53.223,0
1542735255.008,27.832,31.738,29.785,24.902,31.738,0
1542735255.012,31.250,37.109,31.250,24.414,43.945,0
1542735255.016,31.250,40.527,33.203,33.203,62.988,0
1542735255.020,25.391,30.762,29.785,31.738,62.988,0
1542735255.024,23.926,23.926,29.297,22.461,26.367,0
1542735255.028,30.762,33.203,33.691,24.902,65.430,0
1542735255.031,30.762,38.574,31.738,31.738,78.613,0
1542735255.035,25.391,29.785,33.203,25.391,78.613,0
1542735255.039,27.344,26.855,31.250,23.926,57.129,0
1542735255.043,37.598,30.762,33.203,31.738,38.574,0
1542735255.047,37.109,30.762,38.086,32.227,74.219,0
1542735255.051,36.133,35.156,39.551,24.902,60.547,0
1542735255.055,41.016,36.621,39.551,23.438,-11.230,0
1542735255.059,34.668,36.133,37.598,36.133,-52.734,0
1542735255.063,36.133,37.109,30.762,41.992,30.273,0
1542735255.067,34.180,28.809,27.344,37.598,82.520,0
1542735255.071,23.438,27.832,28.809,23.926,8.301,0
1542735255.074,27.344,33.691,29.785,15.137,39.551,0
1542735255.078,31.250,39.551,31.738,23.926,32.227,0
1542735255.082,27.832,41.504,40.527,31.250,-2.930,0
1542735255.086,36.621,36.133,48.340,33.691,-2.441,0
1542735255.090,35.156,39.551,44.434,33.203,3.418,0
1542735255.094,28.320,39.551,37.109,42.480,36.133,0
1542735255.098,33.203,36.133,33.691,42.480,45.410,0
1542735255.102,32.227,38.086,32.227,38.574,27.832,0
1542735255.106,31.250,37.598,36.621,41.016,16.602,0
1542735255.110,35.645,37.598,38.574,44.922,17.578,0
1542735255.114,34.180,37.598,35.645,38.086,14.160,0
1542735255.117,33.203,42.480,40.527,24.414,54.199,0
1542735255.121,37.109,40.527,41.992,24.902,9.766,0
1542735255.125,38.574,36.133,40.527,30.762,10.742,0
1542735255.129,31.738,38.086,35.156,31.738,42.969,0
1542735255.133,27.832,39.551,29.785,30.762,9.277,0
1542735255.137,29.785,34.668,29.785,32.715,-2.441,0
1542735255.141,25.391,33.203,26.855,35.156,46.875,0
1542735255.145,25.879,35.156,36.621,28.809,17.578,0
1542735255.149,33.203,40.527,42.969,25.879,31.738,0
1542735255.153,34.180,41.504,38.086,26.367,62.500,0
1542735255.156,41.504,49.316,38.574,35.156,79.590,0
1542735255.160,33.691,43.457,34.668,33.203,88.867,0
1542735255.164,23.438,27.344,31.738,16.602,94.238,0
1542735255.168,27.832,28.809,34.668,26.367,66.895,0
1542735255.172,23.438,30.273,40.039,32.227,-7.812,0
1542735255.176,30.762,32.227,39.062,31.250,30.762,0
1542735255.180,29.297,38.574,38.086,25.879,64.453,0
1542735255.184,24.902,40.039,42.969,22.949,24.414,0
1542735255.188,33.203,40.527,39.062,30.273,38.086,0
1542735255.192,27.832,32.715,35.156,35.645,24.902,0
1542735255.196,18.555,30.762,34.180,21.484,10.742,0
1542735255.199,17.090,38.574,34.180,17.090,44.922,0
1542735255.203,21.973,34.180,38.574,14.648,54.199,0
1542735255.207,31.738,32.715,41.992,15.625,91.309,0
1542735255.211,26.855,34.180,37.598,22.461,20.996,0
1542735255.215,18.066,30.273,32.715,28.809,-3.906,0
1542735255.219,23.926,39.551,30.273,32.715,124.512,0
1542735255.223,37.109,46.875,35.645,30.762,63.965,0
1542735255.227,27.832,30.762,38.086,29.785,-20.020,0
1542735255.231,24.414,22.461,35.645,32.227,-16.602,0
1542735255.235,38.086,32.715,33.203,36.133,-53.711,0
1542735255.239,35.645,36.133,34.668,33.691,-52.246,0
1542735255.242,39.062,41.992,40.527,38.574,7.812,0
1542735255.246,40.527,43.945,38.574,43.945,-14.648,0
1542735255.250,41.504,34.668,35.156,33.691,-16.113,0
1542735255.254,42.969,29.785,41.504,32.715,35.156,0
1542735255.258,38.574,31.250,44.922,41.016,26.855,0
1542735255.262,41.992,34.180,41.016,39.551,35.156,0
1542735255.266,48.340,36.621,47.852,49.805,34.668,0
1542735255.270,49.316,40.039,46.387,54.688,10.742,0
1542735255.274,41.992,38.574,37.109,41.504,-8.789,0
1542735255.278,33.691,37.598,40.039,43.457,27.832,0
1542735255.281,25.879,36.133,39.551,39.062,74.219,0
1542735255.285,28.809,36.133,38.086,24.414,93.750,0
1542735255.289,39.551,42.480,40.039,35.156,32.715,0
1542735255.293,47.852,38.574,41.016,50.781,15.137,0
1542735255.297,42.480,31.250,37.598,45.410,39.062,0
1542735255.301,33.203,31.738,36.133,28.320,30.273,0
1542735255.305,35.156,35.156,36.621,30.762,21.973,0
1542735255.309,39.062,35.156,40.039,44.434,10.254,0
1542735255.313,41.992,29.785,36.621,42.969,30.273,0
1542735255.317,38.574,29.785,34.180,43.457,9.277,0
1542735255.321,37.598,39.062,36.621,42.480,13.672,0
1542735255.324,39.062,40.039,34.668,39.062,37.109,0
1542735255.328,35.156,39.062,39.551,41.016,27.832,0
1542735255.332,34.668,34.180,48.340,44.434,18.066,0
1542735255.336,48.340,19.531,48.828,52.734,48.828,0
1542735255.340,72.754,32.715,44.434,79.102,68.848,0
1542735255.344,65.430,55.664,29.785,60.059,66.406,0
1542735255.348,24.902,50.293,31.250,25.879,52.734,0
1542735255.352,8.789,46.875,35.156,25.879,22.949,0
1542735255.356,-2.930,50.781,27.832,2.441,15.625,0
1542735255.360,-24.414,50.781,17.090,-24.902,30.762,0
1542735255.364,-24.902,49.316,10.742,-22.949,28.809,0
1542735255.367,-26.855,54.199,15.625,-37.598,62.988,0
1542735255.371,-45.898,68.848,10.254,-55.176,55.176,0
1542735255.375,-34.180,69.824,-1.465,-52.246,-11.230,0
1542735255.379,-35.645,58.105,-15.137,-61.523,59.570,0
1542735255.383,-60.059,63.965,-28.320,-75.684,63.477,0
1542735255.387,-56.152,70.801,-28.809,-73.242,7.324,0
1542735255.391,-38.574,77.637,-29.785,-64.453,44.922,0
1542735255.395,-48.340,92.285,-40.527,-81.543,84.961,0
1542735255.399,-69.824,86.914,-43.945,-94.238,87.891,0
1542735255.403,-61.035,76.660,-41.504,-77.148,53.223,0
1542735255.406,-45.410,78.613,-43.945,-64.941,50.293,0
1542735255.410,-49.805,83.984,-52.734,-84.961,-2.930,0
1542735255.414,-55.664,86.914,-49.805,-85.938,8.789,0
1542735255.418,-41.016,84.473,-44.434,-69.824,62.500,0
1542735255.422,-33.691,81.055,-39.062,-58.594,58.594,0
1542735255.426,-30.762,79.102,-34.668,-48.828,82.520,0
1542735255.430,-14.160,82.520,-29.297,-35.156,100.098,0
1542735255.434,-2.930,87.891,-18.066,-35.156,30.273,0
1542735255.438,-4.395,74.219,-12.207,-31.738,19.043,0
1542735255.442,-1.465,64.941,-11.230,-20.996,52.734,0
1542735255.446,11.230,70.801,-11.230,-16.113,54.688,0
1542735255.449,2.441,63.477,-10.254,-19.531,30.762,0
1542735255.453,-2.930,56.152,-6.836,-18.555,10.742,0
1542735255.457,3.906,58.594,-4.395,-4.883,-25.391,0
1542735255.461,5.371,56.641,-2.441,0.977,-25.391,0
1542735255.465,2.441,54.688,-1.465,0.000,46.387,0
1542735255.469,15.137,55.176,2.930,5.859,43.457,0
1542735255.473,23.438,55.664,7.324,14.160,64.453,0
1542735255.477,15.625,50.781,7.324,20.508,64.453,0
1542735255.481,15.625,50.781,10.742,20.508,37.598,0
1542735255.485,20.020,58.594,17.090,7.812,58.594,0
1542735255.489,18.066,54.199,23.926,5.371,41.992,0
1542735255.492,21.484,44.922,19.531,19.043,41.016,0
1542735255.496,26.367,47.852,13.672,19.043,26.367,0
1542735255.500,21.973,52.246,15.137,20.020,1.953,0
1542735255.504,21.973,43.457,18.066,16.602,15.625,0
1542735255.508,22.949,40.039,25.879,19.531,31.738,0
1542735255.512,25.391,43.945,28.809,27.832,15.625,0
1542735255.516,21.973,43.457,24.414,24.414,13.672,0
1542735255.520,20.996,41.992,25.879,20.020,58.105,0
1542735255.524,25.879,39.062,28.809,13.672,75.684,0
1542735255.528,19.531,39.551,26.367,13.184,43.457,0
1542735255.531,19.043,41.504,24.902,15.625,13.672,0
1542735255.535,20.996,41.992,25.879,24.414,-2.930,0
1542735255.539,23.438,41.992,23.926,20.996,20.996,0
1542735255.543,62.500,33.691,34.180,56.152,63.965,0
1542735255.547,95.703,43.945,37.598,95.215,25.391,0
1542735255.551,45.898,62.012,17.090,46.387,2.441,0
1542735255.555,15.137,57.129,11.230,16.113,2.930,0
1542735255.559,58.105,62.500,20.020,44.434,1.465,0
1542735255.563,86.426,64.453,20.508,70.312,31.250,0
1542735255.567,97.168,50.293,9.277,83.008,20.996,0
1542735255.571,104.492,53.711,-8.301,87.891,-21.484,0
1542735255.574,104.980,61.035,-6.348,88.867,-19.043,0
1542735255.578,101.074,62.988,3.418,87.891,21.973,0
1542735255.582,103.027,60.547,-0.488,94.727,63.477,0
1542735255.586,114.258,57.129,-0.488,109.375,70.312,0
1542735255.590,113.770,60.547,1.465,105.957,66.895,0
1542735255.594,104.980,60.059,0.000,93.750,54.688,0
1542735255.598,103.516,60.547,3.418,97.168,42.480,0
1542735255.602,106.445,62.012,4.883,97.656,51.270,0
1542735255.606,100.098,62.500,11.719,92.773,38.086,0
1542735255.610,103.027,70.801,22.461,100.586,6.348,0
1542735255.614,106.445,65.918,18.555,91.309,-8.301,0
1542735255.617,94.727,52.734,17.090,84.961,15.625,0
1542735255.621,88.867,52.246,16.602,92.285,34.668,0
1542735255.625,89.355,54.199,12.695,78.613,3.418,0
1542735255.629,83.496,51.758,17.578,73.242,41.504,0
1542735255.633,80.566,53.223,20.996,74.219,88.867,0
1542735255.637,86.914,54.688,19.531,78.125,68.848,0
1542735255.641,86.426,54.199,23.926,75.195,24.414,0
1542735255.645,78.613,54.199,29.785,66.406,17.090,0
1542735255.649,75.684,59.082,36.133,64.941,59.082,0
1542735255.653,70.801,60.547,33.203,66.895,19.531,0
1542735255.656,68.359,50.781,20.996,64.941,2.441,0
1542735255.660,68.848,47.363,20.020,59.082,34.668,0
1542735255.664,60.547,44.922,19.531,62.012,20.508,0
1542735255.668,55.664,36.133,18.066,61.523,-3.906,0
1542735255.672,51.270,39.062,23.438,58.105,29.297,0
1542735255.676,52.246,45.898,25.391,58.594,-16.113,0
1542735255.680,57.617,41.992,23.926,63.965,-15.625,0
1542735255.684,56.152,40.039,29.785,57.129,85.938,0
1542735255.688,47.852,38.574,33.691,41.992,69.824,0
1542735255.692,45.410,31.250,26.367,48.828,44.922,0
1542735255.696,47.363,36.133,22.461,50.293,20.508,0
1542735255.699,52.246,41.992,27.832,44.434,-23.438,0
1542735255.703,57.617,44.434,33.691,41.504,17.578,0
1542735255.707,46.387,43.945,29.297,41.504,46.387,0
1542735255.711,37.109,36.621,26.367,40.527,24.414,0
1542735255.715,44.922,35.645,30.273,48.340,25.391,0
1542735255.719,44.922,38.574,28.320,46.387,-5.371,0
1542735255.723,40.527,36.133,23.438,37.598,1.465,0
1542735255.727,43.457,37.598,29.297,43.945,74.707,0
1542735255.731,34.668,41.992,35.645,42.480,44.434,0
1542735255.735,31.738,39.062,27.832,31.738,0.000,0
1542735255.739,38.574,35.156,26.367,30.762,-6.348,0
1542735255.742,37.109,37.109,34.668,41.504,-26.855,0
1542735255.746,45.898,39.551,39.062,66.406,17.578,0
1542735255.750,67.871,45.410,41.504,81.055,28.320,0
1542735255.754,51.758,48.340,31.250,42.480,39.551,0
1542735255.758,29.785,50.293,24.902,18.066,36.621,0
1542735255.762,40.527,54.199,24.414,29.297,62.988,0
1542735255.766,45.898,43.945,19.531,35.645,54.688,0
1542735255.770,44.434,40.039,23.438,35.156,31.250,0
1542735255.774,35.645,43.945,32.227,26.367,66.895,0
1542735255.778,34.180,43.945,33.203,25.879,119.629,0
1542735255.781,41.016,43.457,24.902,26.367,91.797,0
1542735255.785,45.410,39.062,20.996,27.832,48.828,0
1542735255.789,39.062,40.527,20.996,38.574,83.984,0
1542735255.793,31.738,47.363,25.391,38.086,44.434,0
1542735255.797,36.133,48.340,27.832,27.832,28.320,0
1542735255.801,43.457,48.340,24.414,30.762,37.109,0
1542735255.805,45.410,46.387,29.297,34.668,7.324,0
1542735255.809,48.828,42.480,38.086,39.062,11.230,0
1542735255.813,42.969,34.668,39.551,50.293,62.500,0
1542735255.817,41.016,34.180,38.574,46.387,65.918,0
1542735255.821,43.457,36.133,35.645,37.598,33.691,0
1542735255.824,38.086,32.715,29.785,43.945,45.898,0
1542735255.828,36.133,37.109,28.320,38.086,91.797,0
1542735255.832,40.527,38.086,32.715,48.340,63.965,0
1542735255.836,39.062,38.086,34.180,57.129,16.113,0
1542735255.840,43.457,41.992,37.109,49.805,11.719,0
1542735255.844,53.711,49.805,42.969,46.387,22.461,0
1542735255.848,51.758,51.270,41.504,37.598,40.039,0
1542735255.852,45.410,34.668,36.133,38.574,17.578,0
1542735255.856,52.246,27.344,37.109,54.688,33.691,0
1542735255.860,45.410,27.832,42.969,53.223,42.969,0
1542735255.864,47.363,27.832,37.598,42.480,-2.930,0
1542735255.867,47.852,32.715,37.109,41.992,12.207,0
1542735255.871,31.738,38.574,50.781,36.621,47.363,0
1542735255.875,37.109,44.922,47.363,44.922,7.324,0
1542735255.879,44.922,41.016,43.945,49.805,19.531,0
1542735255.883,47.852,31.738,46.387,45.410,72.266,0
1542735255.887,43.457,29.297,44.434,44.922,-19.043,0
1542735255.891,47.363,36.621,41.992,45.898,-43.457,0
1542735255.895,47.852,40.039,39.062,41.992,56.641,0
1542735255.899,34.180,30.273,38.574,34.180,45.410,0
1542735255.903,38.086,24.902,38.086,36.621,34.180,0
1542735255.906,45.898,29.297,39.551,39.551,53.223,0
1542735255.910,39.062,26.367,37.598,37.598,31.738,0
1542735255.914,34.668,27.832,34.668,39.062,63.965,0
1542735255.918,43.457,33.203,38.574,38.574,58.105,0
1542735255.922,43.457,35.156,40.527,46.875,51.270,0
1542735255.926,41.504,33.691,37.598,48.828,48.340,0
1542735255.930,47.363,31.738,38.574,52.246,54.199,0
1542735255.934,51.758,32.227,41.504,56.641,55.176,0
1542735255.938,52.734,35.645,44.434,55.176,33.203,0
1542735255.942,45.898,39.551,41.504,47.852,30.273,0
1542735255.946,61.523,38.574,34.180,59.570,50.781,0
1542735255.949,82.031,33.691,31.250,80.566,19.531,0
1542735255.953,60.547,20.508,41.504,62.500,-26.855,0
1542735255.957,32.227,10.742,49.316,45.410,3.906,0
1542735255.961,34.668,7.324,50.293,48.340,41.016,0
1542735255.965,38.086,4.395,51.758,51.270,60.547,0
1542735255.969,42.480,8.301,58.594,56.152,34.668,0
1542735255.973,42.480,9.766,71.289,54.199,58.105,0
1542735255.977,35.156,9.277,67.383,46.875,88.867,0
1542735255.981,25.879,1.953,57.617,41.504,22.461,0
1542735255.985,25.391,3.906,61.035,41.992,8.301,0
1542735255.989,38.574,15.625,68.848,49.805,68.359,0
1542735255.992,40.527,18.555,65.430,53.223,38.574,0
1542735255.996,34.180,13.672,54.199,52.246,-3.906,0
1542735256.000,37.598,16.602,59.082,57.129,20.996,0
1542735256.004,43.457,22.949,58.105,48.340,14.648,0
1542735256.008,38.574,13.672,53.223,41.992,-0.977,0
1542735256.012,35.645,6.836,57.129,47.852,31.738,0
1542735256.016,30.762,16.113,55.664,52.246,10.254,0
1542735256.020,23.926,20.508,53.711,51.758,34.668,0
1542735256.024,29.297,17.090,54.688,46.875,31.250,0
1542735256.028,33.203,20.020,49.805,37.598,0.977,0
1542735256.031,26.367,21.484,44.434,40.527,49.316,0
1542735256.035,29.297,25.879,51.758,47.852,61.035,0
1542735256.039,33.203,39.551,57.129,47.852,51.270,0
1542735256.043,29.297,37.598,49.805,44.922,42.969,0
1542735256.047,28.320,19.531,48.340,41.992,55.176,0
1542735256.051,27.832,17.578,46.387,32.227,28.809,0
1542735256.055,33.203,20.020,41.504,35.156,4.883,0
1542735256.059,36.621,21.484,44.922,40.039,14.160,0
1542735256.063,37.598,29.785,44.922,40.039,-2.930,0
1542735256.067,37.598,32.715,39.551,41.016,9.277,0
1542735256.071,27.344,28.809,34.668,29.297,35.156,0
1542735256.074,20.508,21.973,34.180,20.508,64.941,0
1542735256.078,23.438,22.461,41.504,27.344,57.129,0
1542735256.082,25.879,30.762,45.898,31.738,69.336,0
1542735256.086,24.414,30.762,43.457,29.785,71.289,0
1542735256.090,21.973,30.273,38.574,30.762,44.922,0
1542735256.094,27.344,34.668,34.668,22.949,54.199,0
1542735256.098,26.855,39.062,38.086,14.648,52.734,0
1542735256.102,24.902,39.062,38.086,18.555,-2.441,0
1542735256.106,24.902,34.668,36.133,20.996,28.320,0
1542735256.110,16.113,30.273,44.922,22.461,60.547,0
1542735256.114,10.742,24.902,42.480,19.043,-3.906,0
1542735256.117,7.324,22.461,37.598,10.742,17.578,0
1542735256.121,5.371,25.879,37.109,3.418,15.137,0
1542735256.125,8.789,25.391,38.574,6.348,-30.273,0
1542735256.129,12.207,23.926,37.109,10.742,-9.766,0
1542735256.133,14.160,25.879,34.668,16.602,38.086,0
1542735256.137,15.137,27.344,37.109,17.090,78.125,0
1542735256.141,17.090,28.320,37.109,13.184,30.762,0
1542735256.145,21.973,31.250,37.598,12.207,20.508,0
1542735256.149,16.602,28.320,37.598,18.066,55.664,0
1542735256.153,9.277,27.832,35.645,26.367,36.621,0
1542735256.156,20.508,35.645,38.574,19.043,36.621,0
1542735256.160,23.926,37.109,38.574,10.742,17.090,0
1542735256.164,41.992,29.297,34.180,11.230,-4.883,0
1542735256.168,30.273,25.391,37.598,25.879,56.641,0
1542735256.172,-9.766,25.879,35.156,20.020,68.359,0
1542735256.176,-6.836,28.320,26.855,-2.930,46.875,0
1542735256.180,-12.207,38.574,33.691,-6.836,36.133,0
1542735256.184,-9.766,40.039,39.062,0.488,-2.930,0
1542735256.188,12.207,30.762,38.086,19.531,-8.789,0
1542735256.192,15.137,29.785,41.992,20.996,13.184,0
1542735256.196,-3.906,34.180,42.969,-0.977,5.859,0
1542735256.199,-2.930,37.109,39.062,-6.348,52.734,0
1542735256.203,2.930,37.598,41.016,0.488,95.703,0
1542735256.207,-1.953,40.527,42.480,2.930,29.785,0
1542735256.211,-1.953,41.504,43.945,0.488,31.738,0
1542735256.215,-10.254,36.133,36.621,-8.301,24.414,0
1542735256.219,-16.113,33.691,27.832,-0.977,-49.316,0
1542735256.223,-13.672,35.156,28.809,-0.977,-14.648,0
1542735256.227,-8.301,41.504,26.855,-1.953,60.059,0
1542735256.231,-4.883,42.480,23.438,1.465,53.711,0
1542735256.235,-10.254,38.086,29.297,-12.207,21.484,0
1542735256.239,-9.766,38.574,30.762,-12.207,-25.879,0
1542735256.242,-3.418,38.086,26.367,-3.418,-2.930,0
1542735256.246,-4.395,41.992,28.320,-11.719,30.273,0
1542735256.250,-8.789,39.062,32.227,-15.137,3.906,0
1542735256.254,-11.719,40.039,32.227,-7.324,-13.184,0
1542735256.258,-12.207,44.922,39.062,-9.277,-5.371,0
1542735256.262,-20.020,33.203,44.922,-20.020,6.836,0
1542735256.266,-16.113,34.180,43.457,-20.508,17.578,0
1542735256.270,-8.789,41.992,30.762,-18.555,40.527,0
1542735256.274,-14.160,38.574,25.391,-22.461,21.484,0
1542735256.278,-25.391,37.109,31.250,-26.367,28.320,0
1542735256.281,-22.461,43.457,31.250,-24.902,48.828,0
1542735256.285,-25.879,45.410,37.109,-24.414,40.039,0
1542735256.289,-36.133,38.574,37.598,-29.785,74.219,0
1542735256.293,-30.762,35.156,33.203,-29.785,83.984,0
1542735256.297,-27.832,34.180,31.250,-25.391,33.203,0
1542735256.301,-30.273,34.668,33.203,-21.973,17.578,0
1542735256.305,-29.785,37.109,34.668,-25.879,27.832,0
1542735256.309,-24.902,36.621,26.855,-23.926,15.137,0
1542735256.313,-22.461,31.250,31.250,-17.578,31.250,0
1542735256.317,-24.902,36.133,37.598,-16.602,6.836,0
1542735256.321,-20.020,42.969,36.133,-15.625,9.766,0
1542735256.324,-26.855,38.574,39.062,-25.391,57.129,0
1542735256.328,-29.785,39.062,30.273,-29.785,98.633,0
1542735256.332,-26.367,45.410,24.414,-35.156,93.262,0
1542735256.336,-18.555,47.363,33.691,-39.551,58.105,0
1542735256.340,-21.973,43.945,33.203,-41.504,53.223,0
1542735256.344,-31.250,37.598,33.691,-39.551,49.805,0
1542735256.348,-20.996,35.645,39.062,-34.668,43.457,0
1542735256.352,-21.484,37.109,41.504,-25.391,30.273,0
1542735256.356,-23.438,38.086,39.551,-28.320,0.488,0
1542735256.360,-12.695,34.668,37.109,-29.785,6.348,0
1542735256.364,10.742,32.227,35.645,2.441,56.641,0
1542735256.367,23.438,40.039,30.273,15.137,50.781,0
1542735256.371,0.977,48.340,28.320,-13.672,12.207,0
1542735256.375,-23.438,62.500,24.414,-37.109,-19.043,0
1542735256.379,-33.691,70.801,16.602,-42.969,13.672,0
1542735256.383,-29.785,60.547,4.883,-45.898,-14.160,0
1542735256.387,-27.832,58.594,-7.812,-38.086,-18.066,0
1542735256.391,-26.855,62.988,-3.906,-40.039,24.902,0
1542735256.395,-10.254,65.918,5.371,-33.203,22.949,0
1542735256.399,-8.301,66.406,1.465,-32.715,27.832,0
1542735256.403,-27.344,60.547,7.812,-44.922,62.012,0
1542735256.406,-26.855,61.035,11.719,-38.086,20.020,0
1542735256.410,-11.719,60.547,3.906,-26.367,8.789,0
1542735256.414,-7.812,55.176,7.812,-18.066,43.945,0
1542735256.418,-10.742,57.617,14.160,-19.043,41.016,0
1542735256.422,-9.277,55.176,12.695,-20.020,56.152,0
1542735256.426,-0.488,57.129,10.742,-25.879,62.988,0
1542735256.430,6.836,57.617,12.695,-22.461,61.523,0
1542735256.434,9.766,52.246,15.625,-21.484,62.988,0
1542735256.438,6.836,56.641,17.090,-26.367,63.965,0
1542735256.442,-11.230,52.734,20.508,-18.066,-20.996,0
1542735256.446,-8.789,47.363,21.973,-18.066,9.277,0
1542735256.449,2.441,49.805,20.996,-18.555,38.086,0
1542735256.453,-0.488,48.340,22.461,-13.184,-16.602,0
1542735256.457,2.930,49.316,25.391,-9.766,69.336,0
1542735256.461,8.301,54.199,25.879,-6.836,62.012,0
1542735256.465,11.230,46.387,23.438,-4.395,15.625,0
1542735256.469,12.695,35.645,24.902,-7.324,38.086,0
1542735256.473,15.137,39.062,28.320,-1.465,30.273,0
1542735256.477,12.207,40.527,31.250,2.441,32.227,0
1542735256.481,12.695,38.574,26.367,-1.953,87.402,0
1542735256.485,9.277,39.062,27.832,-1.953,113.281,0
1542735256.489,10.254,39.551,30.762,2.930,98.633,0
1542735256.492,12.695,40.527,30.273,2.441,49.316,0
1542735256.496,4.883,41.016,31.738,-4.883,22.949,0
1542735256.500,9.766,41.992,29.297,-6.348,18.555,0
1542735256.504,13.672,46.387,27.832,-1.465,13.184,0
1542735256.508,6.836,43.457,29.297,-2.441,-9.766,0
1542735256.512,0.977,33.691,29.297,-7.324,-44.434,0
1542735256.516,-2.930,29.297,27.344,-14.648,-35.156,0
1542735256.520,5.859,35.645,31.250,-18.066,26.367,0
1542735256.524,8.789,41.016,30.762,-14.648,39.062,0
1542735256.528,9.277,40.039,33.203,-8.301,6.836,0
1542735256.531,20.020,38.086,40.527,0.977,0.000,0
1542735256.535,17.578,36.133,36.133,11.230,-2.441,0
1542735256.539,14.160,38.086,29.297,3.418,23.926,0
1542735256.543,21.973,37.109,35.645,-0.977,14.648,0
1542735256.547,19.531,37.109,33.203,12.207,54.688,0
1542735256.551,12.695,38.086,30.273,19.043,126.465,0
1542735256.555,21.484,40.039,39.551,24.902,68.848,0
1542735256.559,26.367,48.828,41.992,10.742,78.613,0
1542735256.563,20.508,37.109,36.133,0.488,124.512,0
1542735256.567,26.367,25.879,32.715,7.812,74.707,0
1542735256.571,21.973,30.762,29.297,1.953,23.926,0
1542735256.574,12.695,31.250,33.691,1.465,33.203,0
1542735256.578,16.113,31.738,39.551,9.766,74.219,0
1542735256.582,17.090,32.715,38.086,15.625,28.320,0
1542735256.586,32.715,44.922,43.457,19.043,1.953,0
1542735256.590,44.434,58.105,55.176,21.484,75.684,0
1542735256.594,30.762,47.363,54.199,18.066,81.543,0
1542735256.598,15.137,43.457,45.898,2.441,42.969,0
1542735256.602,3.906,43.457,42.480,-11.719,45.410,0
1542735256.606,2.441,40.527,40.527,-11.719,40.039,0
1542735256.610,1.465,55.176,54.688,-4.883,23.926,0
1542735256.614,-14.160,57.129,56.152,-23.926,35.645,0
1542735256.617,-50.781,43.945,36.621,-60.059,16.602,0
1542735256.621,-43.457,54.688,40.039,-42.480,-17.090,0
1542735256.625,-49.316,67.383,59.082,-45.898,9.277,0
1542735256.629,-119.141,65.918,73.242,-113.281,56.152,0
1542735256.633,-144.531,83.496,70.312,-160.156,41.992,0
1542735256.637,-154.785,84.473,62.988,-173.340,5.859,0
1542735256.641,-165.039,66.895,71.777,-163.574,-9.277,0
1542735256.645,-172.852,68.359,82.031,-170.410,35.645,0
1542735256.649,-187.500,78.613,86.914,-194.336,52.734,0
1542735256.653,-187.012,69.824,88.379,-194.336,6.348,0
1542735256.656,-186.523,44.434,92.285,-185.059,-2.930,0
1542735256.660,-158.691,48.828,92.773,-163.086,59.082,0
1542735256.664,-143.066,48.828,93.750,-151.367,44.434,0
1542735256.668,-152.832,33.203,102.539,-158.691,26.367,0
1542735256.672,-130.859,31.738,99.121,-131.836,56.641,0
1542735256.676,-95.703,29.297,97.656,-91.797,7.812,0
1542735256.680,-81.543,16.602,98.145,-70.312,-9.766,0
1542735256.684,-53.223,10.742,88.867,-47.363,18.555,0
1542735256.688,-9.766,13.672,82.031,-7.324,17.090,0
1542735256.692,7.324,9.766,80.078,20.508,41.016,0
1542735256.696,32.715,2.441,71.777,42.969,83.496,0
1542735256.699,77.637,2.930,66.895,70.312,36.133,0
1542735256.703,93.750,-0.977,67.383,92.285,19.043,0
1542735256.707,114.746,-5.371,59.570,124.512,61.523,0
1542735256.711,137.695,-10.742,59.570,160.156,44.434,0
1542735256.715,154.297,-18.555,62.500,174.316,-7.812,0
1542735256.719,183.105,-21.484,56.641,196.777,-3.906,0
1542735256.723,201.660,-23.438,57.617,230.469,-31.250,0
1542735256.727,219.727,-19.531,49.316,250.977,-23.926,0
1542735256.731,239.258,-15.137,46.387,249.023,-19.043,0
1542735256.735,244.629,-12.695,49.805,242.676,-39.062,0
1542735256.739,236.328,-9.277,48.828,244.141,-6.836,0
1542735256.742,242.676,-6.348,45.410,245.605,25.391,0
1542735256.746,245.605,-10.742,37.109,259.766,14.648,0
1542735256.750,233.887,-13.672,34.180,253.906,42.969,0
1542735256.754,239.258,-6.836,34.180,244.141,51.758,0
1542735256.758,239.746,-5.371,29.785,239.258,7.324,0
1542735256.762,226.074,-5.371,28.320,228.027,45.410,0
1542735256.766,221.680,-4.883,31.250,225.098,36.133,0
1542735256.770,210.938,-4.883,32.715,224.609,29.297,0
1542735256.774,198.730,-2.441,32.715,211.426,20.020,0
1542735256.778,200.684,-0.977,35.156,201.660,-5.859,0
1542735256.781,200.684,0.977,33.203,214.844,33.203,0
1542735256.785,201.660,4.883,30.273,209.473,52.734,0
1542735256.789,199.219,9.277,33.691,203.613,63.965,0
1542735256.793,190.430,13.184,35.645,202.148,41.992,0
1542735256.797,182.617,14.160,32.715,187.500,-7.812,0
1542735256.801,180.664,17.090,32.715,177.246,15.137,0
1542735256.805,185.059,20.508,37.598,185.059,59.082,0
1542735256.809,174.805,20.508,34.668,177.246,48.340,0
1542735256.813,163.574,18.555,33.691,156.738,58.594,0
1542735256.817,154.785,19.531,40.527,156.738,29.785,0
1542735256.821,151.855,22.461,41.992,153.320,53.711,0
1542735256.824,145.996,22.949,39.551,148.926,96.191,0
1542735256.828,142.090,24.414,38.086,147.949,66.406,0
1542735256.832,138.672,27.344,37.598,135.742,65.918,0
1542735256.836,128.418,25.879,37.598,122.070,36.133,0
1542735256.840,131.348,27.344,39.551,125.488,-19.043,0
1542735256.844,135.254,30.273,42.480,130.859,7.324,0
1542735256.848,124.023,29.297,41.992,125.000,42.969,0
1542735256.852,111.816,26.367,35.645,118.652,11.719,0
1542735256.856,109.863,24.902,32.227,116.211,7.324,0
1542735256.860,109.863,28.809,40.039,111.816,42.969,0
1542735256.864,105.469,29.297,42.969,106.934,42.969,0
1542735256.867,102.051,26.855,36.621,111.328,-15.625,0
1542735256.871,91.797,27.344,36.133,115.234,9.766,0
1542735256.875,87.891,29.785,37.598,102.051,17.578,0
1542735256.879,97.656,34.668,36.621,78.125,3.906,0
1542735256.883,93.750,36.621,37.109,76.660,30.762,0
1542735256.887,89.355,35.645,40.039,83.008,14.160,0
1542735256.891,86.426,33.203,40.527,90.820,66.895,0
1542735256.895,82.031,30.273,41.504,93.262,95.703,0
1542735256.899,79.590,33.203,41.992,83.008,70.801,0
1542735256.903,84.961,34.180,43.945,89.355,40.527,0
1542735256.906,95.215,32.227,44.434,94.727,53.711,0
1542735256.910,80.078,31.738,38.574,88.867,94.727,0
1542735256.914,66.895,32.227,37.109,84.473,51.758,0
1542735256.918,74.219,35.156,36.133,63.477,59.570,0
1542735256.922,69.824,35.645,32.715,62.500,81.055,0
1542735256.926,66.406,34.668,31.250,73.730,56.641,0
1542735256.930,63.477,30.762,33.691,77.637,50.781,0
1542735256.934,69.336,32.715,34.668,63.965,24.902,0
1542735256.938,80.078,33.203,38.574,59.570,12.207,0
1542735256.942,65.918,32.715,42.480,68.848,12.207,0
1542735256.946,59.082,35.645,38.086,68.359,7.812,0
1542735256.949,55.176,33.203,38.574,65.918,15.137,0
1542735256.953,58.594,32.715,39.551,76.172,22.949,0
1542735256.957,53.711,35.156,37.109,80.566,20.996,0
1542735256.961,57.617,34.180,38.574,64.453,-4.395,0
1542735256.965,65.918,36.133,41.016,54.199,31.738,0
1542735256.969,64.453,41.992,39.062,64.453,61.035,0
1542735256.973,63.477,39.551,39.062,64.941,54.199,0
1542735256.977,60.059,34.180,40.527,52.246,23.926,0
1542735256.981,60.547,34.668,41.016,45.410,67.871,0
1542735256.985,58.594,32.715,44.922,54.688,81.543,0
1542735256.989,50.293,34.180,40.527,52.246,1.953,0
1542735256.992,41.992,32.227,40.039,46.875,49.805,0
1542735256.996,41.504,31.738,48.340,62.012,73.730,0
1542735257.000,47.852,41.992,47.363,61.523,2.930,0
1542735257.004,52.246,42.969,40.039,44.922,22.949,0
1542735257.008,52.734,34.180,38.086,40.039,41.504,0
1542735257.012,51.758,34.180,42.480,41.992,29.297,0
1542735257.016,47.363,36.621,40.527,48.828,39.062,0
1542735257.020,48.828,35.645,36.133,54.199,17.578,0
1542735257.024,52.734,37.598,38.574,56.152,46.875,0
1542735257.028,47.852,40.039,41.504,50.781,9.277,0
1542735257.031,48.828,40.527,39.062,46.387,-48.828,0
1542735257.035,47.852,41.504,36.621,42.480,17.090,0
1542735257.039,45.898,40.527,37.109,41.992,-17.578,0
1542735257.043,41.016,36.621,35.156,36.133,-43.945,0
1542735257.047,34.180,36.133,35.645,33.691,13.672,0
1542735257.051,51.758,39.062,40.039,42.480,-3.906,0
1542735257.055,56.641,39.551,42.480,50.293,24.414,0
1542735257.059,43.945,45.898,42.480,57.129,71.289,0
1542735257.063,44.922,46.387,41.992,51.270,62.988,0
1542735257.067,43.945,42.969,42.969,45.410,68.359,0
1542735257.071,42.480,44.434,44.922,62.012,9.766,0
1542735257.074,41.992,41.992,42.969,61.035,10.742,0
1542735257.078,44.434,41.504,39.551,40.527,104.492,0
1542735257.082,53.711,41.992,41.016,42.969,61.035,0
1542735257.086,55.176,45.898,43.945,44.434,56.641,0
1542735257.090,56.152,46.875,42.969,47.852,61.523,0
1542735257.094,52.734,41.992,40.039,56.641,55.664,0
1542735257.098,49.805,41.992,40.039,45.410,103.027,0
1542735257.102,50.781,45.410,43.945,47.852,92.285,0
1542735257.106,46.875,43.457,47.363,52.246,50.781,0
1542735257.110,57.617,41.016,43.457,50.781,47.852,0
1542735257.114,60.547,40.039,41.504,57.129,70.801,0
1542735257.117,58.594,40.039,44.922,59.570,50.293,0
1542735257.121,56.152,41.992,48.828,56.152,30.762,0
1542735257.125,45.898,49.316,48.828,65.430,36.133,0
1542735257.129,50.293,48.340,45.410,59.082,29.785,0
1542735257.133,63.965,44.922,44.434,41.992,0.488,0
1542735257.137,67.383,45.410,46.387,48.828,0.000,0
1542735257.141,57.617,46.875,43.945,62.500,28.809,0
1542735257.145,56.152,50.293,41.992,64.453,36.133,0
1542735257.149,61.523,46.387,45.410,59.570,0.000,0
1542735257.153,61.523,49.805,42.969,50.781,27.832,0
1542735257.156,58.594,59.570,40.039,58.594,58.594,0
1542735257.160,65.918,47.852,42.480,51.270,35.156,0
1542735257.164,56.152,35.156,41.504,42.480,9.277,0
1542735257.168,43.945,41.016,36.133,45.898,6.836,0
1542735257.172,48.828,41.504,36.621,51.270,-8.301,0
1542735257.176,55.176,41.016,37.109,45.898,3.418,0
1542735257.180,55.176,43.945,34.668,37.109,53.711,0
1542735257.184,49.805,42.969,34.180,42.969,43.945,0
1542735257.188,56.641,41.016,36.133,48.340,74.707,0
1542735257.192,53.711,38.574,38.086,45.410,50.781,0
1542735257.196,54.688,38.574,37.598,46.387,0.488,0
1542735257.199,66.406,40.039,37.598,53.223,16.602,0
1542735257.203,50.293,35.645,38.086,39.551,1.953,0
1542735257.207,38.086,37.109,36.621,33.203,21.484,0
1542735257.211,41.016,41.016,37.109,45.410,4.395,0
1542735257.215,47.363,40.527,36.621,45.898,0.488,0
1542735257.219,54.688,44.922,35.645,38.574,20.996,0
1542735257.223,54.688,45.410,36.133,43.945,20.996,0
1542735257.227,54.199,41.016,38.086,51.270,42.480,0
1542735257.231,57.617,41.016,41.504,43.457,55.664,0
1542735257.235,55.664,44.922,35.645,34.180,2.930,0
1542735257.239,59.570,45.898,30.273,38.574,-1.953,0
1542735257.242,64.453,46.875,35.645,47.852,35.156,0
1542735257.246,57.617,46.387,36.133,41.504,30.273,0
1542735257.250,57.129,43.945,34.180,36.621,13.184,0
1542735257.254,58.105,42.480,35.645,38.086,21.484,0
1542735257.258,60.547,44.434,35.645,43.945,54.688,0
1542735257.262,63.477,45.410,36.621,48.828,40.527,0
1542735257.266,63.477,42.480,35.645,50.293,8.789,0
1542735257.270,61.523,40.039,33.203,45.410,18.555,0
1542735257.274,62.012,38.086,37.109,47.363,28.320,0
1542735257.278,61.523,37.598,39.551,56.641,72.266,0
1542735257.281,53.711,39.551,38.086,44.434,48.340,0
1542735257.285,59.570,41.016,38.574,43.457,19.531,0
1542735257.289,61.035,42.480,39.062,48.828,6.348,0
1542735257.293,52.734,44.922,41.992,37.598,8.789,0
1542735257.297,53.711,41.504,42.969,34.668,5.859,0
