timestamps,TP9,AF7,AF8,TP10,Right AUX,Marker0
1553632863.722,-106.445,-10.742,29.297,-70.312,-219.238,0
1553632863.726,-94.727,-8.301,33.203,-78.613,-196.777,0
1553632863.730,-105.957,-6.348,38.574,-88.379,-251.953,0
1553632863.734,-121.582,2.930,42.480,-118.164,-241.211,0
1553632863.738,-126.465,3.906,41.992,-119.141,-167.480,0
1553632863.742,-121.094,8.301,49.805,-84.473,-192.871,0
1553632863.746,-124.512,6.348,41.992,-100.586,-147.949,0
1553632863.750,-106.934,12.207,25.879,-105.469,-113.770,0
1553632863.754,-111.816,24.414,20.020,-68.848,-127.930,0
1553632863.758,-120.605,17.090,19.043,-85.938,-144.043,0
1553632863.761,-140.137,13.184,29.785,-113.770,-87.402,0
1553632863.765,-135.742,21.973,24.414,-88.867,-67.871,0
1553632863.769,-113.281,28.320,22.949,-70.312,-129.395,0
1553632863.773,-124.023,31.250,30.273,-77.637,-50.293,0
1553632863.777,-132.324,42.480,35.645,-87.402,4.395,0
1553632863.781,-116.699,54.688,26.855,-67.871,-24.414,0
1553632863.785,-118.164,54.688,28.320,-68.848,-61.035,0
1553632863.789,-128.418,52.734,29.297,-91.797,-23.926,0
1553632863.793,-134.766,52.246,38.086,-82.520,-37.109,0
1553632863.797,-122.070,58.594,35.156,-75.684,-80.078,0
1553632863.801,-109.375,70.801,38.086,-77.148,-51.758,0
1553632863.804,-129.395,72.266,37.109,-61.523,-96.191,0
1553632863.808,-111.816,68.359,26.855,-55.176,-68.848,0
1553632863.812,-100.586,65.430,36.133,-57.129,-21.484,0
1553632863.816,-126.953,66.406,38.574,-44.922,-42.969,0
1553632863.820,-121.582,59.082,42.480,-28.320,-49.805,0
1553632863.824,-104.980,63.477,32.227,-41.992,-7.812,0
1553632863.828,-94.727,71.777,34.180,-46.875,-7.324,0
1553632863.832,-94.238,68.359,39.551,-45.410,-24.902,0
1553632863.836,-115.234,60.059,38.574,-38.086,-22.949,0
1553632863.840,-123.047,56.152,37.109,-39.551,-11.230,0
1553632863.844,-146.484,52.734,40.527,-62.012,-0.977,0
1553632863.847,-137.695,51.270,45.410,-91.309,-18.066,0
1553632863.851,-103.516,58.594,42.969,-88.867,-20.508,0
1553632863.855,-93.262,62.012,38.574,-20.020,-20.020,0
1553632863.859,-99.121,57.129,43.945,-12.207,13.672,0
1553632863.863,-125.977,53.711,37.598,-56.641,26.855,0
1553632863.867,-105.957,54.199,30.762,-42.969,21.973,0
1553632863.871,-91.309,54.688,29.785,-24.414,-19.531,0
1553632863.875,-130.371,54.199,36.133,-37.109,-24.414,0
1553632863.879,-152.344,52.246,40.039,-63.477,16.602,0
1553632863.883,-138.184,52.734,32.715,-55.176,55.176,0
1553632863.886,-129.395,57.129,34.668,-51.270,61.523,0
1553632863.890,-119.629,56.641,35.645,-71.289,-2.930,0
1553632863.894,-115.723,54.199,32.227,-50.293,-47.363,0
1553632863.898,-118.164,56.641,34.180,-47.852,30.762,0
1553632863.902,-129.883,57.129,35.156,-57.617,55.664,0
1553632863.906,-134.277,61.035,32.227,-50.781,3.906,0
1553632863.910,-123.535,60.547,32.715,-54.199,18.555,0
1553632863.914,-135.254,57.129,37.598,-52.734,52.734,0
1553632863.918,-135.742,59.570,34.180,-60.547,39.551,0
1553632863.922,-127.930,62.500,33.691,-34.668,-23.438,0
1553632863.926,-129.883,65.430,36.133,-19.043,31.738,0
1553632863.929,-143.066,62.988,28.320,-46.875,78.613,0
1553632863.933,-128.418,64.453,27.344,-68.848,22.949,0
1553632863.937,-108.398,64.941,37.109,-81.543,-40.527,0
1553632863.941,-105.469,60.059,34.180,-44.922,-0.977,0
1553632863.945,-133.301,55.176,34.668,-40.527,95.703,0
1553632863.949,-140.625,57.617,38.574,-60.059,56.152,0
1553632863.953,-137.207,55.664,39.551,-34.180,4.883,0
1553632863.957,-136.230,58.105,35.156,-39.551,17.578,0
1553632863.961,-114.746,63.965,33.203,-50.781,31.738,0
1553632863.965,-116.699,60.547,33.203,-57.129,17.090,0
1553632863.969,-124.023,63.477,31.738,-60.059,45.898,0
1553632863.972,-125.488,62.988,35.156,-49.316,95.215,0
1553632863.976,-128.906,57.129,34.668,-44.922,48.340,0
1553632863.980,-134.277,54.199,35.156,-52.734,40.039,0
1553632863.984,-134.277,52.734,34.180,-70.312,29.297,0
1553632863.988,-139.648,45.898,30.273,-67.383,-40.039,0
1553632863.992,-129.395,47.852,30.273,-70.801,-41.016,0
1553632863.996,-134.766,49.316,31.250,-72.754,21.484,0
1553632864.000,-124.512,38.574,29.297,-46.875,11.230,0
1553632864.004,-103.516,50.293,29.297,-31.250,-67.383,0
1553632864.008,-123.535,70.312,25.391,-81.055,-14.648,0
1553632864.011,-145.508,74.219,21.484,-124.023,46.875,0
1553632864.015,-136.719,79.590,16.602,-118.652,1.953,0
1553632864.019,-114.258,83.496,14.648,-97.656,47.363,0
1553632864.023,-129.883,82.031,12.207,-98.633,31.250,0
1553632864.027,-127.930,87.402,9.766,-105.469,36.621,0
1553632864.031,-109.863,84.961,15.625,-99.121,73.242,0
1553632864.035,-125.000,78.613,19.043,-99.121,93.750,0
1553632864.039,-133.789,80.566,20.996,-98.633,93.262,0
1553632864.043,-133.789,76.660,23.438,-105.469,41.504,0
1553632864.047,-113.770,76.660,19.531,-106.934,9.277,0
1553632864.051,-107.422,80.078,18.555,-103.027,67.383,0
1553632864.054,-103.516,80.078,20.020,-102.051,111.328,0
1553632864.058,-84.961,78.613,20.020,-83.008,105.957,0
1553632864.062,-87.402,80.566,23.438,-83.008,127.441,0
1553632864.066,-90.820,76.172,22.949,-95.215,46.387,0
1553632864.070,-85.938,71.289,24.902,-90.820,-12.207,0
1553632864.074,-83.008,77.148,24.414,-93.750,2.441,0
1553632864.078,-77.637,76.660,19.043,-106.934,44.434,0
1553632864.082,-66.895,77.637,18.066,-110.840,85.938,0
1553632864.086,-53.711,78.125,20.508,-98.145,53.711,0
1553632864.090,-59.082,69.824,22.461,-92.773,20.996,0
1553632864.094,-51.270,72.754,25.391,-92.773,24.414,0
1553632864.097,-27.832,81.543,25.391,-85.449,-23.926,0
1553632864.101,-18.066,81.543,22.461,-87.891,-5.859,0
1553632864.105,-18.066,83.496,18.066,-79.102,59.082,0
1553632864.109,-13.672,86.914,20.020,-76.660,83.008,0
1553632864.113,-10.254,87.891,24.902,-89.844,100.586,0
1553632864.117,-16.602,86.914,21.484,-75.684,69.824,0
1553632864.121,-16.602,80.078,17.578,-76.660,30.762,0
1553632864.125,-21.973,73.242,16.602,-103.027,20.020,0
1553632864.129,-20.020,72.754,17.090,-97.168,-13.184,0
1553632864.133,-14.648,68.848,17.578,-89.355,46.875,0
1553632864.136,0.977,70.801,15.625,-93.262,113.281,0
1553632864.140,17.578,66.406,18.555,-92.773,26.367,0
1553632864.144,-1.953,60.059,22.461,-98.145,-41.992,0
1553632864.148,-3.418,59.082,20.508,-116.699,32.227,0
1553632864.152,8.301,56.641,16.113,-126.465,70.801,0
1553632864.156,2.930,51.758,17.578,-109.863,32.227,0
1553632864.160,0.977,48.340,16.602,-101.074,27.832,0
1553632864.164,5.859,46.387,12.695,-124.023,64.453,0
1553632864.168,32.227,40.527,14.648,-127.441,50.781,0
1553632864.172,68.359,40.039,14.160,-120.605,19.531,0
1553632864.176,99.609,41.992,14.648,-115.723,-4.395,0
1553632864.179,115.723,38.574,14.648,-122.559,14.160,0
1553632864.183,120.605,42.969,12.695,-118.164,15.137,0
1553632864.187,112.305,41.992,10.742,-119.629,-10.742,0
1553632864.191,101.562,33.203,9.277,-134.277,-44.434,0
1553632864.195,97.168,35.645,12.207,-132.324,-10.742,0
1553632864.199,95.215,34.668,9.766,-132.324,48.340,0
1553632864.203,94.727,27.832,10.742,-137.695,9.277,0
1553632864.207,94.238,25.879,18.555,-128.418,-8.789,0
1553632864.211,85.449,19.531,20.996,-120.605,52.734,0
1553632864.215,66.406,14.648,20.020,-136.230,29.297,0
1553632864.219,65.430,16.602,20.020,-160.156,-35.645,0
1553632864.222,59.082,8.301,18.555,-157.715,-3.906,0
1553632864.226,45.410,0.977,16.113,-143.555,14.648,0
1553632864.230,39.062,0.000,16.113,-167.969,5.859,0
1553632864.234,39.062,-5.371,12.207,-183.594,15.137,0
1553632864.238,35.645,-12.695,10.254,-183.594,22.461,0
1553632864.242,38.574,-12.207,6.348,-194.824,42.480,0
1553632864.246,30.273,-11.719,6.348,-207.520,50.781,0
1553632864.250,9.277,-7.324,11.230,-206.055,48.828,0
1553632864.254,-5.371,5.371,7.812,-205.078,39.062,0
1553632864.258,-15.137,13.672,7.324,-211.426,-11.230,0
1553632864.261,-20.020,23.438,9.766,-215.820,-2.441,0
1553632864.265,-22.461,29.297,12.695,-215.820,8.301,0
1553632864.269,-20.996,31.738,17.578,-182.617,-9.277,0
1553632864.273,-26.367,38.086,16.602,-183.105,65.430,0
1553632864.277,-5.371,44.922,14.648,-195.801,39.551,0
1553632864.281,-2.930,43.457,18.066,-179.199,-25.879,0
1553632864.285,-40.527,37.598,18.555,-187.500,13.184,0
1553632864.289,-40.527,41.504,20.508,-192.383,45.410,0
1553632864.293,-26.367,48.828,21.484,-184.082,48.828,0
1553632864.297,-26.855,51.270,22.949,-173.828,5.371,0
1553632864.301,-36.133,49.316,25.879,-168.457,23.438,0
1553632864.304,-39.551,49.805,23.438,-164.551,39.062,0
1553632864.308,-47.852,55.176,20.508,-169.434,6.836,0
1553632864.312,-47.852,56.641,22.949,-163.574,11.230,0
1553632864.316,-45.898,53.223,22.461,-154.297,7.812,0
1553632864.320,-58.105,54.688,20.508,-172.363,16.602,0
1553632864.324,-64.941,59.570,21.484,-184.082,56.152,0
1553632864.328,-66.895,51.758,20.508,-193.359,48.828,0
1553632864.332,-63.965,45.410,19.531,-208.008,44.922,0
1553632864.336,-60.547,50.293,19.043,-214.355,93.262,0
1553632864.340,-61.035,51.758,17.578,-213.867,103.027,0
1553632864.344,-75.195,47.363,19.043,-213.867,30.273,0
1553632864.347,-88.867,42.969,20.508,-216.309,33.203,0
1553632864.351,-75.684,45.410,19.043,-214.844,63.965,0
1553632864.355,-77.148,46.875,17.578,-214.844,41.504,0
1553632864.359,-98.633,42.480,18.066,-200.684,0.488,0
1553632864.363,-100.098,42.480,19.043,-200.684,53.711,0
1553632864.367,-108.398,44.434,20.020,-214.844,92.285,0
1553632864.371,-107.910,49.316,21.484,-201.172,55.664,0
1553632864.375,-103.516,42.480,20.020,-189.453,-14.160,0
1553632864.379,-106.934,38.086,23.438,-187.500,11.230,0
1553632864.383,-101.562,44.434,27.344,-189.453,50.293,0
1553632864.386,-97.168,41.016,25.879,-179.688,-12.695,0
1553632864.390,-94.727,39.551,20.996,-177.246,-16.113,0
1553632864.394,-92.773,41.992,19.531,-201.172,69.336,0
1553632864.398,-106.934,35.645,22.461,-188.965,69.824,0
1553632864.402,-108.398,39.551,21.973,-161.621,40.527,0
1553632864.406,-106.445,41.504,20.508,-161.133,12.695,0
1553632864.410,-105.957,37.109,22.949,-169.922,-25.391,0
1553632864.414,-104.980,40.039,27.344,-175.293,14.160,0
1553632864.418,-105.469,41.504,28.320,-167.969,51.758,0
1553632864.422,-102.051,41.992,25.391,-162.598,20.508,0
1553632864.426,-105.957,39.062,27.832,-152.344,23.926,0
1553632864.429,-104.980,34.180,27.832,-145.508,25.879,0
1553632864.433,-95.703,38.086,27.344,-149.414,36.133,0
1553632864.437,-98.633,48.828,25.391,-146.484,109.375,0
1553632864.441,-103.027,45.898,24.414,-149.414,89.844,0
1553632864.445,-101.074,39.551,28.320,-142.578,13.672,0
1553632864.449,-106.445,44.434,29.297,-138.672,25.391,0
1553632864.453,-102.051,42.969,27.832,-155.762,23.926,0
1553632864.457,-105.957,43.457,26.367,-156.738,17.090,0
1553632864.461,-108.887,47.363,27.344,-145.020,74.707,0
1553632864.465,-102.051,41.016,28.320,-142.578,54.199,0
1553632864.469,-101.074,40.039,27.344,-145.020,37.109,0
1553632864.472,-102.539,41.504,26.855,-141.113,37.109,0
1553632864.476,-104.980,43.945,28.809,-138.672,47.363,0
1553632864.480,-107.422,43.945,24.414,-143.555,82.031,0
1553632864.484,-115.234,45.410,20.996,-146.973,80.566,0
1553632864.488,-103.027,48.340,23.438,-136.719,24.902,0
1553632864.492,-85.938,47.852,24.414,-119.141,-4.395,0
1553632864.496,-92.773,44.434,24.414,-119.629,29.785,0
1553632864.500,-98.145,45.898,25.879,-118.652,10.254,0
1553632864.504,-104.980,49.805,27.344,-123.535,-28.809,0
1553632864.508,-100.098,46.387,28.809,-122.559,5.859,0
1553632864.511,-96.680,45.898,26.367,-112.793,7.324,0
1553632864.515,-109.375,44.922,22.949,-122.559,22.461,0
1553632864.519,-106.445,46.387,22.461,-118.164,48.340,0
1553632864.523,-102.051,48.828,18.555,-114.746,47.852,0
1553632864.527,-107.910,51.270,18.555,-128.418,56.152,0
1553632864.531,-107.910,49.316,21.973,-124.512,62.988,0
1553632864.535,-105.957,46.387,23.926,-121.094,33.691,0
1553632864.539,-104.980,45.898,26.367,-103.516,32.227,0
1553632864.543,-110.352,43.945,26.367,-118.164,32.227,0
1553632864.547,-117.188,50.781,23.438,-138.672,24.414,0
1553632864.551,-111.328,57.129,22.461,-122.559,85.449,0
1553632864.554,-107.910,54.688,23.926,-112.793,99.609,0
1553632864.558,-114.746,46.875,26.855,-110.840,20.508,0
1553632864.562,-108.887,46.875,29.785,-104.980,-18.066,0
1553632864.566,-101.074,53.711,30.762,-101.562,-7.324,0
1553632864.570,-106.445,50.293,28.809,-101.562,15.625,0
1553632864.574,-106.934,46.875,27.344,-98.145,4.883,0
1553632864.578,-111.328,46.387,24.414,-107.910,-13.672,0
1553632864.582,-107.910,48.340,21.973,-103.516,28.809,0
1553632864.586,-101.074,41.504,24.902,-110.352,104.492,0
1553632864.590,-114.746,42.480,28.320,-121.094,76.172,0
1553632864.594,-123.535,51.270,23.438,-116.699,73.730,0
1553632864.597,-121.094,43.457,20.020,-115.234,110.840,0
1553632864.601,-122.559,34.668,25.879,-105.957,24.414,0
1553632864.605,-118.164,39.062,28.320,-104.980,-39.062,0
1553632864.609,-118.164,47.363,24.414,-108.887,18.555,0
1553632864.613,-120.605,52.734,22.949,-106.934,33.691,0
1553632864.617,-124.512,47.852,23.438,-106.934,19.043,0
1553632864.621,-125.977,41.016,24.414,-112.793,47.852,0
1553632864.625,-129.883,42.480,26.367,-109.863,20.508,0
1553632864.629,-130.859,43.457,29.785,-100.586,23.926,0
1553632864.633,-118.652,41.504,28.809,-83.496,63.965,0
1553632864.636,-124.512,45.898,27.344,-83.008,78.125,0
1553632864.640,-132.324,48.828,27.832,-98.633,30.273,0
1553632864.644,-129.395,52.246,26.367,-82.520,14.160,0
1553632864.648,-112.793,52.734,23.926,-80.078,103.516,0
1553632864.652,-101.074,53.711,23.438,-102.539,83.008,0
1553632864.656,-118.652,52.246,27.344,-90.820,6.836,0
1553632864.660,-116.699,47.363,29.785,-100.098,58.594,0
1553632864.664,-105.469,48.828,27.832,-108.887,41.504,0
1553632864.668,-109.863,49.805,27.344,-87.402,0.977,0
1553632864.672,-116.211,47.363,28.809,-81.543,28.320,0
1553632864.676,-111.816,45.410,25.391,-81.543,-0.977,0
1553632864.679,-102.051,45.898,23.438,-88.867,5.371,0
1553632864.683,-89.844,46.387,22.461,-100.586,24.902,0
1553632864.687,-92.773,49.805,19.531,-94.238,0.488,0
1553632864.691,-100.098,46.875,16.602,-73.242,8.789,0
1553632864.695,-76.660,43.945,10.742,-70.312,28.809,0
1553632864.699,-89.355,44.922,21.973,-75.195,-0.488,0
1553632864.703,-115.723,41.016,31.738,-89.844,4.395,0
1553632864.707,-94.238,36.133,25.879,-89.355,80.566,0
1553632864.711,-87.402,31.738,30.762,-78.613,54.199,0
1553632864.715,-86.914,24.414,36.133,-68.359,-20.996,0
1553632864.719,-42.969,20.020,34.668,-74.219,-10.254,0
1553632864.722,0.488,20.508,33.691,-75.195,31.738,0
1553632864.726,15.137,23.438,31.250,-79.102,56.152,0
1553632864.730,21.973,27.344,28.320,-78.613,14.648,0
1553632864.734,27.832,28.809,28.320,-78.125,37.598,0
1553632864.738,35.645,26.367,24.902,-66.895,90.820,0
1553632864.742,34.180,27.832,30.273,-58.105,40.039,0
1553632864.746,35.156,32.715,35.156,-65.918,35.156,0
1553632864.750,40.527,29.297,35.156,-49.805,86.914,0
1553632864.754,37.598,24.414,35.156,-52.734,42.969,0
1553632864.758,30.762,23.438,32.227,-56.152,-19.531,0
1553632864.761,13.184,19.043,33.203,-55.664,30.273,0
1553632864.765,2.441,19.043,31.738,-59.570,72.266,0
1553632864.769,7.324,23.926,28.320,-52.246,-2.930,0
1553632864.773,4.883,29.297,29.785,-53.223,18.066,0
1553632864.777,-1.465,31.738,31.250,-63.477,67.383,0
1553632864.781,-5.859,28.809,29.297,-69.824,-15.625,0
1553632864.785,-14.648,30.762,24.902,-82.031,12.695,0
1553632864.789,-13.672,35.645,22.461,-77.637,48.340,0
1553632864.793,-7.812,36.133,24.414,-48.340,9.766,0
1553632864.797,-18.066,34.668,20.020,-58.594,34.668,0
1553632864.801,-22.461,34.668,22.461,-68.848,-10.742,0
1553632864.804,-16.113,31.738,26.855,-54.688,41.992,0
1553632864.808,-10.254,23.926,25.879,-53.223,83.984,0
1553632864.812,-24.902,25.879,28.809,-60.547,71.289,0
1553632864.816,-38.574,30.273,23.926,-62.988,79.590,0
1553632864.820,-33.203,29.785,16.602,-55.176,58.594,0
1553632864.824,-34.180,30.762,17.578,-40.039,53.223,0
1553632864.828,-36.621,25.879,26.855,-53.711,57.129,0
1553632864.832,-34.668,32.227,29.297,-68.848,56.152,0
1553632864.836,-30.762,44.922,25.391,-45.410,28.809,0
1553632864.840,-21.973,37.598,15.625,-29.297,12.207,0
1553632864.844,-17.578,23.438,-2.930,-21.484,53.223,0
1553632864.847,-33.691,34.180,5.859,-27.344,8.301,0
1553632864.851,-13.184,42.480,2.441,2.930,-25.391,0
1553632864.855,44.434,50.781,-13.672,41.016,23.926,0
1553632864.859,-14.160,54.199,33.691,-20.508,60.059,0
1553632864.863,-97.168,28.809,61.523,-72.266,66.895,0
1553632864.867,-102.539,22.949,51.758,-77.637,4.395,0
1553632864.871,-87.402,10.742,42.480,-77.148,26.367,0
1553632864.875,-68.359,-40.039,53.711,-57.617,56.152,0
1553632864.879,-60.547,-15.625,63.477,-53.223,6.836,0
1553632864.883,-61.035,49.316,71.289,-61.523,26.855,0
1553632864.886,-74.219,53.223,26.367,-47.363,72.266,0
1553632864.890,-75.195,53.223,-62.988,-29.785,57.617,0
1553632864.894,-67.383,77.637,-32.715,-16.113,26.855,0
1553632864.898,-69.824,77.148,47.852,-32.227,50.293,0
1553632864.902,-69.824,55.664,96.680,-43.457,36.621,0
1553632864.906,-50.781,62.988,86.914,-28.320,81.055,0
1553632864.910,-5.371,81.543,-13.184,-10.254,108.887,0
1553632864.914,21.973,81.543,-11.719,14.648,16.602,0
1553632864.918,-3.906,24.414,91.797,2.930,52.246,0
1553632864.922,12.695,-44.922,98.633,10.254,81.543,0
1553632864.926,40.527,-65.430,112.305,31.250,20.508,0
1553632864.929,-35.156,-0.488,114.746,-47.363,37.598,0
1553632864.933,-84.473,89.355,19.043,-93.262,53.711,0
1553632864.937,-96.680,99.609,-5.371,-79.590,23.438,0
1553632864.941,-104.004,84.961,7.324,-66.895,48.340,0
1553632864.945,-74.707,69.336,-27.344,-20.508,-8.789,0
1553632864.949,-39.551,53.711,-101.562,0.488,-28.809,0
1553632864.953,-23.926,65.430,-138.672,-6.836,20.996,0
1553632864.957,-66.406,72.266,-50.781,-20.020,3.418,0
1553632864.961,-84.961,52.246,-45.410,-20.996,6.836,0
1553632864.965,-68.359,48.340,-95.215,-13.184,27.832,0
1553632864.969,-55.664,57.617,-142.090,-9.766,32.715,0
1553632864.972,-51.270,63.965,-209.961,-3.418,29.785,0
1553632864.976,-20.508,31.738,-275.879,2.930,64.941,0
1553632864.980,11.719,15.137,-291.504,26.367,66.406,0
1553632864.984,-29.785,61.523,-225.098,-3.906,79.590,0
1553632864.988,-67.383,66.406,-184.082,-32.715,94.727,0
1553632864.992,-53.223,57.617,-209.473,-17.090,38.574,0
1553632864.996,-40.039,59.082,-240.234,-14.648,18.066,0
1553632865.000,-27.344,53.223,-256.348,-7.324,1.953,0
1553632865.004,-23.926,50.293,-269.043,-0.488,11.719,0
1553632865.008,-26.855,49.805,-286.133,10.742,40.039,0
1553632865.011,-20.020,53.223,-285.645,9.766,52.246,0
1553632865.015,-10.742,55.664,-270.508,-1.953,24.902,0
1553632865.019,-7.324,50.293,-277.344,24.902,-13.184,0
1553632865.023,-15.137,46.875,-303.223,17.090,-4.883,0
1553632865.027,4.883,51.270,-301.270,-2.441,39.062,0
1553632865.031,12.695,23.926,-281.250,21.973,45.898,0
1553632865.035,-9.277,23.438,-395.508,62.500,19.531,0
1553632865.039,-23.926,83.008,-407.715,85.449,56.152,0
1553632865.043,-51.270,76.660,-253.418,12.207,35.156,0
1553632865.047,-56.641,42.480,-222.656,-35.645,26.855,0
1553632865.051,-64.941,33.691,-249.512,-6.348,55.664,0
1553632865.054,-105.957,34.668,-263.184,-19.043,14.160,0
1553632865.058,-100.586,51.270,-251.465,-28.809,8.301,0
1553632865.062,-68.848,48.340,-252.441,1.465,30.762,0
1553632865.066,-40.039,26.367,-258.301,25.879,20.996,0
1553632865.070,-13.184,18.066,-256.836,43.945,32.715,0
1553632865.074,-29.297,37.598,-255.371,43.945,34.180,0
1553632865.078,-50.293,57.617,-246.582,9.277,5.371,0
1553632865.082,-40.039,76.172,-243.652,-1.465,3.906,0
1553632865.086,-28.320,79.590,-236.328,4.883,51.758,0
1553632865.090,-31.250,72.754,-228.516,20.508,65.430,0
1553632865.094,-47.852,69.824,-222.656,19.043,33.691,0
1553632865.097,-37.109,62.012,-235.352,25.391,76.172,0
1553632865.101,-13.672,52.734,-285.156,47.852,50.781,0
1553632865.105,-19.531,61.035,-277.344,45.410,-12.207,0
1553632865.109,-57.617,62.012,-208.984,54.199,45.898,0
1553632865.113,-76.172,55.664,-158.691,48.340,73.242,0
1553632865.117,-72.266,58.105,-152.832,21.484,38.086,0
1553632865.121,-58.594,55.176,-170.898,1.465,35.156,0
1553632865.125,-23.438,53.711,-188.477,20.996,54.688,0
1553632865.129,2.930,57.617,-183.105,54.199,62.500,0
1553632865.133,-25.879,42.969,-147.461,63.965,24.414,0
1553632865.136,-52.734,39.551,-125.977,69.336,47.852,0
1553632865.140,-46.875,50.293,-131.348,54.199,52.246,0
1553632865.144,-62.500,52.734,-138.672,60.059,-3.418,0
1553632865.148,-72.754,56.152,-131.836,94.727,-7.324,0
1553632865.152,-62.012,43.457,-129.883,105.957,23.438,0
1553632865.156,-42.969,37.109,-135.742,108.398,11.230,0
1553632865.160,-12.207,50.293,-123.535,124.023,43.945,0
1553632865.164,-6.348,54.199,-110.352,147.949,70.312,0
1553632865.168,-54.199,43.945,-111.328,116.699,43.945,0
1553632865.172,-57.129,38.574,-114.258,86.914,-12.207,0
1553632865.176,-31.250,35.645,-104.004,99.121,-20.996,0
1553632865.179,-33.691,30.273,-98.633,112.793,51.758,0
1553632865.183,-34.668,26.855,-99.609,122.559,30.273,0
1553632865.187,-15.137,26.367,-99.121,116.211,-9.766,0
1553632865.191,-19.043,25.879,-91.309,88.867,39.062,0
1553632865.195,-66.406,25.391,-77.637,74.707,61.523,0
1553632865.199,-97.168,31.250,-70.312,63.965,12.695,0
1553632865.203,-99.609,33.203,-70.312,38.574,37.598,0
1553632865.207,-89.844,34.180,-65.430,55.664,49.316,0
1553632865.211,-97.656,37.598,-62.988,63.477,56.152,0
1553632865.215,-125.488,34.668,-67.383,22.461,31.250,0
1553632865.219,-115.723,35.645,-55.176,20.508,41.504,0
1553632865.222,-98.633,38.574,-48.828,9.766,25.879,0
1553632865.226,-107.910,40.039,-47.363,-12.207,18.066,0
1553632865.230,-103.516,42.480,-44.922,-10.742,11.230,0
1553632865.234,-96.680,39.551,-43.457,-16.113,-41.016,0
1553632865.238,-113.770,37.109,-45.898,-32.715,-31.738,0
1553632865.242,-131.836,33.203,-49.805,-54.688,-56.641,0
1553632865.246,-124.512,20.020,-43.457,-63.965,-67.871,0
1553632865.250,-109.863,29.297,-33.691,-52.246,-5.371,0
1553632865.254,-110.840,29.785,-24.414,-54.199,58.594,0
1553632865.258,-118.652,-0.488,-23.926,-66.406,60.059,0
1553632865.261,-103.516,19.043,-17.090,-64.453,37.109,0
1553632865.265,-101.074,48.340,2.441,-69.824,24.414,0
1553632865.269,-100.586,53.223,-12.207,-72.754,43.457,0
1553632865.273,-85.449,56.152,-51.270,-82.031,88.867,0
1553632865.277,-84.961,54.688,-41.504,-79.590,39.551,0
1553632865.281,-93.750,43.457,2.441,-89.844,38.574,0
1553632865.285,-94.238,33.691,25.879,-101.074,60.547,0
1553632865.289,-106.445,29.785,33.203,-94.238,51.758,0
1553632865.293,-106.445,18.066,19.531,-109.375,77.637,0
1553632865.297,-96.680,24.902,-5.859,-116.211,64.453,0
1553632865.301,-84.961,45.898,3.906,-104.980,49.316,0
1553632865.304,-88.867,38.086,15.625,-115.723,99.121,0
1553632865.308,-85.938,32.227,23.438,-112.793,44.922,0
1553632865.312,-59.570,39.062,42.969,-107.422,1.953,0
1553632865.316,-69.824,37.109,48.828,-102.539,18.555,0
1553632865.320,-79.102,27.832,41.016,-125.000,36.133,0
1553632865.324,-85.449,25.391,43.457,-123.047,52.246,0
1553632865.328,-70.312,35.645,41.504,-106.934,-14.648,0
1553632865.332,-50.293,39.551,29.785,-104.004,-31.250,0
1553632865.336,-49.316,37.109,40.039,-95.215,4.883,0
1553632865.340,-44.434,22.461,53.711,-101.562,41.016,0
1553632865.344,-41.504,28.320,55.176,-110.840,33.691,0
1553632865.347,-44.922,44.922,49.805,-116.211,34.180,0
1553632865.351,-47.852,48.340,49.805,-112.793,43.457,0
1553632865.355,-55.664,43.945,57.129,-93.750,23.926,0
1553632865.359,-50.781,32.227,61.035,-98.633,9.766,0
1553632865.363,-46.875,33.203,59.570,-114.746,25.391,0
1553632865.367,-44.922,35.645,61.523,-95.703,36.621,0
1553632865.371,-43.945,29.297,66.406,-88.867,56.152,0
1553632865.375,-45.410,33.203,62.500,-106.934,48.828,0
1553632865.379,-46.875,33.203,62.012,-112.305,20.508,0
1553632865.383,-49.805,33.691,63.477,-104.004,-23.926,0
1553632865.386,-45.410,38.574,66.895,-109.863,20.996,0
1553632865.390,-49.805,35.645,71.289,-109.375,67.871,0
1553632865.394,-64.453,34.180,71.777,-89.844,49.805,0
1553632865.398,-66.895,41.504,70.312,-94.238,9.277,0
1553632865.402,-76.172,54.199,66.406,-124.512,-1.953,0
1553632865.406,-74.707,44.922,66.895,-121.094,27.832,0
1553632865.410,-75.684,34.180,67.871,-131.836,27.344,0
1553632865.414,-104.980,41.504,73.730,-154.297,68.359,0
1553632865.418,-112.793,42.969,79.590,-145.996,51.758,0
1553632865.422,-104.004,37.109,85.449,-140.625,44.922,0
1553632865.426,-116.211,28.320,79.590,-140.625,116.211,0
1553632865.429,-129.883,38.574,79.590,-152.832,72.754,0
1553632865.433,-159.668,52.734,94.238,-191.895,43.457,0
1553632865.437,-175.781,56.641,94.238,-196.289,40.039,0
1553632865.441,-183.594,51.270,99.121,-197.754,-15.625,0
1553632865.445,-207.520,41.992,105.957,-236.816,-3.906,0
1553632865.449,-216.309,44.434,103.027,-228.027,24.902,0
1553632865.453,-202.148,36.621,93.750,-225.586,-0.488,0
1553632865.457,-197.266,10.742,94.238,-261.719,-3.418,0
1553632865.461,-227.539,14.160,102.539,-273.438,31.250,0
1553632865.465,-264.648,45.410,102.051,-269.531,70.801,0
1553632865.469,-274.414,69.824,95.703,-272.949,84.473,0
1553632865.472,-270.508,72.266,94.238,-291.504,61.523,0
1553632865.476,-259.277,65.430,99.121,-279.297,33.203,0
1553632865.480,-244.141,66.895,102.051,-268.555,58.594,0
1553632865.484,-253.418,55.176,107.422,-281.250,58.594,0
1553632865.488,-258.789,42.480,107.910,-273.438,44.434,0
1553632865.492,-241.699,52.246,103.027,-258.301,38.574,0
1553632865.496,-235.840,54.199,105.469,-257.812,50.293,0
1553632865.500,-229.004,50.781,104.492,-260.254,59.570,0
1553632865.504,-204.590,48.340,101.562,-244.629,69.336,0
1553632865.508,-201.172,44.922,94.727,-223.633,41.504,0
1553632865.511,-201.660,44.922,90.820,-204.590,40.527,0
1553632865.515,-190.918,44.922,104.980,-204.590,9.766,0
1553632865.519,-178.711,42.969,104.492,-194.824,21.484,0
1553632865.523,-151.855,40.039,83.496,-166.504,80.078,0
1553632865.527,-140.625,38.086,85.449,-148.438,26.367,0
1553632865.531,-130.371,34.668,90.332,-141.113,43.945,0
1553632865.535,-107.910,32.227,87.402,-131.836,24.414,0
1553632865.539,-93.262,39.062,82.520,-110.352,-25.391,0
1553632865.543,-83.008,34.180,75.684,-81.055,22.949,0
1553632865.547,-75.684,24.414,81.055,-63.477,12.207,0
1553632865.551,-59.082,25.391,78.125,-51.758,40.039,0
1553632865.554,-48.828,28.809,71.777,-56.152,83.984,0
1553632865.558,-60.547,26.855,68.848,-46.875,67.871,0
1553632865.562,-48.828,23.926,63.965,-29.297,38.086,0
1553632865.566,-39.062,17.578,59.570,-17.090,15.137,0
1553632865.570,-46.387,13.184,52.246,5.371,20.996,0
1553632865.574,-43.457,17.578,48.340,2.441,29.785,0
1553632865.578,-38.086,17.578,45.898,-19.531,33.203,0
1553632865.582,-40.039,17.578,43.457,-18.555,17.090,0
1553632865.586,-40.527,20.020,45.898,-12.695,-9.277,0
1553632865.590,-29.785,21.973,35.645,0.977,21.484,0
1553632865.594,-32.715,20.020,33.691,13.672,41.992,0
1553632865.597,-39.551,19.531,42.969,16.602,33.203,0
1553632865.601,-33.203,20.996,41.016,10.742,28.809,0
1553632865.605,-31.250,17.090,38.574,28.809,3.418,0
1553632865.609,-39.062,19.043,28.320,35.645,41.992,0
1553632865.613,-32.227,19.043,21.484,32.227,-15.137,0
1553632865.617,-29.297,17.578,28.809,32.715,-20.508,0
1553632865.621,-36.621,13.672,35.156,25.879,88.379,0
1553632865.625,-32.227,13.184,29.297,20.996,38.574,0
1553632865.629,-20.996,24.414,26.855,20.508,29.297,0
1553632865.633,-13.672,22.949,32.227,19.531,87.402,0
1553632865.636,-20.508,18.066,28.809,16.602,36.621,0
1553632865.640,-26.855,26.367,22.949,21.973,44.922,0
1553632865.644,-33.691,29.785,22.949,11.719,69.336,0
1553632865.648,-33.203,29.785,17.578,14.160,9.277,0
1553632865.652,-26.367,26.855,10.742,30.273,0.000,0
1553632865.656,-28.809,24.414,20.508,18.555,65.918,0
1553632865.660,-35.645,33.691,22.461,4.883,49.316,0
1553632865.664,-12.207,38.086,19.043,2.441,19.531,0
1553632865.668,-10.742,38.086,16.602,1.953,60.059,0
1553632865.672,-37.109,33.691,16.113,16.113,69.336,0
1553632865.676,-37.109,31.250,14.160,17.578,77.148,0
1553632865.679,-27.832,30.762,8.789,14.648,41.992,0
1553632865.683,-18.066,32.227,8.789,19.531,-14.648,0
1553632865.687,-21.484,30.762,8.789,18.066,23.926,0
1553632865.691,-31.738,26.855,7.324,29.297,48.828,0
1553632865.695,-25.879,29.297,3.418,29.297,32.715,0
1553632865.699,-17.090,39.062,-1.953,3.418,52.734,0
1553632865.703,-20.020,42.480,0.488,3.418,85.938,0
1553632865.707,-19.531,32.227,-1.953,13.672,46.387,0
1553632865.711,-8.301,28.320,-5.371,16.113,-11.719,0
1553632865.715,-7.812,32.715,-3.906,3.906,4.395,0
1553632865.719,-9.277,36.621,-2.930,-1.465,34.668,0
1553632865.722,-7.324,37.109,-7.812,9.766,41.504,0
1553632865.726,-11.719,30.273,-10.742,9.766,25.879,0
1553632865.730,-11.719,27.832,-4.395,19.043,-18.555,0
1553632865.734,-5.859,34.180,-7.324,38.574,5.859,0
1553632865.738,4.395,34.180,-12.695,15.137,32.227,0
1553632865.742,-1.953,30.762,-10.742,-18.066,-12.207,0
1553632865.746,-20.020,36.621,-10.742,-10.742,-6.348,0
1553632865.750,-26.855,31.738,-9.277,-2.930,13.184,0
1553632865.754,-24.414,28.320,-10.742,-4.395,55.176,0
1553632865.758,-18.555,28.809,-14.160,-5.371,69.336,0
1553632865.761,-22.949,27.344,-13.184,-0.488,28.809,0
1553632865.765,-20.020,30.273,-15.137,-16.602,29.785,0
1553632865.769,-6.836,30.762,-20.020,-12.695,-14.648,0
1553632865.773,-16.113,26.855,-20.996,-10.254,-28.809,0
1553632865.777,-28.320,29.297,-15.137,-18.066,33.203,0
1553632865.781,-31.250,29.297,-13.672,4.395,5.371,0
1553632865.785,-30.762,23.926,-14.160,5.859,-8.301,0
1553632865.789,-20.996,29.297,-16.602,-1.465,44.434,0
1553632865.793,-13.672,31.738,-19.531,-5.859,49.805,0
1553632865.797,-10.254,26.367,-17.578,-8.789,43.945,0
1553632865.801,-4.395,29.785,-14.648,-0.488,34.180,0
1553632865.804,4.395,35.645,-15.625,14.648,42.969,0
1553632865.808,-9.766,29.785,-13.672,4.395,21.973,0
1553632865.812,-24.902,30.273,-14.648,-22.461,48.828,0
1553632865.816,-23.438,34.180,-20.020,-27.344,77.148,0
1553632865.820,-19.043,32.227,-18.555,-27.344,20.020,0
1553632865.824,-22.949,42.480,-18.066,-33.691,-37.109,0
1553632865.828,-33.203,46.387,-20.996,-33.691,33.691,0
1553632865.832,-34.668,40.039,-19.043,-32.227,31.250,0
1553632865.836,-15.625,43.457,-15.137,-39.551,8.789,0
1553632865.840,-10.254,42.480,-19.531,-30.273,74.219,0
1553632865.844,-16.602,38.574,-18.555,-18.555,39.551,0
1553632865.847,-22.461,33.691,-14.648,-22.949,8.789,0
1553632865.851,-30.762,29.297,-16.113,-25.391,2.441,0
1553632865.855,-37.598,27.832,-16.113,-27.832,15.137,0
1553632865.859,-41.016,27.344,-16.113,-32.715,11.230,0
1553632865.863,-30.762,24.902,-18.066,-36.621,-2.930,0
1553632865.867,-22.949,27.832,-16.602,-21.973,43.457,0
1553632865.871,-25.391,31.250,-13.184,-9.766,4.883,0
1553632865.875,-30.762,29.785,-14.160,-21.973,-15.625,0
1553632865.879,-27.832,29.297,-14.160,-18.066,58.105,0
1553632865.883,-23.926,35.645,-11.230,-14.160,55.664,0
1553632865.886,-24.414,38.086,-14.648,-23.438,33.691,0
1553632865.890,-3.906,34.668,-14.648,-24.414,38.574,0
1553632865.894,-0.977,35.645,-14.160,-22.461,73.730,0
1553632865.898,-38.574,34.668,-16.113,-34.180,52.734,0
1553632865.902,-34.180,41.504,-10.742,-27.344,27.832,0
1553632865.906,-8.789,41.504,-11.230,-16.113,49.316,0
1553632865.910,-6.836,37.109,-14.648,-20.996,29.297,0
1553632865.914,-15.625,45.410,-12.695,-21.973,-8.789,0
1553632865.918,-27.344,45.898,-10.254,-20.020,-13.184,0
1553632865.922,-26.367,45.410,-8.301,-21.973,19.531,0
1553632865.926,-32.715,50.293,-7.324,-12.695,62.988,0
1553632865.929,-40.527,47.363,-6.836,-24.414,-6.348,0
1553632865.933,-29.297,45.410,-4.395,-27.832,-35.156,0
1553632865.937,-29.297,43.945,-3.906,-2.930,-0.488,0
1553632865.941,-27.344,43.457,-8.789,-19.043,29.297,0
1553632865.945,-30.762,45.410,-11.230,-12.207,33.203,0
1553632865.949,-29.785,41.504,-7.812,0.488,35.156,0
1553632865.953,-24.902,35.156,-8.789,-20.020,11.230,0
1553632865.957,-17.090,41.016,-13.672,-24.414,28.320,0
1553632865.961,-16.113,44.434,-12.207,-16.602,103.027,0
1553632865.965,-35.645,39.062,-14.160,-16.602,67.383,0
1553632865.969,-35.156,39.551,-16.602,-15.137,43.457,0
1553632865.972,-30.762,38.574,-13.672,-3.906,40.039,0
1553632865.976,-34.668,39.551,-9.766,-1.953,24.414,0
1553632865.980,-39.551,37.109,-14.160,-6.836,75.684,0
1553632865.984,-30.273,38.086,-21.973,-9.277,110.840,0
1553632865.988,-29.297,41.504,-20.508,-9.277,64.453,0
1553632865.992,-37.109,45.410,-22.461,5.371,34.180,0
1553632865.996,-31.738,47.363,-27.344,3.906,46.875,0
1553632866.000,-29.785,43.457,-21.973,0.000,43.457,0
1553632866.004,-33.691,44.922,-18.555,5.859,62.988,0
1553632866.008,-33.691,40.039,-20.508,3.906,0.488,0
1553632866.011,-39.062,39.062,-20.508,-0.488,8.301,0
1553632866.015,-42.480,43.457,-22.461,-0.977,73.242,0
1553632866.019,-47.852,40.039,-23.926,-3.906,83.496,0
1553632866.023,-47.852,35.645,-25.879,-12.207,39.062,0
1553632866.027,-36.621,37.109,-25.879,-13.672,-16.602,0
1553632866.031,-47.852,41.504,-22.949,2.441,25.391,0
1553632866.035,-48.340,48.828,-20.020,12.207,76.660,0
1553632866.039,-47.852,39.062,-19.531,-0.977,53.711,0
1553632866.043,-45.410,25.879,-17.090,4.883,50.781,0
1553632866.047,-43.457,32.227,-20.996,-2.930,74.707,0
1553632866.051,-54.199,44.434,-28.320,-25.879,80.078,0
1553632866.054,-60.547,45.898,-28.320,-34.180,26.855,0
1553632866.058,-51.758,45.410,-37.109,-44.922,15.137,0
1553632866.062,-43.457,52.246,-41.992,-47.363,41.016,0
1553632866.066,-47.852,53.223,-36.133,-34.668,-4.883,0
1553632866.070,-46.875,46.387,-35.156,-34.180,41.992,0
1553632866.074,-47.363,41.016,-32.715,-34.668,94.238,0
1553632866.078,-49.805,37.598,-33.691,-46.875,30.762,0
1553632866.082,-48.340,38.086,-33.691,-46.387,26.855,0
1553632866.086,-52.734,35.156,-30.273,-34.668,61.523,0
1553632866.090,-59.082,34.668,-31.250,-35.645,24.902,0
1553632866.094,-54.199,41.992,-30.762,-28.809,4.883,0
1553632866.097,-46.875,44.922,-31.250,-28.320,22.949,0
1553632866.101,-59.082,41.504,-28.320,-34.180,10.254,0
1553632866.105,-86.914,43.457,-23.926,-22.461,52.246,0
1553632866.109,-97.656,46.387,-27.344,-23.438,67.383,0
1553632866.113,-99.609,43.457,-27.344,-18.066,11.719,0
1553632866.117,-97.656,41.016,-24.902,-9.277,45.898,0
1553632866.121,-100.586,43.457,-21.484,-16.602,7.324,0
1553632866.125,-107.910,46.875,-18.555,-17.090,-2.441,0
1553632866.129,-101.562,44.922,-19.043,-17.090,74.707,0
1553632866.133,-96.680,43.457,-19.531,-14.160,18.066,0
1553632866.136,-88.867,44.434,-20.020,-5.859,19.043,0
1553632866.140,-96.191,45.898,-19.531,-7.812,26.367,0
1553632866.144,-89.355,47.852,-19.043,-6.836,19.043,0
1553632866.148,-76.172,42.480,-19.043,-9.766,71.777,0
1553632866.152,-108.398,39.062,-15.625,-26.367,37.109,0
1553632866.156,-118.652,37.598,-14.160,-3.906,33.203,0
1553632866.160,-108.887,32.715,-15.137,-2.930,-19.531,0
1553632866.164,-107.422,28.320,-13.672,-15.625,-3.418,0
1553632866.168,-103.516,28.809,-13.672,-0.488,72.754,0
1553632866.172,-99.609,29.785,-17.578,-14.160,44.922,0
1553632866.176,-91.797,26.367,-18.555,-23.438,28.809,0
1553632866.179,-97.168,26.367,-15.137,-23.438,33.691,0
1553632866.183,-96.191,29.297,-14.648,-19.043,72.754,0
1553632866.187,-93.750,31.250,-15.137,-23.926,54.688,0
1553632866.191,-99.121,27.344,-17.090,-37.109,-2.930,0
1553632866.195,-86.914,28.320,-16.113,-27.344,-20.996,0
1553632866.199,-78.613,41.504,-12.695,-24.414,31.250,0
1553632866.203,-72.754,43.945,-10.742,-27.832,48.828,0
1553632866.207,-69.824,40.527,-12.207,-29.297,26.367,0
1553632866.211,-71.289,39.062,-12.207,-26.367,48.340,0
1553632866.215,-77.148,37.109,-10.742,-28.320,23.438,0
1553632866.219,-79.590,31.250,-9.277,-36.133,41.504,0
1553632866.222,-60.059,32.715,-6.836,-20.996,83.496,0
1553632866.226,-52.734,30.273,-4.883,-8.789,75.684,0
1553632866.230,-66.895,26.855,-7.812,-25.391,40.527,0
1553632866.234,-82.520,35.156,-10.254,-34.180,22.461,0
1553632866.238,-75.684,33.203,-9.277,-39.062,29.785,0
1553632866.242,-62.012,34.668,-8.301,-24.902,34.180,0
1553632866.246,-65.918,37.598,-5.371,-10.742,64.453,0
1553632866.250,-58.594,32.227,-2.441,-39.551,38.574,0
1553632866.254,-56.641,23.926,-2.930,-51.270,25.391,0
1553632866.258,-58.105,26.855,-1.465,-19.043,11.230,0
1553632866.261,-61.523,42.969,-0.977,-17.090,-43.457,0
1553632866.265,-72.754,43.457,-1.465,-33.691,8.789,0
1553632866.269,-66.895,41.016,-1.465,-31.250,61.523,0
1553632866.273,-64.941,42.969,-0.488,-32.715,76.660,0
1553632866.277,-61.523,47.363,-0.488,-38.086,-7.812,0
1553632866.281,-63.965,49.805,-2.930,-50.293,19.531,0
1553632866.285,-67.383,45.898,-3.418,-46.875,17.578,0
1553632866.289,-53.711,50.781,2.441,-29.297,-1.953,0
1553632866.293,-47.363,50.781,6.836,-31.738,49.316,0
1553632866.297,-47.363,47.363,8.789,-32.715,65.918,0
1553632866.301,-57.617,47.852,11.719,-29.785,81.055,0
1553632866.304,-57.617,43.945,12.695,-29.785,64.941,0
1553632866.308,-44.434,39.062,8.789,-34.180,5.859,0
1553632866.312,-42.969,41.504,6.348,-27.344,17.578,0
1553632866.316,-41.016,35.156,9.277,-7.812,69.336,0
1553632866.320,-32.715,35.645,10.742,6.836,70.801,0
1553632866.324,-47.363,34.180,10.742,-0.488,85.449,0
1553632866.328,-69.824,24.902,13.672,-19.531,35.156,0
1553632866.332,-61.523,35.156,20.020,-18.066,-12.207,0
1553632866.336,-42.969,42.969,22.461,-8.789,21.484,0
1553632866.340,-45.898,37.109,23.926,31.250,12.695,0
1553632866.344,-43.945,36.621,22.461,16.113,11.719,0
1553632866.347,-18.066,42.969,15.137,-60.547,32.227,0
1553632866.351,-20.508,44.922,17.578,-42.969,-18.555,0
1553632866.355,-53.223,41.992,19.531,9.766,3.418,0
1553632866.359,-56.152,38.086,19.043,15.625,40.527,0
1553632866.363,-31.738,41.992,20.508,-39.551,39.551,0
1553632866.367,-25.879,40.039,20.996,-55.176,111.816,0
1553632866.371,-9.766,39.551,22.461,-42.480,89.844,0
1553632866.375,8.301,41.992,26.855,-20.508,41.016,0
1553632866.379,-18.555,35.156,32.715,-24.902,24.414,0
1553632866.383,-26.855,35.156,37.109,-43.945,-15.625,0
1553632866.386,-1.953,35.156,41.504,-43.457,5.859,0
1553632866.390,13.672,31.250,49.316,14.160,27.344,0
1553632866.394,16.113,30.273,57.617,48.340,23.926,0
1553632866.398,36.133,31.738,59.570,-29.785,15.137,0
1553632866.402,34.180,31.738,63.477,-60.059,20.508,0
1553632866.406,28.809,32.227,62.500,-56.641,94.727,0
1553632866.410,63.965,33.691,57.129,-66.406,53.711,0
1553632866.414,85.938,31.250,65.918,-42.969,15.625,0
1553632866.418,62.988,25.391,73.242,-22.461,39.062,0
1553632866.422,44.922,22.949,73.730,-38.086,-5.371,0
1553632866.426,63.965,21.484,82.520,-19.531,20.996,0
1553632866.429,87.891,16.602,90.820,-20.508,25.391,0
1553632866.433,93.262,16.113,91.797,-57.617,15.625,0
1553632866.437,100.098,15.625,94.727,-69.824,14.160,0
1553632866.441,116.211,16.113,98.145,-64.941,9.277,0
1553632866.445,125.977,20.508,102.051,-66.406,22.949,0
1553632866.449,130.371,28.320,109.375,-48.828,26.367,0
1553632866.453,140.625,25.391,119.141,-11.230,11.230,0
1553632866.457,144.531,22.461,124.512,-6.348,29.297,0
1553632866.461,133.789,19.531,128.418,1.465,21.484,0
1553632866.465,125.977,16.602,131.836,21.484,0.000,0
1553632866.469,123.047,25.391,131.348,45.898,41.016,0
1553632866.472,126.465,29.785,123.535,100.586,53.223,0
1553632866.476,117.676,21.973,113.770,149.902,37.109,0
1553632866.480,117.676,25.391,110.352,194.824,39.551,0
1553632866.484,128.906,31.738,112.305,216.309,29.785,0
1553632866.488,110.352,23.438,118.652,205.078,85.449,0
1553632866.492,112.305,17.578,118.164,207.031,69.824,0
1553632866.496,118.164,16.602,111.816,223.633,52.734,0
1553632866.500,107.422,14.648,109.375,239.746,89.844,0
1553632866.504,101.562,15.625,105.469,228.516,35.645,0
1553632866.508,101.074,16.602,104.980,225.586,12.695,0
1553632866.511,102.051,17.090,100.098,225.098,10.742,0
1553632866.515,110.352,21.973,94.238,218.262,9.766,0
1553632866.519,127.441,24.902,93.262,225.098,10.742,0
1553632866.523,131.348,21.484,89.355,233.398,6.348,0
1553632866.527,118.164,25.391,89.844,243.164,18.555,0
1553632866.531,117.676,27.832,92.773,237.793,21.973,0
1553632866.535,126.953,28.809,95.215,227.051,47.363,0
1553632866.539,119.629,31.738,96.191,227.051,35.645,0
1553632866.543,107.422,35.156,95.215,220.215,25.879,0
1553632866.547,98.145,38.086,97.656,203.613,5.859,0
1553632866.551,93.750,33.203,97.656,192.383,14.648,0
1553632866.554,86.914,29.785,95.215,181.641,46.387,0
1553632866.558,65.918,32.715,97.168,170.898,14.648,0
1553632866.562,54.688,35.645,103.027,165.039,61.523,0
1553632866.566,55.176,30.762,100.586,152.832,34.180,0
1553632866.570,46.387,34.668,98.145,131.348,-11.230,0
1553632866.574,39.062,40.527,97.656,126.953,40.527,0
1553632866.578,61.035,37.598,92.285,120.605,-17.090,0
1553632866.582,36.133,37.598,93.750,105.469,12.207,0
1553632866.586,2.441,37.598,93.750,94.727,69.824,0
1553632866.590,-11.719,37.109,84.473,92.773,60.059,0
1553632866.594,-47.852,35.645,78.613,83.984,31.250,0
1553632866.597,-42.480,38.574,74.219,66.895,21.973,0
1553632866.601,-50.293,42.969,69.824,61.035,67.871,0
1553632866.605,-70.312,41.016,67.383,55.664,45.898,0
1553632866.609,-77.637,39.551,62.012,47.363,36.621,0
1553632866.613,-71.777,40.039,57.129,27.344,36.621,0
1553632866.617,-69.336,42.480,59.082,22.949,52.734,0
1553632866.621,-69.824,47.363,59.570,31.250,81.543,0
1553632866.625,-67.871,47.852,57.129,29.785,71.289,0
1553632866.629,-69.824,48.828,53.223,14.648,24.902,0
1553632866.633,-74.219,55.176,39.062,8.789,-3.418,0
1553632866.636,-80.566,49.316,21.973,17.578,30.273,0
1553632866.640,-82.520,39.551,29.297,12.207,28.320,0
1553632866.644,-85.449,41.992,47.852,0.977,3.418,0
1553632866.648,-84.961,44.922,52.734,8.301,20.020,0
1553632866.652,-94.238,42.969,54.199,8.789,54.688,0
1553632866.656,-98.145,38.086,44.434,4.883,60.059,0
1553632866.660,-100.586,34.668,35.156,-4.395,47.363,0
1553632866.664,-94.727,44.922,37.109,4.883,-22.949,0
1553632866.668,-90.332,53.711,38.086,15.625,21.973,0
1553632866.672,-97.656,50.781,33.203,16.113,79.102,0
1553632866.676,-96.680,48.828,30.273,16.602,40.527,0
1553632866.679,-95.703,54.199,30.273,20.020,70.801,0
1553632866.683,-90.820,52.246,31.250,28.809,48.828,0
1553632866.687,-90.820,43.945,31.250,36.621,6.836,0
1553632866.691,-90.332,46.387,28.320,28.809,13.672,0
1553632866.695,-77.148,51.270,28.809,27.832,43.457,0
1553632866.699,-76.172,47.852,33.203,40.527,65.430,0
1553632866.703,-80.078,42.480,33.203,31.738,45.410,0
1553632866.707,-70.801,41.016,35.156,32.227,57.129,0
1553632866.711,-53.711,44.922,38.086,42.480,65.430,0
1553632866.715,-58.105,45.898,37.598,49.805,73.242,0
1553632866.719,-77.637,47.363,34.180,47.363,46.387,0
1553632866.722,-81.055,45.898,23.926,31.738,-14.160,0
1553632866.726,-89.355,37.109,25.879,46.387,10.742,0
1553632866.730,-94.727,33.203,34.180,78.125,22.949,0
1553632866.734,-121.094,48.828,24.902,43.457,55.176,0
1553632866.738,-148.926,58.594,-3.906,12.207,73.730,0
1553632866.742,-131.348,56.152,-10.742,37.598,25.879,0
1553632866.746,-117.188,53.711,16.602,48.340,21.484,0
1553632866.750,-116.699,57.617,31.250,21.973,19.043,0
1553632866.754,-95.215,66.895,25.879,15.137,39.062,0
1553632866.758,-96.680,63.965,21.973,26.855,89.355,0
1553632866.761,-116.699,55.664,20.508,28.320,62.500,0
1553632866.765,-100.586,54.688,19.531,45.410,73.242,0
1553632866.769,-80.566,53.223,17.090,51.270,102.539,0
1553632866.773,-64.453,47.852,14.160,59.082,60.547,0
1553632866.777,-41.992,48.828,16.602,61.035,11.230,0
1553632866.781,-25.391,51.758,18.555,57.617,-15.137,0
1553632866.785,-2.441,54.199,13.672,50.293,10.742,0
1553632866.789,28.320,54.688,7.324,50.781,19.043,0
1553632866.793,9.766,51.270,5.371,48.828,15.137,0
1553632866.797,-4.883,53.711,7.324,30.273,74.707,0
1553632866.801,11.230,61.035,1.465,25.391,90.332,0
1553632866.804,8.301,56.152,-2.441,23.438,10.254,0
1553632866.808,18.555,55.664,1.953,15.137,9.277,0
1553632866.812,23.438,62.012,3.418,14.648,19.531,0
1553632866.816,13.184,61.035,2.441,21.973,13.672,0
1553632866.820,10.742,53.223,3.906,18.555,51.270,0
1553632866.824,32.715,50.293,8.789,25.879,56.641,0
1553632866.828,41.504,47.363,7.812,15.137,2.930,0
1553632866.832,3.906,51.270,8.301,12.695,59.082,0
1553632866.836,-9.277,55.176,14.648,19.531,68.359,0
1553632866.840,-3.418,53.223,20.508,5.371,47.363,0
1553632866.844,-1.953,54.688,24.414,24.414,54.199,0
1553632866.847,4.395,50.293,25.391,53.223,11.230,0
1553632866.851,-1.465,41.992,25.879,57.617,-1.953,0
1553632866.855,8.789,43.457,21.484,52.734,4.395,0
1553632866.859,10.742,45.410,21.973,62.500,68.359,0
1553632866.863,13.672,40.039,28.320,75.195,30.273,0
1553632866.867,20.508,40.527,29.297,63.965,-2.930,0
1553632866.871,18.066,41.992,24.902,44.922,43.945,0
1553632866.875,20.996,42.480,24.414,35.156,-10.742,0
1553632866.879,20.020,37.598,26.855,40.039,-60.547,0
1553632866.883,19.043,43.457,24.902,39.062,30.762,0
1553632866.886,16.602,49.316,24.902,32.715,93.750,0
1553632866.890,28.320,44.434,24.902,36.621,33.691,0
1553632866.894,45.410,42.969,25.391,31.250,32.227,0
1553632866.898,30.762,38.086,26.367,12.207,39.062,0
1553632866.902,2.930,36.621,23.438,14.160,-3.906,0
1553632866.906,10.742,40.039,22.949,11.230,10.254,0
1553632866.910,0.488,37.598,22.461,-7.324,21.484,0
1553632866.914,-7.812,39.062,20.020,0.000,14.648,0
1553632866.918,-8.301,41.992,21.973,14.648,15.625,0
1553632866.922,-7.324,38.574,20.508,0.000,36.621,0
1553632866.926,-3.906,39.551,17.578,-13.672,75.195,0
1553632866.929,-2.441,41.992,18.066,-7.812,58.594,0
1553632866.933,-7.812,42.969,17.090,2.441,20.508,0
1553632866.937,-3.418,43.945,15.137,0.000,25.879,0
1553632866.941,8.301,41.504,9.277,-1.953,55.176,0
1553632866.945,-1.953,41.504,6.836,6.348,78.613,0
1553632866.949,-17.090,48.340,8.301,-2.930,38.086,0
1553632866.953,-17.090,51.270,-0.488,-29.297,14.160,0
1553632866.957,0.000,50.781,-0.977,-34.180,66.895,0
1553632866.961,19.043,48.828,10.742,-18.555,43.945,0
1553632866.965,16.602,47.852,16.113,-1.953,18.555,0
1553632866.969,4.395,49.805,18.555,-9.277,17.578,0
1553632866.972,14.648,48.828,16.602,-13.184,41.016,0
1553632866.976,23.438,44.922,15.625,0.977,54.199,0
1553632866.980,22.949,45.410,17.090,-7.324,19.043,0
1553632866.984,24.902,48.828,16.113,-2.930,19.531,0
1553632866.988,26.855,42.969,16.113,-2.930,18.066,0
1553632866.992,30.273,42.969,16.113,-18.066,39.551,0
1553632866.996,28.320,47.363,15.625,2.441,57.617,0
1553632867.000,29.785,42.969,15.137,12.207,42.480,0
1553632867.004,34.668,42.969,14.160,-4.395,62.500,0
1553632867.008,44.434,44.434,14.160,-10.254,77.148,0
1553632867.011,44.922,41.992,15.625,-1.465,37.109,0
1553632867.015,28.320,42.969,16.602,4.883,45.410,0
1553632867.019,18.066,43.945,14.648,12.207,67.383,0
1553632867.023,7.812,40.527,16.113,16.602,40.039,0
1553632867.027,0.977,41.504,20.508,14.648,0.488,0
1553632867.031,3.906,41.016,22.949,30.273,-20.996,0
1553632867.035,6.836,41.016,20.996,30.273,52.246,0
1553632867.039,9.277,44.434,18.555,7.324,52.246,0
1553632867.043,15.137,45.410,20.508,18.555,-26.855,0
1553632867.047,7.812,48.828,20.508,24.902,10.254,0
1553632867.051,9.277,49.316,21.484,21.484,41.016,0
1553632867.054,-0.488,47.852,18.555,24.414,25.391,0
1553632867.058,-6.348,43.945,18.066,28.809,40.527,0
1553632867.062,-2.930,40.527,20.508,21.973,20.508,0
1553632867.066,-5.371,39.551,20.996,6.348,-10.742,0
1553632867.070,1.953,40.527,17.578,8.789,30.762,0
1553632867.074,15.625,40.527,15.137,13.672,13.672,0
1553632867.078,3.418,39.551,17.578,8.789,-20.020,0
1553632867.082,-17.578,38.574,19.531,17.578,4.395,0
1553632867.086,-16.113,36.133,14.648,20.508,0.000,0
1553632867.090,-4.395,35.645,16.602,14.648,-8.789,0
1553632867.094,-22.949,40.039,25.391,21.484,43.945,0
1553632867.097,-41.016,44.922,22.949,20.996,68.359,0
1553632867.101,-28.320,44.922,19.531,14.648,30.762,0
1553632867.105,-25.391,39.062,24.414,24.902,3.418,0
1553632867.109,-27.344,38.086,20.508,20.996,40.039,0
1553632867.113,-29.297,40.039,14.160,8.301,99.609,0
1553632867.117,-28.320,43.457,17.578,12.207,56.641,0
1553632867.121,-32.227,41.504,15.625,-0.488,46.387,0
1553632867.125,-19.043,39.551,4.395,-1.465,62.988,0
1553632867.129,-12.207,45.898,9.766,10.742,37.598,0
1553632867.133,-44.434,37.598,20.996,-6.836,35.645,0
1553632867.136,-56.641,31.250,16.602,-13.184,20.020,0
1553632867.140,-47.852,29.785,17.090,1.465,24.902,0
1553632867.144,-41.016,29.297,22.949,13.184,30.762,0
1553632867.148,-34.668,28.809,20.996,1.953,28.809,0
1553632867.152,-45.898,23.926,21.484,-9.766,7.812,0
1553632867.156,-32.227,25.391,19.531,-4.395,4.883,0
1553632867.160,-23.926,32.715,12.207,-9.766,0.977,0
1553632867.164,-39.062,32.227,13.672,-9.277,36.621,0
1553632867.168,-36.133,27.344,14.648,-5.371,91.797,0
1553632867.172,-43.457,25.391,12.207,-5.859,51.270,0
1553632867.176,-45.410,28.809,14.648,2.441,51.270,0
1553632867.179,-46.387,28.320,14.648,9.277,79.102,0
1553632867.183,-61.523,22.461,14.648,1.953,7.812,0
1553632867.187,-40.039,24.902,14.648,-2.441,0.488,0
1553632867.191,-41.016,32.227,14.160,-13.184,24.902,0
1553632867.195,-68.848,31.250,14.160,-19.043,2.930,0
1553632867.199,-53.711,35.156,14.160,-4.883,34.180,0
1553632867.203,-47.852,39.062,17.090,-12.695,41.992,0
1553632867.207,-68.848,34.180,18.066,-33.203,26.855,0
1553632867.211,-50.781,30.762,19.043,-37.109,47.363,0
1553632867.215,-26.367,32.227,19.531,-32.715,48.828,0
1553632867.219,-29.785,35.156,19.531,-33.691,-7.812,0
1553632867.222,-35.645,34.668,22.949,-24.902,-10.254,0
1553632867.226,-34.668,33.691,22.949,-22.949,78.613,0
1553632867.230,21.484,39.062,18.555,-25.879,35.156,0
1553632867.234,34.180,44.922,20.508,-11.230,35.156,0
1553632867.238,-54.688,35.645,26.367,-23.438,59.570,0
1553632867.242,-79.102,22.461,26.855,-42.969,1.953,0
1553632867.246,-43.945,24.414,27.344,-26.855,-3.906,0
1553632867.250,-24.902,33.691,24.902,-35.645,40.527,0
1553632867.254,-13.184,35.156,23.926,-56.641,20.508,0
1553632867.258,19.531,37.109,23.438,-49.805,-19.531,0
1553632867.261,29.297,36.621,26.855,-33.691,2.441,0
1553632867.265,31.738,34.180,29.297,-39.062,37.598,0
1553632867.269,27.344,34.180,28.320,-31.738,24.902,0
1553632867.273,45.410,33.203,26.367,-28.809,8.789,0
1553632867.277,70.801,37.109,27.344,-45.410,15.137,0
1553632867.281,78.613,36.621,40.527,-37.598,-10.254,0
1553632867.285,96.191,32.227,43.457,-26.367,-44.434,0
1553632867.289,113.770,38.086,42.969,-25.879,28.320,0
1553632867.293,156.738,43.945,52.734,-16.113,63.477,0
1553632867.297,179.688,41.016,45.410,-4.395,-1.465,0
1553632867.301,143.066,33.691,30.273,-7.324,-20.996,0
1553632867.304,155.762,25.391,30.762,3.418,-9.766,0
1553632867.308,230.957,30.762,43.457,12.695,26.367,0
1553632867.312,287.109,37.598,55.176,15.625,35.156,0
1553632867.316,312.988,27.344,59.082,34.180,63.477,0
1553632867.320,357.422,20.508,67.871,25.391,57.129,0
1553632867.324,386.230,26.855,83.496,14.648,78.613,0
1553632867.328,426.270,24.902,99.121,31.738,89.844,0
1553632867.332,452.148,23.926,104.980,32.227,82.520,0
1553632867.336,437.988,24.414,97.656,28.320,79.590,0
1553632867.340,441.406,23.438,97.656,28.320,46.875,0
1553632867.344,464.355,20.996,110.352,25.879,34.668,0
1553632867.347,499.512,19.043,127.441,46.875,57.617,0
1553632867.351,532.715,22.949,149.902,71.777,8.789,0
1553632867.355,559.570,30.762,168.457,65.918,16.602,0
1553632867.359,567.871,31.738,187.988,75.684,75.684,0
1553632867.363,561.523,25.879,206.055,83.496,54.688,0
1553632867.367,559.082,26.855,219.727,82.031,36.133,0
1553632867.371,562.012,33.691,235.840,101.562,16.602,0
1553632867.375,550.781,36.621,253.906,88.379,-11.230,0
1553632867.379,543.457,37.109,272.949,75.684,9.277,0
1553632867.383,522.949,39.062,286.621,91.309,28.320,0
1553632867.386,482.910,40.527,295.898,79.590,-2.441,0
1553632867.390,477.051,39.062,305.176,68.359,7.324,0
1553632867.394,469.727,38.574,311.523,60.059,23.926,0
1553632867.398,444.824,34.668,315.918,50.293,-29.297,0
1553632867.402,431.152,33.691,322.754,61.523,3.418,0
1553632867.406,411.133,33.691,324.707,75.684,15.625,0
1553632867.410,385.742,36.133,311.523,72.754,-16.602,0
1553632867.414,352.539,44.434,315.430,49.316,40.039,0
1553632867.418,335.938,41.992,326.172,60.059,55.664,0
1553632867.422,296.387,35.156,320.312,64.941,22.461,0
1553632867.426,257.324,33.203,314.941,38.086,-13.184,0
1553632867.429,247.070,35.156,304.199,34.668,11.230,0
1553632867.433,222.656,37.598,294.434,39.551,33.203,0
1553632867.437,200.684,40.039,288.574,33.203,0.000,0
1553632867.441,180.176,38.574,274.902,31.250,6.348,0
1553632867.445,164.551,36.621,262.695,22.461,9.277,0
1553632867.449,149.902,36.133,248.047,35.156,24.414,0
1553632867.453,114.258,34.180,237.793,36.621,62.012,0
1553632867.457,114.258,36.621,229.004,2.930,55.664,0
1553632867.461,113.281,41.504,218.750,8.301,107.910,0
1553632867.465,72.754,38.574,207.520,10.742,77.148,0
1553632867.469,58.105,42.969,196.777,-5.859,54.688,0
1553632867.472,56.152,50.293,190.918,4.395,90.332,0
1553632867.476,44.922,50.293,180.176,4.883,40.039,0
1553632867.480,58.594,52.734,167.969,-13.184,40.527,0
1553632867.484,55.176,54.688,161.133,1.465,18.066,0
1553632867.488,26.367,53.223,152.344,10.254,-29.297,0
1553632867.492,25.879,52.246,142.578,-6.836,-19.531,0
1553632867.496,30.762,50.781,142.578,-7.812,33.691,0
1553632867.500,7.812,46.875,136.230,3.418,40.527,0
1553632867.504,15.625,53.711,126.953,1.465,0.000,0
1553632867.508,24.414,53.223,125.977,-11.230,-13.672,0
1553632867.511,12.207,46.387,122.559,-29.785,25.391,0
1553632867.515,15.137,43.945,115.723,-33.203,-0.977,0
1553632867.519,1.953,47.363,117.676,-25.391,10.742,0
1553632867.523,-1.465,50.781,115.723,-32.715,50.293,0
1553632867.527,-1.953,46.875,109.375,-33.203,9.766,0
1553632867.531,-9.277,58.594,113.281,-34.668,62.012,0
1553632867.535,-5.371,64.453,105.469,-54.688,99.609,0
1553632867.539,-14.648,54.688,92.285,-67.871,54.688,0
1553632867.543,-40.039,49.805,96.680,-76.660,60.547,0
1553632867.547,-56.641,48.828,105.957,-66.406,73.242,0
1553632867.551,-63.477,53.711,106.934,-53.711,83.984,0
1553632867.554,-81.543,57.617,95.215,-73.730,82.520,0
1553632867.558,-108.887,64.941,82.520,-120.605,27.344,0
1553632867.562,-125.000,69.824,77.637,-145.508,-8.301,0
1553632867.566,-138.672,73.242,78.125,-133.789,26.855,0
1553632867.570,-158.203,76.660,74.707,-142.578,63.965,0
1553632867.574,-182.617,73.730,67.383,-167.969,25.879,0
1553632867.578,-187.988,75.195,61.035,-186.035,-10.254,0
1553632867.582,-182.617,85.449,58.105,-188.965,22.949,0
1553632867.586,-189.453,88.867,47.852,-192.871,99.121,0
1553632867.590,-198.242,87.402,40.039,-199.707,109.863,0
1553632867.594,-197.266,86.426,41.504,-204.102,56.152,0
1553632867.597,-176.270,84.961,40.527,-174.316,72.266,0
1553632867.601,-166.504,80.078,35.645,-164.551,83.496,0
1553632867.605,-175.781,73.242,33.203,-161.133,51.758,0
1553632867.609,-162.109,67.871,39.062,-142.090,27.344,0
1553632867.613,-124.512,64.453,39.551,-132.324,62.012,0
1553632867.617,-106.934,66.895,34.668,-114.746,41.016,0
1553632867.621,-111.816,63.477,33.691,-100.098,-36.133,0
1553632867.625,-89.844,58.105,37.598,-76.660,-42.969,0
1553632867.629,-63.965,56.152,32.227,-60.547,29.785,0
1553632867.633,-61.035,53.223,24.902,-62.012,91.797,0
1553632867.636,-51.270,50.293,24.414,-51.758,72.754,0
1553632867.640,-37.598,50.781,24.414,-41.016,-6.348,0
1553632867.644,-29.297,52.734,24.902,-28.320,8.301,0
1553632867.648,-32.227,43.945,21.484,-18.066,15.625,0
1553632867.652,-28.320,46.387,20.020,-25.879,-41.504,0
1553632867.656,-20.996,52.246,18.555,-18.066,-8.301,0
1553632867.660,-34.180,47.852,14.160,-0.488,50.293,0
1553632867.664,-36.133,46.875,12.695,-3.906,48.340,0
1553632867.668,-26.855,50.781,10.742,-8.789,16.602,0
1553632867.672,-45.898,46.387,13.184,-7.324,6.348,0
1553632867.676,-62.012,38.574,13.672,-0.977,-8.301,0
1553632867.679,-62.012,39.062,16.113,9.766,-14.160,0
1553632867.683,-62.988,44.434,17.090,0.488,40.527,0
1553632867.687,-63.477,47.363,12.695,-2.441,81.543,0
1553632867.691,-68.359,35.645,13.672,4.883,68.359,0
1553632867.695,-72.266,31.250,14.160,0.977,-6.836,0
1553632867.699,-76.660,42.969,15.137,-17.090,8.789,0
1553632867.703,-80.566,41.992,23.926,-19.043,37.598,0
1553632867.707,-81.543,36.621,31.738,-13.672,51.758,0
1553632867.711,-82.031,38.086,32.715,-7.324,96.680,0
1553632867.715,-74.707,42.480,26.367,-2.441,74.219,0
1553632867.719,-76.660,34.668,24.414,-12.695,72.266,0
1553632867.722,-76.172,30.762,26.367,-12.695,61.523,0
1553632867.726,-78.613,38.086,28.809,13.184,29.785,0
1553632867.730,-83.496,46.387,28.809,16.113,66.406,0
1553632867.734,-84.473,49.316,23.926,-3.418,35.645,0
1553632867.738,-81.543,44.922,21.484,-7.812,-11.719,0
1553632867.742,-67.383,51.270,15.625,-3.418,34.668,0
1553632867.746,-78.125,58.594,13.184,2.441,32.227,0
1553632867.750,-102.051,52.734,12.695,6.348,14.160,0
1553632867.754,-103.516,54.199,7.324,9.277,29.297,0
1553632867.758,-104.980,58.105,10.254,10.742,4.395,0
1553632867.761,-109.863,53.711,16.113,8.301,46.387,0
1553632867.765,-118.652,42.480,16.602,-14.648,68.359,0
1553632867.769,-125.977,38.574,14.648,-25.879,-23.926,0
1553632867.773,-125.977,42.969,9.277,-10.742,-21.484,0
1553632867.777,-121.094,50.293,9.766,6.836,58.594,0
1553632867.781,-113.770,54.688,20.508,-18.066,42.480,0
1553632867.785,-120.117,59.082,30.762,-34.180,55.664,0
1553632867.789,-126.953,63.477,34.668,-21.484,67.383,0
1553632867.793,-131.348,62.988,32.715,-19.531,9.766,0
1553632867.797,-126.953,72.266,33.203,-16.602,12.207,0
1553632867.801,-116.211,73.242,34.180,-11.719,108.887,0
1553632867.804,-116.699,58.105,29.297,-2.441,124.512,0
1553632867.808,-118.164,54.688,26.367,1.953,66.406,0
1553632867.812,-114.258,57.129,23.438,-3.906,42.480,0
1553632867.816,-111.816,55.664,20.996,-5.371,63.477,0
1553632867.820,-118.164,52.734,20.508,4.395,56.641,0
1553632867.824,-105.469,51.270,17.578,12.695,-23.438,0
1553632867.828,-114.746,49.316,13.672,-0.488,31.250,0
1553632867.832,-116.211,48.340,15.137,0.488,69.336,0
1553632867.836,-102.539,56.641,13.672,-4.883,-15.137,0
1553632867.840,-135.742,52.246,13.184,-21.484,-45.410,0
1553632867.844,-146.973,47.363,15.137,-24.902,-4.395,0
1553632867.847,-142.090,49.316,11.719,-32.227,57.129,0
1553632867.851,-137.207,48.340,11.230,-25.879,46.875,0
1553632867.855,-135.742,41.504,13.184,-19.043,64.453,0
1553632867.859,-141.602,37.109,14.648,-24.414,76.660,0
1553632867.863,-145.996,37.109,16.602,-29.297,41.992,0
1553632867.867,-148.438,35.645,16.113,-29.297,58.594,0
1553632867.871,-133.301,40.039,17.578,-28.320,96.191,0
1553632867.875,-130.859,40.527,17.090,-33.203,71.777,0
1553632867.879,-133.789,44.922,16.113,-44.922,5.859,0
1553632867.883,-127.441,50.781,17.090,-35.645,-5.859,0
1553632867.886,-132.812,46.387,20.020,-14.648,7.812,0
1553632867.890,-121.094,51.758,19.531,-12.695,20.996,0
1553632867.894,-118.164,59.570,17.578,-31.738,71.777,0
1553632867.898,-121.582,55.664,18.066,-36.133,71.289,0
1553632867.902,-120.605,51.758,16.113,-38.574,77.148,0
1553632867.906,-117.676,52.246,13.184,-45.898,51.758,0
1553632867.910,-111.328,51.758,12.695,-39.551,-3.906,0
1553632867.914,-116.211,46.387,13.184,-33.203,16.602,0
1553632867.918,-118.652,41.992,9.766,-44.434,-3.418,0
1553632867.922,-118.164,46.875,10.254,-43.945,-0.977,0
1553632867.926,-119.629,51.270,18.555,-32.715,18.555,0
1553632867.929,-121.094,50.293,20.020,-41.504,13.184,0
1553632867.933,-126.465,43.945,17.090,-49.316,34.180,0
1553632867.937,-132.812,38.086,19.531,-53.223,29.297,0
1553632867.941,-136.719,41.016,22.461,-62.012,48.828,0
1553632867.945,-133.789,40.527,21.484,-68.359,28.320,0
1553632867.949,-134.277,37.109,21.484,-67.383,-12.695,0
1553632867.953,-133.301,41.504,24.414,-74.219,4.883,0
1553632867.957,-130.371,42.480,25.391,-85.938,109.375,0
1553632867.961,-144.531,37.109,21.973,-79.590,104.980,0
1553632867.965,-143.066,40.039,20.020,-83.984,44.922,0
1553632867.969,-126.465,48.828,16.113,-80.078,53.223,0
1553632867.972,-113.770,46.875,12.207,-66.895,45.410,0
1553632867.976,-129.395,40.039,20.020,-73.730,-4.883,0
1553632867.980,-143.555,37.598,26.855,-89.844,-16.113,0
1553632867.984,-140.137,35.645,22.461,-96.191,28.320,0
1553632867.988,-132.812,28.809,23.438,-79.590,37.598,0
1553632867.992,-122.070,27.832,23.926,-72.754,13.672,0
1553632867.996,-124.023,31.250,20.020,-77.637,51.270,0
1553632868.000,-136.230,36.133,18.066,-68.848,37.109,0
1553632868.004,-133.789,40.527,16.113,-69.824,7.324,0
1553632868.008,-109.863,37.598,17.090,-89.844,16.113,0
1553632868.011,-104.004,38.086,21.973,-92.773,16.602,0
1553632868.015,-115.723,39.551,26.855,-85.449,0.488,0
1553632868.019,-115.723,36.621,26.367,-87.891,-12.695,0
1553632868.023,-101.074,36.133,24.414,-90.332,1.465,0
1553632868.027,-93.750,41.992,23.926,-91.309,15.625,0
1553632868.031,-113.281,40.039,26.367,-92.773,13.672,0
1553632868.035,-125.977,36.621,27.344,-97.168,47.852,0
1553632868.039,-115.234,39.551,28.320,-101.562,44.922,0
1553632868.043,-106.934,39.551,27.344,-89.355,-8.789,0
1553632868.047,-110.840,39.551,20.508,-86.914,5.859,0
1553632868.051,-116.699,41.504,19.531,-101.074,66.406,0
1553632868.054,-120.605,41.016,19.531,-109.863,56.641,0
1553632868.058,-121.094,41.992,20.996,-112.305,18.555,0
1553632868.062,-121.094,43.457,18.066,-103.027,44.922,0
1553632868.066,-124.512,36.621,11.719,-95.703,35.156,0
1553632868.070,-120.605,35.645,12.207,-101.562,23.926,0
1553632868.074,-125.977,41.504,17.090,-98.633,83.496,0
1553632868.078,-125.977,41.992,18.555,-91.797,65.918,0
1553632868.082,-120.117,35.645,17.090,-98.633,17.090,0
1553632868.086,-104.492,37.598,14.648,-97.168,9.766,0
1553632868.090,-111.816,46.875,14.648,-78.125,48.340,0
1553632868.094,-125.000,45.898,16.113,-67.871,25.879,0
1553632868.097,-107.910,44.434,16.113,-65.430,0.488,0
1553632868.101,-106.934,41.992,18.555,-79.102,35.645,0
1553632868.105,-114.746,43.945,22.461,-85.938,4.395,0
1553632868.109,-110.840,48.828,21.484,-85.449,-20.020,0
1553632868.113,-119.629,41.504,16.113,-97.656,-18.066,0
1553632868.117,-122.070,40.527,16.602,-90.332,13.672,0
1553632868.121,-114.746,51.758,11.719,-95.215,82.031,0
1553632868.125,-118.652,52.246,16.602,-103.027,57.617,0
1553632868.129,-116.211,45.898,23.438,-98.145,20.020,0
1553632868.133,-119.629,42.969,19.531,-97.168,39.551,0
1553632868.136,-119.629,41.016,21.973,-82.031,13.184,0
1553632868.140,-110.840,39.062,24.414,-79.102,16.602,0
1553632868.144,-110.840,39.062,7.812,-89.844,37.109,0
1553632868.148,-102.539,44.922,-2.441,-86.914,20.020,0
1553632868.152,-109.375,52.246,15.625,-79.590,34.668,0
1553632868.156,-113.281,49.316,20.508,-81.543,33.203,0
1553632868.160,-96.191,52.246,14.160,-77.148,31.738,0
1553632868.164,-106.445,54.688,22.461,-60.547,61.523,0
1553632868.168,-131.348,41.016,31.250,-62.500,72.266,0
1553632868.172,-132.324,33.691,30.762,-75.684,48.340,0
1553632868.176,-110.840,34.180,32.227,-63.965,45.898,0
1553632868.179,-95.215,39.062,31.250,-58.594,48.340,0
1553632868.183,-90.332,29.785,32.715,-60.059,-5.859,0
1553632868.187,-90.820,27.344,32.715,-53.223,-6.348,0
1553632868.191,-81.055,44.434,26.855,-67.383,26.855,0
1553632868.195,-78.613,48.828,26.367,-75.195,-9.766,0
1553632868.199,-95.703,48.340,32.227,-63.477,22.461,0
1553632868.203,-90.820,43.457,32.715,-57.617,16.113,0
1553632868.207,-87.402,41.016,25.879,-62.500,51.270,0
1553632868.211,-81.543,43.457,28.320,-58.594,30.273,0
1553632868.215,-76.660,40.039,32.715,-51.270,-31.738,0
1553632868.219,-77.637,34.668,29.297,-52.734,26.367,0
1553632868.222,-70.801,36.621,24.414,-65.430,70.801,0
1553632868.226,-67.383,37.109,18.555,-59.570,63.477,0
1553632868.230,-59.082,30.762,18.066,-54.688,-2.441,0
1553632868.234,-49.316,35.645,19.531,-53.223,2.441,0
1553632868.238,-39.062,35.645,22.949,-42.480,54.199,0
1553632868.242,-37.109,30.762,30.762,-38.086,38.086,0
1553632868.246,-37.109,38.086,33.203,-35.156,32.227,0
1553632868.250,-32.227,43.945,33.203,-33.203,7.812,0
1553632868.254,-38.574,43.457,31.250,-17.578,-28.809,0
1553632868.258,-37.109,37.598,36.133,-19.043,8.789,0
1553632868.261,-28.809,38.574,40.039,-32.227,70.312,0
1553632868.265,-21.973,43.945,35.645,-25.879,29.785,0
1553632868.269,-15.625,46.875,39.062,-20.020,63.965,0
1553632868.273,-12.695,46.387,39.062,-20.996,41.016,0
1553632868.277,-11.719,48.828,28.320,-26.855,23.926,0
1553632868.281,-8.789,52.246,26.367,-15.137,68.359,0
1553632868.285,-10.254,48.828,30.273,-1.465,-10.742,0
1553632868.289,-14.648,46.387,24.902,-19.043,-9.277,0
1553632868.293,-11.230,42.969,21.484,-40.039,31.250,0
1553632868.297,-18.555,46.387,20.508,-42.969,-1.953,0
1553632868.301,-10.254,55.176,20.020,-42.969,22.461,0
1553632868.304,2.441,46.387,21.973,-36.621,30.762,0
1553632868.308,-10.742,41.504,17.090,-31.250,64.453,0
1553632868.312,-15.137,41.016,21.973,-40.039,81.543,0
1553632868.316,-8.789,38.086,28.809,-31.250,20.020,0
1553632868.320,4.395,40.527,30.762,-19.043,20.020,0
1553632868.324,2.930,41.504,32.715,-26.367,33.691,0
1553632868.328,-8.789,40.527,28.320,-20.996,-2.441,0
1553632868.332,0.000,39.062,32.227,-13.672,-5.371,0
1553632868.336,7.324,36.133,36.133,-15.625,7.324,0
1553632868.340,7.812,32.715,31.738,-29.297,16.602,0
1553632868.344,-0.977,33.203,35.156,-31.738,68.848,0
1553632868.347,-4.395,33.691,33.203,-29.785,83.496,0
1553632868.351,-0.977,36.133,28.320,-21.973,85.449,0
1553632868.355,-2.441,39.062,31.738,-22.461,50.781,0
1553632868.359,0.000,39.551,32.715,-32.715,24.414,0
1553632868.363,0.000,40.527,33.691,-22.461,22.949,0
1553632868.367,-1.465,40.527,30.762,-21.973,17.090,0
1553632868.371,7.812,41.016,30.273,-28.809,58.594,0
1553632868.375,3.906,41.016,30.273,-31.738,67.871,0
1553632868.379,2.930,36.621,25.391,-24.902,50.293,0
1553632868.383,6.836,32.715,25.391,-25.879,21.973,0
1553632868.386,21.484,35.645,29.297,-34.668,23.438,0
1553632868.390,79.102,39.551,30.273,-30.273,67.871,0
1553632868.394,118.652,44.922,30.762,-30.273,95.215,0
1553632868.398,125.977,44.922,29.297,-39.062,62.988,0
1553632868.402,138.672,42.969,23.438,-42.969,60.547,0
1553632868.406,143.066,44.434,24.902,-32.227,42.969,0
1553632868.410,153.809,38.574,33.203,-20.996,45.410,0
1553632868.414,177.246,36.621,32.227,-22.461,80.078,0
1553632868.418,189.941,38.574,34.180,-28.320,71.289,0
1553632868.422,192.383,37.598,38.086,-20.996,107.422,0
1553632868.426,192.383,38.574,33.203,-22.949,51.758,0
1553632868.429,191.895,38.086,35.645,-19.531,22.949,0
1553632868.433,183.594,33.203,42.480,-2.441,107.910,0
1553632868.437,182.129,30.273,36.133,17.578,101.074,0
1553632868.441,162.598,35.645,27.832,11.719,-24.414,0
1553632868.445,125.488,46.875,26.367,-35.156,-32.227,0
1553632868.449,118.164,56.152,28.809,-42.480,3.418,0
1553632868.453,120.117,58.594,25.879,-28.809,7.812,0
1553632868.457,122.559,62.988,25.391,-36.621,58.594,0
1553632868.461,130.859,67.871,18.066,-20.020,22.949,0
1553632868.465,128.906,70.801,4.883,-20.020,12.695,0
1553632868.469,127.930,72.266,11.719,-30.273,74.219,0
1553632868.472,173.340,66.895,19.043,-20.508,81.055,0
1553632868.476,263.184,57.617,22.461,-24.902,20.020,0
1553632868.480,278.320,62.988,18.066,-33.203,-37.598,0
1553632868.484,258.301,66.895,17.090,-28.320,-11.719,0
1553632868.488,248.047,62.012,20.996,-37.598,57.129,0
1553632868.492,226.562,62.012,20.020,-35.156,57.617,0
1553632868.496,215.820,58.105,25.391,-10.254,22.461,0
1553632868.500,201.172,56.641,27.344,-17.090,2.930,0
1553632868.504,171.387,61.035,27.344,-18.066,53.223,0
1553632868.508,157.227,59.082,27.344,5.371,31.738,0
1553632868.511,158.691,55.176,26.367,-9.277,-12.695,0
1553632868.515,143.066,53.223,24.902,-27.832,4.883,0
1553632868.519,127.441,59.082,29.785,-18.066,6.836,0
1553632868.523,125.977,62.500,30.762,-22.461,-3.418,0
1553632868.527,116.699,63.477,20.996,-25.391,12.207,0
1553632868.531,103.027,59.082,23.926,-23.438,48.340,0
1553632868.535,101.074,57.617,23.438,-19.531,94.238,0
1553632868.539,101.562,65.430,14.648,-14.160,70.312,0
1553632868.543,92.773,62.500,28.809,-20.508,74.707,0
1553632868.547,85.449,56.152,35.645,-16.113,61.035,0
1553632868.551,67.383,46.875,30.762,-1.953,-2.441,0
1553632868.554,49.316,48.828,28.809,-14.160,-24.902,0
1553632868.558,48.340,60.547,25.391,-24.414,-27.832,0
1553632868.562,44.434,58.105,24.902,-9.277,6.836,0
1553632868.566,40.527,53.711,27.832,-14.648,14.160,0
1553632868.570,30.762,53.223,27.344,-26.855,37.109,0
1553632868.574,15.137,49.805,21.484,-16.113,77.637,0
1553632868.578,9.766,47.363,23.926,-7.324,76.660,0
1553632868.582,11.719,44.434,28.809,-17.090,62.012,0
1553632868.586,9.766,35.645,30.273,-15.137,30.762,0
1553632868.590,-3.418,34.180,31.250,-14.648,-27.344,0
1553632868.594,-10.742,40.039,29.785,-8.789,-21.484,0
1553632868.597,-23.926,43.457,31.250,-10.254,38.086,0
1553632868.601,-30.273,46.875,32.227,-22.949,70.312,0
1553632868.605,-18.555,45.898,30.762,-25.879,66.895,0
1553632868.609,-19.531,46.387,32.715,-14.160,9.277,0
1553632868.613,-35.645,50.781,29.297,-9.766,-13.672,0
1553632868.617,-32.715,55.176,27.344,-20.020,36.133,0
1553632868.621,-17.090,51.758,32.715,-19.531,54.688,0
1553632868.625,-34.668,46.387,33.203,-25.391,77.148,0
1553632868.629,-40.527,47.852,20.020,-30.273,42.480,0
1553632868.633,-40.039,44.434,21.973,-25.391,-2.930,0
1553632868.636,-51.758,40.527,33.203,-23.438,-10.742,0
1553632868.640,-52.734,46.387,32.227,-25.879,25.391,0
1553632868.644,-60.547,49.316,35.645,-20.996,67.383,0
1553632868.648,-69.824,43.945,37.598,-10.254,53.223,0
1553632868.652,-62.500,43.457,34.668,-13.184,47.852,0
1553632868.656,-47.363,45.898,32.715,-24.414,21.973,0
1553632868.660,-56.641,49.316,37.598,-25.879,58.105,0
1553632868.664,-66.895,50.293,31.738,-28.809,52.734,0
1553632868.668,-45.410,47.363,25.391,-9.766,10.254,0
1553632868.672,-35.645,42.480,38.574,9.277,-9.766,0
1553632868.676,-77.148,43.457,50.781,-21.973,12.695,0
1553632868.679,-114.746,34.180,51.758,-60.547,39.062,0
1553632868.683,-118.164,22.461,49.805,-67.383,33.691,0
1553632868.687,-128.418,14.160,53.223,-69.824,53.711,0
1553632868.691,-142.090,5.859,61.035,-73.730,58.594,0
1553632868.695,-155.762,-1.465,67.383,-80.566,47.363,0
1553632868.699,-164.062,-2.441,65.918,-89.355,15.625,0
1553632868.703,-162.598,7.324,62.012,-91.309,62.500,0
1553632868.707,-185.547,5.371,62.988,-117.676,62.500,0
1553632868.711,-200.195,-1.953,63.477,-131.348,17.090,0
1553632868.715,-198.730,-1.953,66.895,-125.488,-10.742,0
1553632868.719,-213.379,-3.906,65.430,-143.066,24.902,0
1553632868.722,-220.703,-6.836,64.941,-144.043,41.504,0
1553632868.726,-225.098,-7.812,70.312,-147.949,-5.371,0
1553632868.730,-233.887,-9.277,77.637,-159.180,-9.277,0
1553632868.734,-215.820,-3.418,76.172,-141.113,62.012,0
1553632868.738,-204.590,4.883,66.406,-136.230,76.172,0
1553632868.742,-224.121,9.766,66.895,-149.902,76.172,0
1553632868.746,-236.328,9.277,70.801,-159.668,45.410,0
1553632868.750,-224.609,12.695,69.336,-148.926,29.785,0
1553632868.754,-212.402,18.555,64.453,-142.578,90.820,0
1553632868.758,-227.051,17.090,60.059,-166.504,41.016,0
1553632868.761,-241.211,16.602,57.617,-179.688,19.531,0
1553632868.765,-229.004,27.344,54.688,-176.758,22.949,0
1553632868.769,-218.262,34.180,51.758,-183.594,20.508,0
1553632868.773,-225.098,21.484,54.199,-180.176,28.809,0
1553632868.777,-228.027,27.832,45.410,-172.363,1.953,0
1553632868.781,-223.145,45.410,37.598,-183.105,21.973,0
1553632868.785,-214.844,43.945,30.762,-175.293,16.113,0
1553632868.789,-208.496,46.875,26.855,-166.016,-23.438,0
1553632868.793,-204.590,69.336,35.156,-181.152,7.324,0
1553632868.797,-204.102,83.496,31.250,-178.711,8.789,0
1553632868.801,-192.383,71.289,31.250,-175.781,44.922,0
1553632868.804,-187.012,40.527,41.504,-166.992,112.305,0
1553632868.808,-190.918,39.062,42.969,-162.109,36.133,0
1553632868.812,-191.406,71.777,36.133,-163.574,10.742,0
1553632868.816,-190.918,76.660,36.621,-156.250,72.266,0
1553632868.820,-181.152,77.637,37.598,-161.621,46.387,0
1553632868.824,-175.293,89.355,27.832,-156.250,44.922,0
1553632868.828,-159.668,74.707,26.367,-134.766,5.859,0
1553632868.832,-159.668,67.383,24.414,-141.602,-17.578,0
1553632868.836,-174.316,75.684,15.625,-156.738,23.926,0
1553632868.840,-161.133,64.453,18.555,-139.648,92.773,0
1553632868.844,-141.113,74.219,13.672,-115.234,28.809,0
1553632868.847,-136.230,91.797,9.766,-106.934,-11.230,0
1553632868.851,-145.020,87.402,9.277,-124.512,48.340,0
1553632868.855,-121.582,94.727,2.930,-111.328,67.871,0
1553632868.859,-83.984,97.656,-1.465,-72.266,38.574,0
1553632868.863,-84.473,87.891,2.441,-67.871,58.105,0
1553632868.867,-73.730,88.867,4.883,-73.242,50.781,0
1553632868.871,-62.012,88.867,2.930,-64.453,-6.348,0
1553632868.875,-49.805,82.520,3.906,-35.156,-7.812,0
1553632868.879,-26.855,88.379,3.418,-31.250,-35.156,0
1553632868.883,-60.547,90.332,0.000,-26.367,20.996,0
1553632868.886,-106.445,81.055,-0.977,3.418,50.293,0
1553632868.890,-116.699,73.242,-0.488,6.836,34.668,0
1553632868.894,-106.934,73.242,0.000,16.602,28.809,0
1553632868.898,-97.656,74.219,8.301,39.062,72.266,0
1553632868.902,-100.098,62.500,10.254,63.965,38.574,0
1553632868.906,-98.633,49.805,12.207,60.547,9.277,0
1553632868.910,-89.355,54.199,7.324,47.852,55.664,0
1553632868.914,-89.844,61.035,4.395,65.918,66.406,0
1553632868.918,-115.234,52.734,20.020,70.801,45.410,0
1553632868.922,-104.492,42.969,27.344,74.219,43.945,0
1553632868.926,-96.191,49.316,27.832,96.191,-0.977,0
1553632868.929,-117.188,48.828,23.438,85.449,-0.488,0
1553632868.933,-112.793,42.480,20.996,55.664,20.020,0
1553632868.937,-101.074,47.363,24.414,51.758,2.441,0
1553632868.941,-96.680,49.316,22.461,54.688,-2.930,0
1553632868.945,-91.797,43.457,21.484,60.059,20.508,0
1553632868.949,-91.797,38.574,24.902,60.059,-20.996,0
1553632868.953,-85.938,42.969,19.043,48.340,0.977,0
1553632868.957,-80.078,47.363,9.277,35.645,57.129,0
1553632868.961,-75.195,51.270,12.207,40.527,76.660,0
1553632868.965,-84.473,46.875,16.602,47.363,61.523,0
1553632868.969,-97.656,47.363,21.973,48.828,41.992,0
1553632868.972,-89.844,24.414,31.738,33.203,62.012,0
1553632868.976,-87.891,15.625,29.785,37.598,5.371,0
1553632868.980,-92.773,42.480,24.902,43.457,10.742,0
1553632868.984,-70.801,50.781,32.227,34.180,44.922,0
1553632868.988,-76.660,47.852,33.203,48.340,57.617,0
1553632868.992,-87.891,36.621,33.691,47.852,91.309,0
1553632868.996,-72.754,40.039,31.250,26.855,56.641,0
1553632869.000,-83.496,50.293,16.602,21.484,10.254,0
1553632869.004,-84.473,45.410,15.137,46.875,29.785,0
1553632869.008,-84.473,30.762,28.320,55.664,123.047,0
1553632869.011,-93.750,35.645,34.180,41.504,70.312,0
1553632869.015,-77.637,46.875,30.273,38.574,-4.395,0
1553632869.019,-55.176,43.457,32.227,21.973,46.875,0
1553632869.023,-63.965,47.852,35.645,21.484,49.316,0
1553632869.027,-79.102,50.293,30.762,32.715,65.430,0
1553632869.031,-90.820,43.457,32.227,39.551,43.945,0
1553632869.035,-103.516,37.109,31.738,30.762,-37.109,0
1553632869.039,-116.699,38.574,28.320,4.883,-5.859,0
1553632869.043,-121.582,31.250,31.250,3.418,81.543,0
1553632869.047,-119.141,39.062,21.484,-1.465,88.379,0
1553632869.051,-108.887,41.504,26.855,-9.277,49.316,0
1553632869.054,-99.121,30.273,25.879,2.441,-1.465,0
1553632869.058,-94.238,36.621,23.438,5.371,69.336,0
1553632869.062,-86.426,28.809,39.062,8.301,39.062,0
1553632869.066,-85.449,18.066,35.156,7.812,-11.719,0
1553632869.070,-84.961,23.438,28.809,22.461,20.508,0
1553632869.074,-86.426,31.250,31.738,12.207,38.574,0
1553632869.078,-75.684,32.715,33.691,-2.441,42.969,0
1553632869.082,-86.426,37.598,33.691,2.441,68.359,0
1553632869.086,-92.773,29.785,32.227,0.977,53.223,0
1553632869.090,-78.125,31.250,30.762,0.488,21.484,0
1553632869.094,-78.613,38.574,36.621,-1.953,41.016,0
1553632869.097,-81.543,32.715,34.668,-0.977,79.102,0
1553632869.101,-94.238,31.738,36.621,-10.254,54.199,0
1553632869.105,-89.844,32.227,40.039,-1.953,8.301,0
1553632869.109,-83.496,38.574,36.133,6.348,38.574,0
1553632869.113,-94.238,35.156,36.621,-9.766,36.621,0
1553632869.117,-97.168,30.762,36.133,-8.301,48.828,0
1553632869.121,-96.680,31.250,39.062,-7.812,77.637,0
1553632869.125,-98.633,26.367,36.621,-11.230,73.242,0
1553632869.129,-106.445,37.598,31.250,-7.812,64.941,0
1553632869.133,-111.816,38.086,33.203,-16.602,73.730,0
1553632869.136,-82.520,17.578,41.016,-21.484,73.730,0
1553632869.140,-75.195,18.066,38.574,8.301,37.598,0
1553632869.144,-78.613,14.648,36.133,20.996,17.090,0
1553632869.148,-93.262,16.113,30.762,-16.113,-17.578,0
1553632869.152,-110.352,28.320,26.855,-23.926,25.879,0
1553632869.156,-95.215,29.297,37.109,-7.324,63.477,0
1553632869.160,-91.309,27.344,51.758,-6.836,4.395,0
1553632869.164,-92.285,31.738,57.129,-12.207,28.320,0
1553632869.168,-99.121,31.250,51.270,-22.461,26.367,0
1553632869.172,-101.074,30.762,54.199,-26.855,5.371,0
1553632869.176,-95.703,23.926,59.570,-19.043,60.059,0
1553632869.179,-119.141,19.043,58.594,-4.883,24.414,0
1553632869.183,-121.094,33.203,61.035,1.953,5.859,0
1553632869.187,-122.070,48.340,53.711,6.348,-9.766,0
1553632869.191,-109.375,40.039,62.012,2.930,19.043,0
1553632869.195,-95.215,30.762,67.383,-25.879,48.340,0
1553632869.199,-91.797,36.133,53.223,-9.766,9.277,0
1553632869.203,-107.910,28.320,50.293,-20.508,20.508,0
1553632869.207,-129.395,20.020,55.664,-21.973,37.598,0
1553632869.211,-124.512,44.434,58.105,6.348,41.992,0
1553632869.215,-108.398,45.410,56.152,0.000,23.438,0
1553632869.219,-97.168,26.855,54.688,-5.371,-8.301,0
1553632869.222,-103.027,23.438,58.594,5.371,-28.320,0
1553632869.226,-100.586,19.531,66.406,-10.254,42.969,0
1553632869.230,-115.234,37.598,61.523,-37.109,39.062,0
1553632869.234,-131.836,62.012,52.734,-33.691,32.227,0
1553632869.238,-83.984,38.086,52.246,14.648,79.590,0
1553632869.242,-61.523,14.648,60.547,40.039,12.695,0
1553632869.246,-77.637,24.902,63.477,32.227,15.137,0
1553632869.250,-83.496,29.297,63.477,38.574,58.105,0
1553632869.254,-79.102,29.785,65.918,46.387,32.227,0
1553632869.258,-71.289,28.809,68.848,44.922,60.547,0
1553632869.261,-62.500,35.645,59.570,33.203,31.738,0
1553632869.265,-68.359,43.945,56.152,15.137,11.230,0
1553632869.269,-86.914,40.527,67.383,16.113,59.082,0
1553632869.273,-106.445,30.273,76.172,5.371,50.781,0
1553632869.277,-100.098,58.594,77.148,8.301,41.992,0
1553632869.281,-51.270,52.734,64.941,53.223,38.574,0
1553632869.285,-21.973,30.762,62.500,38.574,5.859,0
1553632869.289,-33.203,48.828,73.730,47.852,7.812,0
1553632869.293,-26.367,32.227,79.590,83.008,80.078,0
1553632869.297,-26.367,19.531,76.172,85.938,62.500,0
1553632869.301,-47.363,17.578,78.125,77.148,-16.113,0
1553632869.304,-61.035,25.879,72.266,68.359,52.246,0
1553632869.308,-44.434,24.902,68.359,63.477,99.609,0
1553632869.312,-27.344,27.344,76.660,36.133,17.090,0
1553632869.316,-40.039,33.691,77.637,36.621,-18.066,0
1553632869.320,-49.805,20.020,66.895,47.363,-1.953,0
1553632869.324,-27.344,31.250,63.477,50.293,43.457,0
1553632869.328,-22.949,35.645,67.871,62.500,81.055,0
1553632869.332,-23.926,28.320,70.312,65.918,54.199,0
1553632869.336,-29.785,31.250,76.172,60.547,37.109,0
1553632869.340,-75.195,44.434,70.801,39.551,31.250,0
1553632869.344,-83.496,68.359,63.965,16.113,42.969,0
1553632869.347,-49.805,37.109,80.078,26.855,19.043,0
1553632869.351,-33.691,24.902,80.566,60.547,17.578,0
1553632869.355,-23.926,31.738,54.199,61.523,43.457,0
1553632869.359,-36.133,27.832,49.316,55.664,38.574,0
1553632869.363,-45.898,24.902,65.430,35.645,43.945,0
1553632869.367,-47.363,12.695,55.664,59.570,9.766,0
1553632869.371,-54.199,27.344,57.129,89.355,12.207,0
1553632869.375,-70.801,42.969,56.152,22.461,56.152,0
1553632869.379,-75.684,41.504,52.246,13.672,26.855,0
1553632869.383,-57.617,42.969,59.570,27.832,-7.324,0
1553632869.386,-53.223,20.020,57.617,18.555,-26.855,0
1553632869.390,-62.012,30.273,36.133,21.973,-27.832,0
1553632869.394,-85.938,45.410,46.387,-9.277,-11.230,0
1553632869.398,-101.562,38.086,59.570,-23.438,-7.812,0
1553632869.402,-87.891,47.363,53.223,-0.488,29.785,0
1553632869.406,-60.547,31.250,62.012,20.020,58.105,0
1553632869.410,-65.918,29.785,63.965,18.555,40.527,0
1553632869.414,-84.473,25.391,59.082,17.090,37.598,0
1553632869.418,-64.941,23.438,47.852,33.691,34.668,0
1553632869.422,-69.824,43.945,38.574,68.359,31.738,0
1553632869.426,-89.355,38.086,47.852,46.387,12.695,0
1553632869.429,-79.590,30.273,59.082,-28.320,29.297,0
1553632869.433,-88.379,37.598,62.500,-24.902,25.391,0
1553632869.437,-75.684,27.832,57.129,-9.766,-4.883,0
1553632869.441,-83.496,35.156,51.270,-30.273,41.016,0
1553632869.445,-85.938,25.879,53.223,-0.488,37.109,0
1553632869.449,-79.102,21.973,51.270,40.527,76.172,0
1553632869.453,-89.355,43.457,43.457,20.020,97.168,0
1553632869.457,-83.496,37.598,50.781,22.461,32.715,0
1553632869.461,-73.730,25.879,60.059,41.992,29.785,0
1553632869.465,-86.914,43.457,61.523,11.230,22.461,0
1553632869.469,-110.352,50.293,56.152,-1.953,30.273,0
1553632869.472,-111.816,23.926,53.223,7.324,13.184,0
1553632869.476,-101.074,23.438,52.734,0.977,-39.062,0
1553632869.480,-104.492,31.250,48.340,0.000,-19.531,0
1553632869.484,-105.957,26.367,52.734,-9.766,-15.625,0
1553632869.488,-101.074,45.410,45.410,0.977,34.180,0
1553632869.492,-91.309,49.316,45.898,17.090,103.027,0
1553632869.496,-77.637,39.551,58.594,7.812,-9.766,0
1553632869.500,-62.500,53.223,51.758,11.230,-12.207,0
1553632869.504,-66.406,40.527,40.527,22.461,75.684,0
1553632869.508,-90.332,21.484,45.410,27.832,46.387,0
1553632869.511,-100.586,19.043,50.293,14.648,14.160,0
1553632869.515,-90.820,33.691,49.805,12.695,-1.953,0
1553632869.519,-96.680,36.133,51.270,10.254,31.250,0
1553632869.523,-106.445,35.645,52.246,-12.695,37.109,0
1553632869.527,-96.191,42.480,54.688,-2.930,0.977,0
1553632869.531,-98.633,43.457,57.617,-6.836,-5.371,0
1553632869.535,-107.910,38.574,49.805,-10.254,39.062,0
1553632869.539,-100.586,31.250,34.668,1.465,45.410,0
1553632869.543,-86.914,33.203,38.086,2.441,11.230,0
1553632869.547,-90.820,15.137,51.758,12.207,25.391,0
1553632869.551,-143.555,9.766,60.059,-19.531,3.418,0
1553632869.554,-169.434,28.320,59.082,-47.363,60.059,0
1553632869.558,-145.508,14.160,57.617,-23.438,82.031,0
1553632869.562,-141.602,3.418,55.664,-20.508,78.125,0
1553632869.566,-192.383,4.883,60.059,-71.777,83.008,0
1553632869.570,-218.262,2.930,64.941,-66.895,56.641,0
1553632869.574,-186.035,-20.508,74.707,-47.852,31.738,0
1553632869.578,-198.730,-32.227,75.684,-64.453,38.086,0
1553632869.582,-204.102,-38.574,73.242,-74.219,33.691,0
1553632869.586,-231.934,-39.062,72.754,-111.328,12.695,0
1553632869.590,-238.281,-41.504,79.590,-92.773,33.691,0
1553632869.594,-215.820,-52.734,90.332,-55.176,20.996,0
1553632869.597,-228.027,-55.664,85.938,-70.801,65.918,0
1553632869.601,-215.332,-54.688,84.961,-57.129,103.516,0
1553632869.605,-218.750,-49.805,87.402,-60.547,56.641,0
1553632869.609,-214.844,-48.828,82.031,-61.035,29.297,0
1553632869.613,-210.938,-53.711,83.008,-62.988,26.855,0
1553632869.617,-203.125,-52.734,83.496,-61.035,14.648,0
1553632869.621,-177.734,-49.316,82.031,-34.180,30.273,0
1553632869.625,-181.152,-53.223,80.078,-40.039,24.902,0
1553632869.629,-183.105,-50.781,76.660,-33.203,11.719,0
1553632869.633,-178.711,-38.574,70.801,-41.016,36.133,0
1553632869.636,-173.340,-28.320,67.383,-48.340,2.930,0
1553632869.640,-187.012,-13.672,59.570,-20.996,-8.789,0
1553632869.644,-173.828,-19.531,66.895,-8.789,13.184,0
1553632869.648,-150.391,-21.484,63.477,-26.855,13.184,0
1553632869.652,-129.883,-12.207,49.805,-22.949,-9.766,0
1553632869.656,-110.840,-8.789,55.664,-10.742,41.504,0
1553632869.660,-116.699,1.465,49.316,-6.836,101.562,0
1553632869.664,-129.883,9.766,43.457,-13.672,81.543,0
1553632869.668,-125.488,5.859,54.199,-6.348,45.410,0
1553632869.672,-104.980,-1.953,53.223,-3.906,43.457,0
1553632869.676,-110.840,3.906,47.363,-14.160,51.270,0
1553632869.679,-105.957,13.672,42.969,-0.488,11.719,0
1553632869.683,-89.355,7.324,36.621,-7.812,20.996,0
1553632869.687,-92.285,1.953,40.039,-24.414,39.551,0
1553632869.691,-90.820,2.441,50.293,-10.742,34.668,0
1553632869.695,-90.820,15.625,43.945,-10.254,52.734,0
1553632869.699,-95.703,25.391,38.574,-25.391,56.152,0
1553632869.703,-91.797,15.625,44.922,-20.996,55.176,0
1553632869.707,-88.867,18.066,41.504,-17.090,102.051,0
1553632869.711,-102.051,18.066,37.598,-31.738,68.848,0
1553632869.715,-107.422,16.602,41.016,-41.992,25.391,0
1553632869.719,-98.633,18.066,43.945,-38.086,9.766,0
1553632869.722,-97.656,20.508,47.363,-44.922,-7.324,0
1553632869.726,-111.816,29.785,45.410,-41.992,20.508,0
1553632869.730,-98.145,39.551,40.527,-60.547,23.438,0
1553632869.734,-87.891,32.227,38.086,-54.199,45.898,0
1553632869.738,-92.285,19.043,38.086,0.977,59.082,0
1553632869.742,-89.355,31.738,34.668,-55.664,51.758,0
1553632869.746,-98.633,38.574,36.133,-80.566,40.527,0
1553632869.750,-102.051,37.109,44.434,3.906,11.719,0
1553632869.754,-90.820,42.969,38.574,6.348,21.484,0
1553632869.758,-87.402,42.969,30.762,12.695,38.086,0
1553632869.761,-84.961,38.574,31.738,23.438,47.363,0
1553632869.765,-76.172,38.086,39.551,-0.488,31.250,0
1553632869.769,-94.727,45.898,37.598,-57.129,-33.691,0
1553632869.773,-94.238,43.457,27.832,-38.574,18.066,0
1553632869.777,-83.984,35.156,24.414,4.395,65.430,0
1553632869.781,-85.449,37.598,32.227,-9.766,20.996,0
1553632869.785,-89.355,41.992,39.551,9.766,18.555,0
1553632869.789,-92.773,35.645,44.434,79.590,20.508,0
1553632869.793,-95.703,18.066,50.781,52.246,54.688,0
1553632869.797,-121.582,24.902,41.992,18.066,72.266,0
1553632869.801,-123.047,44.922,32.715,40.527,13.184,0
1553632869.804,-96.191,41.016,27.832,-15.137,20.508,0
1553632869.808,-93.262,33.691,28.320,36.621,26.367,0
1553632869.812,-103.516,24.902,42.480,87.402,0.977,0
1553632869.816,-116.211,29.785,38.574,27.832,-1.953,0
1553632869.820,-127.441,35.645,40.039,19.043,65.918,0
1553632869.824,-105.957,26.367,42.969,30.762,18.555,0
1553632869.828,-98.145,27.344,26.367,-33.691,-17.090,0
1553632869.832,-111.816,30.762,25.391,-85.938,63.965,0
1553632869.836,-133.789,22.949,38.086,-41.504,35.645,0
1553632869.840,-134.766,31.250,31.250,-77.148,18.066,0
1553632869.844,-131.348,45.410,36.133,-3.906,23.438,0
1553632869.847,-114.746,50.293,41.992,24.414,56.641,0
1553632869.851,-123.047,46.875,37.598,-1.953,127.441,0
1553632869.855,-124.023,35.645,34.180,-8.301,12.695,0
1553632869.859,-123.535,42.480,39.551,-26.855,-65.918,0
1553632869.863,-137.695,43.457,41.504,-14.648,-4.395,0
1553632869.867,-124.512,31.250,44.922,-31.250,-0.488,0
1553632869.871,-155.273,46.387,43.457,-66.406,-0.977,0
1553632869.875,-172.852,56.641,52.246,-97.656,57.129,0
1553632869.879,-148.926,13.184,58.105,-22.461,28.809,0
1553632869.883,-115.723,-8.789,43.945,-18.066,-43.945,0
1553632869.886,-103.027,20.508,37.598,-160.645,24.414,0
1553632869.890,-115.234,50.781,40.039,-66.406,44.922,0
1553632869.894,-133.789,43.457,35.156,76.172,-2.441,0
1553632869.898,-160.156,48.340,16.602,35.645,25.391,0
1553632869.902,-123.535,71.289,7.324,-58.594,28.320,0
1553632869.906,-94.727,79.102,8.789,-36.621,38.574,0
1553632869.910,-104.492,83.496,2.930,3.418,63.477,0
1553632869.914,-105.957,91.797,-12.695,-43.457,8.301,0
1553632869.918,-104.004,98.633,-2.930,-44.922,1.465,0
1553632869.922,-109.375,119.629,-3.906,-73.730,63.965,0
1553632869.926,-105.469,133.301,-31.250,-155.273,80.566,0
1553632869.929,-100.586,117.188,-30.762,-103.027,69.336,0
1553632869.933,-115.723,122.559,-22.461,-18.555,64.453,0
1553632869.937,-103.516,128.418,-19.043,-23.926,59.570,0
1553632869.941,-95.215,127.441,-16.113,-112.305,8.301,0
1553632869.945,-112.793,135.742,-27.344,-115.723,10.742,0
1553632869.949,-137.207,138.672,-41.504,-35.645,19.531,0
1553632869.953,-153.809,138.672,-24.414,-85.449,41.992,0
1553632869.957,-133.789,140.137,-22.461,-103.027,40.527,0
1553632869.961,-131.836,117.676,-17.090,-32.227,45.898,0
1553632869.965,-146.484,106.934,7.324,-50.293,34.180,0
1553632869.969,-125.977,110.840,-9.277,-48.340,23.438,0
1553632869.972,-121.094,102.051,-16.113,-70.312,27.832,0
1553632869.976,-141.602,96.191,-5.859,-87.402,20.508,0
1553632869.980,-130.859,104.004,-16.113,14.648,46.387,0
1553632869.984,-105.957,101.074,-12.695,43.457,50.781,0
1553632869.988,-109.375,88.379,-1.953,-29.785,25.391,0
1553632869.992,-147.461,110.352,-16.113,-112.305,17.578,0
1553632869.996,-157.715,92.285,14.160,-63.965,97.168,0
1553632870.000,-139.648,64.453,37.109,-37.598,97.168,0
1553632870.004,-127.441,80.078,-2.930,-18.066,53.223,0
1553632870.008,-128.418,83.496,-10.254,-11.230,43.457,0
1553632870.011,-131.836,75.684,7.812,-85.449,23.926,0
1553632870.015,-131.836,67.383,13.184,-36.133,25.391,0
1553632870.019,-116.211,71.777,-1.953,43.945,43.945,0
1553632870.023,-98.633,63.477,-0.488,-47.363,55.664,0
1553632870.027,-108.887,66.406,2.930,-148.926,56.641,0
1553632870.031,-145.996,57.617,33.691,-28.809,68.359,0
1553632870.035,-142.090,48.340,39.551,18.555,37.109,0
1553632870.039,-104.980,72.754,1.465,57.617,26.367,0
1553632870.043,-90.820,73.242,4.883,6.348,44.922,0
1553632870.047,-77.148,67.383,-2.930,-57.129,24.414,0
1553632870.051,-96.191,62.500,11.719,14.160,-15.137,0
1553632870.054,-133.789,75.684,38.574,-61.035,3.418,0
1553632870.058,-110.352,82.031,6.836,-83.496,72.266,0
1553632870.062,-81.543,51.758,7.812,60.547,15.625,0
1553632870.066,-94.238,54.688,13.184,87.402,-52.734,0
1553632870.070,-107.910,61.523,6.836,20.508,40.039,0
1553632870.074,-114.746,57.617,15.625,35.156,62.012,0
1553632870.078,-110.352,62.012,1.465,34.668,36.133,0
1553632870.082,-92.285,64.453,6.836,46.387,51.758,0
1553632870.086,-75.684,68.359,17.578,12.207,42.969,0
1553632870.090,-112.793,63.477,14.648,-69.336,25.879,0
1553632870.094,-178.223,50.781,11.230,-36.133,43.945,0
1553632870.097,-155.762,54.199,38.086,15.625,46.875,0
1553632870.101,-111.816,60.059,32.715,-114.746,31.738,0
1553632870.105,-101.074,53.223,4.883,-39.551,34.668,0
1553632870.109,-107.910,52.246,21.973,109.375,30.762,0
1553632870.113,-134.277,45.410,36.621,14.160,27.344,0
1553632870.117,-96.680,46.387,27.832,-76.172,25.879,0
1553632870.121,-104.004,47.852,23.438,-183.594,61.035,0
1553632870.125,-101.562,44.922,45.410,13.184,82.031,0
1553632870.129,-98.145,48.340,51.758,102.539,29.297,0
1553632870.133,-114.258,47.852,34.668,8.789,57.129,0
1553632870.136,-95.703,48.340,15.625,114.258,98.145,0
1553632870.140,-88.379,50.781,18.555,116.211,41.992,0
1553632870.144,-71.289,49.316,13.672,66.406,64.453,0
1553632870.148,-56.641,44.922,16.602,68.848,52.734,0
1553632870.152,-82.520,48.828,26.367,49.805,20.508,0
1553632870.156,-96.680,52.734,20.020,34.180,61.523,0
1553632870.160,-92.773,51.270,20.996,23.926,102.051,0
1553632870.164,-94.238,43.457,24.902,-23.926,66.406,0
1553632870.168,-101.562,35.645,21.973,-2.441,19.531,0
1553632870.172,-104.004,33.691,25.879,19.531,36.621,0
1553632870.176,-100.098,37.598,28.809,9.766,38.574,0
1553632870.179,-112.305,35.156,28.320,-7.324,22.461,0
1553632870.183,-103.516,33.203,27.832,-26.367,9.277,0
1553632870.187,-80.566,36.133,29.297,-24.902,18.555,0
1553632870.191,-70.801,39.551,27.832,-28.809,31.250,0
1553632870.195,-81.055,27.344,29.785,-10.254,62.012,0
1553632870.199,-104.004,21.484,31.250,-21.484,20.996,0
1553632870.203,-70.312,38.574,28.809,-36.133,26.855,0
1553632870.207,-54.688,38.574,29.297,-24.902,71.289,0
1553632870.211,-76.660,34.180,21.484,-78.125,34.180,0
1553632870.215,-62.988,38.086,20.508,-97.656,-20.508,0
1553632870.219,-82.031,39.551,32.227,-72.754,-8.789,0
1553632870.222,-88.867,45.898,28.320,-62.500,64.453,0
1553632870.226,-53.223,48.828,20.020,-77.148,71.777,0
1553632870.230,-39.551,40.039,26.855,-99.609,5.371,0
1553632870.234,-55.176,46.387,27.832,-113.281,-6.836,0
1553632870.238,-64.453,47.852,21.484,-105.957,-2.441,0
1553632870.242,-68.848,39.551,15.625,-132.812,20.508,0
1553632870.246,-81.055,38.086,20.996,-166.016,51.758,0
1553632870.250,-74.707,29.785,30.762,-152.344,72.266,0
1553632870.254,-85.449,30.762,32.715,-139.160,74.219,0
1553632870.258,-86.914,35.156,27.344,-145.996,66.895,0
1553632870.261,-60.547,49.805,16.602,-158.691,25.391,0
1553632870.265,-38.574,59.082,14.648,-125.000,-28.809,0
1553632870.269,-55.664,54.199,15.625,-61.035,-71.289,0
1553632870.273,-68.848,54.688,20.508,-61.523,-63.477,0
1553632870.277,-52.734,61.523,7.324,-74.707,7.324,0
1553632870.281,-47.363,61.523,15.625,-58.105,29.785,0
1553632870.285,-38.086,43.945,31.250,-20.508,32.715,0
1553632870.289,-20.020,43.945,20.996,36.133,30.762,0
1553632870.293,-19.531,48.340,25.879,55.664,24.902,0
1553632870.297,-8.789,47.852,17.578,42.480,54.688,0
1553632870.301,-15.625,39.062,19.531,13.672,23.438,0
1553632870.304,-34.668,35.156,35.645,24.902,3.906,0
1553632870.308,-63.965,32.715,30.762,14.648,43.457,0
1553632870.312,-62.988,37.109,14.160,-9.277,29.785,0
1553632870.316,-59.082,23.926,1.465,-11.230,7.812,0
1553632870.320,-64.453,19.043,17.090,-9.277,40.039,0
1553632870.324,-53.223,29.297,29.297,12.695,42.969,0
1553632870.328,-50.781,32.715,17.578,31.738,46.387,0
1553632870.332,-72.266,32.715,26.855,-3.418,59.570,0
1553632870.336,-96.680,27.344,36.133,-28.320,27.832,0
1553632870.340,-68.848,39.062,12.695,-9.277,52.734,0
1553632870.344,-57.129,62.500,1.465,-13.672,110.840,0
1553632870.347,-97.656,52.246,10.742,-45.898,128.418,0
1553632870.351,-117.676,41.992,20.508,-63.477,81.055,0
1553632870.355,-99.609,54.688,36.621,-23.926,62.500,0
1553632870.359,-91.309,49.316,31.250,0.000,36.621,0
1553632870.363,-97.168,36.133,22.461,-18.066,23.926,0
1553632870.367,-83.984,36.621,29.297,-18.066,24.902,0
1553632870.371,-83.008,42.969,29.785,-0.488,30.762,0
1553632870.375,-103.516,36.621,16.602,4.395,47.852,0
1553632870.379,-111.328,35.156,18.555,1.953,42.480,0
1553632870.383,-99.609,38.574,17.578,-2.441,22.461,0
1553632870.386,-98.145,34.180,8.789,-4.395,-25.391,0
1553632870.390,-100.098,32.227,22.949,-9.766,-1.953,0
1553632870.394,-94.238,31.250,30.762,-5.371,39.551,0
1553632870.398,-92.773,25.391,29.297,8.789,38.086,0
1553632870.402,-76.660,33.691,23.438,24.902,1.953,0
1553632870.406,-88.379,37.598,18.555,17.578,-30.762,0
1553632870.410,-98.145,32.227,16.602,-7.812,28.809,0
1553632870.414,-94.238,35.645,17.578,-19.043,61.523,0
1553632870.418,-101.074,32.227,18.555,-19.043,16.602,0
1553632870.422,-102.539,30.762,20.020,-8.301,43.457,0
1553632870.426,-103.516,28.320,21.973,2.930,42.480,0
1553632870.429,-99.609,36.621,14.648,9.277,9.277,0
1553632870.433,-88.867,44.434,2.930,-6.836,34.668,0
1553632870.437,-101.562,41.016,9.277,-23.926,8.301,0
1553632870.441,-88.379,40.039,14.648,-10.254,45.410,0
1553632870.445,-98.633,37.109,10.742,8.789,91.797,0
1553632870.449,-142.578,32.227,8.301,2.441,82.031,0
1553632870.453,-110.840,29.785,12.207,-10.254,33.691,0
1553632870.457,-103.516,30.273,13.672,-15.625,25.879,0
1553632870.461,-133.301,33.203,14.160,-26.367,65.430,0
1553632870.465,-112.793,34.668,10.254,-31.250,54.688,0
1553632870.469,-104.004,27.344,-15.137,-21.484,-4.883,0
1553632870.472,-118.164,25.391,-18.066,-34.180,1.953,0
1553632870.476,-122.070,27.832,4.395,-26.367,32.227,0
1553632870.480,-109.375,27.832,21.973,-5.859,38.086,0
1553632870.484,-100.586,37.109,23.926,-22.949,34.668,0
1553632870.488,-89.355,29.785,21.973,-40.527,62.500,0
1553632870.492,-102.539,20.996,15.625,-24.902,51.270,0
1553632870.496,-113.281,30.273,-6.836,-1.465,74.219,0
1553632870.500,-93.262,26.855,-4.395,13.672,90.820,0
1553632870.504,-114.746,21.973,14.648,29.297,76.172,0
1553632870.508,-103.027,31.250,24.414,29.785,32.227,0
1553632870.511,-65.430,36.133,11.230,28.320,-8.789,0
1553632870.515,-86.426,29.785,4.883,10.254,36.133,0
1553632870.519,-71.289,27.832,18.555,12.695,63.965,0
1553632870.523,-72.754,22.461,21.973,20.996,-3.906,0
1553632870.527,-111.328,22.461,15.137,-10.742,31.250,0
1553632870.531,-107.910,26.367,9.277,2.930,72.266,0
1553632870.535,-112.793,17.090,8.301,4.883,0.488,0
1553632870.539,-112.305,23.438,14.160,16.602,36.133,0
1553632870.543,-93.262,27.344,16.113,20.508,94.238,0
1553632870.547,-83.008,21.973,12.207,13.672,95.215,0
1553632870.551,-87.402,26.855,17.578,24.902,41.504,0
1553632870.554,-83.496,32.715,21.484,19.531,-3.906,0
1553632870.558,-49.805,34.180,9.766,55.176,14.648,0
1553632870.562,-46.387,15.137,9.277,58.105,76.172,0
1553632870.566,-51.758,15.625,15.137,51.270,96.680,0
1553632870.570,-45.410,14.648,17.578,66.895,16.113,0
1553632870.574,-34.668,-11.230,23.438,71.777,-16.602,0
1553632870.578,-43.945,0.000,22.949,62.012,-18.066,0
1553632870.582,-75.684,29.785,19.531,62.500,14.160,0
1553632870.586,-92.773,34.668,14.160,42.969,43.945,0
1553632870.590,-93.750,55.664,11.719,38.574,29.785,0
1553632870.594,-77.148,59.082,9.277,55.664,-50.781,0
1553632870.597,-64.941,43.945,7.324,53.711,7.324,0
1553632870.601,-75.684,-38.574,20.508,49.805,57.617,0
1553632870.605,-81.055,-66.406,11.719,39.551,27.832,0
1553632870.609,-79.590,50.781,-7.812,47.852,72.754,0
1553632870.613,-71.289,106.934,3.418,62.500,74.219,0
1553632870.617,-91.309,89.844,21.484,57.129,31.738,0
1553632870.621,-109.375,81.543,20.996,28.809,5.371,0
1553632870.625,-106.445,68.359,3.418,11.719,-4.395,0
1553632870.629,-85.938,51.758,4.883,34.180,4.395,0
1553632870.633,-74.707,45.898,24.902,20.996,47.852,0
1553632870.636,-88.867,37.598,31.250,-10.742,6.348,0
1553632870.640,-83.008,40.039,28.809,0.000,-36.621,0
1553632870.644,-81.543,40.527,26.367,-0.977,46.875,0
1553632870.648,-84.961,34.668,22.949,9.277,73.242,0
1553632870.652,-85.938,28.320,26.367,28.320,62.012,0
1553632870.656,-85.938,23.926,21.484,39.551,75.684,0
1553632870.660,-90.332,15.625,10.742,41.992,2.930,0
1553632870.664,-93.750,24.902,14.648,33.203,7.812,0
1553632870.668,-89.844,39.551,23.926,42.969,95.215,0
1553632870.672,-97.656,38.086,18.066,35.156,70.801,0
1553632870.676,-90.820,37.598,10.742,13.672,35.645,0
1553632870.679,-78.125,38.574,13.184,14.648,39.551,0
1553632870.683,-88.867,32.227,19.043,32.715,-22.461,0
1553632870.687,-92.773,26.367,21.484,28.320,-32.227,0
1553632870.691,-83.008,25.879,16.113,3.906,23.438,0
1553632870.695,-84.961,23.438,13.672,-12.695,30.273,0
1553632870.699,-92.773,20.020,12.207,-10.742,3.906,0
1553632870.703,-79.590,33.691,11.230,10.742,13.184,0
1553632870.707,-84.473,37.109,7.324,9.766,40.039,0
1553632870.711,-101.562,27.344,-2.930,4.395,35.156,0
1553632870.715,-93.750,31.738,1.465,0.977,46.387,0
1553632870.719,-84.961,42.969,16.602,-11.230,53.711,0
1553632870.722,-90.820,47.363,11.230,-26.367,34.180,0
1553632870.726,-95.215,42.969,-1.465,-20.996,58.594,0
1553632870.730,-89.844,36.133,-0.488,0.488,50.293,0
1553632870.734,-71.777,35.156,4.883,-4.395,-17.578,0
1553632870.738,-93.262,23.926,-7.812,-19.531,-33.203,0
1553632870.742,-123.535,18.555,-40.527,-12.695,-1.465,0
1553632870.746,-111.328,42.969,-8.301,-20.996,12.207,0
1553632870.750,-107.910,43.457,40.527,-35.645,38.086,0
1553632870.754,-103.027,34.180,33.203,-31.250,43.457,0
1553632870.758,-82.031,41.504,25.391,-15.625,28.809,0
1553632870.761,-66.895,49.316,22.949,-0.488,39.062,0
1553632870.765,-63.477,37.109,20.508,1.953,53.711,0
1553632870.769,-68.848,19.531,19.531,4.883,74.219,0
1553632870.773,-69.824,39.062,14.160,-12.207,11.719,0
1553632870.777,-73.730,59.570,10.742,-32.227,15.625,0
1553632870.781,-62.012,55.176,1.953,-27.832,93.750,0
1553632870.785,-56.641,47.363,-13.184,-28.320,80.566,0
1553632870.789,-59.570,42.480,-5.371,-20.508,33.203,0
1553632870.793,-46.875,42.480,10.742,-35.645,-2.441,0
1553632870.797,-37.598,60.059,13.184,-27.344,30.273,0
1553632870.801,-39.551,66.895,14.648,-13.184,23.926,0
1553632870.804,-48.828,59.570,20.508,-28.809,49.805,0
1553632870.808,-53.223,49.316,20.020,-22.949,44.434,0
1553632870.812,-42.480,43.457,10.742,-5.371,30.762,0
1553632870.816,-37.109,45.898,9.277,-30.762,50.781,0
1553632870.820,-38.086,37.598,17.090,-40.039,42.969,0
1553632870.824,-19.531,36.621,13.672,-14.160,67.383,0
1553632870.828,-1.465,37.109,3.418,-7.812,46.875,0
1553632870.832,-21.973,28.809,14.160,-3.418,-13.672,0
1553632870.836,-47.363,31.738,35.156,0.488,-11.719,0
1553632870.840,-31.738,30.762,35.156,-3.418,4.395,0
1553632870.844,-18.555,22.949,20.020,-10.742,73.242,0
1553632870.847,-37.109,19.531,12.207,-14.648,88.379,0
1553632870.851,-45.898,19.043,23.438,-23.438,39.062,0
1553632870.855,-22.461,28.320,27.344,-31.738,20.020,0
1553632870.859,-16.113,41.504,20.020,-32.715,-13.184,0
1553632870.863,-28.320,41.992,20.508,-36.133,35.156,0
1553632870.867,-30.762,33.691,17.578,-41.016,39.062,0
1553632870.871,-30.762,32.715,16.113,-26.855,22.949,0
1553632870.875,-17.578,38.086,18.066,-52.734,13.672,0
1553632870.879,-10.742,41.992,18.066,-46.875,31.738,0
1553632870.883,-20.996,38.086,19.043,-5.371,51.270,0
1553632870.886,-25.391,31.738,14.160,-32.227,36.621,0
1553632870.890,-26.855,28.809,3.418,-59.570,30.762,0
1553632870.894,-18.555,29.785,6.836,-48.828,23.926,0
1553632870.898,-23.926,31.738,23.438,-37.109,-9.277,0
1553632870.902,-39.551,26.855,32.227,-32.227,25.391,0
1553632870.906,-44.434,24.902,29.785,-36.621,80.566,0
1553632870.910,-43.457,28.809,23.926,-41.016,73.730,0
1553632870.914,-33.203,30.762,19.531,-36.133,28.809,0
1553632870.918,-28.809,30.273,18.066,-50.293,6.836,0
1553632870.922,-41.992,41.016,18.555,-52.246,-0.488,0
1553632870.926,-46.387,39.062,23.438,-17.578,35.645,0
1553632870.929,-52.734,17.090,28.320,-8.789,18.555,0
1553632870.933,-58.105,35.645,24.902,-46.875,4.883,0
1553632870.937,-52.246,48.828,19.043,-52.734,22.949,0
1553632870.941,-58.105,40.039,0.977,-45.898,15.137,0
1553632870.945,-52.246,38.086,-1.465,-76.660,68.359,0
1553632870.949,-56.152,36.133,19.043,-71.289,51.270,0
1553632870.953,-65.430,38.086,29.785,-68.359,28.320,0
1553632870.957,-65.430,41.016,28.809,-61.523,64.453,0
1553632870.961,-65.918,33.203,18.066,-49.805,66.895,0
1553632870.965,-65.430,20.508,2.930,-59.570,49.316,0
1553632870.969,-59.082,30.762,13.672,-52.246,41.016,0
1553632870.972,-62.988,32.227,31.738,-50.293,51.270,0
1553632870.976,-63.477,22.949,31.738,-52.734,40.039,0
1553632870.980,-61.035,30.273,24.902,-45.898,12.695,0
1553632870.984,-77.637,36.133,20.996,-51.270,40.527,0
1553632870.988,-63.477,32.715,19.043,-53.223,22.949,0
1553632870.992,-53.223,27.832,16.602,-36.133,-29.785,0
1553632870.996,-82.520,33.691,17.578,-46.387,36.621,0
1553632871.000,-66.406,41.016,19.043,-54.199,99.609,0
1553632871.004,-32.715,30.762,21.973,-30.762,34.180,0
1553632871.008,-28.809,23.926,18.555,-37.598,-31.250,0
1553632871.011,-58.594,37.109,5.859,-47.363,-2.930,0
1553632871.015,-60.547,42.969,9.277,-12.207,20.996,0
1553632871.019,-49.316,41.016,20.020,-13.672,-7.812,0
1553632871.023,-39.551,39.062,16.113,-23.438,4.883,0
1553632871.027,-34.668,37.598,9.277,-24.902,50.293,0
1553632871.031,-50.781,26.855,23.438,-16.602,12.695,0
1553632871.035,-82.031,24.414,14.648,-15.625,17.578,0
1553632871.039,-82.031,42.969,-24.414,-28.320,30.273,0
1553632871.043,-79.102,51.270,-12.207,-8.789,38.574,0
1553632871.047,-96.680,42.480,30.273,8.789,10.254,0
1553632871.051,-103.516,34.668,39.551,-17.090,12.695,0
1553632871.054,-114.746,35.645,35.156,-17.578,65.918,0
1553632871.058,-103.027,43.457,27.832,2.930,44.434,0
1553632871.062,-95.215,33.691,25.391,33.691,16.113,0
1553632871.066,-110.352,14.160,27.832,55.664,36.133,0
1553632871.070,-117.676,32.227,22.461,25.391,88.379,0
1553632871.074,-118.652,51.758,21.973,36.621,90.820,0
1553632871.078,-107.910,50.781,15.137,61.523,59.082,0
1553632871.082,-114.746,45.898,10.742,75.684,48.340,0
1553632871.086,-125.000,39.062,11.230,77.148,36.133,0
1553632871.090,-114.746,36.133,5.859,64.941,7.812,0
1553632871.094,-99.121,45.898,18.066,99.609,28.809,0
1553632871.097,-86.914,52.246,30.762,146.973,89.844,0
1553632871.101,-79.102,40.527,18.555,158.203,47.852,0
1553632871.105,-73.730,39.551,12.207,136.230,8.301,0
1553632871.109,-60.059,47.363,23.926,194.336,34.180,0
1553632871.113,-66.895,53.711,16.602,135.742,33.691,0
1553632871.117,-94.238,62.012,4.395,71.289,59.570,0
1553632871.121,-113.281,59.570,9.766,123.535,30.762,0
1553632871.125,-101.562,40.527,13.184,118.164,10.742,0
1553632871.129,-95.215,42.969,12.207,88.867,48.340,0
1553632871.133,-92.773,52.246,6.836,42.969,86.426,0
1553632871.136,-77.637,48.828,-8.301,32.227,80.078,0
1553632871.140,-71.289,49.316,-13.184,48.828,56.152,0
1553632871.144,-55.176,46.875,0.000,74.707,64.453,0
1553632871.148,-64.941,43.945,13.184,96.191,42.480,0
1553632871.152,-53.711,48.828,13.184,108.887,34.668,0
1553632871.156,-24.414,59.082,9.277,126.465,-17.578,0
1553632871.160,-27.832,52.734,10.254,131.836,-4.883,0
1553632871.164,-28.809,45.410,12.695,126.953,27.832,0
1553632871.168,-9.277,48.828,6.836,121.094,24.414,0
1553632871.172,-17.090,53.711,5.371,145.020,-20.508,0
1553632871.176,-26.855,52.734,6.348,156.738,-42.480,0
1553632871.179,-33.691,54.688,3.906,151.367,44.922,0
1553632871.183,-25.391,56.641,3.418,142.578,92.773,0
1553632871.187,-31.250,45.898,6.836,158.203,48.828,0
1553632871.191,-51.270,47.852,7.324,161.133,21.973,0
1553632871.195,-9.277,57.617,3.418,136.230,21.973,0
1553632871.199,-1.465,64.453,-0.488,143.066,41.504,0
1553632871.203,-34.668,64.453,2.441,194.336,44.922,0
1553632871.207,-57.129,58.105,6.836,254.395,50.293,0
1553632871.211,-81.543,51.270,2.930,258.301,46.387,0
1553632871.215,-84.961,47.363,1.953,272.949,52.246,0
1553632871.219,-70.801,54.199,0.977,269.531,43.457,0
1553632871.222,-59.570,49.316,-0.488,291.504,14.160,0
1553632871.226,-65.918,41.504,-8.789,299.316,58.594,0
1553632871.230,-41.992,43.457,-16.602,233.887,63.477,0
1553632871.234,-35.156,41.992,-4.395,247.070,-20.020,0
1553632871.238,-22.461,47.852,-1.465,269.531,-31.250,0
1553632871.242,3.906,51.270,-8.301,232.910,16.113,0
1553632871.246,-29.785,44.922,-10.254,239.746,29.297,0
1553632871.250,-50.781,47.852,-5.859,255.371,61.035,0
1553632871.254,-69.336,48.828,-5.859,253.418,63.477,0
1553632871.258,-56.152,49.805,-10.254,265.137,-15.625,0
1553632871.261,-46.387,54.199,-11.719,226.562,29.297,0
1553632871.265,-32.227,52.734,-9.766,205.078,62.012,0
1553632871.269,-18.066,50.293,-4.395,246.582,16.602,0
1553632871.273,-41.504,50.781,-5.859,290.527,7.812,0
1553632871.277,-41.992,50.781,-8.789,330.078,-5.859,0
1553632871.281,-33.691,52.246,-2.930,357.910,8.301,0
1553632871.285,-38.086,56.152,-1.465,370.605,38.574,0
1553632871.289,-50.781,50.293,0.977,383.301,49.316,0
1553632871.293,-45.410,46.387,0.977,375.000,39.062,0
1553632871.297,-41.992,47.852,-2.930,337.402,28.809,0
1553632871.301,-24.902,54.199,-6.836,312.012,41.504,0
1553632871.304,-4.395,58.594,-15.625,286.133,58.594,0
1553632871.308,-6.836,51.270,-12.695,256.836,17.578,0
1553632871.312,-16.602,43.457,-6.348,260.254,-15.137,0
1553632871.316,-8.301,45.898,-8.789,262.207,10.742,0
1553632871.320,-8.301,38.086,-10.254,242.188,8.789,0
1553632871.324,-3.418,36.621,-9.766,230.957,38.574,0
1553632871.328,-30.273,39.062,-8.301,215.332,25.879,0
1553632871.332,-50.781,40.039,-7.324,186.523,-7.812,0
1553632871.336,-25.879,43.457,-7.324,197.754,11.719,0
1553632871.340,-40.039,41.504,-0.977,194.336,-13.672,0
1553632871.344,-44.434,48.340,1.953,147.461,-14.160,0
1553632871.347,-24.902,51.758,-6.348,115.234,-10.254,0
1553632871.351,-13.672,38.086,-11.230,110.352,-9.277,0
1553632871.355,-25.879,34.180,-11.230,110.840,6.836,0
1553632871.359,-37.109,47.852,-8.789,83.008,-0.488,0
1553632871.363,-19.043,51.270,0.000,57.617,8.789,0
1553632871.367,3.906,44.434,-3.418,61.035,44.434,0
1553632871.371,20.996,36.621,-10.254,32.227,97.656,0
1553632871.375,28.809,38.086,-8.301,2.930,95.215,0
1553632871.379,17.578,38.574,-6.348,19.043,83.984,0
1553632871.383,28.320,40.039,-8.301,26.367,71.289,0
1553632871.386,36.621,24.902,-17.578,18.066,21.484,0
1553632871.390,13.184,0.488,-9.277,16.602,28.320,0
1553632871.394,-1.465,26.367,0.977,31.738,28.320,0
1553632871.398,16.602,58.105,0.000,40.527,-10.742,0
1553632871.402,26.855,67.383,-1.953,38.086,0.977,0
1553632871.406,17.090,58.105,-5.371,34.668,-0.488,0
1553632871.410,13.184,49.316,-8.789,41.016,6.836,0
1553632871.414,13.672,41.016,-5.859,41.016,16.602,0
1553632871.418,9.766,28.320,-3.418,7.324,39.062,0
1553632871.422,23.926,41.016,-8.789,-6.836,99.121,0
1553632871.426,41.016,50.293,-8.789,7.812,59.570,0
1553632871.429,36.133,41.992,-3.418,9.766,28.809,0
1553632871.433,32.227,28.809,3.418,8.301,62.500,0
1553632871.437,39.551,34.180,5.371,20.020,58.594,0
1553632871.441,34.180,45.898,-4.395,-12.695,44.434,0
1553632871.445,27.832,41.504,-6.836,-61.523,28.809,0
1553632871.449,14.648,17.090,-5.371,-27.832,11.719,0
1553632871.453,10.254,7.324,-13.672,-11.230,-16.602,0
1553632871.457,12.695,44.434,-3.906,-10.254,3.906,0
1553632871.461,20.020,56.152,7.812,-32.227,14.648,0
1553632871.465,48.340,52.734,9.766,-32.715,6.348,0
1553632871.469,45.410,59.082,8.301,0.488,34.668,0
1553632871.472,65.430,50.781,6.836,-10.254,43.945,0
1553632871.476,82.520,42.969,2.930,-17.578,79.102,0
1553632871.480,61.035,51.270,-0.977,-36.621,26.855,0
1553632871.484,71.777,44.434,8.789,-34.668,-10.742,0
1553632871.488,93.262,19.531,7.324,-56.152,5.859,0
1553632871.492,108.887,45.898,0.488,-61.035,0.000,0
1553632871.496,123.535,88.379,-2.930,-29.297,67.383,0
1553632871.500,115.723,83.984,-2.441,-16.113,126.465,0
1553632871.504,158.691,71.289,3.418,-31.250,79.102,0
1553632871.508,153.809,79.590,0.488,-92.773,44.922,0
1553632871.511,121.582,80.566,-6.836,-111.328,54.199,0
1553632871.515,166.504,73.242,-12.207,-113.770,60.547,0
1553632871.519,172.363,58.594,-3.906,-103.516,39.551,0
1553632871.523,156.738,53.711,0.488,-90.820,7.812,0
1553632871.527,171.387,59.082,-4.395,-55.176,19.043,0
1553632871.531,152.344,58.594,-1.465,-57.129,16.113,0
1553632871.535,149.414,54.199,-3.418,-73.242,24.902,0
1553632871.539,154.297,48.828,-2.930,-67.383,24.414,0
1553632871.543,137.207,51.758,-0.488,-86.914,30.273,0
1553632871.547,134.277,53.223,3.906,-18.555,11.230,0
1553632871.551,148.926,55.664,7.812,-10.254,25.879,0
1553632871.554,132.812,53.711,7.324,-61.523,-53.223,0
1553632871.558,126.953,49.316,7.324,-29.785,-67.871,0
1553632871.562,166.992,50.293,5.371,-17.090,55.176,0
1553632871.566,171.875,51.270,2.441,-28.320,41.016,0
1553632871.570,162.598,46.387,0.488,-33.691,42.969,0
1553632871.574,172.852,45.898,2.441,3.418,-6.836,0
1553632871.578,173.828,54.199,2.930,6.836,-44.922,0
1553632871.582,152.344,54.199,4.395,-15.137,10.742,0
1553632871.586,158.203,57.129,6.348,-19.043,20.996,0
1553632871.590,152.832,58.105,4.395,-10.254,35.645,0
1553632871.594,158.691,54.688,7.324,12.695,57.617,0
1553632871.597,131.836,57.617,10.254,27.344,44.922,0
1553632871.601,122.559,62.012,11.230,28.809,52.246,0
1553632871.605,134.277,66.406,6.348,-3.418,23.926,0
1553632871.609,126.465,64.941,1.465,-23.926,11.230,0
1553632871.613,121.094,55.176,8.301,-8.301,14.160,0
1553632871.617,95.215,56.641,11.719,-12.695,18.066,0
1553632871.621,105.469,63.477,1.465,-19.531,90.332,0
1553632871.625,101.074,55.176,2.441,-17.578,50.293,0
1553632871.629,65.430,57.129,8.789,-36.133,17.090,0
1553632871.633,52.246,66.406,6.348,-47.852,40.039,0
1553632871.636,36.621,54.688,5.371,-56.152,35.156,0
1553632871.640,42.969,46.387,4.883,-40.527,34.180,0
1553632871.644,58.594,54.688,1.953,-50.781,40.039,0
1553632871.648,40.527,58.594,0.977,-63.477,63.965,0
1553632871.652,24.902,51.758,5.859,-33.203,28.320,0
1553632871.656,33.203,48.828,4.883,-42.480,9.766,0
1553632871.660,32.715,47.852,5.371,-35.645,24.414,0
1553632871.664,-9.766,48.828,7.812,-11.230,-2.441,0
1553632871.668,-38.574,47.363,3.418,-26.367,18.555,0
1553632871.672,-30.273,56.152,-1.953,-41.504,56.152,0
1553632871.676,-47.852,64.453,5.371,-29.785,-1.953,0
1553632871.679,-65.430,58.105,9.766,-9.277,-7.324,0
1553632871.683,-69.336,57.129,2.441,-39.062,61.035,0
1553632871.687,-74.219,55.176,-1.953,-36.621,97.168,0
1553632871.691,-74.707,48.340,-8.301,-19.531,96.191,0
1553632871.695,-98.633,44.434,-9.277,-39.062,22.949,0
1553632871.699,-91.797,46.875,-9.277,-47.363,3.418,0
1553632871.703,-83.984,55.664,-12.695,-33.691,22.949,0
1553632871.707,-117.676,56.641,-8.301,-51.270,67.871,0
1553632871.711,-145.508,52.246,-9.277,-46.387,48.340,0
1553632871.715,-153.809,48.340,-8.301,-34.180,14.160,0
1553632871.719,-143.555,55.176,-13.672,-66.895,80.078,0
1553632871.722,-138.672,64.941,-15.137,-73.242,125.488,0
1553632871.726,-133.301,56.152,-12.207,-47.852,89.844,0
1553632871.730,-147.461,53.711,-8.789,-33.203,46.387,0
1553632871.734,-165.527,51.758,-6.836,-35.156,62.500,0
1553632871.738,-142.578,54.688,-9.766,-2.930,41.016,0
1553632871.742,-145.996,53.223,-11.230,-10.742,9.277,0
1553632871.746,-155.762,49.805,-12.207,-40.039,72.266,0
1553632871.750,-154.785,46.875,-6.836,-15.625,72.266,0
1553632871.754,-178.711,46.387,-7.812,-10.742,22.461,0
1553632871.758,-188.965,46.875,-11.230,-14.648,49.316,0
1553632871.761,-188.965,48.828,-17.090,-23.926,50.293,0
1553632871.765,-213.867,52.246,-18.555,-19.531,-13.184,0
1553632871.769,-213.867,48.340,-15.625,-43.945,-26.367,0
1553632871.773,-214.355,43.945,-11.719,-32.227,13.672,0
1553632871.777,-238.281,50.781,-13.672,-23.438,45.410,0
1553632871.781,-224.121,61.523,-19.531,-26.367,51.270,0
1553632871.785,-193.848,57.617,-16.602,-5.859,56.641,0
1553632871.789,-207.520,48.828,-15.625,-20.508,54.688,0
1553632871.793,-238.281,43.945,-18.066,-38.086,30.762,0
1553632871.797,-250.000,51.270,-20.020,-41.016,13.672,0
1553632871.801,-245.605,59.082,-20.020,-39.551,54.199,0
1553632871.804,-223.633,58.594,-15.625,-0.488,42.480,0
1553632871.808,-203.125,65.430,-15.137,-10.742,16.602,0
1553632871.812,-219.727,66.895,-18.066,-25.391,19.531,0
1553632871.816,-225.098,56.152,-19.043,7.324,30.762,0
1553632871.820,-214.355,53.711,-14.160,-10.742,61.035,0
1553632871.824,-211.914,67.871,-13.184,-22.461,33.691,0
1553632871.828,-212.402,66.406,-15.625,-14.648,50.293,0
1553632871.832,-203.613,55.176,-17.090,-4.883,81.543,0
1553632871.836,-202.637,56.641,-18.066,35.156,40.527,0
1553632871.840,-216.309,60.059,-15.625,20.020,30.273,0
1553632871.844,-205.566,56.152,-10.254,-39.551,83.008,0
1553632871.847,-219.727,49.805,-9.766,-34.668,39.062,0
1553632871.851,-229.492,53.223,-22.949,-9.766,23.438,0
1553632871.855,-193.848,59.570,-24.902,-0.977,50.293,0
1553632871.859,-220.215,49.805,-11.230,-17.090,7.812,0
1553632871.863,-250.977,40.039,-6.348,-19.043,4.395,0
1553632871.867,-238.281,42.480,-6.836,-12.207,32.715,0
1553632871.871,-241.699,39.551,-5.371,-1.953,38.574,0
1553632871.875,-235.352,41.016,-6.836,-3.906,47.852,0
1553632871.879,-233.887,42.480,-11.230,-18.555,80.078,0
1553632871.883,-243.652,41.992,-8.789,-26.367,71.777,0
1553632871.886,-249.023,51.270,-8.789,-30.762,41.504,0
1553632871.890,-230.957,56.641,-14.160,-19.043,39.062,0
1553632871.894,-224.121,55.664,-18.066,-28.320,0.000,0
1553632871.898,-227.051,49.316,-13.672,-22.461,-24.414,0
1553632871.902,-232.422,47.363,-10.742,-1.465,56.152,0
1553632871.906,-232.910,54.688,-9.766,-3.418,55.176,0
1553632871.910,-240.234,55.176,-8.789,-10.742,0.488,0
1553632871.914,-239.746,53.711,-11.230,-14.160,-5.859,0
1553632871.918,-238.770,52.246,-8.301,-0.488,39.551,0
1553632871.922,-237.793,53.711,-7.324,6.348,11.230,0
1553632871.926,-245.605,54.688,-6.836,30.273,32.715,0
1553632871.929,-244.629,48.828,-0.488,36.621,34.180,0
1553632871.933,-250.488,45.898,-0.977,-9.766,-1.465,0
1553632871.937,-268.555,46.875,-1.953,8.789,45.898,0
1553632871.941,-271.484,47.852,-1.465,20.996,0.977,0
1553632871.945,-274.902,52.246,-6.348,19.531,-49.316,0
1553632871.949,-273.926,55.664,-9.277,30.273,44.922,0
1553632871.953,-238.281,49.316,-10.254,80.078,89.844,0
1553632871.957,-256.836,46.387,3.418,46.875,67.383,0
1553632871.961,-301.758,25.879,-2.930,-5.371,32.227,0
1553632871.965,-306.641,-10.742,-6.348,12.207,47.852,0
1553632871.969,-341.309,2.930,7.324,-56.641,24.414,0
1553632871.972,-374.023,29.297,2.441,-107.910,-3.418,0
1553632871.976,-378.906,19.043,11.230,-70.801,75.684,0
1553632871.980,-396.973,9.277,19.531,-59.570,57.129,0
1553632871.984,-409.180,6.348,21.484,-85.938,49.805,0
1553632871.988,-429.688,-4.395,22.949,-100.586,74.707,0
1553632871.992,-434.082,-11.230,19.043,-90.332,25.879,0
1553632871.996,-421.387,-9.277,19.531,-63.477,34.180,0
1553632872.000,-441.895,-23.438,17.090,-71.289,24.414,0
1553632872.004,-441.895,-27.832,1.953,-67.383,43.457,0
1553632872.008,-413.086,-16.602,-9.766,-65.918,62.500,0
1553632872.011,-414.551,-30.762,9.766,-36.133,41.992,0
1553632872.015,-402.344,-51.270,46.875,-6.836,36.621,0
1553632872.019,-385.742,-64.453,53.711,-41.016,9.277,0
1553632872.023,-373.047,-58.594,35.156,-28.809,13.184,0
1553632872.027,-362.305,-59.082,28.320,-18.066,38.574,0
1553632872.031,-374.023,-41.992,28.809,-9.766,5.859,0
1553632872.035,-339.844,9.766,34.180,8.301,-33.691,0
1553632872.039,-319.824,16.602,43.457,10.742,-10.254,0
1553632872.043,-319.336,-3.418,15.625,24.902,45.410,0
1553632872.047,-307.617,-3.418,-8.789,-20.508,59.570,0
1553632872.051,-304.688,-13.184,-17.578,-39.551,77.637,0
1553632872.054,-280.273,-40.527,7.812,-1.465,40.039,0
1553632872.058,-260.254,-17.578,60.547,13.184,14.160,0
1553632872.062,-276.367,21.484,52.246,0.000,70.312,0
1553632872.066,-303.223,21.484,40.039,-5.859,39.062,0
1553632872.070,-290.527,9.277,37.598,-7.324,5.859,0
1553632872.074,-277.344,-0.977,20.508,0.000,41.992,0
1553632872.078,-264.648,-1.953,19.043,18.555,17.090,0
1553632872.082,-248.047,0.000,38.574,8.789,-27.344,0
1553632872.086,-233.887,1.465,32.227,8.301,15.137,0
1553632872.090,-208.008,1.953,22.461,8.789,31.250,0
1553632872.094,-179.688,9.277,27.344,23.438,-6.348,0
1553632872.097,-166.992,18.066,14.648,40.039,0.000,0
1553632872.101,-152.344,18.555,4.883,33.691,32.715,0
1553632872.105,-141.113,22.949,8.789,39.551,55.176,0
1553632872.109,-134.277,27.344,1.465,74.219,74.219,0
1553632872.113,-130.371,21.973,-10.254,83.496,59.082,0
1553632872.117,-126.465,23.926,-6.836,37.598,55.664,0
1553632872.121,-123.535,33.691,-8.301,18.555,54.688,0
1553632872.125,-124.512,40.527,-16.113,17.578,-21.973,0
1553632872.129,-119.629,38.574,-11.230,25.879,-32.715,0
1553632872.133,-106.934,36.133,-14.160,21.973,-19.043,0
1553632872.136,-111.816,48.828,-20.508,23.926,-51.270,0
1553632872.140,-112.305,50.293,-21.973,36.133,-22.949,0
1553632872.144,-120.605,41.016,-20.020,59.570,1.465,0
1553632872.148,-119.629,44.922,-19.531,63.477,17.578,0
1553632872.152,-109.863,55.176,-28.320,18.066,63.477,0
1553632872.156,-133.301,50.293,-25.879,9.766,95.215,0
1553632872.160,-124.512,43.945,-24.414,19.531,86.426,0
1553632872.164,-118.652,45.898,-27.832,15.625,32.227,0
1553632872.168,-117.676,39.062,-27.344,34.668,30.273,0
1553632872.172,-115.234,41.992,-33.203,56.152,61.523,0
1553632872.176,-120.117,56.152,-36.133,36.621,71.289,0
1553632872.179,-119.629,63.477,-28.320,18.555,59.570,0
1553632872.183,-139.160,64.941,-26.855,17.578,29.297,0
1553632872.187,-132.324,67.383,-21.973,25.391,-10.742,0
1553632872.191,-119.629,53.223,-21.973,27.832,-6.348,0
1553632872.195,-136.230,47.852,-23.438,30.762,44.434,0
1553632872.199,-130.371,60.059,-24.902,41.016,20.508,0
1553632872.203,-141.602,62.988,-30.273,34.180,8.789,0
1553632872.207,-153.809,66.406,-15.137,19.531,42.969,0
1553632872.211,-158.203,39.551,-2.930,12.207,62.012,0
1553632872.215,-162.598,38.574,-6.348,3.906,76.660,0
1553632872.219,-162.598,71.289,-13.672,-4.395,63.965,0
1553632872.222,-169.922,64.453,-20.508,21.484,57.617,0
1553632872.226,-170.410,56.152,-13.184,55.664,53.711,0
1553632872.230,-180.664,66.406,-4.883,21.973,33.203,0
1553632872.234,-188.965,65.918,-4.883,25.391,23.926,0
1553632872.238,-181.641,58.105,-6.348,19.043,48.340,0
1553632872.242,-170.410,61.035,-6.836,-28.809,70.312,0
1553632872.246,-176.270,62.988,-6.348,-8.789,140.137,0
1553632872.250,-166.504,55.176,-21.484,13.672,140.137,0
1553632872.254,-165.039,52.734,-14.160,-2.441,43.945,0
1553632872.258,-185.547,53.223,-6.348,-8.789,74.219,0
1553632872.261,-200.195,53.711,-10.254,5.371,71.777,0
1553632872.265,-196.777,55.664,4.395,11.230,8.789,0
1553632872.269,-192.871,58.594,7.812,20.508,-22.949,0
1553632872.273,-200.684,65.430,8.789,18.066,-53.711,0
1553632872.277,-183.105,56.641,11.719,6.836,12.695,0
1553632872.281,-181.641,38.086,2.441,1.953,34.668,0
1553632872.285,-200.684,45.898,-5.371,0.977,2.441,0
1553632872.289,-205.566,69.824,1.953,-7.324,53.223,0
1553632872.293,-217.285,73.242,3.418,-1.953,78.125,0
1553632872.297,-204.102,58.105,-1.465,20.508,26.855,0
1553632872.301,-201.660,39.062,2.441,25.879,29.785,0
1553632872.304,-208.008,54.199,3.906,18.555,25.391,0
1553632872.308,-209.473,69.336,2.441,6.836,24.902,0
1553632872.312,-212.402,52.734,0.977,11.719,9.766,0
1553632872.316,-229.980,55.664,-3.906,9.766,-7.324,0
1553632872.320,-247.559,59.082,0.488,-10.742,20.996,0
1553632872.324,-230.957,53.711,-5.371,-7.324,41.504,0
1553632872.328,-218.750,54.688,-11.230,-6.348,74.219,0
1553632872.332,-214.355,62.500,1.465,-10.254,45.898,0
1553632872.336,-213.867,36.621,17.090,-8.301,-4.395,0
1553632872.340,-218.262,21.484,20.996,-1.465,10.742,0
1553632872.344,-229.492,46.875,16.602,-5.371,67.871,0
1553632872.347,-235.352,42.969,7.324,-8.301,88.867,0
1553632872.351,-226.074,34.668,4.395,8.301,28.320,0
1553632872.355,-215.820,45.410,13.184,10.742,8.789,0
1553632872.359,-223.633,59.570,6.348,1.465,28.320,0
1553632872.363,-215.332,63.965,-0.488,-0.488,38.574,0
1553632872.367,-208.008,45.410,8.301,3.906,3.906,0
1553632872.371,-215.820,41.992,13.672,12.207,-12.695,0
1553632872.375,-216.797,61.035,12.207,-5.859,52.734,0
1553632872.379,-215.332,69.336,12.695,6.348,41.992,0
1553632872.383,-211.426,65.918,14.160,32.715,67.383,0
1553632872.386,-220.215,59.570,11.719,22.461,83.984,0
1553632872.390,-201.660,55.664,13.184,25.879,36.133,0
