timestamps,TP9,AF7,AF8,TP10,Right AUX,Marker0
8644.158,41.016,34.668,11.230,47.852,-761.230,0
8644.162,14.648,35.156,-11.230,25.391,234.863,0
8644.165,16.602,31.250,3.418,6.348,-1000.000,0
8644.169,38.574,20.996,24.414,24.902,-250.977,0
8644.173,50.781,23.438,9.277,44.922,-784.668,0
8644.177,24.414,31.738,11.719,37.598,408.691,0
8644.181,-2.441,23.438,20.508,12.695,-1000.000,0
8644.185,28.809,22.949,28.809,12.695,-582.031,0
8644.189,56.641,38.574,23.438,44.922,997.559,0
8644.193,29.785,25.879,10.254,43.457,854.980,0
8644.197,2.441,13.184,-2.441,8.301,-669.922,0
8644.201,17.578,19.531,2.930,9.766,-1000.000,0
8644.205,41.504,21.484,21.484,42.969,306.152,0
8644.208,37.598,26.855,8.301,49.805,-773.926,0
8644.212,17.090,35.645,-1.465,22.461,-1.953,0
8644.216,19.531,26.367,20.020,11.230,-1000.000,0
8644.220,31.250,7.324,22.949,37.598,-149.414,0
8644.224,33.691,22.461,22.949,49.316,-769.043,0
8644.228,11.719,34.180,20.508,26.855,258.301,0
8644.232,-1.953,24.414,15.625,5.371,-1000.000,0
8644.236,22.461,25.391,15.625,15.137,-303.223,0
8644.240,42.969,37.598,6.836,54.199,-809.082,0
8644.244,22.461,29.785,2.441,43.457,517.578,0
8644.248,2.441,20.020,14.648,1.953,-1000.000,0
8644.251,24.902,20.508,19.043,14.648,-694.336,0
8644.255,57.129,22.461,13.184,43.457,860.352,0
8644.259,39.062,24.902,17.090,38.574,-976.074,0
8644.263,0.000,21.484,23.438,16.113,-424.805,0
8644.267,13.672,13.672,14.160,25.879,-1000.000,0
8644.271,46.387,17.090,11.230,52.246,174.316,0
8644.275,45.898,37.109,19.043,56.152,-753.906,0
8644.279,21.973,41.504,5.859,27.832,123.535,0
8644.283,16.602,30.273,-0.488,-6.348,-1000.000,0
8644.287,38.574,12.207,14.160,0.977,-203.125,0
8644.290,46.875,10.742,19.531,37.109,-772.461,0
8644.294,23.926,19.043,19.043,30.273,289.062,0
8644.298,18.555,24.414,15.137,7.324,-1000.000,0
8644.302,34.180,31.738,15.137,31.738,-369.629,0
8644.306,43.457,25.879,11.230,53.223,-853.516,0
8644.310,31.738,21.484,13.672,46.387,653.809,0
8644.314,-3.906,20.020,18.555,15.137,-926.758,0
8644.318,9.766,22.949,14.648,7.324,-839.844,0
8644.322,34.180,17.090,11.230,34.180,691.406,0
8644.326,26.367,28.320,9.766,46.387,-880.859,0
8644.330,5.859,38.086,16.602,33.203,-267.578,0
8644.333,7.812,25.879,29.785,20.996,-1000.000,0
8644.337,34.180,20.996,7.812,29.785,64.941,0
8644.341,25.391,16.602,-10.254,44.922,-747.559,0
8644.345,-1.953,17.090,-1.953,22.461,201.172,0
8644.349,1.465,27.344,14.160,2.930,-1000.000,0
8644.353,37.109,26.855,30.273,29.785,-231.934,0
8644.357,47.852,26.855,20.508,56.152,-775.391,0
8644.361,20.020,31.738,6.348,46.387,377.930,0
8644.365,12.207,34.180,5.371,5.859,-1000.000,0
8644.369,29.785,30.273,4.395,8.789,-432.617,0
8644.373,46.387,23.438,12.695,36.133,-906.738,0
8644.376,42.480,20.508,12.207,41.016,815.430,0
8644.380,18.555,17.578,0.977,19.531,-740.234,0
8644.384,22.461,11.719,11.719,3.906,-939.941,0
8644.388,36.621,11.230,19.043,32.715,553.711,0
8644.392,26.367,17.090,14.160,48.340,-801.270,0
8644.396,0.000,22.461,18.555,16.113,-67.383,0
8644.400,2.441,23.926,20.020,11.719,-1000.000,0
8644.404,41.992,21.973,14.648,42.480,-52.734,0
8644.408,50.293,22.461,7.324,59.570,-751.465,0
8644.412,12.695,12.207,17.090,37.598,238.281,0
8644.415,7.812,19.531,11.230,9.766,-1000.000,0
8644.419,39.551,32.715,0.977,38.574,-246.094,0
8644.423,46.875,15.625,5.371,73.242,-783.691,0
8644.427,27.344,16.113,10.254,50.781,463.867,0
8644.431,20.020,17.090,18.066,19.043,-1000.000,0
8644.435,37.109,16.602,20.996,25.879,-555.664,0
8644.439,50.293,18.555,16.113,55.664,991.699,0
8644.443,36.133,17.578,23.438,46.387,959.961,0
8644.447,13.184,28.809,19.043,12.695,-532.715,0
8644.451,23.926,32.715,-9.277,11.230,-1000.000,0
8644.455,47.363,28.320,-7.324,48.340,376.465,0
8644.458,47.363,25.879,10.742,66.406,-763.672,0
8644.462,32.715,26.367,17.090,31.250,54.199,0
8644.466,19.043,19.531,17.090,7.324,-1000.000,0
8644.470,44.434,11.230,18.066,43.945,-145.508,0
8644.474,63.965,13.672,19.531,73.730,-761.719,0
8644.478,30.762,21.973,6.348,47.363,267.578,0
8644.482,19.043,36.621,-0.488,25.879,-1000.000,0
8644.486,56.641,50.293,15.137,40.039,-291.504,0
8644.490,80.078,38.086,8.301,65.430,-811.523,0
8644.494,45.410,26.855,13.672,59.082,586.426,0
8644.498,14.160,32.227,20.996,30.762,-1000.000,0
8644.501,28.320,26.855,4.395,20.996,-668.945,0
8644.505,57.129,32.227,18.066,54.199,881.348,0
8644.509,46.387,35.645,16.602,59.082,-933.594,0
8644.513,13.184,45.898,-1.953,22.949,-347.656,0
8644.517,29.297,41.504,5.371,13.672,-1000.000,0
8644.521,62.500,28.809,19.043,29.297,214.844,0
8644.525,60.059,23.926,27.344,31.250,-744.141,0
8644.529,40.039,12.695,13.184,8.301,157.227,0
8644.533,27.344,32.227,-0.977,-0.488,-1000.000,0
8644.537,32.715,41.504,5.859,28.809,-204.590,0
8644.540,42.969,39.551,16.602,66.895,-768.066,0
8644.544,30.762,36.621,15.625,47.363,318.848,0
8644.548,20.996,21.484,6.836,12.207,-1000.000,0
8644.552,55.176,27.344,0.977,24.414,-355.469,1
8644.556,69.336,29.785,1.953,43.457,-857.422,0
8644.560,34.668,30.273,15.625,39.551,722.656,0
8644.564,14.160,33.691,17.578,17.578,-870.117,0
8644.568,36.133,16.602,3.906,9.277,-809.570,0
8644.572,68.359,16.113,14.160,49.805,722.168,0
8644.576,50.781,24.414,19.531,53.711,-841.309,0
8644.580,17.090,20.020,10.742,17.090,-160.645,0
8644.583,23.438,26.367,5.371,13.672,-1000.000,0
8644.587,52.246,31.738,-14.160,41.016,79.102,0
8644.591,48.828,34.180,1.465,67.383,-738.770,0
8644.595,20.020,37.598,18.066,34.180,212.891,0
8644.599,15.625,35.156,12.207,1.953,-1000.000,0
8644.603,38.574,30.762,15.625,20.996,-233.398,0
8644.607,56.641,23.438,20.508,49.316,-775.391,0
8644.611,16.602,14.648,13.184,32.227,417.480,0
8644.615,-6.836,11.719,7.324,0.977,-1000.000,0
8644.619,27.832,11.230,6.348,23.438,-449.219,0
8644.623,46.875,20.996,7.812,52.246,-921.875,0
8644.626,34.668,29.785,15.625,48.828,864.258,0
8644.630,4.395,28.320,6.348,15.137,-688.965,0
8644.634,12.695,26.367,11.230,2.930,-928.711,0
8644.638,41.504,27.344,16.602,35.645,567.871,0
8644.642,20.508,18.066,18.555,38.574,-784.668,0
8644.646,-16.602,10.254,15.137,2.930,1.953,0
8644.650,-7.812,16.113,1.465,-12.207,-1000.000,0
8644.654,27.832,23.926,8.301,15.137,-54.688,0
8644.658,28.320,19.531,18.555,41.504,-745.605,0
8644.662,-0.488,20.020,9.277,24.902,242.676,0
8644.665,4.883,27.832,22.949,1.953,-1000.000,0
8644.669,40.527,32.227,22.949,34.668,-246.094,0
8644.673,47.363,23.438,-5.371,62.500,-784.668,0
8644.677,19.531,20.020,4.395,57.129,502.930,0
8644.681,1.465,19.531,16.602,32.715,-1000.000,0
8644.685,33.203,23.926,19.043,35.156,-553.711,0
8644.689,69.824,30.273,11.719,57.129,987.793,0
8644.693,36.621,29.785,11.230,36.621,995.117,0
8644.697,-10.742,33.203,25.879,1.953,-473.145,0
8644.701,14.648,35.156,18.066,1.953,-1000.000,0
8644.705,57.129,24.414,5.859,38.086,364.258,0
8644.708,48.828,28.320,14.648,43.945,-756.348,0
8644.712,12.695,28.809,16.602,20.996,90.820,0
8644.716,18.066,20.996,2.930,7.812,-1000.000,0
8644.720,45.898,32.227,8.789,36.621,-145.996,0
8644.724,58.105,27.344,19.043,70.312,-757.812,0
8644.728,23.438,19.531,12.207,54.688,274.902,0
8644.732,6.836,26.367,18.066,29.297,-1000.000,0
8644.736,38.086,22.949,22.461,28.809,-293.457,0
8644.740,49.805,20.020,21.973,46.875,-815.430,0
8644.744,29.297,29.785,14.160,55.664,617.188,0
8644.748,12.695,26.855,0.488,20.508,-985.352,0
8644.751,30.762,19.531,11.230,10.254,-686.523,0
8644.755,48.828,19.531,22.949,56.152,866.699,0
8644.759,38.574,22.949,11.230,65.918,-921.387,0
8644.763,8.301,31.738,15.137,36.621,-323.730,0
8644.767,15.137,38.086,27.832,16.113,-1000.000,0
8644.771,48.340,28.809,2.930,26.367,200.195,0
8644.775,39.551,17.090,-5.859,41.992,-743.164,0
8644.779,13.184,34.180,10.742,21.484,163.574,0
8644.783,17.090,34.668,3.418,8.789,-1000.000,0
8644.787,38.086,20.508,15.625,39.551,-208.008,0
8644.790,46.387,21.973,31.738,65.918,-768.555,0
8644.794,20.996,18.555,8.301,41.016,332.520,0
8644.798,6.348,22.949,9.277,3.906,-1000.000,0
8644.802,31.738,28.809,20.996,17.578,-366.211,0
8644.806,54.688,21.973,11.719,60.547,-867.188,0
8644.810,37.109,16.113,14.160,52.734,753.418,0
8644.814,4.395,26.367,14.160,8.789,-835.938,0
8644.818,20.508,30.762,9.277,10.742,-824.707,0
8644.822,49.316,23.438,5.859,44.434,706.543,0
8644.826,50.781,25.879,2.930,55.176,-832.031,0
8644.830,25.391,24.414,8.301,23.438,-138.184,0
8644.833,17.578,22.949,10.254,3.418,-1000.000,0
8644.837,44.434,25.879,2.441,34.180,72.266,0
8644.841,50.293,34.668,0.000,60.547,-737.793,0
8644.845,25.879,32.227,-5.371,38.086,220.215,0
8644.849,13.184,22.949,5.859,13.672,-1000.000,0
8644.853,17.578,22.461,8.301,16.602,-233.887,0
8644.857,23.438,22.461,5.859,37.598,-774.902,0
8644.861,10.254,24.902,19.043,30.273,423.340,0
8644.865,3.418,26.855,21.973,13.184,-1000.000,0
8644.869,25.391,24.902,20.020,20.020,-443.848,0
8644.873,31.250,19.531,12.695,31.738,-928.711,0
8644.876,14.160,25.391,12.695,38.574,894.043,0
8644.880,2.930,40.527,11.719,20.020,-633.301,0
8644.884,22.949,32.227,14.648,8.789,-964.844,0
8644.888,58.594,21.973,15.137,47.363,524.414,0
8644.892,45.898,20.996,8.789,50.781,-781.738,0
8644.896,7.324,8.789,-2.930,15.137,3.418,0
8644.900,2.930,18.066,-6.836,15.137,-1000.000,0
8644.904,39.062,24.902,16.602,35.645,-72.754,0
8644.908,40.039,20.020,18.555,50.293,-749.512,0
8644.912,8.301,25.879,16.602,26.367,245.117,0
8644.915,7.324,32.227,20.020,-5.371,-1000.000,0
8644.919,30.762,32.715,19.531,13.672,-251.953,0
8644.923,42.969,29.297,12.695,48.828,-790.039,0
8644.927,19.043,19.531,6.836,36.133,527.344,0
8644.931,0.000,21.973,-5.371,7.812,-1000.000,0
8644.935,21.484,24.902,4.883,17.578,-566.406,0
8644.939,63.477,25.391,27.344,52.246,975.098,0
8644.943,43.457,36.621,3.906,55.176,-983.398,0
8644.947,0.977,31.250,-10.254,8.789,-434.570,0
8644.951,14.160,31.250,9.277,-2.441,-1000.000,0
8644.955,49.316,37.598,12.207,27.344,338.379,0
8644.958,48.340,33.203,5.859,40.527,-751.465,0
8644.962,17.090,33.691,14.160,21.484,108.398,0
8644.966,10.742,30.273,11.230,14.648,-1000.000,0
8644.970,41.504,28.320,13.672,34.668,-157.715,0
8644.974,54.199,17.090,5.371,47.363,-758.789,0
8644.978,25.879,29.785,3.418,33.203,281.250,0
8644.982,11.719,43.457,11.719,2.930,-1000.000,0
8644.986,32.715,30.762,14.160,22.949,-299.805,0
8644.990,50.293,22.949,21.484,63.965,-822.754,0
8644.994,29.785,28.320,6.348,47.363,644.043,0
8644.998,9.766,34.668,7.812,6.348,-953.613,0
8645.001,11.719,25.879,10.254,7.812,-728.027,0
8645.005,35.156,30.273,0.000,43.457,825.195,0
8645.009,38.574,30.762,29.297,49.805,-903.809,0
8645.013,9.277,16.113,29.785,12.695,-288.574,0
8645.017,14.160,13.184,1.465,8.789,-1000.000,0
8645.021,49.805,20.996,-0.977,42.480,150.391,0
8645.025,39.551,27.832,6.836,51.270,-743.652,0
8645.029,-3.418,27.832,27.344,27.832,175.293,0
8645.033,-4.883,24.414,6.348,-7.324,-1000.000,0
8645.037,30.762,21.973,2.930,20.020,-219.727,0
8645.040,43.945,23.438,13.672,50.293,-772.949,0
8645.044,20.508,33.203,-1.953,25.879,325.195,0
8645.048,1.953,30.273,9.766,5.859,-1000.000,0
8645.052,22.949,17.578,23.926,21.973,-415.039,0
8645.056,45.410,20.508,20.508,50.293,-877.930,0
8645.060,29.297,30.273,9.766,51.758,705.078,0
8645.064,10.742,29.297,9.766,27.832,-861.328,0
8645.068,32.227,29.785,21.973,29.785,-916.992,0
8645.072,55.176,31.250,11.230,47.852,580.078,0
8645.076,41.504,21.973,14.648,43.457,-840.820,0
8645.080,15.625,20.508,20.996,22.461,-184.082,0
8645.083,20.020,32.715,12.207,11.230,-1000.000,0
8645.087,47.852,23.926,1.465,32.715,-27.832,0
8645.091,49.316,14.648,4.883,51.758,-756.836,0
8645.095,12.695,15.137,19.531,33.203,218.262,0
8645.099,7.324,28.809,7.812,11.719,-1000.000,0
8645.103,50.293,40.527,19.531,35.156,-240.234,0
8645.107,53.711,27.344,38.086,73.730,-781.250,0
8645.111,17.578,14.648,29.297,58.594,388.184,0
8645.115,-7.324,15.137,4.883,13.184,-1000.000,0
8645.119,22.949,17.578,7.324,13.672,-557.617,0
8645.123,48.828,16.602,19.531,39.062,-984.375,0
8645.126,22.949,19.043,11.719,38.574,842.285,0
8645.130,7.324,29.785,12.207,13.672,-697.266,0
8645.134,26.367,36.133,13.672,11.719,-1000.000,0
8645.138,58.594,22.461,20.508,48.340,379.395,0
8645.142,51.270,13.184,32.227,70.312,-785.645,0
8645.146,22.461,19.043,20.020,41.016,-43.457,0
8645.150,21.484,16.602,1.953,33.691,-1000.000,0
8645.154,51.758,19.531,17.578,46.875,-129.883,0
8645.158,58.105,27.344,26.367,47.363,-767.578,0
8645.162,21.484,18.066,11.230,28.809,252.441,0
8645.165,4.883,16.113,10.254,5.859,-1000.000,0
8645.169,38.574,23.926,12.207,17.090,-287.109,0
8645.173,56.641,28.809,-0.977,58.105,-800.781,0
8645.177,22.949,17.578,4.883,44.922,475.098,0
8645.181,1.953,23.926,14.160,0.488,-1000.000,0
8645.185,23.926,40.527,4.883,2.930,-673.828,0
8645.189,44.922,26.855,10.254,32.227,897.461,0
8645.193,35.645,12.207,19.531,48.340,958.008,0
8645.197,13.672,21.973,28.809,25.879,-534.668,0
8645.201,25.879,28.320,13.672,11.719,-1000.000,0
8645.205,54.688,19.531,0.977,41.992,223.633,0
8645.208,47.852,23.438,13.184,53.711,-761.719,0
8645.212,12.695,22.461,11.719,12.207,71.777,0
8645.216,13.184,26.855,15.625,-7.324,-1000.000,0
8645.220,39.551,32.715,8.789,28.320,-189.453,0
8645.224,51.270,29.785,19.043,53.711,-773.438,0
8645.228,36.621,23.926,27.344,29.297,273.438,0
8645.232,23.926,26.855,12.207,1.953,-1000.000,0
8645.236,40.527,27.832,1.465,13.184,-352.051,0
8645.240,51.270,20.508,4.883,48.340,-836.914,0
8645.244,28.320,24.902,21.973,43.457,591.797,0
8645.248,-1.953,25.391,18.555,11.719,-983.887,0
8645.251,24.414,21.484,19.531,13.672,-805.176,0
8645.255,56.152,30.762,20.020,58.594,736.328,0
8645.259,39.062,28.320,3.906,64.941,-923.828,0
8645.263,15.625,24.414,7.812,25.879,-343.262,0
8645.267,18.066,21.973,17.578,16.113,-1000.000,0
8645.271,41.504,20.020,29.297,39.062,72.266,0
8645.275,43.945,17.578,16.113,60.059,-754.395,0
8645.279,23.438,25.879,5.859,45.410,161.621,0
8645.283,17.578,30.273,18.555,18.066,-1000.000,0
8645.287,36.621,15.137,8.789,27.344,-221.680,0
8645.290,42.969,10.254,9.766,60.059,-775.879,0
8645.294,24.902,21.973,20.996,50.781,328.613,0
8645.298,14.160,36.133,18.555,8.301,-1000.000,0
8645.302,31.738,31.738,8.789,16.113,-424.805,0
8645.306,49.316,23.926,7.812,39.551,-888.184,0
8645.310,19.531,29.785,1.953,39.062,730.469,0
8645.314,-1.465,27.832,2.441,16.113,-840.820,0
8645.318,17.090,33.203,31.250,3.906,-915.527,0
8645.322,39.551,32.715,27.832,29.297,575.684,0
8645.326,37.109,19.043,-4.883,36.621,-820.312,0
8645.330,13.184,20.996,4.883,8.301,-131.836,0
8645.333,1.953,19.043,12.695,-6.348,-1000.000,0
8645.337,26.367,19.043,12.695,24.414,-19.043,0
8645.341,44.922,24.414,23.438,47.852,-750.488,0
8645.345,12.207,11.230,21.484,21.484,228.516,0
8645.349,-10.742,9.277,15.625,-3.906,-1000.000,0
8645.353,19.043,25.391,7.324,6.348,-241.699,0
8645.357,36.621,30.273,15.625,18.066,-779.785,0
8645.361,27.344,39.062,15.625,14.648,415.039,0
8645.365,0.488,30.273,-3.418,-6.348,-1000.000,0
8645.369,7.324,17.578,3.906,2.930,-526.855,0
8645.373,35.156,19.043,19.043,40.039,-971.680,0
8645.376,12.695,23.926,21.973,39.551,881.348,0
8645.380,-12.695,26.367,20.020,2.441,-639.648,0
8645.384,18.555,36.133,23.438,-0.977,-1000.000,0
8645.388,49.805,29.297,6.836,35.156,393.555,0
8645.392,36.621,14.648,2.441,50.781,-777.832,0
8645.396,21.484,17.090,12.207,24.902,-11.230,0
8645.400,16.602,20.996,5.371,18.066,-1000.000,0
8645.404,28.809,22.949,17.578,37.109,-132.812,0
8645.408,39.062,28.809,27.344,40.527,-765.625,0
8645.412,16.602,34.668,20.020,36.621,252.930,0
8645.415,17.090,40.527,25.391,21.484,-1000.000,0
8645.419,38.574,24.414,17.090,24.414,-289.551,0
8645.423,51.758,14.160,-1.953,53.711,-802.246,0
8645.427,38.574,16.602,-4.395,49.805,497.070,0
8645.431,16.602,18.066,20.020,17.578,-1000.000,0
8645.435,31.738,28.320,25.879,21.484,-677.734,0
8645.439,44.922,27.344,18.555,52.246,885.254,0
8645.443,27.832,25.391,30.273,56.641,991.211,0
8645.447,2.930,23.926,18.555,27.344,-478.027,0
8645.451,16.113,23.438,8.789,8.301,-1000.000,0
8645.455,50.293,29.297,13.184,37.109,189.453,0
8645.458,46.875,29.785,7.812,58.594,-758.789,0
8645.462,28.320,35.156,0.000,37.109,92.285,0
8645.466,21.973,38.574,17.578,10.742,-1000.000,0
8645.470,41.016,29.785,25.391,36.621,-196.289,0
8645.474,58.594,16.602,24.414,69.336,-773.438,0
8645.478,35.156,20.020,25.391,32.227,276.367,0
8645.482,13.672,29.785,11.719,-3.418,-1000.000,0
8645.486,39.551,29.297,12.695,23.438,-353.027,0
8645.490,52.246,21.484,15.625,56.152,-841.797,0
8645.494,24.414,21.484,14.648,32.715,620.605,0
8645.498,4.395,21.484,5.859,-0.488,-964.355,0
8645.501,18.555,24.414,6.836,5.859,-800.293,0
8645.505,48.828,33.691,19.043,37.598,731.934,0
8645.509,42.480,40.527,18.555,53.223,-889.160,0
8645.513,15.625,43.457,7.324,34.180,-281.738,0
8645.517,21.973,36.621,9.277,13.672,-1000.000,0
8645.521,56.641,48.828,16.602,45.898,97.168,0
8645.525,62.988,31.250,12.207,59.570,-745.117,0
8645.529,35.645,11.230,12.695,22.949,193.359,0
8645.533,29.785,21.973,10.742,13.184,-1000.000,0
8645.537,52.734,27.344,0.977,33.203,-225.098,0
8645.540,42.480,29.785,7.324,58.105,-772.461,0
8645.544,20.996,36.133,18.555,43.457,374.023,0
8645.548,20.996,39.551,22.461,15.625,-1000.000,0
8645.552,27.344,23.926,18.555,23.438,-395.996,0
8645.556,44.922,14.160,3.418,45.898,-892.090,0
8645.560,31.738,20.508,-1.465,43.457,821.289,0
8645.564,12.207,28.809,21.973,20.020,-746.582,0
8645.568,30.273,20.996,21.484,12.207,-879.395,0
8645.572,51.270,22.949,2.930,41.992,641.113,0
8645.576,44.922,35.156,17.090,68.359,-809.082,0
8645.580,19.531,35.645,25.391,38.574,-74.707,0
8645.583,20.508,28.809,19.043,5.371,-1000.000,0
8645.587,52.734,30.762,30.273,34.180,-6.348,0
8645.591,52.246,30.762,22.461,52.246,-743.164,0
8645.595,32.227,23.438,11.719,28.809,234.375,0
8645.599,28.320,24.902,18.555,10.254,-1000.000,0
8645.603,42.969,30.762,7.812,26.367,-241.699,0
8645.607,54.199,33.203,3.418,58.105,-780.762,0
8645.611,27.832,25.879,9.277,40.039,479.004,0
8645.615,5.371,21.484,15.625,-3.418,-1000.000,0
8645.619,26.367,22.949,11.230,9.277,-482.910,0
8645.623,49.316,17.090,13.672,47.363,-956.543,0
8645.626,28.320,15.625,25.879,44.922,949.707,0
8645.630,-1.953,32.715,16.602,10.742,-548.340,0
8645.634,8.301,25.879,19.043,-4.883,-1000.000,0
8645.638,41.992,20.020,40.527,47.363,465.820,0
8645.642,39.551,31.738,21.973,68.359,-760.254,0
8645.646,12.695,25.391,-4.395,20.020,85.449,0
8645.650,3.906,22.949,2.930,-5.371,-1000.000,0
8645.654,31.738,23.438,11.230,22.461,-91.797,0
8645.658,40.527,25.391,15.625,57.129,-745.605,0
8645.662,19.531,28.809,26.855,38.574,263.672,0
8645.665,4.883,20.996,23.926,7.812,-1000.000,0
8645.669,22.461,20.996,11.719,22.461,-258.301,0
8645.673,43.945,27.832,19.531,45.898,-801.758,0
8645.677,18.066,26.367,17.090,26.367,612.793,0
8645.681,0.488,27.344,7.812,-3.906,-998.047,0
8645.685,22.949,39.062,10.742,8.301,-603.027,0
8645.689,52.246,43.457,12.207,42.480,945.801,0
8645.693,41.992,23.926,19.531,47.852,-939.453,0
8645.697,1.953,12.207,21.484,22.949,-350.098,0
8645.701,11.719,25.879,23.438,10.254,-1000.000,0
8645.705,48.828,32.227,13.184,30.762,292.480,0
8645.708,42.480,25.391,9.277,48.828,-745.117,0
8645.712,4.395,31.738,8.789,35.645,146.973,0
8645.716,6.836,36.133,3.906,8.789,-1000.000,0
8645.720,40.527,27.832,8.301,20.508,-190.918,0
8645.724,30.273,25.391,15.625,52.246,-764.648,0
8645.728,8.301,26.855,24.414,40.039,303.223,0
8645.732,10.254,26.367,18.066,9.277,-1000.000,0
8645.736,35.156,17.578,0.977,21.484,-344.238,0
8645.740,49.805,23.438,9.277,59.570,-844.727,0
8645.744,28.320,26.367,23.438,49.316,675.781,0
8645.748,0.488,26.367,17.090,16.602,-911.133,0
8645.751,9.766,31.738,10.742,20.996,-805.176,0
8645.755,46.387,38.086,19.043,58.594,728.516,0
8645.759,37.598,46.387,22.949,62.988,-864.258,0
8645.763,4.883,23.438,4.395,22.461,-224.121,0
8645.767,13.184,11.230,0.977,9.766,-1000.000,0
8645.771,33.691,18.555,16.602,41.016,98.633,0
8645.775,29.297,12.207,20.996,47.852,-742.188,0
8645.779,-1.465,14.160,12.207,23.438,197.266,0
8645.783,4.395,23.926,7.324,0.977,-1000.000,0
8645.787,37.109,25.879,19.531,15.625,-224.609,0
8645.790,30.273,17.578,16.602,46.875,-771.973,0
8645.794,13.672,20.996,17.090,45.410,393.555,0
8645.798,4.395,31.250,24.414,13.672,-1000.000,0
8645.802,30.762,11.719,12.207,9.766,-386.230,0
8645.806,37.598,11.719,9.766,50.781,-900.391,0
8645.810,16.602,26.855,15.625,59.082,873.047,0
8645.814,10.254,23.926,7.812,29.297,-692.871,0
8645.818,20.996,18.066,8.789,13.184,-834.473,0
8645.822,49.316,31.738,13.672,41.992,691.895,0
8645.826,47.363,33.203,2.930,60.547,-791.992,0
8645.830,8.301,22.461,6.348,40.039,2.930,0
8645.833,7.324,22.461,28.809,30.762,-1000.000,0
8645.837,43.945,25.879,30.273,52.734,58.105,0
8645.841,42.969,33.203,25.879,59.570,-728.027,0
8645.845,15.625,27.832,20.020,30.273,232.910,0
8645.849,8.301,20.996,16.602,18.555,-1000.000,0
8645.853,32.715,23.926,21.484,30.273,-235.840,1
8645.857,51.270,13.184,26.367,66.406,-783.691,0
8645.861,17.578,21.484,22.949,59.570,547.363,0
8645.865,-10.742,30.273,7.324,7.324,-1000.000,0
8645.869,16.113,25.879,-5.371,7.812,-444.824,0
8645.873,42.480,31.738,7.324,41.504,-948.242,0
8645.876,21.973,26.367,10.742,51.758,-997.559,0
8645.880,-1.465,25.879,1.953,18.555,-458.496,0
8645.884,16.602,25.879,5.371,-0.488,-973.145,0
8645.888,53.223,26.855,16.602,45.898,514.648,0
8645.892,49.805,26.367,27.344,61.035,-759.766,0
8645.896,16.602,32.227,21.973,15.625,103.516,0
8645.900,16.113,38.086,8.789,-15.137,-1000.000,0
8645.904,49.805,34.668,21.484,18.555,-80.566,0
8645.908,58.594,29.785,17.578,59.082,-741.211,0
8645.912,22.949,23.438,6.836,38.086,269.043,0
8645.915,-0.488,20.020,16.113,3.906,-1000.000,0
8645.919,31.738,20.020,12.695,17.090,-254.883,0
8645.923,47.852,24.414,13.184,45.898,-806.152,0
8645.927,33.203,30.762,11.230,28.809,646.484,0
8645.931,1.953,33.691,2.441,4.395,-968.262,0
8645.935,12.695,29.297,10.254,21.484,-594.238,0
8645.939,43.457,28.320,26.855,50.293,944.824,0
8645.943,36.133,30.273,23.438,56.152,-910.156,0
8645.947,17.578,39.551,24.414,23.926,-292.480,0
8645.951,22.461,39.062,24.902,0.977,-1000.000,0
8645.955,41.504,13.184,16.602,38.086,319.336,0
8645.958,20.020,3.418,11.719,55.664,-738.770,0
8645.962,-1.953,18.555,11.719,16.602,166.992,0
8645.966,20.996,32.715,15.625,0.488,-1000.000,0
8645.970,44.922,27.832,7.812,19.531,-174.316,0
8645.974,49.805,29.785,11.719,47.363,-757.324,0
8645.978,29.297,32.715,25.391,32.715,328.125,0
8645.982,20.020,31.250,13.672,6.348,-1000.000,0
8645.986,41.504,27.344,6.348,26.855,-311.523,0
8645.990,45.410,26.367,24.414,58.105,-843.262,0
8645.994,15.137,25.391,18.555,52.246,745.605,0
8645.998,-2.930,26.367,16.113,23.926,-850.586,0
8646.001,20.996,37.598,19.043,26.367,-754.395,0
8646.005,43.945,26.367,8.789,52.246,790.039,0
8646.009,38.086,13.672,12.695,55.176,-844.727,0
8646.013,19.043,15.625,15.625,9.766,-146.484,0
8646.017,10.742,15.137,23.926,-6.348,-1000.000,0
8646.021,29.297,15.625,24.902,31.250,117.188,0
8646.025,48.340,26.855,21.973,47.852,-733.887,0
8646.029,21.484,20.508,21.973,31.250,208.496,0
8646.033,11.719,17.578,14.648,24.902,-1000.000,0
8646.037,38.574,24.902,2.930,39.551,-225.586,0
8646.040,47.852,25.391,16.602,52.246,-770.996,0
8646.044,32.715,25.391,28.320,37.109,397.461,0
8646.048,9.766,26.855,19.531,-0.977,-1000.000,0
8646.052,22.949,34.668,21.484,9.277,-403.320,0
8646.056,43.945,21.973,17.578,60.547,-901.855,0
8646.060,23.926,14.648,16.602,51.270,858.398,0
8646.064,7.324,19.531,21.484,10.254,-699.707,0
8646.068,24.902,18.066,29.297,6.348,-888.672,0
8646.072,33.203,20.508,27.832,37.109,622.070,0
8646.076,27.344,23.438,14.648,55.176,-789.062,0
8646.080,12.695,31.738,18.066,23.438,-2.441,0
8646.083,9.277,28.320,17.578,4.395,-1000.000,0
8646.087,32.227,16.113,14.160,34.668,-11.719,0
8646.091,35.156,18.555,10.742,53.711,-738.770,0
8646.095,5.371,29.297,10.742,28.320,237.793,0
8646.099,0.488,25.391,28.809,12.207,-1000.000,0
8646.103,28.320,23.926,35.156,27.832,-242.676,0
8646.107,41.504,25.391,23.926,53.223,-783.203,0
8646.111,20.996,29.297,18.066,40.039,512.695,0
8646.115,15.625,27.832,15.137,8.789,-1000.000,0
8646.119,40.039,16.602,13.184,2.441,-496.094,0
8646.123,46.875,18.555,3.906,33.691,-965.820,0
8646.126,24.414,28.809,3.906,44.434,973.145,0
8646.130,3.906,29.785,15.137,12.207,-503.418,0
8646.134,15.137,34.668,18.555,9.277,-1000.000,0
8646.138,44.434,29.785,16.113,44.922,431.152,0
8646.142,53.223,22.949,20.020,62.012,-760.254,0
8646.146,14.160,19.531,20.020,18.555,85.449,0
8646.150,-18.066,20.508,19.043,-12.695,-1000.000,0
8646.154,21.484,28.809,17.578,27.344,-128.418,0
8646.158,38.574,37.598,16.602,48.828,-753.418,0
8646.162,2.441,31.250,10.254,11.230,267.578,0
8646.165,-5.859,18.555,12.695,-18.066,-1000.000,0
8646.169,10.742,18.555,19.531,5.859,-271.484,0
8646.173,33.203,25.879,24.902,45.410,-804.199,0
8646.177,22.461,26.855,23.926,36.133,593.750,0
8646.181,8.789,25.879,8.789,8.301,-1000.000,0
8646.185,31.250,31.738,8.789,25.391,-652.832,0
8646.189,52.734,29.785,28.809,52.246,899.414,0
8646.193,38.086,18.555,27.832,41.016,-936.523,0
8646.197,8.301,18.066,10.742,18.555,-344.238,0
8646.201,21.973,30.762,18.066,9.766,-1000.000,0
8646.205,42.480,34.668,21.973,42.480,212.891,0
8646.208,29.785,28.320,14.160,61.523,-744.141,0
8646.212,11.230,28.809,20.996,27.344,153.809,0
8646.216,16.113,28.320,11.230,0.000,-1000.000,0
8646.220,31.250,28.320,-6.836,19.531,-199.707,0
8646.224,41.504,25.391,5.859,55.664,-767.578,0
8646.228,22.461,13.184,13.672,39.062,310.547,0
8646.232,7.324,20.508,19.043,1.465,-1000.000,0
8646.236,38.086,33.203,19.043,14.160,-363.770,0
8646.240,56.152,40.039,11.230,56.152,-854.980,0
8646.244,36.621,38.086,23.438,57.129,691.406,0
8646.248,14.160,29.785,23.438,10.742,-895.020,0
8646.251,21.973,26.855,18.066,2.930,-826.172,0
8646.255,57.129,34.180,14.648,60.547,703.613,0
8646.259,47.363,32.227,12.207,62.988,-856.445,0
8646.263,0.000,30.273,11.719,9.766,-206.543,0
8646.267,18.555,31.250,15.137,3.906,-1000.000,0
8646.271,51.270,30.273,17.578,42.480,62.988,0
8646.275,39.062,30.273,14.160,63.477,-744.629,0
8646.279,20.996,30.762,21.484,31.738,203.613,0
8646.283,20.996,31.250,33.691,13.672,-1000.000,0
8646.287,53.223,29.297,29.785,37.109,-232.910,0
8646.290,46.875,25.879,16.113,53.711,-776.367,0
8646.294,8.301,25.879,16.602,36.133,376.465,0
8646.298,-6.348,22.949,21.484,6.348,-1000.000,0
8646.302,22.461,32.715,18.066,14.648,-469.727,0
8646.306,55.176,40.039,20.996,39.062,-918.945,0
8646.310,38.086,39.062,21.973,46.875,795.410,0
8646.314,15.137,39.062,22.949,20.508,-754.883,0
8646.318,18.066,25.391,18.066,18.555,-978.516,0
8646.322,41.016,7.812,14.160,53.711,492.676,0
8646.326,55.664,19.043,25.879,58.105,-800.781,0
8646.330,20.996,28.809,33.203,25.879,-80.078,0
8646.333,6.348,29.785,21.484,1.465,-1000.000,0
8646.337,42.480,26.367,8.301,41.016,-84.473,0
8646.341,47.852,27.344,13.184,69.336,-759.766,0
8646.345,12.695,45.898,18.066,26.855,240.234,0
8646.349,-7.324,41.992,26.855,-14.648,-1000.000,0
8646.353,20.508,25.879,22.461,-2.441,-259.277,0
8646.357,42.969,33.691,14.648,42.969,-788.574,0
8646.361,17.090,31.250,20.020,34.180,441.406,0
8646.365,6.348,28.809,20.508,-9.277,-1000.000,0
8646.369,25.879,37.109,11.719,5.859,-600.586,0
8646.373,43.457,27.344,9.277,53.223,967.285,0
8646.376,36.133,23.926,21.973,52.734,928.711,0
8646.380,14.648,25.391,23.438,14.160,-576.172,0
8646.384,27.344,29.785,18.555,16.113,-1000.000,0
8646.388,50.293,30.762,25.391,53.711,304.688,0
8646.392,39.062,8.789,25.879,63.965,-769.043,0
8646.396,15.137,9.277,10.742,41.992,31.738,0
8646.400,20.020,27.344,12.207,20.508,-1000.000,0
8646.404,61.523,29.785,31.250,44.434,-166.016,0
8646.408,56.152,27.344,31.250,68.359,-770.020,0
8646.412,-0.977,27.344,26.855,15.137,259.766,0
8646.415,-12.695,30.762,22.461,-8.301,-1000.000,0
8646.419,31.738,20.020,17.578,26.367,-315.918,0
8646.423,61.035,16.602,29.297,62.012,-816.895,0
8646.427,26.855,23.926,19.043,52.246,544.434,0
8646.431,22.461,26.367,7.324,19.531,-1000.000,0
8646.435,52.734,29.785,23.438,33.691,-727.051,0
8646.439,56.641,24.414,34.180,72.754,826.660,0
8646.443,35.645,19.531,37.598,64.941,-958.984,0
8646.447,15.625,30.762,27.344,21.484,-394.043,0
8646.451,20.996,26.855,18.066,13.184,-1000.000,0
8646.455,42.969,15.137,12.207,45.410,123.047,0
8646.458,50.781,23.438,11.719,61.523,-753.906,0
8646.462,16.602,25.879,19.043,33.203,141.602,0
8646.466,4.883,32.715,20.996,9.766,-1000.000,0
8646.470,40.527,49.805,21.973,33.691,-213.379,0
8646.474,49.316,37.598,23.926,50.781,-774.414,0
8646.478,19.531,20.020,24.902,39.551,298.340,0
8646.482,20.508,30.762,15.137,29.785,-1000.000,0
8646.486,44.922,28.809,20.020,23.438,-397.949,0
8646.490,43.945,21.973,14.160,32.227,-866.699,0
8646.494,34.180,27.832,15.625,42.480,671.387,0
8646.498,22.461,32.227,31.250,18.555,-911.621,0
8646.501,20.508,40.527,39.551,17.578,-859.863,0
8646.505,42.480,38.086,27.344,57.617,657.715,0
8646.509,38.574,20.508,8.301,50.781,-864.746,0
8646.513,11.719,17.578,13.184,7.812,-225.098,0
8646.517,26.367,31.250,8.789,5.371,-1000.000,0
8646.521,45.410,25.391,11.230,41.016,-3.906,0
8646.525,27.832,25.879,20.508,67.871,-756.348,0
8646.529,-5.859,36.133,18.555,37.598,203.125,0
8646.533,-5.371,29.785,25.879,3.418,-1000.000,0
8646.537,37.109,30.273,23.438,10.254,-231.934,0
8646.540,42.969,33.203,26.367,34.668,-778.809,0
8646.544,15.137,25.391,26.855,40.039,347.168,0
8646.548,8.301,29.297,8.789,9.766,-1000.000,0
8646.552,21.484,36.621,7.812,14.160,-528.320,0
8646.556,39.551,36.133,14.648,52.246,-950.684,0
8646.560,25.879,37.109,21.484,33.691,767.090,0
8646.564,12.695,33.691,28.320,1.465,-787.109,0
8646.568,25.391,28.320,33.203,5.371,-1000.000,0
8646.572,43.457,21.973,31.250,41.992,424.316,0
8646.576,33.691,22.461,17.090,50.781,-810.547,0
8646.580,11.719,32.715,6.348,5.859,-116.699,0
8646.583,19.043,39.551,10.254,0.000,-1000.000,0
8646.587,45.410,41.992,8.301,37.598,-110.352,0
8646.591,49.316,27.344,10.742,57.129,-769.043,0
8646.595,6.348,20.020,25.879,30.273,242.188,0
8646.599,-5.859,37.598,38.574,6.836,-1000.000,0
8646.603,39.551,31.738,37.109,26.367,-273.926,0
8646.607,50.781,14.160,12.695,47.363,-793.945,0
8646.611,17.090,20.020,12.695,55.664,421.875,0
8646.615,1.953,31.738,30.762,36.133,-1000.000,0
8646.619,25.391,32.715,18.066,26.855,-639.648,0
8646.623,42.969,21.484,11.230,48.340,934.570,0
8646.626,25.391,24.902,20.508,47.363,911.621,0
8646.630,7.324,33.203,21.484,20.508,-604.492,0
8646.634,19.043,19.043,12.695,6.836,-1000.000,0
8646.638,47.852,18.066,13.672,36.621,264.160,0
8646.642,29.297,29.297,19.043,52.246,-767.090,0
8646.646,-13.672,29.785,19.531,5.371,38.574,0
8646.650,2.930,33.203,26.367,-19.043,-1000.000,0
8646.654,42.969,31.738,23.438,18.555,-176.758,0
8646.658,42.480,40.039,21.973,49.805,-772.949,0
8646.662,21.484,41.504,12.207,31.250,262.207,0
8646.665,5.859,19.531,2.441,6.348,-1000.000,0
8646.669,22.461,15.137,12.695,14.160,-329.102,0
8646.673,41.016,23.438,5.859,32.227,-819.824,0
8646.677,14.648,30.762,15.137,29.785,524.414,0
8646.681,-3.418,33.691,23.926,2.441,-1000.000,0
8646.685,13.672,23.438,11.719,-12.695,-779.297,0
8646.689,39.551,20.996,15.625,22.949,773.926,0
8646.693,36.621,34.180,24.414,44.922,-979.980,0
8646.697,3.906,40.039,11.719,10.254,-437.012,0
8646.701,0.488,29.297,0.977,-15.137,-1000.000,0
8646.705,25.879,29.785,11.719,5.371,85.938,0
8646.708,32.715,30.762,9.277,44.434,-762.695,0
8646.712,16.602,25.391,1.465,21.484,121.094,0
8646.716,-0.977,38.086,18.555,-17.578,-1000.000,0
8646.720,29.785,41.504,22.461,22.949,-214.844,0
8646.724,59.570,22.461,4.883,60.059,-778.809,0
8646.728,29.785,17.578,17.578,31.738,293.945,0
8646.732,14.160,24.414,31.738,7.812,-1000.000,0
8646.736,24.902,27.832,20.020,17.090,-420.898,0
8646.740,43.457,26.855,16.113,42.969,-879.395,0
8646.744,28.809,25.879,13.672,35.156,673.340,0
8646.748,4.883,29.785,20.020,5.859,-902.832,0
8646.751,34.180,28.320,26.855,20.020,-887.695,0
8646.755,62.500,27.832,16.113,54.688,611.328,0
8646.759,37.598,42.969,20.508,56.152,-848.633,0
8646.763,10.254,35.156,22.949,13.672,-199.707,0
8646.767,17.090,24.414,19.043,0.488,-1000.000,0
8646.771,38.086,21.973,21.973,35.156,6.836,0
8646.775,32.227,17.090,22.949,52.734,-751.465,0
8646.779,9.277,18.066,26.855,31.250,211.426,0
8646.783,14.160,15.625,28.809,5.859,-1000.000,0
8646.787,45.898,28.320,24.902,34.180,-235.352,0
8646.790,58.594,32.715,26.855,69.824,-777.832,0
8646.794,38.086,18.555,27.832,48.828,382.324,0
8646.798,20.508,27.344,26.855,22.461,-1000.000,0
8646.802,36.133,34.668,32.227,37.598,-487.793,0
8646.806,54.688,21.484,26.855,65.918,-933.594,0
8646.810,41.504,19.531,18.066,59.570,824.707,0
8646.814,18.066,24.414,31.738,30.273,-718.262,0
8646.818,20.996,29.297,28.809,23.438,-1000.000,0
8646.822,54.199,35.645,27.832,50.293,451.660,0
8646.826,51.758,28.809,35.156,56.641,-791.016,0
8646.830,22.461,22.461,20.020,23.438,-54.688,0
8646.833,25.391,31.738,12.695,7.812,-1000.000,0
8646.837,47.852,39.551,11.230,47.363,-96.191,0
8646.841,54.199,25.879,7.324,71.289,-760.254,0
8646.845,29.297,31.250,28.320,40.039,245.605,0
8646.849,15.625,30.273,32.715,14.648,-1000.000,0
8646.853,41.992,22.461,21.973,27.344,-263.672,0
8646.857,56.152,23.438,30.273,61.523,-790.527,0
8646.861,26.855,19.043,34.668,51.758,457.031,0
8646.865,0.488,20.508,27.832,6.348,-1000.000,0
8646.869,28.320,35.645,19.043,20.508,-612.305,0
8646.873,58.594,46.875,11.230,55.664,947.754,0
8646.876,40.527,34.668,6.348,45.898,960.449,0
8646.880,26.855,20.020,3.906,21.484,-525.391,0
8646.884,25.879,25.391,21.973,16.113,-1000.000,0
8646.888,39.062,30.273,33.691,38.574,278.320,0
8646.892,38.574,35.645,28.320,44.434,-760.742,0
8646.896,18.555,40.039,31.250,18.066,64.941,0
8646.900,28.809,26.855,27.832,2.930,-1000.000,0
8646.904,46.387,28.320,33.691,41.016,-176.758,0
8646.908,52.734,34.668,30.762,68.848,-769.531,0
8646.912,30.762,28.809,12.207,34.668,268.555,0
8646.915,14.160,27.344,16.602,4.883,-1000.000,0
8646.919,35.645,24.902,18.555,25.879,-317.871,0
8646.923,48.828,35.645,16.113,59.570,-823.242,0
8646.927,34.180,30.762,19.531,39.551,592.773,0
8646.931,17.578,26.367,26.855,-8.301,-995.605,0
8646.935,23.438,26.367,20.020,10.254,-737.305,0
8646.939,40.039,18.555,13.672,46.387,814.453,0
8646.943,32.227,30.273,20.020,40.039,-928.223,0
8646.947,23.926,36.133,11.230,2.930,-341.309,0
8646.951,44.434,28.809,6.348,-4.395,-1000.000,0
8646.955,37.109,25.879,21.973,31.738,135.742,0
8646.958,8.789,29.297,23.926,48.828,-748.047,0
8646.962,3.418,32.715,24.902,33.203,164.551,0
8646.966,19.043,24.902,37.109,6.348,-1000.000,0
8646.970,29.297,22.949,28.809,15.137,-216.797,0
8646.974,38.574,36.621,10.742,44.434,-770.996,0
8646.978,24.902,38.574,20.508,34.668,337.402,0
8646.982,-6.348,30.762,23.438,8.789,-1000.000,0
8646.986,20.020,26.855,10.254,22.949,-366.211,0
8646.990,47.363,25.879,15.137,54.688,-868.164,0
8646.994,32.715,20.996,22.461,45.410,756.348,0
8646.998,7.324,14.160,24.414,2.930,-822.266,0
8647.001,20.508,25.879,20.020,8.789,-852.051,0
8647.005,55.664,26.855,17.578,41.992,678.223,0
8647.009,31.250,26.855,13.672,42.480,-833.496,0
8647.013,4.395,32.715,16.113,31.250,-150.391,0
8647.017,8.301,21.484,25.391,28.809,-1000.000,0
8647.021,27.832,19.531,12.207,42.480,36.133,0
8647.025,46.875,28.809,8.789,42.480,-743.164,0
8647.029,22.949,29.785,19.531,25.879,223.633,0
8647.033,18.555,29.297,26.367,17.578,-1000.000,0
8647.037,42.969,25.391,30.273,27.832,-236.328,0
8647.040,48.340,23.438,20.996,44.434,-776.855,0
8647.044,27.344,34.180,20.020,33.691,430.664,0
8647.048,10.254,36.133,34.180,10.254,-1000.000,0
8647.052,26.367,28.809,24.902,19.531,-473.633,0
8647.056,43.457,13.672,8.301,39.551,-933.594,0
8647.060,39.551,26.367,15.137,54.688,871.094,0
8647.064,21.973,35.645,15.625,33.691,-665.039,0
8647.068,13.672,24.414,16.113,12.695,-977.051,0
8647.072,26.855,30.273,19.043,37.598,502.441,0
8647.076,28.809,28.809,16.113,49.316,-786.621,0
8647.080,21.484,21.484,21.973,31.250,-15.137,0
8647.083,27.344,24.414,21.484,11.719,-1000.000,0
8647.087,37.598,29.785,9.766,33.691,-98.145,0
8647.091,43.457,23.926,16.602,52.246,-756.348,0
8647.095,19.043,20.508,25.879,29.297,248.047,0
8647.099,11.719,31.250,27.344,15.625,-1000.000,0
8647.103,37.109,30.273,20.020,27.344,-262.695,0
8647.107,47.363,20.508,12.207,43.457,-791.016,0
8647.111,15.625,25.391,13.672,29.785,487.305,0
8647.115,4.883,31.738,20.020,12.695,-1000.000,0
8647.119,27.832,18.555,29.297,24.414,-620.605,0
8647.123,43.945,13.184,26.855,59.570,939.941,0
8647.126,25.391,16.602,27.832,57.129,979.004,0
8647.130,1.465,21.973,14.648,19.531,-500.977,0
8647.134,16.602,30.273,4.395,11.719,-1000.000,0
8647.138,50.781,33.691,17.578,36.133,276.855,0
8647.142,39.551,38.574,18.066,43.945,-756.348,0
8647.146,6.836,27.832,20.508,14.648,96.680,0
8647.150,7.812,35.645,31.738,4.883,-1000.000,0
8647.154,35.156,38.086,37.598,30.762,-176.270,1
8647.158,43.945,17.090,22.461,34.180,-766.113,0
8647.162,8.301,20.020,18.555,19.043,273.926,0
8647.165,10.254,28.809,29.297,10.742,-1000.000,0
8647.169,41.016,27.344,24.902,33.691,-318.359,0
8647.173,58.105,27.832,23.926,62.012,-824.219,0
8647.177,24.414,31.738,19.043,40.039,604.492,0
8647.181,-3.418,43.457,18.555,12.207,-981.934,0
8647.185,27.344,33.691,23.926,17.090,-754.883,0
8647.189,45.410,19.043,22.949,45.898,795.898,0
8647.193,44.434,32.227,22.949,64.453,-922.852,0
8647.197,28.320,39.551,31.250,29.785,-331.055,0
8647.201,19.043,28.809,28.320,16.602,-1000.000,0
8647.205,44.434,22.461,19.531,50.293,104.492,0
8647.208,54.199,21.973,25.879,55.176,-751.953,0
8647.212,18.555,27.832,18.066,22.461,157.227,0
8647.216,3.418,26.855,20.020,0.977,-1000.000,0
8647.220,38.086,23.926,40.039,27.344,-221.680,0
8647.224,55.176,25.391,50.781,69.336,-776.367,0
8647.228,17.578,25.391,28.809,45.410,311.035,0
8647.232,0.488,39.062,14.160,9.766,-1000.000,0
8647.236,25.391,37.109,30.762,16.602,-429.688,0
8647.240,39.062,20.508,22.461,50.781,-885.254,0
8647.244,48.340,22.461,20.508,54.688,693.359,0
8647.248,29.785,29.297,27.832,20.996,-869.629,0
8647.251,25.391,31.250,19.531,10.742,-933.594,0
8647.255,47.852,24.414,11.719,42.969,559.082,0
8647.259,39.062,29.297,25.391,58.594,-848.633,0
8647.263,20.020,31.738,39.551,26.367,-213.867,0
8647.267,25.879,38.086,34.668,11.719,-1000.000,0
8647.271,50.293,37.109,20.020,38.574,-10.254,0
8647.275,40.039,20.020,16.113,44.922,-755.371,0
8647.279,19.531,28.809,26.855,26.367,215.820,0
8647.283,23.438,38.086,33.203,12.207,-1000.000,0
8647.287,48.828,35.156,37.598,36.621,-235.352,0
8647.290,61.035,24.414,27.832,67.383,-778.320,0
8647.294,36.133,19.531,15.625,53.223,381.836,0
8647.298,15.625,24.414,25.879,20.508,-1000.000,0
8647.302,30.762,23.438,29.297,13.672,-516.602,0
8647.306,58.594,30.273,14.160,38.086,-954.102,0
8647.310,40.527,43.457,15.625,35.645,831.543,0
8647.314,16.602,42.480,18.555,15.137,-704.590,0
8647.318,26.855,34.180,24.902,14.648,-1000.000,0
8647.322,61.523,44.434,22.461,47.363,399.902,0
8647.326,66.895,44.434,25.879,62.988,-788.086,0
8647.330,20.996,21.973,19.531,12.207,-49.316,0
8647.333,15.625,23.438,10.742,-3.418,-1000.000,0
8647.337,46.875,30.273,16.113,30.273,-124.023,0
8647.341,49.316,29.785,22.949,51.270,-766.602,0
8647.345,26.367,29.297,34.180,31.250,250.000,0
8647.349,0.488,27.832,27.832,0.000,-1000.000,0
8647.353,17.578,33.203,12.695,10.254,-285.156,0
8647.357,35.645,36.621,24.414,46.387,-799.805,0
8647.361,14.160,32.227,41.504,48.828,473.145,0
8647.365,-1.953,24.414,23.438,17.090,-1000.000,0
8647.369,23.438,22.949,17.578,12.207,-654.297,0
8647.373,37.598,20.508,34.180,43.457,910.645,0
8647.376,16.602,15.625,35.156,42.480,970.703,0
8647.380,-3.906,16.113,32.715,5.859,-514.160,0
8647.384,19.043,20.020,27.344,8.301,-1000.000,0
8647.388,46.875,29.297,27.832,50.293,235.352,0
8647.392,21.484,23.438,30.762,58.105,-757.324,0
8647.396,3.906,18.066,30.762,16.113,96.191,0
8647.400,19.531,39.062,16.113,-6.836,-1000.000,0
8647.404,40.527,45.410,11.230,35.156,-183.105,0
8647.408,40.527,29.297,25.391,55.176,-768.555,0
8647.412,22.949,24.902,32.715,31.738,278.320,0
8647.415,7.812,25.391,41.016,14.160,-1000.000,0
8647.419,29.297,29.297,43.945,21.973,-332.520,0
8647.423,46.387,25.391,28.320,43.457,-831.055,0
8647.427,23.438,16.602,20.508,35.645,613.281,0
8647.431,6.836,28.320,22.461,6.836,-978.516,0
8647.435,18.066,27.832,23.926,4.395,-753.906,0
8647.439,48.340,26.855,30.273,35.156,791.016,0
8647.443,53.223,31.738,23.926,62.012,-911.621,0
8647.447,18.066,31.250,16.602,27.832,-311.523,0
8647.451,20.020,35.645,12.207,0.488,-1000.000,0
8647.455,33.203,26.367,25.391,37.598,123.535,0
8647.458,30.273,22.949,34.180,53.711,-746.094,0
8647.462,31.738,25.879,29.785,30.273,183.105,0
8647.466,25.879,26.367,32.715,27.344,-1000.000,0
8647.470,26.855,36.621,31.250,34.668,-218.262,0
8647.474,23.438,37.109,22.949,38.574,-771.484,0
8647.478,2.930,39.062,22.461,12.695,336.914,0
8647.482,-1.953,36.133,20.508,-20.508,-1000.000,0
8647.486,16.113,23.926,12.695,0.977,-403.320,0
8647.490,27.832,23.926,23.438,38.574,-879.395,0
8647.494,20.508,26.367,29.297,31.738,742.188,0
8647.498,7.812,20.508,22.949,-1.465,-832.031,0
8647.501,25.879,24.414,32.715,-4.395,-889.648,0
8647.505,48.828,33.203,36.621,34.668,612.305,0
8647.509,33.691,36.133,20.996,50.293,-820.312,0
8647.513,4.883,43.945,23.926,20.020,-124.512,0
8647.517,11.719,49.805,29.785,-1.465,-1000.000,0
8647.521,48.828,28.809,28.809,31.250,6.348,0
8647.525,51.270,15.137,25.391,63.477,-745.117,0
8647.529,8.301,22.461,15.625,26.855,228.027,0
8647.533,0.977,24.414,21.484,-7.324,-1000.000,0
8647.537,39.062,25.391,38.086,20.996,-239.258,0
8647.540,52.246,25.391,20.020,41.016,-778.809,0
8647.544,20.996,30.273,9.277,20.508,425.293,0
8647.548,-0.977,44.434,20.996,-3.906,-1000.000,0
8647.552,19.043,39.551,8.301,11.719,-521.484,0
8647.556,60.547,28.809,10.742,55.664,-944.336,0
8647.560,43.457,29.785,23.926,55.176,812.012,0
8647.564,7.324,35.645,21.973,6.836,-704.590,0
8647.568,21.973,36.133,29.297,6.836,-1000.000,0
8647.572,36.621,34.668,40.039,53.223,348.633,0
8647.576,29.785,21.484,28.320,56.152,-815.430,0
8647.580,3.418,8.789,19.531,25.879,-124.023,0
8647.583,12.695,21.973,16.113,8.789,-1000.000,0
8647.587,35.156,34.180,25.391,20.996,-154.785,0
8647.591,34.668,20.996,20.508,49.805,-783.203,0
8647.595,14.648,27.832,5.371,37.109,241.211,0
8647.599,4.395,38.574,10.254,15.137,-1000.000,0
8647.603,24.902,24.902,22.949,40.039,-333.984,0
8647.607,38.086,22.461,23.438,64.453,-819.336,0
8647.611,17.578,20.020,15.137,38.086,408.203,0
8647.615,6.348,20.508,20.020,9.277,-1000.000,0
8647.619,36.621,29.297,31.250,17.578,-763.672,0
8647.623,50.781,25.879,28.809,52.734,813.477,0
8647.626,31.250,25.391,19.531,55.664,880.371,0
8647.630,14.160,25.391,20.020,24.902,-646.973,0
8647.634,29.297,20.508,13.184,17.578,-1000.000,0
8647.638,47.852,27.832,12.207,37.598,125.488,0
8647.642,27.344,33.203,20.996,55.664,-786.133,0
8647.646,10.742,28.320,25.879,31.738,3.906,0
8647.650,-0.488,17.090,21.484,6.836,-1000.000,0
8647.654,19.531,26.367,25.391,37.109,-198.242,0
8647.658,35.645,34.180,21.484,55.176,-786.621,0
8647.662,0.488,23.926,4.395,25.391,268.555,0
8647.665,-5.859,26.855,6.348,12.695,-1000.000,0
8647.669,30.273,36.133,23.438,26.855,-422.363,0
8647.673,49.805,28.320,24.902,44.922,-859.863,0
8647.677,17.578,18.066,12.207,45.898,514.648,0
8647.681,-9.766,36.133,8.301,10.254,-1000.000,0
8647.685,16.602,39.062,14.648,10.254,-904.785,0
8647.689,33.691,26.367,28.320,45.410,609.375,0
8647.693,18.555,21.484,26.367,48.340,-981.445,0
8647.697,-2.930,27.344,22.461,26.367,-458.984,0
8647.701,14.160,25.879,37.598,12.207,-1000.000,0
8647.705,47.363,25.391,30.762,26.367,-11.719,0
8647.708,21.973,36.621,13.184,47.363,-779.297,0
8647.712,-17.090,32.227,20.020,17.578,125.977,0
8647.716,0.977,33.203,24.902,-4.395,-1000.000,0
8647.720,43.945,42.969,13.184,26.367,-221.191,0
8647.724,54.688,39.551,5.371,45.410,-785.156,0
8647.728,14.648,28.809,14.160,22.461,288.086,0
8647.732,6.348,29.297,20.996,4.395,-1000.000,0
8647.736,47.852,24.902,28.320,26.855,-514.160,0
8647.740,50.781,21.484,27.832,53.711,-922.363,0
8647.744,21.484,31.250,23.438,39.551,632.324,0
8647.748,4.883,44.434,33.691,14.160,-912.109,0
8647.751,26.855,47.852,34.668,19.531,-1000.000,0
8647.755,49.316,33.691,26.855,54.199,423.828,0
8647.759,35.645,34.180,25.879,61.035,-872.559,0
8647.763,8.789,29.785,16.113,19.043,-264.160,0
8647.767,8.789,15.625,1.953,6.836,-1000.000,0
8647.771,36.133,23.438,10.254,33.691,-108.398,0
8647.775,64.453,32.715,31.250,52.734,-782.227,0
8647.779,36.133,30.273,37.109,39.062,202.148,0
8647.783,-4.883,32.227,22.949,5.371,-1000.000,0
8647.787,32.227,26.367,22.461,13.184,-264.648,0
8647.790,49.805,27.344,25.391,54.199,-794.434,0
8647.794,18.066,33.691,12.695,40.527,342.285,0
8647.798,8.789,36.621,11.719,0.977,-1000.000,0
8647.802,37.109,31.250,17.578,18.066,-645.020,0
8647.806,54.199,36.133,14.160,60.059,953.613,0
8647.810,42.480,32.227,13.184,57.129,765.625,0
8647.814,18.066,31.250,8.789,14.160,-780.273,0
8647.818,9.277,24.902,26.367,7.812,-1000.000,0
8647.822,40.039,11.719,45.410,35.645,264.160,0
8647.826,36.621,17.090,28.320,38.086,-811.035,0
8647.830,-1.953,27.344,21.484,14.160,-111.816,0
8647.833,7.812,35.645,19.043,5.371,-1000.000,0
8647.837,44.434,30.762,17.578,34.668,-161.133,0
8647.841,51.270,34.668,30.273,62.500,-782.715,0
8647.845,20.508,32.715,17.578,52.246,253.418,0
8647.849,3.906,13.184,9.277,19.531,-1000.000,0
8647.853,30.273,3.906,26.367,9.766,-328.125,0
8647.857,54.199,16.602,36.133,38.086,-816.406,0
8647.861,22.461,29.785,31.250,42.969,440.918,0
8647.865,5.371,32.715,28.320,5.859,-1000.000,0
8647.869,20.508,32.715,28.320,5.859,-740.723,0
8647.873,36.621,28.809,33.691,55.664,826.172,0
8647.876,35.156,24.902,29.785,59.082,933.105,0
8647.880,14.160,22.949,18.066,23.438,-568.359,0
8647.884,30.273,21.484,24.902,11.230,-1000.000,0
8647.888,55.664,30.273,22.461,41.504,127.441,0
8647.892,52.246,31.738,15.625,64.453,-772.461,0
8647.896,21.973,29.297,29.297,35.645,54.199,0
8647.900,11.719,32.227,33.691,8.301,-1000.000,0
8647.904,31.738,19.043,22.461,23.438,-202.148,0
8647.908,32.227,18.555,27.344,41.016,-781.738,0
8647.912,20.508,37.109,29.297,30.273,268.066,0
8647.915,18.555,24.414,24.902,13.672,-1000.000,0
8647.919,30.762,20.508,23.438,13.672,-396.484,0
8647.923,43.945,26.855,7.324,42.480,-854.004,0
8647.927,29.297,22.949,13.184,49.316,565.918,0
8647.931,12.207,29.297,35.156,13.672,-986.816,0
8647.935,23.438,22.949,30.273,8.789,-873.047,0
8647.939,25.879,8.789,10.742,50.293,646.484,0
8647.943,5.371,17.578,17.090,59.570,-936.523,0
8647.947,1.465,32.227,24.414,24.902,-378.418,0
8647.951,16.602,42.480,24.414,6.348,-1000.000,0
8647.955,28.320,41.504,34.668,31.250,16.113,0
8647.958,14.160,25.879,20.508,40.039,-765.137,0
8647.962,-0.488,22.461,12.695,5.859,158.203,0
8647.966,3.906,22.461,21.973,-7.324,-1000.000,0
8647.970,21.973,29.297,23.926,12.695,-224.609,0
8647.974,35.645,37.598,20.996,41.992,-780.273,0
8647.978,2.441,33.203,24.414,41.504,311.523,0
8647.982,-16.113,21.484,22.461,10.742,-1000.000,0
8647.986,18.555,19.531,7.812,19.043,-470.703,0
8647.990,40.527,26.855,14.648,46.875,-908.203,0
8647.994,40.527,32.227,30.273,38.086,713.379,0
8647.998,10.254,38.086,40.527,19.043,-852.539,0
8648.001,-0.488,24.414,33.691,24.902,-958.496,0
8648.005,26.367,18.555,18.066,35.156,508.789,0
8648.009,13.672,25.879,20.020,16.602,-825.195,0
8648.013,-11.230,33.691,34.668,-6.348,-151.855,0
8648.017,3.906,43.457,34.668,-5.859,-1000.000,0
8648.021,23.926,26.855,20.508,21.484,-54.688,0
8648.025,22.949,20.020,20.508,49.316,-759.277,0
8648.029,8.789,24.902,30.273,28.809,229.980,0
8648.033,11.230,33.203,18.066,15.625,-1000.000,0
8648.037,41.992,30.762,17.090,36.133,-248.535,0
8648.040,52.246,18.066,32.227,58.105,-784.180,0
8648.044,33.691,21.484,22.949,47.363,434.570,0
8648.048,10.254,26.855,18.066,14.160,-1000.000,0
8648.052,34.180,27.344,28.809,17.578,-538.574,0
8648.056,71.289,26.367,36.133,44.922,-982.422,0
8648.060,26.855,23.926,32.227,49.316,899.414,0
8648.064,-11.230,29.785,28.320,15.625,-619.629,0
8648.068,26.367,36.621,17.578,14.160,-1000.000,0
8648.072,54.688,24.414,14.648,51.270,394.043,0
8648.076,38.574,17.090,26.855,49.805,-773.438,0
8648.080,13.672,33.203,25.391,20.996,11.719,0
8648.083,18.555,37.109,20.020,17.578,-1000.000,0
8648.087,62.012,33.691,40.527,39.062,-133.301,0
8648.091,60.059,29.785,32.715,58.594,-762.695,0
8648.095,20.996,24.902,24.414,39.551,254.395,0
8648.099,13.672,33.203,30.273,25.879,-1000.000,0
8648.103,50.293,28.809,26.855,35.645,-279.785,0
8648.107,60.059,30.762,27.344,48.828,-798.828,0
8648.111,23.438,38.574,37.598,42.480,512.695,0
8648.115,8.301,29.297,42.480,11.719,-1000.000,0
8648.119,27.344,21.484,26.855,11.719,-660.645,0
8648.123,38.086,23.926,17.578,44.434,897.949,0
8648.126,26.855,33.691,19.043,57.617,-991.211,0
8648.130,16.113,38.086,30.762,20.508,-452.637,0
8648.134,26.855,28.320,30.762,-5.859,-1000.000,0
8648.138,49.316,31.738,26.855,40.039,233.398,0
8648.142,37.109,38.086,37.598,68.848,-751.953,0
8648.146,6.348,26.367,34.668,33.691,125.000,0
8648.150,-0.977,26.855,31.250,5.859,-1000.000,0
8648.154,37.598,27.344,30.273,21.973,-196.777,0
8648.158,65.918,30.273,21.484,48.340,-769.531,0
8648.162,23.438,39.551,33.203,27.832,291.504,0
8648.165,-0.977,37.598,35.645,-9.766,-1000.000,0
8648.169,24.414,21.973,14.160,12.207,-360.352,0
8648.173,43.457,21.484,20.996,55.176,-847.168,0
8648.177,23.926,33.691,27.832,44.922,645.996,0
8648.181,4.395,31.250,16.113,5.859,-939.453,0
8648.185,26.367,30.762,28.809,13.184,-812.988,0
8648.189,44.922,39.062,34.668,44.922,722.656,0
8648.193,38.086,38.086,31.250,37.598,-886.719,0
8648.197,12.207,26.855,47.363,23.926,-269.531,0
8648.201,15.625,24.414,35.645,16.602,-1000.000,0
8648.205,38.086,28.809,11.719,31.250,67.871,0
8648.208,41.992,22.461,13.184,57.129,-748.535,0
8648.212,19.043,25.879,11.719,24.902,188.965,0
8648.216,21.973,41.504,11.230,4.883,-1000.000,0
8648.220,46.387,40.039,6.836,26.855,-228.027,0
8648.224,48.828,40.527,15.625,50.781,-775.879,0
8648.228,29.785,29.297,32.715,34.180,346.680,0
8648.232,10.254,19.043,36.621,1.465,-1000.000,0
8648.236,23.438,13.184,30.762,13.672,-450.684,0
8648.240,35.645,11.230,24.414,44.434,-904.297,0
8648.244,18.555,23.438,24.414,43.457,757.324,0
8648.248,-4.883,24.414,34.668,18.066,-808.105,0
8648.251,19.531,19.043,26.855,14.648,-943.848,0
8648.255,53.711,24.902,17.090,45.410,540.527,0
8648.259,32.715,33.691,18.066,58.105,-815.918,0
8648.263,0.488,33.691,17.578,8.301,-116.211,0
8648.267,-1.465,20.020,29.785,-15.137,-1000.000,0
8648.271,34.668,23.926,32.227,28.809,-49.316,0
8648.275,39.551,29.785,13.672,59.082,-754.883,0
8648.279,4.883,24.414,21.484,31.250,232.910,0
8648.283,7.812,20.996,25.391,1.953,-1000.000,0
8648.287,47.363,29.785,17.090,22.461,-244.629,0
8648.290,55.664,28.320,19.043,51.758,-782.715,0
8648.294,20.996,28.809,23.926,41.016,445.801,0
8648.298,4.395,35.645,27.832,9.766,-1000.000,0
8648.302,30.762,31.250,22.461,11.719,-538.574,0
8648.306,54.199,29.297,9.766,49.316,-992.188,0
8648.310,26.855,20.020,20.508,52.734,934.570,0
8648.314,17.578,24.414,40.039,25.879,-568.359,0
8648.318,39.062,31.738,29.785,36.133,-1000.000,0
8648.322,42.480,22.949,11.719,63.965,391.113,0
8648.326,34.180,35.156,22.949,54.688,-765.137,0
8648.330,4.883,34.668,35.156,10.254,45.410,0
8648.333,8.301,20.996,35.645,-5.859,-1000.000,0
8648.337,41.992,17.090,30.762,31.250,-124.512,0
8648.341,42.480,15.137,17.090,61.523,-757.324,0
8648.345,13.184,26.367,22.461,32.715,255.371,0
8648.349,16.602,28.809,23.926,9.277,-1000.000,0
8648.353,42.969,27.832,22.461,28.809,-274.902,0
8648.357,40.527,26.855,25.879,44.922,-803.711,0
8648.361,20.996,32.715,33.203,43.945,565.430,0
8648.365,11.719,37.598,33.203,11.719,-1000.000,0
8648.369,17.578,23.438,21.484,9.766,-671.875,0
8648.373,40.527,18.555,23.438,47.852,890.625,0
8648.376,28.320,16.113,21.484,48.828,-969.727,0
8648.380,-10.742,22.461,18.066,17.090,-411.621,0
8648.384,-0.977,25.391,32.715,3.906,-1000.000,0
8648.388,33.691,24.902,36.621,31.738,220.703,0
8648.392,31.250,20.996,27.832,43.945,-750.000,0
8648.396,16.602,19.531,27.832,22.461,128.906,0
8648.400,14.160,21.484,34.180,-0.977,-1000.000,0
8648.404,25.879,9.766,32.227,11.719,-196.289,0
8648.408,33.691,16.602,23.926,47.363,-769.043,0
8648.412,11.719,34.180,20.996,30.762,294.434,0
8648.415,0.977,38.086,23.438,1.465,-1000.000,0
8648.419,28.809,35.156,20.996,19.531,-356.934,0
8648.423,43.945,28.809,7.324,52.246,-847.656,0
8648.427,12.695,30.762,19.043,41.992,659.180,0
8648.431,-4.395,26.855,42.480,9.277,-934.082,0
8648.435,19.043,17.090,29.785,1.953,-791.504,0
8648.439,44.434,18.066,17.090,38.086,739.258,0
8648.443,35.156,22.461,26.367,49.805,-865.234,0
8648.447,5.859,19.531,29.785,18.066,-224.121,0
8648.451,7.324,23.438,7.324,6.836,-1000.000,0
8648.455,55.176,22.949,8.789,26.855,100.098,1
8648.458,51.758,29.297,23.926,35.645,-741.699,0
8648.462,-1.953,35.156,24.902,15.625,201.660,0
8648.466,0.488,23.926,31.738,10.254,-1000.000,0
8648.470,34.180,23.438,31.250,25.879,-228.516,0
8648.474,36.621,26.855,8.301,28.809,-772.949,0
8648.478,6.836,25.391,-2.441,14.648,381.836,0
8648.482,0.000,21.973,18.555,-0.488,-1000.000,0
8648.486,31.250,19.531,23.438,13.672,-411.621,0
8648.490,58.105,23.926,30.273,48.340,-898.438,0
8648.494,41.016,27.344,29.297,47.852,823.730,0
8648.498,16.113,35.156,15.625,18.555,-737.793,0
8648.501,26.855,28.320,25.879,13.184,-905.762,0
8648.505,56.641,21.484,24.902,33.203,599.121,0
8648.509,49.316,31.250,22.461,49.805,-799.805,0
8648.513,20.508,26.367,16.602,31.250,-48.340,0
8648.517,30.762,25.391,12.695,20.020,-1000.000,0
8648.521,49.805,23.926,21.973,42.969,-30.762,0
8648.525,37.598,24.414,33.203,57.617,-746.094,0
8648.529,5.859,33.691,30.762,22.949,235.840,0
8648.533,-4.395,30.273,8.301,-9.766,-1000.000,0
8648.537,30.762,34.180,11.719,24.414,-243.164,0
8648.540,46.387,35.645,23.926,54.199,-782.715,0
8648.544,17.578,24.902,19.043,36.621,477.051,0
8648.548,0.488,31.738,20.020,11.719,-1000.000,0
8648.552,18.555,30.762,17.578,25.391,-530.762,0
8648.556,41.504,20.020,19.531,53.711,-988.281,0
8648.560,23.926,17.090,20.508,43.945,953.125,0
8648.564,-3.418,33.203,6.348,10.254,-541.992,0
8648.568,11.719,45.898,16.113,7.324,-1000.000,0
8648.572,32.715,25.879,27.832,34.668,400.879,0
8648.576,28.320,19.043,18.555,43.457,-760.742,0
8648.580,8.789,31.250,22.949,20.996,74.219,0
8648.583,8.301,32.227,24.414,13.184,-1000.000,0
8648.587,28.809,30.762,21.484,32.715,-125.000,0
8648.591,40.527,33.691,25.879,47.852,-753.906,0
8648.595,22.461,38.574,26.855,29.297,265.137,0
8648.599,-7.324,24.902,19.043,8.789,-1000.000,0
8648.603,23.438,9.766,4.883,18.066,-271.973,0
8648.607,50.293,17.578,20.996,41.992,-805.176,0
8648.611,19.531,20.020,27.832,37.598,599.609,0
8648.615,12.207,24.414,12.695,8.301,-1000.000,0
8648.619,26.855,27.344,10.742,8.789,-639.160,0
8648.623,48.340,38.574,20.996,43.945,916.992,0
8648.626,44.434,41.016,21.973,61.035,-946.777,0
8648.630,5.371,29.785,6.348,26.855,-362.305,0
8648.634,20.508,28.320,8.301,9.766,-1000.000,0
8648.638,56.641,29.297,30.762,41.992,235.352,0
8648.642,39.551,26.367,28.320,58.105,-743.652,0
8648.646,15.625,21.973,11.719,24.414,156.250,0
8648.650,27.832,28.320,14.648,19.043,-1000.000,0
8648.654,43.945,28.809,23.438,47.363,-195.801,0
8648.658,45.898,24.414,28.809,57.129,-765.137,0
8648.662,27.832,35.645,21.484,48.340,317.383,0
8648.665,16.113,35.645,17.578,16.602,-1000.000,0
8648.669,31.738,27.344,29.297,27.344,-337.891,0
8648.673,50.781,30.762,36.621,60.547,-848.633,0
8648.677,31.738,31.738,31.250,53.711,716.797,0
8648.681,20.508,40.527,23.926,22.461,-877.930,0
8648.685,35.645,42.969,23.438,17.090,-784.668,0
8648.689,53.223,28.809,18.066,56.641,755.859,0
8648.693,34.180,20.996,12.695,59.082,-852.051,0
8648.697,-4.395,26.367,12.207,38.086,-182.617,0
8648.701,4.883,17.090,10.742,33.691,-1000.000,0
8648.705,44.922,10.254,26.367,41.992,104.004,0
8648.708,44.434,19.043,29.785,41.504,-737.305,0
8648.712,7.812,29.785,21.484,18.555,209.961,0
8648.716,13.184,34.668,25.879,4.395,-1000.000,0
8648.720,32.715,27.832,35.645,25.391,-227.051,0
8648.724,44.922,22.949,25.879,52.734,-771.973,0
8648.728,20.020,22.949,22.949,49.316,397.461,0
8648.732,-8.789,24.902,15.625,17.090,-1000.000,0
8648.736,16.602,22.461,8.789,9.766,-410.156,0
8648.740,45.410,23.438,28.809,43.945,-903.809,0
8648.744,25.879,20.996,31.738,39.062,851.562,0
8648.748,-7.324,25.879,19.043,0.977,-702.637,0
8648.751,11.230,31.250,15.625,-2.441,-908.203,0
8648.755,40.039,22.949,21.973,27.832,599.121,0
8648.759,30.762,16.113,21.973,43.457,-793.945,0
8648.763,7.324,19.531,22.461,20.020,-22.949,0
8648.767,0.000,19.043,24.414,-7.324,-1000.000,0
8648.771,10.254,23.926,18.066,14.160,-32.715,0
8648.775,13.672,27.344,12.695,38.574,-743.652,0
8648.779,-3.906,21.973,18.066,20.020,238.281,0
8648.783,0.000,22.949,19.531,1.953,-1000.000,0
8648.787,36.621,22.949,14.160,29.297,-241.699,0
8648.790,52.734,27.832,14.160,61.035,-783.203,0
8648.794,29.297,29.297,2.441,38.086,493.652,0
8648.798,1.953,29.785,18.555,-0.977,-1000.000,0
8648.802,33.691,32.227,34.180,4.883,-542.969,0
8648.806,60.547,23.438,21.973,35.156,-997.070,0
8648.810,25.391,23.926,13.672,40.527,972.168,0
8648.814,9.766,38.574,27.832,16.602,-519.043,0
8648.818,23.438,25.879,25.879,7.324,-1000.000,0
8648.822,45.410,15.625,12.207,36.621,405.273,0
8648.826,48.828,29.297,17.090,41.016,-762.695,0
8648.830,23.438,31.738,10.254,37.109,67.871,0
8648.833,16.113,22.461,6.836,34.668,-1000.000,0
8648.837,49.805,28.809,18.066,27.344,-135.254,0
8648.841,53.711,33.203,23.438,49.316,-757.324,0
8648.845,24.414,31.250,7.812,33.203,267.090,0
8648.849,14.160,39.062,-3.906,-1.465,-1000.000,0
8648.853,51.758,33.691,12.695,23.926,-284.668,0
8648.857,70.801,28.320,15.137,54.199,-807.129,0
8648.861,29.785,30.273,1.953,42.969,577.148,0
8648.865,8.301,20.508,0.977,20.020,-1000.000,0
8648.869,36.621,20.996,8.301,17.578,-686.035,0
8648.873,68.359,32.715,0.977,56.152,871.094,0
8648.876,34.180,35.156,2.441,48.828,-947.754,0
8648.880,0.000,41.504,17.090,13.184,-375.000,0
8648.884,19.043,38.574,20.996,6.836,-1000.000,0
8648.888,45.410,23.438,6.836,28.809,202.637,0
8648.892,46.875,30.762,10.742,49.805,-747.070,0
8648.896,20.020,38.086,15.625,19.043,146.484,0
8648.900,14.648,27.344,5.859,6.348,-1000.000,0
8648.904,37.598,21.484,9.766,30.273,-203.613,0
8648.908,37.598,23.926,12.695,41.504,-769.043,0
8648.912,6.348,20.996,9.766,31.250,312.012,0
8648.915,-6.348,21.484,14.648,2.930,-1000.000,0
8648.919,19.531,26.855,23.438,9.277,-362.793,0
8648.923,42.480,28.320,20.020,43.457,-857.422,0
8648.927,25.879,36.133,16.113,41.016,705.078,0
8648.931,0.488,41.992,19.043,16.113,-885.254,0
8648.935,16.602,25.879,11.230,15.137,-818.359,0
8648.939,36.621,19.043,0.977,43.457,714.355,0
8648.943,30.762,31.250,-4.883,43.457,-854.980,0
8648.947,4.395,30.762,17.090,6.348,-201.172,0
8648.951,0.000,27.832,43.457,9.766,-1000.000,0
8648.955,29.785,16.602,30.273,39.551,76.660,0
8648.958,42.969,8.789,22.949,45.898,-742.188,0
8648.962,10.254,18.555,22.461,24.414,207.520,0
8648.966,-4.883,28.320,26.855,7.324,-1000.000,0
8648.970,30.762,31.250,17.578,29.297,-230.469,0
8648.974,43.457,25.391,6.348,58.594,-774.414,0
8648.978,15.625,28.320,14.160,42.480,390.625,0
8648.982,-0.488,31.250,16.602,13.672,-1000.000,0
8648.986,23.438,25.879,15.137,20.508,-440.430,0
8648.990,41.504,20.508,18.066,37.598,-915.527,0
8648.994,26.855,15.625,15.625,50.293,841.309,0
8648.998,3.906,21.973,17.578,23.926,-710.938,0
8649.001,22.461,37.598,15.137,11.230,-942.871,0
8649.005,53.711,37.109,-5.371,40.527,547.363,0
8649.009,43.457,28.320,2.441,40.039,-790.527,0
8649.013,1.465,28.320,20.508,3.906,-27.832,0
8649.017,8.789,41.504,29.297,-12.695,-1000.000,0
8649.021,52.246,46.387,29.297,17.578,-57.617,0
8649.025,45.410,28.809,19.043,32.227,-749.512,0
8649.029,4.395,24.414,16.602,12.695,240.723,0
8649.033,0.977,28.320,20.020,-2.441,-1000.000,0
8649.037,33.203,26.367,16.113,16.602,-250.977,0
8649.040,45.410,25.391,24.902,38.086,-785.645,0
8649.044,23.926,31.250,25.391,21.973,477.539,0
8649.048,10.254,38.574,20.020,-0.977,-1000.000,0
8649.052,33.203,32.227,20.508,17.578,-562.500,0
8649.056,51.270,29.297,22.949,53.711,993.652,0
8649.060,34.668,43.457,25.879,55.664,949.219,0
8649.064,18.555,44.434,18.066,19.531,-540.039,0
8649.068,33.203,36.133,6.836,10.742,-1000.000,0
8649.072,66.406,32.227,29.297,56.641,342.285,0
8649.076,62.988,33.203,31.250,58.594,-761.719,0
8649.080,17.578,38.086,8.301,4.395,63.965,0
8649.083,12.695,43.457,19.531,-2.930,-1000.000,0
8649.087,52.246,44.434,19.531,37.109,-160.156,0
8649.091,56.152,39.062,17.578,68.359,-765.137,0
8649.095,34.668,33.691,15.625,46.387,259.766,0
8649.099,25.879,40.527,25.391,19.043,-1000.000,0
8649.103,31.250,40.527,35.156,26.855,-311.035,0
8649.107,48.828,23.926,21.484,52.246,-816.406,0
8649.111,35.156,30.762,10.254,46.387,561.035,0
8649.115,16.602,41.016,15.625,25.879,-1000.000,0
8649.119,34.180,39.551,26.855,34.668,-730.957,0
8649.123,43.457,35.645,30.273,58.594,830.566,0
8649.126,38.086,32.715,37.109,56.641,-965.820,0
8649.130,20.996,34.180,32.715,19.043,-408.691,0
8649.134,13.184,28.809,32.715,13.184,-1000.000,0
8649.138,38.086,28.809,27.344,56.641,144.531,0
8649.142,52.246,46.875,25.391,75.684,-752.441,0
8649.146,16.113,46.875,22.949,47.363,135.742,0
8649.150,12.695,29.785,13.672,17.578,-1000.000,0
8649.154,54.688,31.250,19.043,29.297,-213.379,0
8649.158,53.711,35.645,23.438,51.758,-775.391,0
8649.162,20.996,31.738,32.715,30.762,291.016,0
8649.165,16.113,45.898,48.340,4.395,-1000.000,0
8649.169,41.504,38.086,38.086,20.508,-399.414,0
8649.173,41.992,12.695,27.832,45.898,-861.328,0
8649.177,24.902,27.832,26.367,47.363,635.254,0
8649.181,12.207,33.691,19.531,24.902,-930.664,0
8649.185,31.738,29.297,21.973,13.672,-896.973,0
8649.189,49.805,31.738,29.785,44.434,609.375,0
8649.193,37.598,30.762,31.250,57.617,-880.371,0
8649.197,20.996,40.527,31.250,20.996,-268.555,0
8649.201,11.719,41.016,29.297,6.836,-1000.000,0
8649.205,40.527,37.109,35.645,33.203,-8.789,0
8649.208,48.828,37.109,34.668,48.340,-761.230,0
8649.212,10.742,31.250,25.879,36.133,187.012,0
8649.216,9.766,14.648,22.461,11.230,-1000.000,0
8649.220,39.062,19.531,21.973,16.602,-229.980,0
8649.224,38.574,32.715,23.438,47.363,-780.273,0
8649.228,11.230,30.273,31.738,35.156,340.820,0
8649.232,-4.395,27.832,25.391,4.883,-1000.000,0
8649.236,24.414,29.785,12.695,5.859,-527.832,0
8649.240,48.340,39.062,23.438,40.039,-950.195,0
8649.244,18.555,37.598,33.203,48.340,764.648,0
8649.248,-0.977,27.344,32.227,9.766,-783.691,0
8649.251,26.367,28.320,38.574,-2.441,-1000.000,0
8649.255,46.387,37.109,34.180,35.156,400.879,0
8649.259,40.527,30.273,21.484,49.805,-814.941,0
8649.263,11.719,22.949,21.973,13.184,-132.812,0
8649.267,13.184,28.320,18.066,0.977,-1000.000,0
8649.271,42.969,33.203,19.531,29.785,-110.352,0
8649.275,41.992,34.668,33.691,48.340,-770.996,0
8649.279,9.277,25.879,29.785,37.598,238.770,0
8649.283,4.883,20.996,16.602,6.348,-1000.000,0
8649.287,26.855,18.066,26.367,6.348,-280.762,0
8649.290,34.180,25.391,36.621,39.062,-796.875,0
8649.294,13.184,23.438,29.297,36.133,415.527,0
8649.298,-6.836,22.949,24.414,15.137,-1000.000,0
8649.302,27.832,31.738,28.320,16.113,-660.645,0
8649.306,52.246,24.902,22.949,43.945,914.551,0
8649.310,36.133,30.762,24.902,52.734,902.344,0
8649.314,29.297,35.156,25.391,35.156,-614.746,0
8649.318,46.387,22.949,20.996,24.414,-1000.000,0
8649.322,55.664,25.879,17.090,43.457,243.164,0
8649.326,37.109,34.180,25.391,51.758,-774.414,0
8649.330,7.812,38.086,39.062,20.020,10.742,0
8649.333,3.906,30.762,31.250,-5.859,-1000.000,0
8649.337,24.414,21.484,20.996,17.578,-177.734,0
8649.341,40.039,25.879,25.879,42.969,-775.391,0
8649.345,17.090,28.320,25.391,23.438,262.695,0
8649.349,2.441,31.250,23.438,12.207,-1000.000,0
8649.353,47.852,29.785,29.297,42.480,-320.801,0
8649.357,63.477,25.391,34.668,69.824,-820.801,0
8649.361,31.250,29.297,21.484,54.199,560.059,0
8649.365,9.277,30.762,1.953,27.832,-1000.000,0
8649.369,20.508,26.855,17.578,24.902,-749.023,0
8649.373,58.594,31.250,34.180,47.363,804.199,0
8649.376,50.781,40.527,35.156,56.641,-952.148,0
8649.380,5.859,33.203,34.668,30.762,-391.113,0
8649.384,12.695,27.344,35.645,24.414,-1000.000,0
8649.388,40.039,27.344,29.297,59.570,134.277,0
8649.392,39.551,31.250,39.551,78.125,-752.930,0
8649.396,10.254,28.809,36.621,29.297,141.602,0
8649.400,2.930,23.926,13.672,-1.465,-1000.000,0
8649.404,31.738,21.973,18.555,22.949,-212.402,0
8649.408,43.945,20.020,21.973,49.805,-773.438,0
8649.412,20.020,32.227,30.273,36.621,312.500,0
8649.415,9.277,42.480,39.551,9.277,-1000.000,0
8649.419,34.668,35.156,27.344,16.602,-382.324,0
8649.423,46.387,21.973,22.949,46.387,-869.141,0
8649.427,16.113,20.996,21.973,40.039,718.750,0
8649.431,7.324,30.762,24.902,27.344,-869.629,0
8649.435,27.344,26.367,27.344,35.156,-838.379,0
8649.439,56.641,28.320,27.344,54.688,684.082,0
8649.443,49.316,34.668,21.973,54.688,-836.426,0
8649.447,14.648,37.109,19.531,5.859,-158.203,0
8649.451,20.996,36.621,30.762,-12.695,-1000.000,0
8649.455,52.734,38.574,29.297,30.762,51.270,0
8649.458,42.480,39.062,24.902,59.082,-742.188,0
8649.462,6.836,28.320,24.902,34.180,214.844,0
8649.466,9.766,22.949,26.855,4.883,-1000.000,0
8649.470,37.598,22.949,18.066,34.668,-234.863,0
8649.474,36.621,26.855,10.254,63.477,-776.367,0
8649.478,17.090,32.227,29.785,40.039,409.180,0
8649.482,6.348,33.691,31.250,10.254,-1000.000,0
8649.486,16.113,24.414,26.367,7.324,-458.984,0
8649.490,29.785,25.391,34.180,37.109,-917.480,0
8649.494,14.160,18.555,23.926,57.129,827.148,0
8649.498,5.371,16.113,24.414,31.738,-706.543,0
8649.501,20.508,28.320,20.996,17.090,-995.605,0
8649.505,44.922,27.832,3.418,36.621,470.703,0
8649.509,43.457,34.668,18.555,48.340,-795.410,0
8649.513,17.578,30.762,25.391,31.738,-62.988,0
8649.517,20.996,25.879,28.320,15.625,-1000.000,0
8649.521,42.969,36.133,31.250,41.016,-95.215,0
8649.525,48.340,34.668,21.973,62.988,-760.254,0
8649.529,21.484,30.762,28.320,36.133,245.117,0
8649.533,5.371,25.879,20.508,5.371,-1000.000,0
8649.537,32.227,23.926,14.648,23.438,-259.766,0
8649.540,49.805,31.250,21.973,58.105,-789.551,0
8649.544,29.785,28.320,22.949,43.457,475.098,0
8649.548,11.230,29.785,30.273,4.883,-1000.000,0
8649.552,19.531,31.250,21.484,7.324,-588.867,0
8649.556,40.039,21.973,16.113,41.992,967.773,0
8649.560,31.738,24.414,34.180,47.852,966.797,0
8649.564,0.488,36.133,33.203,14.648,-513.672,0
8649.568,-0.977,36.133,20.996,11.719,-1000.000,0
8649.572,19.531,21.973,21.484,38.086,300.293,0
8649.576,31.250,26.855,32.227,49.316,-761.719,0
8649.580,12.207,41.016,30.273,16.602,63.965,0
8649.583,10.742,29.297,27.832,-14.160,-1000.000,0
8649.587,41.504,19.531,26.367,20.996,-173.828,0
8649.591,46.875,26.855,32.227,55.176,-768.555,0
8649.595,20.508,25.391,24.414,36.621,265.625,0
8649.599,6.348,30.273,8.789,12.207,-1000.000,0
8649.603,26.367,39.062,21.973,22.461,-310.059,0
8649.607,51.270,30.762,30.762,59.082,-818.848,0
8649.611,26.367,22.949,30.273,48.828,582.031,0
8649.615,0.488,30.273,28.320,18.555,-1000.000,0
8649.619,32.227,38.086,31.738,38.574,-730.469,0
8649.623,50.293,29.297,25.391,62.988,819.336,0
8649.626,32.227,24.414,22.461,43.945,-928.711,0
8649.630,18.555,28.320,32.227,13.184,-347.656,0
8649.634,12.207,28.809,27.344,15.137,-1000.000,0
8649.638,31.250,27.344,12.207,39.062,159.668,0
8649.642,34.668,21.973,14.648,43.457,-749.023,0
8649.646,-3.418,22.949,29.297,21.484,149.414,0
8649.650,-4.883,32.227,39.551,5.859,-1000.000,0
8649.654,32.227,31.250,36.133,24.414,-213.867,0
8649.658,35.156,29.785,34.668,55.176,-773.438,0
8649.662,5.371,33.691,26.855,33.691,300.293,0
8649.665,-0.977,33.691,14.648,-6.836,-1000.000,0
8649.669,21.973,26.367,20.996,13.672,-405.273,0
8649.673,41.992,27.344,24.902,55.664,-869.629,0
8649.677,22.461,28.809,18.555,34.180,669.434,0
8649.681,1.465,30.762,30.273,1.465,-899.902,0
8649.685,23.438,36.621,34.668,13.672,-896.973,0
8649.689,52.734,33.203,27.832,42.969,604.004,0
8649.693,43.945,28.809,19.043,40.039,-858.887,0
8649.697,9.766,30.273,15.137,22.461,-221.680,0
8649.701,26.855,30.762,24.902,15.137,-1000.000,0
8649.705,53.223,33.691,31.738,39.062,-20.020,0
8649.708,46.387,32.715,27.344,57.129,-756.836,0
8649.712,17.090,23.438,22.461,26.855,217.285,0
8649.716,2.930,23.438,20.020,-8.789,-1000.000,0
8649.720,35.156,25.879,12.695,14.160,-236.328,0
8649.724,46.875,38.574,18.066,48.340,-776.855,0
8649.728,11.719,37.598,20.996,26.367,414.551,0
8649.732,-8.301,30.273,22.949,9.277,-1000.000,0
8649.736,21.973,30.762,35.645,27.832,-439.941,0
8649.740,39.062,18.066,24.902,41.992,-926.758,0
8649.744,21.973,12.695,29.785,35.645,890.137,0
8649.748,11.719,23.438,44.434,13.184,-649.414,0
8649.751,21.484,32.715,19.531,15.625,-933.594,1
8649.755,41.016,29.297,11.719,48.340,563.965,0
8649.759,38.086,20.020,22.949,48.828,-781.250,0
8649.763,14.648,25.391,14.160,16.113,11.230,0
8649.767,16.602,34.668,20.020,4.395,-1000.000,0
8649.771,46.387,39.062,26.855,23.438,-47.363,0
8649.775,46.387,39.062,29.297,54.688,-744.141,0
8649.779,12.695,33.203,26.367,44.434,241.699,0
8649.783,20.020,42.480,16.113,11.230,-1000.000,0
8649.787,51.758,41.016,18.555,31.250,-247.070,0
8649.790,51.270,33.691,24.414,62.500,-786.133,0
8649.794,31.250,32.715,22.949,37.109,516.113,0
8649.798,17.090,37.598,22.949,14.648,-1000.000,0
8649.802,33.203,35.645,33.203,29.297,-560.547,0
8649.806,54.199,31.738,25.879,59.570,989.746,0
8649.810,44.434,23.926,20.508,54.688,983.398,0
8649.814,13.672,22.949,38.574,15.625,-485.352,0
8649.818,14.648,36.133,39.551,25.391,-1000.000,0
8649.822,41.992,23.438,23.926,50.293,344.727,0
8649.826,37.598,21.973,28.809,40.527,-757.812,0
8649.830,15.137,33.691,25.391,13.672,83.496,0
8649.833,19.043,31.738,16.602,15.625,-1000.000,0
8649.837,57.129,41.504,24.414,48.828,-160.645,0
8649.841,63.477,47.363,25.879,54.688,-762.695,0
8649.845,18.555,39.551,22.461,30.762,273.438,0
8649.849,-1.465,41.016,13.184,6.836,-1000.000,0
8649.853,32.715,37.109,9.766,11.719,-301.270,0
8649.857,51.270,31.250,33.691,45.410,-818.848,0
8649.861,35.156,29.297,38.574,49.316,612.793,0
8649.865,24.414,30.762,30.762,12.207,-985.352,0
8649.869,41.504,39.551,29.297,6.836,-710.449,0
8649.873,52.734,35.645,15.625,41.016,839.844,0
8649.876,27.832,31.738,16.602,52.246,-910.645,0
8649.880,24.414,44.922,31.250,27.344,-311.035,0
8649.884,35.645,45.410,30.273,17.578,-1000.000,0
8649.888,50.293,38.086,22.461,43.945,177.246,0
8649.892,52.734,37.598,21.484,49.805,-742.676,0
8649.896,13.184,28.320,13.184,16.602,166.992,0
8649.900,5.859,30.762,12.207,-2.441,-1000.000,0
8649.904,45.898,31.738,20.996,27.344,-208.008,0
8649.908,56.152,23.438,19.043,58.594,-768.555,0
8649.912,17.578,29.785,18.555,41.016,329.102,0
8649.915,-3.418,40.039,29.785,15.625,-1000.000,0
8649.919,25.391,34.668,29.785,28.809,-367.676,0
8649.923,49.805,22.949,19.531,59.082,-865.723,0
8649.927,27.832,25.391,20.508,59.570,743.652,0
8649.931,13.184,31.738,36.133,33.691,-841.309,0
8649.935,35.156,37.109,33.203,16.602,-841.797,0
8649.939,46.875,35.645,5.859,33.203,687.012,0
8649.943,18.555,29.785,-0.977,44.434,-836.914,0
8649.947,-9.277,38.086,27.344,18.555,-153.320,0
8649.951,9.766,31.738,43.457,7.324,-1000.000,0
8649.955,33.203,15.625,30.762,31.738,48.828,0
8649.958,32.227,24.414,16.602,41.992,-741.211,0
8649.962,12.207,40.039,17.090,21.484,220.215,0
8649.966,14.160,33.203,25.391,-0.488,-1000.000,0
8649.970,50.781,21.973,28.320,17.090,-234.863,0
8649.974,61.523,29.785,30.762,43.945,-775.391,0
8649.978,24.414,40.527,28.320,35.645,412.109,0
8649.982,6.836,30.273,10.742,4.395,-1000.000,0
8649.986,23.438,21.973,6.836,18.066,-457.520,0
8649.990,51.758,34.668,27.832,59.570,-935.547,0
8649.994,34.180,33.203,25.391,53.711,890.625,0
8649.998,9.277,24.414,20.020,16.113,-639.648,0
8650.001,24.414,29.297,22.461,0.000,-972.168,0
8650.005,38.574,31.738,26.367,27.832,514.160,0
8650.009,20.508,26.367,29.297,52.734,-782.227,0
8650.013,-11.719,23.926,20.020,23.926,-7.324,0
8650.017,0.488,27.832,20.996,-4.395,-1000.000,0
8650.021,41.504,23.438,24.902,28.809,-72.266,0
8650.025,31.250,25.391,20.020,48.340,-750.488,0
8650.029,2.441,31.738,27.344,20.020,245.605,0
8650.033,0.977,33.691,34.668,1.465,-1000.000,0
8650.037,24.414,32.715,23.926,17.578,-252.930,0
8650.040,35.156,25.879,25.879,48.340,-788.574,0
8650.044,29.297,29.785,27.832,40.039,508.301,0
8650.048,23.926,35.645,15.137,7.812,-1000.000,0
8650.052,14.160,34.668,19.043,7.324,-566.406,0
8650.056,27.344,32.715,33.691,39.062,976.562,0
8650.060,19.043,34.180,29.297,50.781,-1000.000,0
8650.064,2.930,36.133,21.484,23.926,-456.543,0
8650.068,16.602,32.227,20.020,15.137,-1000.000,0
8650.072,32.227,26.855,21.973,38.574,328.613,0
8650.076,17.578,25.391,19.043,40.039,-752.441,0
8650.080,-2.930,22.461,35.156,17.578,103.516,0
8650.083,12.695,20.020,50.293,-4.395,-1000.000,0
8650.087,28.320,18.066,29.297,12.695,-157.227,0
8650.091,32.715,19.043,25.879,51.758,-759.277,0
8650.095,14.648,29.297,27.832,31.738,277.832,0
8650.099,-6.348,32.715,19.531,1.953,-1000.000,0
8650.103,33.203,22.949,28.320,34.180,-293.945,0
8650.107,51.758,24.414,34.180,61.035,-821.289,0
8650.111,17.090,32.227,26.367,41.992,646.484,0
8650.115,-3.906,33.203,12.695,8.789,-958.008,0
8650.119,13.184,34.668,17.578,4.395,-698.730,0
8650.123,54.199,33.691,29.785,40.527,852.539,0
8650.126,41.992,23.438,33.691,51.270,-899.414,0
8650.130,10.742,28.809,41.016,24.414,-281.250,0
8650.134,26.855,29.785,37.109,10.254,-1000.000,0
8650.138,57.129,18.066,37.598,41.504,201.660,0
8650.142,47.852,16.113,35.156,64.453,-739.746,0
8650.146,27.832,20.508,24.414,27.832,177.734,0
8650.150,32.715,27.344,20.996,12.695,-1000.000,0
8650.154,45.410,27.344,13.672,48.828,-212.891,0
8650.158,65.918,37.598,25.879,72.754,-768.066,0
8650.162,44.922,41.992,39.551,50.293,343.750,0
8650.165,25.391,39.062,38.086,25.879,-1000.000,0
8650.169,41.504,32.227,36.621,33.203,-366.211,0
8650.173,49.805,20.996,30.762,56.152,-870.605,0
8650.177,41.016,33.203,24.902,45.898,773.438,0
8650.181,4.883,32.227,24.414,1.953,-812.012,0
8650.185,7.812,23.438,20.996,0.488,-829.102,0
8650.189,45.898,32.715,9.766,33.691,703.613,0
8650.193,35.156,25.879,14.160,33.691,-825.684,0
8650.197,-3.906,29.297,41.504,15.137,-120.117,0
8650.201,11.719,35.156,49.805,20.020,-1000.000,0
8650.205,54.199,26.855,41.016,38.086,52.246,0
8650.208,44.922,27.344,28.320,48.828,-739.746,0
8650.212,18.555,27.344,14.160,29.297,220.215,0
8650.216,18.555,29.785,19.043,0.488,-1000.000,0
8650.220,47.852,49.805,20.996,22.949,-234.863,0
8650.224,63.477,47.363,25.879,62.500,-775.879,0
8650.228,25.879,28.809,36.133,56.641,416.992,0
8650.232,4.883,49.316,33.203,10.254,-1000.000,0
8650.236,36.621,45.410,20.508,-2.441,-459.473,0
8650.240,67.383,20.508,16.602,30.273,-930.664,0
8650.244,53.711,36.133,22.949,28.320,877.930,0
8650.248,28.809,41.016,30.273,8.789,-656.738,0
8650.251,33.691,34.668,28.320,4.395,-974.121,0
8650.255,59.082,24.902,17.578,31.738,505.371,0
8650.259,57.617,28.320,19.043,47.852,-779.785,0
8650.263,24.414,42.969,32.227,20.020,0.488,0
8650.267,25.391,45.410,38.086,-0.488,-1000.000,0
8650.271,63.477,34.180,27.344,32.715,-84.473,0
8650.275,43.945,28.320,19.531,58.594,-752.441,0
8650.279,6.836,39.062,36.621,38.574,247.070,0
8650.283,10.742,36.133,40.039,7.324,-1000.000,0
8650.287,21.484,28.320,17.090,11.230,-255.371,0
8650.290,54.688,28.320,13.672,36.621,-789.062,0
8650.294,37.598,23.926,28.809,38.574,506.348,0
8650.298,0.977,28.320,30.762,18.066,-1000.000,0
8650.302,27.832,36.621,31.250,23.438,-588.867,0
8650.306,50.293,34.180,31.738,53.711,968.750,0
8650.310,42.969,31.738,34.668,48.828,978.516,0
8650.314,15.625,40.039,39.551,12.695,-495.117,0
8650.318,21.484,36.621,37.598,4.395,-1000.000,0
8650.322,55.664,32.715,26.855,26.855,311.035,0
8650.326,48.340,44.434,14.648,53.711,-753.418,0
8650.330,16.113,43.457,20.508,36.133,107.422,0
8650.333,20.996,35.645,26.367,6.348,-1000.000,0
8650.337,56.152,27.344,28.809,36.621,-165.527,0
8650.341,59.570,24.414,33.691,61.523,-761.719,0
8650.345,25.879,32.227,22.949,34.668,273.438,0
8650.349,8.301,34.668,38.574,-2.441,-1000.000,0
8650.353,24.414,50.293,44.922,18.066,-306.152,0
8650.357,49.316,42.969,28.320,54.688,-821.777,0
8650.361,34.180,28.809,31.738,39.551,619.629,0
8650.365,11.719,33.691,38.574,-0.488,-979.004,0
8650.369,28.320,26.855,40.039,14.648,-717.285,0
8650.373,47.363,24.902,32.715,51.758,829.590,0
8650.376,28.320,31.738,23.926,57.617,-901.855,0
8650.380,1.465,31.738,22.949,32.715,-291.016,0
8650.384,15.137,36.621,40.527,16.602,-1000.000,0
8650.388,52.734,37.109,36.621,49.805,163.086,0
8650.392,45.410,28.809,30.762,64.453,-742.188,0
8650.396,6.348,26.855,37.598,33.203,178.223,0
8650.400,9.766,29.297,28.320,0.488,-1000.000,0
8650.404,46.875,25.391,29.785,22.949,-214.844,0
8650.408,51.758,26.855,38.086,57.617,-769.531,0
8650.412,20.508,48.340,44.922,38.574,339.355,0
8650.415,6.836,41.992,27.344,6.836,-1000.000,0
8650.419,23.926,26.367,28.320,16.602,-379.883,0
8650.423,41.016,27.344,29.785,56.152,-870.605,0
8650.427,30.273,21.484,9.766,47.852,749.023,0
8650.431,9.766,19.043,18.066,6.836,-837.402,0
8650.435,7.812,24.902,27.832,13.672,-844.238,0
8650.439,37.598,29.785,17.578,47.363,681.152,0
8650.443,38.086,37.109,30.762,47.852,-830.078,0
8650.447,17.578,41.504,35.645,24.414,-134.766,0
8650.451,30.273,27.344,28.809,18.555,-1000.000,0
8650.455,44.434,24.902,30.273,46.875,33.203,0
8650.458,29.297,32.715,28.809,53.711,-742.188,0
8650.462,5.371,27.832,17.578,15.625,224.121,0
8650.466,7.324,28.809,13.672,-6.836,-1000.000,0
8650.470,27.832,35.156,34.180,15.625,-237.793,0
8650.474,35.645,38.086,45.410,47.852,-776.855,0
8650.478,22.949,35.156,32.227,39.551,419.434,0
8650.482,23.926,26.367,30.762,17.090,-1000.000,0
8650.486,33.203,19.531,35.156,15.625,-474.609,0
8650.490,32.227,14.160,27.832,38.574,-939.453,0
8650.494,21.484,30.762,41.016,46.387,882.324,0
8650.498,3.906,48.828,30.762,16.113,-652.832,0
8650.501,15.625,49.316,14.648,6.836,-977.539,0
8650.505,41.992,39.062,26.855,48.340,497.070,0
8650.509,30.273,23.438,27.832,58.105,-776.855,0
8650.513,-0.488,25.391,16.113,16.602,8.301,0
8650.517,-1.953,36.621,18.066,-12.207,-1000.000,0
8650.521,28.320,34.668,32.715,17.578,-72.754,0
8650.525,48.340,32.715,22.949,36.133,-749.512,0
8650.529,7.324,39.062,22.461,13.672,245.605,0
8650.533,6.836,40.527,41.992,9.766,-1000.000,0
8650.537,45.410,33.691,43.945,20.508,-258.301,0
8650.540,42.969,29.785,27.344,49.316,-790.039,0
8650.544,20.508,44.434,19.043,43.945,505.371,0
8650.548,0.000,52.734,21.484,16.602,-1000.000,0
8650.552,26.855,40.527,30.273,33.203,-590.820,0
8650.556,51.758,34.668,27.832,54.688,958.496,0
8650.560,34.668,29.785,17.090,42.969,-997.070,0
8650.564,17.578,32.715,20.020,9.766,-455.566,0
8650.568,16.113,38.574,36.133,-3.906,-1000.000,0
8650.572,24.414,33.203,37.109,27.344,298.340,0
8650.576,31.250,38.086,30.273,55.664,-752.930,0
8650.580,10.742,34.668,23.926,29.785,103.516,0
8650.583,24.414,32.227,32.715,2.930,-1000.000,0
8650.587,63.965,32.227,50.781,32.715,-174.316,0
8650.591,47.363,22.461,40.527,56.641,-764.160,0
8650.595,21.484,28.320,22.949,41.992,276.367,0
8650.599,4.395,26.367,25.879,20.996,-1000.000,0
8650.603,12.207,28.320,31.738,22.949,-312.988,0
8650.607,51.758,39.062,26.855,55.664,-823.242,0
8650.611,31.738,33.203,19.531,56.152,612.793,0
8650.615,-0.488,26.367,25.391,22.949,-980.957,0
8650.619,25.391,30.273,36.621,17.090,-734.375,0
8650.623,64.453,35.645,35.156,52.734,810.547,0
8650.626,53.223,35.156,36.621,58.594,-900.879,0
8650.630,6.348,20.508,30.762,8.789,-293.457,0
8650.634,5.859,19.043,21.484,-7.324,-1000.000,0
8650.638,47.363,38.086,15.137,27.344,155.762,0
8650.642,42.969,40.039,21.973,41.016,-741.699,0
8650.646,0.977,37.109,36.133,27.832,181.641,0
8650.650,10.742,37.109,30.762,8.789,-1000.000,0
8650.654,39.062,27.832,20.996,20.020,-218.750,0
8650.658,36.621,22.461,23.438,49.805,-770.020,0
8650.662,31.250,38.086,31.250,45.898,338.379,0
8650.665,30.273,51.270,34.668,30.762,-1000.000,0
8650.669,34.668,43.457,30.762,40.527,-375.000,0
8650.673,53.711,41.992,19.531,57.617,-874.023,0
8650.677,42.480,33.203,13.672,40.527,765.137,0
8650.681,17.578,25.879,15.137,14.160,-800.781,0
8650.685,35.645,30.273,14.160,9.766,-892.090,0
8650.689,54.199,30.273,29.785,32.227,627.930,0
8650.693,38.086,30.273,36.133,52.734,-828.125,0
8650.697,17.578,40.039,31.250,32.227,-144.531,0
8650.701,20.020,41.992,25.391,7.324,-1000.000,0
8650.705,50.293,27.344,11.719,24.414,2.441,0
8650.708,41.992,32.715,17.090,48.340,-747.070,0
8650.712,14.648,42.480,22.949,28.809,223.145,0
8650.716,24.902,37.109,22.461,14.648,-1000.000,0
8650.720,37.109,33.203,36.621,28.320,-238.281,0
8650.724,22.461,37.109,34.180,40.527,-778.320,0
8650.728,10.742,38.086,13.184,27.344,412.109,0
8650.732,-0.977,30.273,8.301,1.953,-1000.000,0
8650.736,14.160,30.762,30.273,8.789,-492.188,0
8650.740,55.664,41.992,33.203,49.316,-941.895,0
8650.744,47.363,33.691,14.160,44.434,862.305,0
8650.748,13.184,31.250,26.367,6.836,-667.969,0
8650.751,16.602,29.785,35.645,8.789,-1000.000,0
8650.755,40.527,19.531,27.832,33.203,438.477,0
8650.759,43.945,24.902,29.785,48.828,-779.785,0
8650.763,19.043,24.902,32.715,33.691,-13.672,0
8650.767,17.578,39.551,28.320,4.883,-1000.000,0
8650.771,42.969,48.340,22.461,29.785,-110.840,0
8650.775,53.223,37.109,11.719,49.316,-760.254,0
8650.779,23.926,32.715,17.090,25.879,248.535,0
8650.783,3.418,32.227,38.086,5.859,-1000.000,0
8650.787,34.180,30.762,33.203,21.484,-268.555,0
8650.790,45.898,26.855,20.508,46.875,-793.945,0
8650.794,24.902,20.996,27.344,39.062,493.164,0
8650.798,19.531,21.973,38.086,10.742,-1000.000,0
8650.802,26.855,33.691,39.062,20.996,-642.578,0
8650.806,49.316,30.762,35.645,51.758,921.875,0
8650.810,50.781,29.297,26.367,46.387,977.539,0
8650.814,29.297,31.738,17.578,21.973,-501.953,0
8650.818,33.203,29.785,27.344,19.043,-1000.000,0
8650.822,48.340,28.320,38.086,44.434,254.395,0
8650.826,37.598,26.855,39.062,59.082,-758.789,0
8650.830,2.930,34.180,39.062,34.180,78.613,0
8650.833,16.602,44.434,37.598,14.648,-1000.000,0
8650.837,53.711,35.645,24.902,38.086,-180.664,0
8650.841,49.316,30.273,14.648,60.547,-769.531,0
8650.845,20.996,30.273,24.902,51.758,274.902,0
8650.849,15.625,26.855,26.855,13.184,-1000.000,0
8650.853,39.551,34.180,29.785,12.207,-328.613,0
8650.857,43.457,37.109,25.879,38.574,-828.613,0
8650.861,27.344,32.715,23.926,39.551,604.492,0
8650.865,19.043,35.156,36.621,12.695,-981.445,0
8650.869,27.832,30.273,22.461,2.441,-762.207,0
8650.873,52.734,23.926,29.785,41.992,781.250,0
8650.876,42.480,35.645,34.180,52.246,-913.086,0
8650.880,1.465,47.852,22.461,21.484,-315.430,0
8650.884,19.043,30.762,28.320,16.602,-1000.000,0
8650.888,37.109,18.066,35.645,37.109,113.770,0
8650.892,29.785,19.043,29.785,50.781,-748.047,0
8650.896,19.531,22.461,25.391,24.902,170.898,0
8650.900,7.812,29.297,25.879,12.695,-1000.000,0
8650.904,29.297,30.273,34.180,37.598,-219.727,0
8650.908,43.945,35.156,37.598,41.992,-772.949,0
8650.912,25.879,25.879,23.438,21.973,330.078,0
8650.915,5.371,13.672,18.066,0.488,-1000.000,0
8650.919,20.020,17.090,31.738,22.949,-403.809,0
8650.923,44.434,23.438,24.414,58.105,-878.418,0
8650.927,37.109,29.785,16.113,55.176,730.957,0
8650.931,3.418,33.203,20.508,25.879,-840.332,0
8650.935,7.812,35.645,32.715,5.859,-902.344,0
8650.939,33.691,28.320,35.645,26.367,606.445,0
8650.943,27.344,26.855,24.414,33.691,-835.938,0
8650.947,4.883,33.203,18.555,6.836,-163.574,0
8650.951,15.137,26.855,16.113,-2.441,-1000.000,0
8650.955,41.992,15.625,20.996,27.832,-21.484,0
8650.958,34.180,17.090,32.715,53.223,-753.418,0
8650.962,11.230,29.297,34.180,26.855,221.191,0
8650.966,19.043,34.668,23.438,-4.883,-1000.000,0
8650.970,42.969,30.273,17.090,15.625,-236.328,0
8650.974,31.738,27.344,27.832,48.828,-778.320,0
8650.978,15.625,26.367,24.414,37.109,391.113,0
8650.982,20.020,29.785,22.461,-2.930,-1000.000,0
8650.986,39.062,23.926,24.902,5.859,-515.625,0
8650.990,42.969,21.973,24.414,45.410,-958.496,0
8650.994,20.508,30.762,37.109,38.086,849.609,0
8650.998,-4.883,40.527,30.273,6.348,-688.477,0
8651.001,10.254,40.527,26.367,13.184,-1000.000,0
8651.005,46.875,26.367,35.645,42.969,427.246,0
8651.009,36.621,26.855,35.156,46.875,-782.715,0
8651.013,9.277,41.504,28.320,21.484,-22.949,0
8651.017,20.508,36.621,20.508,12.207,-1000.000,0
8651.021,43.457,28.320,28.320,48.340,-114.746,0
8651.025,53.711,28.320,36.621,69.824,-761.230,0
8651.029,23.926,34.180,24.902,33.691,251.953,0
8651.033,2.441,30.273,20.508,-7.324,-1000.000,0
8651.037,26.855,25.879,33.203,20.996,-265.137,0
8651.040,40.527,39.062,28.320,48.828,-793.945,0
8651.044,11.230,28.320,20.508,33.691,521.484,0
8651.048,-10.742,22.461,24.902,20.996,-1000.000,0
8651.052,30.273,35.645,20.020,25.391,-595.703,1
8651.056,60.059,35.645,7.812,41.016,954.102,0
8651.060,31.250,40.039,21.973,37.109,-990.723,0
8651.064,-3.418,41.016,34.180,2.441,-444.336,0
8651.068,8.301,33.691,28.809,-3.906,-1000.000,0
8651.072,52.734,30.762,29.297,41.504,299.316,0
8651.076,51.270,30.273,20.508,48.340,-751.953,0
8651.080,10.742,33.691,15.137,6.836,108.887,0
8651.083,16.113,25.879,18.066,-6.348,-1000.000,0
8651.087,53.223,28.809,31.738,22.461,-171.387,0
8651.091,47.363,42.969,35.645,49.316,-762.695,0
8651.095,11.230,36.133,25.391,18.555,282.227,0
8651.099,6.836,24.902,28.809,-10.742,-1000.000,0
8651.103,35.156,31.250,32.227,18.066,-314.453,0
8651.107,50.293,35.645,22.461,49.805,-826.172,0
8651.111,41.992,36.621,18.066,41.992,630.371,0
8651.115,28.320,41.504,18.555,20.020,-969.727,0
8651.119,19.043,37.109,17.578,17.090,-719.238,0
8651.123,21.484,36.133,39.062,38.574,823.730,0
8651.126,28.320,29.297,42.969,47.363,-890.625,0
8651.130,8.301,18.555,30.273,18.066,-267.578,0
8651.134,13.184,33.203,23.926,0.488,-1000.000,0
8651.138,44.434,43.457,19.531,30.273,168.945,0
8651.142,30.762,41.992,23.926,40.527,-739.746,0
8651.146,6.348,46.875,29.785,12.695,181.152,0
8651.150,8.789,34.668,33.203,-5.371,-1000.000,0
8651.154,26.855,19.531,28.809,11.230,-213.867,0
8651.158,43.457,27.832,31.250,43.457,-768.555,0
8651.162,17.578,38.086,38.574,43.945,358.887,0
8651.165,0.488,31.738,26.855,5.859,-1000.000,0
8651.169,28.320,21.973,21.973,20.020,-370.605,0
8651.173,52.246,28.320,25.391,53.711,-875.000,0
8651.177,30.762,33.691,18.555,37.109,791.992,0
8651.181,-0.977,29.297,28.809,7.812,-789.062,0
8651.185,12.207,25.879,37.598,0.977,-839.844,0
8651.189,38.086,28.320,29.785,25.879,688.965,0
8651.193,35.645,23.926,24.414,32.227,-816.895,0
8651.197,9.277,23.438,34.668,9.277,-94.238,0
8651.201,15.137,30.762,31.250,1.465,-1000.000,0
8651.205,47.852,24.414,32.227,28.320,40.527,0
8651.208,45.898,9.277,43.457,59.570,-737.793,0
8651.212,9.766,13.672,19.531,37.109,225.098,0
8651.216,-3.906,36.133,14.648,6.348,-1000.000,0
8651.220,18.555,42.969,16.602,17.578,-236.328,0
8651.224,45.898,27.832,15.625,42.969,-776.855,0
8651.228,37.598,28.320,33.691,45.410,455.078,0
8651.232,0.977,32.227,39.551,16.602,-1000.000,0
8651.236,12.695,18.066,27.832,12.695,-454.102,0
8651.240,27.832,18.555,23.926,37.598,-938.965,0
8651.244,11.230,17.578,26.855,36.133,927.734,0
8651.248,-0.977,21.484,37.109,11.719,-589.844,0
8651.251,13.184,35.645,31.250,5.859,-962.402,0
8651.255,45.898,37.598,0.000,33.691,527.344,0
8651.259,33.691,34.180,14.160,41.504,-772.461,0
8651.263,1.465,29.785,33.203,22.461,43.457,0
8651.267,9.766,23.926,34.668,8.301,-1000.000,0
8651.271,42.969,33.203,35.156,23.438,-64.941,0
8651.275,54.688,43.945,32.715,53.711,-744.141,0
8651.279,29.785,31.250,30.762,38.574,247.559,0
8651.283,13.184,19.531,26.367,6.836,-1000.000,0
8651.287,26.855,14.648,15.625,16.113,-249.512,0
8651.290,33.203,7.812,13.184,50.293,-792.480,0
8651.294,21.973,28.809,30.762,50.781,558.594,0
8651.298,17.578,44.434,34.668,25.391,-1000.000,0
8651.302,42.480,34.180,30.762,18.066,-570.312,0
8651.306,50.781,31.250,21.484,45.898,975.098,0
8651.310,27.832,27.344,26.367,57.129,-976.562,0
8651.314,10.254,31.250,41.992,20.508,-415.039,0
8651.318,19.043,37.109,26.855,11.719,-1000.000,0
8651.322,47.363,34.180,26.367,36.621,331.055,0
8651.326,45.410,24.414,37.109,48.340,-750.000,0
8651.330,20.508,26.367,24.902,34.180,118.164,0
8651.333,19.531,36.133,21.973,19.043,-1000.000,0
8651.337,62.500,35.156,31.250,52.246,-167.969,0
8651.341,62.012,33.691,29.785,79.102,-760.742,0
8651.345,12.695,35.645,16.113,24.414,283.691,0
8651.349,2.930,34.668,23.926,-17.578,-1000.000,0
8651.353,26.855,36.621,35.645,4.395,-307.617,0
8651.357,38.086,35.645,19.531,34.180,-822.754,0
8651.361,34.668,39.551,28.809,48.340,631.348,0
8651.365,8.789,41.992,21.973,22.461,-969.238,0
8651.369,9.277,40.039,3.906,11.230,-721.191,0
8651.373,48.828,34.180,24.414,43.457,829.102,0
8651.376,51.270,28.320,29.785,46.875,-904.297,0
8651.380,17.578,33.203,20.996,30.273,-287.109,0
8651.384,13.672,30.273,22.461,15.137,-1000.000,0
8651.388,38.086,26.367,33.203,20.020,141.113,0
8651.392,37.109,31.250,40.039,41.992,-744.141,0
8651.396,8.301,34.180,31.738,24.902,178.223,0
8651.400,24.414,32.715,21.484,-0.977,-1000.000,0
8651.404,63.477,47.852,26.855,25.879,-220.215,0
8651.408,52.246,44.922,26.367,62.500,-771.484,0
8651.412,29.785,20.996,11.719,40.527,332.031,0
8651.415,13.184,21.973,16.602,5.859,-1000.000,0
8651.419,26.855,24.414,27.832,21.973,-394.043,0
8651.423,49.316,26.367,31.250,53.223,-872.559,0
8651.427,29.785,38.086,28.809,45.410,726.074,0
8651.431,8.301,45.410,31.738,14.160,-848.633,0
8651.435,20.996,45.898,38.086,13.184,-885.254,0
8651.439,58.594,30.762,31.250,44.922,625.977,0
8651.443,44.922,28.320,19.531,61.523,-837.891,0
8651.447,-2.441,33.203,16.113,30.273,-162.109,0
8651.451,6.836,23.926,29.785,8.789,-1000.000,0
8651.455,45.898,32.715,30.762,23.926,-25.879,0
8651.458,50.781,47.852,27.344,37.598,-754.883,0
8651.462,12.207,38.574,33.203,7.812,220.703,0
8651.466,-3.418,34.180,25.879,-14.648,-1000.000,0
8651.470,29.785,32.227,28.809,29.297,-237.305,0
8651.474,39.062,20.996,32.227,54.688,-779.785,0
8651.478,8.301,23.438,23.438,39.551,378.418,0
8651.482,11.230,28.809,19.043,3.906,-1000.000,0
8651.486,39.551,27.344,20.996,-4.883,-545.410,0
8651.490,42.969,35.156,20.996,40.039,-969.727,0
8651.494,24.414,45.898,35.645,38.086,818.359,0
8651.498,7.812,52.734,37.598,7.324,-719.238,0
8651.501,16.113,33.691,20.996,7.324,-1000.000,0
8651.505,38.086,14.648,22.461,38.086,374.023,0
8651.509,47.852,33.203,32.227,55.664,-800.293,0
8651.513,20.996,32.227,30.273,29.297,-87.402,0
8651.517,9.277,25.391,19.531,7.324,-1000.000,0
8651.521,32.227,23.438,21.973,22.461,-147.461,0
8651.525,32.715,28.320,31.250,61.523,-778.809,0
8651.529,15.625,33.203,32.715,42.969,238.770,0
8651.533,10.254,23.926,26.855,-3.418,-1000.000,0
8651.537,14.648,29.297,20.508,15.625,-325.195,0
8651.540,39.062,36.133,30.273,47.852,-814.941,0
8651.544,37.109,40.039,30.273,36.133,381.348,0
8651.548,-2.441,28.809,25.879,-3.418,-1000.000,0
8651.552,12.695,20.508,34.180,10.742,-798.828,0
8651.556,43.945,26.855,29.785,50.781,786.133,0
8651.560,24.414,22.461,21.973,44.434,815.918,0
8651.564,-0.977,20.020,40.039,21.973,-715.332,0
8651.568,20.508,30.273,29.785,29.297,-1000.000,0
8651.572,55.664,25.879,2.930,63.477,78.125,0
8651.576,48.340,19.531,16.602,72.754,-827.637,0
8651.580,15.625,26.367,40.039,40.527,-94.238,0
8651.583,12.695,32.227,35.645,11.230,-1000.000,0
8651.587,38.086,43.457,39.551,32.227,-196.289,0
8651.591,48.828,42.969,38.086,60.547,-798.340,0
8651.595,27.832,29.785,30.762,29.297,255.371,0
8651.599,15.625,23.926,41.016,3.906,-1000.000,0
8651.603,39.551,32.715,27.832,25.879,-483.887,0
8651.607,49.316,39.551,24.414,48.828,-890.137,0
8651.611,18.066,22.461,27.832,36.621,422.852,0
8651.615,0.977,22.949,15.137,12.695,-1000.000,0
8651.619,26.367,47.363,20.508,24.414,-978.516,0
8651.623,68.848,39.062,31.738,43.945,506.836,0
8651.626,49.805,28.320,34.180,41.504,913.574,0
8651.630,4.883,30.273,37.598,15.137,-613.770,0
8651.634,8.301,25.879,38.086,11.230,-1000.000,0
8651.638,45.410,29.297,29.785,43.457,-58.594,0
8651.642,48.828,30.762,22.461,53.711,-818.848,0
8651.646,21.484,26.855,28.809,27.832,16.113,0
8651.650,23.438,33.203,30.762,13.184,-1000.000,0
8651.654,39.551,35.645,32.715,38.086,-230.469,0
8651.658,47.363,33.691,27.344,57.617,-803.223,0
8651.662,25.391,34.180,18.555,35.156,269.531,0
8651.665,6.348,32.227,32.227,4.883,-1000.000,0
8651.669,29.785,31.738,33.203,10.254,-610.352,0
8651.673,50.293,23.926,31.250,36.133,-988.281,0
8651.677,25.879,20.996,28.809,32.227,511.719,0
8651.681,8.301,20.996,29.785,4.395,-988.770,0
8651.685,33.203,26.855,37.109,3.906,-1000.000,0
8651.689,53.223,32.715,33.691,45.410,339.844,0
8651.693,35.645,21.484,22.949,48.828,-957.520,0
8651.697,4.395,24.414,6.836,18.555,-418.945,0
8651.701,10.254,36.621,20.020,11.230,-1000.000,0
8651.705,40.039,41.992,40.527,41.016,-117.676,0
8651.708,42.969,33.203,30.762,76.172,-801.758,0
8651.712,18.555,20.996,27.832,40.527,144.531,0
8651.716,14.160,28.320,39.062,5.859,-1000.000,0
8651.720,41.992,35.156,25.879,26.855,-279.297,0
8651.724,56.152,34.668,19.043,42.480,-808.594,0
8651.728,24.902,36.133,22.949,23.438,302.246,0
8651.732,6.836,42.969,21.973,1.465,-1000.000,0
8651.736,30.273,35.645,16.602,11.719,-679.688,0
8651.740,48.828,21.973,12.207,48.828,927.246,0
8651.744,38.086,29.785,21.484,43.457,700.195,0
8651.748,16.602,39.062,28.809,1.953,-849.609,0
8651.751,23.438,37.598,26.367,-3.906,-1000.000,0
8651.755,59.570,36.621,25.879,31.738,243.164,0
8651.759,43.945,32.715,17.090,44.922,-827.637,0
8651.763,6.348,23.926,4.395,16.602,-156.250,0
8651.767,22.461,27.832,16.113,6.348,-1000.000,0
8651.771,51.270,37.598,32.715,30.273,-156.250,0
8651.775,42.480,34.180,28.809,51.758,-785.645,0
8651.779,10.742,21.973,30.762,34.668,241.699,0
8651.783,7.812,22.461,35.645,12.695,-1000.000,0
8651.787,36.133,30.273,26.855,26.855,-319.824,0
8651.790,50.293,40.039,14.648,55.176,-813.477,0
8651.794,34.180,36.621,19.043,36.621,418.457,0
8651.798,13.184,28.320,20.996,-0.977,-1000.000,0
8651.802,19.043,39.062,27.344,9.766,-737.793,0
8651.806,41.992,34.180,38.574,46.387,830.078,0
8651.810,17.578,25.879,25.879,46.875,920.410,0
8651.814,-12.695,32.715,29.297,22.949,-591.309,0
8651.818,13.672,33.203,42.969,10.254,-1000.000,0
8651.822,46.387,25.879,41.016,28.320,141.113,0
8651.826,34.180,28.320,32.715,45.410,-777.344,0
8651.830,5.371,29.785,23.926,25.391,24.902,0
8651.833,-3.418,23.926,31.250,7.324,-1000.000,0
8651.837,34.668,31.738,25.879,24.414,-197.754,0
8651.841,56.641,42.969,14.160,53.711,-782.715,0
8651.845,17.090,29.785,28.809,28.809,268.066,0
8651.849,-4.883,23.438,31.250,-7.812,-1000.000,0
8651.853,17.578,25.879,26.855,11.719,-386.230,0
8651.857,44.434,32.715,24.414,41.504,-846.191,0
8651.861,25.391,35.156,20.508,33.691,536.621,0
8651.865,-3.906,28.809,32.227,-0.977,-1000.000,0
8651.869,7.324,21.973,32.227,10.254,-825.684,0
8651.873,34.668,20.996,31.738,48.340,706.055,0
8651.876,25.879,24.414,39.062,46.875,-948.242,0
8651.880,10.742,34.668,29.785,26.855,-397.949,0
8651.884,30.762,42.480,30.273,16.113,-1000.000,0
8651.888,44.434,29.297,36.133,26.367,70.801,0
8651.892,30.762,22.461,31.738,39.551,-758.789,0
8651.896,-8.789,22.949,28.320,15.137,153.809,0
8651.900,-10.254,20.508,23.926,-3.418,-1000.000,0
8651.904,33.691,24.902,26.855,30.762,-224.609,0
8651.908,45.410,32.715,17.578,51.270,-780.273,0
8651.912,19.531,33.691,20.020,38.574,297.852,0
8651.915,20.996,34.180,41.504,17.578,-1000.000,0
8651.919,44.922,36.621,35.156,29.297,-479.492,0
8651.923,59.082,36.133,26.367,66.895,-898.438,0
8651.927,47.363,27.832,36.621,64.453,639.160,0
8651.931,19.043,33.691,44.434,43.945,-911.621,0
8651.935,37.109,34.180,34.180,32.715,-982.910,0
8651.939,63.477,30.762,29.785,59.082,472.168,0
8651.943,50.293,35.645,40.527,75.195,-867.188,0
8651.947,33.691,28.320,28.320,29.785,-255.859,0
8651.951,43.457,34.668,26.367,9.277,-1000.000,0
8651.955,54.688,38.086,34.180,39.551,-74.707,0
8651.958,51.758,25.391,32.715,67.383,-775.879,0
8651.962,38.086,29.785,30.273,41.016,190.430,0
8651.966,27.344,29.297,20.508,5.859,-1000.000,0
8651.970,39.062,23.926,32.715,35.156,-260.742,0
8651.974,46.875,29.785,39.062,57.129,-793.945,0
8651.978,30.273,36.621,33.691,38.086,329.102,0
8651.982,14.160,45.898,30.762,23.438,-1000.000,0
8651.986,30.273,39.551,35.156,35.156,-663.574,0
8651.990,56.641,23.438,31.250,60.059,945.801,0
8651.994,38.574,19.043,16.602,53.223,725.586,0
8651.998,13.184,22.461,38.574,30.762,-813.965,0
8652.001,32.227,35.156,50.781,24.414,-1000.000,0
8652.005,57.617,31.250,27.344,44.434,237.305,0
8652.009,36.133,31.250,18.066,56.152,-850.098,0
8652.013,30.762,41.504,32.227,39.062,-200.684,0
8652.017,37.598,28.320,34.180,21.973,-1000.000,0
8652.021,34.668,22.461,30.762,35.156,-168.457,0
8652.025,41.504,31.738,42.969,57.617,-795.898,0
8652.029,27.832,35.645,46.875,47.852,227.051,0
8652.033,8.301,28.320,30.762,14.160,-1000.000,0
8652.037,35.156,22.461,12.695,16.602,-367.188,0
8652.040,55.176,26.855,18.555,54.688,-834.961,0
8652.044,25.879,30.273,30.762,42.969,352.539,0
8652.048,15.625,33.203,37.109,21.484,-1000.000,0
8652.052,41.504,30.273,37.109,27.344,-836.426,0
8652.056,48.340,31.250,40.527,48.340,724.609,0
8652.060,26.367,38.086,29.785,49.316,813.477,0
8652.064,9.277,37.109,17.578,20.508,-727.051,0
8652.068,21.973,40.039,31.250,12.207,-1000.000,0
8652.072,53.711,41.016,20.508,40.527,65.430,0
8652.076,44.922,32.227,12.695,59.570,-836.914,0
8652.080,24.414,34.668,35.645,26.367,-111.328,0
8652.083,10.742,36.621,39.062,2.441,-1000.000,0
8652.087,29.785,23.926,33.203,12.695,-194.824,0
8652.091,35.645,14.648,39.062,37.109,-799.316,0
8652.095,11.719,25.879,38.086,26.855,254.395,0
8652.099,3.906,30.273,27.832,1.953,-1000.000,0
8652.103,39.551,35.156,29.785,19.531,-482.422,0
8652.107,65.918,39.062,35.156,48.340,-892.090,0
8652.111,33.691,29.785,19.043,34.180,437.988,0
8652.115,15.137,24.902,14.160,14.160,-1000.000,0
8652.119,20.508,24.414,23.926,25.391,-958.008,0
8652.123,45.410,23.438,33.691,57.617,533.691,0
8652.126,50.781,23.438,40.039,62.500,931.641,0
8652.130,11.719,36.621,35.156,34.668,-584.961,0
8652.134,16.113,30.273,38.574,23.438,-1000.000,0
8652.138,52.734,13.184,34.180,45.410,-61.035,0
8652.142,56.641,19.043,24.902,57.617,-806.641,0
8652.146,26.855,41.992,20.508,31.250,60.059,0
8652.150,24.902,49.316,10.742,13.184,-1000.000,0
8652.154,53.223,30.273,20.508,31.738,-230.469,0
8652.158,57.129,26.855,25.879,48.828,-798.340,0
8652.162,20.996,31.738,21.484,31.738,273.926,0
8652.165,6.836,29.785,35.156,10.254,-1000.000,0
8652.169,36.133,29.297,38.086,20.508,-573.242,0
8652.173,46.875,40.527,29.785,50.293,-959.473,0
8652.177,26.367,43.945,32.227,46.875,566.406,0
8652.181,11.719,34.668,26.855,20.508,-957.031,0
8652.185,28.809,20.508,21.484,17.090,-1000.000,0
8652.189,44.922,15.137,21.484,47.363,380.859,0
8652.193,28.809,19.531,21.484,59.082,-949.219,0
8652.197,4.883,30.273,33.203,26.367,-399.902,0
8652.201,12.695,40.039,49.316,11.719,-1000.000,0
8652.205,48.340,32.227,30.273,39.062,-128.418,0
8652.208,48.340,26.855,26.367,56.641,-802.734,0
8652.212,18.066,30.273,27.832,22.461,155.273,0
8652.216,17.090,22.949,18.555,-5.859,-1000.000,0
8652.220,34.180,21.484,35.156,21.973,-299.805,0
8652.224,47.852,30.762,29.785,49.805,-815.430,0
8652.228,35.645,35.645,23.926,39.062,295.410,0
8652.232,10.254,37.109,42.969,16.113,-1000.000,0
8652.236,15.137,35.156,46.387,23.926,-733.398,0
8652.240,47.852,35.156,34.668,43.945,881.348,0
8652.244,47.852,41.992,30.273,42.969,624.512,0
8652.248,15.625,36.621,20.020,17.090,-898.926,0
8652.251,22.461,33.203,20.996,19.043,-1000.000,0
8652.255,45.410,28.320,32.715,48.340,154.785,0
8652.259,31.250,10.254,32.227,40.039,-903.809,0
8652.263,0.977,14.648,27.832,12.695,-292.969,0
8652.267,10.254,24.414,36.621,0.977,-1000.000,0
8652.271,41.016,29.297,40.527,39.062,-173.340,0
8652.275,54.199,35.645,35.645,62.988,-808.105,0
8652.279,28.320,39.551,30.273,20.996,199.707,0
8652.283,6.348,39.551,18.555,-11.719,-1000.000,0
8652.287,24.414,34.668,13.672,18.066,-397.949,0
8652.290,50.293,24.902,18.555,47.363,-854.004,0
8652.294,37.598,18.555,28.809,40.039,355.957,0
8652.298,-9.277,21.484,23.438,9.766,-1000.000,0
8652.302,15.625,38.574,43.945,15.625,-849.121,0
8652.306,53.711,36.133,49.316,34.180,708.496,0
8652.310,24.414,26.367,20.508,26.855,811.523,0
8652.314,-1.465,35.156,11.230,-0.488,-734.863,0
8652.318,16.602,40.527,28.320,14.160,-1000.000,0
8652.322,43.945,30.762,29.297,44.434,64.941,0
8652.326,39.062,19.531,2.441,34.668,-821.289,0
8652.330,16.113,31.250,42.969,19.043,-74.707,0
8652.333,17.090,43.457,60.059,14.648,-1000.000,0
8652.337,46.875,30.762,15.137,32.715,-194.824,0
8652.341,50.293,38.086,12.695,39.062,-794.922,0
8652.345,14.648,47.363,23.438,17.090,261.230,0
8652.349,16.113,37.598,20.020,-4.883,-1000.000,0
8652.353,53.223,39.551,31.250,31.250,-456.055,2
8652.357,66.895,38.086,46.875,62.012,-874.023,0
8652.361,36.133,36.133,41.504,22.461,446.289,0
8652.365,6.348,40.039,23.926,-5.859,-1000.000,0
8652.369,26.367,37.598,7.812,10.254,-946.289,0
8652.373,50.781,27.832,23.438,38.086,549.805,0
8652.376,35.645,18.555,22.461,42.969,941.895,0
8652.380,21.484,35.645,12.695,14.160,-565.430,0
8652.384,19.531,44.434,26.855,1.465,-1000.000,0
8652.388,30.273,45.898,38.574,27.344,-55.176,0
8652.392,34.668,38.086,39.551,38.086,-809.082,0
8652.396,10.742,26.855,32.715,9.766,48.828,0
8652.400,7.324,32.715,24.414,10.254,-1000.000,0
8652.404,33.203,26.855,23.926,37.598,-231.445,0
8652.408,43.945,30.273,27.344,50.293,-799.805,0
8652.412,18.555,36.133,17.578,38.574,271.973,0
8652.415,4.883,37.598,16.113,15.137,-1000.000,0
8652.419,43.457,36.133,34.180,35.156,-602.539,0
8652.423,65.918,23.926,38.574,53.711,-980.957,0
8652.427,24.414,20.508,33.691,39.062,533.691,0
8652.431,1.953,20.020,16.602,1.465,-971.191,0
8652.435,30.762,35.645,17.090,11.230,-1000.000,0
8652.439,52.246,53.223,41.016,41.504,336.914,0
8652.443,41.504,41.016,31.738,40.527,-994.141,0
8652.447,15.137,35.645,23.926,19.531,-471.191,0
8652.451,11.230,33.691,29.297,5.859,-1000.000,0
8652.455,36.621,24.902,19.531,32.715,-134.766,0
8652.458,38.574,26.855,30.273,46.875,-816.895,0
8652.462,17.090,37.598,44.434,35.645,112.305,0
8652.466,16.113,31.738,38.086,16.602,-1000.000,0
8652.470,41.016,23.926,27.344,15.137,-345.215,0
8652.474,46.387,26.367,25.391,40.527,-841.309,0
8652.478,20.508,30.762,27.832,35.156,267.578,0
8652.482,11.719,34.180,32.715,3.906,-1000.000,0
8652.486,29.297,36.621,41.504,16.113,-878.906,0
8652.490,44.434,27.344,47.363,53.711,697.754,0
8652.494,27.344,22.949,19.531,42.480,510.254,0
8652.498,14.160,33.691,5.371,7.324,-960.938,0
8652.501,16.602,35.156,25.391,3.418,-1000.000,0
8652.505,52.246,30.273,35.645,22.949,52.246,0
8652.509,48.828,20.996,39.062,38.574,797.363,0
8652.513,3.418,22.461,35.645,17.578,-647.949,0
8652.517,8.301,33.691,42.969,9.277,-1000.000,0
8652.521,35.645,34.668,35.645,32.715,-246.582,0
8652.525,38.574,25.879,23.438,40.527,950.195,0
8652.529,6.836,28.320,28.320,16.113,-306.641,0
8652.533,-1.953,30.762,26.367,-11.230,-1000.000,0
8652.537,28.809,25.879,32.715,16.602,-891.602,0
8652.540,45.898,28.320,29.297,46.875,488.770,0
8652.544,26.855,29.785,33.691,27.344,141.113,0
8652.548,5.371,22.949,40.527,1.953,-1000.000,0
8652.552,10.254,23.438,26.855,19.531,-1000.000,0
8652.556,41.504,22.949,24.414,49.316,17.578,0
8652.560,25.391,18.555,29.297,39.062,279.785,0
8652.564,-13.672,21.973,28.320,10.254,-991.699,0
8652.568,6.348,34.668,37.598,16.113,-1000.000,0
8652.572,39.062,37.109,31.738,30.762,-211.914,0
8652.576,36.133,29.297,24.414,34.668,337.402,0
8652.580,18.555,26.367,28.809,20.508,-904.297,0
8652.583,12.207,24.414,20.996,-6.836,-1000.000,0
8652.587,22.949,33.691,24.902,11.230,-754.395,0
8652.591,38.086,44.434,41.016,69.824,123.047,0
8652.595,20.996,37.109,40.039,53.223,-569.824,0
8652.599,6.836,26.367,35.156,2.930,-1000.000,0
8652.603,33.203,24.902,27.832,10.254,-1000.000,0
8652.607,59.082,25.879,28.320,41.992,-135.742,0
8652.611,30.273,33.691,42.969,42.480,-144.043,0
8652.615,2.441,41.016,42.969,15.625,-1000.000,0
8652.619,14.648,32.715,32.227,8.789,-1000.000,0
8652.623,46.387,32.227,15.625,36.133,-211.426,0
8652.626,37.598,33.691,11.230,49.805,161.133,0
8652.630,2.441,28.809,25.391,17.090,-961.914,0
8652.634,13.672,30.762,43.457,5.371,-1000.000,0
8652.638,43.945,28.809,40.527,30.273,-422.363,0
8652.642,41.504,29.785,37.109,45.898,195.801,0
8652.646,7.812,39.062,38.086,18.066,-839.355,0
8652.650,-10.742,35.645,30.273,4.395,-1000.000,0
8652.654,22.949,36.621,30.273,28.809,-799.805,0
8652.658,49.316,46.387,36.621,55.664,390.625,0
8652.662,19.043,35.645,30.273,29.297,-241.211,0
8652.665,8.301,20.508,30.273,-3.418,-1000.000,0
8652.669,31.250,28.320,42.480,18.555,-1000.000,0
8652.673,42.969,33.203,32.227,37.598,175.781,0
8652.677,16.113,30.762,18.555,31.738,291.992,0
8652.681,0.488,32.227,28.809,15.625,-1000.000,0
8652.685,22.461,39.062,31.738,13.672,-1000.000,0
8652.689,41.504,37.598,31.250,37.598,0.977,0
8652.693,29.297,34.180,44.434,32.227,494.141,0
8652.697,-1.465,30.273,26.367,-2.441,-895.996,0
8652.701,19.043,27.832,24.414,4.883,-1000.000,0
8652.705,58.594,23.438,21.484,46.875,-188.477,0
8652.708,43.945,29.785,5.859,70.801,979.980,0
8652.712,21.484,43.457,11.230,37.109,-292.969,0
8652.716,20.020,35.645,17.578,17.090,-1000.000,0
8652.720,39.062,25.879,32.227,33.203,-517.090,0
8652.724,63.477,36.621,45.898,49.316,-993.652,0
8652.728,38.574,46.875,52.246,44.434,256.836,0
8652.732,8.301,33.691,41.504,22.461,-1000.000,0
8652.736,41.016,30.273,21.973,26.367,-959.473,0
8652.740,61.523,35.645,22.949,53.711,551.270,0
8652.744,42.480,24.414,24.902,53.223,480.469,0
8652.748,15.137,34.180,31.250,25.391,-985.352,0
8652.751,14.648,39.551,33.203,28.809,-1000.000,0
8652.755,41.504,29.297,26.855,62.500,19.531,0
8652.759,32.715,24.902,29.297,60.059,977.051,0
8652.763,9.277,23.438,21.484,16.113,-440.430,0
8652.767,25.391,26.855,22.949,10.742,-1000.000,0
8652.771,45.898,36.133,29.785,36.621,-175.293,0
8652.775,41.504,38.574,27.832,49.805,-819.336,0
8652.779,27.344,33.691,33.203,31.250,180.176,0
8652.783,20.020,34.180,41.992,11.719,-1000.000,0
8652.787,39.062,28.809,30.762,36.133,-409.180,0
8652.790,50.781,24.902,18.066,56.152,-862.793,0
8652.794,26.367,32.227,24.902,53.711,368.164,0
8652.798,9.766,33.691,34.668,42.480,-1000.000,0
8652.802,28.809,33.203,37.598,32.715,-791.504,0
8652.806,50.293,35.156,22.461,43.457,757.324,0
8652.810,43.457,30.762,24.902,56.152,895.508,0
8652.814,23.438,24.414,40.527,35.645,-651.367,0
8652.818,42.969,33.203,25.879,21.973,-1000.000,0
8652.822,67.383,40.039,18.555,49.805,156.738,0
8652.826,46.387,31.738,27.344,59.570,-768.555,0
8652.830,14.160,26.855,32.227,38.574,76.660,0
8652.833,19.043,34.180,32.715,21.973,-1000.000,0
8652.837,49.805,31.250,27.832,36.133,-205.566,0
8652.841,57.129,26.367,29.785,72.266,-783.203,0
8652.845,35.156,41.992,32.715,73.242,265.137,0
8652.849,41.016,47.363,26.855,41.016,-1000.000,0
8652.853,54.199,35.645,22.949,30.762,-468.262,0
8652.857,58.594,26.367,28.320,52.246,-878.906,0
8652.861,37.109,30.273,41.504,45.898,452.148,0
8652.865,8.301,28.809,27.832,9.766,-1000.000,0
8652.869,31.738,28.320,21.484,11.230,-973.145,0
8652.873,59.570,30.273,30.762,40.039,528.320,0
8652.876,48.828,26.367,35.645,47.363,893.555,0
8652.880,24.414,37.598,43.945,32.227,-624.512,0
8652.884,25.879,32.227,36.621,25.879,-1000.000,0
8652.888,47.363,16.602,26.367,40.527,-85.449,0
8652.892,55.176,21.973,17.578,61.035,-847.168,0
8652.896,22.949,31.250,24.414,41.504,-46.875,0
8652.900,11.719,41.504,51.758,14.648,-1000.000,0
8652.904,41.504,41.504,27.832,24.902,-239.258,0
8652.908,54.688,33.691,4.395,45.410,-810.547,0
8652.912,28.320,36.621,38.086,30.273,286.133,0
8652.915,18.066,38.086,49.316,9.277,-1000.000,0
8652.919,54.688,36.133,34.668,33.203,-507.324,0
8652.923,60.059,29.297,31.250,55.664,-939.453,0
8652.927,27.344,26.367,27.344,49.316,717.773,0
8652.931,7.812,26.855,36.621,21.973,-869.141,0
8652.935,22.949,31.738,42.480,23.438,-934.082,0
8652.939,62.988,39.062,28.320,51.758,534.668,0
8652.943,54.199,28.320,31.250,50.781,-815.430,0
8652.947,11.230,30.762,39.062,23.438,-129.883,0
8652.951,11.230,32.715,34.668,0.977,-1000.000,0
8652.955,47.363,34.668,32.227,36.621,-10.254,0
8652.958,56.641,37.109,30.762,63.477,-747.559,0
8652.962,28.809,35.645,32.715,28.320,234.863,0
8652.966,10.742,31.250,37.109,0.488,-1000.000,0
8652.970,39.551,32.715,31.738,38.574,-238.281,0
8652.974,51.270,32.227,33.203,62.500,-780.762,0
8652.978,19.531,13.672,45.898,34.668,519.043,0
8652.982,2.441,16.602,38.086,9.277,-1000.000,0
8652.986,23.438,29.297,35.645,14.160,-406.250,0
8652.990,48.340,33.203,38.086,35.156,-937.012,0
8652.994,33.203,36.621,7.812,36.133,-990.723,0
8652.998,5.859,40.527,9.766,9.277,-469.238,0
8653.001,19.531,37.109,25.879,5.859,-895.996,0
8653.005,60.059,30.762,29.785,44.434,620.117,0
8653.009,50.293,24.902,34.668,56.641,-765.625,0
8653.013,19.531,28.320,37.598,22.461,108.887,0
8653.017,17.578,31.738,33.203,7.812,-1000.000,0
8653.021,23.926,32.227,29.785,42.480,1.465,0
8653.025,26.367,28.320,20.996,51.758,-727.539,0
8653.029,8.789,31.250,13.672,13.184,268.066,0
8653.033,11.230,33.203,17.090,0.000,-1000.000,0
8653.037,36.133,21.973,25.879,8.789,-243.652,0
8653.040,28.809,19.043,16.602,34.668,-795.898,0
8653.044,13.672,34.668,23.926,36.133,624.512,0
8653.048,19.043,45.410,42.969,9.277,-991.211,0
8653.052,25.879,37.598,28.320,11.230,-546.875,0
8653.056,36.133,21.973,30.762,40.527,986.816,0
8653.060,29.785,15.625,33.203,42.480,-940.918,0
8653.064,5.859,21.973,20.020,18.555,-342.773,0
8653.068,14.648,29.785,29.297,14.648,-1000.000,0
8653.072,36.133,25.879,28.320,33.203,347.168,0
8653.076,37.109,24.902,18.066,50.781,-742.676,0
8653.080,18.555,37.109,21.484,41.016,152.344,0
8653.083,23.926,39.551,31.738,17.578,-1000.000,0
8653.087,45.898,33.691,35.156,22.949,-153.809,0
8653.091,29.785,25.879,28.320,43.457,-753.418,0
8653.095,5.859,20.508,22.461,43.457,320.312,0
8653.099,4.395,31.738,31.250,22.949,-1000.000,0
8653.103,26.367,39.551,23.438,14.160,-293.945,0
8653.107,37.598,35.645,21.973,50.293,-834.473,0
8653.111,47.852,30.762,41.016,50.293,738.770,0
8653.115,37.598,32.715,36.133,22.949,-874.512,0
8653.119,24.414,32.715,19.531,31.250,-673.828,0
8653.123,46.387,26.367,19.043,50.781,865.723,0
8653.126,37.598,30.762,20.996,49.805,-849.121,0
8653.130,14.160,49.316,32.227,25.391,-153.809,0
8653.134,19.531,41.016,24.414,9.277,-1000.000,0
8653.138,46.875,28.809,22.949,37.109,227.051,0
8653.142,49.316,40.527,38.086,56.641,-727.539,0
8653.146,17.090,38.574,31.250,36.621,205.078,0
8653.150,9.277,18.066,13.672,9.277,-1000.000,0
8653.154,35.645,19.531,20.996,24.414,-187.012,0
8653.158,36.133,32.227,28.320,52.734,-761.230,0
8653.162,2.930,38.086,23.438,28.809,446.777,0
8653.165,2.441,40.039,23.438,3.418,-1000.000,0
8653.169,36.133,36.621,34.180,23.926,-329.102,0
8653.173,51.758,33.691,45.410,51.758,-884.277,0
8653.177,29.785,25.879,20.996,45.410,922.852,0
8653.181,4.883,26.367,16.602,19.531,-631.836,0
8653.185,18.066,32.715,18.066,16.602,-742.188,0
8653.189,50.293,25.879,3.418,43.945,802.734,0
8653.193,40.527,26.367,24.414,36.621,-798.340,0
8653.197,19.531,38.574,40.039,4.395,27.344,0
8653.201,27.832,39.551,41.992,0.488,-1000.000,0
8653.205,47.363,30.273,40.039,31.250,142.578,0
8653.208,51.758,26.367,33.691,47.363,-720.215,0
8653.212,22.949,35.156,43.457,29.297,230.469,0
8653.216,5.859,32.715,24.902,0.000,-1000.000,0
8653.220,34.180,34.180,12.695,22.461,-216.309,0
8653.224,51.270,31.250,23.926,61.523,-778.809,0
8653.228,21.484,23.926,22.461,46.387,561.523,0
8653.232,4.883,36.621,26.855,10.254,-1000.000,0
8653.236,32.227,30.273,42.969,29.785,-392.578,0
8653.240,47.363,20.996,41.992,56.641,-933.105,0
8653.244,27.832,28.320,28.320,29.785,-970.215,0
8653.248,8.789,31.738,26.855,8.301,-431.641,0
8653.251,14.160,23.438,17.090,4.883,-885.254,0
8653.255,42.480,27.344,28.320,37.598,639.648,0
8653.259,38.086,24.902,46.387,62.988,-766.602,0
8653.263,11.230,17.090,37.598,28.320,115.234,0
8653.267,19.043,31.738,36.621,9.277,-1000.000,0
8653.271,43.457,29.297,30.762,42.969,-4.883,0
8653.275,45.898,18.066,26.367,61.035,-728.027,0
8653.279,21.973,27.832,41.992,37.598,275.879,0
8653.283,7.812,47.852,31.738,13.672,-1000.000,0
8653.287,39.551,43.457,36.133,26.367,-242.188,0
8653.290,60.547,27.344,43.457,62.988,-803.223,0
8653.294,32.227,23.926,21.484,47.852,670.898,0
8653.298,17.090,33.691,29.785,14.160,-952.637,0
8653.302,34.668,32.227,29.785,21.484,-511.230,0
8653.306,58.105,23.926,20.020,54.199,-993.652,0
8653.310,53.223,29.785,28.320,59.570,-915.527,0
8653.314,24.902,33.203,24.902,28.809,-298.340,0
8653.318,25.879,40.527,24.902,30.273,-1000.000,0
8653.322,46.387,44.922,23.926,54.688,431.152,0
8653.326,50.293,40.039,29.785,57.617,-744.629,0
8653.330,34.180,39.551,40.527,37.598,164.062,0
8653.333,20.996,41.016,27.344,8.301,-1000.000,0
8653.337,37.598,36.621,25.391,31.738,-140.137,0
8653.341,45.898,30.273,28.809,57.617,-748.047,0
8653.345,28.320,34.668,18.066,38.574,329.102,0
8653.349,13.672,29.785,27.832,12.695,-1000.000,0
8653.353,28.809,27.344,41.016,26.855,-279.785,0
8653.357,51.270,33.203,36.133,58.594,-831.055,0
8653.361,22.949,28.809,29.297,41.504,751.953,0
8653.365,0.000,32.227,27.832,15.625,-860.352,0
8653.369,31.250,38.574,29.297,27.832,-647.461,0
8653.373,61.523,38.574,33.691,70.312,894.043,0
8653.376,56.152,36.621,41.504,67.871,-855.469,0
8653.380,21.973,33.203,29.785,28.320,-145.508,0
8653.384,14.648,29.297,22.461,20.996,-1000.000,0
8653.388,49.805,30.273,33.203,37.598,216.309,0
8653.392,46.387,39.551,39.551,48.340,-729.492,0
8653.396,16.602,37.109,33.203,28.809,205.566,0
8653.400,15.625,37.598,34.668,18.066,-1000.000,0
8653.404,39.551,39.062,39.062,33.691,-205.078,0
8653.408,58.105,25.879,38.574,61.035,-764.160,0
8653.412,39.062,25.391,49.805,61.523,401.855,0
8653.415,15.625,39.551,35.156,31.738,-1000.000,0
8653.419,42.969,38.574,20.508,28.809,-358.398,0
8653.423,64.453,24.414,26.855,47.852,-884.277,0
8653.427,32.715,31.738,30.273,36.133,863.770,0
8653.431,2.930,38.086,23.438,15.625,-697.754,0
8653.435,17.090,32.715,15.625,23.926,-830.566,0
8653.439,42.480,24.414,37.109,62.500,704.102,0
8653.443,34.180,20.020,45.410,66.406,-801.270,0
8653.447,13.184,25.391,34.668,25.391,-33.203,0
8653.451,19.043,20.996,23.926,4.395,-1000.000,0
8653.455,46.387,21.973,23.926,38.574,65.430,0
8653.458,51.270,30.762,32.715,66.895,-730.957,0
8653.462,11.719,35.156,27.344,18.555,229.980,0
8653.466,-7.812,39.551,32.227,-11.230,-1000.000,0
8653.470,37.598,40.039,37.109,29.297,-235.840,0
8653.474,54.199,33.691,29.297,56.152,-778.320,0
8653.478,21.484,29.785,30.273,34.180,496.582,0
8653.482,8.789,28.320,23.926,6.836,-1000.000,0
8653.486,38.086,23.438,17.578,26.855,-451.660,0
8653.490,61.523,18.555,27.344,54.688,-947.266,0
8653.494,27.832,20.020,34.180,41.992,972.656,0
8653.498,-5.859,21.973,27.832,14.648,-522.949,0
8653.501,20.996,33.203,26.367,20.020,-951.660,0
8653.505,52.246,38.574,41.016,54.688,540.527,0
8653.509,38.574,29.785,35.645,58.105,-766.113,0
8653.513,11.719,25.879,10.254,19.043,89.355,0
8653.517,15.625,25.391,3.418,-3.418,-1000.000,0
8653.521,39.551,27.344,17.090,23.926,-68.848,0
8653.525,37.109,37.109,15.625,42.969,-740.234,0
8653.529,12.207,36.133,28.809,24.414,257.812,0
8653.533,-2.441,24.902,37.109,-5.371,-1000.000,0
8653.537,10.254,21.484,11.230,14.160,-250.000,0
8653.540,50.781,30.762,38.086,55.664,-796.875,0
8653.544,35.156,27.832,42.969,32.227,598.633,0
8653.548,-16.113,15.625,14.160,-15.137,-1000.000,0
8653.552,4.883,17.090,15.625,-5.371,-567.383,0
8653.556,40.527,24.414,22.461,36.133,973.633,0
8653.560,26.367,21.973,22.949,49.805,-948.242,0
8653.564,4.395,23.926,24.902,17.578,-362.305,0
8653.568,7.812,33.203,31.250,-0.977,-1000.000,0
8653.572,32.227,36.621,36.621,24.414,326.172,0
8653.576,34.180,22.949,29.297,42.480,-745.117,0
8653.580,2.930,16.113,20.020,22.949,140.137,0
8653.583,15.137,30.273,19.043,13.184,-1000.000,0
8653.587,29.785,26.855,20.996,32.227,-168.945,0
8653.591,22.461,32.227,31.250,33.691,-758.301,0
8653.595,11.230,36.621,33.691,17.090,302.734,0
8653.599,2.930,27.344,25.879,0.488,-1000.000,0
8653.603,20.020,31.250,32.715,15.625,-307.617,0
8653.607,45.410,31.250,33.691,49.805,-827.637,0
8653.611,34.668,28.809,15.625,33.203,667.969,0
8653.615,3.906,27.832,16.602,9.766,-934.570,0
8653.619,16.113,25.879,25.391,14.160,-719.238,0
8653.623,46.387,36.133,30.273,39.062,824.707,0
8653.626,27.344,44.922,32.227,46.387,-876.465,0
8653.630,11.719,29.297,33.203,9.766,-226.074,0
8653.634,27.344,25.391,29.297,3.906,-1000.000,0
8653.638,48.340,35.156,12.207,39.062,149.414,0
8653.642,58.594,36.621,35.645,59.082,-737.793,0
8653.646,28.809,27.832,41.016,38.574,194.824,0
8653.650,11.230,28.809,27.344,4.883,-1000.000,0
8653.654,21.973,32.227,27.344,19.531,-222.168,1
8653.658,31.738,27.832,23.926,48.340,-770.508,0
8653.662,21.484,39.062,30.273,40.039,373.047,0
8653.665,14.160,45.898,24.902,14.648,-1000.000,0
8653.669,31.250,32.715,24.414,22.949,-390.625,0
8653.673,48.828,17.090,30.273,46.875,-887.695,0
8653.677,36.621,26.855,36.133,56.152,812.988,0
8653.681,13.184,29.785,35.645,29.297,-758.789,0
8653.685,26.367,21.484,26.855,5.371,-865.723,0
8653.689,48.340,34.668,22.949,42.969,655.273,0
8653.693,41.992,42.480,28.809,61.035,-807.129,0
8653.697,15.137,39.551,38.086,34.668,-71.777,0
8653.701,16.113,41.016,16.602,11.719,-1000.000,0
8653.705,49.316,37.598,-1.465,23.438,29.297,0
8653.708,47.852,25.391,24.902,52.246,-738.770,0
8653.712,23.926,28.809,26.367,32.227,229.492,0
8653.716,17.090,35.156,28.320,3.906,-1000.000,0
8653.720,28.809,23.438,31.250,25.879,-241.211,0
8653.724,42.480,25.391,15.137,59.570,-779.785,0
8653.728,27.344,39.062,29.297,40.527,461.426,0
8653.732,-1.465,31.738,27.344,2.441,-1000.000,0
8653.736,16.602,26.367,22.461,18.555,-477.539,0
8653.740,44.922,29.297,35.156,58.594,-948.730,0
8653.744,33.691,32.715,34.668,54.688,927.734,0
8653.748,15.137,31.738,35.156,19.043,-584.473,0
8653.751,23.438,29.785,20.508,20.996,-990.234,0
8653.755,53.223,27.344,25.879,49.316,487.305,0
8653.759,35.156,24.414,31.738,55.664,-771.973,0
8653.763,1.465,39.551,10.254,29.297,39.551,0
8653.767,16.602,46.875,25.391,4.883,-1000.000,0
8653.771,48.340,41.992,38.574,32.227,-107.422,0
8653.775,54.688,38.086,31.738,61.523,-753.418,0
8653.779,27.344,37.598,31.738,32.715,252.930,0
8653.783,20.508,40.039,28.320,13.184,-1000.000,0
8653.787,42.969,39.062,17.578,31.738,-261.719,0
8653.790,44.434,34.180,14.160,44.434,-798.340,0
8653.794,21.484,31.250,35.645,35.645,562.988,0
8653.798,9.277,36.133,34.668,7.324,-1000.000,0
8653.802,28.809,39.062,27.344,0.977,-609.863,0
8653.806,49.316,27.832,37.109,40.039,940.918,0
8653.810,30.762,23.926,37.109,52.734,-958.496,0
8653.814,14.160,31.250,21.484,20.020,-392.578,0
8653.818,26.855,29.785,17.090,12.207,-1000.000,0
8653.822,42.969,26.367,34.180,42.480,293.945,0
8653.826,44.922,30.762,29.297,48.340,-747.559,0
8653.830,10.742,32.715,29.297,15.137,136.230,0
8653.833,2.441,30.273,39.551,-3.906,-1000.000,0
8653.837,41.504,36.133,50.293,22.949,-177.734,0
8653.841,53.711,40.039,43.457,52.246,-761.230,0
8653.845,26.367,42.969,31.738,39.551,298.828,0
8653.849,10.254,35.156,33.691,23.438,-1000.000,0
8653.853,30.273,25.391,33.691,39.062,-314.941,0
8653.857,44.922,31.250,23.438,64.941,-834.473,0
8653.861,25.391,24.414,14.160,53.223,682.129,0
8653.865,20.020,26.855,10.254,21.484,-920.410,0
8653.869,50.293,35.156,22.461,16.602,-727.051,0
8653.873,53.223,26.367,42.969,45.410,823.242,0
8653.876,26.367,24.414,45.898,59.570,-882.324,0
8653.880,15.625,27.832,48.340,25.879,-237.793,0
8653.884,22.461,24.414,39.551,9.766,-1000.000,0
8653.888,51.270,22.461,25.391,38.574,145.508,0
8653.892,49.805,26.855,23.926,49.316,-739.258,0
8653.896,13.672,22.461,32.715,34.668,190.918,0
8653.900,6.836,18.555,34.180,17.578,-1000.000,0
8653.904,39.062,20.508,36.621,32.715,-215.332,0
8653.908,51.758,19.531,39.551,54.199,-769.043,0
8653.912,21.973,28.809,38.086,28.320,365.234,0
8653.915,10.742,28.809,31.738,6.348,-1000.000,0
8653.919,30.762,26.367,41.992,22.461,-390.137,0
8653.923,41.992,31.250,43.457,52.246,-886.230,0
8653.927,46.387,27.832,27.344,53.711,807.129,0
8653.931,22.949,35.156,36.133,21.973,-766.602,0
8653.935,5.371,25.879,42.969,19.043,-869.141,0
8653.939,34.180,13.672,33.691,43.945,652.832,0
8653.943,30.273,24.902,38.574,40.527,-811.035,0
8653.947,2.441,25.391,33.691,4.883,-86.426,0
8653.951,13.672,31.738,29.297,-9.766,-1000.000,0
8653.955,40.039,35.645,36.621,24.414,25.391,0
8653.958,43.945,37.109,29.297,55.664,-741.211,0
8653.962,21.973,37.598,21.973,30.273,230.957,0
8653.966,25.391,32.715,44.922,9.766,-1000.000,0
8653.970,48.340,27.832,53.223,37.598,-240.723,0
8653.974,44.922,25.879,49.316,62.012,-779.297,0
8653.978,24.414,21.484,35.645,32.715,452.637,0
8653.982,21.973,15.625,25.391,8.789,-1000.000,0
8653.986,29.785,17.578,35.645,34.668,-479.004,0
8653.990,40.039,22.949,43.457,43.945,-952.148,0
8653.994,26.855,33.203,43.945,30.762,929.688,0
8653.998,-6.836,44.434,33.203,6.348,-572.754,0
8654.001,7.324,37.598,39.062,1.465,-1000.000,0
8654.005,34.668,26.855,35.645,31.250,453.125,0
8654.009,27.832,19.043,22.949,35.645,-768.555,0
8654.013,5.371,20.508,32.715,10.254,41.504,0
