timestamps,TP9,AF7,AF8,TP10,Right AUX,Marker0
1542735715.350,84.473,29.297,37.109,83.008,20.508,0
1542735715.354,63.965,-13.672,20.996,76.660,35.645,0
1542735715.358,83.496,-2.441,21.484,90.820,23.438,0
1542735715.362,98.145,5.859,23.926,112.793,7.812,0
1542735715.366,73.242,-3.906,18.066,104.492,-15.137,0
1542735715.369,65.430,-1.465,18.066,89.355,-10.254,0
1542735715.373,79.102,-5.371,24.902,116.211,0.000,0
1542735715.377,100.098,-11.230,18.066,128.418,25.879,0
1542735715.381,106.445,-8.789,20.508,125.977,-8.301,0
1542735715.385,107.422,-10.254,25.391,114.258,-13.672,0
1542735715.389,106.934,-10.742,21.484,106.934,20.508,0
1542735715.393,102.051,-1.465,24.414,114.258,78.613,0
1542735715.397,100.586,1.953,27.344,125.000,55.176,0
1542735715.401,85.938,-0.488,26.367,116.211,21.484,0
1542735715.405,110.840,2.930,28.809,101.074,45.898,0
1542735715.408,119.141,-0.488,26.367,97.168,33.691,0
1542735715.412,100.098,0.000,18.555,86.426,49.316,0
1542735715.416,90.820,2.441,19.043,111.816,55.176,0
1542735715.420,87.891,6.348,19.043,124.023,11.719,0
1542735715.424,101.074,11.230,28.809,122.070,-4.395,0
1542735715.428,100.586,11.230,34.668,124.512,28.320,0
1542735715.432,97.656,4.883,25.391,107.910,35.645,0
1542735715.436,100.586,12.207,26.367,103.027,-17.578,0
1542735715.440,86.426,17.090,15.625,87.402,-39.062,0
1542735715.444,85.938,21.484,21.484,80.566,5.371,0
1542735715.448,97.168,27.344,29.785,98.145,42.969,0
1542735715.451,95.703,24.902,26.367,101.562,-1.465,0
1542735715.455,92.285,28.320,37.109,99.121,4.395,0
1542735715.459,84.961,28.809,37.109,90.332,72.266,0
1542735715.463,85.938,23.438,25.391,94.238,45.410,0
1542735715.467,93.262,22.949,23.926,82.031,19.531,0
1542735715.471,92.773,14.648,15.137,66.895,46.387,0
1542735715.475,91.309,31.738,17.578,103.516,65.430,0
1542735715.479,99.609,40.527,38.574,126.953,54.688,0
1542735715.483,100.098,20.508,31.738,107.422,36.133,0
1542735715.487,89.844,18.555,23.926,107.910,30.273,0
1542735715.491,83.496,17.090,28.809,88.379,25.391,0
1542735715.494,78.613,13.672,33.691,73.730,-1.465,0
1542735715.498,76.660,15.625,28.809,111.328,-13.672,0
1542735715.502,90.332,15.137,25.879,109.863,5.371,0
1542735715.506,94.238,11.719,30.273,73.730,24.902,0
1542735715.510,70.801,7.812,25.391,51.270,66.895,0
1542735715.514,73.730,12.695,20.508,70.312,31.738,0
1542735715.518,90.332,21.973,26.367,96.680,20.508,0
1542735715.522,96.191,21.484,29.785,79.102,57.617,0
1542735715.526,83.984,13.672,28.809,72.754,37.109,0
1542735715.530,60.059,10.742,22.949,93.750,48.340,0
1542735715.533,71.777,11.230,21.973,103.027,79.590,0
1542735715.537,91.797,32.227,40.527,100.098,81.055,0
1542735715.541,90.820,48.340,49.316,98.145,65.430,0
1542735715.545,78.125,2.930,29.785,98.633,22.461,0
1542735715.549,87.891,-4.883,39.062,90.820,-38.574,0
1542735715.553,95.215,16.602,54.199,73.242,-10.254,0
1542735715.557,69.824,17.090,25.391,64.941,19.043,0
1542735715.561,68.359,10.742,9.766,69.336,-10.254,0
1542735715.565,78.125,3.418,20.508,86.426,-5.859,0
1542735715.569,72.266,5.371,23.438,96.191,35.156,0
1542735715.573,69.336,14.160,24.902,77.148,36.133,0
1542735715.576,83.008,22.949,29.297,67.383,-1.465,0
1542735715.580,83.984,18.066,23.438,57.617,25.391,0
1542735715.584,67.871,20.996,25.391,62.500,19.531,0
1542735715.588,70.312,25.879,24.414,68.359,1.953,0
1542735715.592,65.430,21.973,23.438,51.270,44.434,0
1542735715.596,59.570,25.391,35.645,61.523,41.504,0
1542735715.600,59.570,24.902,37.598,78.125,57.617,0
1542735715.604,55.176,20.508,30.762,77.148,39.062,0
1542735715.608,67.871,20.996,30.273,85.938,32.715,0
1542735715.612,70.801,25.879,40.039,95.215,112.305,0
1542735715.616,68.359,29.297,42.969,72.754,93.750,0
1542735715.619,69.824,32.227,33.203,51.270,26.367,0
1542735715.623,73.242,28.809,25.879,69.336,37.598,0
1542735715.627,72.266,23.438,25.391,79.590,31.738,0
1542735715.631,58.105,24.414,27.832,67.871,41.016,0
1542735715.635,59.570,35.156,30.273,60.059,88.867,0
1542735715.639,62.500,21.973,16.602,58.594,51.270,0
1542735715.643,91.309,19.043,23.438,94.238,57.129,0
1542735715.647,95.703,39.062,37.109,85.938,115.723,0
1542735715.651,43.945,39.062,25.391,40.039,121.582,0
1542735715.655,25.391,28.320,18.066,21.484,120.605,0
1542735715.658,41.992,26.367,12.695,20.996,102.539,0
1542735715.662,33.691,39.062,21.484,19.043,82.520,0
1542735715.666,7.812,28.320,24.414,1.465,73.730,0
1542735715.670,12.207,22.461,21.973,12.695,55.664,0
1542735715.674,30.762,23.926,19.531,17.578,88.867,0
1542735715.678,32.715,10.742,15.625,11.719,54.688,0
1542735715.682,47.852,30.273,27.344,38.574,11.230,0
1542735715.686,76.172,52.734,34.180,46.875,-7.812,0
1542735715.690,41.504,22.461,16.113,30.273,0.000,0
1542735715.694,33.691,16.602,10.742,38.574,103.027,0
1542735715.698,54.199,29.297,20.020,60.059,116.211,0
1542735715.701,45.898,19.043,12.695,62.012,106.445,0
1542735715.705,52.246,29.785,26.367,58.105,61.035,0
1542735715.709,57.129,20.508,27.344,52.734,9.766,0
1542735715.713,52.246,20.996,15.137,53.711,9.766,0
1542735715.717,64.453,38.086,23.438,53.711,18.066,0
1542735715.721,59.082,22.949,13.672,12.695,44.434,0
1542735715.725,44.922,20.020,20.020,23.438,32.227,0
1542735715.729,58.594,20.020,31.738,53.711,37.598,0
1542735715.733,58.594,22.949,28.320,55.664,48.828,0
1542735715.737,56.641,21.973,23.438,51.270,27.344,0
1542735715.741,70.312,24.414,29.297,61.035,30.273,0
1542735715.744,62.500,22.949,30.762,60.547,20.996,0
1542735715.748,59.082,18.066,26.367,24.414,15.137,0
1542735715.752,51.758,15.625,27.344,41.016,51.758,0
1542735715.756,48.828,20.020,29.297,65.430,60.547,0
1542735715.760,54.688,10.254,26.855,56.641,85.449,0
1542735715.764,56.641,3.906,31.738,50.781,52.734,0
1542735715.768,67.383,14.648,38.086,46.387,-16.113,0
1542735715.772,67.871,21.484,30.762,60.547,18.555,0
1542735715.776,57.617,25.879,24.414,65.918,98.145,0
1542735715.780,72.266,17.578,27.344,73.242,20.508,0
1542735715.783,75.684,15.137,24.414,72.266,5.859,0
1542735715.787,59.570,21.973,20.508,53.223,40.527,0
1542735715.791,56.152,23.926,19.043,57.617,45.898,0
1542735715.795,69.336,25.391,13.184,63.477,31.738,0
1542735715.799,71.289,22.461,11.230,59.570,-36.133,0
1542735715.803,70.801,26.855,20.020,78.125,0.488,0
1542735715.807,80.078,40.039,32.715,77.148,20.020,0
1542735715.811,77.148,25.879,21.484,56.152,68.848,0
1542735715.815,72.266,16.113,15.625,56.152,99.609,0
1542735715.819,75.684,12.207,22.461,66.895,47.363,0
1542735715.823,80.566,7.812,20.020,86.426,45.898,0
1542735715.826,83.008,22.461,18.066,106.934,78.613,0
1542735715.830,75.684,21.484,10.742,77.637,44.922,0
1542735715.834,83.008,22.949,23.926,51.270,-23.926,0
1542735715.838,95.215,43.945,33.203,91.797,4.883,0
1542735715.842,77.148,46.875,15.625,82.031,73.242,0
1542735715.846,63.965,41.016,19.531,41.504,22.461,0
1542735715.850,69.824,22.461,23.438,60.059,-13.184,0
1542735715.854,76.172,20.996,24.414,93.262,67.871,0
1542735715.858,81.543,31.250,28.809,82.520,15.625,0
1542735715.862,80.566,26.855,20.020,43.457,14.160,0
1542735715.866,67.871,26.367,21.484,48.340,50.293,0
1542735715.869,52.734,32.227,18.555,62.500,27.344,0
1542735715.873,73.730,34.180,21.973,83.984,34.180,0
1542735715.877,79.590,39.062,36.621,93.750,4.395,0
1542735715.881,62.988,49.805,38.086,78.613,5.859,0
1542735715.885,79.590,41.504,38.574,86.914,66.895,0
1542735715.889,66.406,17.090,16.602,94.238,57.617,0
1542735715.893,57.129,10.742,4.883,76.172,25.391,0
1542735715.897,69.824,20.996,20.996,75.684,35.156,0
1542735715.901,68.848,20.508,14.160,82.031,81.055,0
1542735715.905,70.312,26.367,5.371,74.707,46.875,0
1542735715.908,66.895,19.043,6.836,62.500,23.438,0
1542735715.912,83.496,38.574,19.043,62.012,92.773,0
1542735715.916,73.730,47.852,22.461,79.590,112.793,0
1542735715.920,70.312,24.414,22.949,94.727,91.797,0
1542735715.924,91.797,20.508,22.461,59.082,55.664,0
1542735715.928,67.871,13.672,11.719,30.273,34.668,0
1542735715.932,53.223,26.367,15.625,64.941,44.434,0
1542735715.936,69.824,40.527,20.020,69.336,-8.301,0
1542735715.940,78.613,38.574,16.113,56.641,-28.320,0
1542735715.944,83.496,32.715,13.672,75.684,-2.930,0
1542735715.948,80.566,39.062,20.020,82.031,11.719,0
1542735715.951,73.730,46.875,24.414,76.172,60.547,0
1542735715.955,69.824,54.199,28.320,88.867,66.895,0
1542735715.959,78.613,40.527,22.949,88.867,70.801,0
1542735715.963,91.797,21.973,22.949,86.426,67.383,0
1542735715.967,76.172,50.293,23.926,68.359,80.078,0
1542735715.971,45.410,57.617,-0.488,34.180,54.199,0
1542735715.975,12.207,31.250,-3.906,9.277,8.301,0
1542735715.979,-22.949,28.809,5.859,-22.949,-19.043,0
1542735715.983,-45.898,41.016,18.066,-71.289,19.043,0
1542735715.987,-79.590,48.340,5.859,-119.141,20.996,0
1542735715.991,-136.719,43.457,-8.789,-176.758,-1.953,0
1542735715.994,-185.547,39.551,-7.812,-198.242,60.547,0
1542735715.998,-214.844,33.203,-12.207,-230.957,107.422,0
1542735716.002,-243.652,31.738,6.348,-281.250,62.988,0
1542735716.006,-277.832,25.879,19.043,-309.082,-2.441,0
1542735716.010,-304.199,15.625,27.344,-323.242,39.551,0
1542735716.014,-320.801,19.043,43.457,-314.941,86.914,0
1542735716.018,-336.914,24.902,37.598,-330.078,52.734,0
1542735716.022,-343.262,23.926,27.344,-339.844,57.129,0
1542735716.026,-350.098,28.809,38.086,-347.656,23.926,0
1542735716.030,-354.492,18.066,42.480,-351.074,21.484,0
1542735716.033,-332.520,17.090,36.621,-332.031,44.434,0
1542735716.037,-327.148,28.320,37.109,-329.590,34.668,0
1542735716.041,-316.895,28.320,41.992,-317.383,45.898,0
1542735716.045,-298.828,15.137,45.410,-298.828,57.617,0
1542735716.049,-279.297,8.789,43.945,-287.598,32.715,0
1542735716.053,-261.719,23.926,35.645,-279.297,-23.926,0
1542735716.057,-250.000,30.762,23.926,-260.254,17.578,0
1542735716.061,-223.145,24.902,28.320,-217.773,34.668,0
1542735716.065,-195.801,30.762,34.668,-199.219,18.555,0
1542735716.069,-175.293,36.133,33.691,-190.430,31.250,0
1542735716.073,-158.203,24.414,42.969,-164.062,7.812,0
1542735716.076,-138.672,14.648,46.875,-135.254,11.719,0
1542735716.080,-125.488,17.578,37.109,-124.023,0.977,0
1542735716.084,-108.398,18.066,30.273,-104.980,47.363,0
1542735716.088,-88.867,18.555,27.832,-83.008,100.098,0
1542735716.092,-54.688,27.832,24.414,-53.223,36.621,0
1542735716.096,-10.254,28.320,22.949,-25.391,20.996,0
1542735716.100,10.254,23.438,23.438,-30.273,77.637,0
1542735716.104,26.855,33.691,22.949,-13.184,45.410,0
1542735716.108,34.180,43.457,17.090,18.066,0.488,0
1542735716.112,58.105,43.945,14.160,61.035,-6.836,0
1542735716.116,87.891,41.016,9.766,80.078,-21.973,0
1542735716.119,109.863,52.246,6.348,95.215,-6.836,0
1542735716.123,138.672,62.500,7.324,147.461,-0.977,0
1542735716.127,161.133,48.828,12.695,166.992,-16.602,0
1542735716.131,165.039,46.875,16.113,142.578,23.438,0
1542735716.135,165.527,54.688,5.859,143.066,19.043,0
1542735716.139,194.336,53.223,6.836,179.688,-20.508,0
1542735716.143,201.172,52.734,11.719,197.754,5.859,0
1542735716.147,200.195,54.199,5.859,195.312,65.918,0
1542735716.151,217.773,57.617,11.719,240.234,103.516,0
1542735716.155,237.793,53.711,21.484,263.672,45.898,0
1542735716.158,234.863,46.875,20.996,244.141,-0.977,0
1542735716.162,244.141,45.410,21.484,237.305,-26.367,0
1542735716.166,256.836,45.410,19.531,228.027,1.953,0
1542735716.170,259.766,41.504,21.973,219.238,92.773,0
1542735716.174,250.000,42.969,20.996,227.051,105.469,0
1542735716.178,235.352,41.992,17.090,250.000,64.453,0
1542735716.182,249.023,35.645,15.137,265.625,37.598,0
1542735716.186,251.465,33.691,16.113,269.043,36.621,0
1542735716.190,247.070,35.156,19.043,256.836,32.227,0
1542735716.194,252.930,32.227,24.902,245.605,46.875,0
1542735716.198,255.859,27.832,31.738,235.352,75.684,0
1542735716.201,250.488,27.832,31.250,218.750,43.945,0
1542735716.205,252.441,36.133,26.855,239.746,24.902,0
1542735716.209,246.582,30.762,19.043,235.352,70.801,0
1542735716.213,231.934,17.578,12.695,232.910,87.402,0
1542735716.217,243.164,28.809,19.531,250.000,26.855,0
1542735716.221,250.488,31.738,24.902,235.840,47.363,0
1542735716.225,242.676,21.973,26.855,235.840,57.129,0
1542735716.229,235.352,22.949,28.320,231.934,-32.715,0
1542735716.233,229.980,28.320,26.367,216.797,-46.387,0
1542735716.237,212.402,30.273,25.879,218.750,-3.418,0
1542735716.241,211.426,36.621,26.367,221.191,-22.461,0
1542735716.244,211.914,41.992,24.902,205.078,-62.988,0
1542735716.248,208.496,38.574,23.438,201.660,-19.531,0
1542735716.252,210.449,36.133,23.438,221.680,-26.367,0
1542735716.256,213.379,34.668,23.438,227.539,-48.828,0
1542735716.260,216.797,35.645,27.832,204.590,19.043,0
1542735716.264,204.102,34.668,26.855,165.039,64.453,0
1542735716.268,185.547,42.969,26.367,161.621,56.152,0
1542735716.272,179.199,37.598,26.367,185.059,60.547,0
1542735716.276,176.758,31.250,26.367,197.754,53.223,0
1542735716.280,184.082,38.086,28.320,182.129,20.020,0
1542735716.283,182.617,34.668,26.367,170.410,7.812,0
1542735716.287,150.391,38.086,21.973,164.551,22.461,0
1542735716.291,168.945,41.504,18.555,166.016,45.898,0
1542735716.295,185.059,41.016,22.949,171.875,24.414,0
1542735716.299,151.367,41.016,27.344,156.738,-32.227,0
1542735716.303,169.922,44.922,31.738,153.320,-20.508,0
1542735716.307,162.109,45.410,31.738,132.324,57.617,0
1542735716.311,129.883,39.551,28.809,127.930,131.348,0
1542735716.315,152.832,42.480,30.762,152.832,67.383,0
1542735716.319,158.691,50.293,31.738,146.484,20.020,0
1542735716.323,134.766,47.852,29.297,140.137,70.312,0
1542735716.326,126.953,48.340,27.832,150.879,56.152,0
1542735716.330,128.906,50.293,25.879,130.859,75.195,0
1542735716.334,137.695,50.293,29.297,126.953,84.473,0
1542735716.338,135.742,51.270,31.250,142.578,69.336,0
1542735716.342,147.949,49.316,30.762,126.953,48.340,0
1542735716.346,143.555,49.805,36.133,115.723,-8.789,0
1542735716.350,113.281,47.852,38.574,119.141,48.340,0
1542735716.354,108.398,41.992,37.598,138.672,64.453,0
1542735716.358,111.816,45.410,36.621,115.234,60.547,0
1542735716.362,104.980,50.293,32.227,90.820,75.195,0
1542735716.366,90.332,46.875,32.227,96.680,63.965,0
1542735716.369,92.285,44.922,32.715,109.863,46.387,0
1542735716.373,92.773,41.504,26.367,109.375,14.648,0
1542735716.377,106.445,35.156,26.367,101.074,27.832,0
1542735716.381,102.051,35.156,27.344,106.445,53.223,0
1542735716.385,93.262,44.922,25.879,97.656,50.781,0
1542735716.389,94.238,45.410,23.926,71.289,75.684,0
1542735716.393,73.730,35.156,22.461,78.125,130.859,0
1542735716.397,78.125,30.762,21.484,83.984,71.289,0
1542735716.401,93.750,30.762,20.508,70.312,13.184,0
1542735716.405,81.055,33.691,21.484,75.684,43.945,0
1542735716.408,81.543,38.086,21.973,107.422,37.109,0
1542735716.412,84.473,34.668,21.484,88.379,18.066,0
1542735716.416,78.613,24.414,20.996,54.199,41.504,0
1542735716.420,63.477,20.508,15.625,65.430,47.852,0
1542735716.424,64.941,35.156,16.602,74.707,21.484,0
1542735716.428,87.402,45.410,19.531,72.754,-5.371,0
1542735716.432,90.820,43.457,25.391,81.543,-38.086,0
1542735716.436,80.078,48.828,26.855,82.031,-76.172,0
1542735716.440,87.402,48.340,20.020,68.359,-3.906,0
1542735716.444,82.520,41.992,20.508,74.707,58.105,0
1542735716.448,79.590,36.133,18.555,94.727,44.434,0
1542735716.451,98.145,36.621,20.996,103.516,57.129,0
1542735716.455,88.867,42.969,25.879,82.031,115.723,0
1542735716.459,89.844,46.387,27.344,71.289,86.914,0
1542735716.463,105.469,38.574,30.273,84.961,19.531,0
1542735716.467,70.312,30.273,27.832,72.266,47.852,0
1542735716.471,75.684,31.738,29.297,78.125,-15.625,0
1542735716.475,104.004,31.250,30.762,94.238,-33.203,0
1542735716.479,105.957,37.598,25.391,91.797,25.391,0
1542735716.483,92.773,44.922,24.902,76.660,21.973,0
1542735716.487,74.219,39.062,21.973,60.547,4.883,0
1542735716.491,84.961,42.969,13.672,74.219,56.641,0
1542735716.494,88.379,42.480,11.719,84.961,50.781,0
1542735716.498,90.332,29.785,20.020,89.355,9.766,0
1542735716.502,97.168,20.508,29.297,92.285,19.043,0
1542735716.506,85.449,23.926,23.926,80.566,69.824,0
1542735716.510,97.656,37.598,11.719,39.551,76.660,0
1542735716.514,113.281,45.410,5.859,60.547,34.180,0
1542735716.518,91.309,43.457,5.371,83.496,34.668,0
1542735716.522,93.750,40.527,5.859,69.336,24.414,0
1542735716.526,110.352,46.387,8.789,95.703,23.926,0
1542735716.530,105.957,42.969,15.137,86.426,37.109,0
1542735716.533,82.520,41.504,20.020,70.801,62.500,0
1542735716.537,85.449,43.945,20.996,70.312,66.406,0
1542735716.541,88.379,39.551,18.066,78.613,62.012,0
1542735716.545,94.238,35.156,15.137,87.891,88.867,0
1542735716.549,104.492,34.668,13.184,84.473,67.383,0
1542735716.553,106.934,38.086,18.066,89.844,26.367,0
1542735716.557,101.562,41.016,21.484,93.750,51.758,0
1542735716.561,106.445,43.457,21.973,91.309,113.281,0
1542735716.565,113.770,39.062,25.879,75.684,122.070,0
1542735716.569,100.098,35.156,24.414,58.105,67.383,0
1542735716.573,96.191,34.180,26.367,84.473,24.414,0
1542735716.576,100.586,38.086,27.344,75.684,11.719,0
1542735716.580,108.398,38.574,22.461,55.176,85.449,0
1542735716.584,105.957,39.062,19.043,84.473,93.262,0
1542735716.588,83.008,41.504,18.555,101.562,55.176,0
1542735716.592,80.078,34.180,20.996,84.473,105.469,0
1542735716.596,86.914,32.227,15.137,56.152,102.539,0
1542735716.600,87.402,35.645,10.742,56.152,63.477,0
1542735716.604,97.656,34.180,11.230,61.035,31.738,0
1542735716.608,95.215,28.320,12.695,62.988,11.719,0
1542735716.612,89.355,26.367,11.230,75.195,-20.996,0
1542735716.616,80.566,25.879,9.277,68.359,51.270,0
1542735716.619,79.590,23.926,11.230,57.617,84.961,0
1542735716.623,82.520,29.785,13.672,64.941,82.520,0
1542735716.627,78.613,30.762,17.578,70.312,100.586,0
1542735716.631,87.402,27.344,19.043,74.219,56.152,0
1542735716.635,75.195,23.926,17.090,75.195,-8.789,0
1542735716.639,79.590,25.391,17.578,71.777,-1.465,0
1542735716.643,76.172,26.855,13.184,58.105,20.996,0
1542735716.647,69.336,26.855,13.184,46.875,47.363,0
1542735716.651,80.078,32.715,21.973,58.594,34.180,0
1542735716.655,75.684,34.180,23.926,51.758,50.781,0
1542735716.658,68.848,34.180,24.414,59.570,77.637,0
1542735716.662,56.641,32.715,23.438,77.637,5.859,0
1542735716.666,63.965,33.203,19.043,51.758,22.461,0
1542735716.670,62.500,33.203,20.508,36.133,57.129,0
1542735716.674,62.500,32.715,18.555,47.363,27.832,0
1542735716.678,81.543,35.645,10.254,46.875,28.809,0
1542735716.682,81.543,39.062,9.766,44.922,27.344,0
1542735716.686,57.129,36.621,11.719,59.570,0.000,0
1542735716.690,66.895,27.344,6.836,76.660,16.602,0
1542735716.694,92.285,26.855,8.301,77.637,89.355,0
1542735716.698,53.711,25.879,25.391,41.504,88.379,0
1542735716.701,3.906,13.184,22.949,7.812,-5.859,0
1542735716.705,-0.977,8.301,8.789,-8.301,19.043,0
1542735716.709,-0.977,12.695,8.301,-8.789,95.703,0
1542735716.713,-17.090,11.719,9.766,-17.578,55.176,0
1542735716.717,-35.645,2.441,11.719,-38.574,34.180,0
1542735716.721,-23.438,-4.883,12.207,-35.645,52.246,0
1542735716.725,-31.250,-7.324,8.301,-35.645,70.801,0
1542735716.729,-33.203,-3.906,4.883,-25.391,45.410,0
1542735716.733,-16.113,-0.977,3.418,-27.832,38.086,0
1542735716.737,-33.203,-10.742,4.883,-41.016,111.816,0
1542735716.741,-11.719,-8.789,8.789,-22.461,37.109,0
1542735716.744,13.672,-0.488,10.742,3.418,46.875,0
1542735716.748,15.137,-0.977,7.812,24.902,128.906,0
1542735716.752,29.785,8.301,6.836,41.992,83.984,0
1542735716.756,50.293,16.602,5.371,24.902,-7.324,0
1542735716.760,26.855,16.113,7.812,26.855,36.621,0
1542735716.764,20.996,16.113,8.301,31.738,91.797,0
1542735716.768,32.715,11.230,8.789,15.137,21.973,0
1542735716.772,33.691,7.324,11.230,57.129,41.992,0
1542735716.776,47.363,7.812,12.695,72.754,22.949,0
1542735716.780,43.457,8.301,13.672,39.062,-23.438,0
1542735716.783,48.828,11.719,9.766,45.898,-39.062,0
1542735716.787,46.875,16.602,10.254,46.875,12.207,0
1542735716.791,41.016,15.137,13.672,61.523,23.926,0
1542735716.795,34.668,15.625,15.137,71.777,-43.457,0
1542735716.799,42.969,21.484,9.766,45.410,-30.762,0
1542735716.803,41.504,22.461,7.324,42.969,25.391,0
1542735716.807,30.762,20.996,9.277,52.246,34.180,0
1542735716.811,46.387,20.508,7.812,35.156,37.109,0
1542735716.815,81.055,21.973,8.301,41.504,2.930,0
1542735716.819,63.965,24.902,9.277,65.430,17.090,0
1542735716.823,38.574,25.391,10.254,75.684,38.574,0
1542735716.826,63.477,21.484,11.230,71.777,-22.949,0
1542735716.830,62.012,16.602,14.160,82.031,-9.766,0
1542735716.834,60.547,16.602,19.043,85.938,-7.324,0
1542735716.838,59.570,14.648,19.043,72.754,42.480,0
1542735716.842,51.758,14.648,17.090,52.246,67.383,0
1542735716.846,46.875,17.578,16.113,47.363,18.066,0
1542735716.850,57.617,18.555,19.043,51.758,39.551,0
1542735716.854,54.688,19.531,21.973,55.176,33.691,0
1542735716.858,65.918,23.926,18.555,61.523,20.508,0
1542735716.862,81.543,24.414,18.555,76.660,30.762,0
1542735716.866,64.453,20.020,25.879,82.031,51.270,0
1542735716.869,57.129,19.531,23.438,73.730,56.641,0
1542735716.873,46.387,17.578,13.672,75.684,62.012,0
1542735716.877,45.898,16.113,13.184,66.406,42.480,0
1542735716.881,52.734,21.973,16.113,43.945,-7.324,0
1542735716.885,64.941,24.902,16.113,38.574,9.766,0
1542735716.889,79.102,26.367,18.555,69.824,55.176,0
1542735716.893,72.266,30.273,16.602,83.984,31.738,0
1542735716.897,72.754,25.879,13.184,71.289,-0.488,0
1542735716.901,69.824,28.809,15.625,72.266,32.715,0
1542735716.905,51.758,31.738,17.090,74.219,82.031,0
1542735716.908,54.688,25.879,13.672,49.805,135.254,0
1542735716.912,53.223,29.297,11.230,40.039,53.223,0
1542735716.916,57.129,26.855,16.113,68.359,13.672,0
1542735716.920,63.965,20.508,19.043,70.312,54.688,0
1542735716.924,62.500,23.438,16.113,64.453,26.367,0
1542735716.928,61.523,25.391,17.090,66.895,9.766,0
1542735716.932,35.645,26.855,17.578,52.734,-0.488,0
1542735716.936,47.852,27.344,14.160,50.781,54.688,0
1542735716.940,58.594,23.926,16.113,64.453,53.711,0
1542735716.944,45.898,27.344,19.043,63.477,11.230,0
1542735716.948,47.852,32.715,16.602,71.777,78.125,0
1542735716.951,42.480,28.320,19.531,71.777,85.449,0
1542735716.955,46.875,25.879,23.438,46.387,35.156,0
1542735716.959,46.387,31.250,21.973,19.531,63.965,0
1542735716.963,37.598,29.785,17.578,26.367,79.102,0
1542735716.967,34.668,22.949,19.531,47.363,33.691,0
1542735716.971,41.504,24.414,21.973,48.828,-19.531,0
1542735716.975,51.270,26.367,19.531,40.527,43.945,0
1542735716.979,41.992,26.855,21.973,52.734,64.941,0
1542735716.983,37.598,27.344,20.996,55.176,65.430,0
1542735716.987,47.852,23.438,19.043,46.387,80.078,0
1542735716.991,49.316,23.438,22.461,62.500,55.664,0
1542735716.994,36.133,26.367,24.414,73.730,39.551,0
1542735716.998,35.156,33.691,22.461,65.430,66.895,0
1542735717.002,42.969,37.109,19.043,56.152,59.082,0
1542735717.006,37.598,33.691,14.160,62.012,4.883,0
1542735717.010,31.738,33.691,13.184,60.547,42.969,0
1542735717.014,29.785,32.715,19.043,58.594,41.992,0
1542735717.018,34.180,26.367,15.137,72.754,42.969,0
1542735717.022,36.133,21.973,14.160,73.730,50.781,0
1542735717.026,32.715,20.996,19.531,59.082,21.973,0
1542735717.030,35.156,20.508,18.555,74.219,48.340,0
1542735717.033,32.227,17.578,20.996,71.289,28.320,0
1542735717.037,20.508,18.555,21.484,31.738,43.457,0
1542735717.041,23.438,25.391,20.020,41.992,35.645,0
1542735717.045,52.246,31.250,18.555,71.777,-3.418,0
1542735717.049,59.082,32.715,17.090,71.777,39.551,0
1542735717.053,39.551,32.227,15.625,62.012,57.617,0
1542735717.057,38.574,30.762,14.160,59.082,25.391,0
1542735717.061,31.738,30.762,17.090,64.453,-15.625,0
1542735717.065,24.902,33.203,19.043,66.895,7.324,0
1542735717.069,25.391,35.645,18.555,67.383,56.152,0
1542735717.073,31.250,39.062,17.578,62.988,-18.555,0
1542735717.076,41.992,40.039,17.578,72.754,-34.668,0
1542735717.080,46.387,32.227,18.555,74.707,13.184,0
1542735717.084,31.738,26.367,14.160,58.594,32.715,0
1542735717.088,25.391,29.297,9.766,64.453,16.113,0
1542735717.092,35.645,29.297,19.531,72.754,52.246,0
1542735717.096,52.246,27.344,21.973,71.777,80.566,0
1542735717.100,57.129,31.250,16.602,75.684,12.695,0
1542735717.104,41.992,36.133,17.090,54.688,13.672,0
1542735717.108,18.066,35.156,21.973,39.062,38.574,0
1542735717.112,19.531,36.621,22.461,70.801,63.477,0
1542735717.116,22.461,36.133,16.602,65.918,62.988,0
1542735717.119,32.227,34.180,15.137,57.617,33.203,0
1542735717.123,36.133,33.203,13.184,69.336,46.875,0
1542735717.127,29.297,32.715,13.672,63.477,57.617,0
1542735717.131,42.480,31.738,18.555,47.363,56.152,0
1542735717.135,50.293,29.785,16.113,55.664,86.426,0
1542735717.139,41.504,29.297,11.719,57.129,10.742,0
1542735717.143,40.039,29.785,15.137,58.594,-66.895,0
1542735717.147,47.852,31.250,20.020,77.637,42.969,0
1542735717.151,40.039,29.297,21.484,73.730,88.379,0
1542735717.155,39.062,32.227,14.648,64.453,24.414,0
1542735717.158,51.758,32.715,18.555,63.477,-4.883,0
1542735717.162,45.898,33.203,21.973,64.941,-60.059,0
1542735717.166,47.363,37.598,13.672,68.848,-40.527,0
1542735717.170,60.547,38.086,15.137,78.125,42.969,0
1542735717.174,56.152,35.156,15.625,80.078,22.949,0
1542735717.178,41.504,26.855,10.742,71.777,-2.441,0
1542735717.182,48.340,26.367,5.859,55.176,-5.371,0
1542735717.186,59.570,28.809,9.277,61.523,-2.930,0
1542735717.190,70.801,32.227,11.719,80.566,36.133,0
1542735717.194,71.777,33.691,6.836,83.984,36.621,0
1542735717.198,63.477,32.715,9.277,78.613,43.457,0
1542735717.201,57.129,35.645,12.695,86.426,13.184,0
1542735717.205,61.035,36.133,15.137,82.031,27.832,0
1542735717.209,83.496,33.691,17.578,72.754,22.461,0
1542735717.213,71.289,26.855,14.160,84.961,20.996,0
1542735717.217,63.965,23.926,14.160,96.680,89.355,0
1542735717.221,67.871,24.902,13.672,89.355,71.289,0
1542735717.225,64.453,24.414,9.277,71.289,18.555,0
1542735717.229,64.453,24.414,11.230,71.777,-0.488,0
1542735717.233,78.125,33.203,15.137,85.449,17.578,0
1542735717.237,60.059,39.062,18.066,80.566,17.090,0
1542735717.241,44.434,31.738,17.578,68.848,-0.488,0
1542735717.244,56.152,32.715,16.602,83.008,11.719,0
1542735717.248,56.641,39.062,15.137,84.473,27.832,0
1542735717.252,55.664,39.062,13.672,80.566,56.152,0
1542735717.256,69.336,29.785,11.719,81.055,52.734,0
1542735717.260,85.938,30.273,9.277,90.332,15.625,0
1542735717.264,73.242,40.039,10.254,96.191,23.438,0
1542735717.268,65.918,40.527,17.578,94.238,5.371,0
1542735717.272,83.008,42.480,21.973,102.051,0.488,0
1542735717.276,80.566,41.504,24.414,99.121,14.648,0
1542735717.280,67.871,33.691,29.297,100.586,41.992,0
1542735717.283,74.219,32.715,26.367,99.121,82.031,0
1542735717.287,81.055,35.156,21.973,82.520,24.414,0
1542735717.291,75.195,31.738,21.484,70.801,9.766,0
1542735717.295,78.125,32.227,22.461,76.172,6.348,0
1542735717.299,76.660,41.016,20.020,85.449,-8.789,0
1542735717.303,57.129,40.039,17.090,96.191,65.918,0
1542735717.307,51.270,33.203,23.926,97.656,71.777,0
1542735717.311,60.059,36.621,19.531,71.777,33.203,0
1542735717.315,64.941,40.527,12.695,72.754,28.320,0
1542735717.319,68.359,42.969,21.484,71.289,24.902,0
1542735717.323,65.430,40.527,23.926,65.918,31.250,0
1542735717.326,66.406,34.668,22.461,75.195,29.297,0
1542735717.330,60.547,32.715,17.090,69.824,22.461,0
1542735717.334,75.195,30.762,12.695,84.473,53.223,0
1542735717.338,82.520,29.785,18.555,99.121,47.852,0
1542735717.342,60.547,32.227,20.996,88.379,72.754,0
1542735717.346,67.871,35.156,15.137,91.309,68.848,0
1542735717.350,62.988,37.598,17.578,89.844,44.922,0
1542735717.354,59.570,33.203,20.996,64.941,2.441,0
1542735717.358,62.988,30.273,17.090,76.172,-16.113,0
1542735717.362,46.387,34.668,15.137,93.750,24.414,0
1542735717.366,56.152,38.574,9.277,80.078,24.414,0
1542735717.369,65.918,44.922,8.789,70.801,28.320,0
1542735717.373,67.383,45.898,17.090,76.172,18.066,0
1542735717.377,54.688,40.527,20.508,83.984,20.996,0
1542735717.381,47.363,39.551,18.555,81.543,63.477,0
1542735717.385,50.293,38.086,14.160,71.777,92.285,0
1542735717.389,56.641,37.109,13.184,84.961,94.727,0
1542735717.393,51.270,39.062,15.625,84.473,66.406,0
1542735717.397,50.781,40.039,12.207,52.734,35.156,0
1542735717.401,48.828,43.457,13.672,48.828,29.785,0
1542735717.405,56.152,47.363,15.625,62.988,43.945,0
1542735717.408,69.336,49.316,10.254,55.176,16.113,0
1542735717.412,60.059,47.852,12.695,75.195,70.312,0
1542735717.416,63.477,48.340,19.043,92.773,111.816,0
1542735717.420,65.430,47.852,16.602,83.984,74.219,0
1542735717.424,48.828,41.992,18.066,75.684,61.523,0
1542735717.428,56.152,42.480,21.973,78.613,72.266,0
1542735717.432,57.617,39.062,18.555,84.961,113.281,0
1542735717.436,51.270,38.574,13.184,85.938,85.449,0
1542735717.440,61.523,36.621,14.648,79.102,31.250,0
1542735717.444,59.082,23.438,19.043,52.734,35.645,0
1542735717.448,52.246,24.902,17.578,47.852,-11.719,0
1542735717.451,57.617,28.320,17.090,67.871,-27.832,0
1542735717.455,62.988,24.414,21.973,80.078,21.484,0
1542735717.459,41.504,21.973,26.367,88.379,11.719,0
1542735717.463,43.457,23.438,24.902,71.289,-10.254,0
1542735717.467,61.035,27.344,23.438,59.082,58.105,0
1542735717.471,53.223,23.926,22.461,63.477,71.289,0
1542735717.475,50.293,18.555,20.996,75.195,26.855,0
1542735717.479,61.523,19.531,22.461,86.914,31.250,0
1542735717.483,55.664,19.043,19.043,77.148,48.340,0
1542735717.487,51.270,14.648,16.113,43.457,21.973,0
1542735717.491,51.758,14.648,16.602,32.227,48.340,0
1542735717.494,44.922,19.531,12.207,52.246,62.500,0
1542735717.498,50.781,20.508,10.742,70.801,80.566,0
1542735717.502,50.293,20.996,13.672,82.520,77.637,0
1542735717.506,54.688,23.438,12.695,88.867,104.004,0
1542735717.510,72.266,20.508,10.254,55.664,79.102,0
1542735717.514,55.664,15.625,10.742,51.270,-22.949,0
1542735717.518,46.875,19.043,11.719,73.242,-26.367,0
1542735717.522,44.434,22.949,9.766,67.383,2.441,0
1542735717.526,43.945,22.461,12.207,67.871,58.105,0
1542735717.530,56.152,22.461,16.602,47.852,116.211,0
1542735717.533,59.082,29.785,12.207,50.781,91.309,0
1542735717.537,53.711,33.691,12.207,72.754,64.941,0
1542735717.541,48.340,26.855,20.996,65.918,61.523,0
1542735717.545,47.852,25.391,21.484,57.129,72.754,0
1542735717.549,43.945,25.879,20.020,47.852,43.457,0
1542735717.553,56.152,27.832,17.090,53.223,-11.719,0
1542735717.557,37.598,26.367,13.184,67.383,-21.973,0
1542735717.561,40.527,24.902,11.719,63.477,58.594,0
1542735717.565,57.129,35.645,12.207,62.988,116.699,0
1542735717.569,45.898,36.621,14.160,75.195,88.379,0
1542735717.573,46.387,32.227,19.531,72.754,12.695,0
1542735717.576,41.504,30.273,23.438,51.758,35.156,0
1542735717.580,46.875,23.438,21.973,45.410,68.848,0
1542735717.584,48.828,21.973,14.648,35.645,25.879,0
1542735717.588,35.156,25.391,5.371,41.016,83.008,0
1542735717.592,39.551,20.996,10.254,75.684,44.922,0
1542735717.596,47.852,16.113,17.578,81.055,-26.367,0
1542735717.600,39.551,19.531,15.625,74.219,-13.184,0
1542735717.604,31.738,21.973,12.207,57.617,9.277,0
1542735717.608,33.203,20.996,10.254,58.105,43.945,0
1542735717.612,41.992,19.043,14.648,79.590,23.438,0
1542735717.616,53.711,15.625,20.508,74.219,27.344,0
1542735717.619,56.152,14.648,20.020,64.941,4.883,0
1542735717.623,48.828,21.484,18.066,64.941,7.324,0
1542735717.627,47.852,28.320,14.648,37.598,45.410,0
1542735717.631,55.176,30.762,10.742,18.066,59.082,0
1542735717.635,74.219,24.414,13.672,77.637,34.180,0
1542735717.639,79.102,25.879,18.066,102.051,16.113,0
1542735717.643,55.176,28.809,17.090,73.730,-2.441,0
1542735717.647,42.480,25.879,14.648,55.176,-55.664,0
1542735717.651,65.918,33.203,11.719,78.125,-17.578,0
1542735717.655,72.754,42.480,3.906,82.520,20.508,0
1542735717.658,91.797,41.992,0.977,97.168,6.836,0
1542735717.662,116.699,40.039,4.883,148.926,40.039,0
1542735717.666,117.188,44.922,1.465,152.832,50.293,0
1542735717.670,121.094,45.410,-4.883,114.746,37.109,0
1542735717.674,121.582,44.434,-2.441,122.070,-1.953,0
1542735717.678,117.676,48.340,7.812,148.438,-40.039,0
1542735717.682,113.281,48.828,15.625,117.676,22.461,0
1542735717.686,99.609,45.898,15.137,89.355,57.129,0
1542735717.690,92.773,37.109,18.555,106.445,24.902,0
1542735717.694,108.887,38.086,20.508,110.840,67.383,0
1542735717.698,100.098,40.527,19.531,89.355,45.898,0
1542735717.701,86.426,39.062,16.113,91.309,-6.836,0
1542735717.705,87.402,33.691,17.578,108.398,38.086,0
1542735717.709,81.055,28.320,26.367,118.164,21.484,0
1542735717.713,84.473,33.203,30.273,118.164,2.441,0
1542735717.717,97.656,36.621,29.297,115.234,9.277,0
1542735717.721,99.121,35.645,19.531,107.422,35.645,0
1542735717.725,92.773,33.691,15.625,109.375,86.426,0
1542735717.729,102.051,38.086,22.461,107.422,104.980,0
1542735717.733,97.656,33.203,24.902,107.910,73.242,0
1542735717.737,87.402,27.832,20.508,111.328,57.617,0
1542735717.741,87.402,32.227,22.949,92.773,62.500,0
1542735717.744,108.887,28.320,26.367,99.121,-8.301,0
1542735717.748,90.820,19.531,24.414,87.891,-32.715,0
1542735717.752,74.219,20.020,24.902,59.082,-11.719,0
1542735717.756,77.148,18.066,28.320,76.660,8.301,0
1542735717.760,66.406,18.066,20.996,91.309,-13.672,0
1542735717.764,74.219,17.578,20.508,83.984,25.391,0
1542735717.768,87.402,20.996,24.414,85.449,84.473,0
1542735717.772,97.168,27.832,22.461,89.844,36.621,0
1542735717.776,78.125,20.996,25.879,71.777,48.828,0
1542735717.780,73.730,19.043,25.879,82.031,47.852,0
1542735717.783,83.984,22.949,21.973,92.285,-8.301,0
1542735717.787,74.707,27.344,20.020,52.734,-1.465,0
1542735717.791,86.426,32.715,17.578,70.312,18.066,0
1542735717.795,78.613,27.832,20.508,96.191,30.762,0
1542735717.799,56.641,20.508,25.879,97.168,80.566,0
1542735717.803,71.289,21.973,18.066,89.844,100.586,0
1542735717.807,76.660,25.879,15.625,81.055,53.223,0
1542735717.811,86.426,33.203,16.602,77.148,-4.883,0
1542735717.815,85.938,32.715,14.648,69.336,27.832,0
1542735717.819,76.172,19.531,24.414,85.449,63.477,0
1542735717.823,90.820,23.438,28.320,88.867,59.082,0
1542735717.826,64.453,32.227,24.414,63.965,48.340,0
1542735717.830,40.527,29.297,19.531,43.457,18.555,0
1542735717.834,64.941,31.250,13.672,43.457,59.570,0
1542735717.838,54.199,37.109,9.277,61.523,98.633,0
1542735717.842,42.480,40.039,9.277,58.594,92.285,0
1542735717.846,50.781,39.551,12.695,52.734,48.828,0
1542735717.850,55.176,38.574,10.254,63.477,39.062,0
1542735717.854,66.406,36.621,10.254,55.664,55.176,0
1542735717.858,62.500,36.621,13.184,62.500,35.645,0
1542735717.862,58.594,33.691,14.648,67.871,7.324,0
1542735717.866,65.918,34.668,13.672,50.293,20.508,0
1542735717.869,70.312,35.645,13.184,56.152,16.113,0
1542735717.873,74.707,31.250,17.578,73.242,-0.488,0
1542735717.877,61.035,30.762,20.020,73.242,-7.812,0
1542735717.881,56.641,34.668,15.137,83.984,4.395,0
1542735717.885,69.824,36.621,13.184,83.496,35.156,0
1542735717.889,69.824,32.715,18.555,72.754,19.043,0
1542735717.893,57.617,36.133,13.672,74.707,-13.184,0
1542735717.897,55.176,44.922,7.324,74.707,26.367,0
1542735717.901,61.523,41.016,8.301,68.848,45.898,0
1542735717.905,58.594,32.715,11.719,72.266,35.156,0
1542735717.908,73.730,27.832,14.648,76.660,13.672,0
1542735717.912,70.312,28.809,10.254,65.918,-17.578,0
1542735717.916,51.758,32.227,9.766,73.242,18.066,0
1542735717.920,58.594,28.809,9.766,74.219,67.383,0
1542735717.924,84.961,28.320,12.695,66.895,36.133,0
1542735717.928,95.703,28.809,18.066,72.266,1.465,0
1542735717.932,72.754,30.273,13.184,59.570,68.359,0
1542735717.936,63.965,32.227,14.160,62.012,84.473,0
1542735717.940,65.430,29.297,22.461,81.055,77.148,0
1542735717.944,60.059,28.809,20.508,77.637,60.547,0
1542735717.948,58.105,24.414,14.648,73.730,21.484,0
1542735717.951,51.758,19.531,14.160,80.566,16.602,0
1542735717.955,66.895,27.832,14.648,80.566,7.324,0
1542735717.959,76.172,36.621,16.113,62.012,45.410,0
1542735717.963,65.918,35.156,21.484,75.195,21.484,0
1542735717.967,64.941,32.227,20.996,80.566,0.977,0
1542735717.971,60.059,33.691,19.531,69.824,7.812,0
1542735717.975,52.734,31.250,20.020,78.613,16.602,0
1542735717.979,66.895,30.273,21.484,67.871,74.219,0
1542735717.983,74.707,33.691,24.414,73.730,92.773,0
1542735717.987,61.035,33.691,20.508,82.520,67.383,0
1542735717.991,57.617,33.691,18.066,80.566,34.180,0
1542735717.994,62.500,35.645,19.531,81.055,67.383,0
1542735717.998,68.359,34.668,15.137,83.496,78.613,0
1542735718.002,64.453,26.855,17.578,90.820,56.152,0
1542735718.006,64.941,23.926,20.508,65.918,41.992,0
1542735718.010,74.219,28.809,14.648,59.082,60.547,0
1542735718.014,68.848,28.809,11.719,73.730,76.660,0
1542735718.018,58.594,27.832,14.648,88.379,62.500,0
1542735718.022,56.152,25.391,19.531,87.402,27.832,0
1542735718.026,59.082,18.066,18.066,49.805,30.273,0
1542735718.030,61.523,17.578,12.207,37.109,49.805,0
1542735718.033,68.848,19.043,13.184,66.895,54.688,0
1542735718.037,60.059,20.508,15.625,76.660,47.363,0
1542735718.041,49.805,18.555,12.695,77.148,10.254,0
1542735718.045,60.059,14.160,14.648,80.566,-30.273,0
1542735718.049,51.270,16.113,13.184,73.242,-29.297,0
1542735718.053,54.688,16.602,14.648,84.961,-7.324,0
1542735718.057,60.059,17.578,17.090,69.824,-20.996,0
1542735718.061,60.547,19.043,15.137,50.781,22.949,0
1542735718.065,68.359,17.578,12.695,64.941,8.789,0
1542735718.069,62.988,17.090,11.230,73.730,-32.227,0
1542735718.073,55.176,22.461,14.160,81.543,52.734,0
1542735718.076,65.918,28.809,12.207,68.359,68.848,0
1542735718.080,81.543,29.785,10.742,68.359,86.426,0
1542735718.084,89.355,27.344,13.672,88.379,126.953,0
1542735718.088,72.266,24.414,15.137,78.613,57.617,0
1542735718.092,62.988,26.855,13.184,72.266,44.922,0
1542735718.096,90.332,27.832,12.695,83.008,31.250,0
1542735718.100,75.195,20.996,25.879,80.566,33.203,0
1542735718.104,46.387,13.672,38.086,52.734,41.504,0
1542735718.108,51.270,8.301,33.203,31.738,26.855,0
1542735718.112,51.758,9.766,26.855,53.223,48.828,0
1542735718.116,43.457,7.324,28.809,68.359,65.918,0
1542735718.119,48.828,4.395,31.738,70.801,53.223,0
1542735718.123,60.547,12.207,34.668,62.988,5.859,0
1542735718.127,54.199,14.160,33.691,67.871,27.832,0
1542735718.131,56.641,8.301,31.250,90.820,20.508,0
1542735718.135,67.383,11.230,30.273,79.102,6.836,0
1542735718.139,75.195,15.137,34.668,76.660,38.574,0
1542735718.143,74.219,18.555,38.574,89.844,42.969,0
1542735718.147,66.895,20.020,29.297,79.590,51.270,0
1542735718.151,68.359,15.137,23.438,66.406,75.195,0
1542735718.155,62.500,18.066,24.902,68.848,67.383,0
1542735718.158,76.660,25.391,27.832,69.336,54.688,0
1542735718.162,91.309,30.762,24.902,74.219,35.645,0
1542735718.166,81.055,28.320,20.996,95.703,33.691,0
1542735718.170,63.477,25.879,25.879,99.609,39.551,0
1542735718.174,62.012,29.785,21.973,92.773,43.457,0
1542735718.178,67.871,26.855,20.996,77.148,83.008,0
1542735718.182,55.664,22.949,23.926,64.453,88.867,0
1542735718.186,61.523,23.438,20.996,80.078,-7.324,0
1542735718.190,68.848,28.809,16.602,88.867,14.160,0
1542735718.194,56.641,32.227,13.672,88.867,79.102,0
1542735718.198,72.754,35.156,18.066,83.496,49.316,0
1542735718.201,70.312,39.551,20.508,81.543,33.203,0
1542735718.205,48.828,41.504,19.043,76.172,122.559,0
1542735718.209,61.523,46.875,17.578,50.781,121.094,0
1542735718.213,66.406,44.434,23.438,45.410,64.453,0
1542735718.217,63.965,35.645,22.949,50.293,42.969,0
1542735718.221,60.547,33.691,22.949,62.988,48.828,0
1542735718.225,63.965,31.250,26.855,77.148,107.422,0
1542735718.229,62.500,33.203,24.902,80.078,82.520,0
1542735718.233,60.547,33.203,21.484,73.242,65.430,0
1542735718.237,71.289,29.297,20.508,62.500,42.969,0
1542735718.241,77.148,32.715,24.902,76.172,43.457,0
1542735718.244,70.801,32.715,29.297,84.961,73.242,0
1542735718.248,77.148,29.297,27.832,80.566,41.504,0
1542735718.252,78.613,28.809,23.438,80.566,3.906,0
1542735718.256,58.105,25.391,22.949,81.543,26.367,0
1542735718.260,62.988,23.926,22.949,81.055,45.410,0
1542735718.264,65.918,23.438,21.973,78.125,29.297,0
1542735718.268,61.035,21.973,25.391,79.102,28.320,0
1542735718.272,67.871,25.879,25.879,71.777,-0.488,0
1542735718.276,66.406,27.344,24.414,50.293,-39.551,0
1542735718.280,66.406,26.367,15.137,49.316,-24.902,0
1542735718.283,69.336,25.879,16.602,61.035,42.969,0
1542735718.287,61.035,21.973,25.391,61.035,62.012,0
1542735718.291,46.387,19.531,22.949,65.918,62.012,0
1542735718.295,49.316,20.508,22.461,69.336,81.055,0
1542735718.299,57.129,20.996,19.531,60.547,56.641,0
1542735718.303,63.477,16.602,19.531,59.082,31.738,0
1542735718.307,66.406,19.531,15.625,69.824,71.289,0
1542735718.311,65.430,23.926,16.602,80.566,24.414,0
1542735718.315,58.594,23.438,18.555,80.078,-34.668,0
1542735718.319,41.504,26.367,15.137,58.105,-30.273,0
1542735718.323,47.363,27.832,15.137,54.688,4.883,0
1542735718.326,66.406,32.227,16.113,62.012,39.551,0
1542735718.330,65.918,35.645,15.137,45.410,24.414,0
1542735718.334,61.035,30.762,18.555,62.500,16.602,0
1542735718.338,57.129,30.273,23.926,75.684,50.781,0
1542735718.342,50.781,34.668,23.438,81.055,61.523,0
1542735718.346,61.523,31.738,21.973,103.516,7.812,0
1542735718.350,58.594,29.785,25.391,72.754,-9.277,0
1542735718.354,53.711,36.621,26.855,46.875,-1.465,0
1542735718.358,59.082,39.551,23.438,66.406,12.207,0
1542735718.362,60.059,40.527,24.414,66.406,21.484,0
1542735718.366,68.359,45.410,29.297,68.848,35.156,0
1542735718.369,76.172,42.969,29.297,70.312,-12.207,0
1542735718.373,69.336,38.574,28.320,72.754,-14.648,0
1542735718.377,71.289,44.434,26.855,65.430,46.387,0
1542735718.381,65.918,46.387,21.973,44.922,31.738,0
1542735718.385,54.688,43.457,23.438,64.941,55.176,0
1542735718.389,63.477,44.434,27.832,84.961,69.336,0
1542735718.393,59.570,41.016,27.832,66.895,20.996,0
1542735718.397,62.500,36.621,27.832,51.270,26.855,0
1542735718.401,66.406,40.527,23.438,41.016,52.734,0
1542735718.405,69.336,41.504,20.996,55.664,48.340,0
1542735718.408,68.359,33.203,24.414,81.543,12.207,0
1542735718.412,62.988,33.691,19.531,83.984,31.738,0
1542735718.416,59.082,31.250,16.602,73.242,23.926,0
1542735718.420,50.293,24.902,15.137,75.684,36.621,0
1542735718.424,56.152,26.855,16.113,73.730,52.734,0
1542735718.428,62.012,28.320,21.973,82.520,20.996,0
1542735718.432,58.594,27.344,20.996,79.102,62.500,0
1542735718.436,64.941,31.738,17.090,63.965,93.750,0
1542735718.440,58.594,34.180,13.672,65.918,82.520,0
1542735718.444,61.035,22.949,11.230,66.895,88.867,0
1542735718.448,67.383,20.508,13.184,54.688,52.246,0
1542735718.451,59.082,31.250,18.066,68.848,54.199,0
1542735718.455,59.082,33.203,18.555,81.543,90.332,0
1542735718.459,59.082,33.691,19.531,79.590,102.051,0
1542735718.463,61.523,40.039,20.508,71.289,71.289,0
1542735718.467,67.871,43.457,22.461,85.938,62.012,0
1542735718.471,60.547,41.016,21.973,86.426,32.715,0
1542735718.475,46.387,36.621,19.531,61.523,15.137,0
1542735718.479,42.480,33.203,18.555,65.430,19.043,0
1542735718.483,52.734,32.227,21.973,73.242,22.949,0
1542735718.487,61.035,33.691,20.020,53.711,70.801,0
1542735718.491,52.734,33.691,16.602,49.316,57.129,0
1542735718.494,47.852,34.180,16.602,64.941,3.906,0
1542735718.498,51.758,31.250,16.602,67.871,5.859,0
1542735718.502,60.547,28.320,19.043,68.848,36.621,0
1542735718.506,61.523,31.738,18.066,78.125,-24.902,0
1542735718.510,68.848,36.621,16.602,82.520,-28.320,0
1542735718.514,73.730,36.621,22.461,66.895,1.953,0
1542735718.518,54.199,34.180,23.926,62.500,-1.953,0
1542735718.522,53.711,36.133,21.484,68.848,39.062,0
1542735718.526,69.336,26.855,25.879,80.078,35.156,0
1542735718.530,70.801,25.879,27.832,76.172,55.176,0
1542735718.533,58.105,42.969,14.160,67.383,46.875,0
1542735718.537,58.594,51.758,6.348,71.777,18.066,0
1542735718.541,61.523,55.664,7.324,72.754,62.500,0
1542735718.545,64.941,53.223,4.883,66.895,27.344,0
1542735718.549,61.523,50.293,1.953,61.035,20.996,0
1542735718.553,61.523,50.781,4.883,50.293,47.852,0
1542735718.557,66.406,50.781,3.906,59.570,8.789,0
1542735718.561,55.176,49.805,7.812,87.891,-28.809,0
1542735718.565,72.266,45.410,14.648,72.266,24.414,0
1542735718.569,77.637,45.898,12.695,54.199,40.039,0
1542735718.573,48.340,50.293,10.742,66.406,42.969,0
1542735718.576,50.781,43.945,11.719,76.172,76.172,0
1542735718.580,65.918,40.527,10.254,75.684,47.363,0
1542735718.584,67.383,43.945,13.672,87.402,43.945,0
1542735718.588,49.316,45.410,13.184,83.008,30.762,0
1542735718.592,46.387,38.574,13.184,63.477,33.203,0
1542735718.596,60.059,40.527,14.160,64.453,40.527,0
1542735718.600,68.359,44.434,10.742,71.777,65.430,0
1542735718.604,59.082,33.691,10.742,79.590,107.422,0
1542735718.608,63.965,30.273,13.672,86.426,45.898,0
1542735718.612,70.312,31.250,14.160,70.801,-1.953,0
1542735718.616,50.293,32.715,8.789,74.707,37.598,0
1542735718.619,46.387,36.133,12.207,83.496,61.523,0
1542735718.623,55.664,36.133,19.043,78.613,39.551,0
1542735718.627,50.781,32.227,17.090,70.801,6.348,0
1542735718.631,54.199,33.203,13.672,54.199,-0.488,0
1542735718.635,54.199,37.598,11.719,46.875,49.316,0
1542735718.639,56.152,38.574,10.254,73.242,77.148,0
1542735718.643,65.430,36.621,10.254,87.891,90.820,0
1542735718.647,57.129,35.156,9.766,69.824,73.242,0
1542735718.651,56.152,30.762,9.766,72.754,20.508,0
1542735718.655,62.500,27.344,9.277,82.520,15.625,0
1542735718.658,62.500,32.227,8.789,68.359,-2.441,0
1542735718.662,55.176,36.621,12.695,65.430,-2.441,0
1542735718.666,46.875,37.109,14.648,83.496,12.695,0
1542735718.670,51.758,39.062,16.602,80.078,13.672,0
1542735718.674,62.012,39.062,14.648,60.547,34.668,0
1542735718.678,58.594,38.574,17.578,73.730,22.949,0
1542735718.682,53.223,40.039,20.020,88.867,111.816,0
1542735718.686,53.223,38.574,14.648,64.941,100.586,0
1542735718.690,51.758,39.062,10.254,60.547,53.711,0
1542735718.694,53.711,40.527,13.672,82.031,93.750,0
1542735718.698,56.641,41.992,14.648,73.242,22.949,0
1542735718.701,64.453,43.945,14.160,67.871,31.250,0
1542735718.705,63.965,44.434,20.508,75.684,44.922,0
1542735718.709,48.828,43.945,23.926,92.285,41.992,0
1542735718.713,42.969,38.574,23.926,83.984,46.875,0
1542735718.717,55.664,34.180,26.367,70.801,48.828,0
1542735718.721,54.199,40.039,21.484,83.008,53.711,0
1542735718.725,49.805,43.945,23.438,72.754,-12.695,0
1542735718.729,70.801,40.039,29.785,68.359,9.277,0
1542735718.733,64.941,35.156,27.344,73.730,95.215,0
1542735718.737,50.781,33.203,25.391,62.988,97.656,0
1542735718.741,51.270,32.227,23.438,58.594,55.664,0
1542735718.744,52.246,31.250,23.438,66.895,48.340,0
1542735718.748,43.457,31.738,24.902,57.129,38.086,0
1542735718.752,43.945,35.156,22.461,47.363,-15.625,0
1542735718.756,55.664,35.645,15.625,72.266,-1.953,0
1542735718.760,52.734,35.156,16.602,85.449,42.480,0
1542735718.764,56.152,40.039,22.949,79.590,30.762,0
1542735718.768,65.918,51.270,18.066,77.148,26.855,0
1542735718.772,57.617,52.734,16.113,73.730,24.902,0
1542735718.776,56.641,43.945,16.113,77.637,58.594,0
1542735718.780,54.199,39.551,13.672,72.266,51.758,0
1542735718.783,40.527,36.133,9.277,60.059,20.020,0
1542735718.787,43.945,36.133,7.324,60.059,9.766,0
1542735718.791,53.711,38.574,8.301,63.477,-30.273,0
1542735718.795,62.500,36.621,12.695,69.336,26.367,0
1542735718.799,49.805,32.715,14.160,67.383,56.641,0
1542735718.803,56.152,29.297,13.672,70.312,31.250,0
1542735718.807,65.918,33.691,15.137,73.730,59.082,0
1542735718.811,50.781,37.598,13.672,70.312,81.543,0
1542735718.815,51.758,33.203,13.672,63.965,60.547,0
1542735718.819,70.801,34.180,11.719,67.383,57.617,0
1542735718.823,77.148,41.016,8.789,70.312,39.551,0
1542735718.826,60.547,42.480,13.184,79.102,22.461,0
1542735718.830,50.293,39.551,15.137,92.773,-2.441,0
1542735718.834,55.176,39.062,8.789,83.496,12.695,0
1542735718.838,87.402,41.016,6.348,74.219,-0.488,0
1542735718.842,71.289,40.527,22.949,94.238,-13.184,0
1542735718.846,-3.418,24.902,38.086,53.223,4.395,0
1542735718.850,-40.039,6.836,29.785,-16.602,22.461,0
1542735718.854,-28.320,8.301,18.555,3.418,28.809,0
1542735718.858,-29.297,9.766,17.090,20.996,51.758,0
1542735718.862,-47.363,10.254,16.113,-16.602,51.270,0
1542735718.866,-68.359,12.207,14.648,-44.922,-15.625,0
1542735718.869,-62.012,8.301,14.648,-53.711,15.625,0
1542735718.873,-56.641,4.883,14.648,-48.340,67.871,0
1542735718.877,-71.777,2.441,15.137,-43.457,80.078,0
1542735718.881,-78.125,-2.930,17.578,-35.645,99.121,0
1542735718.885,-70.312,-6.836,17.578,-35.156,48.828,0
1542735718.889,-50.293,-7.812,13.184,-38.574,34.180,0
1542735718.893,-44.434,-7.324,8.789,-21.973,54.688,0
1542735718.897,-38.086,-3.906,12.695,-7.812,23.926,0
1542735718.901,-6.348,0.977,13.672,-2.441,57.617,0
1542735718.905,-10.742,6.348,9.766,2.930,38.086,0
1542735718.908,-21.973,9.766,10.742,12.695,30.762,0
1542735718.912,-5.859,6.836,19.043,23.438,42.969,0
1542735718.916,1.953,6.836,23.926,20.020,76.660,0
1542735718.920,3.906,8.789,20.508,31.738,86.426,0
1542735718.924,14.160,10.742,20.020,33.691,34.180,0
1542735718.928,0.488,13.672,17.090,31.738,26.367,0
1542735718.932,5.371,12.207,13.672,52.734,41.992,0
1542735718.936,24.902,12.695,16.113,67.383,35.645,0
1542735718.940,20.020,10.254,13.672,52.734,15.625,0
1542735718.944,16.113,14.160,11.719,43.945,4.883,0
1542735718.948,23.926,23.926,16.113,32.715,28.809,0
1542735718.951,27.832,25.391,16.113,38.086,10.742,0
1542735718.955,23.926,25.391,15.137,56.641,24.414,0
1542735718.959,25.391,21.484,20.508,52.246,76.660,0
1542735718.963,32.227,20.508,21.973,50.781,19.043,0
1542735718.967,44.922,23.438,23.438,65.430,6.348,0
1542735718.971,45.898,24.902,20.996,61.523,51.270,0
1542735718.975,25.391,24.902,18.066,42.480,54.688,0
1542735718.979,26.367,22.461,19.043,45.898,55.664,0
1542735718.983,39.551,24.902,13.672,44.922,13.672,0
1542735718.987,31.250,29.297,10.254,39.062,1.465,0
1542735718.991,29.297,27.832,12.207,46.387,-1.465,0
1542735718.994,32.227,25.879,11.230,56.152,-8.789,0
1542735718.998,28.320,27.344,11.230,62.988,53.223,0
1542735719.002,44.434,30.762,14.160,54.688,66.406,0
1542735719.006,54.199,32.227,12.207,56.152,17.578,0
1542735719.010,34.180,31.250,8.789,66.406,28.320,0
1542735719.014,37.109,30.273,9.277,63.965,17.578,0
1542735719.018,40.527,32.227,8.789,45.898,-7.812,0
1542735719.022,33.203,29.785,14.648,50.293,18.066,0
1542735719.026,39.062,28.809,21.484,57.617,8.789,0
1542735719.030,45.898,22.949,22.461,58.594,-4.395,0
1542735719.033,47.852,19.531,19.043,50.293,37.109,0
1542735719.037,52.734,29.785,15.625,58.594,80.566,0
1542735719.041,59.570,35.645,13.184,69.336,25.391,0
1542735719.045,59.570,39.062,13.672,72.266,-4.395,0
1542735719.049,50.781,41.504,13.672,64.941,2.930,0
1542735719.053,41.992,41.504,12.207,59.082,-4.883,0
1542735719.057,41.992,41.504,17.578,81.543,38.574,0
1542735719.061,37.109,36.621,20.996,83.008,52.734,0
1542735719.065,39.551,36.133,20.996,69.336,-21.484,0
1542735719.069,55.664,41.504,20.508,65.918,-70.312,0
1542735719.073,59.570,42.480,18.555,46.387,-16.602,0
1542735719.076,62.500,33.203,17.578,51.758,37.598,0
1542735719.080,64.453,33.691,19.043,83.008,66.895,0
1542735719.084,49.316,36.621,22.949,69.824,-0.977,0
1542735719.088,58.594,32.227,28.809,79.590,-54.688,0
1542735719.092,60.059,30.273,28.809,79.590,11.719,0
1542735719.096,51.270,37.109,19.043,51.758,82.031,0
1542735719.100,60.547,41.016,18.555,59.570,75.195,0
1542735719.104,56.641,35.645,20.996,70.312,49.316,0
1542735719.108,47.363,35.156,15.625,64.941,67.871,0
1542735719.112,44.922,31.738,17.090,52.246,96.191,0
1542735719.116,44.922,26.367,20.996,47.852,69.336,0
1542735719.119,43.457,25.879,20.996,63.965,-1.465,0
1542735719.123,46.387,30.762,28.320,78.613,-10.254,0
1542735719.127,41.992,30.762,28.320,71.289,-6.348,0
1542735719.131,42.480,28.809,20.020,42.480,20.020,0
1542735719.135,59.570,33.691,20.508,35.156,102.539,0
1542735719.139,52.734,36.133,21.484,52.734,83.496,0
1542735719.143,38.086,37.109,20.508,72.266,25.391,0
1542735719.147,41.992,36.621,19.043,69.336,26.855,0
1542735719.151,41.504,33.691,17.090,74.707,20.508,0
1542735719.155,44.434,33.691,17.090,83.984,57.617,0
1542735719.158,51.758,36.621,18.555,72.754,40.039,0
1542735719.162,61.035,39.062,12.695,82.520,-6.836,0
1542735719.166,65.430,40.527,7.812,74.219,51.270,0
1542735719.170,59.570,39.062,9.766,60.059,93.750,0
1542735719.174,45.898,42.969,9.277,53.223,65.430,0
1542735719.178,44.922,38.574,10.254,54.688,95.703,0
1542735719.182,35.645,32.227,16.113,67.871,57.129,0
1542735719.186,47.852,37.109,13.672,70.801,26.855,0
1542735719.190,65.918,35.645,7.812,67.871,52.246,0
1542735719.194,52.246,30.273,5.371,73.242,55.176,0
1542735719.198,48.828,27.344,9.277,78.613,76.660,0
1542735719.201,39.551,25.879,18.555,64.941,105.469,0
1542735719.205,55.176,24.414,17.090,68.848,89.355,0
1542735719.209,73.730,23.926,11.230,87.402,-8.789,0
1542735719.213,61.523,26.855,9.277,79.102,-13.184,0
1542735719.217,53.223,33.691,7.324,79.102,84.473,0
1542735719.221,53.711,34.180,10.742,101.562,0.000,0
1542735719.225,55.176,32.227,15.625,84.473,-29.297,0
1542735719.229,58.594,26.367,19.043,64.453,6.348,0
1542735719.233,55.176,18.066,23.926,70.801,-7.812,0
1542735719.237,51.758,19.531,23.438,49.805,17.578,0
1542735719.241,57.617,20.020,20.996,49.316,15.625,0
1542735719.244,61.523,25.879,18.555,88.379,74.707,0
1542735719.248,63.965,30.762,15.137,98.145,72.266,0
1542735719.252,54.199,27.832,19.531,85.449,66.406,0
1542735719.256,62.012,29.785,20.996,83.496,60.059,0
1542735719.260,71.777,31.738,12.695,68.848,-25.879,0
1542735719.264,56.152,35.156,7.812,66.406,-37.598,0
1542735719.268,47.363,41.504,16.113,78.125,18.066,0
1542735719.272,41.504,37.109,23.438,86.914,66.406,0
1542735719.276,40.527,31.250,23.438,86.426,61.035,0
1542735719.280,41.992,32.715,19.043,72.266,66.895,0
1542735719.283,36.621,31.738,17.090,72.266,125.000,0
1542735719.287,36.133,29.785,17.578,71.777,76.172,0
1542735719.291,43.945,38.086,18.066,71.289,-10.742,0
1542735719.295,54.199,40.039,17.090,63.477,5.371,0
1542735719.299,53.711,36.133,12.207,43.457,-4.883,0
1542735719.303,46.875,39.551,25.391,38.086,43.945,0
1542735719.307,47.852,37.109,35.645,62.500,91.797,0
1542735719.311,46.387,46.875,34.180,87.402,44.434,0
1542735719.315,57.617,56.152,33.691,86.426,53.711,0
1542735719.319,61.523,39.062,18.555,53.711,52.734,0
1542735719.323,58.105,25.879,15.137,55.664,18.555,0
1542735719.326,64.453,28.809,15.625,85.938,31.738,0
1542735719.330,57.617,32.227,20.020,94.238,21.973,0
1542735719.334,50.781,37.598,22.461,72.754,21.973,0
1542735719.338,52.246,37.598,18.555,54.199,66.406,0
1542735719.342,58.594,41.016,19.531,76.172,48.828,0
1542735719.346,63.965,43.457,22.949,76.172,4.395,0
1542735719.350,46.387,39.062,23.926,69.336,35.645,0
1542735719.354,49.805,35.645,22.461,84.473,50.293,0
1542735719.358,88.867,25.391,33.203,121.582,42.480,0
1542735719.362,104.980,23.926,28.320,122.559,64.941,0
1542735719.366,78.125,45.898,11.230,93.262,57.129,0
1542735719.369,66.895,62.012,6.836,61.523,41.992,0
1542735719.373,95.703,52.246,7.324,80.078,65.918,0
1542735719.377,119.141,39.062,3.418,135.254,56.641,0
1542735719.381,121.094,43.457,-4.883,131.836,31.738,0
1542735719.385,129.395,60.059,-10.254,125.000,20.508,0
1542735719.389,154.785,69.336,-12.695,161.133,-22.949,0
1542735719.393,153.320,71.289,-6.836,159.668,3.418,0
1542735719.397,136.719,70.801,-2.441,145.020,70.312,0
1542735719.401,133.301,68.848,-2.930,152.344,90.332,0
1542735719.405,120.117,62.012,-2.930,137.207,37.109,0
1542735719.408,106.445,59.082,-2.441,119.629,40.527,0
1542735719.412,107.910,56.152,-2.441,120.117,47.363,0
1542735719.416,111.328,52.734,0.488,116.699,44.922,0
1542735719.420,105.957,50.781,10.254,112.305,77.148,0
1542735719.424,99.121,48.340,14.648,127.441,-18.555,0
1542735719.428,90.820,43.945,10.742,121.582,-41.504,0
1542735719.432,99.121,43.457,5.859,77.148,48.828,0
1542735719.436,104.004,52.734,4.883,75.195,109.863,0
1542735719.440,88.867,56.641,5.371,92.773,53.711,0
1542735719.444,76.172,54.199,8.789,84.961,-13.184,0
1542735719.448,73.242,49.805,8.789,89.844,71.289,0
1542735719.451,73.242,48.340,8.789,110.840,58.594,0
1542735719.455,82.031,50.293,14.648,105.957,3.906,0
1542735719.459,78.613,45.898,16.113,72.754,19.531,0
1542735719.463,79.102,38.086,18.066,76.660,13.184,0
1542735719.467,86.914,38.574,22.461,78.613,26.367,0
1542735719.471,75.684,41.016,22.461,76.172,-2.441,0
1542735719.475,66.406,35.645,18.066,106.445,-7.812,0
1542735719.479,57.617,30.762,14.648,84.961,65.430,0
1542735719.483,58.594,33.691,11.719,81.543,18.066,0
1542735719.487,67.383,38.574,14.648,104.004,28.809,0
1542735719.491,87.402,39.551,15.625,68.848,44.922,0
1542735719.494,87.402,35.156,13.672,48.340,-2.930,0
1542735719.498,78.125,28.809,19.043,70.312,-9.766,0
1542735719.502,77.637,30.762,21.484,66.895,16.602,0
1542735719.506,69.824,36.621,23.926,72.266,4.883,0
1542735719.510,63.965,34.668,28.320,93.262,-36.621,0
1542735719.514,66.895,32.715,22.949,91.309,27.344,0
1542735719.518,62.500,34.668,20.508,86.426,63.477,0
1542735719.522,56.641,30.762,20.996,71.777,64.453,0
1542735719.526,59.570,29.297,18.555,80.078,63.477,0
1542735719.530,55.664,27.832,20.020,72.754,5.371,0
1542735719.533,58.594,29.785,29.785,64.941,35.156,0
1542735719.537,70.312,27.344,29.297,80.078,73.730,0
1542735719.541,69.824,27.832,21.484,69.824,6.348,0
1542735719.545,62.012,34.668,22.949,73.730,-9.277,0
1542735719.549,71.777,28.809,21.973,72.754,0.000,0
1542735719.553,64.941,21.484,22.949,42.480,-33.203,0
1542735719.557,57.129,22.949,23.438,38.086,-41.016,0
1542735719.561,57.617,25.391,22.949,71.289,-1.953,0
1542735719.565,53.711,22.949,24.902,84.473,12.207,0
1542735719.569,55.176,19.531,23.926,82.031,29.785,0
1542735719.573,63.477,25.391,18.555,84.961,68.848,0
1542735719.576,65.430,27.832,18.066,88.379,88.379,0
1542735719.580,58.594,23.438,20.508,88.867,84.473,0
1542735719.584,61.035,24.414,18.555,67.871,78.613,0
1542735719.588,58.105,24.414,16.113,75.684,75.684,0
1542735719.592,57.129,20.020,13.184,77.637,53.711,0
1542735719.596,55.176,18.066,13.184,47.363,8.301,0
1542735719.600,46.875,20.020,17.090,61.523,70.312,0
1542735719.604,42.969,23.926,18.066,79.590,49.805,0
1542735719.608,60.547,25.879,16.602,81.055,6.348,0
1542735719.612,62.012,23.438,21.484,86.914,54.199,0
1542735719.616,44.434,22.461,20.508,73.242,65.918,0
1542735719.619,46.387,23.926,13.184,68.359,98.145,0
1542735719.623,51.270,29.297,14.160,29.297,53.223,0
1542735719.627,60.547,29.297,15.625,8.789,-27.344,0
1542735719.631,75.195,22.461,11.719,62.500,-11.230,0
1542735719.635,62.500,25.879,7.324,77.637,-0.488,0
1542735719.639,55.176,30.762,11.719,90.332,7.324,0
1542735719.643,57.129,30.762,16.113,101.562,62.012,0
1542735719.647,50.781,26.855,16.113,88.379,57.617,0
1542735719.651,55.664,20.996,19.531,67.871,19.531,0
1542735719.655,63.965,22.461,17.090,73.242,25.879,0
1542735719.658,50.781,25.391,16.602,88.867,72.754,0
1542735719.662,56.152,30.762,20.508,67.383,68.359,0
1542735719.666,77.148,37.598,16.113,61.523,36.621,0
1542735719.670,66.895,37.109,10.742,62.988,50.781,0
1542735719.674,58.105,32.715,14.160,71.289,69.336,0
1542735719.678,53.711,31.738,17.578,75.195,50.293,0
1542735719.682,54.199,25.879,17.090,62.988,60.059,0
1542735719.686,66.406,20.508,16.602,48.340,74.707,0
1542735719.690,61.035,26.855,20.508,77.148,77.637,0
1542735719.694,58.105,29.785,27.832,101.562,19.043,0
1542735719.698,58.594,32.227,21.973,75.195,28.320,0
1542735719.701,49.805,33.691,13.672,53.711,39.551,0
1542735719.705,50.781,32.715,18.555,50.293,-19.531,0
1542735719.709,55.664,33.691,17.578,77.637,26.367,0
1542735719.713,51.270,35.156,16.113,87.402,62.500,0
1542735719.717,63.965,38.574,19.043,74.219,45.898,0
1542735719.721,75.195,44.434,19.531,65.918,44.922,0
1542735719.725,64.941,43.457,16.113,54.688,43.945,0
1542735719.729,56.641,41.504,9.277,59.570,-9.766,0
1542735719.733,52.246,48.340,12.207,74.707,42.969,0
1542735719.737,49.316,50.781,7.812,52.734,97.168,0
1542735719.741,65.918,49.805,-3.418,58.105,65.918,0
1542735719.744,60.059,46.875,16.602,76.172,37.598,0
1542735719.748,9.766,32.227,28.809,34.668,-7.812,0
1542735719.752,-18.555,21.973,15.137,-6.348,40.039,0
1542735719.756,-7.812,22.949,9.766,0.977,61.523,0
1542735719.760,-17.090,18.066,17.090,19.043,25.879,0
1542735719.764,-54.688,-3.906,23.926,-18.066,8.789,0
1542735719.768,-59.082,-19.043,18.066,-40.039,31.250,0
1542735719.772,-43.457,-19.043,12.695,-23.926,9.277,0
1542735719.776,-66.406,-14.648,20.508,-12.695,4.883,0
1542735719.780,-66.406,-16.602,15.625,-20.508,41.504,0
1542735719.783,-47.363,-12.207,16.602,-11.719,40.039,0
1542735719.787,-40.039,-0.977,25.879,-10.254,48.340,0
1542735719.791,-26.855,-0.977,23.926,-26.855,52.734,0
1542735719.795,-27.832,-6.348,17.090,-21.973,63.477,0
1542735719.799,-18.066,-5.371,11.719,7.324,28.320,0
1542735719.803,-10.254,0.000,19.043,21.973,6.836,0
1542735719.807,-0.977,11.719,25.391,16.602,45.898,0
1542735719.811,-2.441,9.766,23.438,21.973,42.480,0
1542735719.815,-12.207,1.465,30.762,22.949,32.227,0
1542735719.819,3.418,16.113,27.832,36.621,34.180,0
1542735719.823,4.395,9.766,-0.488,30.273,10.254,0
1542735719.826,-4.883,-4.395,-5.859,4.883,4.395,0
1542735719.830,2.441,3.906,9.766,21.484,57.617,0
1542735719.834,10.254,8.789,20.020,45.410,72.754,0
1542735719.838,10.742,5.371,17.090,24.414,66.895,0
1542735719.842,21.973,8.789,14.160,36.621,28.809,0
1542735719.846,12.207,16.113,13.672,42.969,15.625,0
1542735719.850,11.719,20.996,11.719,14.648,36.133,0
1542735719.854,24.902,25.879,18.066,48.340,32.715,0
1542735719.858,14.648,27.344,20.508,54.688,60.059,0
1542735719.862,12.695,20.020,19.531,24.414,35.645,0
1542735719.866,24.902,18.066,17.090,11.719,-32.715,0
1542735719.869,26.367,20.508,12.695,32.715,-53.711,0
1542735719.873,24.902,22.461,9.766,66.406,33.203,0
1542735719.877,37.598,26.855,8.789,68.848,59.082,0
1542735719.881,41.016,28.809,8.789,39.551,23.926,0
1542735719.885,34.180,25.391,7.812,16.602,45.898,0
1542735719.889,32.227,25.879,8.789,26.367,21.973,0
1542735719.893,13.672,23.926,7.812,29.785,36.133,0
1542735719.897,6.836,19.531,10.254,52.246,78.125,0
1542735719.901,27.832,19.043,12.695,65.918,33.691,0
1542735719.905,41.504,19.043,12.695,54.688,29.785,0
1542735719.908,35.645,15.625,8.789,38.086,75.195,0
1542735719.912,34.180,16.602,11.230,37.109,72.754,0
1542735719.916,41.504,23.438,20.508,63.477,93.262,0
1542735719.920,43.457,20.020,17.578,55.664,90.332,0
1542735719.924,45.410,20.508,14.160,47.363,7.812,0
1542735719.928,38.574,27.344,13.184,58.105,-16.602,0
1542735719.932,38.086,26.855,11.230,57.617,36.133,0
1542735719.936,40.527,23.438,16.113,43.457,67.871,0
1542735719.940,37.109,21.973,18.555,48.828,74.219,0
1542735719.944,39.551,15.625,9.766,50.781,83.008,0
1542735719.948,43.457,15.625,13.672,47.852,62.012,0
1542735719.951,34.668,16.113,19.043,59.082,56.641,0
1542735719.955,28.320,16.113,15.137,64.941,51.270,0
1542735719.959,18.555,15.625,19.531,68.359,10.742,0
1542735719.963,27.344,13.672,21.973,53.223,-0.488,0
1542735719.967,41.016,20.020,22.461,38.086,-18.066,0
1542735719.971,32.227,18.555,23.926,37.598,-21.973,0
1542735719.975,27.344,13.672,16.602,43.457,41.992,0
1542735719.979,38.574,11.719,14.648,45.410,47.363,0
1542735719.983,41.992,6.348,15.137,25.391,-19.043,0
1542735719.987,24.414,2.930,13.672,32.227,7.324,0
1542735719.991,27.344,11.719,16.602,59.082,65.918,0
1542735719.994,35.156,14.648,20.020,57.617,37.598,0
1542735719.998,27.832,15.137,23.926,45.898,19.531,0
1542735720.002,32.715,23.926,25.879,44.922,69.336,0
1542735720.006,37.598,29.785,27.344,55.664,82.031,0
1542735720.010,29.297,30.273,22.949,62.988,24.902,0
1542735720.014,26.855,28.809,16.602,47.852,-13.184,0
1542735720.018,54.688,22.461,23.926,86.914,17.090,0
1542735720.022,75.195,17.090,34.180,104.980,4.883,0
1542735720.026,62.988,36.621,22.461,74.219,-37.109,0
1542735720.030,65.918,62.500,7.324,54.688,-44.922,0
1542735720.033,78.613,70.801,4.395,59.082,-10.254,0
1542735720.037,91.797,61.523,3.418,87.402,62.500,0
1542735720.041,105.957,59.082,-2.441,107.910,43.457,0
1542735720.045,108.887,68.359,-8.789,125.000,46.875,0
1542735720.049,120.117,68.848,-10.254,120.605,46.875,0
1542735720.053,125.488,69.824,-11.230,106.934,62.988,0
1542735720.057,116.211,74.219,-10.742,132.812,86.914,0
1542735720.061,100.098,68.848,-7.324,128.906,21.973,0
1542735720.065,89.844,63.477,-1.953,110.840,25.391,0
1542735720.069,105.469,65.430,1.465,118.164,79.590,0
1542735720.073,124.023,70.312,-0.977,112.305,102.051,0
1542735720.076,99.121,72.754,-0.488,86.914,64.941,0
1542735720.080,83.496,71.289,3.906,80.566,63.477,0
1542735720.084,94.727,70.801,9.766,89.355,58.105,0
1542735720.088,90.332,70.312,12.207,106.934,43.457,0
1542735720.092,98.633,69.336,9.277,108.398,57.617,0
1542735720.096,98.633,69.824,6.348,92.285,3.906,0
1542735720.100,72.266,63.477,3.906,82.031,26.367,0
1542735720.104,62.012,59.082,4.883,81.055,74.219,0
1542735720.108,57.129,68.359,12.207,91.797,40.039,0
1542735720.112,71.777,70.801,16.113,109.863,28.320,0
1542735720.116,79.590,63.477,12.207,109.375,45.410,0
1542735720.119,67.383,64.941,14.160,79.102,80.078,0
1542735720.123,74.707,64.941,17.578,81.055,64.941,0
1542735720.127,82.520,60.059,17.090,80.078,15.625,0
1542735720.131,75.195,58.105,17.578,54.688,-23.438,0
1542735720.135,58.594,55.176,22.949,72.754,45.410,0
1542735720.139,60.547,51.270,18.555,81.543,66.406,0
1542735720.143,63.965,50.293,10.742,65.430,22.949,0
1542735720.147,60.059,50.781,11.230,70.801,18.066,0
1542735720.151,73.242,47.363,10.742,71.777,-33.691,0
1542735720.155,71.289,49.805,14.160,84.961,13.184,0
1542735720.158,62.500,50.293,19.531,98.145,43.457,0
1542735720.162,60.059,50.293,20.508,87.402,0.488,0
1542735720.166,62.500,48.340,20.996,56.641,41.992,0
1542735720.170,66.895,45.410,18.555,64.453,49.805,0
1542735720.174,62.988,51.758,17.090,88.379,46.387,0
1542735720.178,71.289,47.852,16.602,81.055,8.301,0
1542735720.182,72.266,43.457,11.230,68.359,29.785,0
1542735720.186,66.895,50.293,12.695,83.496,85.938,0
1542735720.190,63.965,49.805,14.160,91.309,76.172,0
1542735720.194,59.082,47.363,13.184,74.707,32.227,0
1542735720.198,50.293,47.363,13.672,80.078,4.883,0
1542735720.201,49.316,45.898,18.555,63.965,33.203,0
1542735720.205,62.012,41.992,20.508,61.035,99.121,0
1542735720.209,65.430,39.062,13.184,86.914,151.855,0
1542735720.213,57.617,36.621,11.230,87.891,106.934,0
1542735720.217,54.688,37.598,11.719,79.102,74.707,0
1542735720.221,53.711,45.898,9.766,69.824,57.617,0
1542735720.225,56.641,48.340,11.719,83.984,19.531,0
1542735720.229,60.547,47.852,14.160,73.730,36.133,0
1542735720.233,58.105,47.363,17.090,70.801,21.484,0
1542735720.237,61.035,42.480,19.531,94.727,17.090,0
1542735720.241,69.824,42.480,17.090,111.816,42.480,0
1542735720.244,56.152,52.734,12.207,91.309,30.273,0
1542735720.248,45.898,57.617,5.859,28.809,97.656,0
1542735720.252,44.434,56.152,3.906,27.344,150.879,0
1542735720.256,38.086,54.688,1.465,58.594,115.234,0
1542735720.260,41.016,53.711,-2.441,68.359,78.125,0
1542735720.264,49.316,53.223,1.465,56.641,10.742,0
1542735720.268,45.898,48.340,3.418,34.180,-16.602,0
1542735720.272,34.668,46.387,0.488,47.852,43.457,0
1542735720.276,37.598,42.969,4.395,59.082,125.977,0
1542735720.280,50.293,37.109,7.324,60.059,103.516,0
1542735720.283,48.828,38.086,3.418,63.477,6.836,0
1542735720.287,49.316,36.621,2.441,70.801,8.789,0
1542735720.291,50.293,35.156,3.418,71.777,52.246,0
1542735720.295,42.969,41.016,4.395,60.547,74.219,0
1542735720.299,38.574,41.504,7.812,51.270,42.480,0
1542735720.303,42.480,37.598,5.859,69.824,57.129,0
1542735720.307,38.086,34.180,5.371,70.801,29.785,0
1542735720.311,32.227,33.203,8.789,50.781,-18.555,0
1542735720.315,44.434,35.645,5.371,41.016,-15.625,0
1542735720.319,40.039,32.715,1.465,49.805,-0.977,0
1542735720.323,30.762,28.809,6.836,61.523,10.254,0
1542735720.326,54.688,34.180,10.254,69.824,19.531,0
1542735720.330,56.152,39.062,6.348,65.918,-8.301,0
1542735720.334,42.969,39.062,5.859,46.387,-12.207,0
1542735720.338,41.016,33.203,7.812,38.086,53.223,0
1542735720.342,45.898,31.738,4.395,41.016,39.062,0
1542735720.346,52.734,32.715,1.953,50.781,-11.719,0
1542735720.350,50.781,34.668,2.441,50.781,15.137,0
1542735720.354,37.109,38.574,7.324,51.758,44.922,0
1542735720.358,33.203,35.156,13.672,47.852,97.656,0
1542735720.362,37.598,35.156,7.812,49.316,64.453,0
1542735720.366,35.645,33.691,5.859,66.406,19.043,0
1542735720.369,39.551,29.297,14.160,67.383,-2.930,0
1542735720.373,31.738,32.227,13.184,53.223,6.348,0
1542735720.377,33.203,36.133,8.301,60.547,43.457,0
1542735720.381,44.922,37.598,9.277,66.895,46.875,0
1542735720.385,43.457,35.156,15.625,59.570,27.344,0
1542735720.389,48.340,29.297,19.531,33.203,6.836,0
1542735720.393,44.434,30.273,20.020,28.809,1.465,0
1542735720.397,43.457,33.691,17.578,52.246,29.297,0
1542735720.401,42.480,35.156,14.160,44.434,52.246,0
1542735720.405,35.156,34.180,18.066,41.016,50.781,0
1542735720.408,40.039,36.621,18.066,59.082,48.340,0
1542735720.412,35.156,35.156,10.254,62.988,34.668,0
1542735720.416,47.852,31.738,8.789,52.246,81.543,0
1542735720.420,55.176,35.645,10.742,48.828,49.316,0
1542735720.424,56.641,38.086,9.766,49.805,-9.277,0
1542735720.428,62.500,31.250,6.836,54.199,9.277,0
1542735720.432,40.039,27.832,5.859,40.039,-0.977,0
1542735720.436,33.203,31.250,9.277,44.434,40.527,0
1542735720.440,45.410,30.762,9.277,28.809,54.199,0
1542735720.444,43.945,31.738,14.648,29.785,14.648,0
1542735720.448,46.387,31.250,17.090,65.918,17.090,0
1542735720.451,48.340,28.809,9.277,50.781,67.383,0
1542735720.455,58.594,30.273,8.789,80.078,61.523,0
1542735720.459,54.688,25.879,19.043,76.660,36.621,0
1542735720.463,20.996,23.926,26.367,18.066,60.547,0
1542735720.467,3.418,22.949,31.738,22.461,27.832,0
1542735720.471,16.113,17.578,38.574,42.969,26.855,0
1542735720.475,28.320,16.113,35.645,48.340,36.621,0
1542735720.479,31.250,18.555,24.902,35.156,22.949,0
1542735720.483,28.320,22.949,24.414,27.344,25.391,0
1542735720.487,32.227,28.320,25.879,56.152,72.754,0
1542735720.491,42.480,27.832,20.996,65.918,39.551,0
1542735720.494,33.203,23.438,19.043,49.805,-5.859,0
1542735720.498,45.410,28.809,20.020,49.805,5.371,0
1542735720.502,55.664,36.133,21.484,57.129,14.648,0
1542735720.506,48.340,32.227,23.926,57.129,59.082,0
1542735720.510,51.758,32.227,22.949,58.105,67.383,0
1542735720.514,45.410,34.668,19.531,57.617,21.484,0
1542735720.518,42.480,34.668,22.461,53.711,41.016,0
1542735720.522,60.547,37.109,27.344,69.336,37.109,0
1542735720.526,61.523,34.180,25.879,69.824,-2.930,0
1542735720.530,56.641,31.250,24.414,60.547,-18.066,0
1542735720.533,61.523,30.762,28.809,56.641,4.395,0
1542735720.537,60.059,30.273,29.785,58.594,61.035,0
1542735720.541,58.105,35.156,26.855,83.496,54.199,0
1542735720.545,55.176,33.691,24.414,64.453,29.297,0
1542735720.549,60.547,28.320,21.973,39.551,51.758,0
1542735720.553,48.828,29.785,22.949,53.711,27.344,0
1542735720.557,35.156,29.297,25.879,49.316,21.973,0
1542735720.561,33.203,28.809,25.391,48.828,5.371,0
1542735720.565,22.461,32.715,22.461,53.223,6.836,0
1542735720.569,35.645,36.133,24.902,52.734,18.555,0
1542735720.573,41.992,35.156,22.461,54.199,45.898,0
1542735720.576,43.457,33.691,14.160,51.758,23.438,0
1542735720.580,53.711,36.133,15.137,75.684,-44.922,0
1542735720.584,58.594,36.621,16.602,72.754,2.930,0
1542735720.588,54.688,34.180,16.602,46.875,53.223,0
1542735720.592,51.270,35.156,17.578,55.664,0.000,0
1542735720.596,51.270,32.715,14.160,64.941,-2.930,0
1542735720.600,50.293,30.762,16.113,75.195,57.129,0
1542735720.604,52.734,36.133,16.113,77.637,60.059,0
1542735720.608,52.246,34.180,13.184,58.105,79.590,0
1542735720.612,47.852,33.691,17.090,52.734,74.219,0
1542735720.616,41.016,34.668,14.648,59.082,28.809,0
1542735720.619,35.156,34.668,10.742,69.336,-62.012,0
1542735720.623,52.734,34.180,16.602,64.453,-27.832,0
1542735720.627,60.059,27.832,13.184,49.805,33.203,0
1542735720.631,55.664,30.762,12.695,40.527,35.156,0
1542735720.635,70.801,35.645,18.066,52.246,41.992,0
1542735720.639,62.988,34.180,16.113,45.898,58.105,0
1542735720.643,44.922,29.785,13.184,55.664,66.406,0
1542735720.647,40.527,24.902,8.301,67.383,62.012,0
1542735720.651,46.387,21.484,10.742,48.828,31.250,0
1542735720.655,49.316,18.555,15.137,59.082,27.344,0
1542735720.658,48.828,22.949,13.184,80.078,29.297,0
1542735720.662,46.387,30.273,17.090,65.918,-15.625,0
1542735720.666,40.039,30.273,18.066,53.711,-1.953,0
1542735720.670,36.133,32.715,13.184,55.664,25.879,0
1542735720.674,42.480,34.668,15.625,56.641,24.902,0
1542735720.678,48.340,34.668,17.090,45.410,-9.766,0
1542735720.682,48.340,29.785,17.578,63.965,36.621,0
1542735720.686,57.129,23.438,19.531,84.961,35.156,0
1542735720.690,62.500,27.344,18.066,54.199,39.551,0
1542735720.694,61.035,28.320,21.484,46.387,97.168,0
1542735720.698,48.828,27.344,23.438,64.941,64.453,0
1542735720.701,42.969,26.367,20.020,56.641,24.414,0
1542735720.705,50.293,25.391,20.020,54.688,62.012,0
1542735720.709,40.039,27.832,17.090,61.035,52.246,0
1542735720.713,40.039,23.926,15.137,53.223,62.012,0
1542735720.717,56.641,21.484,20.508,32.715,54.199,0
1542735720.721,55.176,26.367,19.043,31.250,38.574,0
1542735720.725,51.758,24.902,15.625,62.500,40.039,0
1542735720.729,55.664,28.809,15.137,67.871,58.594,0
1542735720.733,54.688,36.621,12.207,58.594,78.125,0
1542735720.737,56.152,29.785,14.648,64.941,67.871,0
1542735720.741,59.082,29.297,19.043,71.777,31.738,0
1542735720.744,59.570,32.227,22.461,75.195,0.000,0
1542735720.748,51.270,27.344,26.855,71.289,11.230,0
1542735720.752,48.340,29.785,25.879,60.547,86.426,0
1542735720.756,36.621,32.227,20.996,49.805,63.965,0
1542735720.760,43.457,29.785,17.578,63.477,11.719,0
1542735720.764,58.105,24.902,21.484,67.383,18.066,0
1542735720.768,62.500,25.879,27.832,63.965,18.066,0
1542735720.772,46.387,35.645,20.996,50.781,13.672,0
1542735720.776,26.855,45.410,12.695,30.762,21.973,0
1542735720.780,52.246,54.199,12.207,49.316,65.430,0
1542735720.783,64.941,54.688,12.207,72.754,68.359,0
1542735720.787,51.270,54.199,11.230,62.988,60.547,0
1542735720.791,58.594,58.594,9.766,53.223,34.180,0
1542735720.795,52.246,56.152,11.719,43.945,45.898,0
1542735720.799,39.551,52.734,10.254,39.551,60.059,0
1542735720.803,57.617,53.711,12.207,48.828,47.363,0
1542735720.807,61.035,51.270,16.602,53.223,85.449,0
1542735720.811,48.828,50.293,14.648,53.223,48.340,0
1542735720.815,50.781,52.246,10.254,55.664,64.453,0
1542735720.819,59.570,55.176,10.254,55.176,99.121,0
1542735720.823,58.105,55.664,16.113,49.805,21.484,0
1542735720.826,65.430,61.523,14.648,50.781,-3.906,0
1542735720.830,68.848,60.547,9.766,46.875,5.859,0
1542735720.834,58.594,51.758,9.766,57.129,10.254,0
1542735720.838,55.664,55.176,10.254,73.730,34.180,0
1542735720.842,54.688,62.988,15.137,72.754,49.316,0
1542735720.846,62.988,60.059,16.113,58.594,28.320,0
1542735720.850,63.477,52.246,13.672,35.645,-1.465,0
1542735720.854,54.688,41.992,14.648,45.410,-4.883,0
1542735720.858,52.246,38.086,10.254,54.688,48.340,0
1542735720.862,56.641,44.922,12.695,65.430,96.680,0
1542735720.866,59.082,42.480,16.602,79.590,67.383,0
1542735720.869,58.105,48.340,17.578,76.660,55.664,0
1542735720.873,69.824,55.176,20.020,78.125,43.945,0
1542735720.877,75.195,47.852,16.602,70.801,42.969,0
1542735720.881,57.617,42.480,15.625,64.941,32.227,0
1542735720.885,57.129,45.410,14.160,70.801,29.297,0
1542735720.889,65.918,41.992,15.625,87.402,19.531,0
1542735720.893,57.129,40.039,18.066,77.148,50.781,0
1542735720.897,47.852,45.410,18.066,62.012,114.258,0
1542735720.901,47.852,45.410,17.578,62.500,34.668,0
1542735720.905,58.105,45.410,14.160,55.176,2.441,0
1542735720.908,65.430,42.480,15.625,54.688,41.016,0
1542735720.912,60.547,35.645,16.602,60.547,65.918,0
1542735720.916,54.688,34.668,13.672,83.008,46.387,0
1542735720.920,55.664,37.109,11.719,78.613,-1.953,0
1542735720.924,62.988,41.016,7.324,53.711,31.738,0
1542735720.928,60.059,43.945,6.836,47.363,74.219,0
1542735720.932,48.828,42.969,9.766,55.664,41.504,0
1542735720.936,50.781,45.410,13.184,58.105,45.898,0
1542735720.940,51.270,41.016,14.160,40.527,103.516,0
1542735720.944,54.199,34.668,14.648,53.223,107.910,0
1542735720.948,59.570,31.738,16.602,65.430,30.762,0
1542735720.951,51.758,26.367,11.719,51.758,28.320,0
1542735720.955,38.086,26.367,5.859,64.453,91.797,0
1542735720.959,60.059,35.156,-0.977,75.195,85.449,0
1542735720.963,90.820,39.551,2.441,71.289,57.129,0
1542735720.967,57.617,28.320,15.625,56.152,21.484,0
1542735720.971,34.668,21.973,23.926,53.223,47.852,0
1542735720.975,38.086,24.902,22.949,43.457,83.496,0
1542735720.979,29.785,23.926,19.531,29.297,39.062,0
1542735720.983,33.691,22.461,22.461,60.059,4.883,0
1542735720.987,29.785,21.484,25.879,69.824,55.176,0
1542735720.991,36.133,20.020,22.461,54.688,62.988,0
1542735720.994,40.527,25.879,15.137,60.059,93.262,0
1542735720.998,46.875,27.344,16.113,70.801,100.098,0
1542735721.002,63.477,23.438,20.996,56.641,37.109,0
1542735721.006,53.711,19.531,23.926,66.406,57.129,0
1542735721.010,38.574,16.602,22.949,84.473,21.973,0
1542735721.014,41.016,14.160,17.578,52.734,-45.410,0
1542735721.018,46.875,11.230,14.648,43.457,33.203,0
1542735721.022,51.758,8.301,14.160,60.547,51.758,0
1542735721.026,38.086,12.207,12.695,59.082,11.230,0
1542735721.030,53.223,20.508,8.789,51.270,49.316,0
1542735721.033,77.148,26.855,6.836,58.594,76.660,0
1542735721.037,64.453,29.297,12.695,71.777,61.523,0
1542735721.041,50.293,31.250,13.184,70.801,41.016,0
1542735721.045,48.828,37.109,8.301,59.570,42.969,0
1542735721.049,50.781,40.039,15.137,67.871,4.883,0
1542735721.053,58.594,39.551,19.043,83.984,-12.695,0
1542735721.057,41.016,36.133,20.020,58.105,2.930,0
1542735721.061,33.203,36.621,20.020,42.480,10.742,0
1542735721.065,54.688,41.504,11.230,44.434,20.996,0
1542735721.069,62.988,40.527,12.207,50.293,29.297,0
1542735721.073,56.152,40.039,18.555,63.965,65.918,0
1542735721.076,46.875,47.363,16.602,65.430,5.371,0
1542735721.080,58.105,46.387,16.602,59.082,-5.859,0
1542735721.084,52.734,41.016,16.113,44.922,86.914,0
1542735721.088,29.785,38.574,13.184,41.504,62.500,0
1542735721.092,42.480,39.551,18.555,57.617,78.613,0
1542735721.096,53.711,42.480,23.926,57.617,73.242,0
1542735721.100,52.246,44.922,21.484,56.641,-35.645,0
1542735721.104,55.176,49.805,20.996,71.777,-8.789,0
1542735721.108,52.734,44.922,19.043,71.289,48.340,0
1542735721.112,59.082,37.598,15.137,44.434,41.992,0
1542735721.116,62.500,34.668,19.531,38.574,62.012,0
1542735721.119,52.246,36.133,19.043,49.316,46.875,0
1542735721.123,50.293,35.156,13.184,46.387,50.781,0
1542735721.127,51.270,33.691,13.672,54.688,35.645,0
1542735721.131,58.594,38.086,15.625,67.383,39.551,0
1542735721.135,60.547,41.504,16.602,71.777,-6.348,0
1542735721.139,60.059,39.551,16.113,63.477,-28.809,0
1542735721.143,61.035,39.062,14.160,51.758,29.297,0
1542735721.147,47.363,40.527,11.719,46.875,38.574,0
1542735721.151,62.500,38.574,6.836,69.824,0.000,0
1542735721.155,73.730,39.062,8.789,79.590,-18.555,0
1542735721.158,52.246,37.598,15.137,47.363,69.336,0
1542735721.162,33.691,30.273,20.996,45.410,77.148,0
1542735721.166,42.969,30.273,22.461,62.988,0.488,0
1542735721.170,51.758,26.855,22.461,48.828,32.715,0
1542735721.174,40.527,24.414,20.508,51.758,27.344,0
1542735721.178,47.852,31.250,15.137,55.176,-17.578,0
1542735721.182,47.363,28.320,17.090,32.227,-27.344,0
1542735721.186,43.457,24.902,14.160,45.410,0.000,0
1542735721.190,53.711,31.250,13.184,71.289,73.730,0
1542735721.194,58.105,30.273,18.066,74.707,62.500,0
1542735721.198,50.293,27.832,16.602,52.246,45.898,0
1542735721.201,43.457,28.809,11.719,27.344,7.324,0
1542735721.205,50.781,28.809,11.230,63.965,19.531,0
1542735721.209,53.711,28.320,13.672,87.891,64.453,0
1542735721.213,60.059,33.203,13.184,75.684,103.516,0
1542735721.217,62.500,36.133,13.672,73.242,81.543,0
1542735721.221,57.129,29.785,11.719,67.871,19.531,0
1542735721.225,59.570,29.785,15.137,61.035,34.180,0
1542735721.229,65.430,32.715,18.555,59.570,43.457,0
1542735721.233,71.289,35.645,15.625,68.359,52.246,0
1542735721.237,70.312,37.598,17.578,83.496,60.547,0
1542735721.241,53.223,39.551,18.555,81.055,46.875,0
1542735721.244,39.551,43.945,16.602,69.336,20.508,0
1542735721.248,45.898,41.992,16.113,68.848,34.180,0
1542735721.252,55.664,33.203,17.090,51.758,33.203,0
1542735721.256,64.941,32.715,17.578,41.016,-2.441,0
1542735721.260,62.988,41.504,19.043,60.059,13.184,0
1542735721.264,53.223,42.969,21.484,60.059,35.645,0
1542735721.268,50.781,42.480,18.555,60.059,-5.859,0
1542735721.272,54.199,39.062,16.113,71.289,-17.090,0
1542735721.276,61.523,32.715,20.020,59.570,13.184,0
1542735721.280,60.547,28.809,22.949,54.199,22.949,0
1542735721.283,41.504,24.902,22.949,83.008,6.348,0
1542735721.287,41.016,29.297,21.973,81.055,-2.441,0
1542735721.291,70.312,37.109,19.043,53.223,-4.395,0
1542735721.295,68.359,40.039,13.184,50.293,15.625,0
1542735721.299,54.688,36.621,11.230,62.012,32.715,0
1542735721.303,62.988,34.668,13.184,60.547,43.945,0
1542735721.307,64.453,34.180,14.648,51.270,38.574,0
1542735721.311,52.734,31.250,14.648,54.199,-9.277,0
1542735721.315,54.688,36.621,12.695,62.500,15.625,0
1542735721.319,58.105,39.551,9.277,63.477,30.762,0
1542735721.323,56.152,28.320,15.137,65.918,39.551,0
1542735721.326,47.363,16.113,19.531,72.266,41.992,0
1542735721.330,49.316,22.461,15.625,60.059,66.895,0
1542735721.334,65.430,35.645,14.648,53.711,95.703,0
1542735721.338,61.035,34.668,10.742,65.918,73.242,0
1542735721.342,53.711,35.156,7.812,66.406,101.562,0
1542735721.346,51.270,34.668,12.207,48.828,106.934,0
1542735721.350,55.664,31.250,12.207,42.969,64.453,0
1542735721.354,52.246,33.203,13.184,50.293,44.434,0
1542735721.358,38.574,35.156,15.137,52.246,49.805,0
1542735721.362,53.223,37.109,17.090,59.570,81.055,0
1542735721.366,53.711,45.410,18.066,48.828,83.008,0
1542735721.369,53.223,49.316,15.137,60.059,64.453,0
1542735721.373,57.617,43.945,18.066,74.707,54.199,0
1542735721.377,61.523,43.945,21.973,57.617,20.020,0
1542735721.381,69.824,46.875,17.090,62.012,56.641,0
1542735721.385,68.359,40.039,9.766,72.266,67.383,0
1542735721.389,64.453,31.250,8.789,69.824,118.164,0
1542735721.393,63.477,26.855,13.672,68.848,95.215,0
1542735721.397,42.969,25.391,15.137,62.988,60.547,0
1542735721.401,56.641,25.391,13.184,68.359,13.672,0
1542735721.405,70.801,26.367,14.648,61.035,27.832,0
1542735721.408,66.895,30.273,14.160,66.406,38.574,0
1542735721.412,84.473,31.738,12.695,83.496,-1.465,0
1542735721.416,75.684,31.250,18.066,80.078,6.836,0
1542735721.420,46.875,28.320,22.461,77.637,-25.879,0
1542735721.424,63.965,26.855,24.902,74.707,-7.812,0
1542735721.428,77.148,32.715,27.344,70.801,1.465,0
1542735721.432,67.871,34.180,25.391,73.242,32.715,0
1542735721.436,71.777,30.273,25.879,83.008,60.059,0
1542735721.440,62.500,31.738,23.438,60.547,0.977,0
1542735721.444,74.219,34.180,17.578,56.152,-3.418,0
1542735721.448,82.031,33.691,20.020,82.520,54.688,0
1542735721.451,62.988,36.621,19.043,80.078,140.137,0
1542735721.455,45.898,37.109,18.066,73.242,82.031,0
1542735721.459,73.730,37.109,21.484,88.867,35.645,0
1542735721.463,89.844,33.203,22.461,90.332,61.035,0
1542735721.467,76.660,31.738,20.020,59.082,52.734,0
1542735721.471,63.477,36.621,18.555,55.664,20.508,0
1542735721.475,74.707,40.527,19.043,74.219,21.973,0
1542735721.479,80.078,41.504,21.484,79.102,37.598,0
1542735721.483,68.848,41.016,24.902,78.125,3.906,0
1542735721.487,67.871,39.551,21.973,75.195,42.969,0
1542735721.491,83.496,40.039,19.043,72.266,93.262,0
1542735721.494,83.008,38.086,20.508,66.895,47.363,0
1542735721.498,65.918,35.156,21.973,62.500,33.691,0
1542735721.502,72.754,31.738,20.996,57.129,9.277,0
1542735721.506,69.336,28.809,20.996,60.547,9.766,0
1542735721.510,69.824,36.133,17.090,70.312,96.191,0
1542735721.514,71.289,40.527,13.184,68.359,93.750,0
1542735721.518,49.805,35.156,19.531,72.266,25.391,0
1542735721.522,50.293,26.855,22.461,82.520,21.973,0
1542735721.526,61.035,24.902,17.090,80.078,31.738,0
1542735721.530,60.547,22.949,18.555,75.684,30.762,0
1542735721.533,44.922,22.461,22.461,53.711,18.555,0
1542735721.537,51.270,33.203,16.602,51.270,8.301,0
1542735721.541,64.453,37.598,14.648,66.895,31.250,0
1542735721.545,53.223,33.203,17.090,65.918,4.883,0
1542735721.549,56.641,30.273,15.137,78.125,37.598,0
1542735721.553,66.895,25.391,19.043,66.406,59.570,0
1542735721.557,48.340,21.973,22.949,58.594,-28.809,0
1542735721.561,47.363,15.137,22.949,78.125,1.953,0
1542735721.565,72.266,8.301,30.762,90.332,10.254,0
1542735721.569,86.914,22.949,32.715,91.797,4.395,0
1542735721.573,69.824,40.039,21.484,67.383,46.875,0
1542735721.576,41.992,40.039,12.695,43.457,15.625,0
1542735721.580,58.105,37.109,11.230,56.152,-31.738,0
1542735721.584,70.801,39.062,7.812,68.848,-0.488,0
1542735721.588,63.965,47.363,-1.465,45.898,39.551,0
1542735721.592,65.430,55.664,-9.766,45.410,42.969,0
1542735721.596,60.547,55.664,-13.672,41.992,24.414,0
1542735721.600,72.754,58.105,-11.230,46.387,-6.836,0
1542735721.604,72.754,55.664,-4.395,72.266,-5.859,0
1542735721.608,65.430,50.293,-0.488,66.895,44.922,0
1542735721.612,71.289,52.246,0.488,66.406,61.523,0
1542735721.616,67.383,55.176,-0.977,79.102,-10.742,0
1542735721.619,77.148,57.129,-3.906,79.590,-40.527,0
1542735721.623,86.914,55.664,0.977,91.797,-46.875,0
1542735721.627,81.543,55.664,2.441,78.125,16.113,0
1542735721.631,75.195,55.176,2.441,62.012,22.949,0
1542735721.635,69.824,49.805,3.906,61.523,-31.250,0
1542735721.639,61.035,43.945,-0.488,70.312,43.457,0
1542735721.643,60.547,42.969,-1.465,85.938,58.594,0
1542735721.647,69.336,41.992,0.977,79.102,-4.883,0
1542735721.651,70.801,43.945,4.395,74.707,-8.789,0
1542735721.655,75.195,46.387,8.301,43.457,7.812,0
1542735721.658,75.684,44.922,10.742,46.387,39.062,0
1542735721.662,80.566,46.387,14.160,86.914,80.566,0
1542735721.666,70.801,44.922,15.625,81.543,53.711,0
1542735721.670,64.941,41.504,10.742,88.867,71.289,0
1542735721.674,87.402,49.805,8.301,103.516,103.027,0
1542735721.678,101.074,53.223,6.836,89.844,113.281,0
1542735721.682,95.215,42.480,7.812,83.984,53.711,0
1542735721.686,84.473,42.480,7.324,81.055,7.324,0
1542735721.690,85.449,48.340,8.301,80.078,43.945,0
1542735721.694,88.379,46.875,13.184,85.938,49.805,0
1542735721.698,83.984,38.086,14.160,102.539,9.766,0
1542735721.701,83.008,37.109,13.184,92.773,30.273,0
1542735721.705,91.309,44.434,13.184,69.824,98.633,0
1542735721.709,83.496,39.551,18.555,85.449,81.055,0
1542735721.713,79.102,31.250,18.555,95.215,19.531,0
1542735721.717,79.590,34.668,14.160,93.750,14.160,0
1542735721.721,81.543,36.133,18.066,98.633,39.551,0
1542735721.725,77.637,30.273,18.066,91.797,-3.906,0
1542735721.729,70.312,25.391,14.160,75.195,-1.953,0
1542735721.733,70.312,22.949,15.625,66.895,69.336,0
1542735721.737,72.754,25.391,13.672,57.617,59.570,0
1542735721.741,79.590,28.809,13.672,61.523,20.508,0
1542735721.744,76.660,28.809,14.648,85.449,2.930,0
1542735721.748,96.680,28.320,16.113,88.867,-0.488,0
1542735721.752,103.027,33.203,20.020,75.195,37.109,0
1542735721.756,67.871,30.762,21.484,74.707,9.277,0
1542735721.760,64.941,28.809,18.066,79.590,-3.418,0
1542735721.764,68.848,29.785,18.066,77.148,31.738,0
1542735721.768,58.594,25.391,22.461,84.473,82.031,0
1542735721.772,65.430,24.414,21.484,91.309,60.059,0
1542735721.776,71.289,24.902,18.555,67.871,21.484,0
1542735721.780,59.082,26.367,14.648,46.875,9.277,0
1542735721.783,59.082,30.762,16.113,68.359,28.809,0
1542735721.787,79.102,33.691,20.020,69.824,44.434,0
1542735721.791,67.871,31.250,17.090,58.105,38.574,0
1542735721.795,56.152,32.715,11.719,70.312,49.805,0
1542735721.799,69.336,35.645,14.160,62.500,20.508,0
1542735721.803,66.895,32.715,15.137,68.359,-11.719,0
1542735721.807,54.688,29.297,15.137,73.730,-8.789,0
1542735721.811,54.688,33.203,18.555,68.848,24.902,0
1542735721.815,57.617,36.133,19.043,78.125,70.312,0
1542735721.819,67.383,34.668,19.531,77.637,38.574,0
1542735721.823,67.871,34.668,19.531,67.871,8.301,0
1542735721.826,62.988,40.039,20.020,66.895,28.320,0
1542735721.830,62.500,43.945,22.461,60.059,59.082,0
1542735721.834,59.570,44.434,20.996,75.195,77.148,0
1542735721.838,68.848,44.922,20.996,80.566,77.637,0
1542735721.842,77.637,42.480,25.879,61.523,79.590,0
1542735721.846,75.684,39.551,26.367,66.406,44.922,0
1542735721.850,72.754,35.156,25.391,59.570,42.480,0
1542735721.854,73.242,32.715,23.926,71.289,49.316,0
1542735721.858,70.801,34.180,22.461,95.215,50.293,0
1542735721.862,66.895,31.250,23.926,73.730,28.320,0
1542735721.866,67.871,26.855,23.926,60.547,-9.766,0
1542735721.869,71.289,23.926,26.855,84.961,-10.742,0
1542735721.873,77.148,25.391,30.762,65.918,12.207,0
1542735721.877,71.289,28.320,31.250,56.641,-0.977,0
1542735721.881,58.594,28.320,26.855,76.660,-5.371,0
1542735721.885,61.035,26.367,22.461,73.730,10.254,0
1542735721.889,72.754,27.832,23.926,86.914,44.922,0
1542735721.893,67.871,27.832,25.879,96.191,44.434,0
1542735721.897,56.641,26.367,22.461,80.078,-7.324,0
1542735721.901,60.059,27.344,24.414,62.500,43.457,0
1542735721.905,61.523,35.156,26.367,51.270,30.273,0
1542735721.908,61.523,34.668,25.879,57.617,15.625,0
1542735721.912,70.801,22.949,26.855,54.688,25.391,0
1542735721.916,63.965,20.508,27.344,60.547,53.711,0
1542735721.920,63.477,28.809,27.344,76.660,90.332,0
1542735721.924,67.383,29.785,21.973,93.750,42.480,0
1542735721.928,63.477,28.320,20.996,93.750,51.758,0
1542735721.932,52.246,30.273,25.879,76.660,80.078,0
1542735721.936,38.574,26.855,25.879,61.035,77.637,0
1542735721.940,45.898,24.902,26.367,52.246,42.480,0
1542735721.944,41.992,31.250,24.414,38.574,30.273,0
1542735721.948,40.039,33.203,18.555,45.898,-6.836,0
1542735721.951,39.551,30.762,13.672,48.828,22.949,0
1542735721.955,42.480,28.809,11.719,39.551,49.805,0
1542735721.959,63.477,30.273,15.625,46.387,46.875,0
1542735721.963,65.430,28.809,12.695,56.641,38.086,0
1542735721.967,58.594,25.879,14.160,62.500,3.906,0
1542735721.971,62.988,29.785,17.090,66.895,47.363,0
1542735721.975,64.453,34.180,11.230,78.613,54.688,0
1542735721.979,61.523,31.250,9.766,80.566,8.301,0
1542735721.983,89.844,29.785,11.719,76.660,31.250,0
1542735721.987,79.102,23.926,17.090,83.496,105.469,0
1542735721.991,53.711,17.578,17.090,67.871,100.586,0
1542735721.994,65.918,21.973,16.602,71.777,20.020,0
1542735721.998,62.988,22.949,15.625,67.383,4.883,0
1542735722.002,97.656,21.484,15.137,79.590,4.883,0
1542735722.006,99.121,23.926,20.996,87.891,-26.367,0
1542735722.010,81.055,24.902,24.902,41.016,-10.254,0
1542735722.014,78.125,25.391,24.414,59.570,21.484,0
1542735722.018,79.590,27.832,21.973,83.984,49.805,0
1542735722.022,114.258,22.461,20.508,68.359,63.965,0
1542735722.026,77.148,19.531,20.508,58.105,73.242,0
1542735722.030,48.340,18.555,20.508,52.246,48.828,0
1542735722.033,66.406,19.531,23.438,63.965,32.227,0
1542735722.037,69.824,27.344,26.367,70.801,20.020,0
1542735722.041,72.754,22.461,20.508,72.266,26.855,0
1542735722.045,88.379,18.066,22.949,89.355,19.531,0
1542735722.049,85.938,21.973,24.902,85.938,0.488,0
1542735722.053,72.754,21.484,18.555,75.195,57.129,0
1542735722.057,71.777,20.020,21.973,71.289,53.223,0
1542735722.061,59.570,21.484,19.043,76.172,69.336,0
1542735722.065,82.520,21.484,23.438,81.543,95.703,0
1542735722.069,106.934,22.949,24.902,83.984,67.871,0
1542735722.073,78.613,26.367,13.672,55.176,56.152,0
1542735722.076,47.363,22.949,13.184,30.762,7.324,0
1542735722.080,44.922,14.648,14.648,30.762,8.789,0
1542735722.084,32.715,14.160,14.648,42.480,53.711,0
1542735722.088,52.246,17.578,13.672,41.016,68.359,0
1542735722.092,69.824,20.508,14.160,37.109,56.152,0
1542735722.096,73.730,26.367,15.625,67.871,21.484,0
1542735722.100,80.078,28.809,6.836,57.617,38.574,0
1542735722.104,50.781,23.438,0.977,44.922,52.246,0
1542735722.108,30.273,24.414,0.488,36.133,34.180,0
1542735722.112,30.762,26.855,-1.465,27.344,60.059,0
1542735722.116,48.828,24.902,-0.977,-4.883,60.059,0
1542735722.119,56.152,30.273,-2.441,-13.184,61.523,0
1542735722.123,67.871,39.551,-8.301,3.906,48.340,0
1542735722.127,79.102,40.527,-3.906,-1.465,30.273,0
1542735722.131,65.430,33.691,4.395,23.926,38.086,0
1542735722.135,59.082,23.438,4.883,31.250,85.938,0
1542735722.139,48.828,18.555,6.348,19.531,80.566,0
1542735722.143,57.129,27.832,4.395,6.348,55.176,0
1542735722.147,72.266,36.133,5.371,24.902,35.645,0
1542735722.151,78.613,34.668,10.254,49.316,51.758,0
1542735722.155,94.238,31.738,12.695,45.898,88.867,0
1542735722.158,106.445,26.855,12.695,43.457,66.895,0
1542735722.162,106.445,28.320,11.719,35.645,58.105,0
1542735722.166,96.680,31.738,11.719,41.016,19.043,0
1542735722.170,84.961,30.762,10.254,54.688,20.020,0
1542735722.174,80.078,31.250,3.418,42.969,23.438,0
1542735722.178,83.008,25.391,4.883,41.504,-16.113,0
1542735722.182,85.449,19.531,9.277,41.504,2.930,0
1542735722.186,88.379,18.066,8.789,54.199,10.742,0
1542735722.190,87.402,20.508,8.301,37.109,-33.691,0
1542735722.194,92.285,21.973,12.695,28.320,3.906,0
1542735722.198,92.773,18.066,15.137,60.547,61.035,0
1542735722.201,119.629,20.508,11.719,46.875,20.996,0
1542735722.205,122.070,21.973,12.695,45.410,7.812,0
1542735722.209,92.773,22.461,19.531,58.594,20.996,0
1542735722.213,93.750,24.414,18.066,59.570,31.250,0
1542735722.217,87.402,19.531,15.137,67.871,32.715,0
1542735722.221,91.797,14.648,19.043,79.102,-8.301,0
1542735722.225,97.656,13.184,18.066,66.895,4.395,0
1542735722.229,98.145,12.695,13.672,42.969,83.984,0
1542735722.233,107.422,14.648,14.160,52.246,60.059,0
1542735722.237,92.285,14.160,19.531,71.777,-6.348,0
1542735722.241,69.336,13.672,20.508,60.059,-8.789,0
1542735722.244,76.172,22.461,15.137,38.574,2.930,0
1542735722.248,83.008,24.414,12.207,55.176,33.691,0
1542735722.252,88.867,20.020,12.695,47.852,58.105,0
1542735722.256,89.844,18.066,15.625,29.297,2.441,0
1542735722.260,76.660,20.996,19.043,32.715,15.625,0
1542735722.264,72.754,26.855,18.066,41.504,29.297,0
1542735722.268,79.590,25.879,8.301,55.664,35.645,0
1542735722.272,74.707,21.973,5.859,37.109,39.062,0
1542735722.276,79.102,20.996,8.789,32.715,59.570,0
1542735722.280,80.566,21.484,10.254,57.617,71.289,0
1542735722.283,74.219,15.137,7.812,48.340,21.973,0
1542735722.287,74.707,6.348,4.395,43.945,14.648,0
1542735722.291,76.660,12.695,11.719,60.547,44.434,0
1542735722.295,85.449,19.043,17.090,53.711,66.895,0
1542735722.299,89.844,22.949,13.184,65.430,63.965,0
1542735722.303,78.613,32.227,13.184,64.941,67.383,0
1542735722.307,84.961,33.691,13.184,45.898,74.707,0
1542735722.311,93.750,29.297,9.766,32.715,82.031,0
1542735722.315,83.984,31.738,10.254,58.105,41.504,0
1542735722.319,98.633,31.250,13.672,70.801,38.086,0
1542735722.323,91.797,32.227,12.207,33.691,74.707,0
1542735722.326,65.430,33.691,14.160,49.316,34.180,0
1542735722.330,89.355,30.762,20.020,68.359,0.488,0
1542735722.334,113.281,30.762,18.066,58.594,8.789,0
1542735722.338,90.820,27.832,13.184,44.922,24.414,0
1542735722.342,84.473,24.902,15.625,49.805,48.828,0
1542735722.346,83.984,28.320,19.043,68.848,-14.160,0
1542735722.350,74.707,38.086,11.230,23.438,15.137,0
1542735722.354,84.961,32.227,15.137,23.438,53.711,0
1542735722.358,97.168,31.738,18.066,76.172,27.344,0
1542735722.362,117.188,39.551,12.207,71.777,38.086,0
1542735722.366,92.285,43.945,15.137,80.078,55.664,0
1542735722.369,85.938,52.246,25.879,83.008,61.035,0
1542735722.373,94.238,46.387,30.762,42.480,97.656,0
1542735722.377,79.102,35.156,24.414,38.086,78.125,0
1542735722.381,74.219,24.414,26.367,62.500,50.293,0
1542735722.385,80.078,22.949,29.785,55.176,1.465,0
1542735722.389,75.684,31.738,27.832,65.430,-7.812,0
1542735722.393,63.477,30.762,23.926,62.012,57.617,0
1542735722.397,75.684,27.832,20.508,57.617,31.738,0
1542735722.401,86.914,31.738,23.438,57.129,13.672,0
1542735722.405,86.914,36.133,28.320,48.828,53.223,0
1542735722.408,84.961,33.203,25.391,52.734,58.594,0
1542735722.412,99.121,32.227,21.484,72.266,43.457,0
1542735722.416,106.445,42.480,23.438,88.379,54.688,0
1542735722.420,103.027,41.016,20.996,81.055,51.270,0
1542735722.424,79.102,33.203,22.461,79.102,29.297,0
1542735722.428,66.895,38.574,26.367,73.242,9.277,0
1542735722.432,91.797,44.922,26.367,57.617,47.363,0
1542735722.436,108.887,48.828,23.926,53.223,90.820,0
1542735722.440,103.516,53.223,23.438,74.219,53.711,0
1542735722.444,93.750,53.223,26.367,86.914,24.902,0
1542735722.448,92.773,50.781,23.926,74.707,72.266,0
1542735722.451,89.844,47.363,24.414,64.941,70.312,0
1542735722.455,92.285,47.363,25.879,78.125,30.273,0
1542735722.459,74.707,48.340,22.949,78.613,41.504,0
1542735722.463,95.215,47.852,21.973,66.895,62.012,0
1542735722.467,110.840,46.387,26.367,60.059,41.016,0
1542735722.471,92.773,42.969,30.762,74.219,50.293,0
1542735722.475,95.215,42.480,30.273,90.332,12.207,0
1542735722.479,83.008,39.062,29.297,71.289,-36.621,0
1542735722.483,80.078,35.156,30.762,45.898,-7.324,0
1542735722.487,88.379,39.062,26.367,55.664,71.777,0
1542735722.491,94.727,41.992,20.996,65.430,61.035,0
1542735722.494,100.098,41.992,20.508,81.055,20.508,0
1542735722.498,81.055,42.969,20.020,92.773,55.664,0
1542735722.502,70.312,43.457,20.020,73.730,17.090,0
1542735722.506,81.055,43.457,18.066,60.059,-16.602,0
1542735722.510,86.914,47.852,18.066,70.801,37.109,0
1542735722.514,97.656,47.363,16.602,71.777,73.730,0
1542735722.518,81.543,44.922,16.602,61.035,27.832,0
1542735722.522,69.824,48.828,21.484,83.008,48.340,0
1542735722.526,89.355,49.805,22.949,99.609,75.195,0
1542735722.530,68.848,47.363,20.020,79.590,22.949,0
1542735722.533,66.895,51.270,18.555,57.617,67.383,0
1542735722.537,87.891,55.176,23.438,63.965,88.867,0
1542735722.541,98.633,52.246,25.391,91.309,60.059,0
1542735722.545,90.820,47.363,19.043,79.590,77.637,0
1542735722.549,80.078,40.527,15.625,60.059,93.262,0
1542735722.553,79.590,34.180,18.555,90.820,43.945,0
1542735722.557,86.426,29.785,25.391,95.215,20.020,0
1542735722.561,92.285,28.320,26.855,94.727,50.293,0
1542735722.565,77.637,31.250,25.391,91.797,6.836,0
1542735722.569,80.078,40.039,21.973,46.387,18.555,0
1542735722.573,83.008,43.457,23.438,48.340,29.297,0
1542735722.576,71.777,41.992,26.367,74.219,33.203,0
1542735722.580,88.379,38.574,22.461,75.684,54.688,0
1542735722.584,94.238,35.645,19.043,80.566,41.504,0
1542735722.588,75.684,36.621,18.555,90.332,34.180,0
1542735722.592,79.590,45.898,20.996,77.637,71.777,0
1542735722.596,80.078,51.270,19.531,71.289,61.035,0
1542735722.600,78.125,49.316,18.066,82.031,8.301,0
1542735722.604,89.355,48.828,16.602,70.801,-6.348,0
1542735722.608,77.637,52.246,12.695,63.477,59.082,0
1542735722.612,77.148,49.805,14.160,64.453,26.367,0
1542735722.616,84.961,45.410,16.113,46.387,-18.066,0
1542735722.619,80.078,46.875,17.090,65.918,49.316,0
1542735722.623,79.590,45.410,21.484,91.309,30.762,0
1542735722.627,91.309,47.363,23.926,74.707,47.852,0
1542735722.631,100.586,47.363,18.555,77.637,83.984,0
1542735722.635,93.750,49.805,17.090,83.984,35.156,0
1542735722.639,83.008,53.711,18.066,83.984,87.402,0
1542735722.643,72.266,51.758,18.555,89.355,130.859,0
1542735722.647,71.289,49.316,19.043,96.680,51.270,0
1542735722.651,78.613,42.480,18.555,86.914,-3.418,0
1542735722.655,71.289,41.504,16.113,90.820,-19.531,0
1542735722.658,73.730,44.922,16.113,76.660,39.551,0
1542735722.662,88.379,46.387,17.090,44.922,12.207,0
1542735722.666,82.520,48.340,20.508,50.781,-24.902,0
1542735722.670,75.195,47.363,20.020,62.500,24.902,0
1542735722.674,80.078,47.363,15.137,95.215,28.320,0
1542735722.678,87.891,45.898,16.113,87.402,27.832,0
1542735722.682,83.984,42.480,17.578,82.031,34.668,0
1542735722.686,82.520,45.410,17.578,104.004,47.852,0
1542735722.690,91.309,49.805,17.578,99.121,15.625,0
1542735722.694,87.891,46.875,17.578,82.520,-9.277,0
1542735722.698,87.402,48.828,11.719,84.473,-24.414,0
1542735722.701,79.102,48.828,6.348,69.336,41.992,0
1542735722.705,74.707,38.574,3.906,44.434,62.988,0
1542735722.709,95.215,37.598,2.930,70.312,38.574,0
1542735722.713,84.961,37.598,9.277,101.074,55.176,0
1542735722.717,74.707,39.062,13.672,82.031,72.266,0
1542735722.721,71.289,42.480,3.418,57.617,31.738,0
1542735722.725,67.871,46.387,-4.395,65.430,30.273,0
1542735722.729,72.266,54.199,-2.441,62.500,39.062,0
1542735722.733,68.359,55.176,0.488,38.086,63.477,0
1542735722.737,72.266,53.223,0.488,48.828,80.078,0
1542735722.741,84.473,50.293,3.418,74.219,51.270,0
1542735722.744,81.055,45.410,8.301,61.523,21.973,0
1542735722.748,78.613,42.480,5.371,59.082,5.371,0
1542735722.752,66.895,41.016,4.395,73.242,21.484,0
1542735722.756,65.430,39.062,6.348,61.523,-17.090,0
1542735722.760,71.289,39.062,7.812,59.082,-32.715,0
1542735722.764,78.125,44.434,13.184,82.520,0.000,0
1542735722.768,83.984,48.828,13.672,62.500,10.742,0
1542735722.772,71.777,41.992,15.137,41.504,28.320,0
1542735722.776,67.383,37.598,17.090,58.594,-25.879,0
1542735722.780,87.891,44.434,13.672,67.871,8.301,0
1542735722.783,99.609,49.805,15.137,85.938,33.203,0
1542735722.787,87.402,50.293,18.555,85.938,12.695,0
1542735722.791,96.680,52.734,19.043,68.359,-4.395,0
1542735722.795,100.586,47.852,17.090,66.895,3.418,0
1542735722.799,72.266,40.039,18.066,69.824,3.418,0
1542735722.803,64.941,43.457,16.602,68.359,16.602,0
1542735722.807,68.359,42.969,13.184,60.547,52.734,0
1542735722.811,68.848,35.156,13.672,67.383,44.922,0
1542735722.815,74.707,37.109,15.137,54.688,51.270,0
1542735722.819,73.730,41.016,16.113,37.598,41.016,0
1542735722.823,62.500,41.992,15.625,51.270,-9.766,0
1542735722.826,63.477,38.086,18.066,63.965,-29.297,0
1542735722.830,69.824,37.598,21.484,68.359,0.977,0
1542735722.834,61.035,40.527,24.902,74.219,36.621,0
1542735722.838,55.176,36.133,26.855,72.754,57.617,0
1542735722.842,69.336,36.621,25.879,50.781,47.852,0
1542735722.846,74.707,40.039,25.391,65.918,18.066,0
1542735722.850,66.895,43.457,25.879,72.266,14.648,0
1542735722.854,57.129,44.434,20.020,59.082,42.969,0
1542735722.858,40.039,39.551,20.020,48.828,40.527,0
1542735722.862,40.527,34.668,24.414,46.387,63.965,0
1542735722.866,51.758,35.156,20.508,62.012,69.824,0
1542735722.869,51.758,34.180,13.184,64.941,14.160,0
1542735722.873,60.059,32.227,13.184,64.453,-6.836,0
1542735722.877,60.059,35.645,12.207,54.688,24.902,0
1542735722.881,79.102,41.016,11.719,41.016,20.020,0
1542735722.885,83.496,36.621,17.578,55.664,-0.977,0
1542735722.889,55.176,29.297,19.043,75.195,15.625,0
1542735722.893,64.941,30.273,17.578,56.152,23.926,0
1542735722.897,69.824,33.691,19.043,46.875,33.203,0
1542735722.901,53.711,35.645,17.090,68.848,59.570,0
1542735722.905,66.406,32.227,14.160,83.984,17.578,0
1542735722.908,74.219,34.180,16.113,74.707,21.973,0
1542735722.912,69.336,39.062,18.066,73.242,72.266,0
1542735722.916,79.102,41.504,15.625,71.777,32.227,0
1542735722.920,67.871,42.480,16.602,51.758,-19.043,0
1542735722.924,56.152,40.527,20.020,43.945,-13.672,0
1542735722.928,53.223,42.480,17.578,49.805,49.805,0
1542735722.932,55.176,42.480,18.555,62.012,71.289,0
1542735722.936,65.430,42.969,22.949,73.730,23.438,0
1542735722.940,76.660,47.852,15.625,76.172,63.965,0
1542735722.944,74.707,44.434,13.672,74.219,74.219,0
1542735722.948,71.289,36.621,23.438,73.730,63.965,0
1542735722.951,68.848,33.691,23.438,50.293,47.363,0
1542735722.955,65.918,32.227,19.531,37.598,59.082,0
1542735722.959,72.754,30.273,22.461,50.781,25.879,0
1542735722.963,87.402,33.203,21.484,63.965,-9.766,0
1542735722.967,97.656,40.527,21.973,75.684,52.734,0
1542735722.971,83.008,39.551,25.391,74.707,-1.465,0
1542735722.975,66.895,36.621,25.879,88.867,-15.137,0
1542735722.979,75.195,41.992,26.367,93.262,31.250,0
1542735722.983,78.613,48.828,25.879,97.656,39.551,0
1542735722.987,72.266,51.758,27.344,99.121,51.270,0
1542735722.991,75.684,50.293,27.832,101.074,52.734,0
1542735722.994,77.637,45.898,23.926,84.473,45.898,0
1542735722.998,82.031,41.504,22.461,74.707,23.926,0
1542735723.002,90.332,39.551,24.414,71.777,15.137,0
1542735723.006,89.844,39.062,27.344,42.969,51.758,0
1542735723.010,84.961,37.109,28.809,70.312,60.059,0
1542735723.014,88.867,35.645,25.391,95.215,35.645,0
1542735723.018,102.051,34.180,24.414,81.543,24.414,0
1542735723.022,90.820,31.250,26.367,89.844,-9.277,0
1542735723.026,70.801,32.227,24.902,92.285,14.648,0
1542735723.030,83.496,35.156,25.391,92.773,15.137,0
1542735723.033,108.887,37.598,22.949,77.148,11.230,0
1542735723.037,103.027,38.574,20.996,71.777,41.992,0
1542735723.041,104.492,33.691,27.832,87.891,34.668,0
1542735723.045,106.445,28.320,31.250,74.219,37.598,0
1542735723.049,88.867,25.391,28.809,68.848,-5.371,0
1542735723.053,70.801,23.438,24.414,78.125,2.930,0
1542735723.057,71.289,21.973,23.438,82.031,34.668,0
1542735723.061,80.566,22.461,25.391,84.473,55.664,0
1542735723.065,72.266,23.926,21.484,85.938,52.246,0
1542735723.069,94.727,25.879,21.973,68.848,-7.812,0
1542735723.073,112.305,26.367,24.414,64.453,20.508,0
1542735723.076,76.172,27.832,20.020,68.359,67.383,0
1542735723.080,69.336,27.832,19.043,73.242,23.926,0
1542735723.084,95.215,24.902,24.902,90.332,-20.020,0
1542735723.088,101.562,20.020,32.715,86.914,-38.574,0
1542735723.092,97.656,17.090,32.715,64.941,-33.691,0
1542735723.096,88.379,19.043,26.367,71.289,38.574,0
1542735723.100,87.402,24.414,24.414,87.891,13.184,0
1542735723.104,101.562,24.414,19.043,79.102,24.902,0
1542735723.108,101.074,25.391,10.254,71.289,83.496,0
1542735723.112,109.863,30.762,16.602,82.031,38.086,0
1542735723.116,97.656,32.715,20.508,94.238,48.828,0
1542735723.119,74.707,31.738,14.648,84.473,39.551,0
1542735723.123,77.148,29.785,10.742,75.195,24.902,0
1542735723.127,94.727,32.715,8.301,48.828,-16.602,0
1542735723.131,96.191,35.645,5.859,38.574,-11.230,0
1542735723.135,85.938,38.574,6.836,40.039,63.965,0
1542735723.139,83.008,36.133,6.836,27.832,23.438,0
1542735723.143,66.895,32.227,4.883,36.621,-3.418,0
1542735723.147,81.543,36.133,6.348,45.898,38.574,0
1542735723.151,79.102,32.227,8.301,52.246,38.574,0
1542735723.155,57.617,29.785,4.883,44.434,20.996,0
1542735723.158,78.125,33.691,1.953,33.203,15.625,0
1542735723.162,73.242,33.203,3.418,51.758,15.625,0
1542735723.166,62.500,37.109,4.883,52.246,54.199,0
1542735723.170,73.730,38.574,5.371,33.203,66.895,0
1542735723.174,80.078,37.109,-2.441,29.297,3.906,0
1542735723.178,85.449,36.621,-2.441,26.367,9.766,0
1542735723.182,83.008,34.180,3.418,8.301,23.438,0
1542735723.186,87.891,35.645,5.371,36.133,-4.883,0
1542735723.190,88.379,34.668,8.301,60.059,-10.254,0
1542735723.194,81.055,32.715,5.859,50.781,13.184,0
1542735723.198,82.520,34.668,5.371,44.922,18.555,0
1542735723.201,91.309,31.250,8.789,40.039,-13.672,0
1542735723.205,89.844,31.250,9.277,37.109,-35.156,0
1542735723.209,83.008,39.551,15.137,45.410,19.043,0
1542735723.213,81.543,44.434,13.184,64.941,17.578,0
1542735723.217,81.543,46.387,6.836,58.594,9.277,0
1542735723.221,83.496,48.828,11.230,57.617,32.715,0
1542735723.225,85.938,53.711,12.207,81.543,27.344,0
1542735723.229,88.379,53.223,9.277,76.172,-1.953,0
1542735723.233,88.379,42.969,16.113,64.453,43.457,0
1542735723.237,96.191,37.598,24.414,75.195,74.707,0
1542735723.241,93.750,44.434,19.043,67.871,44.922,0
1542735723.244,73.730,45.898,11.230,60.547,17.578,0
1542735723.248,73.242,41.992,8.789,52.734,11.719,0
1542735723.252,78.125,41.016,8.789,57.617,43.457,0
1542735723.256,85.938,35.156,9.766,53.711,12.695,0
1542735723.260,84.473,32.715,10.742,47.363,1.465,0
1542735723.264,84.961,40.039,11.230,56.641,60.059,0
1542735723.268,73.730,42.969,13.672,63.477,94.238,0
1542735723.272,71.289,38.086,12.207,74.707,62.012,0
1542735723.276,92.285,38.086,11.230,76.172,53.223,0
1542735723.280,93.262,39.551,13.672,80.078,66.895,0
1542735723.283,84.961,32.715,13.672,66.406,53.711,0
1542735723.287,81.543,32.715,16.602,78.613,29.785,0
1542735723.291,70.312,38.574,15.137,87.891,-29.785,0
1542735723.295,81.543,38.574,14.160,71.289,-17.090,0
1542735723.299,85.449,40.527,15.625,67.383,41.992,0
1542735723.303,76.660,42.969,9.766,75.684,125.000,0
1542735723.307,82.520,37.598,8.301,97.168,92.773,0
1542735723.311,85.938,37.109,12.695,90.820,24.902,0
1542735723.315,97.656,41.992,15.137,85.938,68.848,0
1542735723.319,91.797,42.969,13.672,77.148,45.898,0
1542735723.323,82.520,36.621,9.766,74.219,45.410,0
1542735723.326,81.055,29.785,8.789,80.078,115.723,0
1542735723.330,83.008,28.320,19.043,96.680,111.816,0
1542735723.334,75.684,31.250,17.090,83.496,54.199,0
1542735723.338,86.426,34.180,14.160,61.035,0.000,0
1542735723.342,97.168,38.574,20.020,77.637,34.180,0
1542735723.346,82.520,40.039,14.648,65.918,64.453,0
1542735723.350,88.379,41.016,11.230,58.105,56.152,0
1542735723.354,100.098,47.363,17.090,79.590,61.523,0
1542735723.358,93.262,46.875,15.625,75.195,50.781,0
1542735723.362,79.590,48.340,8.789,76.660,65.918,0
1542735723.366,79.102,43.945,14.160,84.961,82.031,0
1542735723.369,75.195,42.480,14.648,65.430,103.516,0
1542735723.373,88.379,42.969,12.207,70.312,90.332,0
1542735723.377,101.562,39.062,14.648,85.449,62.500,0
1542735723.381,101.562,36.133,15.625,71.777,45.898,0
1542735723.385,82.031,32.227,21.973,69.824,63.965,0
1542735723.389,91.309,34.180,24.902,68.359,88.379,0
1542735723.393,106.934,35.645,21.484,67.383,77.148,0
1542735723.397,63.965,40.527,17.090,57.617,68.359,0
1542735723.401,50.781,42.969,20.508,66.895,27.832,0
1542735723.405,102.539,42.969,19.531,78.613,41.016,0
1542735723.408,73.730,43.945,25.879,64.453,63.965,0
1542735723.412,46.387,45.898,20.996,60.547,34.668,0
1542735723.416,106.445,48.340,10.254,76.172,60.547,0
1542735723.420,114.258,40.527,20.020,100.098,67.871,0
1542735723.424,87.402,33.203,20.020,93.262,63.965,0
1542735723.428,78.125,33.203,17.090,74.219,50.781,0
1542735723.432,102.051,34.180,25.391,85.449,62.012,0
1542735723.436,94.238,28.809,28.320,96.191,23.438,0
1542735723.440,49.805,27.344,23.438,83.496,19.531,0
1542735723.444,46.875,30.273,23.926,84.473,89.355,0
1542735723.448,82.031,33.203,24.414,77.148,65.918,0
1542735723.451,81.543,36.133,22.461,60.547,-29.785,0
1542735723.455,74.707,37.598,19.043,68.848,25.391,0
1542735723.459,83.008,37.109,20.508,76.172,73.730,0
1542735723.463,64.453,33.203,20.508,55.664,31.738,0
1542735723.467,39.062,31.250,18.066,67.871,89.844,0
1542735723.471,58.594,27.344,24.902,97.656,102.051,0
1542735723.475,64.941,30.762,25.391,89.844,99.609,0
1542735723.479,62.500,38.086,18.066,82.520,123.535,0
1542735723.483,82.031,45.898,13.672,62.500,87.891,0
1542735723.487,70.312,41.016,12.207,56.152,55.176,0
1542735723.491,75.195,41.504,16.113,73.242,41.504,0
1542735723.494,80.078,37.598,21.973,85.938,67.383,0
1542735723.498,60.059,23.926,25.391,84.961,57.617,0
1542735723.502,29.297,28.320,23.926,64.453,0.977,0
1542735723.506,29.297,34.180,20.508,44.922,4.883,0
1542735723.510,71.777,37.598,22.461,59.570,36.133,0
1542735723.514,70.312,37.109,25.391,85.449,38.574,0
1542735723.518,83.496,37.598,21.973,62.500,2.441,0
1542735723.522,85.938,34.668,22.461,61.035,7.324,0
1542735723.526,50.293,25.879,22.949,60.059,58.594,0
1542735723.530,53.711,22.461,21.484,64.453,112.305,0
1542735723.533,70.801,31.250,20.508,89.844,103.516,0
1542735723.537,76.660,40.527,20.020,79.590,72.754,0
1542735723.541,75.195,41.016,18.555,66.406,68.359,0
1542735723.545,53.223,41.504,17.090,74.219,45.898,0
1542735723.549,57.129,45.410,14.160,78.613,54.688,0
1542735723.553,66.406,47.363,13.184,54.688,65.430,0
1542735723.557,60.059,43.457,19.043,62.012,70.312,0
1542735723.561,41.504,41.504,23.926,59.570,114.258,0
1542735723.565,51.270,39.551,25.391,47.852,89.844,0
1542735723.569,65.430,36.133,29.297,67.871,58.105,0
1542735723.573,48.340,36.133,28.809,72.266,109.375,0
1542735723.576,44.922,39.551,20.020,44.922,119.141,0
1542735723.580,35.156,40.527,14.648,21.484,132.324,0
1542735723.584,40.039,41.016,23.438,46.387,173.340,0
1542735723.588,57.129,42.969,28.320,70.801,198.242,0
1542735723.592,41.992,40.527,26.367,51.270,237.305,0
1542735723.596,53.223,38.086,27.832,35.645,270.508,0
1542735723.600,62.012,40.527,26.855,37.598,335.938,0
1542735723.604,43.457,39.551,25.879,46.875,395.020,0
1542735723.608,51.758,42.969,29.297,48.828,395.996,0
1542735723.612,62.012,50.293,22.949,49.805,390.625,0
1542735723.616,66.406,43.457,20.996,57.129,410.156,0
1542735723.619,88.379,35.156,26.367,52.734,386.719,0
1542735723.623,61.523,33.203,27.344,57.129,345.215,0
1542735723.627,34.668,26.855,33.691,75.684,317.383,0
1542735723.631,39.062,23.926,34.668,66.406,334.473,0
1542735723.635,64.941,30.762,27.344,57.617,316.895,0
1542735723.639,85.449,39.062,30.762,62.988,255.859,0
1542735723.643,53.223,36.621,30.273,57.617,245.605,0
1542735723.647,73.242,41.992,24.902,69.824,256.836,0
1542735723.651,82.520,50.293,22.949,66.895,234.863,0
1542735723.655,72.754,43.945,13.672,41.992,244.141,0
1542735723.658,105.469,42.480,19.531,58.105,246.094,0
1542735723.662,78.125,41.504,37.109,69.824,197.754,0
1542735723.666,35.645,34.180,39.062,42.480,169.434,0
1542735723.670,19.531,33.691,33.203,37.598,181.152,0
1542735723.674,62.988,34.180,33.691,57.129,153.320,0
1542735723.678,72.266,23.438,40.039,70.801,121.582,0
1542735723.682,57.617,22.461,41.016,84.473,132.324,0
1542735723.686,69.824,28.809,37.598,64.941,115.723,0
1542735723.690,68.359,31.250,36.133,51.758,107.910,0
1542735723.694,70.801,30.762,37.598,74.707,116.699,0
1542735723.698,67.383,30.762,33.691,66.406,102.539,0
1542735723.701,62.988,27.832,33.203,73.242,84.473,0
1542735723.705,76.172,29.785,27.832,84.961,73.730,0
1542735723.709,61.035,38.086,22.949,64.453,60.547,0
1542735723.713,64.941,41.016,21.973,65.430,44.922,0
1542735723.717,97.168,41.992,21.484,88.379,37.109,0
1542735723.721,85.938,39.551,23.438,78.125,1.953,0
1542735723.725,78.125,37.109,24.902,80.078,19.531,0
1542735723.729,88.867,38.574,27.832,98.145,60.059,0
1542735723.733,77.637,37.109,27.344,80.566,19.043,0
1542735723.737,81.055,38.574,24.902,71.289,-1.953,0
1542735723.741,87.891,37.598,23.926,74.707,31.738,0
1542735723.744,92.285,32.227,26.855,95.215,25.879,0
1542735723.748,102.051,38.574,26.367,86.914,0.488,0
1542735723.752,94.727,45.410,26.367,81.055,10.742,0
1542735723.756,108.398,44.434,24.414,95.703,-11.719,0
1542735723.760,97.168,40.527,23.926,94.238,-53.223,0
1542735723.764,87.402,31.738,27.832,92.773,-15.625,0
1542735723.768,89.355,26.855,28.809,74.707,5.859,0
1542735723.772,93.750,30.273,24.414,80.078,-12.207,0
1542735723.776,95.215,40.527,20.020,85.449,-26.367,0
1542735723.780,53.223,37.598,15.625,56.641,-37.598,0
1542735723.783,57.129,33.203,18.066,55.664,-19.043,0
1542735723.787,72.266,37.598,20.996,87.891,-10.254,0
1542735723.791,81.543,41.016,22.461,96.680,-38.086,0
1542735723.795,89.355,41.016,24.902,87.891,-46.387,0
1542735723.799,82.520,41.992,15.625,80.566,-45.898,0
1542735723.803,76.172,48.828,10.742,78.613,-31.250,0
1542735723.807,79.590,45.410,15.137,83.008,-32.715,0
1542735723.811,86.914,35.645,18.555,92.773,-31.250,0
1542735723.815,87.402,33.203,21.484,72.266,-24.902,0
1542735723.819,81.543,32.715,20.996,57.617,-22.949,0
1542735723.823,87.402,31.738,21.484,72.266,-19.531,0
1542735723.826,79.102,25.879,25.879,86.426,-49.805,0
1542735723.830,80.566,29.785,21.973,92.285,-26.367,0
1542735723.834,103.516,29.297,19.531,87.402,-15.625,0
1542735723.838,96.191,30.273,19.043,101.074,-56.152,0
1542735723.842,99.121,34.180,12.695,81.543,-39.062,0
1542735723.846,124.023,33.691,15.137,74.707,-16.113,0
1542735723.850,119.141,36.133,21.973,96.680,-62.988,0
1542735723.854,103.516,37.109,25.391,108.887,-102.051,0
1542735723.858,98.633,37.109,30.273,94.727,-69.336,0
1542735723.862,96.191,33.203,29.785,67.871,-32.227,0
1542735723.866,93.750,34.668,26.367,56.152,-56.152,0
1542735723.869,97.656,37.109,29.785,72.266,-82.520,0
1542735723.873,86.426,31.250,25.879,95.703,-67.871,0
1542735723.877,88.867,25.879,21.484,100.586,-81.543,0
1542735723.881,99.121,23.926,23.438,79.102,-77.148,0
1542735723.885,87.402,24.414,20.996,71.289,-75.195,0
1542735723.889,78.613,28.809,20.996,69.824,-94.727,0
1542735723.893,88.379,36.133,22.461,95.215,-112.793,0
1542735723.897,78.613,37.598,19.531,106.445,-127.441,0
1542735723.901,80.078,35.645,19.043,76.660,-122.559,0
1542735723.905,91.797,32.715,22.461,74.219,-93.750,0
1542735723.908,102.051,32.227,26.367,71.777,-115.723,0
1542735723.912,94.727,36.621,28.809,54.688,-161.621,0
1542735723.916,78.613,31.738,25.879,71.777,-119.629,0
1542735723.920,72.754,26.855,19.043,60.059,-97.168,0
1542735723.924,61.523,26.855,24.902,41.992,-70.801,0
1542735723.928,59.082,22.949,24.414,69.336,-47.852,0
1542735723.932,53.223,22.949,14.160,54.199,-100.586,0
1542735723.936,61.035,20.996,11.230,53.223,-95.703,0
1542735723.940,71.289,19.531,16.113,66.895,-77.148,0
1542735723.944,61.035,26.367,17.090,49.316,-102.051,0
1542735723.948,45.898,29.785,11.719,44.434,-84.961,0
1542735723.951,36.621,30.273,14.160,41.992,-78.125,0
1542735723.955,37.598,29.297,15.625,44.434,-77.637,0
1542735723.959,44.922,29.297,11.230,40.527,-75.195,0
1542735723.963,38.086,32.715,9.277,32.715,-46.387,0
1542735723.967,24.414,26.855,13.672,41.016,-33.691,0
1542735723.971,37.598,25.391,15.137,48.340,-65.430,0
1542735723.975,45.410,26.367,13.184,15.137,-47.363,0
1542735723.979,40.527,27.344,10.742,0.000,-17.578,0
1542735723.983,31.250,27.832,10.254,21.484,-49.316,0
1542735723.987,26.367,29.297,10.742,36.133,-32.715,0
1542735723.991,48.828,29.297,9.277,61.035,-33.691,0
1542735723.994,55.664,24.902,11.230,45.410,-23.438,0
1542735723.998,40.039,22.949,13.672,34.668,-9.766,0
1542735724.002,46.387,20.996,12.207,44.922,-1.953,0
1542735724.006,42.969,21.484,8.789,34.180,34.180,0
1542735724.010,28.809,27.832,8.789,35.156,34.668,0
1542735724.014,39.062,29.785,15.625,47.852,3.418,0
1542735724.018,41.016,26.367,16.113,54.688,-26.855,0
1542735724.022,56.641,21.973,13.672,59.570,-6.836,0
1542735724.026,68.359,21.484,16.602,56.641,17.090,0
1542735724.030,49.805,28.320,22.949,52.734,-22.949,0
1542735724.033,66.895,28.320,25.391,76.172,-35.156,0
1542735724.037,104.004,24.414,22.949,99.121,-2.930,0
1542735724.041,117.676,27.832,29.297,135.742,37.109,0
1542735724.045,120.605,35.156,23.926,126.953,53.711,0
1542735724.049,133.789,35.645,17.090,99.121,-25.391,0
1542735724.053,138.184,39.062,20.508,129.883,-45.410,0
1542735724.057,144.531,45.410,28.320,151.855,-39.551,0
1542735724.061,152.832,36.621,35.645,165.039,-35.156,0
1542735724.065,161.133,36.621,35.645,154.785,-3.906,0
1542735724.069,174.805,40.527,37.598,154.785,-13.672,0
1542735724.073,166.016,34.668,40.039,192.871,-44.434,0
1542735724.076,159.668,34.668,39.062,176.270,12.695,0
1542735724.080,173.340,41.016,38.086,148.438,45.410,0
1542735724.084,149.902,40.039,36.133,164.551,41.504,0
1542735724.088,121.582,32.227,33.691,162.598,28.320,0
1542735724.092,127.930,28.809,30.273,138.184,60.547,0
1542735724.096,130.859,28.809,31.250,118.652,17.578,0
1542735724.100,125.488,32.715,35.156,123.535,-81.055,0
1542735724.104,124.023,38.574,36.621,139.648,-16.113,0
1542735724.108,116.211,39.551,38.086,128.906,34.180,0
1542735724.112,135.254,32.227,35.645,118.652,4.883,0
1542735724.116,143.066,36.621,34.668,132.324,11.719,0
1542735724.119,120.117,35.645,38.086,125.977,11.230,0
1542735724.123,120.117,28.320,38.574,93.750,29.297,0
1542735724.127,123.535,30.762,35.156,112.305,51.270,0
1542735724.131,104.004,34.180,25.879,120.605,-0.977,0
1542735724.135,119.629,34.180,22.461,117.188,-6.348,0
1542735724.139,128.906,30.273,24.414,123.047,47.363,0
1542735724.143,109.863,34.180,20.508,104.004,122.070,0
1542735724.147,104.004,39.062,23.438,99.121,75.195,0
1542735724.151,105.957,38.574,31.738,107.422,2.441,0
1542735724.155,107.422,38.574,33.691,119.629,33.203,0
1542735724.158,104.004,33.691,29.297,109.375,69.824,0
1542735724.162,120.117,29.297,24.902,96.191,48.828,0
1542735724.166,112.305,26.855,27.344,93.262,-9.277,0
1542735724.170,92.285,28.320,28.320,76.660,-7.812,0
1542735724.174,99.121,30.273,20.020,64.453,51.758,0
1542735724.178,90.332,28.320,12.207,57.617,58.594,0
1542735724.182,91.797,29.785,13.184,83.496,67.383,0
1542735724.186,100.098,30.762,16.113,104.492,105.957,0
1542735724.190,81.055,32.715,17.090,91.797,78.613,0
1542735724.194,79.102,36.133,20.020,76.660,8.301,0
1542735724.198,82.520,29.785,18.555,59.570,-5.371,0
1542735724.201,86.914,22.949,13.184,69.824,39.551,0
1542735724.205,91.309,28.320,10.254,81.543,44.434,0
1542735724.209,95.215,33.203,17.090,76.172,12.695,0
1542735724.213,82.031,30.273,18.066,92.285,41.992,0
1542735724.217,69.824,27.344,11.719,89.355,8.301,0
1542735724.221,93.262,23.926,18.066,77.148,-0.977,0
1542735724.225,102.051,26.367,20.020,75.684,4.883,0
1542735724.229,69.824,38.086,18.555,57.129,11.719,0
1542735724.233,62.988,41.992,20.020,71.289,53.223,0
1542735724.237,79.102,36.133,18.555,103.516,46.875,0
1542735724.241,83.984,31.738,17.578,88.379,88.379,0
1542735724.244,83.008,33.691,16.602,62.988,60.059,0
1542735724.248,75.684,33.203,14.648,66.406,-15.625,0
1542735724.252,68.359,25.391,14.160,65.918,7.812,0
1542735724.256,70.801,17.090,13.184,61.035,9.277,0
1542735724.260,75.684,18.066,10.254,67.871,7.812,0
1542735724.264,62.500,22.949,9.766,75.195,4.883,0
1542735724.268,64.453,23.926,11.719,70.801,17.090,0
1542735724.272,69.336,23.926,10.254,73.242,40.039,0
1542735724.276,67.871,17.578,10.742,74.219,44.434,0
1542735724.280,63.477,13.672,13.672,69.336,57.129,0
1542735724.283,81.055,16.113,20.996,82.031,59.082,0
1542735724.287,88.867,24.902,21.484,89.844,75.195,0
1542735724.291,65.918,32.227,17.090,70.801,92.773,0
1542735724.295,66.406,33.691,8.789,54.688,68.848,0
1542735724.299,78.125,32.227,3.418,46.875,78.125,0
1542735724.303,85.449,33.203,4.883,53.223,84.473,0
1542735724.307,68.848,35.156,4.883,51.758,48.828,0
1542735724.311,56.152,27.832,2.930,61.035,31.738,0
1542735724.315,63.965,29.297,4.395,61.523,47.852,0
1542735724.319,63.477,31.738,7.812,57.129,63.477,0
1542735724.323,71.777,29.297,5.371,44.434,88.867,0
