timestamps,TP9,AF7,AF8,TP10,Right AUX,Marker0
1541599417.968,71.289,58.105,70.312,119.629,-23.438,0
1541599417.972,55.664,60.547,79.590,69.824,-30.762,0
1541599417.976,51.270,54.688,78.125,30.273,0.488,0
1541599417.980,67.383,56.641,74.219,82.031,-2.930,0
1541599417.983,94.238,62.012,78.125,136.719,21.973,0
1541599417.987,91.797,61.523,86.426,101.074,34.180,0
1541599417.991,69.336,55.664,91.309,46.387,6.348,0
1541599417.995,79.102,54.199,91.309,80.566,-6.348,0
1541599417.999,109.375,61.523,91.309,143.555,-7.812,0
1541599418.003,113.281,66.406,89.355,124.512,-36.621,0
1541599418.007,104.004,63.477,94.727,69.824,35.645,0
1541599418.011,112.793,68.848,94.238,79.590,55.664,0
1541599418.015,127.930,65.918,88.379,138.184,5.371,0
1541599418.019,122.070,57.617,89.355,142.090,7.324,0
1541599418.023,109.863,63.477,94.727,91.309,56.641,0
1541599418.026,108.398,65.430,95.215,75.195,34.668,0
1541599418.030,113.281,60.059,87.402,127.930,-16.602,0
1541599418.034,105.469,59.082,84.473,160.645,23.438,0
1541599418.038,87.402,60.059,84.961,105.957,31.250,0
1541599418.042,73.730,54.199,79.590,61.035,18.066,0
1541599418.046,72.266,54.199,77.148,103.516,62.988,0
1541599418.050,77.637,57.129,79.102,149.902,20.996,0
1541599418.054,62.012,51.758,76.172,114.258,40.039,0
1541599418.058,41.016,54.199,82.031,60.059,61.523,0
1541599418.062,36.133,60.059,85.449,79.102,-5.859,0
1541599418.066,51.758,61.035,83.984,137.207,37.109,0
1541599418.069,58.105,64.453,84.473,129.883,33.203,0
1541599418.073,44.434,60.059,79.102,71.289,14.648,0
1541599418.077,45.898,57.129,83.984,72.266,55.176,0
1541599418.081,56.641,59.570,85.938,130.371,49.805,0
1541599418.085,56.641,58.594,82.520,137.695,95.215,0
1541599418.089,46.875,54.199,81.055,80.078,54.199,0
1541599418.093,39.551,54.688,70.801,58.105,25.391,0
1541599418.097,48.828,59.082,72.266,101.074,31.250,0
1541599418.101,51.758,54.688,81.055,128.906,-10.742,0
1541599418.105,38.086,53.711,84.473,81.055,62.500,0
1541599418.108,31.250,55.664,81.543,31.250,47.852,0
1541599418.112,38.574,55.664,75.684,61.523,44.922,0
1541599418.116,43.945,55.176,74.707,104.004,71.289,0
1541599418.120,45.410,56.641,80.566,75.195,-1.465,0
1541599418.124,31.738,57.617,81.543,20.996,44.434,0
1541599418.128,20.508,54.688,83.984,37.598,131.836,0
1541599418.132,33.203,57.617,84.961,97.656,83.008,0
1541599418.136,29.297,56.641,76.660,92.773,24.902,0
1541599418.140,15.137,52.246,71.777,30.762,88.379,0
1541599418.144,21.484,57.129,67.383,20.508,82.031,0
1541599418.148,41.992,57.617,72.266,82.031,33.691,0
1541599418.151,46.387,59.082,71.289,110.352,15.625,0
1541599418.155,24.902,57.617,64.453,62.988,21.973,0
1541599418.159,16.602,54.199,72.266,39.062,30.273,0
1541599418.163,27.344,54.199,75.195,84.961,16.113,0
1541599418.167,38.086,52.734,72.754,125.000,41.992,0
1541599418.171,35.156,54.199,70.312,99.609,7.324,0
1541599418.175,21.973,44.922,73.242,55.664,31.738,0
1541599418.179,21.484,39.551,80.078,76.172,1.465,0
1541599418.183,48.340,45.898,78.125,131.836,16.113,0
1541599418.187,51.270,45.410,81.543,104.980,51.758,0
1541599418.191,28.320,43.945,98.633,39.062,21.484,0
1541599418.194,32.227,44.434,113.281,59.082,7.324,0
1541599418.198,54.688,45.410,124.023,121.582,31.738,0
1541599418.202,48.340,56.152,130.371,109.375,97.656,0
1541599418.206,16.602,56.152,125.000,37.598,72.754,0
1541599418.210,-2.930,45.410,123.047,9.766,22.949,0
1541599418.214,-11.230,45.410,122.070,46.875,24.414,0
1541599418.218,-13.672,53.711,123.047,61.035,48.340,0
1541599418.222,-40.039,55.176,121.094,-5.371,75.684,0
1541599418.226,-64.941,56.152,109.375,-60.059,64.453,0
1541599418.230,-73.242,55.664,104.492,-32.227,79.590,0
1541599418.233,-81.543,48.828,102.051,0.488,63.965,0
1541599418.237,-91.797,46.387,104.004,-32.227,-36.621,0
1541599418.241,-112.793,39.551,102.051,-91.797,-1.465,0
1541599418.245,-111.816,41.504,97.168,-73.730,64.941,0
1541599418.249,-100.586,41.992,102.539,-13.672,66.406,0
1541599418.253,-107.422,35.645,116.211,-26.855,55.664,0
1541599418.257,-110.840,33.203,122.070,-74.707,23.438,0
1541599418.261,-103.516,32.227,105.957,-72.754,10.254,0
1541599418.265,-90.820,28.809,94.727,-17.090,-8.789,0
1541599418.269,-86.426,23.438,97.656,1.953,18.555,0
1541599418.273,-84.473,30.273,98.145,-45.898,70.312,0
1541599418.276,-77.148,30.762,96.680,-58.105,41.016,0
1541599418.280,-62.012,23.438,91.309,0.000,51.270,0
1541599418.284,-39.062,23.438,91.797,40.527,51.758,0
1541599418.288,-47.363,21.484,96.680,2.441,27.832,0
1541599418.292,-43.945,20.996,97.168,-25.879,14.160,0
1541599418.296,-19.531,24.414,98.145,29.297,4.883,0
1541599418.300,-3.418,27.344,102.051,79.590,-2.930,0
1541599418.304,-4.883,30.762,101.074,47.852,29.297,0
1541599418.308,-13.184,26.855,101.074,-0.977,54.688,0
1541599418.312,-0.977,24.902,96.680,20.508,62.988,0
1541599418.316,15.137,29.297,91.797,82.031,63.477,0
1541599418.319,11.719,31.250,95.215,69.824,52.734,0
1541599418.323,-3.906,27.344,93.262,6.348,38.574,0
1541599418.327,5.371,26.855,90.332,15.625,30.762,0
1541599418.331,14.160,31.738,92.773,83.496,21.973,0
1541599418.335,17.578,29.297,93.750,97.656,13.184,0
1541599418.339,18.066,27.832,93.262,47.852,73.242,0
1541599418.343,6.836,31.250,91.309,22.949,80.566,0
1541599418.347,11.719,30.273,85.938,69.824,21.973,0
1541599418.351,30.762,33.203,88.867,114.746,-11.719,0
1541599418.355,20.996,38.574,91.797,70.312,6.836,0
1541599418.358,9.277,38.574,90.820,30.273,21.484,0
1541599418.362,23.926,42.969,98.633,69.824,45.898,0
1541599418.366,41.504,41.992,95.703,112.793,44.434,0
1541599418.370,37.598,38.086,88.867,88.867,40.527,0
1541599418.374,21.973,39.062,91.309,36.621,19.043,0
1541599418.378,21.484,38.086,92.773,48.340,-20.996,0
1541599418.382,38.086,35.645,89.844,102.051,43.945,0
1541599418.386,36.621,36.621,90.820,100.098,43.945,0
1541599418.390,20.508,42.969,95.215,41.016,-41.504,0
1541599418.394,19.043,45.898,96.680,32.715,-44.922,0
1541599418.398,38.574,44.434,98.145,94.238,28.320,0
1541599418.401,40.039,44.434,93.262,107.910,69.336,0
1541599418.405,18.066,46.875,86.426,43.457,18.066,0
1541599418.409,11.719,47.852,83.008,5.371,-27.344,0
1541599418.413,27.344,41.504,82.520,56.152,74.219,0
1541599418.417,41.504,38.574,83.496,104.492,51.758,0
1541599418.421,27.832,43.457,84.961,59.082,23.926,0
1541599418.425,10.254,49.316,87.402,0.488,79.102,0
1541599418.429,18.066,45.898,82.031,33.691,33.691,0
1541599418.433,41.504,45.410,85.449,96.191,4.395,0
1541599418.437,44.922,51.758,94.727,75.195,21.973,0
1541599418.441,20.996,47.363,88.379,6.348,64.453,0
1541599418.444,11.719,43.945,82.520,12.207,22.949,0
1541599418.448,31.250,45.898,81.055,83.008,-5.859,0
1541599418.452,39.062,50.781,83.008,86.426,58.105,0
1541599418.456,24.414,56.152,89.355,25.879,35.156,0
1541599418.460,29.785,55.176,87.402,14.160,-8.789,0
1541599418.464,45.898,52.246,84.473,75.684,2.441,0
1541599418.468,44.922,54.199,84.961,103.027,58.594,0
1541599418.472,18.555,54.199,81.055,41.016,95.215,0
1541599418.476,3.906,48.340,75.684,-5.371,42.969,0
1541599418.480,24.414,43.945,79.102,43.457,-0.977,0
1541599418.483,32.227,35.156,76.660,90.332,63.965,0
1541599418.487,12.695,32.715,70.801,49.805,89.844,0
1541599418.491,0.488,40.039,70.312,-6.836,20.020,0
1541599418.495,4.395,40.527,74.707,23.926,4.395,0
1541599418.499,21.973,36.621,79.102,89.844,35.156,0
1541599418.503,20.020,38.574,71.289,75.195,89.355,0
1541599418.507,-1.953,41.504,67.383,5.371,70.801,0
1541599418.511,0.977,39.062,68.848,2.441,-4.883,0
1541599418.515,22.461,40.039,69.824,72.266,18.555,0
1541599418.519,26.367,41.992,69.824,78.613,51.270,0
1541599418.523,13.184,44.922,69.336,15.625,14.160,0
1541599418.526,8.789,44.434,72.266,-1.465,9.766,0
1541599418.530,25.879,37.598,70.801,55.176,41.992,0
1541599418.534,32.227,35.645,63.477,90.820,22.461,0
1541599418.538,18.555,39.062,66.406,41.504,37.109,0
1541599418.542,9.277,42.969,70.801,0.000,84.473,0
1541599418.546,25.391,46.387,65.918,48.340,67.871,0
1541599418.550,46.387,44.434,62.988,105.469,6.348,0
1541599418.554,23.926,40.527,69.824,69.824,-5.371,0
1541599418.558,-12.695,41.504,78.125,5.859,34.180,0
1541599418.562,3.418,39.551,77.637,24.902,43.457,0
1541599418.566,35.645,38.574,75.195,92.285,-20.020,0
1541599418.569,31.738,44.922,82.031,90.820,-29.785,0
1541599418.573,13.672,46.875,85.449,24.902,2.441,0
1541599418.577,8.789,44.922,80.566,22.949,40.039,0
1541599418.581,24.902,42.969,72.266,88.379,1.465,0
1541599418.585,28.809,43.457,69.336,102.051,11.719,0
1541599418.589,7.324,48.828,73.242,46.387,43.945,0
1541599418.593,2.441,47.363,72.754,20.020,-21.973,0
1541599418.597,23.926,46.875,73.730,79.590,-4.883,0
1541599418.601,37.598,50.781,78.613,120.117,22.949,0
1541599418.605,20.996,51.758,82.031,69.824,91.309,0
1541599418.608,3.418,50.293,76.172,18.066,77.637,0
1541599418.612,17.090,47.363,68.359,60.547,22.461,0
1541599418.616,34.668,47.363,67.383,119.629,28.809,0
1541599418.620,27.832,46.875,70.312,86.426,39.062,0
1541599418.624,13.672,43.945,71.289,25.879,86.914,0
1541599418.628,9.766,41.992,72.266,41.016,66.895,0
1541599418.632,33.203,40.527,73.242,98.633,45.410,0
1541599418.636,36.133,45.410,73.730,96.191,39.551,0
1541599418.640,13.672,48.340,74.219,27.344,20.996,0
1541599418.644,6.348,40.527,71.289,14.648,45.410,0
1541599418.648,22.949,39.551,70.312,78.613,42.480,0
1541599418.651,26.367,38.086,69.336,91.797,84.961,0
1541599418.655,1.953,33.691,67.383,34.668,55.176,0
1541599418.659,0.488,38.086,65.430,6.348,17.578,0
1541599418.663,19.531,38.574,62.988,55.176,29.785,0
1541599418.667,28.809,35.156,64.941,103.516,83.984,0
1541599418.671,11.719,39.551,71.289,64.453,45.410,0
1541599418.675,1.953,42.480,71.777,13.184,-22.949,0
1541599418.679,17.090,38.086,64.941,41.016,46.875,0
1541599418.683,26.855,38.086,64.453,97.168,62.988,0
1541599418.687,18.066,44.922,71.289,87.891,35.645,0
1541599418.691,8.789,51.758,76.660,31.738,48.828,0
1541599418.694,10.254,49.805,71.289,34.668,76.172,0
1541599418.698,23.926,43.457,62.988,93.750,94.727,0
1541599418.702,34.668,42.969,68.359,102.539,-5.371,0
1541599418.706,17.090,44.922,69.336,43.457,1.953,0
1541599418.710,6.836,42.480,63.965,23.438,43.457,0
1541599418.714,27.344,42.969,60.547,84.473,-65.918,0
1541599418.718,34.668,43.457,61.035,111.328,-47.363,0
1541599418.722,19.043,46.387,67.871,60.547,78.125,0
1541599418.726,5.859,50.781,70.801,23.926,68.848,0
1541599418.730,19.531,45.410,63.477,62.988,25.391,0
1541599418.733,39.062,46.387,61.523,111.816,25.879,0
1541599418.737,24.902,45.898,69.824,77.148,86.426,0
1541599418.741,4.395,34.668,73.242,23.438,156.250,0
1541599418.745,14.160,36.621,65.430,47.852,87.891,0
1541599418.749,38.574,48.828,61.523,107.422,-50.293,0
1541599418.753,28.809,53.711,59.570,86.426,-23.438,0
1541599418.757,6.836,55.176,53.223,10.742,84.473,0
1541599418.761,17.578,60.547,45.410,10.742,26.367,0
1541599418.765,34.180,62.012,40.039,71.777,14.648,0
1541599418.769,38.574,64.453,37.109,73.242,39.062,0
1541599418.773,22.949,67.383,33.691,8.301,18.555,0
1541599418.776,15.137,68.359,32.227,-8.789,-1.953,0
1541599418.780,33.691,67.383,37.109,55.664,-10.254,0
1541599418.784,42.480,61.035,37.598,87.891,12.695,0
1541599418.788,28.809,58.594,42.480,39.551,14.648,0
1541599418.792,13.184,53.711,47.852,0.000,-11.719,0
1541599418.796,20.508,53.711,45.410,40.527,-24.902,0
1541599418.800,38.086,55.176,46.875,92.285,-44.434,0
1541599418.804,21.973,49.316,43.457,59.082,-22.461,0
1541599418.808,5.371,53.223,40.039,6.348,28.320,0
1541599418.812,14.160,52.734,41.504,27.344,-36.133,0
1541599418.816,26.367,49.316,41.504,82.520,6.348,0
1541599418.819,20.996,54.688,44.922,75.684,41.016,0
1541599418.823,0.488,55.176,50.293,18.555,-21.484,0
1541599418.827,10.742,55.176,51.758,10.254,43.457,0
1541599418.831,31.738,55.664,54.199,68.359,21.973,0
1541599418.835,27.344,52.734,55.664,84.961,31.250,0
1541599418.839,3.418,46.875,53.711,20.508,34.180,0
1541599418.843,-1.465,48.828,51.270,-8.789,-0.488,0
1541599418.847,3.906,48.828,47.852,39.062,11.719,0
1541599418.851,11.719,42.480,46.387,69.824,-49.316,0
1541599418.855,7.812,51.270,49.316,30.273,-11.719,0
1541599418.858,-10.254,52.246,47.363,-13.672,68.848,0
1541599418.862,2.441,47.363,45.410,24.902,63.477,0
1541599418.866,21.973,46.387,42.969,86.426,48.340,0
1541599418.870,14.160,47.363,42.969,58.105,51.270,0
1541599418.874,-3.906,45.898,45.898,-9.277,35.645,0
1541599418.878,0.977,47.852,45.410,5.859,27.832,0
1541599418.882,18.066,47.363,41.504,67.871,74.219,0
1541599418.886,16.113,48.340,42.969,64.941,21.973,0
1541599418.890,-4.883,51.758,51.758,-3.418,-15.137,0
1541599418.894,-17.578,42.969,53.711,-23.438,52.734,0
1541599418.898,-0.488,44.434,56.152,47.363,63.477,0
1541599418.901,4.883,50.781,59.570,69.824,85.449,0
1541599418.905,-30.273,49.805,61.523,-3.906,95.703,0
1541599418.909,-43.945,52.246,66.406,-39.551,43.457,0
1541599418.913,-29.785,52.734,69.824,10.254,74.219,0
1541599418.917,-21.484,56.152,78.613,41.992,68.848,0
1541599418.921,-48.340,57.129,79.590,-17.578,-31.250,0
1541599418.925,-79.590,57.129,73.242,-87.891,3.906,0
1541599418.929,-84.961,61.523,83.984,-62.500,9.766,0
1541599418.933,-93.750,64.453,88.867,-22.461,4.883,0
1541599418.937,-121.094,62.500,89.844,-74.707,22.949,0
1541599418.941,-144.531,71.289,107.422,-143.555,43.457,0
1541599418.944,-153.320,85.449,114.746,-145.996,50.781,0
1541599418.948,-174.805,78.613,97.168,-123.535,51.758,0
1541599418.952,-194.824,74.219,94.238,-140.137,92.285,0
1541599418.956,-204.590,80.566,106.445,-208.984,57.129,0
1541599418.960,-227.051,78.125,102.539,-243.652,45.898,0
1541599418.964,-233.398,70.801,93.262,-198.242,122.559,0
1541599418.968,-231.445,70.801,93.750,-171.875,60.547,0
1541599418.972,-258.301,70.801,95.215,-229.004,16.113,0
1541599418.976,-263.184,74.707,97.656,-263.672,78.613,0
1541599418.980,-250.977,75.195,89.355,-221.680,72.266,0
1541599418.983,-244.141,67.871,73.730,-178.223,49.316,0
1541599418.987,-250.488,69.336,72.754,-198.730,28.320,0
1541599418.991,-254.883,76.172,76.660,-240.234,13.672,0
1541599418.995,-235.840,74.707,76.660,-204.590,16.113,0
1541599418.999,-219.727,64.941,79.590,-137.207,29.785,0
1541599419.003,-205.566,71.777,81.055,-140.625,15.625,0
1541599419.007,-207.520,79.102,78.613,-191.895,63.965,0
1541599419.011,-196.777,72.266,79.102,-171.875,75.195,0
1541599419.015,-171.875,69.824,74.707,-100.098,50.781,0
1541599419.019,-161.133,67.871,73.242,-88.379,62.988,0
1541599419.023,-172.363,64.453,64.941,-140.137,65.430,0
1541599419.026,-169.922,62.500,58.105,-156.250,69.336,0
1541599419.030,-144.043,65.430,54.199,-89.844,114.258,0
1541599419.034,-123.535,72.754,53.223,-48.828,54.688,0
1541599419.038,-131.836,73.730,59.570,-99.121,12.695,0
1541599419.042,-136.719,71.289,64.453,-130.371,87.402,0
1541599419.046,-106.445,63.477,63.965,-70.312,57.617,0
1541599419.050,-81.055,54.688,58.594,-5.859,19.531,0
1541599419.054,-78.125,59.082,62.500,-23.438,53.711,0
1541599419.058,-85.449,57.617,65.918,-68.359,37.598,0
1541599419.062,-59.570,45.410,64.453,-21.973,17.578,0
1541599419.066,-15.137,48.828,61.523,67.383,-13.672,0
1541599419.069,-11.230,50.293,63.965,69.824,7.812,0
1541599419.073,-17.578,42.969,68.359,18.555,50.781,0
1541599419.077,5.859,39.551,64.941,34.180,-13.184,0
1541599419.081,36.621,38.086,65.430,119.141,-2.930,0
1541599419.085,57.129,36.133,67.383,146.973,39.551,0
1541599419.089,63.965,33.691,66.406,101.074,-27.832,0
1541599419.093,56.152,29.297,73.242,89.844,-40.039,0
1541599419.097,74.219,18.555,74.707,150.391,-3.418,0
1541599419.101,101.074,19.043,68.848,205.078,0.977,0
1541599419.105,95.703,28.809,62.012,165.527,2.930,0
1541599419.108,95.215,27.344,62.988,127.930,15.625,0
1541599419.112,114.258,23.926,64.941,185.547,83.496,0
1541599419.116,136.230,19.531,61.523,244.629,20.508,0
1541599419.120,136.719,20.508,57.617,223.145,-59.082,0
1541599419.124,132.324,15.625,52.246,164.551,-4.883,0
1541599419.128,141.602,14.160,48.828,184.570,54.199,0
1541599419.132,168.457,18.555,51.758,258.789,21.484,0
1541599419.136,180.664,18.555,51.270,258.789,14.160,0
1541599419.140,162.598,19.043,50.293,196.777,41.016,0
1541599419.144,163.574,19.531,51.270,190.918,-46.875,0
1541599419.148,186.035,18.555,50.781,256.348,-23.438,0
1541599419.151,189.941,20.996,53.223,275.391,-15.625,0
1541599419.155,175.781,23.438,56.152,211.426,-18.555,0
1541599419.159,168.945,22.461,57.129,180.176,5.859,0
1541599419.163,171.875,16.602,51.270,226.074,-8.789,0
1541599419.167,181.641,12.207,46.387,263.672,-1.465,0
1541599419.171,172.852,19.043,50.293,220.703,31.738,0
1541599419.175,159.668,24.414,56.152,160.156,56.152,0
1541599419.179,171.875,21.484,52.246,186.035,10.742,0
1541599419.183,186.523,21.484,48.828,249.512,18.555,0
1541599419.187,181.152,29.785,53.711,232.422,42.480,0
1541599419.191,161.621,33.203,56.152,166.992,6.836,0
1541599419.194,147.461,28.320,54.199,169.922,17.090,0
1541599419.198,163.574,25.879,52.734,230.469,54.199,0
1541599419.202,166.016,29.297,53.711,229.980,20.020,0
1541599419.206,139.648,34.668,58.594,160.645,-11.230,0
1541599419.210,131.348,36.621,56.641,139.160,59.570,0
1541599419.214,149.902,36.133,51.758,194.824,71.777,0
1541599419.218,157.227,39.062,53.223,214.355,21.973,0
1541599419.222,129.883,39.062,53.223,147.949,47.363,0
1541599419.226,111.328,37.109,49.316,102.051,64.453,0
1541599419.230,123.047,37.109,52.246,147.949,1.465,0
1541599419.233,128.418,30.762,45.410,189.453,28.809,0
1541599419.237,110.352,28.320,40.527,142.090,123.535,0
1541599419.241,99.609,31.250,46.387,85.449,55.176,0
1541599419.245,112.793,35.156,46.875,111.328,-16.602,0
1541599419.249,120.117,35.645,49.805,170.410,47.363,0
1541599419.253,104.004,32.715,47.363,141.602,77.637,0
1541599419.257,81.055,29.785,40.527,71.289,106.934,0
1541599419.261,77.637,28.320,44.434,80.078,15.137,0
1541599419.265,96.680,29.297,49.805,134.766,-43.945,0
1541599419.269,98.145,20.508,46.875,137.207,62.012,0
1541599419.273,78.613,21.484,44.922,80.566,75.684,0
1541599419.276,75.195,40.527,50.781,59.570,6.836,0
1541599419.280,86.426,36.133,51.758,117.188,29.297,0
1541599419.284,91.797,29.297,50.781,148.438,18.555,0
1541599419.288,73.730,34.668,59.570,97.168,-4.883,0
1541599419.292,57.617,37.109,62.988,47.852,17.578,0
1541599419.296,71.289,38.574,54.688,87.891,40.039,0
1541599419.300,78.125,37.598,50.781,139.648,64.941,0
1541599419.304,60.059,35.645,53.223,101.074,68.848,0
1541599419.308,48.340,42.969,58.594,45.410,20.996,0
1541599419.312,46.387,36.621,59.082,63.477,54.688,0
1541599419.316,57.617,28.320,57.129,132.324,101.074,0
1541599419.319,55.664,35.156,61.523,130.371,4.883,0
1541599419.323,35.645,36.133,65.430,62.012,16.602,0
1541599419.327,32.227,37.109,67.383,59.082,61.035,0
1541599419.331,57.617,40.527,67.383,122.070,42.480,0
1541599419.335,60.547,39.551,70.312,132.812,5.859,0
1541599419.339,33.691,43.945,71.289,70.312,60.059,0
1541599419.343,33.203,50.293,70.312,41.992,55.176,0
1541599419.347,47.852,43.945,67.871,92.773,-11.719,0
1541599419.351,52.734,37.598,60.059,121.094,74.219,0
1541599419.355,35.156,42.969,58.105,67.383,144.531,0
1541599419.358,23.438,37.109,55.176,11.230,124.023,0
1541599419.362,40.527,26.367,55.176,44.434,24.902,0
1541599419.366,54.688,36.621,51.758,104.980,31.738,0
1541599419.370,42.480,49.805,52.246,79.102,82.031,0
1541599419.374,12.695,42.480,63.965,16.602,90.820,0
1541599419.378,11.719,25.391,67.871,32.227,121.094,0
1541599419.382,40.039,25.879,72.754,105.469,101.074,0
1541599419.386,40.039,28.320,77.148,108.887,90.332,0
1541599419.390,17.578,20.508,83.008,43.945,85.938,0
1541599419.394,13.184,21.973,89.844,41.016,39.551,0
1541599419.398,35.645,17.090,93.262,112.793,34.668,0
1541599419.401,54.688,9.277,99.121,141.113,36.133,0
1541599419.405,44.922,4.883,104.980,89.844,32.715,0
1541599419.409,39.062,4.883,111.816,72.754,19.531,0
1541599419.413,50.293,-2.930,113.770,127.441,41.992,0
1541599419.417,62.988,-7.812,111.328,169.434,39.062,0
1541599419.421,61.523,1.465,111.816,134.277,23.926,0
1541599419.425,57.617,9.766,114.746,83.496,15.625,0
1541599419.429,71.289,9.277,112.305,110.840,20.996,0
1541599419.433,89.355,4.395,120.605,173.340,72.754,0
1541599419.437,93.262,9.277,125.977,158.691,7.812,0
1541599419.441,83.496,15.137,120.117,95.703,-52.734,0
1541599419.444,88.867,18.066,116.211,98.633,37.109,0
1541599419.448,107.910,18.555,105.957,159.180,93.750,0
1541599419.452,105.957,14.648,101.562,164.551,74.219,0
1541599419.456,91.797,17.578,105.957,105.469,53.223,0
1541599419.460,91.309,20.996,104.980,101.074,19.043,0
1541599419.464,107.910,16.113,101.562,157.227,60.547,0
1541599419.468,123.535,20.996,102.051,177.734,94.727,0
1541599419.472,104.004,21.973,103.027,120.605,59.570,0
1541599419.476,83.496,21.484,100.586,76.172,47.363,0
1541599419.480,96.191,25.879,95.703,119.141,80.566,0
1541599419.483,97.168,23.438,97.168,163.574,101.562,0
1541599419.487,72.754,27.344,95.703,117.188,72.266,0
1541599419.491,61.523,28.809,85.449,52.246,41.504,0
1541599419.495,67.383,24.414,80.566,79.102,47.363,0
1541599419.499,82.031,26.855,86.426,143.066,131.836,0
1541599419.503,87.402,31.738,91.309,125.977,101.562,0
1541599419.507,77.148,37.598,93.262,67.383,36.133,0
1541599419.511,73.242,41.504,89.844,72.754,20.996,0
1541599419.515,87.891,40.527,86.914,129.883,44.434,0
1541599419.519,83.984,36.621,86.914,136.230,116.211,0
1541599419.523,61.523,39.551,87.891,74.219,63.477,0
1541599419.526,53.711,41.992,83.496,51.270,2.441,0
1541599419.530,68.848,41.992,75.684,110.352,25.391,0
1541599419.534,78.125,43.457,76.172,140.137,103.027,0
1541599419.538,60.059,43.945,77.148,78.613,85.449,0
1541599419.542,41.992,41.992,69.336,30.273,26.855,0
1541599419.546,48.828,42.480,65.430,71.777,1.953,0
1541599419.550,62.988,42.480,74.707,118.164,75.684,0
1541599419.554,46.875,41.992,75.195,77.637,95.703,0
1541599419.558,33.691,41.016,70.801,20.508,-36.133,0
1541599419.562,38.574,38.574,71.777,40.527,-37.109,0
1541599419.566,50.781,36.621,71.777,106.934,71.777,0
1541599419.569,45.898,37.598,71.777,92.285,89.844,0
1541599419.573,24.902,41.016,70.312,19.531,10.742,0
1541599419.577,28.320,44.434,62.500,26.367,3.418,0
1541599419.581,51.270,46.875,62.012,90.820,62.500,0
1541599419.585,49.316,47.363,73.730,98.145,51.758,0
1541599419.589,21.973,43.945,77.148,30.762,44.434,0
1541599419.593,18.555,49.805,75.195,1.465,35.645,0
1541599419.597,40.039,51.270,74.707,59.082,29.297,0
1541599419.601,45.898,43.945,75.195,99.121,58.105,0
1541599419.605,26.855,45.898,72.754,50.293,37.109,0
1541599419.608,19.043,50.781,66.895,1.465,53.223,0
1541599419.612,39.062,52.246,62.988,39.551,53.223,0
1541599419.616,41.016,44.434,62.500,95.703,64.941,0
1541599419.620,14.648,40.527,69.336,63.477,38.086,0
1541599419.624,-2.441,40.527,75.684,-0.488,-13.672,0
1541599419.628,-1.465,33.203,76.660,14.160,29.785,0
1541599419.632,11.230,31.250,73.730,77.637,80.078,0
1541599419.636,9.766,37.109,72.754,72.266,62.012,0
1541599419.640,-3.418,44.434,72.754,2.441,32.715,0
1541599419.644,4.395,42.969,66.406,-7.324,37.109,0
1541599419.648,24.902,40.039,70.801,63.477,34.668,0
1541599419.651,23.926,39.551,80.566,86.426,59.082,0
1541599419.655,7.812,41.504,76.172,29.297,48.828,0
1541599419.659,2.930,39.551,76.660,-5.859,-59.570,0
1541599419.663,13.184,35.645,80.566,50.293,-54.199,0
1541599419.667,28.809,39.062,80.566,93.262,67.383,0
1541599419.671,20.508,41.504,80.566,41.016,24.414,0
1541599419.675,-0.488,37.109,81.055,-7.812,-42.969,0
1541599419.679,-7.324,30.762,78.613,27.832,-13.184,0
1541599419.683,7.324,35.156,78.125,90.820,24.414,0
1541599419.687,13.672,39.062,82.031,67.871,73.242,0
1541599419.691,0.000,37.598,90.332,0.977,29.297,0
1541599419.694,3.418,41.016,91.797,18.066,14.160,0
1541599419.698,19.043,41.992,84.473,82.031,58.594,0
1541599419.702,20.508,39.551,83.008,80.078,55.664,0
1541599419.706,3.906,40.527,83.496,15.625,-4.395,0
1541599419.710,-2.930,40.527,81.055,-6.348,-9.277,0
1541599419.714,12.695,39.551,78.613,57.129,72.754,0
1541599419.718,21.484,37.598,81.543,90.332,77.148,0
1541599419.722,4.883,39.551,85.449,30.762,64.941,0
1541599419.726,-9.277,44.434,84.473,-8.789,5.859,0
1541599419.730,11.230,48.340,94.727,45.410,-25.391,0
1541599419.733,25.391,42.969,94.238,83.984,37.109,0
1541599419.737,11.230,41.016,84.473,35.645,37.598,0
1541599419.741,-1.953,46.387,86.426,-18.066,39.062,0
1541599419.745,0.000,45.410,88.867,6.348,65.918,0
1541599419.749,1.465,45.410,85.938,63.965,69.824,0
1541599419.753,-21.484,38.086,91.797,46.387,75.195,0
1541599419.757,-39.551,25.879,102.051,-21.973,25.391,0
1541599419.761,-29.785,38.086,104.004,-16.602,31.250,0
1541599419.765,-19.531,53.711,94.727,33.691,38.574,0
1541599419.769,-45.898,56.641,86.426,6.836,19.043,0
1541599419.773,-90.332,65.918,97.656,-83.496,24.902,0
1541599419.776,-133.789,66.895,94.238,-138.672,51.758,0
1541599419.780,-154.297,76.172,80.566,-112.793,38.574,0
1541599419.784,-171.387,94.238,86.914,-108.398,35.645,0
1541599419.788,-219.727,102.051,83.496,-193.848,48.828,0
1541599419.792,-264.160,103.516,69.336,-267.090,2.441,0
1541599419.796,-273.926,104.492,66.895,-242.188,-4.883,0
1541599419.800,-276.367,112.305,71.289,-206.543,-10.742,0
1541599419.804,-300.781,116.699,76.172,-262.695,-26.855,0
1541599419.808,-319.336,116.211,68.359,-328.613,24.902,0
1541599419.812,-315.430,114.258,60.059,-311.523,24.414,0
1541599419.816,-304.688,116.699,57.129,-254.883,39.551,0
1541599419.819,-310.059,120.117,56.641,-263.672,92.285,0
1541599419.823,-326.172,114.258,54.688,-325.195,63.965,0
1541599419.827,-312.988,113.770,49.316,-314.453,-5.859,0
1541599419.831,-284.180,131.348,42.969,-242.676,-16.602,0
1541599419.835,-277.344,132.324,42.969,-216.309,32.715,0
1541599419.839,-282.715,114.746,47.852,-261.719,84.473,0
1541599419.843,-280.273,110.840,48.340,-281.738,-11.230,0
1541599419.847,-241.211,119.629,37.109,-203.613,-37.598,0
1541599419.851,-206.055,116.211,26.367,-131.348,40.527,0
1541599419.855,-212.891,99.121,51.270,-162.109,39.062,0
1541599419.858,-199.219,95.215,111.816,-190.918,-15.625,0
1541599419.862,-154.785,101.562,174.316,-131.348,-51.270,0
1541599419.866,-114.746,97.656,217.773,-60.059,2.930,0
1541599419.870,-95.703,90.332,227.051,-55.664,-2.930,0
1541599419.874,-90.820,89.355,218.750,-88.867,-13.184,0
1541599419.878,-71.289,82.520,207.520,-57.617,1.465,0
1541599419.882,-37.598,70.801,207.520,26.855,20.508,0
1541599419.886,-29.297,59.082,209.961,42.969,36.133,0
1541599419.890,-34.668,52.246,208.496,-5.371,-18.555,0
1541599419.894,-16.602,54.688,199.707,1.953,-26.367,0
1541599419.898,13.184,45.410,183.105,71.289,35.156,0
1541599419.901,34.668,37.109,174.316,105.469,-29.785,0
1541599419.905,32.715,40.527,175.293,62.500,-67.871,0
1541599419.909,42.480,46.387,173.340,41.504,-0.488,0
1541599419.913,68.848,40.527,166.504,102.539,12.695,0
1541599419.917,89.355,34.668,160.156,154.785,28.809,0
1541599419.921,85.938,32.715,157.715,122.559,-2.441,0
1541599419.925,82.031,31.738,150.391,69.824,20.020,0
1541599419.929,105.469,31.738,145.996,111.816,34.180,0
1541599419.933,123.535,27.344,145.996,185.547,-46.875,0
1541599419.937,112.793,26.367,139.648,167.480,-5.371,0
1541599419.941,95.215,25.391,135.742,103.516,2.441,0
1541599419.944,101.562,23.926,133.301,112.305,-25.879,0
1541599419.948,122.070,25.879,132.812,185.059,-3.906,0
1541599419.952,122.070,27.832,129.883,185.547,13.672,0
1541599419.956,101.074,27.832,128.906,115.234,5.859,0
1541599419.960,97.168,22.949,122.559,99.609,29.785,0
1541599419.964,116.211,24.902,112.305,154.785,56.641,0
1541599419.968,128.906,32.227,117.188,185.059,28.809,0
1541599419.972,114.258,31.738,119.141,130.371,-0.977,0
1541599419.976,98.633,32.715,108.398,86.426,-3.418,0
1541599419.980,114.746,37.598,110.352,139.648,-1.953,0
1541599419.983,123.047,35.645,109.863,185.059,-29.297,0
1541599419.987,100.098,33.203,105.957,141.602,-13.184,0
1541599419.991,93.262,35.645,109.863,92.773,34.180,0
1541599419.995,110.352,38.574,109.863,123.535,-20.020,0
1541599419.999,125.000,38.086,109.375,183.105,-28.809,0
1541599420.003,117.188,38.086,109.375,163.086,57.617,0
1541599420.007,92.285,37.598,104.980,96.191,20.020,0
1541599420.011,90.820,36.621,101.562,102.051,-7.812,0
1541599420.015,114.746,42.480,100.098,168.945,38.574,0
1541599420.019,114.746,41.992,95.215,176.270,57.129,0
1541599420.023,95.215,41.992,97.168,108.887,31.738,0
1541599420.026,93.262,48.828,104.492,88.867,-14.648,0
1541599420.030,111.816,47.363,101.562,143.555,31.738,0
1541599420.034,123.047,49.316,95.703,172.363,65.918,0
1541599420.038,101.562,48.340,97.168,121.094,-8.301,0
1541599420.042,83.984,39.551,93.262,72.266,14.160,0
1541599420.046,94.238,41.992,92.285,116.699,20.996,0
1541599420.050,104.980,50.293,93.262,170.898,2.441,0
1541599420.054,96.191,53.711,93.262,131.836,35.645,0
1541599420.058,84.961,59.082,97.168,68.359,50.293,0
1541599420.062,80.078,54.199,87.402,86.914,83.984,0
1541599420.066,88.867,46.387,82.520,149.414,88.379,0
1541599420.069,90.820,52.246,90.332,142.578,19.043,0
1541599420.073,69.336,52.734,88.867,70.801,-5.859,0
1541599420.077,63.477,51.270,88.867,65.430,28.809,0
1541599420.081,79.590,49.316,90.820,128.906,11.719,0
1541599420.085,85.938,53.223,88.379,144.043,13.184,0
1541599420.089,63.477,55.664,87.891,82.520,41.504,0
1541599420.093,55.176,51.758,84.473,50.781,29.785,0
1541599420.097,67.871,48.340,81.543,104.492,-26.367,0
1541599420.101,75.195,48.340,83.984,141.602,3.906,0
1541599420.105,67.383,54.688,90.820,86.914,11.719,0
1541599420.108,52.734,57.617,88.867,39.062,59.570,0
1541599420.112,62.500,55.176,79.590,81.543,63.965,0
1541599420.116,76.172,51.270,84.473,135.254,-7.324,0
1541599420.120,53.711,47.363,97.168,103.516,35.156,0
1541599420.124,39.062,42.480,95.703,39.551,40.527,0
1541599420.128,58.105,41.992,87.402,65.430,1.953,0
1541599420.132,71.289,45.898,79.102,130.371,-29.785,0
1541599420.136,63.965,48.340,72.266,117.188,18.555,0
1541599420.140,43.457,46.387,78.125,54.688,24.414,0
1541599420.144,39.062,40.527,83.008,52.246,57.129,0
1541599420.148,54.199,41.016,81.543,112.793,111.816,0
1541599420.151,57.617,45.410,78.613,126.953,86.426,0
1541599420.155,43.945,42.480,75.195,63.965,81.543,0
1541599420.159,41.016,40.527,72.754,27.832,27.832,0
1541599420.163,51.758,41.992,71.777,75.195,48.828,0
1541599420.167,67.871,41.992,74.707,120.605,37.109,0
1541599420.171,63.477,43.945,75.195,78.125,50.781,0
1541599420.175,42.480,45.410,72.266,27.832,68.848,0
1541599420.179,40.039,40.527,72.266,64.941,14.160,0
1541599420.183,57.617,42.480,72.754,120.605,67.871,0
1541599420.187,61.035,47.852,75.684,99.609,70.312,0
1541599420.191,42.480,50.293,79.102,41.504,-11.719,0
1541599420.194,40.039,48.828,78.613,48.340,26.367,0
1541599420.198,58.105,44.434,75.195,111.816,78.613,0
1541599420.202,56.152,45.898,75.195,119.629,16.602,0
1541599420.206,44.434,51.270,82.520,58.105,15.625,0
1541599420.210,34.180,47.852,83.496,42.969,93.750,0
1541599420.214,37.109,42.969,73.242,100.586,79.102,0
1541599420.218,49.805,45.410,70.312,124.023,32.715,0
1541599420.222,38.086,50.781,74.219,64.453,20.020,0
1541599420.226,24.902,49.805,73.242,26.367,36.133,0
1541599420.230,37.598,43.457,68.848,81.543,44.434,0
1541599420.233,53.223,45.410,69.824,127.930,33.203,0
1541599420.237,43.945,56.641,75.684,85.449,63.477,0
1541599420.241,32.227,58.594,72.754,23.438,110.840,0
1541599420.245,35.645,51.270,57.617,44.922,16.602,0
1541599420.249,48.340,51.270,50.293,108.398,18.066,0
1541599420.253,47.363,55.176,53.711,91.309,32.715,0
1541599420.257,29.297,51.758,30.762,22.949,-14.160,0
1541599420.261,29.785,49.316,-16.602,28.809,16.602,0
1541599420.265,47.363,51.270,-42.480,94.727,39.551,0
1541599420.269,38.574,47.363,-46.387,99.121,33.203,0
1541599420.273,23.438,44.434,-48.828,31.738,-16.113,0
1541599420.276,29.785,46.387,-51.758,18.555,1.953,0
1541599420.280,51.270,48.340,-48.340,83.496,75.195,0
1541599420.284,60.059,43.945,-37.598,111.816,16.113,0
1541599420.288,34.180,42.480,-34.668,60.547,-0.488,0
1541599420.292,22.949,44.922,-36.621,15.625,71.289,0
1541599420.296,45.410,46.875,-31.738,60.547,84.473,0
1541599420.300,56.641,52.246,-30.273,109.863,72.754,0
1541599420.304,36.133,48.828,-31.738,68.848,80.078,0
1541599420.308,16.113,42.480,-26.367,9.277,50.293,0
1541599420.312,20.508,43.945,-41.016,28.809,40.039,0
1541599420.316,32.227,43.457,-76.172,90.820,69.336,0
1541599420.319,25.879,41.992,-85.938,81.543,105.469,0
1541599420.323,14.160,46.875,-81.543,20.996,85.449,0
1541599420.327,20.996,45.410,-81.543,15.137,74.219,0
1541599420.331,29.297,38.086,-81.543,74.707,40.527,0
1541599420.335,22.461,37.109,-81.543,87.402,13.184,0
1541599420.339,4.883,39.551,-74.707,31.250,20.508,0
1541599420.343,-8.301,40.039,-65.918,8.789,3.906,0
1541599420.347,7.812,37.109,-63.965,59.570,73.730,0
1541599420.351,28.320,37.109,-63.477,100.098,103.516,0
1541599420.355,17.578,42.480,-58.105,51.758,22.949,0
1541599420.358,3.906,42.480,-55.664,2.441,29.297,0
1541599420.362,7.812,40.039,-55.176,42.480,75.684,0
1541599420.366,20.508,36.621,-49.316,100.586,15.625,0
1541599420.370,9.766,39.062,-40.039,74.219,-14.648,0
1541599420.374,-1.465,41.504,-36.133,16.602,63.965,0
1541599420.378,8.301,41.504,-32.715,34.180,64.453,0
1541599420.382,23.926,41.992,-29.297,92.285,34.180,0
1541599420.386,24.902,42.969,-28.320,84.961,80.078,0
1541599420.390,4.395,40.039,-26.855,15.625,100.098,0
1541599420.394,-4.883,33.691,-27.344,1.953,56.641,0
1541599420.398,11.230,36.621,-29.785,66.406,10.254,0
1541599420.401,21.484,41.992,-26.855,89.844,-15.625,0
1541599420.405,-1.953,42.969,-20.508,29.297,2.930,0
1541599420.409,-18.555,40.527,-18.555,-9.766,36.621,0
1541599420.413,2.441,40.039,-12.695,44.434,20.508,0
1541599420.417,15.137,40.527,-5.371,90.332,13.672,0
1541599420.421,-0.488,40.527,-6.348,42.480,12.207,0
1541599420.425,-11.230,40.039,-6.836,-9.277,-7.324,0
1541599420.429,2.930,37.109,-6.348,26.367,12.695,0
1541599420.433,22.949,39.551,-1.953,87.891,10.742,0
1541599420.437,11.719,39.062,0.488,59.570,2.930,0
1541599420.441,-10.254,36.133,3.418,-8.301,22.949,0
1541599420.444,-9.277,39.062,8.789,2.930,46.387,0
1541599420.448,7.812,35.645,4.883,66.895,-4.883,0
1541599420.452,5.859,32.227,4.395,62.012,-21.484,2
1541599420.456,-16.602,34.668,6.836,-6.348,18.555,0
1541599420.460,-16.602,32.715,7.324,-20.020,41.992,0
1541599420.464,-5.371,29.785,8.789,40.527,83.496,0
1541599420.468,0.000,32.715,12.207,70.312,23.926,0
1541599420.472,-12.207,36.621,19.043,17.578,12.207,0
1541599420.476,-23.438,40.527,21.484,-15.137,30.762,0
1541599420.480,-2.441,41.504,19.531,33.691,124.023,0
1541599420.483,18.555,37.598,21.484,85.938,149.902,0
1541599420.487,6.348,39.551,26.367,62.988,56.641,0
1541599420.491,0.000,43.945,30.762,9.277,27.344,0
1541599420.495,18.555,42.480,35.645,39.551,9.277,0
1541599420.499,29.785,37.598,34.668,97.656,-10.742,0
1541599420.503,20.508,36.133,32.715,76.660,-15.137,0
1541599420.507,5.371,39.551,35.645,15.625,42.969,0
1541599420.511,6.348,37.598,32.227,20.508,92.773,0
1541599420.515,22.949,35.645,34.668,84.473,35.156,0
1541599420.519,24.414,38.574,41.504,90.820,5.371,0
1541599420.523,6.836,40.527,36.133,21.973,18.066,0
1541599420.526,3.906,38.086,29.785,0.000,7.324,0
1541599420.530,15.625,32.227,28.809,56.152,22.949,0
1541599420.534,30.273,30.762,33.203,88.867,-16.113,0
1541599420.538,15.625,28.809,34.180,33.691,-47.363,0
1541599420.542,2.930,35.156,35.645,-10.254,-14.648,0
1541599420.546,13.672,38.574,41.504,41.016,20.020,0
1541599420.550,26.855,40.039,47.852,95.215,81.055,0
1541599420.554,18.066,40.527,45.898,57.617,83.984,0
1541599420.558,8.789,42.480,43.457,-6.836,34.668,0
1541599420.562,9.277,44.922,44.922,15.137,27.832,0
1541599420.566,19.531,41.992,42.969,82.520,62.012,0
1541599420.569,19.043,42.480,42.969,69.336,101.562,0
1541599420.573,0.977,40.039,42.480,-2.930,95.215,0
1541599420.577,2.441,39.062,41.504,-8.789,-23.926,0
1541599420.581,23.438,39.062,42.480,56.641,6.836,0
1541599420.585,23.438,37.109,44.434,72.754,20.020,0
1541599420.589,-1.465,36.133,45.898,13.184,6.836,0
1541599420.593,0.977,40.039,49.805,-9.277,11.230,0
1541599420.597,23.926,41.504,51.270,47.852,34.668,0
1541599420.601,35.156,40.039,49.805,92.773,77.637,0
1541599420.605,21.484,43.945,51.270,49.316,61.035,0
1541599420.608,9.277,46.875,52.246,-0.977,-11.230,0
1541599420.612,20.020,48.340,54.199,44.434,19.531,0
1541599420.616,33.691,42.969,52.734,96.680,52.734,0
1541599420.620,20.020,39.551,54.199,67.383,38.574,0
1541599420.624,10.254,41.016,57.129,14.648,14.160,0
1541599420.628,11.230,40.039,48.828,27.344,9.277,0
1541599420.632,29.297,40.527,46.387,89.844,68.359,0
1541599420.636,34.180,42.969,50.781,84.473,39.551,0
1541599420.640,11.719,45.410,54.688,19.043,8.789,0
1541599420.644,10.254,43.457,53.223,11.230,22.461,0
1541599420.648,24.902,41.504,50.781,72.754,26.367,0
1541599420.651,27.832,45.410,56.152,95.215,17.578,0
1541599420.655,10.254,46.875,62.012,37.598,54.199,0
1541599420.659,3.418,49.316,59.082,2.441,34.668,0
1541599420.663,15.137,49.316,53.711,53.711,3.906,0
1541599420.667,22.949,45.410,55.176,95.215,18.555,0
1541599420.671,13.184,45.898,61.035,54.688,-8.301,0
1541599420.675,7.324,48.340,62.500,1.953,35.645,0
1541599420.679,18.555,44.922,53.711,26.855,39.551,0
1541599420.683,26.367,43.457,51.270,84.961,20.020,0
1541599420.687,14.648,45.898,60.547,69.824,10.742,0
1541599420.691,-2.441,44.922,61.035,5.371,16.113,0
1541599420.694,2.441,44.922,55.664,8.301,16.113,0
1541599420.698,21.973,39.062,52.246,79.102,32.227,0
1541599420.702,23.926,38.574,53.223,82.031,86.914,0
1541599420.706,-4.883,40.039,58.105,7.812,82.520,0
1541599420.710,-12.207,36.133,54.688,-14.648,33.203,0
1541599420.714,10.254,34.180,51.758,47.852,0.000,0
1541599420.718,19.043,37.109,60.059,81.055,33.203,0
1541599420.722,3.906,40.527,66.895,27.344,56.641,0
1541599420.726,-4.883,37.109,59.570,-10.254,-34.180,0
1541599420.730,9.277,35.645,57.129,41.504,-31.250,0
1541599420.733,24.902,33.203,62.500,91.797,89.844,0
1541599420.737,9.766,34.668,64.941,55.176,46.387,0
1541599420.741,-8.301,34.180,63.477,1.953,30.273,0
1541599420.745,6.348,29.785,63.477,36.621,80.566,0
1541599420.749,34.180,35.156,66.406,98.633,35.645,0
1541599420.753,25.391,40.527,68.359,78.613,47.852,0
1541599420.757,4.395,36.133,68.359,11.230,-3.418,0
1541599420.761,7.324,36.133,67.871,15.625,-56.641,0
1541599420.765,21.973,39.062,70.801,82.031,30.762,0
1541599420.769,22.949,39.551,67.871,88.379,67.871,0
1541599420.773,0.488,43.457,64.453,28.320,1.953,0
1541599420.776,1.953,46.387,66.406,7.812,-4.395,0
1541599420.780,23.926,46.387,66.895,66.895,25.879,0
1541599420.784,32.715,47.852,66.895,102.051,36.621,0
1541599420.788,22.461,50.293,70.312,48.340,28.320,0
1541599420.792,4.883,46.387,70.801,2.930,21.973,0
1541599420.796,11.230,42.969,64.941,44.434,53.711,0
1541599420.800,30.273,43.457,62.988,94.238,40.527,0
1541599420.804,18.066,42.480,63.477,62.500,49.805,0
1541599420.808,6.836,43.457,60.547,-3.418,42.969,0
1541599420.812,10.254,40.527,57.617,9.277,61.035,0
1541599420.816,28.809,39.062,62.500,77.148,59.082,0
1541599420.819,33.203,42.969,66.406,75.684,1.465,0
1541599420.823,13.672,44.922,62.500,10.254,2.930,0
1541599420.827,20.020,45.898,63.477,1.953,42.969,0
1541599420.831,42.480,39.551,62.012,72.754,43.457,0
1541599420.835,46.387,41.016,60.547,90.820,47.363,0
1541599420.839,30.273,44.434,61.035,29.297,104.980,0
1541599420.843,19.531,43.945,61.523,8.301,51.758,0
1541599420.847,29.297,45.410,62.012,64.453,-4.395,0
1541599420.851,43.945,46.387,64.453,102.539,24.414,0
1541599420.855,38.086,52.734,69.824,53.711,-30.762,0
1541599420.858,25.879,54.199,72.754,7.812,-33.691,0
1541599420.862,32.227,51.758,66.406,51.758,-13.672,0
1541599420.866,40.039,50.293,60.059,104.492,64.453,0
1541599420.870,29.785,49.805,62.500,81.543,63.477,0
1541599420.874,8.789,46.387,62.012,11.230,-19.043,0
1541599420.878,11.230,41.504,58.594,17.578,31.738,0
1541599420.882,29.297,42.969,59.082,86.426,23.438,0
1541599420.886,20.996,40.039,55.664,75.195,4.883,0
1541599420.890,0.000,39.062,57.129,11.719,38.574,0
1541599420.894,-2.930,42.480,58.594,3.906,79.590,0
1541599420.898,19.531,42.969,60.547,68.359,46.875,0
1541599420.901,29.297,41.016,64.453,94.238,57.129,0
1541599420.905,11.230,41.504,61.523,29.785,77.148,0
1541599420.909,7.812,45.898,59.570,-4.395,-15.137,0
1541599420.913,19.531,41.016,59.082,47.852,15.137,0
1541599420.917,27.344,43.457,61.523,91.309,75.684,0
1541599420.921,20.996,49.805,61.035,46.875,18.066,0
1541599420.925,10.742,52.734,62.988,-6.348,-7.812,0
1541599420.929,13.672,52.246,64.941,28.809,51.270,0
1541599420.933,26.855,49.316,62.012,87.402,22.461,0
1541599420.937,28.320,55.664,64.453,64.453,-46.875,0
1541599420.941,16.113,56.641,68.848,8.789,-16.602,0
1541599420.944,18.555,49.316,65.918,19.531,44.922,0
1541599420.948,33.203,43.457,57.617,77.637,80.566,0
1541599420.952,36.133,43.457,60.547,83.496,20.508,0
1541599420.956,24.902,52.246,73.242,23.438,-13.672,0
1541599420.960,20.020,53.223,68.848,8.301,22.461,0
1541599420.964,25.879,46.387,57.617,67.383,-0.977,0
1541599420.968,32.227,45.898,60.547,101.074,-8.789,0
1541599420.972,22.949,49.316,66.406,48.828,8.789,0
1541599420.976,15.137,47.852,64.941,4.883,59.570,0
1541599420.980,31.250,46.387,58.105,49.316,55.664,0
1541599420.983,43.457,50.781,61.523,100.098,-31.738,0
1541599420.987,33.203,51.270,67.871,65.918,13.184,0
1541599420.991,20.020,50.293,66.406,6.348,32.227,0
1541599420.995,20.508,54.688,64.941,31.250,6.348,0
1541599420.999,34.668,53.223,65.918,96.680,3.906,0
1541599421.003,29.785,53.223,63.965,81.543,-0.977,0
1541599421.007,8.301,50.781,58.105,9.766,69.336,0
1541599421.011,11.230,44.434,55.176,10.742,24.902,0
1541599421.015,32.227,47.852,53.711,78.125,-23.926,0
1541599421.019,34.668,51.270,49.805,85.938,-21.973,0
1541599421.023,21.484,54.199,50.781,26.855,-16.113,0
1541599421.026,14.648,52.734,57.129,6.836,-2.930,0
1541599421.030,22.461,43.945,63.477,63.965,-1.953,0
1541599421.034,33.691,41.504,65.918,102.539,18.066,0
1541599421.038,16.602,50.781,65.918,54.688,5.371,0
1541599421.042,6.836,53.711,65.430,11.719,17.578,0
1541599421.046,26.855,57.129,66.895,60.059,21.973,0
1541599421.050,42.480,59.082,67.871,104.492,20.996,0
1541599421.054,29.785,57.129,70.801,65.918,28.809,0
1541599421.058,14.648,58.105,79.590,20.020,16.113,0
1541599421.062,29.297,58.105,75.195,44.434,0.488,0
1541599421.066,48.828,56.641,69.336,104.492,14.648,0
1541599421.069,41.016,54.688,67.871,89.355,20.996,0
1541599421.073,23.438,55.176,64.941,20.996,-9.277,0
1541599421.077,25.879,53.711,68.359,22.949,0.000,0
1541599421.081,42.969,56.152,71.289,87.891,44.922,0
1541599421.085,38.086,56.641,69.336,100.586,89.355,0
1541599421.089,21.484,57.129,71.289,45.410,63.965,0
1541599421.093,17.578,54.199,72.266,15.625,32.715,0
1541599421.097,29.785,50.781,67.383,61.035,44.922,0
1541599421.101,37.109,50.781,67.383,106.934,53.711,0
1541599421.105,26.855,53.223,70.801,61.035,37.109,0
1541599421.108,13.184,52.246,64.453,8.301,7.812,0
1541599421.112,15.137,47.852,60.547,43.457,72.754,0
1541599421.116,29.297,49.805,54.199,96.680,96.680,0
1541599421.120,21.973,50.293,50.781,73.730,16.602,0
1541599421.124,10.254,54.199,49.805,9.766,48.340,0
1541599421.128,13.672,54.688,47.363,25.391,83.008,0
1541599421.132,27.832,49.316,43.945,91.309,92.773,0
1541599421.136,33.691,49.805,43.457,81.543,27.832,0
1541599421.140,12.695,54.199,47.363,9.766,16.602,0
1541599421.144,8.789,52.246,49.316,-6.836,48.340,0
1541599421.148,33.691,47.852,48.340,61.523,21.973,0
1541599421.151,37.109,53.223,49.316,85.449,39.551,0
1541599421.155,20.508,54.199,51.270,23.926,53.711,0
1541599421.159,19.531,48.828,53.711,-4.395,91.797,0
1541599421.163,43.457,48.340,53.711,50.781,36.621,0
1541599421.167,47.363,49.805,52.734,101.562,29.297,0
1541599421.171,28.809,48.828,50.293,54.688,43.945,0
1541599421.175,21.484,49.316,47.363,-0.488,37.109,0
1541599421.179,22.461,45.898,47.363,36.621,54.199,0
1541599421.183,31.250,45.410,51.270,95.703,32.227,0
1541599421.187,30.762,49.805,58.594,75.195,75.195,0
1541599421.191,15.137,46.387,57.129,2.441,24.902,0
1541599421.194,14.160,43.945,55.176,9.766,-23.438,0
1541599421.198,26.855,43.945,54.688,77.637,-42.969,0
1541599421.202,31.738,44.434,54.688,83.984,-38.086,0
1541599421.206,13.184,45.410,56.641,20.996,-28.809,0
1541599421.210,7.812,44.922,53.711,1.465,14.160,0
1541599421.214,31.738,42.969,57.129,66.895,67.871,0
1541599421.218,36.133,41.992,58.105,97.168,62.988,0
1541599421.222,12.695,46.875,55.176,38.574,17.578,0
1541599421.226,6.836,49.316,56.152,-4.883,-27.832,0
1541599421.230,20.020,48.340,56.152,37.109,45.898,0
1541599421.233,34.668,46.387,58.594,87.402,77.637,0
1541599421.237,25.391,47.363,65.430,58.594,-5.371,0
1541599421.241,7.812,50.781,64.453,2.441,12.207,0
1541599421.245,20.508,48.340,58.105,26.367,39.062,0
1541599421.249,32.227,42.969,53.711,81.543,19.043,0
1541599421.253,21.973,42.969,55.176,63.965,21.973,0
1541599421.257,4.883,48.340,61.523,5.859,-0.488,0
1541599421.261,10.254,52.734,63.477,9.766,-34.180,0
1541599421.265,30.273,51.758,62.988,71.289,-6.348,0
1541599421.269,28.320,49.316,65.918,78.125,16.113,0
1541599421.273,5.371,48.828,63.965,13.184,22.949,0
1541599421.276,-2.930,45.898,56.152,-14.648,83.984,0
1541599421.280,11.230,40.039,52.734,45.410,80.078,0
1541599421.284,25.879,42.969,59.570,85.938,33.203,0
1541599421.288,15.137,43.945,59.570,28.809,43.945,0
1541599421.292,0.977,44.434,56.641,-18.066,50.293,0
1541599421.296,6.348,43.945,61.523,31.250,15.137,0
1541599421.300,12.207,41.016,60.547,88.867,62.012,0
1541599421.304,4.395,43.457,61.035,59.082,133.789,0
1541599421.308,-6.348,46.875,60.059,-2.930,98.633,0
1541599421.312,1.953,42.969,55.176,18.066,22.949,0
1541599421.316,23.926,40.527,56.152,86.914,26.367,0
1541599421.319,25.879,43.945,60.547,75.684,32.227,0
1541599421.323,16.602,44.922,61.523,9.766,2.441,0
1541599421.327,19.531,44.434,62.012,13.672,-3.418,0
1541599421.331,40.527,48.340,66.406,81.543,25.879,0
1541599421.335,51.758,50.293,66.895,100.586,67.383,0
1541599421.339,32.227,47.363,66.406,41.504,67.383,0
1541599421.343,22.949,44.922,65.430,9.277,6.348,0
1541599421.347,32.227,46.387,61.035,64.941,23.926,0
1541599421.351,38.086,41.504,62.500,107.910,66.895,0
1541599421.355,26.367,41.992,64.941,56.641,-12.207,0
1541599421.358,12.207,46.387,63.965,2.930,35.645,0
1541599421.362,28.809,50.781,66.895,41.016,31.738,0
1541599421.366,40.527,49.805,65.918,92.285,-26.855,0
1541599421.370,24.902,41.992,61.523,62.012,10.742,0
1541599421.374,14.160,45.898,62.012,4.883,26.367,0
1541599421.378,20.508,53.223,66.406,21.973,0.000,0
1541599421.382,29.785,46.875,70.312,85.449,10.254,0
1541599421.386,34.668,46.387,71.777,90.332,84.473,0
1541599421.390,27.344,50.293,74.707,27.344,56.152,0
1541599421.394,13.672,44.434,69.824,11.230,78.125,0
1541599421.398,21.484,41.504,63.965,70.312,95.215,0
1541599421.401,36.621,44.434,65.430,94.727,53.223,0
1541599421.405,24.414,49.805,70.801,44.922,24.414,0
1541599421.409,18.066,51.270,71.289,9.766,22.949,0
1541599421.413,27.344,44.922,64.453,54.688,47.852,0
1541599421.417,36.133,42.480,63.965,101.074,62.988,0
1541599421.421,21.973,53.223,72.266,65.430,-0.488,0
1541599421.425,0.000,57.617,70.801,9.766,84.961,0
1541599421.429,14.160,50.293,69.336,32.715,121.582,0
1541599421.433,35.645,46.387,69.824,92.773,4.395,0
1541599421.437,30.273,50.293,67.383,83.496,24.902,0
1541599421.441,10.742,51.758,62.500,19.043,31.250,0
1541599421.444,2.930,47.363,59.082,16.602,-13.672,0
1541599421.448,17.578,44.922,60.059,75.684,53.711,0
1541599421.452,22.461,44.434,61.523,78.613,64.453,0
1541599421.456,0.488,43.945,60.547,16.113,50.781,0
1541599421.460,-4.395,44.434,60.059,-2.930,105.469,0
1541599421.464,17.578,43.945,61.035,61.523,50.293,0
1541599421.468,28.320,45.898,65.430,93.262,25.879,0
1541599421.472,12.695,48.828,68.359,43.457,64.453,0
1541599421.476,2.930,49.316,69.336,14.160,4.395,0
1541599421.480,21.973,51.758,73.730,64.453,-17.578,0
1541599421.483,34.180,51.270,69.336,111.328,66.406,0
1541599421.487,21.973,53.223,72.754,68.848,42.969,0
1541599421.491,7.812,55.176,79.102,10.254,4.395,0
1541599421.495,15.625,53.223,71.289,40.527,-17.578,0
1541599421.499,33.203,51.758,64.941,99.609,-35.645,0
1541599421.503,25.391,49.805,66.406,84.473,10.254,0
1541599421.507,3.906,48.340,67.871,21.484,-3.418,0
1541599421.511,9.277,52.734,66.895,26.367,26.367,0
1541599421.515,26.855,53.223,69.336,88.867,103.027,0
1541599421.519,27.832,48.828,64.941,88.867,121.582,0
1541599421.523,8.301,50.293,66.406,28.809,58.105,0
1541599421.526,-5.859,49.316,66.895,2.930,48.828,0
1541599421.530,6.348,45.410,58.105,53.223,39.062,0
1541599421.534,14.160,43.457,58.105,87.402,-27.344,0
1541599421.538,-3.906,46.875,59.570,31.250,-6.348,0
1541599421.542,-10.254,51.758,60.059,-10.742,-17.090,0
1541599421.546,2.930,50.781,61.523,35.645,20.508,0
1541599421.550,18.066,49.316,59.082,89.355,57.129,0
1541599421.554,11.230,48.828,60.547,54.688,-3.418,0
1541599421.558,-3.906,49.316,64.453,-6.348,-5.371,0
1541599421.562,5.859,45.898,59.570,17.090,55.176,0
1541599421.566,22.949,42.969,57.617,83.008,22.949,0
1541599421.569,19.531,50.781,57.617,75.195,-1.465,0
1541599421.573,13.184,59.570,55.176,12.695,52.734,0
1541599421.577,13.672,57.129,55.176,10.742,24.414,0
1541599421.581,21.484,49.316,55.176,76.172,-2.930,0
1541599421.585,22.461,46.875,61.035,94.727,13.184,0
1541599421.589,0.000,46.387,62.012,29.785,-15.625,0
1541599421.593,-7.812,43.457,56.641,-0.977,5.859,0
1541599421.597,13.672,41.504,57.129,59.082,31.738,0
1541599421.601,29.785,42.480,61.523,101.562,23.926,0
1541599421.605,15.137,45.410,60.547,56.152,66.895,0
1541599421.608,-0.488,43.457,56.641,5.371,9.766,0
1541599421.612,6.836,36.133,55.664,40.527,18.555,0
1541599421.616,20.508,33.203,52.734,103.027,19.531,0
1541599421.620,11.719,35.156,51.758,71.289,49.805,0
1541599421.624,-6.836,32.715,48.340,0.000,92.773,0
1541599421.628,3.418,33.203,48.340,16.602,-10.254,0
1541599421.632,26.367,32.715,51.270,80.078,-0.488,0
1541599421.636,20.996,35.156,49.805,75.195,59.570,0
1541599421.640,10.742,46.875,46.875,13.672,28.809,0
1541599421.644,14.160,48.828,50.293,4.395,-14.160,0
1541599421.648,19.531,38.574,55.664,60.547,36.133,0
1541599421.651,19.043,30.273,59.082,80.078,70.312,0
1541599421.655,5.371,27.344,61.523,26.855,31.738,0
1541599421.659,0.488,36.133,66.895,-6.348,20.020,0
1541599421.663,14.160,36.621,63.477,43.945,38.574,0
1541599421.667,30.273,35.156,56.152,91.797,45.410,0
1541599421.671,13.184,36.133,53.711,46.875,48.828,0
1541599421.675,-2.441,36.621,53.711,-9.277,-13.672,0
1541599421.679,10.742,38.574,53.711,27.344,-11.719,0
1541599421.683,23.926,40.039,53.711,89.844,21.484,0
1541599421.687,15.625,38.574,59.082,63.965,-4.883,0
1541599421.691,-4.395,38.574,60.059,0.488,67.871,0
1541599421.694,-5.371,41.992,56.152,3.906,23.926,0
1541599421.698,11.719,37.109,52.734,63.477,3.418,0
1541599421.702,13.672,36.133,51.270,77.148,16.602,0
1541599421.706,0.977,44.434,60.547,18.555,9.277,0
1541599421.710,-4.883,42.969,65.430,-0.977,43.457,0
1541599421.714,10.742,41.992,57.129,62.500,44.922,0
1541599421.718,27.344,45.410,55.664,99.121,-6.836,0
1541599421.722,16.113,42.480,60.547,48.340,1.953,0
1541599421.726,1.953,39.062,59.082,3.906,18.066,0
1541599421.730,14.160,39.062,59.082,53.223,-5.859,0
1541599421.733,31.250,39.551,62.988,108.887,80.566,0
1541599421.737,23.438,41.504,64.941,69.824,78.613,0
1541599421.741,6.836,39.551,62.012,8.789,33.203,0
1541599421.745,8.789,34.180,57.617,32.715,58.105,0
1541599421.749,29.297,37.109,57.129,96.191,31.250,0
1541599421.753,27.832,40.527,60.547,83.496,45.410,0
1541599421.757,7.324,37.598,63.477,18.555,38.086,0
1541599421.761,11.230,38.574,58.594,22.949,-0.977,0
1541599421.765,34.668,42.480,56.641,85.938,7.324,0
1541599421.769,33.203,41.504,62.012,91.797,43.945,0
1541599421.773,12.207,40.527,64.453,28.809,20.996,0
1541599421.776,12.207,42.480,61.035,3.906,22.461,0
1541599421.780,30.762,45.898,61.523,64.453,52.246,0
1541599421.784,31.250,48.340,63.477,96.680,76.172,0
1541599421.788,10.742,45.898,64.941,41.016,71.289,0
1541599421.792,0.977,44.434,64.453,-10.742,70.801,0
1541599421.796,8.301,44.434,65.918,29.785,56.152,0
1541599421.800,21.973,45.410,67.383,84.961,28.320,0
1541599421.804,15.625,43.945,66.895,51.270,29.785,0
1541599421.808,6.836,43.945,66.406,-3.906,23.926,0
1541599421.812,16.113,45.898,64.453,18.555,3.418,0
1541599421.816,24.414,41.992,63.965,83.496,20.508,0
1541599421.819,14.160,39.551,62.988,74.707,41.016,0
1541599421.823,-6.836,42.480,66.406,5.371,20.996,0
1541599421.827,-9.277,40.039,63.477,-2.930,7.324,0
1541599421.831,6.348,36.133,58.594,64.453,11.230,0
1541599421.835,8.301,36.133,60.059,83.008,16.602,0
1541599421.839,-10.254,40.039,60.547,19.043,29.297,0
1541599421.843,-5.371,44.434,61.035,-9.277,30.762,0
1541599421.847,10.254,39.062,56.152,40.527,48.340,0
1541599421.851,12.207,39.551,56.641,83.984,54.688,0
1541599421.855,7.812,50.781,67.383,47.852,33.203,0
1541599421.858,-0.488,46.875,69.336,-1.465,51.270,0
1541599421.862,13.672,42.969,66.406,37.598,102.539,0
1541599421.866,33.691,48.828,67.871,99.609,36.621,0
1541599421.870,23.438,46.387,66.895,71.289,-25.391,0
1541599421.874,9.766,46.875,64.453,8.789,40.527,0
1541599421.878,12.695,48.828,67.383,24.414,13.184,0
1541599421.882,26.367,44.922,64.453,90.820,44.434,0
1541599421.886,23.438,48.828,63.477,92.285,80.566,0
1541599421.890,-0.977,51.758,64.941,20.996,62.988,0
1541599421.894,-1.465,44.922,56.152,-0.977,39.551,0
1541599421.898,18.066,41.016,53.223,61.523,1.465,0
1541599421.901,16.602,41.992,59.570,83.496,0.977,0
1541599421.905,3.418,45.410,61.523,26.855,4.395,0
1541599421.909,-12.207,42.969,59.082,-8.301,0.000,0
1541599421.913,1.465,41.016,58.105,45.410,10.742,0
1541599421.917,20.996,42.480,60.547,94.238,85.449,0
1541599421.921,10.254,43.457,64.453,50.293,91.797,0
1541599421.925,0.488,42.969,61.523,-5.859,65.918,0
1541599421.929,7.812,40.527,55.664,25.391,51.758,0
1541599421.933,22.461,39.062,56.152,82.031,-1.953,0
1541599421.937,16.113,39.551,58.105,58.594,35.645,0
1541599421.941,-2.930,41.504,56.152,0.000,27.832,0
1541599421.944,3.906,38.574,61.035,17.578,19.531,0
1541599421.948,23.926,33.203,62.988,82.031,32.715,0
1541599421.952,23.438,40.039,57.129,78.613,48.340,0
1541599421.956,15.137,55.664,57.129,13.672,33.203,0
1541599421.960,13.672,59.082,54.688,-1.465,-3.418,0
1541599421.964,30.273,53.223,50.781,58.105,48.828,0
1541599421.968,39.062,51.270,52.734,90.820,63.965,0
1541599421.972,17.578,52.246,55.664,39.551,33.691,0
1541599421.976,1.465,52.246,57.617,3.418,31.738,0
1541599421.980,11.719,53.711,59.082,48.340,22.949,0
1541599421.983,24.414,47.852,56.641,90.332,29.785,0
1541599421.987,12.695,49.316,59.082,62.012,50.293,0
1541599421.991,3.906,52.246,62.500,7.324,20.508,0
1541599421.995,8.789,46.875,60.059,29.785,22.949,0
1541599421.999,20.996,45.898,56.641,91.797,25.391,22
1541599422.003,25.879,48.828,56.152,73.242,-29.297,0
1541599422.007,13.184,49.805,56.152,9.766,-38.574,0
1541599422.011,12.207,46.875,58.594,13.672,11.719,0
1541599422.015,30.762,43.945,60.059,77.148,58.594,0
1541599422.019,31.738,47.852,61.035,92.285,43.945,0
1541599422.023,3.418,49.805,62.500,24.414,12.695,0
1541599422.026,0.488,47.852,60.547,-8.789,14.648,0
1541599422.030,16.602,46.875,54.688,50.293,23.438,0
1541599422.034,20.508,48.828,56.152,90.820,17.090,0
1541599422.038,8.301,52.734,56.641,39.062,39.551,0
1541599422.042,-0.488,54.688,57.617,-13.184,49.316,0
1541599422.046,11.230,52.246,57.617,27.832,14.648,0
1541599422.050,26.367,50.781,57.129,85.449,18.555,0
1541599422.054,18.066,53.711,63.965,57.129,70.312,0
1541599422.058,-1.465,51.758,63.965,-3.418,87.891,0
1541599422.062,11.230,50.781,60.059,18.066,46.387,0
1541599422.066,35.645,52.246,60.059,86.914,-16.113,0
1541599422.069,29.785,53.711,62.500,76.172,2.441,0
1541599422.073,3.906,52.246,62.500,9.277,64.941,0
1541599422.077,1.953,46.387,61.035,2.441,8.301,0
1541599422.081,23.438,45.410,59.570,59.570,-9.277,0
1541599422.085,22.949,50.293,61.523,82.031,38.086,0
1541599422.089,0.488,49.316,64.941,24.414,-6.836,0
1541599422.093,-0.488,46.387,64.453,-4.883,5.371,0
1541599422.097,13.672,46.875,62.500,53.223,58.105,0
1541599422.101,15.137,45.898,62.988,93.750,61.035,0
1541599422.105,3.906,48.828,66.895,50.293,12.695,0
1541599422.108,0.977,54.199,68.359,6.348,3.906,0
1541599422.112,16.602,57.129,72.754,43.945,17.578,0
1541599422.116,25.391,50.293,72.266,99.121,8.789,0
1541599422.120,9.766,46.875,65.918,71.289,15.625,0
1541599422.124,4.395,59.570,68.848,14.648,41.992,0
1541599422.128,12.207,60.059,69.336,33.203,0.488,0
1541599422.132,25.879,50.293,65.918,99.609,-9.277,0
1541599422.136,25.391,50.781,67.383,98.145,28.320,0
1541599422.140,15.625,54.199,72.266,35.156,77.148,0
1541599422.144,18.066,56.152,70.801,22.949,63.965,0
1541599422.148,25.391,53.223,64.941,83.008,18.555,0
1541599422.151,32.227,51.758,67.383,110.840,18.066,0
1541599422.155,16.113,54.199,73.730,56.152,-5.371,0
1541599422.159,6.836,52.734,71.777,13.184,69.336,0
1541599422.163,21.484,49.316,69.824,63.965,130.371,0
1541599422.167,38.086,49.316,69.824,111.816,27.344,0
1541599422.171,25.391,46.875,69.336,67.871,-15.625,0
1541599422.175,4.395,47.363,68.359,13.184,72.266,0
1541599422.179,11.719,46.387,64.453,41.504,98.633,0
1541599422.183,30.762,46.875,66.406,98.633,17.578,0
1541599422.187,24.902,47.363,70.312,76.660,23.926,0
1541599422.191,5.859,47.852,71.289,11.719,59.082,0
1541599422.194,13.672,48.340,68.359,17.578,13.672,0
1541599422.198,34.180,51.270,65.918,82.031,35.156,0
1541599422.202,41.016,57.129,68.359,85.938,53.711,0
1541599422.206,26.367,58.594,69.824,23.438,0.977,0
1541599422.210,19.043,56.152,67.383,2.930,-8.789,0
1541599422.214,33.691,52.246,67.871,65.430,18.066,0
1541599422.218,37.598,48.828,70.312,100.098,27.832,0
1541599422.222,18.555,51.758,70.312,42.480,58.105,0
1541599422.226,6.836,51.270,68.848,7.324,41.504,0
1541599422.230,24.414,47.852,67.871,58.105,10.742,0
1541599422.233,34.668,49.316,66.406,103.516,3.418,0
1541599422.237,22.461,46.875,66.406,64.941,62.012,0
1541599422.241,12.695,48.340,71.289,9.277,20.996,0
1541599422.245,14.160,43.945,72.754,35.645,-36.621,0
1541599422.249,32.227,37.598,69.336,98.633,14.648,0
1541599422.253,30.762,43.457,72.266,92.773,19.043,0
1541599422.257,9.277,41.504,71.777,27.832,70.312,0
1541599422.261,13.184,41.992,67.383,21.973,55.176,0
1541599422.265,24.414,44.922,69.824,83.496,-15.625,0
1541599422.269,28.320,40.039,68.848,94.727,-2.441,0
1541599422.273,21.484,45.898,69.336,34.180,3.906,0
1541599422.276,19.043,48.828,73.730,6.348,-58.105,0
1541599422.280,32.227,48.340,78.613,62.500,-60.059,0
1541599422.284,43.945,52.246,76.172,99.121,9.766,0
1541599422.288,27.832,51.758,69.824,44.922,19.531,0
1541599422.292,12.695,52.734,72.266,-0.977,-2.441,0
1541599422.296,16.113,50.293,71.777,41.016,60.059,0
1541599422.300,24.902,48.828,70.312,90.332,95.703,0
1541599422.304,19.531,52.734,72.754,53.711,31.738,0
1541599422.308,5.371,53.223,77.148,-3.418,65.918,0
1541599422.312,12.695,52.734,75.195,13.184,20.020,0
1541599422.316,25.879,48.828,69.824,79.102,16.602,0
1541599422.319,25.879,49.805,76.172,78.613,63.477,0
1541599422.323,9.766,50.293,80.078,13.184,17.090,0
1541599422.327,12.695,46.875,76.660,12.207,43.457,0
1541599422.331,25.879,42.969,74.219,77.148,76.172,0
1541599422.335,36.133,44.922,78.125,96.191,86.914,0
1541599422.339,19.043,48.828,85.449,31.738,22.949,0
1541599422.343,6.836,47.363,85.938,-0.488,-18.555,0
1541599422.347,28.320,48.828,80.566,60.059,-8.301,0
1541599422.351,38.086,48.340,75.195,97.168,23.438,0
1541599422.355,23.926,49.316,79.102,50.293,57.129,0
1541599422.358,10.254,48.828,79.590,-3.418,44.922,0
1541599422.362,15.625,49.805,77.637,38.574,32.227,0
1541599422.366,29.297,50.781,80.566,101.074,52.246,0
1541599422.370,16.113,45.898,79.102,70.312,73.730,0
1541599422.374,-8.789,45.410,78.125,8.301,39.062,0
1541599422.378,-1.953,44.922,77.148,20.508,2.930,0
1541599422.382,9.277,44.434,77.148,84.473,7.324,0
1541599422.386,10.254,48.828,80.566,92.285,14.160,0
1541599422.390,-3.418,50.293,82.031,32.715,18.066,0
1541599422.394,-10.254,49.316,79.590,15.625,-5.859,0
1541599422.398,12.695,50.293,78.125,76.660,19.531,0
1541599422.401,24.902,47.852,82.031,103.027,63.477,0
1541599422.405,12.695,46.387,87.891,47.852,49.316,0
1541599422.409,10.742,49.316,87.402,14.160,8.789,0
1541599422.413,32.227,48.828,82.520,62.500,11.230,0
1541599422.417,49.316,49.316,82.520,105.469,-3.418,0
1541599422.421,32.227,52.734,84.473,66.895,27.344,0
1541599422.425,20.020,54.688,89.844,16.602,18.066,0
1541599422.429,28.320,50.293,83.984,37.598,6.348,0
1541599422.433,40.527,49.316,77.637,91.797,34.180,0
1541599422.437,35.156,54.199,83.496,74.707,-7.812,0
1541599422.441,24.414,52.246,86.914,6.836,5.371,0
1541599422.444,22.461,48.828,85.938,9.277,34.180,0
1541599422.448,30.762,42.480,84.473,73.242,73.730,0
1541599422.452,34.180,43.457,85.938,82.031,18.066,0
1541599422.456,20.020,49.316,88.379,22.461,-1.953,0
1541599422.460,15.625,44.922,83.496,4.883,65.918,0
1541599422.464,29.297,39.551,80.078,67.383,97.168,0
1541599422.468,31.738,37.109,80.566,99.609,100.098,0
1541599422.472,20.020,40.039,80.078,51.758,89.844,0
1541599422.476,14.648,44.434,82.520,14.648,18.555,0
1541599422.480,20.020,40.039,83.008,58.594,-34.180,0
1541599422.483,32.227,38.574,76.660,105.469,-11.719,0
1541599422.487,27.344,43.945,75.684,69.824,59.570,0
1541599422.491,8.789,41.504,74.707,9.277,82.031,0
1541599422.495,9.277,33.691,69.824,31.250,70.312,0
1541599422.499,31.250,38.086,69.336,95.703,70.312,0
1541599422.503,24.414,40.527,68.848,80.566,24.902,0
1541599422.507,3.418,38.574,69.336,15.137,-17.090,0
1541599422.511,2.930,40.527,76.660,19.531,0.000,0
1541599422.515,17.578,37.598,78.613,83.008,0.977,0
1541599422.519,18.066,38.574,75.684,89.355,-18.555,0
1541599422.523,-0.488,41.992,71.777,28.320,4.395,0
1541599422.526,5.371,40.527,69.336,5.859,-2.441,0
1541599422.530,24.414,43.457,68.848,61.035,6.836,0
1541599422.534,38.574,47.852,70.312,99.609,42.969,0
1541599422.538,24.414,48.828,70.801,49.316,69.336,0
1541599422.542,15.625,50.781,68.359,0.977,15.625,0
1541599422.546,30.273,52.734,69.336,41.016,-3.906,0
1541599422.550,33.691,51.270,68.848,89.844,51.758,0
1541599422.554,21.484,48.828,66.406,56.641,72.266,0
1541599422.558,7.324,49.805,68.359,0.977,23.438,0
1541599422.562,6.348,52.246,70.801,22.461,38.574,0
1541599422.566,25.391,51.270,70.801,86.426,80.078,0
1541599422.569,26.367,46.387,70.312,76.172,48.340,0
1541599422.573,11.230,49.316,73.242,15.625,48.828,0
1541599422.577,20.508,52.246,73.730,15.137,62.988,0
1541599422.581,32.227,48.828,72.266,77.148,73.242,0
1541599422.585,31.250,50.781,75.195,94.727,36.133,0
1541599422.589,12.207,52.734,73.242,32.227,20.020,0
1541599422.593,3.418,53.223,72.754,0.977,69.336,0
1541599422.597,18.066,50.781,72.754,51.758,68.848,0
1541599422.601,30.273,52.246,75.684,98.633,43.945,0
1541599422.605,21.484,57.617,82.031,64.941,27.832,0
1541599422.608,12.207,55.176,75.195,15.137,-1.465,0
1541599422.612,25.879,51.758,69.824,48.340,44.434,0
1541599422.616,39.551,51.758,70.312,102.051,37.109,0
1541599422.620,25.391,54.688,66.895,77.637,-0.977,0
1541599422.624,6.836,53.711,65.430,10.254,-15.625,0
1541599422.628,9.277,50.781,66.895,18.555,15.137,0
1541599422.632,24.414,46.875,62.988,84.473,101.562,0
1541599422.636,25.391,47.363,61.035,78.613,74.219,0
1541599422.640,6.836,50.293,62.012,1.465,30.273,0
1541599422.644,1.465,47.852,62.500,-9.277,-4.395,0
1541599422.648,17.090,47.363,62.012,62.012,-21.484,0
1541599422.651,29.785,48.340,59.082,87.402,66.406,0
1541599422.655,19.043,45.410,63.477,31.250,60.547,0
1541599422.659,11.719,44.434,67.383,2.441,-19.043,0
1541599422.663,28.809,53.711,62.500,55.664,0.488,0
1541599422.667,42.480,56.641,58.594,99.121,6.836,0
1541599422.671,19.043,52.734,58.594,62.500,20.020,0
1541599422.675,2.930,53.223,58.105,4.883,44.922,0
1541599422.679,22.949,50.293,58.105,29.297,59.570,0
1541599422.683,45.410,50.781,61.523,94.238,84.473,0
1541599422.687,38.086,52.246,61.523,70.312,51.270,0
1541599422.691,8.301,43.945,54.199,-1.953,14.160,0
1541599422.694,-0.977,30.762,41.992,-3.906,-31.250,0
1541599422.698,8.789,23.438,32.715,58.105,-26.855,0
1541599422.702,9.766,23.926,33.691,64.941,69.824,0
1541599422.706,-7.324,27.344,38.574,0.000,88.379,0
1541599422.710,-11.230,28.320,39.551,-12.695,1.465,0
1541599422.714,6.836,29.297,37.598,48.340,48.828,0
1541599422.718,13.184,32.715,33.203,76.172,90.332,0
1541599422.722,0.488,33.203,37.109,25.879,-8.301,0
1541599422.726,-7.812,35.156,40.527,-12.207,17.090,0
1541599422.730,6.348,34.180,43.457,35.156,60.547,0
1541599422.733,22.949,28.809,40.527,78.613,61.035,0
1541599422.737,11.719,35.645,38.574,40.527,48.340,0
1541599422.741,2.441,41.016,43.457,-4.883,10.742,0
1541599422.745,22.461,40.039,47.363,27.832,42.969,0
1541599422.749,33.691,41.016,48.340,92.773,43.457,0
1541599422.753,27.832,44.922,50.781,83.008,33.203,0
1541599422.757,15.137,46.387,57.617,18.066,68.359,0
1541599422.761,14.160,46.387,61.523,22.949,37.598,0
1541599422.765,33.203,45.410,56.152,85.938,51.758,0
1541599422.769,33.691,47.363,57.617,96.680,73.242,0
1541599422.773,12.207,49.316,58.105,37.598,33.203,0
1541599422.776,2.441,43.457,50.781,7.324,52.246,0
1541599422.780,19.043,38.574,47.852,59.082,78.613,0
1541599422.784,34.180,42.969,49.805,98.145,37.109,0
1541599422.788,21.973,48.828,53.711,50.293,26.855,0
1541599422.792,13.184,44.434,57.617,0.488,32.227,0
1541599422.796,24.414,39.062,55.664,40.039,-10.254,0
1541599422.800,32.227,45.898,59.082,95.215,-51.758,0
1541599422.804,20.020,46.875,60.547,59.570,-53.223,0
1541599422.808,4.395,41.992,52.246,-5.859,8.789,0
1541599422.812,10.742,43.457,52.246,7.324,39.062,0
1541599422.816,26.367,46.387,58.594,72.266,57.129,0
1541599422.819,29.297,52.246,62.500,66.406,60.547,0
1541599422.823,14.160,50.293,56.152,-10.742,9.277,0
1541599422.827,11.719,48.340,50.781,-12.695,43.945,0
1541599422.831,20.020,47.363,52.246,54.688,67.871,0
1541599422.835,22.949,45.410,51.758,65.918,-12.695,0
1541599422.839,13.672,44.922,54.688,9.277,-12.207,0
1541599422.843,4.883,42.480,54.688,-17.578,33.203,0
1541599422.847,20.508,47.363,56.641,41.992,-9.766,0
1541599422.851,27.832,44.434,63.477,85.449,34.668,0
1541599422.855,11.719,40.527,64.941,36.133,83.008,0
1541599422.858,1.953,42.480,63.965,-7.812,7.324,0
1541599422.862,13.184,45.410,60.547,29.785,9.277,0
1541599422.866,28.320,42.969,59.082,84.961,73.730,0
1541599422.870,22.461,40.039,62.012,64.941,38.086,0
1541599422.874,5.859,45.898,63.965,10.742,5.859,0
1541599422.878,7.324,44.434,63.477,27.832,41.992,0
1541599422.882,24.902,40.039,59.570,93.750,111.816,0
1541599422.886,37.598,41.504,60.059,101.562,104.004,0
1541599422.890,22.949,42.969,60.547,34.668,32.715,0
1541599422.894,13.672,43.945,58.594,18.066,10.254,0
1541599422.898,23.926,41.016,58.594,86.426,13.672,0
1541599422.901,33.691,41.504,60.059,112.793,27.832,0
1541599422.905,20.508,46.875,66.895,55.176,41.504,0
1541599422.909,8.789,45.898,65.918,20.020,48.340,0
1541599422.913,21.973,45.410,57.129,63.965,12.695,0
1541599422.917,37.598,45.898,59.570,108.887,-6.836,0
1541599422.921,29.297,45.898,67.871,76.172,42.480,0
1541599422.925,15.137,48.340,70.801,19.043,79.590,0
1541599422.929,20.020,41.992,65.918,51.758,73.242,0
1541599422.933,31.738,37.109,65.430,118.164,35.156,0
1541599422.937,18.555,39.062,64.941,96.680,37.598,0
1541599422.941,4.883,42.480,64.941,30.762,20.508,0
1541599422.944,12.207,41.504,65.430,37.598,8.789,0
1541599422.948,28.320,41.016,59.082,104.004,40.039,0
1541599422.952,34.668,45.410,60.059,104.980,44.434,0
1541599422.956,23.926,47.852,62.500,36.621,-27.832,0
1541599422.960,22.949,49.316,59.082,25.391,0.977,0
1541599422.964,39.062,47.852,59.570,90.820,6.836,0
1541599422.968,43.945,47.852,64.453,115.723,-25.879,0
1541599422.972,24.902,44.922,63.965,47.852,54.688,0
1541599422.976,13.184,43.457,57.617,6.836,31.250,0
1541599422.980,22.461,43.457,58.594,64.453,27.832,0
1541599422.983,36.621,42.969,61.035,113.281,65.430,0
1541599422.987,21.484,46.387,58.105,75.195,70.801,0
1541599422.991,7.324,44.434,59.082,15.137,51.270,0
1541599422.995,22.949,42.969,58.105,40.039,12.207,0
1541599422.999,37.598,47.852,54.199,107.422,-38.574,0
1541599423.003,25.879,46.387,55.664,96.191,0.488,0
1541599423.007,3.906,42.969,57.129,30.762,20.996,0
1541599423.011,10.742,47.363,57.129,26.367,15.625,0
1541599423.015,32.227,49.316,63.965,91.309,7.324,0
1541599423.019,27.344,48.340,62.500,103.027,-7.324,0
1541599423.023,8.789,50.781,59.082,40.527,-13.184,0
1541599423.026,7.324,50.781,59.082,19.531,-22.461,0
1541599423.030,18.555,45.898,57.617,73.242,39.551,0
1541599423.034,27.344,44.922,56.641,104.004,26.855,0
1541599423.038,20.996,49.316,60.547,58.105,21.484,0
1541599423.042,8.301,52.734,63.965,15.137,65.918,0
1541599423.046,22.949,54.199,60.059,54.199,40.527,0
1541599423.050,39.551,53.223,57.617,104.004,45.410,0
1541599423.054,26.855,54.199,60.059,69.824,70.312,0
1541599423.058,15.625,56.641,62.500,9.766,18.066,0
1541599423.062,17.578,51.758,59.082,20.996,40.527,0
1541599423.066,35.156,50.781,56.152,89.355,34.668,0
1541599423.069,35.156,52.246,53.711,83.496,13.184,0
1541599423.073,15.137,49.805,50.781,9.277,-0.488,0
1541599423.077,14.648,48.828,51.758,4.883,-19.043,0
1541599423.081,25.391,44.922,47.363,65.430,23.438,0
1541599423.085,25.391,44.922,45.898,81.055,30.273,0
1541599423.089,7.324,43.945,46.875,19.531,51.270,0
1541599423.093,0.488,43.945,48.340,-14.160,22.949,0
1541599423.097,18.555,45.898,49.805,43.945,34.668,0
1541599423.101,27.832,44.434,44.434,85.938,75.195,0
1541599423.105,12.695,45.410,44.434,37.598,51.270,0
1541599423.108,3.418,45.410,48.828,-8.301,46.875,0
1541599423.112,14.648,41.992,46.387,32.227,22.461,0
1541599423.116,37.109,43.945,50.293,94.727,36.133,0
1541599423.120,25.391,49.316,51.758,73.242,92.285,0
1541599423.124,6.836,43.945,46.387,6.348,52.734,0
1541599423.128,14.648,41.992,47.363,21.973,15.137,0
1541599423.132,28.809,46.387,48.340,90.820,75.684,0
1541599423.136,26.367,49.316,42.969,84.473,63.965,0
1541599423.140,4.395,50.293,42.480,22.949,7.812,0
1541599423.144,-2.441,45.898,46.387,11.230,4.883,0
1541599423.148,18.066,45.898,47.363,71.289,1.953,0
1541599423.151,30.762,46.387,46.387,93.262,32.227,0
1541599423.155,13.184,43.457,44.922,35.156,76.172,0
1541599423.159,5.371,46.387,50.293,6.836,29.297,0
1541599423.163,24.902,45.898,50.293,50.781,63.477,0
1541599423.167,40.039,44.434,44.434,90.820,67.871,0
1541599423.171,25.879,48.340,48.340,49.805,32.715,0
1541599423.175,14.160,49.316,55.664,-4.395,13.672,0
1541599423.179,18.555,43.457,48.340,21.973,9.766,0
1541599423.183,32.227,41.016,43.457,82.520,15.137,0
1541599423.187,27.344,46.875,49.805,67.383,28.320,0
1541599423.191,10.742,51.270,54.688,5.371,-33.691,0
1541599423.194,16.113,47.852,51.758,12.695,-30.762,0
1541599423.198,25.391,42.969,45.410,73.730,57.129,0
1541599423.202,29.297,43.457,48.340,83.496,38.086,0
1541599423.206,19.043,48.340,55.176,25.879,29.785,0
1541599423.210,11.719,47.363,53.711,6.836,31.250,0
1541599423.214,21.484,41.504,54.688,67.871,44.922,0
1541599423.218,24.902,40.039,58.594,97.168,15.625,0
1541599423.222,9.766,45.410,54.688,42.969,14.160,0
1541599423.226,6.348,45.898,52.246,0.000,60.547,0
1541599423.230,18.555,42.969,50.781,40.527,31.738,0
1541599423.233,24.902,43.945,49.805,95.703,34.180,0
1541599423.237,21.973,50.781,55.176,67.383,64.453,0
1541599423.241,14.160,49.316,57.617,4.395,62.012,0
1541599423.245,14.160,47.363,57.129,31.738,25.391,0
1541599423.249,29.297,52.246,60.059,99.121,41.992,0
1541599423.253,33.203,50.781,58.594,81.543,26.367,0
1541599423.257,12.695,48.828,58.105,22.949,-3.418,0
1541599423.261,8.301,49.316,61.523,24.902,34.180,0
1541599423.265,20.020,45.898,62.012,86.426,10.742,0
1541599423.269,19.043,43.457,55.664,92.285,32.715,0
1541599423.273,3.906,43.945,55.664,28.320,42.969,0
1541599423.276,-1.953,42.969,56.152,7.812,10.742,0
1541599423.280,13.184,45.898,53.223,59.082,-43.945,0
1541599423.284,26.855,43.945,55.176,92.285,21.973,0
1541599423.288,11.719,46.875,58.105,42.969,65.918,0
1541599423.292,1.465,49.805,61.035,-0.488,36.133,0
1541599423.296,20.508,44.922,58.594,46.387,40.039,0
1541599423.300,39.062,44.434,55.664,97.168,38.574,0
1541599423.304,30.762,44.922,57.617,60.547,37.109,0
1541599423.308,21.973,51.758,61.523,2.441,-4.883,0
1541599423.312,23.438,53.223,60.547,24.902,25.879,0
1541599423.316,35.645,43.457,61.035,91.309,68.359,0
1541599423.319,31.738,43.457,62.988,81.543,20.020,0
1541599423.323,12.207,50.293,60.547,14.160,3.906,0
1541599423.327,10.254,48.828,59.570,5.859,79.102,0
1541599423.331,25.879,45.898,57.617,67.871,63.965,0
1541599423.335,38.086,48.828,55.664,87.891,120.117,0
1541599423.339,19.531,51.270,57.617,24.414,117.188,0
1541599423.343,6.836,50.293,58.105,-4.883,37.598,0
1541599423.347,22.949,51.270,57.129,48.340,84.961,0
1541599423.351,37.109,49.805,56.152,87.891,42.969,0
1541599423.355,26.855,47.852,59.570,52.734,31.250,0
1541599423.358,15.625,46.387,59.570,5.371,83.984,0
1541599423.362,19.531,47.363,56.641,40.039,33.691,0
1541599423.366,31.250,48.828,55.664,97.168,-4.883,0
1541599423.370,23.438,48.340,59.570,72.754,49.316,0
1541599423.374,10.742,46.875,64.941,15.625,35.156,0
1541599423.378,17.578,47.852,62.500,29.297,-1.953,0
1541599423.382,30.273,43.457,55.664,90.820,38.574,0
1541599423.386,39.551,47.852,56.641,90.820,28.320,0
1541599423.390,25.879,52.246,60.547,21.484,25.879,0
1541599423.394,13.672,45.410,57.617,3.906,-24.414,0
1541599423.398,31.250,43.945,56.641,71.777,-6.348,0
1541599423.401,42.969,47.852,63.477,101.074,54.688,0
1541599423.405,25.391,49.805,64.453,41.504,27.832,0
1541599423.409,5.371,47.852,62.988,5.859,36.621,0
1541599423.413,10.254,39.551,60.547,59.082,54.199,0
1541599423.417,25.391,39.062,60.059,104.004,-9.277,0
1541599423.421,14.648,43.945,63.965,56.152,-35.156,0
1541599423.425,4.395,44.922,63.965,0.977,28.320,0
1541599423.429,14.648,43.457,64.453,29.297,10.254,0
1541599423.433,29.785,45.410,64.453,85.449,-9.766,0
1541599423.437,18.066,46.387,59.570,67.383,10.742,0
1541599423.441,4.395,48.828,58.105,4.883,12.207,0
1541599423.444,7.324,50.293,59.570,17.578,21.973,0
1541599423.448,18.066,43.945,60.059,81.543,25.391,0
1541599423.452,22.949,42.480,59.570,86.914,64.453,0
1541599423.456,8.789,45.410,62.988,30.273,-1.953,0
1541599423.460,3.906,45.410,64.453,15.137,-42.969,0
1541599423.464,8.789,41.016,62.012,73.730,42.969,0
1541599423.468,18.555,44.922,65.430,105.469,65.430,0
1541599423.472,14.160,54.199,70.801,53.223,-43.945,0
1541599423.476,6.348,54.199,67.871,13.672,-46.875,0
1541599423.480,23.926,53.223,68.848,58.594,32.715,0
1541599423.483,39.062,51.270,66.406,102.051,39.551,0
1541599423.487,31.738,49.316,59.082,65.430,-19.043,0
1541599423.491,18.555,47.852,62.012,12.695,-25.391,0
1541599423.495,21.973,49.316,64.941,41.504,6.348,0
1541599423.499,41.504,53.711,62.012,105.957,60.059,0
1541599423.503,41.504,56.641,63.965,93.750,79.102,0
1541599423.507,22.461,57.617,65.430,24.414,11.719,0
1541599423.511,19.531,53.223,60.547,21.973,-10.254,0
1541599423.515,30.273,49.805,59.082,84.473,-22.461,0
1541599423.519,42.480,52.734,65.918,99.121,-10.254,0
1541599423.523,38.086,60.547,68.848,36.133,-8.301,0
1541599423.526,25.879,58.594,67.383,8.301,48.340,0
1541599423.530,31.738,53.711,66.406,74.707,86.914,0
1541599423.534,41.504,53.711,64.453,119.629,10.742,0
1541599423.538,35.156,56.641,64.453,67.871,3.906,0
1541599423.542,23.926,55.664,62.988,21.484,79.590,0
1541599423.546,29.297,52.734,61.035,60.059,116.211,0
1541599423.550,37.598,49.805,65.918,114.746,37.598,0
1541599423.554,30.273,46.387,68.359,87.891,57.129,0
1541599423.558,11.230,50.293,64.941,24.414,62.988,0
1541599423.562,20.508,52.734,63.477,44.922,16.113,0
1541599423.566,41.016,49.316,65.918,111.816,3.906,0
1541599423.569,33.691,49.805,66.406,103.027,2.441,0
1541599423.573,20.508,49.805,62.988,35.645,55.664,0
1541599423.577,20.996,49.805,60.059,25.879,44.922,0
1541599423.581,32.227,48.828,60.547,89.355,-20.508,0
1541599423.585,35.645,45.898,60.547,102.539,-25.879,0
1541599423.589,12.695,46.387,58.594,37.598,-21.973,0
1541599423.593,4.395,46.387,57.617,11.719,44.922,0
1541599423.597,31.250,48.340,60.547,64.941,41.016,0
1541599423.601,47.852,50.781,63.477,104.004,15.137,0
1541599423.605,35.645,49.316,62.012,56.152,98.145,0
1541599423.608,17.578,44.922,60.547,4.883,46.875,0
1541599423.612,21.484,44.922,58.594,41.504,26.855,0
1541599423.616,37.598,44.922,53.711,90.820,90.820,0
1541599423.620,33.691,41.992,56.152,65.918,37.109,0
1541599423.624,17.090,45.410,59.570,8.789,23.438,0
1541599423.628,12.695,45.898,58.105,22.949,47.852,0
1541599423.632,23.926,39.551,56.152,89.355,31.738,0
1541599423.636,24.902,40.527,59.082,86.426,-4.395,0
1541599423.640,9.766,44.922,63.965,21.973,10.254,0
1541599423.644,4.883,42.969,62.012,4.883,-0.977,0
1541599423.648,20.020,39.551,58.105,64.453,-12.207,0
1541599423.651,21.484,38.574,58.105,94.238,28.809,0
1541599423.655,2.441,39.062,64.453,39.062,33.203,0
1541599423.659,-3.418,42.969,67.871,5.859,17.090,0
1541599423.663,7.324,41.016,59.082,51.270,79.102,0
1541599423.667,16.113,35.156,54.199,87.891,32.715,0
1541599423.671,5.371,41.016,57.129,47.852,-55.664,0
1541599423.675,-8.301,43.945,60.547,-7.324,-4.395,0
1541599423.679,-2.441,36.133,55.664,21.484,104.492,0
1541599423.683,14.160,35.645,51.758,84.473,101.074,0
1541599423.687,17.578,38.574,56.641,64.941,24.414,0
1541599423.691,4.395,37.109,58.105,0.488,47.363,0
1541599423.694,7.324,37.109,55.176,12.207,46.387,0
1541599423.698,25.391,38.086,55.176,80.078,11.230,0
1541599423.702,26.855,39.551,57.129,80.566,18.555,0
1541599423.706,9.277,42.969,58.594,14.648,27.832,0
1541599423.710,1.953,41.016,56.641,-2.930,0.488,0
1541599423.714,22.461,41.016,54.688,57.617,41.504,0
1541599423.718,33.691,50.293,59.082,86.914,53.711,0
1541599423.722,8.789,52.734,61.523,25.879,-8.301,0
1541599423.726,-5.371,46.875,56.152,-17.578,26.855,0
1541599423.730,13.184,45.410,62.988,40.039,61.523,0
1541599423.733,24.414,41.016,62.012,84.961,62.988,0
1541599423.737,16.113,40.039,54.688,39.062,46.875,0
1541599423.741,3.418,44.434,57.617,-10.742,-7.324,0
1541599423.745,5.859,41.016,57.617,21.484,9.277,0
1541599423.749,21.973,39.551,58.105,83.984,54.199,0
1541599423.753,20.020,44.922,60.059,75.195,114.746,0
1541599423.757,4.395,46.387,60.059,8.789,80.078,0
1541599423.761,2.441,44.434,58.594,12.207,4.883,0
1541599423.765,23.438,45.410,58.105,79.590,26.367,0
1541599423.769,22.461,43.457,54.688,83.984,48.828,0
1541599423.773,2.441,39.062,55.176,25.391,57.129,0
1541599423.776,7.812,42.480,54.688,4.395,48.340,0
1541599423.780,29.297,43.945,52.246,64.453,-10.254,0
1541599423.784,38.574,42.480,54.688,102.051,-7.812,0
1541599423.788,24.414,43.457,58.105,51.270,33.203,0
1541599423.792,5.859,44.434,60.059,4.395,-18.555,0
1541599423.796,16.602,45.410,58.105,45.898,3.418,0
1541599423.800,30.273,41.992,57.617,95.703,58.594,0
1541599423.804,11.719,39.551,60.059,60.547,60.059,0
1541599423.808,5.371,42.480,58.594,-0.977,63.477,0
1541599423.812,12.207,39.062,53.711,10.742,38.574,0
1541599423.816,29.297,35.645,51.270,70.801,10.254,0
1541599423.819,30.762,40.527,55.176,69.336,6.348,0
1541599423.823,8.301,46.875,58.105,3.906,43.457,0
1541599423.827,6.836,45.898,56.641,-1.953,28.320,0
1541599423.831,24.414,42.969,52.734,63.965,17.578,0
1541599423.835,33.203,44.434,56.152,82.031,24.414,0
1541599423.839,8.789,44.922,59.570,25.391,53.711,0
1541599423.843,2.930,41.504,53.711,-11.719,24.902,0
1541599423.847,18.555,36.621,52.734,44.434,62.500,0
1541599423.851,27.832,35.645,56.152,95.703,60.059,0
1541599423.855,15.137,40.039,59.570,52.246,48.828,0
1541599423.858,0.000,41.992,58.105,-2.930,63.477,0
1541599423.862,12.695,38.574,53.711,30.762,43.945,0
1541599423.866,27.832,39.551,54.688,91.309,15.137,0
1541599423.870,21.973,40.527,56.152,67.871,8.789,0
1541599423.874,10.742,40.527,59.082,9.766,-16.602,0
1541599423.878,14.648,40.527,62.500,27.832,-62.012,0
1541599423.882,31.250,41.016,61.035,89.355,-7.812,0
1541599423.886,27.832,42.480,60.547,84.473,6.348,0
1541599423.890,9.277,41.992,61.523,20.508,-17.578,0
1541599423.894,9.766,41.504,60.059,9.277,-4.883,0
1541599423.898,28.320,42.969,57.617,70.312,42.480,0
1541599423.901,33.691,44.434,55.176,90.820,74.707,0
1541599423.905,13.184,47.363,60.547,31.738,33.691,0
1541599423.909,4.395,47.363,65.430,-0.977,-12.695,0
1541599423.913,23.926,45.410,60.547,50.293,20.508,0
1541599423.917,34.668,46.387,60.547,94.727,12.207,0
1541599423.921,22.949,48.340,64.453,50.781,12.695,0
1541599423.925,11.719,49.316,66.406,-0.488,16.602,0
1541599423.929,20.508,49.316,68.359,36.133,9.277,0
1541599423.933,35.156,51.270,69.336,91.797,52.734,0
1541599423.937,29.785,53.711,72.266,70.312,23.438,0
1541599423.941,8.301,53.223,75.684,8.789,49.316,0
1541599423.944,9.766,51.270,74.219,12.207,86.426,0
1541599423.948,31.250,45.410,70.801,76.660,58.594,1
1541599423.952,27.832,42.480,63.477,83.008,25.391,0
1541599423.956,9.277,49.805,61.523,19.043,26.855,0
1541599423.960,13.184,49.805,63.477,2.930,77.148,0
1541599423.964,30.273,47.363,62.012,69.336,7.812,0
1541599423.968,36.133,49.805,63.965,102.051,-30.273,0
1541599423.972,20.508,47.852,66.895,47.852,-3.418,0
1541599423.976,6.836,45.410,68.359,9.277,32.227,0
1541599423.980,20.996,42.969,66.895,50.781,69.824,0
1541599423.983,36.133,42.480,64.453,96.191,65.918,0
1541599423.987,25.391,49.805,67.383,63.965,74.219,0
1541599423.991,1.953,49.316,70.312,3.418,54.688,0
1541599423.995,7.324,41.016,64.941,21.484,10.742,0
1541599423.999,35.645,45.410,62.988,90.332,-45.410,0
1541599424.003,32.227,50.293,69.336,83.008,21.973,0
1541599424.007,10.742,46.875,68.359,17.578,62.012,0
1541599424.011,13.672,44.434,59.082,19.531,4.395,0
1541599424.015,30.762,41.992,58.594,82.520,40.527,0
1541599424.019,41.504,45.410,62.988,98.145,68.359,0
1541599424.023,23.438,46.387,65.430,33.691,43.945,0
1541599424.026,7.324,40.527,62.500,2.930,51.758,0
1541599424.030,19.043,42.480,62.012,64.941,72.266,0
1541599424.034,28.320,46.387,68.359,102.539,12.695,0
1541599424.038,10.742,44.434,66.895,49.316,-18.555,0
1541599424.042,0.000,42.480,62.500,2.930,41.992,0
1541599424.046,11.719,46.875,65.918,49.805,72.266,0
1541599424.050,23.926,47.852,64.941,103.027,49.316,0
1541599424.054,16.113,46.875,59.570,69.336,43.457,0
1541599424.058,0.488,46.387,66.406,12.695,27.832,0
1541599424.062,4.883,45.410,68.359,28.809,8.301,0
1541599424.066,23.438,49.316,63.965,91.309,38.574,0
1541599424.069,18.066,45.898,66.895,84.473,67.871,0
1541599424.073,2.441,44.922,68.848,19.043,40.039,0
1541599424.077,0.488,46.875,67.383,15.137,57.129,0
1541599424.081,20.508,44.922,65.918,74.707,82.520,0
1541599424.085,26.367,44.434,64.453,85.449,48.828,0
1541599424.089,8.789,45.410,65.430,28.320,51.758,0
1541599424.093,5.371,49.316,68.359,0.977,41.992,0
1541599424.097,18.066,45.898,66.406,49.805,16.113,0
1541599424.101,25.391,41.504,62.988,90.820,49.316,0
1541599424.105,11.719,44.922,65.430,50.781,52.246,0
1541599424.108,2.441,46.875,66.406,0.977,-0.488,0
1541599424.112,14.160,46.875,65.918,36.621,-30.273,0
1541599424.116,31.738,46.387,67.871,95.215,4.395,0
1541599424.120,25.391,47.852,70.312,70.801,26.855,0
1541599424.124,10.254,48.828,75.195,10.742,33.691,0
1541599424.128,13.672,48.340,71.777,18.066,43.945,0
1541599424.132,19.043,43.457,60.547,77.637,39.551,0
1541599424.136,21.484,42.480,60.547,77.637,61.035,0
1541599424.140,12.207,45.410,63.477,10.742,48.828,0
1541599424.144,7.324,47.363,65.430,2.930,-14.160,0
1541599424.148,27.344,45.410,67.383,70.312,6.348,0
1541599424.151,36.621,44.434,69.336,94.238,46.875,0
1541599424.155,14.648,47.852,72.266,34.180,85.449,0
1541599424.159,-0.488,44.922,68.848,-4.395,66.406,0
1541599424.163,20.020,41.016,66.895,51.270,27.344,0
1541599424.167,35.156,42.969,69.336,97.656,-4.883,0
1541599424.171,26.367,48.340,70.312,54.199,-12.207,0
1541599424.175,13.672,48.828,72.754,7.812,19.531,0
1541599424.179,16.602,45.410,66.895,35.645,33.203,0
1541599424.183,29.785,42.969,63.965,93.750,64.453,0
1541599424.187,24.902,43.945,69.824,78.613,61.523,0
1541599424.191,4.883,39.551,69.336,9.277,45.410,0
1541599424.194,1.465,38.086,63.965,20.996,49.316,0
1541599424.198,24.414,37.598,62.988,82.031,70.801,0
1541599424.202,34.180,37.109,65.430,84.961,62.988,0
1541599424.206,19.043,41.504,66.895,32.227,42.969,0
1541599424.210,16.602,40.527,66.406,13.184,3.906,0
1541599424.214,29.297,35.156,61.523,69.824,33.691,0
1541599424.218,36.621,35.645,59.082,96.680,47.363,0
1541599424.222,23.438,41.504,64.941,45.898,54.199,0
1541599424.226,6.836,41.504,63.965,5.859,72.754,0
1541599424.230,12.207,39.551,58.594,43.457,54.688,0
1541599424.233,18.555,35.156,52.246,86.914,32.227,0
1541599424.237,8.301,33.691,51.758,45.898,24.414,0
1541599424.241,-2.441,37.109,58.594,-9.277,59.082,0
1541599424.245,4.883,36.621,58.594,22.949,94.727,0
1541599424.249,17.090,31.250,52.246,80.078,32.227,0
1541599424.253,8.789,31.250,56.152,69.336,-53.223,0
1541599424.257,-12.207,37.109,63.965,10.254,31.738,0
1541599424.261,-6.348,38.086,62.500,8.301,73.730,0
1541599424.265,17.578,33.691,55.664,74.707,18.555,0
1541599424.269,15.137,32.227,53.223,80.566,59.082,0
1541599424.273,-1.465,35.645,57.617,15.137,81.055,0
1541599424.276,-9.277,33.691,57.617,-7.812,30.762,0
1541599424.280,4.883,29.785,50.781,45.410,-10.254,0
1541599424.284,18.066,32.715,52.246,83.496,-7.812,0
1541599424.288,-1.465,34.668,55.664,37.109,52.246,0
1541599424.292,-6.836,36.621,55.176,-4.883,7.324,0
1541599424.296,16.602,37.109,57.129,36.621,-6.348,0
1541599424.300,36.621,33.691,59.570,88.867,67.383,0
1541599424.304,22.461,32.227,55.176,60.059,28.320,0
1541599424.308,2.441,35.645,56.641,2.930,-17.578,0
1541599424.312,13.184,39.062,58.594,25.879,31.738,0
1541599424.316,34.180,37.598,55.664,87.891,99.609,0
1541599424.319,33.203,40.039,58.594,72.754,114.258,0
1541599424.323,18.066,44.922,63.477,6.348,30.273,0
1541599424.327,15.625,47.852,58.105,6.836,-4.883,0
1541599424.331,36.133,45.898,56.641,76.660,39.551,0
1541599424.335,37.109,41.504,62.500,94.238,64.941,0
1541599424.339,9.277,45.410,65.918,20.508,58.105,0
1541599424.343,13.184,46.875,67.383,-4.883,23.926,0
1541599424.347,31.250,43.945,64.453,56.152,41.504,0
1541599424.351,47.363,47.363,64.453,98.145,61.523,0
1541599424.355,35.645,48.828,68.359,53.223,-30.762,0
1541599424.358,16.602,45.898,66.895,7.812,-30.762,0
1541599424.362,29.785,46.387,67.871,51.270,72.266,0
1541599424.366,42.480,42.969,67.383,103.516,104.980,0
1541599424.370,26.855,39.062,67.871,78.613,49.316,0
1541599424.374,8.301,42.969,71.777,24.902,33.203,0
1541599424.378,13.672,44.922,68.359,35.156,11.719,0
1541599424.382,34.668,44.434,64.941,97.656,8.789,0
1541599424.386,34.668,44.922,64.453,96.680,-2.930,0
1541599424.390,9.277,41.504,65.430,31.738,2.930,0
1541599424.394,0.488,39.551,65.430,21.973,57.617,0
1541599424.398,26.367,43.457,65.430,87.891,61.523,0
1541599424.401,33.691,40.527,63.477,114.746,6.836,0
1541599424.405,9.277,38.086,61.523,55.176,41.504,0
1541599424.409,9.277,41.504,64.453,19.531,40.039,0
1541599424.413,21.484,38.086,63.965,70.312,20.508,0
1541599424.417,28.320,37.598,62.012,111.328,52.246,0
1541599424.421,22.461,42.969,68.848,72.266,25.879,0
1541599424.425,14.160,44.922,68.359,10.742,13.672,0
1541599424.429,20.020,43.945,63.477,34.668,-12.695,0
1541599424.433,36.133,43.945,67.871,104.004,-29.785,0
1541599424.437,31.250,47.363,71.289,85.449,16.113,0
1541599424.441,10.254,46.387,66.895,17.578,4.883,0
1541599424.444,7.324,42.480,63.477,22.461,-83.496,0
1541599424.448,12.695,41.504,62.500,85.938,-26.855,0
1541599424.452,13.672,42.480,67.383,92.285,66.406,0
1541599424.456,0.977,45.410,72.266,26.367,8.789,0
1541599424.460,-4.883,41.504,62.012,4.883,6.836,0
1541599424.464,1.953,36.621,55.664,63.477,93.262,0
1541599424.468,13.184,40.039,62.012,93.262,79.590,0
1541599424.472,0.000,43.457,63.477,39.062,66.406,0
1541599424.476,-18.555,40.527,60.547,-5.371,32.715,0
1541599424.480,-3.906,40.039,61.523,44.434,5.859,0
1541599424.483,1.465,38.086,57.617,91.797,21.973,0
1541599424.487,-13.672,34.668,54.199,46.875,45.410,0
1541599424.491,-24.414,35.156,55.664,-4.883,43.457,0
1541599424.495,-13.672,36.621,57.129,24.414,66.406,0
1541599424.499,20.020,34.668,58.594,83.008,54.199,0
1541599424.503,20.996,36.621,60.547,75.684,70.801,0
1541599424.507,-13.672,34.668,57.129,14.160,50.781,0
1541599424.511,-19.043,30.273,56.152,20.508,-12.207,0
1541599424.515,6.836,31.250,59.570,86.914,42.480,0
1541599424.519,11.719,33.203,58.105,95.215,31.250,0
1541599424.523,3.418,40.039,63.477,44.922,-18.555,0
1541599424.526,5.371,40.527,67.871,20.020,12.207,0
1541599424.530,20.996,39.062,60.059,69.824,48.828,0
1541599424.534,30.273,36.621,57.129,99.121,44.922,0
1541599424.538,12.207,32.227,55.664,43.945,20.996,0
1541599424.542,4.883,33.203,53.223,0.488,53.223,0
1541599424.546,17.090,33.691,52.734,39.062,35.645,0
1541599424.550,26.855,33.203,52.246,93.262,46.875,0
1541599424.554,23.438,34.668,56.641,59.082,55.176,0
1541599424.558,17.578,39.551,58.105,-3.418,20.020,0
1541599424.562,18.555,37.109,50.781,14.160,78.613,0
1541599424.566,32.715,29.785,44.434,74.707,49.316,0
1541599424.569,35.645,32.715,49.316,80.078,8.301,0
1541599424.573,18.066,37.109,53.223,16.602,35.156,0
1541599424.577,19.043,37.109,54.199,5.859,71.777,0
1541599424.581,42.969,35.645,53.223,74.219,51.758,0
1541599424.585,49.316,36.621,50.781,88.867,-30.762,0
1541599424.589,31.250,39.551,52.246,24.414,0.000,0
1541599424.593,26.367,36.621,53.711,-2.930,78.613,0
1541599424.597,39.062,34.180,54.199,51.758,41.992,0
1541599424.601,46.875,38.574,55.176,95.703,20.020,0
1541599424.605,25.879,41.992,59.082,54.199,61.523,0
1541599424.608,6.348,35.156,58.105,-3.906,54.199,0
1541599424.612,21.484,33.203,58.105,35.156,89.355,0
1541599424.616,41.504,38.574,61.523,98.145,69.824,0
1541599424.620,28.320,39.062,59.082,70.312,-17.090,0
1541599424.624,6.348,37.109,58.105,10.254,-21.973,0
1541599424.628,10.742,35.645,57.617,22.949,4.395,0
1541599424.632,33.203,37.109,56.152,85.449,14.160,0
1541599424.636,29.297,39.551,56.641,81.543,18.555,0
1541599424.640,5.371,40.039,58.594,15.137,7.324,0
1541599424.644,1.465,39.062,60.059,8.789,22.461,0
1541599424.648,28.809,41.992,60.059,65.430,30.762,0
1541599424.651,40.527,43.945,58.594,78.125,33.203,0
1541599424.655,8.789,40.527,56.641,23.438,64.453,0
1541599424.659,-0.488,42.969,55.664,-8.789,85.449,0
1541599424.663,16.602,39.551,57.617,36.133,8.789,0
1541599424.667,30.762,36.133,58.594,80.566,-21.973,0
1541599424.671,20.508,37.598,55.176,42.480,80.566,0
1541599424.675,8.301,40.039,56.641,-7.812,-8.789,0
1541599424.679,13.672,40.527,55.664,25.391,-5.859,0
1541599424.683,20.020,35.156,50.781,78.125,60.059,0
1541599424.687,14.648,35.645,55.176,59.570,11.719,0
1541599424.691,4.883,39.551,61.035,2.441,-36.621,0
1541599424.694,12.207,43.945,61.523,5.371,-47.363,0
1541599424.698,28.320,41.504,57.617,67.871,13.184,0
1541599424.702,30.273,36.133,58.594,77.148,-6.836,0
1541599424.706,14.648,39.551,62.988,15.625,-4.883,0
1541599424.710,7.324,41.504,62.012,-1.953,8.301,0
1541599424.714,20.020,38.086,58.594,55.176,-49.805,0
1541599424.718,31.250,36.133,57.129,85.938,-11.230,0
1541599424.722,14.160,37.598,55.664,35.645,22.949,0
1541599424.726,-7.812,38.086,54.688,-8.789,-4.883,0
1541599424.730,8.789,36.133,58.105,36.133,30.762,0
1541599424.733,32.715,36.133,57.129,87.891,43.457,0
1541599424.737,18.066,41.016,59.082,53.223,53.711,0
1541599424.741,1.953,41.504,61.523,-6.348,101.562,0
1541599424.745,10.254,34.668,55.176,14.648,67.871,0
1541599424.749,30.762,36.621,55.664,82.031,61.523,0
1541599424.753,23.926,40.039,60.547,65.430,87.402,0
1541599424.757,7.812,40.039,61.035,0.977,53.223,0
1541599424.761,6.348,38.086,60.547,6.836,1.465,0
1541599424.765,19.531,35.645,62.012,71.289,19.531,0
1541599424.769,20.996,34.668,66.406,84.961,28.320,0
1541599424.773,0.977,35.156,68.848,22.949,54.199,0
1541599424.776,0.977,39.062,67.871,0.000,82.031,0
1541599424.780,13.672,39.551,63.477,58.105,58.105,0
1541599424.784,19.043,38.574,60.547,88.867,77.637,0
1541599424.788,7.324,41.992,60.547,38.574,75.195,0
1541599424.792,-4.395,41.504,61.523,-9.766,44.922,0
1541599424.796,8.301,42.969,62.012,32.227,39.062,0
1541599424.800,29.297,46.875,61.035,91.309,17.090,0
1541599424.804,20.020,45.898,57.617,53.711,16.602,0
1541599424.808,9.766,49.316,61.035,-5.371,-5.371,0
1541599424.812,20.508,49.805,63.965,12.207,-14.648,0
1541599424.816,28.320,45.898,63.965,73.242,6.836,0
1541599424.819,19.531,43.457,67.871,71.289,3.418,0
1541599424.823,1.953,43.945,67.871,3.906,11.719,0
1541599424.827,2.441,47.363,64.453,-3.418,13.672,0
1541599424.831,26.367,49.316,62.012,60.547,52.734,0
1541599424.835,33.203,47.363,62.988,79.590,56.641,0
1541599424.839,9.766,47.363,66.406,25.391,7.812,0
1541599424.843,9.277,49.805,67.871,-3.906,13.672,0
1541599424.847,27.832,47.852,66.895,45.410,19.043,0
1541599424.851,34.180,44.922,63.477,84.473,20.020,0
1541599424.855,19.043,45.410,64.941,43.945,-10.742,0
1541599424.858,11.230,43.457,66.406,-1.953,47.852,0
1541599424.862,24.414,44.434,70.312,36.133,81.055,0
1541599424.866,32.715,44.922,69.824,91.797,44.434,0
1541599424.870,20.996,44.434,68.359,66.406,34.668,0
1541599424.874,6.348,45.410,73.242,7.812,11.719,0
1541599424.878,13.672,44.434,73.242,21.484,37.109,0
1541599424.882,28.320,44.434,68.848,84.473,64.453,0
1541599424.886,28.320,43.457,69.336,87.402,63.477,0
1541599424.890,8.301,45.898,74.219,20.508,103.516,0
1541599424.894,5.371,44.434,69.824,-1.953,120.117,0
1541599424.898,19.531,41.504,65.430,63.965,16.113,0
1541599424.901,27.344,44.922,68.359,92.285,-27.832,0
1541599424.905,7.324,45.410,69.824,36.133,-26.367,0
1541599424.909,1.953,42.969,69.824,-4.395,-17.090,0
1541599424.913,20.508,43.457,65.918,40.039,-1.953,0
1541599424.917,26.855,42.969,62.988,84.961,3.906,0
1541599424.921,17.090,43.945,63.965,39.551,33.203,0
1541599424.925,-3.418,42.969,69.824,-10.742,28.320,0
1541599424.929,-5.371,36.133,66.895,18.555,-16.602,0
1541599424.933,13.672,36.621,64.453,83.008,8.789,0
1541599424.937,3.906,37.109,63.965,64.453,36.621,0
1541599424.941,-15.625,33.203,59.570,-1.465,43.457,0
1541599424.944,-1.953,38.086,62.988,13.184,12.207,0
1541599424.948,18.066,41.016,65.918,81.055,19.531,0
1541599424.952,18.066,39.551,67.383,87.891,23.438,0
1541599424.956,1.953,40.527,63.965,23.438,8.301,0
1541599424.960,-5.371,39.551,62.012,4.395,27.344,0
1541599424.964,10.742,39.062,62.988,64.453,4.883,0
1541599424.968,23.438,40.527,62.500,95.703,34.180,0
1541599424.972,4.395,41.504,65.430,46.875,69.824,0
1541599424.976,-7.324,43.945,64.453,4.883,32.227,0
1541599424.980,1.465,42.480,63.477,42.969,61.523,0
1541599424.983,15.137,39.062,60.059,88.379,139.648,0
1541599424.987,10.254,41.992,59.082,56.152,63.477,0
1541599424.991,-1.953,42.480,60.059,-1.465,3.418,0
1541599424.995,4.395,40.527,56.641,20.508,67.871,0
1541599424.999,16.113,39.551,54.199,78.613,52.246,0
1541599425.003,12.695,40.039,56.641,66.406,-10.254,0
1541599425.007,-0.977,41.504,61.523,7.812,27.344,0
1541599425.011,-3.418,38.086,61.523,5.859,60.059,0
1541599425.015,11.230,34.180,59.082,65.430,29.297,0
1541599425.019,15.625,37.109,60.059,75.684,55.664,0
1541599425.023,0.977,38.574,65.918,16.113,51.758,0
1541599425.026,0.488,39.062,66.895,-11.230,-11.230,0
1541599425.030,7.324,36.621,62.500,44.922,-32.227,0
1541599425.034,18.066,38.086,64.453,87.891,-17.090,0
1541599425.038,5.859,39.062,64.941,39.062,20.020,0
1541599425.042,-1.465,37.598,59.570,-5.859,43.457,0
1541599425.046,13.184,35.645,55.664,32.227,33.691,0
1541599425.050,24.902,37.109,54.688,79.590,-21.973,0
1541599425.054,18.555,39.551,54.199,52.734,22.461,0
1541599425.058,-0.488,39.551,54.688,-2.441,57.617,0
1541599425.062,1.465,37.598,55.176,14.160,2.930,0
1541599425.066,16.113,38.086,55.664,79.102,-17.578,0
1541599425.069,17.090,41.504,56.641,68.359,39.062,0
1541599425.073,-0.488,37.109,55.664,-1.953,72.754,0
1541599425.077,-3.906,33.691,58.105,-2.930,66.406,0
1541599425.081,17.578,36.621,58.594,59.570,134.766,0
1541599425.085,22.949,37.109,52.246,74.219,69.824,0
1541599425.089,0.977,33.203,47.363,11.230,35.156,0
1541599425.093,-6.836,35.645,51.270,-17.578,36.133,0
1541599425.097,3.906,39.062,52.734,39.062,-3.418,0
1541599425.101,25.879,39.062,53.711,84.473,54.199,0
1541599425.105,18.066,41.992,55.664,41.504,39.062,0
1541599425.108,1.953,43.945,57.617,-17.090,43.457,0
1541599425.112,12.207,43.457,61.035,17.578,42.480,0
1541599425.116,26.855,41.016,54.688,74.707,29.297,0
1541599425.120,25.391,38.574,52.246,50.781,59.082,0
1541599425.124,9.766,41.016,57.617,-7.812,26.855,0
1541599425.128,4.395,41.992,55.664,0.977,-8.789,0
1541599425.132,24.902,40.527,53.711,68.848,-16.602,0
1541599425.136,27.832,39.551,57.129,75.684,-9.766,0
1541599425.140,7.324,43.945,58.105,15.625,-11.230,0
1541599425.144,0.488,39.062,55.664,3.906,6.836,0
1541599425.148,17.090,33.203,52.734,62.500,38.574,0
1541599425.151,26.367,30.762,52.734,88.379,20.508,0
1541599425.155,11.230,31.250,57.129,35.156,12.695,0
1541599425.159,-1.465,34.668,55.664,-6.348,24.414,0
1541599425.163,16.602,33.691,52.246,42.969,72.266,0
1541599425.167,29.785,31.738,49.805,85.938,67.383,0
1541599425.171,20.508,37.109,56.152,45.410,25.391,0
1541599425.175,12.207,41.016,61.035,-7.812,53.223,0
1541599425.179,17.090,38.574,53.711,17.090,92.285,0
1541599425.183,26.855,35.156,50.781,79.102,32.715,0
1541599425.187,20.020,35.156,54.688,62.012,23.926,0
1541599425.191,2.441,39.551,59.570,0.977,26.367,0
1541599425.194,-1.953,39.062,56.152,8.301,-6.836,0
1541599425.198,14.648,36.133,54.688,73.242,-25.879,0
1541599425.202,15.625,37.598,58.105,76.660,-28.320,0
1541599425.206,-3.418,41.504,57.617,13.672,30.762,0
1541599425.210,-11.719,39.062,52.734,-5.859,71.289,0
1541599425.214,9.277,36.621,51.758,50.293,65.918,0
1541599425.218,21.973,40.527,55.664,78.613,19.531,0
1541599425.222,5.859,41.016,56.641,22.461,48.828,0
1541599425.226,0.488,36.621,54.688,-18.066,58.105,0
1541599425.230,16.602,36.133,57.617,35.645,37.598,0
1541599425.233,26.367,30.762,56.641,98.145,48.828,0
1541599425.237,12.695,35.645,50.781,57.129,64.453,0
1541599425.241,2.930,46.875,47.852,-10.254,25.391,0
1541599425.245,20.996,49.316,49.316,19.043,21.973,0
1541599425.249,43.945,47.852,48.340,79.590,62.988,0
1541599425.253,32.227,49.805,48.828,66.406,67.383,0
1541599425.257,14.648,47.852,55.664,4.395,75.684,0
1541599425.261,16.602,43.457,53.711,2.441,-0.488,0
1541599425.265,22.949,44.434,47.363,62.988,-20.020,0
1541599425.269,19.043,42.969,44.922,71.289,41.016,0
1541599425.273,5.859,42.480,47.363,16.113,45.410,0
1541599425.276,-1.953,43.945,48.828,-6.348,37.109,0
1541599425.280,9.766,42.480,52.246,49.805,22.461,0
1541599425.284,16.113,39.062,49.805,85.938,-41.016,0
1541599425.288,-0.488,39.062,44.434,32.227,-1.953,0
1541599425.292,-1.953,42.969,44.434,-14.648,28.320,0
1541599425.296,13.672,43.945,46.875,35.645,13.672,0
1541599425.300,21.973,36.133,55.176,89.844,2.930,0
1541599425.304,14.160,25.391,66.406,62.012,31.250,0
1541599425.308,1.465,28.320,76.172,12.695,50.293,0
1541599425.312,3.906,38.574,69.824,19.531,78.613,0
1541599425.316,18.066,35.156,56.641,79.102,59.082,0
1541599425.319,18.066,34.668,54.199,78.125,45.898,0
1541599425.323,11.230,37.598,58.105,15.625,49.805,0
1541599425.327,9.766,34.180,59.570,7.324,-4.883,0
1541599425.331,15.625,34.180,61.523,72.266,-39.062,0
1541599425.335,22.949,36.133,62.988,94.727,3.418,0
1541599425.339,10.742,37.109,62.012,37.598,65.430,0
1541599425.343,2.930,39.062,62.012,9.766,38.574,0
1541599425.347,19.531,42.480,61.035,60.059,84.473,0
1541599425.351,32.715,44.434,62.988,99.121,63.965,0
1541599425.355,21.484,49.316,68.359,53.223,34.668,0
1541599425.358,3.418,48.340,68.848,-1.953,29.297,0
1541599425.362,8.301,47.852,64.941,32.715,-46.387,0
1541599425.366,28.320,51.270,63.477,93.750,-2.441,0
1541599425.370,23.926,51.270,66.406,73.730,46.387,0
1541599425.374,7.324,50.781,65.918,14.648,51.270,0
1541599425.378,18.555,49.316,63.965,21.973,42.969,0
1541599425.382,39.062,50.293,61.523,84.473,28.809,0
1541599425.386,23.438,48.828,58.105,84.473,39.062,0
1541599425.390,4.395,43.945,61.523,23.438,29.297,0
1541599425.394,14.160,45.410,66.406,16.602,4.395,0
1541599425.398,19.043,43.457,64.453,76.172,49.805,0
1541599425.401,18.555,38.574,62.012,99.121,99.121,0
1541599425.405,6.836,38.086,63.477,41.504,36.133,0
1541599425.409,0.488,39.062,66.895,3.906,2.930,0
1541599425.413,12.207,36.133,67.383,51.270,31.738,0
1541599425.417,24.414,37.598,62.988,98.633,70.312,0
1541599425.421,18.066,42.969,61.035,59.570,31.250,0
1541599425.425,7.812,44.922,66.406,4.883,-36.133,0
1541599425.429,16.602,42.480,61.523,32.715,14.160,0
1541599425.433,37.109,41.016,56.641,92.773,19.531,0
1541599425.437,28.320,42.969,59.570,73.730,-7.324,0
1541599425.441,13.184,45.410,61.523,5.859,10.742,0
1541599425.444,21.484,46.875,62.500,6.836,5.859,0
1541599425.448,33.203,45.410,57.617,66.895,29.785,0
1541599425.452,30.273,41.992,56.152,74.707,-6.348,0
1541599425.456,8.301,42.480,63.477,12.695,-27.344,0
1541599425.460,-1.953,43.457,65.918,-5.859,31.738,0
1541599425.464,12.695,42.969,63.477,51.270,43.945,0
1541599425.468,27.344,45.410,64.453,82.520,7.812,0
1541599425.472,16.113,51.270,70.312,38.086,32.715,0
1541599425.476,12.695,54.199,76.660,1.465,43.945,0
1541599425.480,23.438,53.223,74.219,45.410,-26.367,0
1541599425.483,27.832,46.387,65.430,94.727,0.977,0
1541599425.487,22.949,46.387,65.918,62.988,126.465,0
1541599425.491,-2.441,48.828,65.918,6.348,109.863,0
1541599425.495,-1.465,45.898,61.523,26.855,28.320,0
1541599425.499,24.902,45.410,63.965,90.820,19.043,0
1541599425.503,21.973,48.828,66.895,81.055,29.785,0
1541599425.507,3.906,51.270,66.895,21.484,66.895,0
1541599425.511,2.930,51.758,68.848,22.949,31.250,0
1541599425.515,23.926,47.363,68.848,83.008,4.395,0
1541599425.519,30.762,45.410,61.523,97.656,40.039,0
1541599425.523,15.625,44.922,60.059,38.086,31.250,0
1541599425.526,11.719,46.387,64.453,14.160,20.020,0
1541599425.530,26.367,48.828,66.895,75.195,27.832,0
1541599425.534,39.551,47.363,68.848,117.676,69.824,0
1541599425.538,27.832,51.270,67.871,68.848,81.543,0
1541599425.542,19.043,54.199,63.965,15.625,28.320,0
1541599425.546,32.715,49.316,60.547,53.223,22.461,0
1541599425.550,49.316,49.805,61.035,107.910,42.480,0
1541599425.554,40.527,49.316,59.570,76.172,2.930,0
1541599425.558,12.695,43.945,62.500,19.043,33.691,0
1541599425.562,9.277,39.551,60.547,34.180,48.340,0
1541599425.566,26.855,38.574,52.246,94.727,34.668,0
1541599425.569,27.344,36.621,55.176,89.355,23.926,0
1541599425.573,15.137,41.992,58.594,23.926,7.812,0
1541599425.577,21.973,45.410,56.152,13.184,32.715,0
1541599425.581,37.109,41.504,52.734,73.730,109.375,0
1541599425.585,45.898,42.480,58.105,90.820,74.707,0
1541599425.589,31.250,44.922,64.941,37.109,-20.508,0
1541599425.593,24.902,53.711,64.941,10.254,2.930,0
1541599425.597,37.598,53.711,61.523,56.152,59.570,0
1541599425.601,41.504,45.898,59.570,100.098,55.664,0
1541599425.605,28.320,51.270,66.895,62.988,11.230,0
1541599425.608,10.742,49.805,68.359,8.301,52.734,0
1541599425.612,17.578,46.875,63.965,40.527,62.500,0
1541599425.616,32.227,47.852,60.059,98.145,-25.391,0
1541599425.620,21.484,49.316,60.059,73.242,-4.395,0
1541599425.624,7.812,51.270,62.988,11.230,68.848,0
1541599425.628,19.531,47.363,62.500,23.438,13.672,0
1541599425.632,33.203,43.457,58.594,82.520,15.625,0
1541599425.636,28.809,41.016,54.688,81.055,27.832,0
1541599425.640,12.695,42.969,56.641,15.625,50.293,0
1541599425.644,7.324,43.945,54.199,-4.395,52.734,0
1541599425.648,20.020,40.039,51.270,60.059,-58.105,0
1541599425.651,25.391,39.551,54.688,90.332,-16.113,0
1541599425.655,6.836,42.480,56.152,33.203,9.766,0
1541599425.659,1.953,44.922,56.641,-5.859,-22.949,0
1541599425.663,17.578,45.898,60.059,44.434,9.277,0
1541599425.667,22.949,42.480,55.664,93.262,47.852,0
1541599425.671,6.348,41.992,54.688,55.664,34.668,0
1541599425.675,-5.859,41.016,58.105,2.930,-4.395,0
1541599425.679,-5.371,36.133,56.641,29.785,34.180,0
1541599425.683,11.230,39.551,57.129,88.867,21.484,0
1541599425.687,19.531,43.457,57.617,74.707,77.637,0
1541599425.691,6.836,43.945,60.547,15.625,93.750,0
1541599425.694,9.277,42.969,62.988,20.996,-7.812,0
1541599425.698,18.066,39.551,56.641,83.008,23.438,0
1541599425.702,21.973,43.457,58.594,90.332,65.918,0
1541599425.706,8.789,45.410,64.453,29.785,-2.441,0
1541599425.710,1.953,40.527,56.641,6.348,41.992,0
1541599425.714,19.531,36.133,49.805,55.664,43.457,0
1541599425.718,15.137,35.156,51.758,85.938,15.625,0
1541599425.722,-9.766,39.551,56.152,34.180,65.430,0
1541599425.726,-15.625,42.969,57.129,-11.719,91.797,0
1541599425.730,-6.348,41.992,54.199,30.762,119.629,0
1541599425.733,7.324,38.086,50.781,76.172,70.312,0
1541599425.737,5.859,37.598,52.246,46.387,43.457,0
1541599425.741,-5.371,42.969,58.105,-8.301,28.320,0
1541599425.745,1.465,44.434,56.641,12.695,-0.977,0
1541599425.749,25.879,40.039,55.176,78.613,-9.766,0
1541599425.753,23.926,47.363,61.523,73.730,19.043,0
1541599425.757,6.348,53.711,64.941,12.207,19.531,0
1541599425.761,5.859,50.781,60.059,3.906,27.832,0
1541599425.765,20.508,50.293,56.641,70.801,41.992,0
1541599425.769,30.273,51.758,59.570,96.191,25.879,0
1541599425.773,25.879,56.641,67.871,45.410,48.828,0
1541599425.776,20.508,53.711,69.336,16.602,17.578,0
1541599425.780,32.715,45.410,62.012,67.383,44.434,0
1541599425.784,42.480,48.340,61.523,109.863,12.207,0
1541599425.788,14.160,49.805,62.500,62.500,0.977,0
1541599425.792,2.930,49.805,67.871,20.020,14.160,0
1541599425.796,19.043,51.270,71.777,59.570,-28.809,0
1541599425.800,29.297,50.781,65.918,106.934,66.895,0
1541599425.804,23.438,49.316,64.941,75.684,90.332,0
1541599425.808,13.672,48.340,67.383,17.578,20.020,0
1541599425.812,17.578,46.875,65.918,31.250,-11.230,0
1541599425.816,24.414,44.922,65.918,90.820,36.133,0
1541599425.819,21.484,47.363,67.383,82.520,84.961,0
1541599425.823,15.137,46.387,65.918,14.648,52.734,0
1541599425.827,14.160,42.480,62.012,9.766,78.613,0
1541599425.831,26.855,45.410,63.965,74.707,30.762,0
1541599425.835,25.391,43.945,67.383,93.262,-21.973,0
1541599425.839,6.836,40.527,67.871,29.297,9.277,0
1541599425.843,4.883,45.410,66.406,-7.812,25.391,0
1541599425.847,18.066,50.293,65.918,50.781,58.594,0
1541599425.851,28.809,48.828,62.500,94.727,40.527,21
1541599425.855,16.602,47.363,60.059,46.875,53.223,0
1541599425.858,14.648,53.223,64.941,4.395,-18.066,0
1541599425.862,25.391,55.176,62.988,39.551,-9.277,0
1541599425.866,30.762,50.293,58.105,88.867,100.586,0
1541599425.870,25.879,48.340,56.641,69.824,67.871,0
1541599425.874,16.113,49.805,59.570,15.625,10.742,0
1541599425.878,17.578,47.363,60.547,23.438,45.410,0
1541599425.882,31.738,48.340,59.082,82.520,106.934,0
1541599425.886,27.344,48.340,57.129,85.449,36.621,0
1541599425.890,7.324,49.316,56.152,21.973,11.230,0
1541599425.894,10.254,48.340,59.570,7.324,56.641,0
1541599425.898,31.250,44.434,61.035,68.848,45.410,0
1541599425.901,34.668,47.363,61.035,98.633,54.688,0
1541599425.905,12.695,49.805,64.453,45.410,55.176,0
1541599425.909,4.883,50.781,66.895,8.789,27.344,0
1541599425.913,20.508,45.410,63.477,53.711,14.648,0
1541599425.917,30.762,41.504,60.059,98.633,47.363,0
1541599425.921,25.391,45.898,61.523,66.895,40.527,0
1541599425.925,12.695,46.387,61.035,8.789,-14.160,0
1541599425.929,13.672,43.945,57.617,26.855,-28.809,0
1541599425.933,32.227,46.875,59.570,89.844,-17.090,0
1541599425.937,25.879,48.340,60.059,77.637,20.020,0
1541599425.941,10.742,44.922,59.082,7.812,23.438,0
1541599425.944,10.254,40.039,55.664,6.836,50.293,0
1541599425.948,26.367,41.992,51.758,72.266,-0.977,0
1541599425.952,25.879,43.945,54.688,79.102,-68.359,0
1541599425.956,4.883,41.016,54.688,15.137,9.277,0
1541599425.960,2.930,38.086,52.246,-11.230,17.578,0
1541599425.964,18.555,35.645,50.781,47.363,-15.625,0
1541599425.968,31.738,36.621,50.293,81.543,35.645,0
1541599425.972,18.066,39.062,55.176,31.738,87.891,0
1541599425.976,1.465,37.109,52.734,-11.230,60.059,0
1541599425.980,16.602,40.039,47.363,31.250,36.133,0
1541599425.983,27.832,39.551,47.363,83.008,28.320,0
1541599425.987,15.625,38.574,47.852,48.340,75.195,0
1541599425.991,6.348,42.480,50.293,-9.277,60.059,0
1541599425.995,12.695,40.039,50.293,10.742,17.578,0
1541599425.999,20.020,39.551,51.758,75.195,78.613,0
1541599426.003,17.578,43.457,53.223,67.871,41.992,0
1541599426.007,5.859,40.527,51.758,3.906,34.668,0
1541599426.011,1.953,40.527,55.176,7.812,53.223,0
1541599426.015,17.578,44.434,59.570,72.266,31.738,0
1541599426.019,15.625,41.016,54.199,78.125,61.523,0
1541599426.023,2.930,43.457,52.246,18.066,27.832,0
1541599426.026,-1.953,43.457,54.199,-6.348,-7.812,0
1541599426.030,8.789,36.621,56.152,51.270,62.500,0
1541599426.034,30.273,35.156,56.641,100.586,97.168,0
1541599426.038,15.137,45.410,54.199,52.246,90.332,0
1541599426.042,0.488,57.617,52.734,-1.465,41.992,0
1541599426.046,17.578,56.641,49.316,41.016,9.277,0
1541599426.050,31.738,52.246,53.223,101.562,55.664,0
1541599426.054,17.578,47.852,57.617,74.219,33.691,0
1541599426.058,0.000,44.922,64.453,9.766,-19.043,0
1541599426.062,4.883,40.527,61.523,19.043,29.297,0
1541599426.066,20.020,40.527,49.805,83.008,70.312,0
1541599426.069,23.926,44.922,54.688,86.914,65.918,0
1541599426.073,5.859,41.016,56.641,24.902,54.688,0
1541599426.077,3.906,38.574,55.176,16.602,47.363,0
1541599426.081,26.367,41.504,54.199,75.195,51.270,0
1541599426.085,37.109,42.480,53.223,90.820,15.137,0
1541599426.089,22.949,46.387,57.617,33.691,-37.109,0
1541599426.093,13.672,47.852,58.105,-0.977,-27.344,0
1541599426.097,23.926,42.969,52.246,46.387,12.207,0
1541599426.101,31.738,42.969,52.246,89.355,37.109,0
1541599426.105,18.555,47.363,58.594,48.828,25.391,0
1541599426.108,9.766,46.875,58.105,-5.371,2.930,0
1541599426.112,20.020,42.480,55.176,30.762,-1.465,0
1541599426.116,35.156,41.504,53.223,89.355,5.371,0
1541599426.120,22.949,40.527,52.734,66.406,67.383,0
1541599426.124,7.324,41.992,53.223,10.742,48.828,0
1541599426.128,18.066,44.434,55.176,23.438,-20.996,0
1541599426.132,31.738,41.992,54.688,86.914,-9.766,0
1541599426.136,27.832,39.062,55.176,88.867,43.945,0
1541599426.140,12.207,43.945,58.105,24.902,44.922,0
1541599426.144,7.324,46.875,62.012,12.207,30.762,0
1541599426.148,17.090,43.945,59.570,69.336,33.691,0
1541599426.151,21.973,42.969,54.199,89.355,52.734,0
1541599426.155,5.371,41.016,56.152,34.668,41.992,0
1541599426.159,6.836,45.410,59.570,-1.465,6.348,0
1541599426.163,17.090,43.945,55.664,41.504,21.973,0
1541599426.167,23.926,41.016,53.711,89.844,51.758,0
1541599426.171,19.531,48.340,57.129,59.082,18.555,0
1541599426.175,2.930,46.875,57.617,0.488,37.598,0
1541599426.179,8.301,44.434,55.664,25.391,104.980,0
1541599426.183,20.996,37.598,56.641,92.285,104.004,0
1541599426.187,16.602,39.551,57.617,74.707,54.199,0
1541599426.191,2.441,43.457,56.152,11.230,73.242,0
1541599426.194,7.812,38.574,56.152,8.789,107.422,0
1541599426.198,24.902,37.598,53.223,68.848,49.316,0
1541599426.202,30.762,39.062,50.781,89.355,30.273,0
1541599426.206,20.020,41.504,54.688,31.250,50.293,0
1541599426.210,13.672,41.992,57.617,8.301,20.020,0
1541599426.214,34.668,42.480,55.664,66.895,7.324,0
1541599426.218,43.457,44.922,54.199,104.980,34.180,0
1541599426.222,28.809,46.387,59.570,57.129,-1.465,0
1541599426.226,20.020,42.480,57.617,10.254,-9.766,0
1541599426.230,28.809,39.551,48.828,53.711,47.363,0
1541599426.233,47.363,40.039,51.758,109.863,50.781,0
1541599426.237,33.691,45.898,59.082,80.566,37.109,0
1541599426.241,10.254,48.828,61.035,18.555,47.363,0
1541599426.245,13.184,45.410,59.570,34.668,42.480,0
1541599426.249,26.367,49.316,61.523,99.609,-6.348,0
1541599426.253,29.785,54.199,63.965,86.914,-38.574,0
1541599426.257,20.996,52.246,64.941,18.555,18.555,0
1541599426.261,21.484,52.246,60.547,17.090,47.852,0
1541599426.265,32.715,51.758,55.176,78.613,-1.953,0
1541599426.269,34.668,52.246,56.641,94.238,-29.297,0
1541599426.273,19.043,54.199,59.082,40.527,64.941,0
1541599426.276,11.719,50.293,62.012,8.789,84.961,0
1541599426.280,21.973,47.363,62.500,59.570,-6.348,0
1541599426.284,36.621,49.316,58.594,99.121,-1.953,0
1541599426.288,20.508,46.387,57.129,50.781,16.113,0
1541599426.292,6.836,44.434,59.082,4.395,-2.930,0
1541599426.296,22.461,46.387,61.035,41.016,-17.578,0
1541599426.300,37.109,46.875,63.965,100.586,-46.875,0
1541599426.304,27.832,47.852,66.406,80.078,15.137,0
1541599426.308,21.973,51.270,68.848,24.414,60.547,0
1541599426.312,24.902,49.316,68.359,42.480,2.930,0
1541599426.316,35.156,49.805,63.965,102.539,38.574,0
1541599426.319,39.551,49.316,61.523,94.238,79.102,0
1541599426.323,22.461,45.898,57.617,28.809,44.922,0
1541599426.327,23.438,49.316,57.617,18.066,29.297,0
1541599426.331,45.410,51.270,60.547,82.520,20.508,0
1541599426.335,48.340,51.270,58.594,100.098,61.035,0
1541599426.339,25.879,52.734,60.059,41.504,38.574,0
1541599426.343,20.508,54.688,63.965,12.695,21.973,0
1541599426.347,35.645,53.223,60.547,59.082,8.301,0
1541599426.351,41.016,49.316,57.617,104.492,-2.441,0
1541599426.355,28.809,53.711,62.988,67.871,50.293,0
1541599426.358,17.090,55.176,66.895,12.695,53.223,0
1541599426.362,22.949,50.293,64.941,40.039,-6.836,0
1541599426.366,42.480,46.875,62.500,102.539,-15.625,0
1541599426.370,36.133,50.781,64.453,89.844,46.875,0
1541599426.374,22.461,54.199,62.988,23.438,29.297,0
1541599426.378,32.715,54.199,58.105,28.320,45.898,0
1541599426.382,45.410,53.711,59.082,99.121,54.688,0
1541599426.386,41.504,51.270,64.453,106.934,23.438,0
1541599426.390,26.367,54.199,68.848,42.969,55.176,0
1541599426.394,20.996,51.758,67.383,22.949,77.148,0
1541599426.398,34.180,46.875,63.477,85.938,41.016,0
1541599426.401,47.852,51.758,66.895,120.605,-28.809,0
1541599426.405,30.762,53.223,68.359,64.941,-25.879,0
1541599426.409,23.926,49.316,63.477,24.414,21.484,0
1541599426.413,41.016,48.340,62.988,66.406,54.199,0
1541599426.417,52.246,48.828,66.895,110.840,58.594,0
1541599426.421,38.574,51.270,67.871,77.148,41.992,0
1541599426.425,19.531,50.781,67.871,19.043,39.551,0
1541599426.429,24.902,48.340,67.383,41.016,-6.348,0
1541599426.433,41.016,48.828,62.500,96.191,71.777,0
1541599426.437,30.273,50.781,59.570,73.730,109.375,0
1541599426.441,15.137,51.270,61.035,15.137,17.090,0
1541599426.444,18.066,53.711,61.523,23.926,-27.832,0
1541599426.448,34.180,50.781,60.547,86.426,25.391,0
1541599426.452,44.922,49.316,62.988,89.844,74.707,0
1541599426.456,28.809,53.711,65.430,23.926,3.906,0
1541599426.460,20.996,55.664,62.988,0.977,-23.926,0
1541599426.464,33.203,48.828,59.082,56.152,32.715,0
1541599426.468,44.922,48.828,63.965,99.121,24.414,0
1541599426.472,28.320,51.270,69.336,55.176,63.477,0
1541599426.476,17.578,50.781,71.289,7.812,116.211,0
1541599426.480,26.367,53.223,69.336,48.828,70.801,0
1541599426.483,33.203,49.316,60.547,98.145,39.551,0
1541599426.487,30.762,48.828,62.012,71.777,-7.324,0
1541599426.491,18.555,56.152,69.824,21.484,5.371,0
1541599426.495,22.949,57.617,75.195,49.316,51.758,0
1541599426.499,39.551,53.223,70.312,114.258,29.297,0
1541599426.503,44.922,56.152,66.895,108.887,-20.508,0
1541599426.507,31.738,56.152,69.336,47.363,18.555,0
1541599426.511,32.227,56.641,66.895,40.039,60.059,0
1541599426.515,48.340,55.664,67.383,100.098,76.172,0
1541599426.519,51.758,57.617,68.359,118.164,40.527,0
1541599426.523,40.039,65.430,64.453,54.199,-20.020,0
1541599426.526,31.250,58.105,66.895,13.672,45.410,0
1541599426.530,41.016,44.922,65.918,63.477,66.895,0
1541599426.534,54.688,48.828,64.453,105.469,0.977,0
1541599426.538,39.551,54.688,63.965,56.152,-5.859,0
1541599426.542,24.902,50.293,62.988,2.930,-6.836,0
1541599426.546,33.691,47.852,56.641,37.109,-5.371,0
1541599426.550,44.434,46.875,55.664,94.238,2.441,0
1541599426.554,41.504,50.293,62.988,74.219,8.789,0
1541599426.558,31.250,55.176,63.965,16.113,3.418,0
1541599426.562,31.738,51.758,62.012,26.855,-21.973,0
1541599426.566,44.434,50.781,61.523,93.262,26.855,0
1541599426.569,46.387,50.781,62.988,87.891,54.688,0
1541599426.573,30.762,54.199,62.012,19.043,-7.324,0
1541599426.577,21.484,52.734,57.129,10.742,-20.508,0
1541599426.581,33.203,50.781,58.105,77.637,46.875,0
1541599426.585,41.016,54.688,62.500,105.957,89.844,0
1541599426.589,26.367,57.617,62.012,48.340,18.066,0
1541599426.593,14.648,52.246,58.105,9.277,-14.648,0
1541599426.597,27.832,46.387,58.105,61.035,38.086,0
1541599426.601,47.852,49.805,61.523,106.934,76.660,0
1541599426.605,36.133,51.758,61.035,64.453,69.824,0
1541599426.608,25.391,51.758,60.547,14.648,1.465,0
1541599426.612,35.156,53.711,59.570,47.363,57.617,0
1541599426.616,48.828,50.293,54.688,104.004,93.262,0
1541599426.620,46.387,52.246,57.129,85.449,68.359,0
1541599426.624,28.809,53.223,65.918,28.320,20.020,0
1541599426.628,24.414,51.270,65.918,40.527,-20.996,0
1541599426.632,40.039,55.664,57.617,96.191,21.484,0
1541599426.636,44.434,51.758,54.199,93.750,36.133,0
1541599426.640,27.344,50.293,58.105,39.551,8.789,0
1541599426.644,20.996,55.176,60.059,24.414,41.992,0
1541599426.648,35.156,56.152,60.547,84.473,62.500,0
1541599426.651,36.621,55.664,62.988,113.281,78.125,0
1541599426.655,17.090,56.641,62.988,57.129,101.074,0
1541599426.659,17.578,56.152,63.965,13.672,51.758,0
1541599426.663,28.809,52.246,61.523,58.105,-14.648,0
1541599426.667,34.668,48.828,55.664,103.516,7.324,0
1541599426.671,29.297,54.688,58.105,63.477,23.438,0
1541599426.675,11.230,56.641,58.105,7.324,18.066,0
1541599426.679,11.230,49.316,50.293,32.715,14.160,0
1541599426.683,34.668,49.805,48.828,94.238,18.555,0
1541599426.687,35.645,53.223,52.734,80.078,31.738,0
1541599426.691,8.301,54.199,55.664,13.672,38.086,0
1541599426.694,7.812,50.781,51.758,13.184,12.695,0
1541599426.698,24.414,49.316,44.922,75.684,-19.531,0
1541599426.702,26.367,52.246,49.316,85.449,21.484,0
1541599426.706,12.207,52.246,51.758,25.391,79.590,0
1541599426.710,11.719,51.758,49.316,-0.977,83.496,0
1541599426.714,31.250,48.340,48.828,54.688,53.711,0
1541599426.718,38.574,48.340,51.270,96.191,43.945,0
1541599426.722,20.996,48.340,51.270,45.410,82.520,0
1541599426.726,19.531,45.898,46.387,-0.488,10.742,0
1541599426.730,34.180,49.316,46.387,45.898,2.441,0
1541599426.733,37.109,48.340,47.363,99.121,24.902,0
1541599426.737,26.855,48.340,46.387,66.406,18.555,0
1541599426.741,13.672,51.270,48.340,15.137,96.680,0
1541599426.745,23.926,54.199,48.340,41.504,68.848,0
1541599426.749,35.156,55.664,48.340,101.074,32.227,0
1541599426.753,27.344,54.688,49.316,92.773,50.293,0
1541599426.757,17.578,55.664,51.758,34.180,53.711,0
1541599426.761,17.090,51.758,51.270,25.879,16.602,0
1541599426.765,30.762,48.828,47.852,83.008,50.781,0
1541599426.769,32.715,51.758,44.434,100.586,60.547,0
1541599426.773,14.648,53.711,47.363,43.457,-53.711,0
1541599426.776,12.207,52.246,49.805,15.137,-43.457,0
1541599426.780,31.738,51.270,44.434,64.941,-0.977,0
1541599426.784,44.434,51.758,42.969,104.980,-25.391,0
1541599426.788,25.879,53.223,46.875,63.477,-24.902,0
1541599426.792,20.996,56.641,50.293,15.137,57.129,0
1541599426.796,35.156,60.547,48.340,52.734,81.055,0
1541599426.800,47.852,60.547,47.852,116.699,13.184,0
1541599426.804,50.293,58.105,46.875,94.727,33.203,0
1541599426.808,42.969,66.406,50.293,28.809,61.523,0
1541599426.812,41.992,64.941,54.688,36.133,31.738,0
1541599426.816,54.199,57.617,48.340,101.074,59.570,0
1541599426.819,64.453,64.453,45.898,103.516,17.090,0
1541599426.823,46.875,67.383,45.898,33.203,-22.461,0
1541599426.827,30.273,66.895,49.805,23.926,-7.812,0
1541599426.831,41.016,63.477,54.199,93.750,19.531,0
1541599426.835,53.223,63.477,52.734,114.746,42.480,0
1541599426.839,40.039,66.895,52.734,57.129,4.395,0
1541599426.843,31.738,65.430,52.246,25.879,12.207,0
1541599426.847,42.969,61.523,52.246,78.125,32.227,0
1541599426.851,48.340,64.941,50.293,121.094,39.062,0
1541599426.855,41.992,71.777,55.664,78.125,66.406,0
1541599426.858,29.297,66.895,55.176,23.926,70.801,0
1541599426.862,31.738,64.941,47.363,60.547,81.055,0
1541599426.866,56.152,68.359,51.270,126.953,55.176,0
1541599426.870,51.758,69.336,53.223,104.004,-17.090,0
1541599426.874,34.668,70.801,48.340,36.133,62.500,0
1541599426.878,42.969,70.312,45.410,47.363,31.250,0
1541599426.882,53.223,66.895,45.898,116.699,-40.527,0
1541599426.886,47.363,65.430,46.875,122.559,7.324,0
1541599426.890,37.598,69.336,49.805,57.617,1.465,0
1541599426.894,36.133,66.406,52.246,43.457,-22.461,0
1541599426.898,48.340,64.453,44.922,104.980,54.199,0
1541599426.901,62.500,65.430,40.039,125.488,127.441,0
1541599426.905,44.922,65.918,39.551,66.406,32.715,0
1541599426.909,42.969,70.801,43.457,32.715,-34.668,0
1541599426.913,64.453,68.359,44.922,77.637,-6.348,0
1541599426.917,66.895,64.453,46.387,123.535,26.855,0
1541599426.921,52.246,70.312,48.828,88.867,15.625,0
1541599426.925,43.945,71.289,44.434,31.738,-20.020,0
1541599426.929,47.363,62.012,40.039,50.293,20.020,0
1541599426.933,64.453,61.523,39.551,106.445,26.367,0
1541599426.937,67.871,70.801,42.969,101.562,41.504,0
1541599426.941,50.781,73.242,45.410,47.852,39.551,0
1541599426.944,46.875,72.266,46.387,47.852,-4.883,0
