timestamps,TP9,AF7,AF8,TP10,Right AUX,Marker0
5158.233,129.883,27.344,33.203,119.629,34.668,0
5158.236,-85.938,34.668,37.598,84.473,82.031,0
5158.240,-73.242,34.180,33.203,91.797,49.805,0
5158.244,142.578,29.297,26.855,136.230,34.668,0
5158.248,166.504,30.273,28.320,151.855,48.828,0
5158.252,-42.969,36.621,29.785,133.789,50.781,0
5158.256,-97.656,35.645,29.785,138.672,22.949,0
5158.260,75.195,29.297,26.855,166.016,4.883,0
5158.264,174.316,25.391,24.414,179.688,37.109,0
5158.268,-3.906,34.180,32.227,162.109,60.547,0
5158.272,-131.836,39.551,37.598,145.996,35.156,0
5158.276,6.348,31.250,34.180,163.574,34.668,0
5158.279,174.805,27.344,29.297,196.777,56.152,0
5158.283,68.848,35.156,28.809,205.078,29.297,0
5158.287,-126.953,39.062,32.227,190.918,49.805,0
5158.291,-60.547,34.668,27.832,203.125,92.285,0
5158.295,153.320,30.762,19.043,243.652,45.898,0
5158.299,125.977,32.227,21.484,241.699,22.949,0
5158.303,-96.191,36.621,27.832,215.820,56.641,0
5158.307,-106.445,34.180,21.484,213.379,41.504,0
5158.311,91.309,27.344,14.160,221.191,22.949,0
5158.315,166.504,28.809,21.484,233.398,61.523,0
5158.318,-20.996,33.691,29.785,214.355,53.223,0
5158.322,-122.559,30.762,27.344,187.988,28.809,0
5158.326,48.340,26.855,21.973,201.660,99.121,0
5158.330,183.594,29.297,20.508,229.980,100.586,0
5158.334,22.949,35.156,28.320,196.777,52.246,0
5158.338,-134.277,37.109,34.180,165.039,61.035,0
5158.342,-15.625,29.297,27.832,179.688,61.035,0
5158.346,170.410,26.367,25.879,188.965,25.879,0
5158.350,78.613,32.227,33.691,173.828,4.395,0
5158.354,-119.141,32.227,36.621,145.508,-18.066,0
5158.358,-62.500,25.391,31.250,144.043,-33.203,0
5158.361,146.973,23.438,24.414,177.734,47.363,0
5158.365,135.254,27.832,31.738,174.805,35.645,0
5158.369,-90.820,32.227,38.574,131.348,-21.484,0
5158.373,-110.840,33.203,36.133,125.977,-4.395,0
5158.377,91.309,32.227,30.762,156.738,26.855,0
5158.381,165.039,32.227,30.762,167.480,39.551,0
5158.385,-24.902,35.156,39.062,148.926,26.855,0
5158.389,-134.766,38.574,40.527,122.070,5.371,0
5158.393,19.043,32.715,33.691,114.746,12.695,0
5158.397,169.434,28.320,28.809,112.305,9.766,0
5158.401,33.691,34.180,34.180,66.895,57.617,0
5158.404,-131.836,37.109,40.527,20.508,62.500,0
5158.408,-19.043,33.203,37.598,40.527,-0.977,0
5158.412,175.781,29.297,30.273,78.125,25.391,0
5158.416,97.656,35.156,32.715,76.660,37.598,0
5158.420,-117.188,38.574,37.109,29.785,21.973,0
5158.424,-73.730,32.715,34.180,13.184,-42.480,0
5158.428,137.207,29.785,28.320,31.738,-51.270,0
5158.432,144.043,28.809,27.832,25.391,24.902,0
5158.436,-63.965,29.785,35.156,14.648,37.109,0
5158.440,-119.629,31.738,37.109,18.555,29.785,0
5158.443,69.336,26.855,30.273,59.082,66.406,0
5158.447,171.387,26.855,28.320,80.566,69.824,0
5158.451,-17.578,30.762,35.156,50.781,53.223,0
5158.455,-164.062,27.344,34.180,29.785,36.621,0
5158.459,-5.859,22.949,27.832,34.668,25.879,0
5158.463,204.102,23.926,23.926,59.570,19.531,0
5158.467,82.031,35.156,32.715,61.523,-20.508,0
5158.471,-128.418,38.086,38.086,41.016,37.109,0
5158.475,-38.574,29.785,29.785,51.270,52.734,0
5158.479,168.457,28.320,27.832,80.566,26.367,0
5158.483,113.281,31.738,32.715,89.844,37.598,0
5158.486,-110.352,33.203,36.621,69.336,45.410,0
5158.490,-104.980,30.762,33.203,73.730,41.016,0
5158.494,74.219,26.367,26.367,116.699,-7.812,0
5158.498,111.816,27.344,28.809,133.789,-25.879,0
5158.502,-67.871,34.180,36.133,105.957,-39.551,0
5158.506,-143.066,36.621,36.621,96.680,-44.434,0
5158.510,23.438,33.691,28.809,124.023,27.344,0
5158.514,142.578,32.227,27.344,152.832,79.590,0
5158.518,-23.438,36.621,36.621,132.812,40.527,0
5158.522,-161.621,40.527,37.598,99.121,22.461,0
5158.526,-19.531,33.203,31.250,119.141,71.289,0
5158.529,168.945,27.344,26.855,161.133,77.148,0
5158.533,56.152,34.180,31.738,167.969,56.641,0
5158.537,-135.254,37.598,38.086,146.484,8.789,0
5158.541,-51.270,35.645,33.203,149.414,-35.645,0
5158.545,151.855,31.738,22.461,167.480,20.996,0
5158.549,117.676,31.738,28.320,167.480,57.129,0
5158.553,-105.469,40.527,39.551,140.625,12.207,0
5158.557,-103.027,38.574,36.133,124.023,-15.137,0
5158.561,99.609,30.762,29.297,160.156,16.113,0
5158.565,153.320,31.738,31.738,180.176,38.574,0
5158.568,-34.180,38.574,40.527,153.320,27.344,0
5158.572,-124.023,34.180,38.574,139.160,24.414,0
5158.576,46.387,25.391,34.668,169.922,33.691,0
5158.580,193.848,26.367,35.645,185.547,13.184,0
5158.584,28.809,31.738,36.621,152.344,1.953,0
5158.588,-143.555,34.668,37.598,125.000,9.277,0
5158.592,-8.301,30.762,35.645,136.719,15.137,0
5158.596,185.547,27.344,34.180,166.016,58.594,0
5158.600,87.891,27.344,37.598,158.203,23.926,0
5158.604,-120.605,28.809,41.504,129.883,14.160,0
5158.608,-63.477,26.855,36.621,131.348,16.602,0
5158.611,150.879,21.973,27.344,160.645,16.113,0
5158.615,134.277,25.879,31.250,162.109,70.312,0
5158.619,-80.566,30.762,39.062,129.395,47.363,0
5158.623,-104.492,30.273,34.668,113.770,20.020,0
5158.627,95.215,25.879,24.414,132.324,40.039,0
5158.631,187.988,27.832,23.926,155.762,34.180,0
5158.635,-5.371,35.156,29.785,146.484,-22.949,0
5158.639,-129.883,32.227,32.227,132.324,-34.668,0
5158.643,42.969,24.902,23.926,144.043,1.953,0
5158.647,200.195,27.344,20.996,163.574,29.785,0
5158.651,44.922,34.668,27.832,141.602,28.320,0
5158.654,-143.066,38.574,27.344,107.910,-25.879,0
5158.658,-35.156,34.668,25.879,116.699,-30.762,0
5158.662,169.434,29.785,26.367,135.742,64.941,0
5158.666,96.680,33.691,33.691,134.277,74.219,0
5158.670,-119.141,37.109,40.527,106.445,16.602,0
5158.674,-83.008,33.203,33.203,122.070,-16.113,0
5158.678,125.977,26.367,26.367,153.320,20.508,0
5158.682,133.789,25.879,29.785,154.297,22.949,0
5158.686,-59.082,32.227,38.086,144.531,-0.488,0
5158.690,-108.398,33.203,33.691,138.184,-2.441,0
5158.693,75.195,26.855,24.902,172.363,-7.812,0
5158.697,191.895,25.879,23.926,197.266,13.672,0
5158.701,10.742,34.668,31.738,177.246,22.949,0
5158.705,-130.371,37.598,37.109,164.551,9.766,0
5158.709,28.320,25.879,31.250,193.359,-11.719,0
5158.713,198.730,21.973,25.391,219.727,17.090,0
5158.717,58.594,27.344,28.809,208.496,6.836,0
5158.721,-129.395,29.297,36.133,196.289,-50.781,0
5158.725,-38.574,25.879,32.227,216.797,-30.762,0
5158.729,153.320,21.484,26.367,251.953,60.547,0
5158.733,111.328,24.414,34.180,253.418,61.035,0
5158.736,-83.496,33.203,41.992,228.027,45.898,0
5158.740,-76.660,33.203,37.598,229.492,121.582,0
5158.744,119.141,26.367,27.832,246.582,126.953,0
5158.748,149.414,26.855,25.391,252.930,38.086,0
5158.752,-58.105,32.715,31.250,224.609,18.555,0
5158.756,-124.023,32.227,34.180,209.961,64.941,0
5158.760,69.336,26.367,28.320,234.863,54.199,0
5158.764,191.895,22.949,25.391,256.836,24.414,0
5158.768,13.184,28.809,33.203,236.816,40.039,0
5158.772,-131.348,32.227,35.156,205.078,55.664,0
5158.776,11.230,29.785,25.391,213.379,65.918,0
5158.779,193.848,32.227,21.973,232.910,43.457,0
5158.783,77.637,41.016,25.879,208.008,32.227,0
5158.787,-121.582,44.434,29.785,159.180,63.965,0
5158.791,-44.434,35.156,30.273,145.020,44.922,0
5158.795,160.645,30.762,27.832,151.367,20.020,0
5158.799,131.348,36.621,29.297,124.512,-7.324,0
5158.803,-89.844,41.504,35.645,74.707,11.719,0
5158.807,-101.074,41.016,39.551,56.152,43.945,0
5158.811,102.539,32.715,36.621,51.758,35.645,0
5158.815,166.504,31.738,34.668,41.504,-22.461,0
5158.818,-27.344,35.645,35.156,6.836,-98.633,0
5158.822,-122.070,30.762,33.203,-9.766,-55.176,0
5158.826,58.594,29.297,29.297,21.484,23.438,0
5158.830,196.777,30.273,26.367,30.273,109.863,0
5158.834,17.578,33.203,32.227,3.418,87.402,0
5158.838,-148.438,31.738,36.621,-9.277,37.109,0
5158.842,-22.949,28.320,30.273,31.738,67.871,0
5158.846,169.434,27.344,25.879,84.473,84.473,0
5158.850,69.824,27.832,30.762,89.844,96.191,0
5158.854,-145.996,27.344,34.668,83.984,41.016,0
5158.858,-88.867,20.508,31.738,110.352,-2.441,0
5158.861,132.324,18.066,27.832,157.227,54.199,0
5158.865,135.742,23.926,27.832,167.969,36.621,0
5158.869,-82.031,26.367,30.273,162.109,7.324,0
5158.873,-138.184,26.367,30.762,184.082,40.527,0
5158.877,62.012,23.926,26.855,206.055,58.105,0
5158.881,169.922,21.973,26.855,229.980,70.801,0
5158.885,-24.414,25.391,35.645,214.355,63.965,0
5158.889,-146.973,27.832,37.109,189.941,45.898,0
5158.893,11.230,19.043,26.367,211.426,2.930,0
5158.897,181.152,11.230,19.531,220.703,17.090,0
5158.901,51.758,21.973,24.902,189.453,28.809,0
5158.904,-132.324,27.344,29.785,164.062,37.109,0
5158.908,-21.973,20.996,25.391,167.480,63.965,0
5158.912,184.082,18.066,20.508,190.918,35.645,0
5158.916,101.074,24.414,23.926,177.246,60.059,0
5158.920,-106.445,32.715,29.785,136.719,32.227,0
5158.924,-61.523,32.227,27.344,131.836,-8.789,0
5158.928,148.926,26.367,23.926,149.414,68.359,0
5158.932,166.016,23.438,27.832,145.508,37.598,0
5158.936,-52.734,30.273,31.738,105.957,15.625,0
5158.940,-114.258,33.691,30.762,81.543,33.203,0
5158.943,74.707,26.367,24.414,109.863,96.191,0
5158.947,185.547,24.414,23.438,135.742,116.699,0
5158.951,8.301,31.738,29.785,130.371,79.590,0
5158.955,-130.371,34.668,30.762,109.863,35.645,0
5158.959,20.996,27.344,25.391,127.930,9.766,0
5158.963,196.289,24.414,20.996,168.457,32.227,0
5158.967,60.547,28.809,29.297,164.551,17.090,0
5158.971,-137.207,31.250,36.133,146.973,-26.367,0
5158.975,-49.316,27.832,31.250,155.762,21.973,0
5158.979,155.762,21.484,24.414,182.617,65.918,0
5158.983,102.051,21.484,30.273,184.570,48.828,0
5158.986,-118.164,26.367,37.598,160.645,27.344,0
5158.990,-107.422,24.414,29.785,160.645,4.395,0
5158.994,103.516,20.020,21.973,191.895,-1.465,0
5158.998,160.156,23.926,24.902,214.844,54.199,0
5159.002,-41.992,30.762,30.762,190.918,34.668,0
5159.006,-125.488,29.297,30.762,174.805,-21.484,0
5159.010,47.852,22.949,26.367,200.195,35.156,0
5159.014,171.387,20.508,24.414,228.516,46.875,0
5159.018,4.883,28.320,31.250,204.102,-1.953,0
5159.022,-139.648,33.203,32.715,166.992,-31.738,0
5159.026,6.348,26.855,26.367,172.363,-5.371,0
5159.029,193.359,18.066,26.367,200.684,29.297,0
5159.033,75.684,25.879,34.668,192.871,9.766,0
5159.037,-119.629,39.062,41.504,167.969,27.344,0
5159.041,-48.828,36.133,33.691,180.176,7.812,0
5159.045,147.949,28.320,24.902,215.820,10.254,0
5159.049,116.211,28.809,29.297,229.004,32.715,0
5159.053,-98.145,35.645,33.203,191.895,20.996,0
5159.057,-106.934,31.250,30.762,178.711,65.430,0
5159.061,93.262,22.949,22.461,208.984,55.176,0
5159.065,165.527,27.344,25.391,215.332,77.148,0
5159.068,-27.832,34.180,37.598,193.359,51.758,0
5159.072,-142.578,31.250,36.621,183.594,-32.227,0
5159.076,30.273,27.344,30.273,213.379,-7.812,0
5159.080,184.082,29.785,32.227,243.164,28.320,0
5159.084,22.949,37.598,37.109,223.633,20.020,0
5159.088,-146.973,36.621,36.621,198.242,40.527,0
5159.092,-17.090,28.320,33.203,216.309,47.363,0
5159.096,186.523,27.344,27.344,255.371,5.859,0
5159.100,98.145,31.250,31.738,250.488,58.594,0
5159.104,-114.746,28.809,40.527,210.938,59.570,0
5159.108,-66.406,26.367,37.598,214.355,26.367,0
5159.111,151.367,26.367,28.809,242.676,31.738,0
5159.115,151.855,30.762,32.715,238.770,43.945,0
5159.119,-64.941,36.621,41.992,204.590,41.016,0
5159.123,-102.051,30.762,38.574,198.242,15.137,0
5159.127,104.004,23.926,31.738,230.957,18.066,0
5159.131,191.406,27.344,30.273,244.141,15.625,0
5159.135,-10.742,34.668,35.156,212.402,7.812,1
5159.139,-129.883,37.109,37.109,195.801,29.297,0
5159.143,27.832,30.762,31.738,215.820,48.340,0
5159.147,180.664,28.809,31.250,240.723,68.848,0
5159.151,40.527,35.156,35.645,225.586,13.184,0
5159.154,-126.465,40.039,38.086,193.359,-11.719,0
5159.158,-8.789,37.598,34.668,202.148,48.340,0
5159.162,197.266,34.180,26.855,226.562,48.828,0
5159.166,129.395,37.598,32.715,227.051,77.148,0
5159.170,-83.984,41.504,40.527,200.195,61.523,0
5159.174,-69.824,37.598,35.645,197.754,-8.301,0
5159.178,135.254,30.273,29.297,225.586,38.574,0
5159.182,160.645,32.227,31.250,229.492,49.316,0
5159.186,-62.988,38.086,32.715,190.430,-9.277,0
5159.190,-137.695,33.203,29.785,164.062,-16.602,0
5159.193,42.969,25.391,22.949,181.152,51.758,0
5159.197,165.527,26.855,19.043,197.266,70.801,0
5159.201,2.930,35.645,25.391,160.645,68.848,0
5159.205,-133.789,34.180,25.391,127.930,73.730,0
5159.209,7.324,26.855,19.043,145.508,35.645,0
5159.213,187.500,24.414,18.066,156.738,47.852,0
5159.217,66.406,29.297,27.832,131.836,83.008,0
5159.221,-125.000,34.668,33.203,88.867,-0.488,0
5159.225,-44.434,32.227,24.902,85.449,-61.035,0
5159.229,168.457,32.227,22.461,113.281,16.113,0
5159.233,130.859,36.621,32.715,97.168,63.965,0
5159.236,-83.496,41.504,39.551,55.664,14.160,0
5159.240,-63.477,30.762,34.180,41.016,38.574,0
5159.244,136.230,22.949,26.855,64.453,88.867,0
5159.248,169.922,28.809,29.297,75.195,42.969,0
5159.252,-40.527,33.203,35.645,37.598,43.457,0
5159.256,-131.836,32.715,37.598,15.137,22.949,0
5159.260,48.828,27.832,34.180,27.832,-13.672,0
5159.264,186.523,26.855,31.738,52.734,-1.953,0
5159.268,26.367,32.715,37.598,31.738,4.395,0
5159.272,-128.906,35.156,37.109,1.953,26.855,0
5159.276,3.906,31.250,31.738,22.949,20.020,0
5159.279,197.754,30.273,30.762,54.199,36.133,0
5159.283,88.379,33.691,38.086,44.434,23.926,0
5159.287,-111.816,34.668,46.875,13.672,12.695,0
5159.291,-39.062,35.156,42.969,10.254,15.625,0
5159.295,161.621,32.715,34.180,31.738,12.695,0
5159.299,138.184,32.715,35.645,28.809,-1.953,0
5159.303,-73.242,36.621,41.504,-11.719,10.254,0
5159.307,-83.496,30.273,41.016,-9.766,9.277,0
5159.311,121.094,25.391,34.180,33.691,6.348,0
5159.315,184.082,30.762,32.715,36.621,62.988,0
5159.318,-12.207,35.645,44.434,-0.977,75.684,0
5159.322,-103.516,35.156,44.434,-9.766,10.742,0
5159.326,64.941,29.785,35.645,21.973,-3.418,0
5159.330,193.359,20.996,32.227,49.316,47.852,0
5159.334,37.109,20.020,36.133,33.203,32.227,0
5159.338,-129.395,26.367,40.039,4.395,13.184,0
5159.342,-12.695,26.855,35.156,14.648,33.691,0
5159.346,183.594,27.344,31.250,49.316,63.965,0
5159.350,94.238,34.668,35.156,38.574,38.574,0
5159.354,-111.328,39.551,38.086,-5.371,40.039,0
5159.358,-71.289,36.133,33.691,-15.137,67.871,0
5159.361,134.277,28.320,26.367,20.020,15.625,0
5159.365,135.254,30.273,30.762,23.926,44.434,0
5159.369,-79.102,39.062,39.062,-17.578,117.676,0
5159.373,-115.234,37.598,35.156,-22.461,84.473,0
5159.377,88.867,35.156,28.320,20.020,29.785,0
5159.381,193.848,37.598,25.391,41.504,76.660,0
5159.385,10.254,42.480,31.738,19.043,37.598,0
5159.389,-111.816,41.992,34.180,-12.695,-18.066,0
5159.393,50.781,33.691,24.902,1.465,38.574,0
5159.397,223.633,29.785,20.996,42.969,44.922,0
5159.401,79.102,39.062,27.832,30.273,32.715,0
5159.404,-111.816,43.457,34.180,-5.371,20.508,0
5159.408,-11.230,38.086,28.809,4.883,30.762,0
5159.412,179.688,28.809,20.020,33.203,67.383,0
5159.416,109.863,28.809,25.391,39.551,35.645,0
5159.420,-105.957,35.645,33.691,18.066,-20.020,0
5159.424,-88.379,35.156,28.320,16.113,12.207,0
5159.428,116.699,30.273,21.973,46.387,70.312,0
5159.432,148.438,29.785,24.414,49.805,41.016,0
5159.436,-60.059,27.832,33.203,16.113,-16.113,0
5159.440,-119.141,29.297,38.574,-14.160,-19.531,0
5159.443,78.125,32.715,32.227,10.742,25.391,0
5159.447,193.848,28.320,25.391,32.227,66.406,0
5159.451,20.020,32.715,33.203,7.324,34.180,0
5159.455,-129.395,33.691,39.062,-22.461,1.953,0
5159.459,7.324,27.832,31.738,-10.742,35.645,0
5159.463,205.566,24.414,27.832,18.066,33.203,0
5159.467,101.562,27.344,34.180,-3.906,16.602,0
5159.471,-111.328,32.715,40.039,-34.668,16.113,0
5159.475,-46.875,31.738,35.645,-34.668,8.789,0
5159.479,176.758,25.879,26.855,-0.977,10.742,0
5159.483,149.414,28.320,32.715,9.277,32.715,0
5159.486,-82.520,32.227,41.992,-31.738,49.316,0
5159.490,-104.492,28.809,37.109,-49.805,34.180,0
5159.494,111.816,22.949,29.297,-5.859,25.391,0
5159.498,183.105,22.949,28.809,26.367,29.297,0
5159.502,-27.344,27.344,35.645,2.441,0.488,0
5159.506,-123.535,28.809,38.086,-6.348,8.789,0
5159.510,59.570,23.926,30.273,26.855,14.160,0
5159.514,209.473,21.973,27.344,53.711,28.809,0
5159.518,41.992,29.297,36.133,40.527,17.578,0
5159.522,-132.812,32.227,38.574,18.555,49.805,0
5159.526,-1.465,30.273,31.250,35.156,19.043,0
5159.529,203.125,29.785,27.344,77.148,-5.859,0
5159.533,116.211,33.203,31.250,69.824,28.320,0
5159.537,-92.285,38.086,36.621,21.973,-5.371,0
5159.541,-53.223,37.109,37.109,22.949,33.691,0
5159.545,161.133,31.250,33.203,65.918,49.805,0
5159.549,171.387,33.203,30.762,75.684,-2.441,0
5159.553,-62.500,41.016,35.645,45.410,-33.691,0
5159.557,-112.305,40.039,38.574,31.250,-9.277,0
5159.561,91.797,31.250,35.645,65.918,33.203,0
5159.565,180.176,30.762,32.715,87.402,55.664,0
5159.568,-19.531,33.691,35.156,48.340,6.836,0
5159.572,-145.996,28.320,36.133,10.742,-43.945,0
5159.576,14.160,23.926,29.785,31.738,50.781,0
5159.580,194.336,27.344,27.832,66.406,86.914,0
5159.584,65.430,34.668,35.156,37.598,14.160,0
5159.588,-134.277,38.574,40.039,-7.324,-36.621,0
5159.592,-31.250,33.203,32.227,5.859,-26.367,0
5159.596,198.730,25.879,25.879,43.457,6.348,0
5159.600,131.836,28.809,31.738,41.016,25.391,0
5159.604,-104.004,36.133,38.574,23.926,21.973,0
5159.608,-78.613,34.668,37.598,34.668,7.812,0
5159.611,151.367,24.902,26.855,62.500,25.391,0
5159.615,184.082,23.438,24.902,55.176,107.910,0
5159.619,-41.504,33.203,31.738,0.488,71.777,0
5159.623,-116.211,36.133,31.738,-27.344,-7.324,0
5159.627,89.844,35.156,27.344,-10.254,1.953,0
5159.631,212.891,35.156,24.414,-5.859,65.430,0
5159.635,23.926,40.527,33.203,-45.410,68.848,0
5159.639,-111.816,42.480,36.133,-84.473,1.953,0
5159.643,37.109,38.086,31.250,-63.477,36.621,0
5159.647,212.891,36.133,29.297,-46.387,66.406,1
5159.651,82.031,37.109,32.227,-84.961,52.734,0
5159.654,-147.461,38.086,39.551,-118.164,-7.812,0
5159.658,-75.195,34.668,37.109,-111.328,2.441,0
5159.662,151.367,27.832,30.762,-78.613,70.312,0
5159.666,112.305,29.297,36.133,-82.520,72.754,0
5159.670,-117.676,34.668,44.922,-113.281,81.055,0
5159.674,-123.535,30.273,42.480,-108.887,39.062,0
5159.678,104.492,23.926,31.738,-70.801,32.715,0
5159.682,165.527,25.391,28.809,-60.059,30.762,0
5159.686,-51.758,31.250,35.156,-89.355,-18.555,0
5159.690,-140.137,32.227,34.180,-94.238,-11.719,0
5159.693,52.734,27.832,28.809,-62.988,-7.812,0
5159.697,203.613,29.785,27.344,-36.133,10.254,0
5159.701,38.086,37.598,30.273,-60.547,17.578,0
5159.705,-127.441,38.086,34.180,-93.262,16.113,0
5159.709,18.555,31.738,28.320,-60.059,51.758,0
5159.713,242.676,25.879,20.020,-20.020,85.938,0
5159.717,144.043,32.227,24.414,-25.391,65.430,0
5159.721,-96.191,38.574,32.227,-55.176,22.461,0
5159.725,-60.059,31.738,32.715,-57.129,29.785,0
5159.729,131.348,23.926,28.320,-10.742,34.668,0
5159.733,90.332,25.391,28.320,-8.789,16.113,0
5159.736,-159.180,30.762,33.203,-36.133,-14.160,0
5159.740,-190.430,33.203,30.762,-26.367,-26.855,0
5159.744,50.781,32.715,24.902,20.020,10.742,0
5159.748,159.668,30.273,25.391,41.016,14.160,0
5159.752,-38.574,34.180,31.250,3.906,-25.879,0
5159.756,-144.043,36.133,30.273,-16.113,-16.602,0
5159.760,39.551,29.785,21.973,21.973,22.461,0
5159.764,187.012,25.391,20.508,64.941,67.871,0
5159.768,7.812,30.762,28.809,46.875,72.754,0
5159.772,-178.711,35.156,34.668,3.418,25.879,0
5159.776,-49.805,29.785,29.785,14.648,0.000,0
5159.779,179.199,26.367,23.926,62.012,26.855,0
5159.783,102.051,30.273,27.832,55.664,41.992,0
5159.787,-119.629,33.203,35.645,16.602,21.973,0
5159.791,-64.941,30.762,33.203,20.996,27.832,0
5159.795,173.340,24.414,23.926,69.824,79.102,0
5159.799,194.824,28.809,27.832,85.938,63.965,0
5159.803,-45.898,38.574,35.645,47.852,-23.926,0
5159.807,-114.258,34.180,34.668,38.574,-24.414,0
5159.811,89.355,24.902,28.809,74.219,-4.883,0
5159.815,190.918,24.414,23.926,84.961,8.301,0
5159.818,-7.812,31.250,30.762,54.688,50.781,0
5159.822,-143.066,37.598,35.645,28.320,70.801,0
5159.826,25.879,33.203,30.762,51.758,67.871,0
5159.830,218.750,25.879,29.785,83.984,20.020,0
5159.834,80.078,34.668,36.133,73.242,0.488,0
5159.838,-134.766,40.039,40.039,42.969,37.598,0
5159.842,-44.922,36.133,34.668,37.109,48.828,0
5159.846,180.176,33.203,29.785,83.496,62.988,0
5159.850,119.141,36.133,32.715,91.797,69.336,0
5159.854,-122.559,41.992,38.574,61.035,31.738,0
5159.858,-102.539,37.598,34.668,58.594,55.176,0
5159.861,131.348,31.250,27.832,101.562,67.383,0
5159.865,160.156,32.227,31.250,129.395,28.320,0
5159.869,-73.730,38.086,37.109,91.797,18.066,0
5159.873,-144.043,34.668,35.156,71.289,2.930,0
5159.877,60.059,27.344,30.273,111.816,-20.020,0
5159.881,202.148,27.344,28.809,128.906,11.719,0
5159.885,26.855,34.180,34.668,104.004,0.488,0
5159.889,-147.461,36.621,38.086,81.055,-16.113,0
5159.893,-20.508,31.738,32.715,87.402,41.504,0
5159.897,172.852,30.273,25.391,113.281,74.219,0
5159.901,70.312,33.203,28.320,72.754,49.316,0
5159.904,-141.602,37.598,33.691,3.906,18.066,0
5159.908,-75.684,33.691,30.273,2.441,-10.742,0
5159.912,150.391,25.879,22.949,35.156,2.441,0
5159.916,124.512,28.809,25.879,16.602,28.320,0
5159.920,-105.957,35.156,34.180,-35.156,10.742,0
5159.924,-102.539,34.668,32.227,-37.109,-20.996,0
5159.928,133.301,27.344,24.902,3.906,-40.039,0
5159.932,190.918,29.297,22.461,6.836,58.105,0
5159.936,-52.246,35.645,28.809,-48.340,94.238,0
5159.940,-165.527,30.762,32.227,-74.219,51.758,0
5159.943,35.645,23.438,24.902,-50.293,41.992,0
5159.947,180.664,20.508,23.438,-29.785,62.012,0
5159.951,11.230,21.973,33.203,-55.176,17.090,0
5159.955,-142.090,26.855,37.598,-83.984,-15.625,0
5159.959,-14.160,28.809,28.809,-69.336,26.367,0
5159.963,197.266,30.273,20.508,-28.320,76.172,0
5159.967,107.422,33.691,30.762,-33.691,69.824,0
5159.971,-122.070,36.133,41.016,-78.125,22.949,0
5159.975,-77.637,32.715,32.227,-82.520,25.391,0
5159.979,156.738,26.855,25.391,-43.457,33.691,0
5159.983,153.809,29.297,29.785,-35.156,29.297,0
5159.986,-80.566,35.156,37.598,-66.406,-21.484,0
5159.990,-108.398,33.691,38.086,-71.777,-12.207,0
5159.994,106.934,29.785,28.809,-40.527,26.367,0
5159.998,199.219,32.715,27.344,-28.320,34.668,0
5160.002,-20.020,38.574,32.227,-58.594,43.457,0
5160.006,-157.715,35.156,37.598,-78.125,-3.906,0
5160.010,52.246,27.832,34.668,-56.641,-13.184,0
5160.014,226.562,24.414,25.391,-26.855,34.668,0
5160.018,37.598,31.250,32.227,-42.480,83.008,0
5160.022,-162.109,39.551,38.086,-66.406,70.801,0
5160.026,-51.270,33.203,30.273,-37.598,52.734,0
5160.029,166.992,24.902,26.367,10.742,77.148,0
5160.033,101.074,31.738,32.227,2.441,49.805,0
5160.037,-131.836,39.551,38.574,-37.109,37.598,0
5160.041,-98.633,36.621,33.203,-27.344,88.379,0
5160.045,150.391,33.203,25.879,18.066,56.641,0
5160.049,179.688,32.715,27.344,19.043,37.598,0
5160.053,-83.496,38.086,35.156,-18.066,0.000,0
5160.057,-157.715,39.551,37.109,-11.719,-56.152,0
5160.061,76.660,32.715,27.344,37.109,-7.324,0
5160.065,191.895,27.344,24.414,66.895,48.340,0
5160.068,-17.090,31.738,33.203,36.133,-0.488,0
5160.072,-164.551,35.156,34.668,14.648,13.184,0
5160.076,6.348,31.738,27.832,45.410,7.324,0
5160.080,209.473,29.785,24.902,82.520,93.750,0
5160.084,78.125,28.809,32.715,61.035,120.605,0
5160.088,-159.668,33.691,40.527,20.020,-4.883,0
5160.092,-74.219,35.156,33.203,40.527,-52.246,0
5160.096,184.570,32.715,25.879,83.496,-18.555,0
5160.100,144.043,35.645,31.250,78.125,-8.789,0
5160.104,-120.117,40.039,39.551,42.480,-25.391,0
5160.108,-131.836,39.551,41.504,49.316,3.418,0
5160.111,124.512,34.180,33.203,99.121,16.113,0
5160.115,186.035,29.297,29.785,104.492,47.852,0
5160.119,-60.059,31.738,34.180,53.223,43.457,0
5160.123,-149.902,35.156,30.273,39.551,-34.180,0
5160.127,64.941,29.785,24.414,76.172,1.465,0
5160.131,194.336,21.973,23.438,98.145,68.848,0
5160.135,-1.953,30.273,31.250,68.359,39.062,0
5160.139,-181.152,35.156,38.574,35.156,37.109,0
5160.143,-29.297,25.879,30.762,50.293,40.527,0
5160.147,210.938,22.949,24.414,93.262,26.367,0
5160.151,90.820,29.297,28.809,74.707,42.969,0
5160.154,-165.039,36.621,32.227,34.180,87.891,0
5160.158,-98.633,35.156,32.227,54.688,41.992,0
5160.162,161.133,22.949,23.438,93.262,86.914,0
5160.166,154.785,26.367,26.367,93.262,113.281,0
5160.170,-112.793,40.527,35.645,56.152,0.977,0
5160.174,-148.438,41.504,29.785,46.875,4.883,0
5160.178,106.445,35.645,23.926,91.797,39.062,0
5160.182,197.754,32.227,27.832,110.352,70.801,0
5160.186,-44.434,38.086,38.574,71.289,21.973,0
5160.190,-170.898,41.016,41.016,39.062,11.230,0
5160.193,30.273,32.715,29.785,57.617,29.297,0
5160.197,202.637,29.785,24.902,97.168,36.133,0
5160.201,31.738,37.598,33.203,75.684,51.758,0
5160.205,-174.316,40.527,39.062,34.180,23.926,0
5160.209,-41.504,37.598,32.715,57.129,0.000,0
5160.213,207.520,35.645,26.367,102.051,-2.441,0
5160.217,116.211,33.691,30.762,91.309,6.836,0
5160.221,-161.133,32.715,32.227,41.992,-6.348,0
5160.225,-124.023,36.133,29.297,33.203,31.250,0
5160.229,139.160,33.203,26.855,76.660,75.195,0
5160.233,135.742,27.832,29.297,73.730,33.691,0
5160.236,-127.441,36.621,38.574,11.719,-3.906,0
5160.240,-185.547,38.574,34.180,-3.418,28.809,0
5160.244,48.340,28.809,25.879,35.645,22.949,0
5160.248,183.594,29.297,26.855,61.035,9.766,0
5160.252,-53.711,38.574,32.715,15.137,-23.926,0
5160.256,-253.906,40.527,34.668,-26.855,-16.602,0
5160.260,-85.449,35.156,30.273,5.859,25.391,0
5160.264,134.277,29.785,23.438,51.270,35.645,0
5160.268,-8.301,34.180,28.320,36.621,31.738,0
5160.272,-251.953,39.062,39.551,7.812,39.062,0
5160.276,-139.648,37.109,32.715,24.902,72.754,0
5160.279,167.969,33.691,19.043,83.984,70.312,0
5160.283,121.094,35.645,23.438,106.934,76.172,0
5160.287,-171.387,40.039,35.156,62.988,41.504,0
5160.291,-154.297,40.039,31.738,54.199,-17.090,0
5160.295,144.043,34.180,20.996,116.699,9.277,0
5160.299,215.332,27.832,21.484,145.508,29.785,0
5160.303,-55.664,32.715,31.250,93.262,47.852,0
5160.307,-155.273,38.574,33.691,75.684,31.738,0
5160.311,111.328,32.227,25.879,133.789,-40.039,2
5160.315,293.945,24.902,22.949,168.945,-7.324,0
5160.318,57.129,30.273,32.227,120.117,21.484,0
5160.322,-181.152,34.180,36.133,68.848,7.812,0
5160.326,-6.348,29.297,26.367,88.379,10.742,0
5160.330,291.504,21.973,17.578,142.578,60.547,0
5160.334,167.480,28.320,26.855,141.113,91.797,0
5160.338,-147.461,37.598,38.086,85.449,57.129,0
5160.342,-94.238,29.785,33.203,83.984,-8.789,0
5160.346,232.910,23.438,23.926,133.789,-17.090,0
5160.350,236.328,28.320,25.391,125.977,1.953,0
5160.354,-101.074,37.598,34.668,66.895,-9.277,0
5160.358,-153.809,36.133,35.645,49.805,-38.574,0
5160.361,144.531,25.879,21.484,98.633,14.648,0
5160.365,258.301,24.414,19.531,126.953,80.078,0
5160.369,-40.039,33.691,35.645,76.660,30.273,0
5160.373,-220.215,33.691,40.039,34.180,19.043,0
5160.377,47.852,24.414,28.809,76.172,2.930,0
5160.381,297.363,18.555,21.484,116.211,75.684,0
5160.385,82.520,28.320,35.156,72.266,77.637,0
5160.389,-183.594,37.598,42.969,1.465,-39.551,0
5160.393,-35.156,34.180,32.227,-7.812,-23.438,0
5160.397,274.902,25.879,17.578,6.836,4.395,0
5160.401,189.941,31.250,18.066,-53.711,20.020,0
5160.404,-130.859,42.480,33.203,-159.180,19.043,0
5160.408,-121.094,39.062,34.668,-196.777,-18.555,0
5160.412,195.312,23.926,20.996,-164.551,68.359,0
5160.416,249.512,20.020,20.996,-165.039,101.074,0
5160.420,-81.055,33.203,35.645,-230.957,53.223,0
5160.424,-185.059,39.062,39.551,-271.484,29.297,0
5160.428,122.070,29.785,26.367,-223.145,9.766,0
5160.432,299.316,27.344,18.555,-208.008,22.949,0
5160.436,13.672,37.598,29.297,-283.203,13.184,0
5160.440,-218.262,38.086,39.062,-338.867,15.625,0
5160.443,6.836,24.902,27.832,-307.617,29.785,0
5160.447,285.156,20.508,16.113,-256.348,12.695,0
5160.451,104.492,30.273,26.855,-291.016,10.742,0
5160.455,-202.637,36.133,39.551,-346.191,-19.043,0
5160.459,-92.285,33.691,31.738,-322.266,-13.672,0
5160.463,243.652,25.391,15.137,-253.418,76.172,0
5160.467,197.754,27.344,23.926,-254.395,61.035,0
5160.471,-143.066,37.109,41.016,-314.941,-6.836,0
5160.475,-154.785,35.156,34.668,-311.035,30.273,0
5160.479,174.316,22.461,20.508,-230.957,36.621,0
5160.483,241.211,19.043,22.461,-198.730,17.090,0
5160.486,-92.285,32.227,32.715,-244.141,-10.742,0
5160.490,-215.820,35.645,35.645,-265.137,-58.105,0
5160.494,86.914,24.902,26.855,-209.961,7.324,0
5160.498,279.297,20.996,20.996,-159.668,66.895,0
5160.502,8.789,31.250,34.180,-200.195,67.871,0
5160.506,-229.980,35.645,43.457,-241.699,58.594,0
5160.510,-23.926,29.297,35.156,-208.008,60.547,0
5160.514,263.672,20.508,23.438,-146.973,107.422,0
5160.518,110.352,23.438,29.297,-162.109,105.469,0
5160.522,-187.500,37.109,40.527,-227.539,-5.371,0
5160.526,-105.469,33.691,35.156,-216.797,-19.043,0
5160.529,210.938,22.461,23.926,-151.367,68.359,0
5160.533,191.406,26.855,25.391,-149.902,25.879,0
5160.537,-133.301,37.598,35.645,-195.312,4.395,0
5160.541,-160.645,35.156,37.109,-186.035,35.156,0
5160.545,155.273,26.367,29.785,-130.371,22.949,0
5160.549,229.980,23.926,31.250,-109.863,10.742,0
5160.553,-74.707,29.297,42.969,-152.832,26.367,0
5160.557,-190.430,32.715,41.992,-180.664,36.133,0
5160.561,60.547,28.809,29.297,-145.020,-69.824,0
5160.565,232.910,25.879,24.902,-104.492,-2.930,0
5160.568,11.230,32.227,33.203,-127.441,46.875,0
5160.572,-187.988,35.156,36.133,-164.551,-24.902,0
5160.576,-14.160,27.344,28.809,-146.484,9.766,0
5160.580,228.516,24.414,22.461,-92.773,64.453,0
5160.584,105.469,30.762,27.832,-99.121,50.293,0
5160.588,-144.531,36.133,36.133,-141.602,13.184,0
5160.592,-76.172,30.273,30.762,-134.277,-15.625,0
5160.596,189.453,25.879,21.973,-84.961,13.672,0
5160.600,166.016,30.762,25.391,-85.449,83.008,0
5160.604,-118.164,38.574,34.668,-136.230,39.062,0
5160.608,-128.906,39.551,38.574,-138.672,5.859,0
5160.611,145.020,31.250,32.227,-86.914,34.668,0
5160.615,215.332,29.297,31.250,-72.754,55.664,0
5160.619,-56.641,33.691,38.574,-124.023,33.203,0
5160.623,-177.246,31.250,39.062,-156.250,37.109,0
5160.627,44.434,26.855,31.738,-120.117,60.059,0
5160.631,214.355,24.902,25.879,-78.613,32.227,0
5160.635,32.227,32.227,36.133,-102.051,-4.883,0
5160.639,-179.199,38.086,41.504,-145.996,-16.113,0
5160.643,-45.410,33.691,31.738,-117.676,-19.043,0
5160.647,197.266,28.320,26.367,-62.012,15.625,0
5160.651,88.867,34.668,30.762,-82.520,51.758,0
5160.654,-150.879,41.016,37.598,-128.418,32.227,0
5160.658,-83.496,35.645,33.691,-117.188,-20.020,0
5160.662,181.641,30.273,23.438,-83.984,30.762,0
5160.666,172.363,31.250,24.902,-99.121,15.625,0
5160.670,-98.145,37.598,35.645,-129.395,16.602,0
5160.674,-143.066,39.062,34.180,-101.562,67.871,0
5160.678,113.770,31.250,25.879,-30.762,43.945,0
5160.682,223.633,29.297,26.855,20.020,44.922,0
5160.686,-22.461,40.527,36.133,-3.906,44.922,0
5160.690,-150.391,45.410,40.039,-24.414,-0.488,0
5160.693,58.594,34.668,30.273,22.461,21.484,0
5160.697,240.723,29.785,24.902,71.289,72.266,0
5160.701,57.129,41.016,31.250,54.688,26.855,0
5160.705,-170.898,38.574,40.039,15.625,-30.762,0
5160.709,-47.852,30.273,36.621,38.086,-33.691,0
5160.713,213.867,31.250,26.855,102.051,44.434,0
5160.717,131.348,38.574,31.738,97.656,82.520,0
5160.721,-139.160,46.875,39.551,48.340,20.508,0
5160.725,-112.793,42.969,36.133,63.477,23.438,0
5160.729,165.039,33.203,30.762,122.559,64.941,0
5160.733,201.660,34.180,33.203,124.023,109.375,0
5160.736,-78.613,43.457,41.504,86.914,104.492,0
5160.740,-141.602,43.457,41.504,86.914,30.762,0
5160.744,117.676,36.133,29.297,127.441,32.227,0
5160.748,237.793,35.156,26.367,150.391,40.039,0
5160.752,-2.930,37.598,34.668,100.586,8.301,0
5160.756,-168.457,40.039,39.062,53.223,-21.484,0
5160.760,27.832,34.668,32.227,86.914,66.406,0
5160.764,247.070,28.809,28.320,137.207,139.160,0
5160.768,69.336,35.156,37.598,112.793,88.379,0
5160.772,-189.941,40.039,43.457,55.664,32.227,0
5160.776,-81.055,35.156,37.598,61.523,1.465,0
5160.779,192.383,30.762,29.297,124.023,33.203,0
5160.783,151.367,34.668,33.691,127.930,38.086,0
5160.787,-120.605,41.016,42.480,76.660,1.953,0
5160.791,-135.742,40.039,38.086,76.660,11.230,0
5160.795,124.023,29.785,27.344,121.582,62.012,0
5160.799,254.395,27.832,26.855,145.996,65.430,0
5160.803,20.020,38.086,34.180,110.840,-2.930,0
5160.807,-150.391,36.621,38.574,80.078,-9.766,0
5160.811,111.816,23.438,28.809,122.070,31.738,0
5160.815,422.852,18.555,16.602,177.246,281.738,0
5160.818,243.164,27.344,27.344,135.742,324.707,0
5160.822,-97.656,37.598,42.480,64.941,52.246,0
5160.826,-8.301,33.203,35.645,91.309,-64.941,0
5160.830,349.609,21.484,18.066,169.434,465.332,0
5160.834,285.645,24.414,26.855,168.457,680.176,0
5160.838,-168.945,36.621,48.828,70.312,86.426,0
5160.842,-222.656,36.621,50.293,45.898,-164.062,0
5160.846,213.867,24.902,33.203,133.789,229.492,0
5160.850,341.797,23.926,29.297,167.969,644.531,1
5160.854,-106.934,36.621,47.363,83.984,166.016,0
5160.858,-298.828,39.062,53.223,40.527,-166.016,0
5160.861,97.656,26.855,31.738,107.422,57.129,0
5160.865,371.094,17.578,22.949,163.574,633.301,0
5160.869,18.555,30.762,43.457,104.492,323.730,0
5160.873,-311.035,40.527,53.223,40.039,-216.309,0
5160.877,-38.086,29.785,40.527,97.168,-206.543,0
5160.881,354.492,19.043,26.367,170.410,457.031,0
5160.885,158.691,25.879,37.109,138.184,527.832,0
5160.889,-275.879,39.551,56.641,54.199,-60.547,0
5160.893,-190.430,34.668,48.340,45.410,-259.766,0
5160.897,275.879,18.066,23.926,113.281,267.090,0
5160.901,274.902,21.973,27.832,111.328,601.562,0
5160.904,-197.754,37.109,46.875,23.438,-52.246,0
5160.908,-274.902,32.715,47.363,11.719,-294.922,0
5160.912,177.734,17.578,29.785,101.074,125.488,0
5160.916,340.332,16.602,21.484,131.348,572.266,0
5160.920,-97.168,29.785,39.551,45.898,181.641,0
5160.924,-319.824,36.621,48.828,5.371,-211.914,0
5160.928,59.570,20.996,29.785,86.914,-104.492,0
5160.932,371.582,9.277,20.020,159.668,507.812,0
5160.936,37.109,24.414,38.086,113.770,318.359,0
5160.940,-322.266,38.086,50.293,42.969,-203.125,0
5160.943,-78.613,32.715,36.133,82.520,-274.902,0
5160.947,339.355,22.949,20.996,166.992,324.219,0
5160.951,191.406,27.344,30.762,145.508,475.098,0
5160.955,-263.184,37.109,48.828,51.270,-167.969,0
5160.959,-220.215,33.691,45.898,47.852,-371.582,0
5160.963,261.719,20.996,25.391,137.695,174.805,0
5160.967,307.617,23.438,26.855,153.320,549.805,0
5160.971,-184.082,39.062,45.410,68.848,-11.719,0
5160.975,-302.246,38.086,44.922,41.992,-330.566,0
5160.979,159.668,23.926,25.391,120.605,-1.465,0
5160.983,364.258,22.461,21.484,161.133,562.988,0
5160.986,-65.430,38.086,41.016,67.871,111.816,0
5160.990,-320.312,45.898,45.898,-13.672,-381.836,0
5160.994,35.156,31.738,26.367,31.738,-200.684,0
5160.998,368.164,21.484,17.090,87.402,437.500,0
5161.002,76.660,36.133,32.227,22.461,322.754,0
5161.006,-311.523,48.828,45.898,-66.895,-273.438,0
5161.010,-122.070,41.016,33.203,-52.246,-403.809,0
5161.014,319.824,27.832,16.113,17.578,274.414,0
5161.018,225.586,33.203,28.320,-3.906,496.094,0
5161.022,-230.957,43.457,42.480,-105.469,-175.293,0
5161.026,-248.535,40.039,36.621,-121.582,-382.812,0
5161.029,194.824,24.414,22.461,-42.969,164.551,0
5161.033,291.992,20.996,20.996,-21.973,586.914,0
5161.037,-163.086,38.574,40.527,-108.887,38.086,0
5161.041,-324.707,40.527,47.363,-151.855,-359.375,0
5161.045,107.910,26.855,27.344,-84.473,-47.852,0
5161.049,366.211,25.391,20.020,-33.203,563.965,0
5161.053,-41.016,37.598,39.062,-105.469,204.102,0
5161.057,-353.516,44.434,46.875,-179.199,-359.375,0
5161.061,-22.949,36.133,30.762,-122.559,-282.715,0
5161.065,361.328,25.879,19.043,-50.293,402.832,0
5161.068,109.375,34.668,32.227,-101.562,341.309,0
5161.072,-310.547,45.898,45.898,-182.129,-251.465,0
5161.076,-155.762,38.086,35.645,-155.273,-348.633,0
5161.080,309.570,27.344,18.555,-60.547,262.695,0
5161.084,270.996,35.156,21.973,-40.527,493.164,0
5161.088,-200.195,44.922,43.457,-130.371,-122.559,0
5161.092,-257.324,35.645,47.363,-164.062,-387.207,0
5161.096,200.684,19.531,29.297,-73.730,82.520,0
5161.100,327.637,19.531,27.344,-28.320,597.656,0
5161.104,-115.234,35.156,45.410,-96.191,13.672,0
5161.108,-314.941,39.551,46.875,-141.113,-382.324,0
5161.111,88.867,26.367,24.902,-64.941,-61.523,0
5161.115,384.277,22.461,16.602,7.324,532.715,0
5161.119,25.391,36.621,35.156,-59.082,219.238,0
5161.123,-316.895,43.457,44.922,-130.371,-316.406,0
5161.127,-40.039,33.691,31.738,-78.613,-319.336,0
5161.131,368.164,20.996,17.090,-6.348,342.773,0
5161.135,176.758,27.832,25.391,-43.457,407.715,0
5161.139,-254.883,41.016,39.062,-127.930,-231.445,0
5161.143,-171.875,33.203,29.785,-134.766,-397.461,0
5161.147,281.738,18.555,13.184,-49.316,148.438,0
5161.151,291.016,22.949,18.066,-27.832,481.445,0
5161.154,-173.828,39.062,38.574,-120.117,-119.141,0
5161.158,-267.090,40.527,42.480,-145.020,-415.039,0
5161.162,189.941,23.926,24.414,-41.992,-7.324,0
5161.166,367.676,19.043,22.461,25.391,516.113,0
5161.170,-74.219,34.180,42.480,-29.297,105.957,0
5161.174,-324.219,35.645,47.363,-71.777,-319.824,0
5161.178,48.828,20.020,28.809,2.441,-169.434,0
5161.182,373.047,13.672,18.066,81.543,477.051,0
5161.186,64.941,29.785,34.668,37.598,269.043,0
5161.190,-300.781,41.504,47.363,-34.668,-291.504,0
5161.193,-77.637,29.297,36.133,-4.883,-279.297,0
5161.197,352.051,17.578,22.461,63.965,343.262,0
5161.201,214.844,26.855,29.297,49.316,396.484,0
5161.205,-226.074,41.992,45.898,-24.414,-195.312,0
5161.209,-186.035,40.039,42.969,-27.832,-363.770,0
5161.213,283.203,23.926,24.902,69.336,118.652,0
5161.217,323.242,24.902,20.996,91.797,522.461,0
5161.221,-151.367,39.551,41.016,-0.977,-72.754,0
5161.225,-288.086,39.062,45.898,-7.324,-399.902,0
5161.229,155.273,21.973,26.855,91.309,-37.109,0
5161.233,385.254,18.555,22.461,133.301,529.785,0
5161.236,-39.551,35.156,41.016,64.453,132.324,0
5161.240,-334.473,42.480,52.246,0.000,-368.652,0
5161.244,22.461,29.297,35.156,50.781,-223.633,0
5161.248,388.672,18.066,21.973,115.723,440.430,0
5161.252,90.820,28.320,37.109,62.988,308.105,0
5161.256,-318.359,40.527,49.316,-15.137,-300.781,0
5161.260,-129.883,29.785,36.621,15.625,-427.246,0
5161.264,321.289,9.766,18.555,97.656,225.586,0
5161.268,229.004,17.090,23.438,96.680,458.496,0
5161.272,-237.793,36.621,40.527,18.066,-163.574,0
5161.276,-251.465,36.621,37.598,7.812,-334.961,0
5161.279,235.352,24.414,14.160,106.934,152.832,0
5161.283,333.496,25.391,13.184,154.297,537.109,0
5161.287,-160.156,40.527,39.062,82.031,-23.438,0
5161.291,-331.055,41.016,44.434,58.105,-395.508,0
5161.295,120.605,27.344,23.438,159.668,-82.520,0
5161.299,392.578,21.973,16.602,225.098,498.535,0
5161.303,-10.254,36.621,35.156,154.297,126.465,0
5161.307,-328.125,45.898,46.875,83.984,-408.203,0
5161.311,0.977,33.691,32.715,132.812,-322.266,0
5161.315,384.277,19.043,16.602,210.938,378.906,0
5161.318,120.605,27.832,28.320,161.621,352.539,0
5161.322,-319.336,42.969,45.410,72.754,-261.719,0
5161.326,-169.922,33.691,40.527,94.238,-421.387,0
5161.330,309.082,16.113,20.996,187.500,191.895,0
5161.334,271.973,24.902,25.391,191.406,435.547,0
5161.338,-210.449,40.527,44.434,86.914,-193.359,0
5161.342,-271.973,34.668,42.969,60.059,-421.387,0
5161.346,217.773,20.020,26.855,154.297,33.203,0
5161.350,368.164,16.602,21.484,190.918,521.484,0
5161.354,-112.793,31.738,40.527,104.004,20.508,0
5161.358,-331.055,36.133,47.363,57.129,-395.996,0
5161.361,91.309,19.531,27.832,135.254,-146.484,0
5161.365,396.973,14.648,19.531,195.801,495.605,0
5161.369,20.020,32.227,37.598,122.559,200.684,0
5161.373,-338.867,42.969,48.828,57.617,-336.426,0
5161.377,-44.922,34.180,40.039,106.445,-320.801,0
5161.381,380.371,22.461,24.414,176.758,343.262,0
5161.385,187.500,31.250,30.762,155.273,424.316,0
5161.389,-271.484,39.551,47.363,74.219,-174.805,0
5161.393,-203.613,29.785,39.062,67.383,-382.324,0
5161.397,281.250,18.555,15.137,146.973,153.320,0
5161.401,297.852,23.926,17.578,155.273,483.887,0
5161.404,-204.102,41.992,40.039,62.500,-113.770,0
5161.408,-306.152,42.480,45.898,46.387,-356.934,0
5161.412,180.176,25.879,29.785,134.277,47.852,0
5161.416,376.953,20.996,23.926,165.039,507.324,0
5161.420,-91.797,38.086,42.480,87.402,37.598,0
5161.424,-355.957,44.922,52.734,27.832,-424.805,0
5161.428,46.875,34.180,38.574,86.914,-237.793,0
5161.432,398.438,24.902,22.949,159.668,435.547,0
5161.436,69.336,34.668,33.691,93.750,231.934,0
5161.440,-335.449,46.387,45.898,3.418,-293.457,0
5161.443,-102.051,35.156,33.203,42.969,-277.832,0
5161.447,353.027,21.973,16.113,122.559,295.898,0
5161.451,215.820,25.879,22.461,98.633,379.883,0
5161.455,-259.766,39.062,37.598,6.348,-208.496,0
5161.459,-243.164,34.668,34.668,-12.207,-399.902,0
5161.463,257.324,18.555,20.020,77.148,116.211,0
5161.467,336.426,20.996,22.949,106.934,486.328,0
5161.471,-164.062,34.180,41.016,20.508,-41.504,0
5161.475,-311.523,38.086,43.945,7.324,-378.418,0
5161.479,151.367,24.414,26.367,108.887,-80.078,0
5161.483,391.113,18.555,19.043,174.805,489.746,0
5161.486,-33.691,39.062,40.039,121.582,126.465,0
5161.490,-334.473,46.387,51.270,66.895,-361.816,0
5161.494,9.766,25.879,29.785,127.930,-260.742,0
5161.498,380.859,12.695,16.602,214.355,379.395,0
5161.502,102.051,27.832,30.273,179.688,304.199,0
5161.506,-321.289,40.527,43.945,104.492,-277.344,0
5161.510,-145.020,31.738,34.668,139.648,-359.375,0
5161.514,318.359,16.113,19.531,240.723,239.746,0
5161.518,244.629,20.996,27.344,238.770,445.801,0
5161.522,-227.539,42.969,46.875,150.879,-158.203,0
5161.526,-253.906,43.457,43.457,137.695,-417.969,1
5161.529,224.609,28.809,24.414,230.957,56.641,0
5161.533,343.262,27.832,24.414,278.809,493.652,0
5161.537,-115.723,46.387,43.457,193.359,-20.020,0
5161.541,-311.035,51.758,44.434,141.602,-356.445,0
5161.545,106.934,33.691,26.855,223.633,-84.473,0
5161.549,389.648,22.949,20.996,292.969,448.730,0
5161.553,3.418,35.645,36.621,220.215,131.348,0
5161.557,-337.402,42.480,48.340,147.949,-335.938,0
5161.561,-51.758,28.809,31.738,197.754,-281.738,0
5161.565,343.262,19.531,20.508,275.879,281.250,0
5161.568,153.320,30.273,35.645,243.652,269.043,0
5161.572,-273.438,41.992,49.805,157.715,-256.348,0
5161.576,-186.523,38.086,41.992,160.156,-368.164,0
5161.580,261.719,25.391,25.879,242.676,95.215,0
5161.584,250.000,27.832,34.180,239.258,361.328,0
5161.588,-195.801,42.480,53.223,149.902,-147.949,0
5161.592,-260.742,39.551,48.828,127.930,-346.680,0
5161.596,164.551,26.855,27.832,180.176,10.254,0
5161.600,292.480,26.367,23.438,212.891,331.543,0
5161.604,-113.281,41.992,37.598,147.949,-33.203,0
5161.608,-280.273,48.340,41.992,97.656,-274.902,0
5161.611,81.055,35.156,27.832,156.250,-96.680,0
5161.615,321.777,29.785,19.043,194.824,294.434,0
5161.619,3.906,41.504,31.738,128.418,97.168,0
5161.623,-281.250,45.898,36.621,62.988,-254.883,0
5161.627,-29.297,35.645,26.367,98.145,-242.676,0
5161.631,311.523,28.320,18.066,162.598,198.730,0
5161.635,128.906,34.180,24.414,123.047,221.680,0
5161.639,-240.234,39.551,37.109,45.898,-187.500,0
5161.643,-145.508,33.691,31.738,58.594,-285.156,0
5161.647,264.160,26.855,17.578,137.695,93.750,0
5161.651,239.746,27.832,22.949,143.066,315.430,0
5161.654,-180.176,38.086,39.551,62.012,-74.707,0
5161.658,-233.887,41.016,40.527,52.246,-299.805,0
5161.662,164.551,25.391,24.414,122.559,-13.184,0
5161.666,297.363,22.461,20.508,142.578,376.953,0
5161.670,-88.867,36.621,37.109,84.473,65.430,0
5161.674,-290.527,38.086,42.480,47.363,-206.055,0
5161.678,57.129,22.949,30.273,108.398,-133.301,0
5161.682,334.961,16.602,21.484,172.852,278.809,0
5161.686,40.039,31.250,34.668,127.441,159.180,0
5161.690,-284.180,39.551,47.363,58.594,-208.984,0
5161.693,-84.473,27.832,35.645,84.961,-266.602,0
5161.697,327.637,17.578,19.043,156.250,251.953,0
5161.701,222.168,26.367,27.832,141.602,379.395,0
5161.705,-237.793,41.504,47.852,62.500,-128.906,0
5161.709,-235.352,40.527,45.898,56.152,-248.047,0
5161.713,252.441,27.344,27.344,138.672,176.270,0
5161.717,346.191,25.391,23.438,156.738,491.699,0
5161.721,-138.184,39.551,40.039,65.918,40.527,0
5161.725,-308.594,41.016,41.016,21.484,-297.363,0
5161.729,146.484,24.902,17.578,89.844,-45.898,0
5161.733,395.996,19.531,14.648,145.996,454.102,0
5161.736,-23.438,36.621,38.086,70.312,106.934,0
5161.740,-331.543,47.852,49.316,5.859,-260.742,0
5161.744,12.207,35.645,33.691,63.477,-180.176,0
5161.748,392.578,21.484,14.648,136.719,351.562,0
5161.752,125.000,29.297,23.438,85.449,273.438,0
5161.756,-298.340,41.992,41.992,0.000,-233.887,0
5161.760,-144.043,33.203,34.668,26.367,-302.734,0
5161.764,328.613,15.625,14.648,112.793,221.191,0
5161.768,274.902,22.461,23.438,105.469,389.160,0
5161.772,-215.332,40.039,42.480,4.395,-159.668,0
5161.776,-257.812,39.062,38.086,-15.137,-293.945,0
5161.779,234.863,24.902,19.531,81.543,112.305,0
5161.783,373.047,22.461,17.578,101.074,438.965,0
5161.787,-113.281,37.109,36.133,-3.418,-3.418,0
5161.791,-330.078,42.480,38.574,-50.781,-333.008,0
5161.795,109.375,28.809,21.973,32.227,-98.633,0
5161.799,421.875,22.461,18.066,98.145,427.246,0
5161.803,48.340,40.039,34.180,33.203,121.582,0
5161.807,-308.594,48.340,44.922,-37.109,-287.109,0
5161.811,-28.809,32.715,26.367,7.324,-233.398,0
5161.815,374.023,19.531,12.695,94.727,264.648,0
5161.818,166.016,26.367,27.344,65.430,297.363,0
5161.822,-273.926,37.598,41.016,-26.855,-220.703,0
5161.826,-166.504,33.691,30.273,-7.812,-326.172,0
5161.830,299.316,18.555,14.648,88.379,145.996,0
5161.834,285.156,22.949,25.391,95.703,359.375,0
5161.838,-189.941,39.551,44.922,-0.488,-103.027,0
5161.842,-271.973,34.180,41.504,-25.391,-324.707,0
5161.846,204.590,19.531,23.438,61.035,2.441,0
5161.850,376.465,20.508,21.484,94.238,411.621,0
5161.854,-95.215,35.645,37.109,4.883,17.090,0
5161.858,-343.262,38.574,41.016,-51.758,-273.926,0
5161.861,62.500,26.367,26.855,28.320,-127.441,0
5161.865,400.391,21.973,18.555,94.727,316.895,0
5161.869,53.223,34.180,32.715,25.391,176.270,0
5161.873,-318.359,41.504,43.945,-46.875,-192.383,0
5161.877,-67.383,30.762,32.227,2.441,-211.914,0
5161.881,347.656,19.043,20.020,78.613,260.254,0
5161.885,194.336,27.832,32.227,57.617,314.941,0
5161.889,-257.812,41.504,50.781,-20.508,-133.789,0
5161.893,-202.637,36.133,42.480,-23.438,-227.539,0
5161.897,270.996,23.438,23.438,63.965,121.094,0
5161.901,309.082,27.344,27.832,78.125,339.355,0
5161.904,-161.621,43.457,46.875,-2.930,-80.566,0
5161.908,-278.320,47.363,48.340,-25.879,-266.602,0
5161.912,157.715,34.668,30.762,45.410,-39.551,0
5161.916,349.609,27.344,20.996,76.172,261.230,0
5161.920,-45.410,39.062,32.227,-0.977,-53.223,0
5161.924,-262.695,43.457,40.039,-40.527,-309.082,0
5161.928,83.984,30.762,26.855,29.785,-133.789,0
5161.932,370.605,26.367,20.996,86.914,312.500,0
5161.936,72.266,36.133,37.598,41.504,159.668,0
5161.940,-254.883,42.969,44.922,-20.508,-203.613,0
5161.943,-48.340,32.715,35.645,6.836,-262.207,0
5161.947,323.242,19.531,24.902,76.172,203.613,0
5161.951,194.336,25.879,30.762,59.570,324.707,0
5161.955,-198.730,41.016,47.363,-2.930,-191.895,0
5161.959,-151.367,37.598,42.480,5.859,-302.734,0
5161.963,242.676,23.438,25.879,76.660,101.562,0
5161.967,272.949,27.832,28.809,93.750,375.000,0
5161.971,-135.254,40.527,43.945,20.508,-7.324,0
5161.975,-229.980,38.086,43.945,-1.465,-253.906,0
5161.979,144.531,27.344,29.297,64.453,-21.484,0
5161.983,289.062,26.855,29.785,95.215,258.789,0
5161.986,-67.383,37.598,49.316,45.898,-25.879,0
5161.990,-251.465,41.504,53.711,10.742,-255.371,0
5161.994,52.734,32.715,40.527,53.223,-174.316,0
5161.998,279.297,27.832,34.668,100.586,106.934,0
5162.002,26.367,37.598,45.410,78.125,42.480,0
5162.006,-221.680,42.969,51.758,45.898,-171.875,0
5162.010,-24.902,35.156,42.969,68.359,-171.875,0
5162.014,247.559,27.832,29.785,102.051,59.082,0
5162.018,106.934,31.738,31.738,64.453,74.707,0
5162.022,-164.062,39.062,41.016,-2.441,-115.234,0
5162.026,-79.102,34.668,38.086,-17.090,-157.227,0
5162.029,214.355,27.344,29.785,5.859,-34.668,0
5162.033,178.223,29.785,31.250,-9.766,27.344,0
5162.037,-125.488,36.621,41.016,-63.965,-92.285,0
5162.041,-140.137,34.180,39.551,-67.871,-156.250,0
5162.045,138.672,25.879,28.809,-6.348,-47.363,0
5162.049,210.938,27.832,31.250,6.836,66.406,0
5162.053,-54.199,37.109,41.504,-35.645,-51.270,0
5162.057,-166.504,38.086,41.504,-53.223,-95.215,1
5162.061,56.152,32.715,31.738,-18.066,-65.918,0
5162.065,220.703,27.832,25.879,24.414,16.113,0
5162.068,23.926,31.738,34.180,-3.418,-23.926,0
5162.072,-174.316,33.203,40.039,-31.250,-81.543,0
5162.076,-22.949,26.855,30.762,0.000,6.836,0
5162.080,218.750,21.973,25.391,41.504,6.836,0
5162.084,102.539,25.391,32.715,19.531,-6.348,0
5162.088,-160.156,31.250,39.062,-29.785,-31.250,0
5162.092,-93.262,28.320,37.109,-19.531,-92.285,0
5162.096,177.246,18.555,30.273,18.555,-48.340,0
5162.100,157.227,22.461,31.250,7.324,-8.301,0
5162.104,-109.863,33.203,40.039,-29.785,-45.898,0
5162.108,-137.207,32.227,40.039,-32.715,-82.520,0
5162.111,125.488,23.926,28.809,-1.465,-71.289,0
5162.115,220.215,26.367,26.367,15.625,4.395,0
5162.119,-41.016,33.691,35.645,-25.391,28.809,0
5162.123,-159.668,30.762,41.016,-48.340,-2.441,0
5162.127,56.641,28.809,34.180,-17.090,-17.578,0
5162.131,225.098,26.855,28.320,18.555,58.594,0
5162.135,44.922,28.809,33.691,-5.371,10.254,0
5162.139,-160.645,30.762,39.062,-51.270,-63.477,0
5162.143,-25.391,24.414,33.203,-33.203,-41.504,0
5162.147,211.914,20.996,22.461,1.953,7.324,0
5162.151,116.211,28.809,26.367,-17.090,-36.133,0
5162.154,-128.418,36.621,36.621,-59.570,-56.641,0
5162.158,-81.055,31.250,34.180,-67.383,-3.418,0
5162.162,174.316,24.902,25.879,-36.133,29.297,0
5162.166,170.898,28.809,30.273,-34.180,41.992,0
5162.170,-96.191,35.156,40.527,-77.148,36.133,0
5162.174,-139.160,32.715,37.109,-81.543,3.418,0
5162.178,98.633,23.926,29.297,-37.109,3.906,0
5162.182,194.336,21.484,27.832,-16.113,59.082,0
5162.186,-28.320,27.832,33.691,-51.758,67.871,0
5162.190,-158.691,29.785,35.645,-87.402,71.289,0
5162.193,26.367,26.367,30.273,-69.336,28.320,0
5162.197,205.566,25.879,32.227,-41.504,31.738,0
5162.201,62.500,30.273,40.039,-63.965,51.270,0
5162.205,-135.254,34.668,42.969,-94.238,18.555,0
5162.209,-33.691,31.250,36.133,-60.059,-3.906,0
5162.213,194.824,22.949,25.879,-3.906,7.812,0
5162.217,106.934,27.344,30.762,-17.090,72.266,0
5162.221,-130.859,33.203,41.504,-70.801,46.875,0
5162.225,-83.984,29.785,40.527,-69.824,38.086,0
5162.229,155.762,25.879,32.227,-36.621,47.363,0
5162.233,176.758,27.832,33.691,-37.598,2.930,0
5162.236,-61.523,32.715,44.434,-63.477,-16.602,0
5162.240,-115.723,31.738,42.969,-59.082,-12.695,0
5162.244,105.469,26.855,35.156,3.906,45.898,0
5162.248,204.102,26.855,36.133,55.664,9.766,0
5162.252,-11.230,31.738,38.574,33.203,-31.250,0
5162.256,-152.832,32.715,37.598,12.207,21.973,0
5162.260,24.414,27.344,31.738,54.688,32.715,0
5162.264,211.914,26.367,26.855,96.191,27.832,0
5162.268,70.312,30.762,32.227,70.312,44.922,0
5162.272,-132.324,32.227,37.109,35.156,63.477,0
5162.276,-38.574,29.297,35.645,64.941,54.688,0
5162.279,195.312,22.461,30.273,111.328,36.133,0
5162.283,139.648,24.902,32.715,92.773,2.930,0
5162.287,-104.980,33.203,40.039,47.852,21.973,0
5162.291,-87.402,30.273,36.621,45.898,50.781,0
5162.295,148.438,25.879,26.855,63.965,17.578,0
5162.299,186.035,28.320,25.879,54.199,18.066,0
5162.303,-47.852,32.227,36.621,20.996,1.465,0
5162.307,-128.906,31.250,42.969,26.367,32.715,0
5162.311,69.336,25.391,38.086,71.289,93.262,0
5162.315,185.547,21.973,34.180,84.961,74.707,0
5162.318,0.977,28.809,38.574,52.734,39.062,0
5162.322,-144.531,34.180,39.062,32.715,18.555,0
5162.326,3.906,28.320,29.785,63.965,28.320,0
5162.330,187.988,25.879,26.855,104.980,4.883,0
5162.334,62.500,29.785,33.691,92.285,-14.160,0
5162.338,-136.719,30.762,38.574,62.500,-20.020,0
5162.342,-50.293,29.297,36.621,66.895,-52.734,0
5162.346,169.434,25.879,30.273,87.402,9.277,0
5162.350,137.207,29.297,30.762,69.336,27.832,0
5162.354,-92.773,34.668,36.133,21.484,-30.762,0
5162.358,-89.355,32.715,34.180,15.137,20.020,0
5162.361,136.230,28.320,24.414,41.504,38.574,0
5162.365,170.898,27.832,24.902,41.504,43.457,0
5162.369,-52.734,36.621,34.668,14.648,49.805,0
5162.373,-133.301,37.109,35.645,-7.324,31.250,0
5162.377,56.152,28.809,30.273,5.859,93.750,0
5162.381,180.664,27.344,26.367,26.367,100.586,0
5162.385,14.160,32.715,31.250,-1.465,28.809,0
5162.389,-132.812,36.621,38.086,-25.879,2.441,0
5162.393,-7.812,32.715,28.320,1.465,23.926,0
5162.397,176.270,29.785,23.438,50.293,61.035,0
5162.401,78.125,34.668,35.156,49.805,70.312,0
5162.404,-126.953,38.086,37.109,20.020,77.148,0
5162.408,-59.570,34.668,31.738,34.668,32.227,0
5162.412,162.598,31.250,27.344,73.730,-8.789,0
5162.416,138.184,33.691,33.691,70.801,50.293,0
5162.420,-89.844,39.551,41.992,39.551,48.828,0
5162.424,-101.562,34.668,40.039,41.016,-44.922,0
5162.428,122.070,27.344,35.645,75.195,2.930,0
5162.432,187.012,27.344,33.691,91.797,46.875,0
5162.436,-27.344,33.203,36.621,64.453,6.348,0
5162.440,-128.906,35.645,38.086,44.922,-16.602,0
5162.443,52.734,33.203,32.227,64.941,3.418,0
5162.447,195.801,33.203,30.273,95.215,20.996,0
5162.451,41.992,37.109,37.109,78.125,1.953,0
5162.455,-125.488,38.574,38.574,32.715,62.500,0
5162.459,-11.719,31.250,31.738,39.062,27.344,0
5162.463,185.547,26.855,24.902,78.125,-5.371,0
5162.467,86.426,30.273,25.879,68.848,4.883,0
5162.471,-130.859,32.227,31.738,42.969,-32.227,0
5162.475,-72.266,30.762,30.762,58.594,-1.465,0
5162.479,142.578,24.902,24.902,71.777,21.484,0
5162.483,139.648,27.832,25.879,61.035,43.945,0
5162.486,-76.660,34.180,34.668,31.738,76.172,0
5162.490,-118.652,30.273,32.715,23.926,46.387,0
5162.494,79.102,25.879,23.438,41.504,14.160,0
5162.498,163.574,24.902,21.484,49.316,29.297,0
5162.502,-27.344,27.832,28.809,39.551,5.859,0
5162.506,-143.555,29.785,33.203,21.484,3.906,0
5162.510,21.973,26.367,28.320,44.922,3.906,0
5162.514,177.734,24.414,26.855,70.801,7.812,0
5162.518,28.320,26.367,34.668,27.344,-3.906,0
5162.522,-149.902,26.367,34.668,-25.879,-16.602,0
5162.526,-41.504,24.414,27.344,-33.203,38.574,0
5162.529,167.480,21.973,24.414,-5.859,20.020,0
5162.533,99.121,25.391,28.320,-0.488,-49.316,0
5162.537,-118.652,29.785,33.691,-37.598,6.836,0
5162.541,-86.426,29.785,30.273,-33.203,18.066,0
5162.545,128.418,26.855,25.391,6.836,-9.277,0
5162.549,138.184,25.879,27.832,8.301,54.688,0
5162.553,-83.008,31.250,33.691,-32.715,24.902,0
5162.557,-130.859,30.273,31.250,-45.410,-3.906,0
5162.561,73.242,25.391,24.902,-13.672,2.930,0
5162.565,181.641,27.344,25.879,8.789,41.992,0
5162.568,-14.160,31.738,32.227,-29.785,83.008,0
5162.572,-152.832,30.273,33.691,-57.129,43.457,0
5162.576,10.254,24.902,28.320,-27.832,39.551,0
5162.580,190.918,23.926,25.391,-10.254,33.203,0
5162.584,52.734,29.785,34.180,-35.156,35.156,1
5162.588,-142.578,29.785,40.527,-68.848,1.953,0
5162.592,-48.828,22.949,35.645,-55.664,-33.691,0
5162.596,153.809,19.043,32.227,-24.902,61.523,0
5162.600,96.191,21.973,32.715,-35.156,86.914,0
5162.604,-118.164,30.762,35.156,-68.359,36.133,0
5162.608,-99.121,31.738,31.738,-66.406,-22.461,0
5162.611,123.047,23.438,23.926,-31.738,16.602,0
5162.615,159.180,22.949,26.367,-19.531,56.641,0
5162.619,-74.219,27.344,35.645,-60.547,-53.711,0
5162.623,-140.625,26.855,33.691,-79.590,-43.457,0
5162.627,61.035,24.902,25.391,-50.293,-31.250,0
5162.631,181.641,25.391,24.902,-24.414,21.973,0
5162.635,5.859,29.297,31.738,-34.668,69.824,0
5162.639,-140.625,29.785,33.691,-51.270,16.602,0
5162.643,-0.488,23.926,26.855,-26.367,17.578,0
5162.647,180.176,19.043,26.367,12.695,74.707,0
5162.651,57.129,23.926,31.738,5.371,64.453,0
5162.654,-148.438,28.809,31.738,-28.320,-9.766,0
5162.658,-64.941,26.367,26.855,-19.043,16.602,0
5162.662,161.621,21.484,22.461,17.090,64.941,0
5162.666,122.559,26.367,26.855,21.973,-10.254,0
5162.670,-110.352,31.738,33.691,-6.836,-13.672,0
5162.674,-95.703,28.320,31.250,-2.930,50.293,0
5162.678,123.535,19.531,29.297,38.086,100.098,0
5162.682,165.527,21.973,34.668,62.988,75.684,0
5162.686,-38.574,29.785,41.016,36.621,0.977,0
5162.690,-128.418,28.320,40.039,19.531,-7.324,0
5162.693,60.547,24.414,31.250,47.852,36.621,0
5162.697,195.801,23.926,27.832,64.453,65.430,0
5162.701,9.277,26.855,35.645,40.039,-28.320,0
5162.705,-153.320,29.297,37.109,17.090,-82.031,0
5162.709,-17.090,25.879,32.227,39.062,-14.160,0
5162.713,184.570,21.973,25.391,58.594,50.781,0
5162.717,82.520,29.297,28.809,38.086,65.918,0
5162.721,-124.512,34.180,35.156,7.812,18.555,0
5162.725,-60.547,31.250,32.715,15.625,-4.883,0
5162.729,153.809,26.367,29.785,53.223,24.902,0
5162.733,134.766,28.809,33.691,65.430,8.301,0
5162.736,-93.750,37.109,40.527,33.691,28.320,0
5162.740,-111.816,37.109,34.180,20.020,12.207,0
5162.744,107.422,32.715,25.879,57.129,18.066,0
5162.748,186.035,32.227,29.297,75.684,77.148,0
5162.752,-14.160,37.598,39.062,41.504,19.531,0
5162.756,-112.793,39.551,39.551,15.625,37.109,0
5162.760,58.105,36.133,31.250,40.527,71.289,0
5162.764,202.637,36.133,33.203,74.219,41.992,0
5162.768,41.016,42.480,41.016,51.270,60.059,0
5162.772,-141.113,42.969,37.598,3.906,70.312,0
5162.776,-28.809,33.691,29.297,8.301,71.289,0
5162.779,172.363,26.855,28.320,42.480,41.504,0
5162.783,90.332,32.715,33.691,29.297,38.574,0
5162.787,-119.629,41.016,40.039,-3.418,-4.395,0
5162.791,-69.824,37.598,35.156,11.719,-8.789,0
5162.795,151.855,32.227,26.367,38.574,57.129,0
5162.799,165.527,34.180,30.273,27.832,74.707,0
5162.803,-70.801,40.039,36.621,-9.766,-32.715,0
5162.807,-122.070,43.457,38.574,-17.090,-42.969,0
5162.811,87.402,38.574,33.691,12.207,-23.438,0
5162.815,174.805,35.645,26.367,14.160,-0.488,0
5162.818,-23.438,38.574,31.250,-25.391,78.125,0
5162.822,-148.438,40.527,32.227,-59.570,6.836,0
5162.826,7.812,40.039,28.809,-46.387,-28.809,0
5162.830,170.898,38.086,30.762,-20.996,61.523,0
5162.834,18.555,40.039,35.156,-51.758,34.180,0
5162.838,-181.641,41.992,37.109,-95.703,-16.113,0
5162.842,-77.637,37.598,29.785,-86.426,16.602,0
5162.846,121.582,38.574,28.320,-72.754,-9.277,0
5162.850,33.691,43.945,33.203,-105.469,18.066,0
5162.854,-189.453,39.551,40.527,-165.039,49.805,0
5162.858,-173.340,35.645,40.527,-193.359,22.461,0
5162.861,19.531,35.645,25.879,-181.641,31.738,0
5162.865,34.668,39.062,24.414,-161.133,42.480,0
5162.869,-180.664,44.434,33.203,-179.199,32.227,0
5162.873,-241.699,51.270,33.691,-174.805,54.199,0
5162.877,-60.059,39.551,20.996,-126.953,5.859,0
5162.881,36.133,26.855,17.090,-104.980,31.738,0
5162.885,-135.254,38.574,25.879,-117.676,77.148,0
5162.889,-256.348,40.527,26.855,-112.793,39.551,0
5162.893,-91.309,42.480,30.762,-66.895,30.762,0
5162.897,100.586,45.898,32.227,-15.625,31.738,0
5162.901,-20.508,38.574,17.090,-27.832,13.672,0
5162.904,-197.266,31.738,4.395,-46.875,6.836,0
5162.908,-87.402,22.949,16.113,-6.348,26.367,0
5162.912,123.535,21.973,28.809,43.945,29.297,0
5162.916,80.566,31.738,30.762,51.758,67.383,0
5162.920,-103.516,38.574,24.902,33.203,56.641,0
5162.924,-70.801,41.504,15.625,43.457,-26.367,0
5162.928,119.629,25.879,17.578,74.707,-0.488,0
5162.932,164.062,20.020,40.039,84.961,17.578,0
5162.936,-12.695,28.809,46.875,52.246,22.949,0
5162.940,-91.797,28.809,33.203,35.645,44.922,0
5162.943,83.496,20.020,27.832,63.965,35.645,0
5162.947,236.816,19.531,27.344,87.891,30.273,0
5162.951,70.801,27.832,32.715,69.336,-13.184,0
5162.955,-93.750,29.785,36.133,49.316,-17.578,0
5162.959,47.852,30.762,36.133,76.660,8.301,0
5162.963,208.008,22.461,19.531,101.074,36.621,0
5162.967,84.961,23.926,20.508,80.566,32.715,0
5162.971,-108.887,30.762,37.598,58.105,-46.875,0
5162.975,-42.969,24.902,34.668,66.895,37.598,0
5162.979,172.852,19.043,25.879,102.539,54.688,0
5162.983,156.738,21.973,33.203,110.840,-0.977,0
5162.986,-56.641,25.391,40.527,73.730,15.625,0
5162.990,-61.523,24.414,35.645,70.801,36.621,0
5162.994,139.160,26.855,27.344,94.727,56.641,0
5162.998,206.055,29.785,26.855,97.656,18.555,0
5163.002,12.695,29.785,27.832,65.430,42.969,0
5163.006,-75.195,34.180,36.621,48.340,48.828,0
5163.010,99.121,27.832,32.227,60.547,26.855,0
5163.014,236.816,19.531,19.531,62.012,7.324,0
5163.018,79.102,21.484,31.250,45.410,-32.715,0
5163.022,-92.773,22.461,30.762,23.438,33.691,0
5163.026,26.367,22.949,23.438,28.320,81.055,0
5163.029,216.797,18.066,24.902,52.246,20.996,0
5163.033,136.719,24.902,31.738,43.945,54.199,0
5163.037,-63.965,30.762,35.645,11.719,65.918,0
5163.041,-17.578,27.832,31.250,4.395,34.180,0
5163.045,184.570,28.809,27.344,29.785,92.285,0
5163.049,166.992,26.367,26.367,39.551,75.195,0
5163.053,-47.363,23.926,30.273,18.555,-2.930,0
5163.057,-74.219,25.879,29.785,15.625,-16.602,0
5163.061,123.535,22.949,20.020,43.945,52.734,0
5163.065,220.215,28.320,27.832,68.848,61.523,0
5163.068,37.598,37.598,40.039,48.828,21.973,0
5163.072,-94.238,29.297,31.738,16.602,9.277,0
5163.076,57.617,20.996,25.879,32.227,24.414,0
5163.080,225.586,23.438,23.926,66.406,29.785,0
5163.084,88.379,31.250,24.414,48.828,11.719,0
5163.088,-87.402,35.645,32.227,26.367,11.719,0
5163.092,18.066,31.738,31.250,40.527,-1.465,0
5163.096,217.773,25.879,24.902,57.617,49.316,0
5163.100,148.438,29.297,31.250,53.223,46.875,0
5163.104,-65.430,34.668,36.621,19.531,17.578,0
5163.108,-35.645,34.668,33.203,2.930,33.691,0
5163.111,160.645,31.738,31.738,23.926,29.785,0
5163.115,172.363,29.785,35.156,37.109,-42.969,0
5163.119,-23.926,34.668,38.086,5.859,-53.223,0
5163.123,-78.125,34.668,35.645,-14.160,-5.371,0
5163.127,96.680,28.320,29.297,17.578,0.977,0
5163.131,203.125,27.832,30.273,43.945,55.176,0
5163.135,32.227,34.180,40.039,23.438,64.941,0
5163.139,-107.910,35.645,41.016,-1.465,-1.953,0
5163.143,36.621,30.273,34.180,16.113,25.391,0
5163.147,214.844,25.391,33.203,38.574,82.520,0
5163.151,86.914,28.320,37.109,11.230,56.152,0
5163.154,-106.934,29.785,37.109,-26.855,-22.949,0
5163.158,-17.578,24.414,34.180,-12.695,-33.203,0
5163.162,186.523,21.484,31.738,22.949,49.316,0
5163.166,138.184,26.855,35.645,21.484,17.578,0
5163.170,-68.359,29.297,37.109,-7.324,-1.465,0
5163.174,-57.129,25.879,31.738,-7.324,-1.465,0
5163.178,132.324,21.973,28.809,20.508,31.738,0
5163.182,165.039,25.391,31.250,30.273,70.312,0
5163.186,-33.203,31.738,37.109,5.371,17.090,0
5163.190,-98.145,33.203,38.574,0.977,36.133,0
5163.193,82.031,28.809,28.809,25.879,68.359,0
5163.197,205.078,26.367,23.926,41.992,49.805,0
5163.201,45.898,31.250,33.691,18.066,-6.836,0
5163.205,-99.609,33.691,34.668,-9.766,15.625,0
5163.209,21.973,30.273,28.809,1.465,61.523,0
5163.213,185.547,27.832,27.344,20.020,42.480,0
5163.217,72.266,32.227,34.668,4.395,59.570,0
5163.221,-116.699,33.691,41.016,-18.066,37.598,0
5163.225,-39.551,33.691,32.227,-3.906,42.969,0
5163.229,159.180,32.227,29.297,20.996,47.852,0
5163.233,132.324,34.180,32.715,17.578,14.648,0
5163.236,-70.801,39.551,34.180,-2.441,31.738,0
5163.240,-78.125,35.645,32.715,-0.977,26.367,0
5163.244,116.699,27.344,24.902,20.020,24.902,0
5163.248,167.480,29.297,25.391,23.926,30.273,0
5163.252,-22.949,38.574,30.762,0.000,32.715,0
5163.256,-101.562,36.133,29.785,-10.254,-43.945,1
5163.260,65.430,26.855,25.391,4.883,5.371,0
5163.264,192.383,24.414,24.902,31.738,50.293,0
5163.268,38.574,32.715,29.785,19.531,-24.902,0
5163.272,-113.281,37.109,30.273,-5.859,-23.438,0
5163.276,4.395,32.227,26.367,16.602,10.254,0
5163.279,180.664,29.297,24.414,45.898,30.273,0
5163.283,93.750,34.180,27.832,28.809,26.367,0
5163.287,-93.750,40.039,27.832,-6.836,-2.930,0
5163.291,-26.855,35.645,22.949,-6.836,-18.555,0
5163.295,174.316,27.344,20.020,16.602,9.277,0
5163.299,149.414,29.785,21.973,7.324,46.387,0
5163.303,-62.988,34.668,26.367,-26.855,43.945,0
5163.307,-97.168,31.738,27.344,-33.691,36.133,0
5163.311,83.984,27.344,25.391,-8.301,56.152,0
5163.315,158.691,28.809,28.320,2.441,47.363,0
5163.318,-41.016,32.715,36.133,-14.648,-12.695,0
5163.322,-153.809,31.738,35.645,-28.809,-16.113,0
5163.326,10.254,26.367,29.785,-8.301,61.035,0
5163.330,149.902,24.414,31.250,24.902,56.641,0
5163.334,2.441,29.297,36.133,11.719,25.879,0
5163.338,-145.996,30.762,33.691,-7.324,21.484,0
5163.342,-27.344,26.855,25.879,2.441,4.883,0
5163.346,146.973,24.902,26.855,23.926,21.973,0
5163.350,72.754,29.297,35.156,26.367,13.672,0
5163.354,-112.793,35.156,36.133,3.906,-23.926,0
5163.358,-68.359,34.180,31.250,-3.906,-57.617,0
5163.361,127.441,30.762,25.391,18.066,8.789,0
5163.365,133.789,31.250,26.855,29.785,62.988,0
5163.369,-61.523,33.203,34.180,14.160,14.160,0
5163.373,-98.633,31.738,31.738,8.789,-23.926,0
5163.377,81.543,27.344,22.461,31.738,0.000,0
5163.381,171.875,30.762,23.926,57.129,23.438,0
5163.385,3.418,38.574,34.180,35.645,60.059,0
5163.389,-125.000,36.621,34.668,11.230,54.688,0
5163.393,20.020,30.273,24.902,30.762,37.109,0
5163.397,180.664,29.785,22.461,59.082,39.551,0
5163.401,47.363,35.156,25.879,44.434,89.844,0
5163.404,-124.023,36.621,26.855,25.879,62.500,0
5163.408,-35.156,29.785,23.926,41.504,29.297,0
5163.412,145.508,28.320,19.531,63.477,68.359,0
5163.416,85.938,31.738,24.414,62.500,77.637,0
5163.420,-113.281,31.738,25.391,35.645,12.695,0
5163.424,-85.449,27.344,15.137,29.297,16.113,0
5163.428,101.074,22.461,14.160,53.711,63.477,0
5163.432,121.094,22.461,22.949,51.270,-16.113,0
5163.436,-57.617,25.391,23.926,13.672,-48.340,0
5163.440,-92.773,26.367,14.160,0.977,-29.297,0
5163.443,77.637,22.461,10.254,23.438,48.340,0
5163.447,163.574,20.996,15.625,43.457,55.176,0
5163.451,6.348,24.414,21.973,21.973,-6.836,0
5163.455,-115.723,23.438,21.973,-3.906,-1.953,0
5163.459,-0.488,13.184,16.602,6.836,8.301,0
5163.463,137.207,8.789,18.555,27.832,-1.953,0
5163.467,16.602,20.508,24.414,14.160,-4.395,0
5163.471,-157.227,25.879,27.832,-14.160,6.836,0
5163.475,-77.637,23.438,17.090,-13.184,5.859,0
5163.479,105.957,20.020,3.418,-0.977,64.453,0
5163.483,62.012,12.695,4.395,-15.625,82.520,0
5163.486,-117.676,10.742,20.996,-34.180,4.395,0
5163.490,-95.703,-6.836,20.508,-30.273,41.504,0
5163.494,71.777,-19.043,15.137,-8.789,93.750,0
5163.498,98.633,-13.672,18.066,0.977,84.961,0
5163.502,-81.543,4.395,6.836,-19.531,57.617,0
5163.506,-140.625,24.414,-0.977,-22.461,57.129,0
5163.510,25.391,-6.348,7.324,-2.441,39.551,0
5163.514,119.141,-12.695,13.184,-2.441,38.086,0
5163.518,-48.340,24.414,3.418,-25.879,49.316,0
5163.522,-170.410,47.363,8.789,-29.297,50.781,0
5163.526,-34.180,30.273,22.949,-6.836,41.016,0
5163.529,113.770,8.301,15.625,8.301,4.883,0
5163.533,-4.395,37.598,6.348,-7.812,23.926,0
5163.537,-180.176,51.270,3.906,-26.855,59.570,0
5163.541,-120.605,7.812,-15.137,-27.344,49.316,0
5163.545,61.035,14.648,-33.691,-9.766,60.059,0
5163.549,44.434,46.387,-28.809,-3.906,39.551,0
5163.553,-160.645,6.836,-20.996,-32.227,69.824,0
5163.557,-164.062,-11.230,-16.113,-30.273,55.176,0
5163.561,21.484,-11.719,-15.137,0.000,-57.129,0
5163.565,68.848,-8.301,-22.461,8.789,-13.672,0
5163.568,-113.281,22.461,-20.508,-5.371,17.578,0
5163.572,-191.406,39.551,-18.066,-6.348,29.785,0
5163.576,-25.391,33.691,-25.879,21.973,60.059,0
5163.580,93.262,23.438,-33.691,33.203,33.691,0
5163.584,-54.199,50.293,-27.344,7.324,18.555,0
5163.588,-196.777,73.730,-23.438,-11.719,13.672,0
5163.592,-79.590,65.918,-26.367,9.766,-3.906,0
5163.596,99.121,62.988,-20.996,22.461,-46.875,0
5163.600,18.555,60.547,-18.555,-13.672,-51.758,0
5163.604,-161.133,55.176,-19.043,-54.688,2.930,0
5163.608,-104.980,53.223,-15.625,-51.270,8.301,0
5163.611,78.125,48.340,-22.461,-25.391,-15.137,0
5163.615,73.242,50.293,-20.996,-28.809,6.836,0
5163.619,-115.723,58.594,-5.859,-44.922,34.668,0
5163.623,-143.555,59.082,-4.883,-39.551,5.371,0
5163.627,36.621,56.641,-9.766,-24.902,18.555,0
5163.631,110.840,58.105,-10.254,-17.578,42.969,0
5163.635,-62.500,62.988,-6.348,-40.039,74.219,0
5163.639,-164.551,64.453,-4.883,-54.688,45.410,0
5163.643,-16.113,59.082,-8.789,-30.273,36.621,0
5163.647,135.742,62.012,-3.906,-6.348,65.918,0
5163.651,12.695,68.848,6.836,-22.949,52.734,0
5163.654,-148.438,66.895,4.395,-44.434,17.578,0
5163.658,-54.199,62.988,-1.953,-26.367,26.855,0
5163.662,132.812,61.523,0.488,4.395,57.129,0
5163.666,73.242,62.500,7.324,5.371,99.121,0
5163.670,-119.629,60.547,8.789,-15.137,71.777,0
5163.674,-96.191,57.617,7.812,-10.742,24.902,0
5163.678,95.215,53.711,5.859,18.066,12.207,0
5163.682,128.418,54.688,9.277,30.273,3.418,0
5163.686,-61.035,60.547,19.531,14.648,22.949,0
5163.690,-106.934,57.617,20.020,10.254,13.672,0
5163.693,69.336,49.805,10.742,30.762,55.176,0
5163.697,169.434,50.781,11.230,48.340,64.453,0
5163.701,9.277,57.617,20.020,27.344,60.547,0
5163.705,-112.793,57.617,23.926,3.906,24.902,0
5163.709,26.367,52.246,20.996,27.832,44.922,0
5163.713,181.152,50.781,21.973,45.898,70.312,0
5163.717,59.570,57.617,30.762,31.250,7.812,0
5163.721,-115.234,59.082,31.250,13.184,31.738,0
5163.725,-29.785,56.152,28.809,11.719,42.969,0
5163.729,167.969,61.035,36.621,46.875,16.113,0
5163.733,133.789,70.801,48.340,56.152,54.199,0
5163.736,-62.500,77.637,57.617,39.062,55.176,0
5163.740,-59.082,78.613,57.617,50.293,70.801,0
5163.744,136.719,75.684,55.176,78.125,57.129,0
5163.748,185.059,71.289,58.594,88.379,13.672,0
5163.752,-8.301,74.219,60.059,72.266,-21.484,0
5163.756,-85.449,79.102,62.012,61.035,-26.855,0
5163.760,84.961,78.125,67.871,83.984,10.742,0
5163.764,220.215,82.031,71.777,114.746,-13.184,0
5163.768,73.242,93.262,78.125,99.609,19.531,0
5163.772,-83.008,95.215,81.055,74.219,18.555,0
5163.776,32.715,85.938,79.102,89.844,32.227,0
5163.779,209.961,72.266,75.195,108.887,46.875,0
5163.783,109.863,74.219,81.055,93.750,55.176,1
5163.787,-85.449,84.961,86.914,75.684,83.984,0
5163.791,-35.156,77.148,71.777,75.195,65.430,0
5163.795,154.297,58.594,63.965,91.797,73.730,0
5163.799,141.113,61.523,71.289,93.750,62.500,0
5163.803,-58.594,66.895,73.730,66.895,27.344,0
5163.807,-78.125,59.082,67.871,60.547,5.859,0
5163.811,114.746,51.270,60.547,83.496,56.641,0
5163.815,179.688,50.293,62.500,94.238,95.703,0
5163.818,-12.695,48.340,71.289,62.500,10.254,0
5163.822,-115.723,43.457,67.871,40.527,-36.133,0
5163.826,35.645,40.527,55.664,58.105,-15.137,0
5163.830,185.547,37.598,52.246,83.984,20.996,0
5163.834,47.852,38.086,61.523,81.543,10.742,0
5163.838,-114.258,35.645,65.918,58.105,29.297,0
5163.842,-9.277,31.250,55.176,65.430,50.293,0
5163.846,164.062,30.762,46.387,91.797,2.441,0
5163.850,90.332,32.227,52.246,77.148,32.227,0
5163.854,-94.727,28.320,52.246,52.246,86.426,0
5163.858,-50.781,20.508,45.410,66.406,14.648,0
5163.861,136.230,11.230,45.410,93.750,-28.809,0
5163.865,152.344,12.695,46.875,102.051,12.207,0
5163.869,-20.020,14.160,52.246,85.938,25.391,0
5163.873,-57.617,5.859,53.711,85.938,29.785,0
5163.877,115.723,2.930,45.898,113.770,23.926,0
5163.881,207.031,1.465,45.898,119.629,60.059,0
5163.885,39.551,0.488,51.270,95.215,64.941,0
5163.889,-70.312,-0.488,48.828,90.820,36.621,0
5163.893,70.312,-14.160,42.969,112.305,40.039,0
5163.897,216.309,-23.438,40.527,136.719,56.152,0
5163.901,104.980,-18.555,45.898,133.301,44.922,0
5163.904,-47.852,-16.113,47.363,115.723,-4.883,0
5163.908,35.645,-15.137,43.457,120.605,-23.926,0
5163.912,202.148,-17.090,40.039,145.996,-1.465,0
5163.916,151.855,-20.020,40.527,139.160,21.973,0
5163.920,-32.227,-11.230,41.504,106.934,11.230,0
5163.924,-27.832,-7.812,36.621,102.051,10.254,0
5163.928,153.809,-13.184,32.227,131.836,64.941,0
5163.932,191.406,-8.789,34.668,135.742,96.680,0
5163.936,2.930,-5.371,42.480,95.215,130.371,0
5163.940,-67.871,-5.859,41.992,74.707,84.473,0
5163.943,95.215,-13.672,31.738,98.633,20.020,0
5163.947,206.055,-25.391,33.691,118.652,51.270,0
5163.951,48.828,-8.789,39.062,100.586,15.137,0
5163.955,-85.449,4.395,35.156,98.145,-43.945,0
5163.959,34.180,1.465,31.250,126.465,18.555,0
5163.963,198.242,0.488,33.203,155.762,59.082,0
5163.967,112.305,6.348,38.086,153.320,40.527,0
5163.971,-67.871,13.672,36.621,131.836,20.020,0
5163.975,-15.137,2.930,34.180,137.695,10.254,0
5163.979,174.316,-9.766,34.180,171.875,58.594,0
5163.983,155.762,-12.695,37.109,189.941,81.055,0
5163.986,-35.156,-8.789,39.551,179.199,10.742,0
5163.990,-47.363,-14.160,35.645,184.082,43.457,0
5163.994,125.488,-27.832,29.297,218.262,34.180,0
5163.998,193.848,-28.320,34.180,247.070,66.406,0
5164.002,35.645,-20.508,38.086,232.910,104.004,0
5164.006,-49.805,-30.762,35.156,219.238,53.223,0
5164.010,89.355,-42.969,32.715,238.770,37.109,0
5164.014,208.496,-37.598,35.645,260.742,-4.883,0
5164.018,67.871,-26.367,44.922,246.094,-50.293,0
5164.022,-79.590,-15.625,43.457,219.727,-0.488,0
5164.026,26.855,-15.137,34.668,241.699,50.781,0
5164.029,193.359,-16.602,34.180,273.438,15.625,0
5164.033,122.559,-10.742,38.086,271.484,-16.113,0
5164.037,-54.199,-5.371,41.016,251.953,20.996,0
5164.041,-8.789,-2.930,38.574,260.254,14.648,0
5164.045,184.570,-4.395,33.203,295.898,18.066,0
5164.049,182.617,4.395,34.180,306.152,82.031,0
5164.053,-20.996,14.160,40.527,277.344,0.488,0
5164.057,-52.246,10.254,38.086,273.438,-14.648,0
5164.061,125.000,7.324,30.273,298.828,-3.418,0
5164.065,198.242,9.277,30.762,308.594,3.906,0
5164.068,29.297,16.113,39.062,294.434,33.203,0
5164.072,-90.332,15.137,37.109,274.902,-7.812,0
5164.076,48.340,9.766,30.762,277.344,-23.438,0
5164.080,206.055,13.184,31.738,300.293,44.434,0
5164.084,89.844,20.508,39.062,282.227,-9.766,0
5164.088,-78.125,25.391,41.992,251.465,-34.668,0
5164.092,1.465,19.531,37.598,260.742,5.859,0
5164.096,179.688,13.672,34.668,287.598,10.742,0
5164.100,123.535,19.043,39.551,281.738,30.273,0
5164.104,-69.336,23.438,44.434,244.141,-14.648,0
5164.108,-49.316,21.973,40.527,236.328,10.742,0
5164.111,137.695,18.555,33.691,259.766,74.219,0
5164.115,171.387,19.531,35.156,267.578,51.758,0
5164.119,-19.531,26.367,41.504,231.934,45.410,0
5164.123,-97.168,27.832,38.086,192.871,68.848,0
5164.127,73.730,21.973,29.785,184.082,22.949,0
5164.131,188.477,17.578,29.297,162.109,14.160,0
5164.135,28.320,22.461,37.109,110.840,11.719,0
5164.139,-103.516,25.391,38.086,69.824,27.344,0
5164.143,30.273,23.926,34.180,66.406,33.691,0
5164.147,197.754,24.902,32.227,86.914,32.227,0
5164.151,91.797,28.809,33.691,64.453,59.570,0
5164.154,-88.867,33.203,35.156,24.902,36.133,0
5164.158,-17.090,30.762,29.785,19.531,31.738,0
5164.162,177.246,25.391,23.926,35.156,15.137,0
5164.166,146.484,26.855,26.855,27.832,21.973,0
5164.170,-55.664,30.273,31.250,-11.230,45.898,0
5164.174,-66.406,28.809,26.367,-26.367,99.609,0
5164.178,123.535,26.855,20.996,0.488,62.012,0
5164.182,168.457,25.391,18.555,5.371,-27.832,0
5164.186,-13.672,32.715,24.902,-21.484,19.531,0
5164.190,-96.191,36.621,30.762,-41.016,42.969,0
5164.193,62.500,31.738,22.949,-19.043,-5.371,0
5164.197,199.707,31.250,20.508,10.742,20.996,0
5164.201,45.898,33.691,27.832,-15.137,-10.254,0
5164.205,-112.793,34.668,28.809,-43.945,-41.504,0
5164.209,9.766,30.273,26.367,-24.414,20.020,0
5164.213,191.895,26.367,28.320,2.441,36.621,0
5164.217,98.145,32.715,32.227,-10.742,30.273,0
5164.221,-90.820,35.156,34.668,-35.645,-48.828,0
5164.225,-33.203,29.785,34.180,-24.902,15.625,0
5164.229,158.691,27.832,31.250,2.930,123.047,0
5164.233,145.020,31.738,29.297,-2.930,69.336,0
5164.236,-56.152,34.668,33.691,-33.691,8.301,0
5164.240,-81.543,31.738,31.738,-38.086,21.973,0
5164.244,114.258,26.367,23.438,-8.301,59.570,0
5164.248,192.871,28.320,26.367,6.836,16.602,0
5164.252,10.254,33.203,34.180,-17.090,-9.277,0
5164.256,-93.262,36.133,35.645,-22.949,32.715,0
5164.260,58.105,32.715,29.297,-0.488,55.176,0
5164.264,204.102,27.344,26.367,20.996,54.199,0
5164.268,77.637,32.715,31.738,7.324,44.434,0
5164.272,-85.449,37.109,33.203,-18.066,3.418,0
5164.276,9.766,33.203,26.367,-7.324,-22.461,0
5164.279,195.801,31.738,23.926,20.020,27.344,0
5164.283,126.953,34.668,28.809,10.254,42.480,0
5164.287,-64.941,40.527,34.180,-18.555,58.105,0
5164.291,-23.926,39.062,29.297,-23.438,76.660,0
5164.295,172.363,31.738,21.484,-2.441,41.504,0
5164.299,182.617,33.691,26.367,11.719,68.359,0
5164.303,-17.578,38.086,34.180,-20.508,63.477,0
5164.307,-61.523,35.645,35.645,-33.691,2.930,0
5164.311,115.723,28.809,27.344,-6.836,28.809,0
5164.315,221.191,28.809,21.484,18.555,73.730,0
5164.318,57.129,36.133,24.902,2.930,53.223,0
5164.322,-65.430,36.621,24.902,-19.531,-2.930,0
5164.326,69.824,33.203,20.996,-6.836,16.113,0
5164.330,222.168,30.273,16.602,13.184,55.664,0
5164.334,113.281,28.809,19.043,-5.371,82.520,0
5164.338,-58.105,31.250,24.414,-31.250,60.059,0
5164.342,23.438,29.785,23.438,-21.973,-21.973,0
5164.346,212.891,25.391,20.020,1.953,25.391,0
5164.350,169.922,27.832,25.391,-1.465,94.727,0
5164.354,-29.785,29.785,29.297,-28.809,65.430,0
5164.358,-14.648,27.832,29.297,-19.531,73.242,0
5164.361,181.641,24.414,26.367,23.926,73.242,0
5164.365,217.773,26.367,27.832,39.062,71.289,0
5164.369,32.227,33.203,35.645,5.859,64.453,0
5164.373,-30.273,35.156,31.250,-17.090,88.379,0
5164.377,134.277,31.738,24.414,12.695,133.789,0
5164.381,250.000,28.320,25.391,37.598,258.301,1
5164.385,102.539,34.180,33.691,21.484,173.340,0
5164.389,-49.805,35.645,31.738,-5.859,3.418,0
5164.393,73.242,31.250,24.902,1.953,80.566,0
5164.397,260.742,30.762,27.344,23.438,462.402,0
5164.401,167.480,32.227,29.785,-0.977,568.848,0
5164.404,-16.602,34.668,29.297,-45.410,87.891,0
5164.408,41.992,33.203,25.391,-62.012,46.875,0
5164.412,229.492,29.297,19.531,-68.359,664.062,0
5164.416,221.191,30.762,19.531,-101.074,-1000.000,0
5164.420,35.645,35.645,25.879,-152.832,594.727,0
5164.424,19.043,33.691,25.879,-178.223,370.117,0
5164.428,200.684,31.250,22.461,-163.086,775.879,0
5164.432,251.465,33.203,24.414,-154.785,-947.754,0
5164.436,64.453,34.668,29.785,-192.383,885.254,0
5164.440,-28.809,33.691,31.250,-241.699,592.773,0
5164.443,115.723,31.738,23.926,-254.395,772.461,0
5164.447,237.793,31.250,18.066,-250.977,-968.750,0
5164.451,101.562,34.180,24.414,-284.668,983.398,0
5164.455,-49.316,37.598,26.367,-327.637,750.977,0
5164.459,53.711,29.785,19.531,-321.289,792.969,0
5164.463,227.539,24.414,19.531,-297.852,-988.281,0
5164.467,147.461,33.203,25.391,-327.637,-977.051,0
5164.471,-45.410,36.133,26.855,-370.605,838.867,0
5164.475,-15.625,29.785,21.484,-375.000,775.391,0
5164.479,163.574,23.438,14.160,-338.379,983.398,0
5164.483,160.156,25.879,19.043,-332.031,-961.426,0
5164.486,-37.109,33.203,26.855,-372.070,844.238,0
5164.490,-74.707,34.180,20.996,-381.836,590.820,0
5164.494,95.703,27.344,16.113,-340.820,829.102,0
5164.498,163.574,25.391,19.531,-321.777,-951.172,0
5164.502,-6.348,33.203,25.391,-345.215,885.254,0
5164.506,-111.328,36.621,28.320,-361.328,458.008,0
5164.510,23.438,35.156,25.391,-337.891,577.148,0
5164.514,161.621,34.180,24.414,-306.641,-969.727,0
5164.518,34.180,36.621,31.250,-329.102,866.699,0
5164.522,-134.277,38.086,34.668,-351.562,312.988,0
5164.526,-45.898,35.156,30.273,-340.820,229.980,0
5164.529,129.395,29.785,25.879,-312.012,763.672,0
5164.533,62.012,32.227,29.297,-307.617,874.023,0
5164.537,-130.371,39.062,33.203,-339.355,270.020,0
5164.541,-111.328,37.109,29.785,-339.844,-7.324,0
5164.545,73.730,31.738,26.367,-300.781,453.125,0
5164.549,92.285,33.203,26.855,-290.527,751.953,0
5164.553,-106.934,37.109,29.785,-331.543,268.555,0
5164.557,-162.109,35.156,32.227,-338.379,-216.309,0
5164.561,15.137,34.180,25.391,-301.270,64.453,0
5164.565,118.652,34.668,25.879,-281.738,561.035,0
5164.568,-40.039,35.156,31.250,-304.199,271.484,0
5164.572,-164.062,35.645,25.391,-326.172,-324.707,0
5164.576,-30.762,34.180,20.996,-311.523,-197.754,0
5164.580,125.488,32.227,20.020,-284.180,362.305,0
5164.584,-2.930,31.738,29.297,-296.875,275.879,0
5164.588,-186.035,34.180,38.086,-319.336,-399.414,0
5164.592,-106.445,31.738,31.250,-294.922,-519.531,0
5164.596,82.520,26.367,21.973,-236.328,58.594,0
5164.600,35.156,28.320,26.367,-227.539,201.172,0
5164.604,-168.945,33.691,31.250,-252.930,-398.438,0
5164.608,-160.156,35.645,28.320,-239.746,-724.121,0
5164.611,38.086,33.691,21.973,-210.938,-308.594,0
5164.615,85.938,34.668,24.414,-199.219,89.355,0
5164.619,-101.074,40.527,29.297,-224.609,-322.754,0
5164.623,-174.805,40.039,26.367,-236.816,-825.684,0
5164.627,-4.883,34.668,22.949,-194.824,-541.992,0
5164.631,113.770,30.762,20.508,-167.969,-2.441,0
5164.635,-23.438,31.250,23.438,-181.641,-185.547,0
5164.639,-164.062,30.762,29.785,-198.242,-751.953,0
5164.643,-53.711,26.855,25.391,-186.523,-683.594,0
5164.647,130.371,27.344,20.508,-156.738,-86.914,0
5164.651,42.480,32.715,24.902,-168.945,-78.125,0
5164.654,-140.137,35.645,28.809,-200.684,-722.656,0
5164.658,-78.613,28.320,25.879,-187.012,-857.910,0
5164.662,121.094,24.414,21.973,-144.531,-276.367,0
5164.666,104.980,32.715,26.367,-134.277,-37.598,0
5164.670,-97.168,40.527,33.691,-159.180,-595.215,0
5164.674,-118.164,33.691,31.738,-162.598,-910.645,0
5164.678,63.965,26.855,21.484,-130.371,-437.988,0
5164.682,129.883,30.762,18.066,-112.793,21.484,0
5164.686,-45.410,37.598,25.879,-129.395,-347.168,0
5164.690,-147.461,36.621,26.367,-142.578,-872.070,0
5164.693,5.859,28.320,21.484,-115.234,-637.695,0
5164.697,145.996,24.902,21.484,-95.215,-80.566,0
5164.701,6.836,34.180,28.809,-113.770,-209.473,0
5164.705,-158.691,32.227,32.715,-137.695,-777.344,0
5164.709,-68.848,20.508,24.902,-145.996,-739.746,0
5164.713,116.699,24.414,20.020,-121.094,-163.086,0
5164.717,46.387,34.180,24.414,-129.395,-101.074,0
5164.721,-161.621,36.133,32.227,-173.340,-681.152,0
5164.725,-121.094,34.668,39.062,-166.016,-902.832,0
5164.729,76.172,26.367,27.832,-141.602,-345.215,0
5164.733,63.965,25.391,17.090,-143.066,11.719,0
5164.736,-146.973,31.738,25.879,-151.855,-478.027,0
5164.740,-183.594,30.273,26.367,-141.113,-855.469,0
5164.744,9.766,23.926,19.043,-104.004,-482.910,0
5164.748,101.562,25.391,21.973,-90.332,1.953,0
5164.752,-79.590,33.203,30.762,-125.488,-296.387,0
5164.756,-195.801,33.203,30.762,-159.180,-761.230,0
5164.760,-28.320,27.832,23.926,-138.672,-587.891,0
5164.764,123.535,20.020,20.020,-104.492,-71.777,0
5164.768,-7.324,29.297,21.973,-147.949,-119.629,0
5164.772,-171.387,38.574,26.367,-190.430,-569.336,0
5164.776,-74.219,30.273,23.438,-175.781,-614.258,0
5164.779,144.043,30.762,13.672,-147.949,-155.762,0
5164.783,85.938,38.086,16.602,-151.367,-39.062,0
5164.787,-136.719,39.551,25.879,-185.547,-455.078,0
5164.791,-104.980,37.109,21.973,-166.016,-564.453,0
5164.795,112.305,33.203,13.672,-117.676,-283.691,0
5164.799,143.555,32.227,19.531,-103.027,-64.941,0
5164.803,-62.012,36.621,26.855,-133.301,-313.965,0
5164.807,-119.629,39.062,23.438,-141.602,-508.301,0
5164.811,81.055,35.156,19.531,-103.027,-337.891,0
5164.815,189.941,32.715,20.508,-78.125,-18.555,0
5164.818,5.859,36.133,25.391,-105.469,-155.762,0
5164.822,-122.070,35.156,24.902,-130.859,-400.879,0
5164.826,25.879,25.391,21.973,-89.844,-387.207,0
5164.830,204.102,26.855,20.020,-29.785,-127.441,0
5164.834,79.590,34.668,23.438,-30.273,-69.336,0
5164.838,-139.648,36.621,27.832,-38.574,-316.895,0
5164.842,-61.035,31.250,25.391,4.395,-328.613,0
5164.846,179.688,26.367,21.484,69.336,-100.586,0
5164.850,129.883,31.250,25.391,93.262,-30.762,0
5164.854,-123.047,38.086,32.227,93.262,-203.613,0
5164.858,-126.465,30.273,27.344,128.418,-272.461,0
5164.861,109.863,22.949,20.996,193.848,-183.594,0
5164.865,172.852,28.320,23.926,231.934,-34.668,0
5164.869,-48.828,34.180,33.203,214.355,-123.047,0
5164.873,-138.672,31.738,32.715,209.961,-251.953,0
5164.877,58.594,25.879,22.949,255.371,-191.895,0
5164.881,208.008,22.949,20.996,292.969,-42.969,0
5164.885,24.902,28.320,35.156,272.949,-121.094,0
5164.889,-148.438,34.180,39.062,252.930,-229.492,0
5164.893,-1.465,32.227,28.320,284.668,-177.246,0
5164.897,213.867,27.344,22.461,332.031,-41.504,0
5164.901,102.051,29.297,25.391,313.965,-41.992,0
5164.904,-130.371,31.738,31.738,268.555,-164.551,0
5164.908,-57.129,27.344,27.832,276.855,-164.551,0
5164.912,183.594,25.391,21.973,315.430,-93.262,0
5164.916,159.180,29.785,26.855,312.012,-76.660,0
5164.920,-91.797,33.691,34.180,269.531,-141.113,0
5164.924,-111.816,30.762,31.738,261.230,-113.770,0
5164.928,122.559,25.879,25.879,286.621,-30.762,0
5164.932,202.637,26.855,26.855,301.758,17.090,0
5164.936,-16.113,30.762,27.832,266.602,-32.715,0
5164.940,-134.766,28.809,28.809,238.281,-71.289,0
5164.943,49.805,23.926,21.973,270.020,-34.668,0
5164.947,214.355,20.508,19.043,295.410,1.953,0
5164.951,49.316,26.367,27.832,269.531,4.395,0
5164.955,-135.742,36.133,32.227,245.117,-119.629,0
5164.959,-8.789,35.156,24.414,259.766,-161.133,0
5164.963,221.680,31.738,16.602,298.340,-65.918,0
5164.967,131.836,35.645,22.949,291.016,-53.223,0
5164.971,-116.211,35.645,30.762,247.070,-92.285,0
5164.975,-73.730,30.762,27.344,247.070,-86.914,0
5164.979,167.480,26.855,20.020,282.715,-41.504,0
5164.983,178.711,30.273,26.855,285.645,18.066,0
5164.986,-60.059,38.574,39.062,240.723,-2.441,0
5164.990,-117.188,37.598,34.668,224.609,-49.805,0
5164.994,96.680,30.273,22.949,257.324,-55.176,0
5164.998,202.637,25.879,17.090,281.738,1.953,0
5165.002,-6.348,29.297,26.367,249.512,15.625,0
5165.006,-131.836,26.855,35.645,207.520,-66.895,0
5165.010,46.387,23.438,32.227,229.004,-56.152,0
5165.014,227.051,23.926,26.367,261.719,17.578,0
5165.018,77.637,30.762,32.227,236.816,22.461,0
5165.022,-128.418,36.621,34.668,191.406,-15.625,0
5165.026,-20.996,30.273,24.902,204.102,16.113,0
5165.029,219.238,25.879,20.508,246.582,-10.254,0
5165.033,154.297,31.250,27.344,227.539,-1.953,0
5165.037,-87.891,38.086,34.180,183.594,-12.695,0
5165.041,-62.988,36.621,30.762,190.918,-26.367,0
5165.045,166.016,30.273,21.973,231.934,20.020,1
5165.049,204.590,33.203,25.391,238.770,38.086,0
5165.053,-31.250,39.551,37.598,197.266,2.441,0
5165.057,-113.281,37.109,34.668,180.176,-5.371,0
5165.061,94.727,32.715,23.438,202.637,68.848,0
5165.065,225.098,27.832,20.996,223.633,61.035,0
5165.068,29.785,29.297,28.320,201.660,-1.465,0
5165.072,-127.930,32.227,31.250,175.293,-20.020,0
5165.076,41.504,28.809,25.879,202.148,-35.156,0
5165.080,247.559,26.367,23.926,239.258,10.742,0
5165.084,114.746,31.738,32.227,220.703,68.359,0
5165.088,-107.422,37.598,35.645,174.805,52.246,0
5165.092,-28.809,30.762,27.344,181.641,46.875,0
5165.096,205.566,24.902,21.973,220.703,23.438,0
5165.100,158.203,29.785,26.367,214.844,44.922,0
5165.104,-88.379,35.156,30.273,179.688,60.547,0
5165.108,-82.031,34.180,29.785,179.199,-22.949,0
5165.111,151.367,26.855,23.438,208.496,-11.230,0
5165.115,207.520,26.367,22.461,223.145,12.695,0
5165.119,-19.531,35.156,32.227,189.453,9.277,0
5165.123,-112.305,35.156,31.738,162.598,13.672,0
5165.127,96.680,29.297,21.973,198.242,-7.812,0
5165.131,246.094,30.762,19.043,221.680,46.387,0
5165.135,55.664,33.691,26.367,177.734,71.289,0
5165.139,-131.836,34.668,32.227,136.719,8.301,0
5165.143,8.301,31.250,29.785,148.926,-11.230,0
5165.147,221.680,28.809,24.414,183.594,52.246,0
5165.151,97.656,34.668,28.320,166.504,77.148,0
5165.154,-123.535,37.598,35.645,135.742,1.465,0
5165.158,-41.992,32.715,34.180,147.461,-53.711,0
5165.162,189.941,29.297,22.949,177.246,25.879,0
5165.166,167.969,33.691,22.949,178.223,81.543,0
5165.170,-69.824,39.551,33.203,145.996,1.953,0
5165.174,-97.656,37.109,31.250,142.578,-9.766,0
5165.178,129.883,27.832,24.902,185.547,12.207,0
5165.182,216.309,24.414,25.391,197.266,22.949,0
5165.186,-10.742,34.180,35.156,153.320,42.480,0
5165.190,-144.043,37.598,38.574,113.281,-17.578,0
5165.193,33.203,28.320,29.785,119.629,-3.906,0
5165.197,198.730,27.344,25.879,140.137,67.383,0
5165.201,32.227,33.691,33.203,104.004,42.969,0
5165.205,-157.715,37.109,36.621,61.523,34.668,0
5165.209,-28.809,34.180,31.250,75.684,10.742,0
5165.213,189.453,30.762,27.344,112.793,28.809,0
5165.217,95.703,33.691,33.203,100.098,50.293,0
5165.221,-131.836,36.621,39.062,56.152,-3.906,0
5165.225,-84.961,30.762,31.250,53.711,10.254,0
5165.229,143.555,22.461,22.949,79.102,45.410,0
5165.233,143.066,25.391,27.344,63.477,77.637,0
5165.236,-100.586,32.715,35.156,12.207,19.531,0
5165.240,-137.695,31.250,33.691,4.883,-18.555,0
5165.244,73.730,27.344,25.879,34.668,-31.250,0
5165.248,164.551,27.832,24.902,39.062,-0.977,0
5165.252,-31.250,30.762,27.832,-4.883,0.000,0
5165.256,-154.297,30.762,26.367,-30.762,-43.945,0
5165.260,24.902,26.367,23.438,4.395,-1.465,0
5165.264,191.895,22.461,20.996,41.992,57.617,0
5165.268,44.922,28.320,26.855,16.602,25.879,0
5165.272,-141.113,33.691,31.250,-18.066,-4.395,0
5165.276,-45.898,29.785,27.344,0.977,-9.766,0
5165.279,160.645,24.414,20.020,32.715,1.953,0
5165.283,101.562,26.855,21.973,22.949,-9.766,0
5165.287,-119.141,31.250,29.785,-16.113,-12.207,0
5165.291,-92.773,30.762,27.832,-6.836,9.766,0
5165.295,133.301,26.367,20.508,41.016,54.688,0
5165.299,158.691,26.367,21.973,48.340,10.254,0
5165.303,-60.547,32.715,31.738,3.418,-45.410,0
5165.307,-121.094,32.227,35.156,-17.578,19.043,0
5165.311,81.543,30.762,27.832,22.461,55.664,0
5165.315,190.430,31.250,24.902,46.387,58.105,0
5165.318,4.395,30.273,32.227,25.879,34.180,0
5165.322,-133.301,29.297,37.109,5.371,-8.301,0
5165.326,16.113,28.320,32.227,19.531,28.320,0
5165.330,199.219,30.762,20.020,40.527,38.086,0
5165.334,74.219,34.668,25.391,21.484,30.273,0
5165.338,-120.605,31.738,36.133,-3.418,54.688,0
5165.342,-42.480,28.320,29.297,8.301,9.766,0
5165.346,168.457,21.973,25.391,47.363,16.113,0
5165.350,137.207,23.438,29.297,46.387,-4.883,0
5165.354,-80.566,31.738,33.691,10.742,-7.812,0
5165.358,-90.332,31.738,29.785,10.742,21.484,0
5165.361,117.188,28.809,21.484,52.246,32.715,0
5165.365,165.039,28.809,22.949,68.848,51.758,0
5165.369,-45.898,32.227,31.250,41.016,24.414,0
5165.373,-123.047,34.180,30.762,34.180,-18.555,0
5165.377,54.199,29.785,20.508,50.781,-29.785,0
5165.381,188.965,27.832,20.020,66.406,-50.293,0
5165.385,30.273,33.691,31.738,44.922,0.488,0
5165.389,-136.719,35.156,33.691,21.484,5.859,0
5165.393,-1.465,29.297,23.438,48.340,5.859,0
5165.397,199.707,26.367,20.508,81.055,45.410,0
5165.401,94.238,33.691,31.250,70.801,39.062,0
5165.404,-118.652,38.574,37.109,41.016,-13.184,0
5165.408,-50.781,33.691,28.809,55.664,5.859,0
5165.412,181.152,29.297,22.949,84.473,55.664,0
5165.416,163.086,31.250,30.273,64.941,48.828,0
5165.420,-74.707,37.598,37.598,15.137,12.695,0
5165.424,-97.656,34.668,33.203,-7.812,-16.113,0
5165.428,124.023,24.902,26.367,21.973,-12.695,0
5165.432,203.125,24.902,27.344,27.344,-1.953,0
5165.436,-9.766,33.691,30.273,-20.996,40.527,0
5165.440,-127.930,35.156,32.227,-50.781,63.965,0
5165.443,57.129,31.250,28.320,-30.762,9.277,0
5165.447,241.211,29.785,20.996,-11.230,43.945,0
5165.451,80.566,34.668,24.414,-52.246,52.734,0
5165.455,-130.859,33.691,31.738,-91.309,28.320,0
5165.459,-9.277,24.902,29.785,-76.172,5.859,0
5165.463,220.215,22.461,30.273,-44.922,-35.645,0
5165.467,127.441,32.715,36.621,-58.105,-3.418,0
5165.471,-117.676,41.504,38.574,-98.145,20.020,0
5165.475,-79.590,36.133,34.180,-92.285,-3.906,0
5165.479,161.133,25.391,26.367,-56.641,11.719,0
5165.483,174.316,28.320,27.832,-45.898,55.664,0
5165.486,-69.824,38.086,35.645,-73.242,40.527,0
5165.490,-116.211,34.668,33.691,-83.984,27.344,0
5165.494,98.145,24.902,24.414,-39.062,39.551,0
5165.498,197.754,28.320,24.414,-6.348,63.965,0
5165.502,-7.324,34.668,31.250,-40.527,50.293,0
5165.506,-145.508,36.621,32.715,-58.105,45.898,0
5165.510,27.344,32.715,25.879,-20.996,54.199,0
5165.514,207.520,26.367,20.508,14.160,36.133,0
5165.518,60.547,32.227,26.367,1.465,40.039,0
5165.522,-143.555,37.109,30.273,-24.414,26.855,0
5165.526,-34.180,33.203,26.367,-8.789,41.504,0
5165.529,204.590,29.297,22.949,30.762,94.727,0
5165.533,140.137,29.297,24.902,28.809,74.707,0
5165.537,-110.352,33.203,32.227,-8.789,40.039,0
5165.541,-95.215,33.203,30.762,-6.836,26.855,0
5165.545,137.207,30.762,21.973,46.387,20.996,0
5165.549,170.898,34.668,22.949,59.570,34.668,0
5165.553,-70.312,39.062,28.320,13.672,57.617,0
5165.557,-141.113,35.645,28.809,5.371,43.945,0
5165.561,79.102,30.273,22.461,47.852,41.504,0
5165.565,208.984,27.832,20.508,83.984,56.641,0
5165.568,17.090,33.203,30.273,64.941,46.387,0
5165.572,-143.066,35.645,30.273,28.809,30.273,0
5165.576,8.789,29.297,18.066,56.641,31.738,0
5165.580,216.309,25.879,14.648,99.609,58.105,0
5165.584,100.098,26.367,25.391,85.449,84.961,0
5165.588,-114.258,23.438,32.227,49.316,29.297,0
5165.592,-31.738,25.391,26.855,60.059,-36.133,0
5165.596,209.961,24.902,21.484,104.004,-14.160,0
5165.600,171.875,28.809,23.926,104.980,53.711,0
5165.604,-71.289,35.156,28.809,65.918,82.520,0
5165.608,-60.547,32.715,24.902,58.105,54.688,0
5165.611,175.293,25.879,20.020,91.309,87.402,0
5165.615,222.168,24.902,20.508,98.633,170.898,0
5165.619,-16.113,31.738,25.391,61.523,126.953,0
5165.623,-104.492,34.668,27.344,35.156,24.902,0
5165.627,100.098,32.227,23.926,61.523,27.832,0
5165.631,242.676,28.809,21.484,84.961,162.598,0
5165.635,61.035,33.203,27.832,53.223,143.555,0
5165.639,-113.770,33.691,33.203,28.320,25.879,0
5165.643,21.484,24.414,30.762,54.688,53.223,0
5165.647,236.816,24.902,26.367,100.098,223.145,0
5165.651,128.906,35.156,32.227,88.867,228.516,0
5165.654,-97.656,36.133,39.062,41.504,43.945,0
5165.658,-17.578,34.668,34.180,55.664,-8.789,0
5165.662,210.938,32.715,25.879,106.445,254.883,0
5165.666,185.059,33.203,27.832,105.957,421.875,0
5165.670,-54.199,36.133,33.691,60.547,140.625,0
5165.674,-89.355,31.738,29.785,48.340,-27.344,0
5165.678,125.000,25.879,20.508,88.379,170.898,0
5165.682,203.125,27.832,24.902,103.027,489.258,0
5165.686,-10.254,36.621,33.203,61.523,224.609,0
5165.690,-124.512,36.621,32.227,46.387,-144.531,0
5165.693,46.875,30.273,26.855,58.105,10.254,0
5165.697,201.172,27.832,22.949,73.242,463.379,0
5165.701,41.992,29.785,29.297,51.758,386.719,0
5165.705,-141.602,35.156,36.621,15.625,-42.969,0
5165.709,-18.066,31.250,32.715,34.180,-76.172,1
5165.713,192.871,26.367,27.344,68.848,376.953,0
5165.717,99.121,34.180,32.715,48.340,452.148,0
5165.721,-134.277,41.504,39.551,-2.441,34.180,0
5165.725,-95.215,37.109,38.086,-5.371,-129.883,0
5165.729,150.879,32.715,33.691,36.621,179.688,0
5165.733,166.016,36.133,33.691,43.945,444.824,0
5165.736,-84.473,43.945,38.574,8.789,13.184,0
5165.740,-139.160,39.062,38.086,-7.324,-270.508,0
5165.744,73.242,26.855,32.715,31.250,-22.949,0
5165.748,177.734,21.973,31.738,65.918,335.449,0
5165.752,-30.273,25.391,39.551,34.668,124.512,0
5165.756,-164.551,32.715,41.992,4.395,-194.824,0
5165.760,6.348,33.691,35.156,38.086,-126.953,0
5165.764,187.988,30.762,33.203,67.871,218.750,0
5165.768,53.711,36.133,39.062,34.180,167.969,0
5165.772,-152.344,40.039,39.551,-8.301,-159.668,0
5165.776,-62.012,34.668,30.273,11.719,-212.891,0
5165.779,164.062,28.320,25.391,55.664,65.918,0
5165.783,97.168,32.715,31.250,37.598,155.762,0
5165.787,-151.855,39.062,40.039,-9.277,-122.559,0
5165.791,-132.812,36.133,37.109,-16.602,-203.125,0
5165.795,99.121,30.762,26.855,24.902,-41.016,0
5165.799,138.184,30.273,25.879,31.738,128.418,0
5165.803,-92.285,37.598,34.180,-13.184,-57.617,0
5165.807,-165.527,36.133,34.668,-21.484,-194.336,0
5165.811,48.828,28.320,29.297,27.832,-99.609,0
5165.815,187.500,29.297,23.438,56.152,85.938,0
5165.818,-11.719,39.062,27.344,17.090,26.855,0
5165.822,-180.176,41.992,36.133,-12.207,-162.109,0
5165.826,-20.020,33.691,30.273,20.996,-179.688,0
5165.830,183.594,25.391,23.438,60.059,9.766,0
5165.834,63.965,31.738,31.250,40.527,40.039,0
5165.838,-147.949,39.551,35.645,5.371,-114.746,0
5165.842,-69.824,37.109,30.273,19.531,-169.922,0
5165.846,165.039,33.203,24.902,66.406,-87.891,0
5165.850,128.906,32.715,28.320,60.059,-11.230,0
5165.854,-116.211,34.668,32.715,15.137,-86.426,0
5165.858,-115.234,31.738,30.762,13.672,-83.984,0
5165.861,121.094,22.949,23.438,53.711,-2.930,0
5165.865,180.664,24.902,22.949,74.219,20.020,0
5165.869,-42.480,36.621,33.203,36.621,-38.086,0
5165.873,-138.184,39.062,32.715,25.391,-65.918,0
5165.877,61.035,32.715,25.391,62.988,-21.973,0
5165.881,213.379,31.250,24.902,83.008,32.715,0
5165.885,30.762,37.109,31.250,52.246,36.133,0
5165.889,-152.344,41.016,35.645,17.578,-39.551,0
5165.893,-10.254,34.180,30.762,42.969,-55.664,0
5165.897,209.961,28.320,27.832,84.961,-14.648,0
5165.901,105.469,35.645,31.738,58.105,33.691,0
5165.904,-125.488,40.039,38.086,12.695,-8.789,0
5165.908,-62.988,34.180,31.250,12.695,-69.824,0
5165.912,172.363,24.414,23.926,37.109,-1.953,0
5165.916,154.785,28.809,30.273,33.691,-0.977,0
5165.920,-96.680,40.527,32.715,-8.789,-41.504,0
5165.924,-123.047,40.527,31.738,-12.695,-3.418,0
5165.928,108.398,33.691,25.879,25.391,9.277,0
5165.932,204.590,30.273,22.949,30.762,12.207,0
5165.936,-2.441,36.621,29.785,-4.395,-12.207,0
5165.940,-133.789,38.574,32.227,-25.391,-57.617,0
5165.943,34.180,30.762,27.344,4.883,0.488,0
5165.947,211.426,29.785,24.902,34.668,75.195,0
5165.951,58.105,36.621,32.715,5.371,63.477,0
5165.955,-133.789,37.109,34.180,-25.391,14.160,0
5165.959,-10.254,30.762,24.414,-9.766,-14.160,0
5165.963,203.613,24.902,17.090,18.066,61.035,0
5165.967,113.770,30.762,23.438,-2.930,80.566,0
5165.971,-118.164,36.133,31.738,-52.734,20.508,0
5165.975,-76.172,31.250,29.297,-63.477,-6.836,0
5165.979,164.062,28.809,25.879,-38.086,3.418,0
5165.983,183.105,32.715,28.809,-51.270,46.387,0
5165.986,-52.734,40.527,37.109,-107.910,-10.254,0
5165.990,-107.910,40.527,39.062,-133.789,-25.391,0
5165.994,105.957,34.180,29.297,-111.816,-1.953,0
5165.998,220.215,32.227,29.785,-90.820,57.129,0
5166.002,13.672,34.668,34.668,-129.883,61.523,0
5166.006,-129.395,35.645,33.203,-168.457,21.484,0
5166.010,36.621,30.762,30.762,-147.461,18.555,0
5166.014,229.004,26.855,27.832,-115.234,19.043,0
5166.018,82.520,30.762,33.203,-144.531,43.457,0
5166.022,-148.438,33.691,38.086,-189.453,17.090,0
5166.026,-50.293,32.227,33.691,-177.246,11.719,0
5166.029,196.777,26.367,27.832,-140.625,61.035,0
5166.033,140.137,27.344,31.738,-143.066,35.645,0
5166.037,-108.398,35.645,37.598,-187.012,29.785,0
5166.041,-99.609,34.180,33.691,-179.688,-12.695,0
5166.045,137.207,28.809,28.809,-117.188,-10.742,0
5166.049,185.059,31.738,35.156,-104.980,83.496,0
5166.053,-54.199,37.598,41.016,-136.719,37.598,0
5166.057,-134.766,38.086,38.574,-135.254,-25.391,0
5166.061,77.637,30.762,31.250,-80.566,14.648,0
5166.065,211.426,26.855,28.320,-40.039,30.273,0
5166.068,17.090,36.621,33.203,-51.758,32.715,0
5166.072,-151.367,39.551,36.133,-47.852,55.664,0
5166.076,0.000,30.273,33.203,-3.418,51.270,0
5166.080,201.172,23.438,28.809,48.340,67.383,0
5166.084,65.430,27.832,31.738,35.645,56.152,0
5166.088,-160.156,34.180,35.156,10.254,-15.625,0
5166.092,-70.312,33.691,31.738,45.898,-24.414,0
5166.096,167.480,29.297,27.832,99.609,15.625,0
5166.100,125.977,28.809,30.762,106.445,-7.812,0
5166.104,-119.141,34.668,35.156,74.219,-34.668,0
5166.108,-125.000,34.180,31.250,81.055,-19.043,0
5166.111,107.422,26.367,21.973,124.023,-1.465,0
5166.115,168.945,26.855,22.461,152.344,-5.859,0
5166.119,-57.617,35.156,31.738,146.484,-21.484,0
5166.123,-152.832,35.156,30.762,120.605,7.324,0
5166.127,40.527,28.809,22.461,140.625,58.105,0
5166.131,191.895,23.438,21.973,170.410,49.805,0
5166.135,17.578,28.809,28.809,137.207,0.488,0
5166.139,-158.203,36.621,32.227,106.445,0.977,0
5166.143,-17.578,34.668,27.832,125.977,11.719,0
5166.147,193.848,32.227,25.879,157.715,38.574,0
5166.151,86.914,35.156,31.250,136.230,70.801,0
5166.154,-142.090,36.621,36.133,83.984,38.086,0
5166.158,-84.961,27.344,29.297,74.219,5.859,0
5166.162,151.855,21.484,19.531,108.398,35.645,0
5166.166,150.879,25.391,23.926,106.934,93.750,0
5166.170,-95.215,29.297,32.715,62.012,69.824,0
5166.174,-138.672,28.320,33.203,53.223,20.508,0
5166.178,94.238,25.391,23.926,89.844,16.113,0
5166.182,196.289,25.879,21.973,123.535,-24.902,0
5166.186,-24.902,29.785,32.715,102.051,-66.406,0
5166.190,-147.461,30.273,31.738,95.215,-32.715,0
5166.193,37.598,22.949,24.414,124.512,33.203,0
5166.197,205.078,21.484,24.414,140.137,44.922,0
5166.201,40.039,32.227,30.273,102.539,32.227,0
5166.205,-161.621,37.598,34.180,62.988,24.902,0
5166.209,-39.551,32.227,31.250,88.867,-6.348,0
5166.213,192.871,28.809,23.438,126.953,39.551,0
5166.217,113.281,36.133,25.391,116.699,55.664,0
5166.221,-129.395,40.039,30.762,86.426,-2.441,0
5166.225,-99.609,35.156,27.344,92.773,-20.020,0
5166.229,136.719,31.250,21.484,133.789,35.645,0
5166.233,155.273,33.691,18.066,149.414,67.383,0
5166.236,-90.332,40.527,27.344,99.609,-1.953,0
5166.240,-144.043,40.039,34.180,85.449,-24.902,0
5166.244,79.102,33.691,27.344,128.906,5.371,0
5166.248,196.777,31.738,23.438,150.879,15.137,0
5166.252,-2.441,37.598,30.762,114.258,-5.859,0
5166.256,-160.156,33.203,32.227,83.984,-7.324,0
5166.260,2.930,24.414,21.973,116.699,54.688,0
5166.264,202.637,26.367,21.484,151.855,79.102,0
5166.268,70.312,35.156,28.809,131.348,8.789,0
5166.272,-134.277,40.527,30.762,103.516,4.395,0
5166.276,-37.598,34.180,27.832,118.164,3.906,0
5166.279,191.406,27.832,22.461,160.156,-2.930,0
5166.283,132.324,36.133,25.879,155.273,16.602,0
5166.287,-120.117,41.992,38.574,111.328,14.648,0
5166.291,-108.398,37.598,37.109,107.910,13.672,0
5166.295,131.836,29.297,27.344,136.230,20.508,0
5166.299,170.410,27.344,27.344,141.113,24.414,0
5166.303,-61.035,31.738,35.645,103.516,8.301,0
5166.307,-139.160,34.668,37.109,96.191,30.273,0
5166.311,70.801,31.738,30.762,134.766,3.418,0
5166.315,214.844,29.297,29.297,151.855,19.043,0
5166.318,20.508,33.203,36.133,125.000,15.625,0
5166.322,-156.250,30.273,36.133,97.168,-23.438,0
5166.326,0.977,29.785,33.203,113.770,-28.320,0
5166.330,210.938,31.250,30.762,151.367,53.223,0
5166.334,74.219,32.715,25.391,139.160,87.402,0
5166.338,-152.344,35.645,29.785,95.215,0.000,0
5166.342,-67.383,31.738,28.320,98.633,-0.488,0
5166.346,173.340,27.832,19.043,144.531,60.547,0
5166.350,135.254,30.273,23.926,128.418,11.230,0
5166.354,-114.746,32.227,31.250,87.891,15.625,0
5166.358,-113.770,29.785,26.367,88.867,6.836,0
5166.361,119.629,25.391,20.508,124.512,-41.992,0
5166.365,189.941,24.414,22.461,142.090,62.012,2
5166.369,-38.574,31.738,30.273,103.027,84.473,0
5166.373,-148.438,32.715,34.668,88.867,33.203,0
5166.377,61.523,23.926,26.367,120.605,59.082,0
5166.381,239.258,21.484,22.461,151.367,16.113,0
5166.385,48.828,25.879,31.738,132.324,17.090,0
5166.389,-158.203,29.297,36.133,103.027,89.844,0
5166.393,-18.555,22.949,27.832,120.117,59.082,0
5166.397,198.730,18.066,20.996,155.273,18.066,0
5166.401,83.008,25.391,31.250,140.137,51.270,0
5166.404,-152.344,33.691,40.527,96.191,18.555,0
5166.408,-89.355,29.297,34.180,102.051,33.691,0
5166.412,150.879,23.438,27.832,141.602,11.230,0
5166.416,145.020,28.809,28.809,151.855,2.441,0
5166.420,-94.727,37.109,35.645,117.676,52.734,0
5166.424,-121.094,38.574,33.691,100.098,-1.465,0
5166.428,108.887,31.738,26.855,131.836,38.086,0
5166.432,201.660,30.273,29.785,146.973,78.125,0
5166.436,-20.996,31.250,34.180,90.332,0.000,0
5166.440,-150.391,33.691,33.203,54.688,-7.324,0
5166.443,36.621,31.738,25.879,84.473,-1.465,0
5166.447,214.355,28.809,20.508,109.863,19.043,0
5166.451,45.898,32.227,26.367,84.473,65.918,0
5166.455,-149.414,35.156,34.180,45.410,66.895,0
5166.459,-28.320,32.227,31.250,51.758,6.836,0
5166.463,190.918,25.391,23.926,84.473,40.039,0
5166.467,112.793,28.320,28.320,77.637,37.109,0
5166.471,-126.953,35.156,40.039,41.016,-3.906,0
5166.475,-87.402,32.227,36.621,44.922,23.438,0
5166.479,150.879,23.926,26.367,84.473,85.938,0
5166.483,170.898,25.391,30.273,93.262,63.965,0
5166.486,-64.941,31.250,38.574,62.500,33.203,0
5166.490,-139.648,25.391,38.086,54.688,0.488,0
5166.494,73.242,20.996,30.762,86.426,-8.789,0
5166.498,200.195,24.902,26.367,107.422,36.621,0
5166.502,-2.930,33.203,32.715,69.824,-19.531,0
5166.506,-157.227,37.109,38.574,31.738,-12.207,0
5166.510,11.230,32.227,31.738,63.477,-18.555,0
5166.514,213.867,26.855,25.879,103.516,0.977,0
5166.518,71.289,32.715,33.203,81.543,7.324,0
5166.522,-150.391,37.109,37.598,50.293,-34.668,0
5166.526,-47.852,31.738,32.715,82.031,24.414,0
5166.529,185.547,27.344,27.832,123.535,63.965,0
5166.533,125.000,29.297,28.809,103.027,59.082,0
5166.537,-120.605,28.809,32.715,75.684,15.625,0
5166.541,-110.840,26.367,27.344,83.984,-12.207,0
5166.545,125.000,25.879,20.996,126.465,10.742,0
5166.549,180.176,30.762,20.020,151.367,46.387,0
5166.553,-58.105,38.086,27.344,103.027,0.000,0
5166.557,-145.996,37.598,32.715,86.914,-12.695,0
5166.561,63.965,31.250,25.391,127.441,82.520,0
5166.565,193.848,27.832,22.949,149.414,85.449,0
5166.568,6.348,33.691,32.227,128.418,5.859,0
5166.572,-152.344,36.133,36.621,101.562,33.203,0
5166.576,2.930,34.180,28.809,122.070,61.523,0
5166.580,204.590,31.250,21.973,151.367,-0.977,0
5166.584,77.637,34.180,28.320,123.047,5.371,0
5166.588,-141.602,41.016,29.785,88.867,51.758,0
5166.592,-61.035,35.156,22.461,101.562,17.578,0
5166.596,162.598,22.461,19.043,116.699,6.348,0
5166.600,125.000,27.832,23.438,91.309,-13.184,0
5166.604,-110.840,37.109,28.320,42.480,20.508,0
5166.608,-114.258,36.621,30.273,55.176,76.172,0
5166.611,117.676,30.762,24.902,103.516,17.090,0
5166.615,187.500,28.320,21.484,108.398,68.359,0
5166.619,-34.668,36.621,29.297,75.684,69.824,0
5166.623,-142.578,38.574,32.227,64.941,5.859,0
5166.627,51.270,32.715,25.879,103.027,27.344,0
5166.631,215.332,27.832,20.996,127.930,11.719,0
5166.635,31.738,32.227,25.879,92.285,-5.371,0
5166.639,-159.668,37.598,29.297,68.848,13.672,0
5166.643,-24.414,33.691,19.531,111.328,-19.531,0
5166.647,196.289,27.344,12.207,138.672,-12.695,0
5166.651,94.238,29.297,19.531,116.211,53.711,0
5166.654,-135.254,34.180,30.273,87.891,41.992,0
5166.658,-73.242,31.250,27.344,96.191,19.043,0
5166.662,167.480,27.832,19.043,137.207,61.523,0
5166.666,167.480,32.715,25.391,130.371,73.242,0
5166.670,-85.449,37.598,31.250,77.148,2.441,0
5166.674,-127.441,34.180,29.297,68.848,-26.367,0
5166.678,102.539,28.809,24.414,103.516,-11.230,0
5166.682,202.637,27.832,23.438,118.652,16.113,0
5166.686,-6.348,34.668,30.273,91.797,-7.324,0
5166.690,-135.742,37.109,31.738,65.918,41.992,0
5166.693,48.340,30.273,22.461,89.355,48.828,0
5166.697,227.051,27.832,20.996,122.559,12.207,0
5166.701,61.523,34.668,31.250,98.145,23.926,0
5166.705,-143.066,36.133,36.621,73.242,13.184,0
5166.709,-25.391,32.227,33.691,94.727,41.016,0
5166.713,206.543,32.227,30.762,132.812,37.598,0
5166.717,125.488,34.180,33.203,118.652,-31.250,0
5166.721,-120.117,33.691,33.691,77.637,-20.508,0
5166.725,-87.402,31.250,29.785,76.172,7.812,0
5166.729,143.555,26.367,23.438,112.793,39.062,0
5166.733,163.574,28.320,25.391,123.535,35.645,0
5166.736,-68.848,34.180,36.133,85.938,16.113,0
5166.740,-125.488,29.785,35.156,72.266,40.527,0
5166.744,93.262,24.902,25.879,100.098,44.434,0
5166.748,213.867,30.273,27.344,110.840,60.547,0
5166.752,4.883,36.133,34.668,66.895,13.184,0
5166.756,-149.902,34.180,36.133,22.461,10.742,0
5166.760,13.672,29.785,26.855,27.832,46.875,0
5166.764,208.984,29.785,23.438,41.016,74.219,0
5166.768,75.195,38.086,33.691,2.930,47.852,0
5166.772,-147.461,39.062,35.156,-32.715,34.180,0
5166.776,-54.199,31.738,29.785,-6.348,35.645,0
5166.779,181.152,28.320,26.367,34.180,36.621,0
5166.783,125.488,29.785,28.320,26.367,42.969,0
5166.787,-113.281,32.227,35.156,-11.230,-3.418,0
5166.791,-105.469,28.320,30.762,-9.277,30.273,0
5166.795,130.371,24.414,19.043,30.273,25.391,0
5166.799,179.688,28.320,21.973,54.199,30.762,0
5166.803,-56.641,33.203,32.227,24.902,61.035,0
5166.807,-141.602,33.691,34.668,2.441,-23.926,0
5166.811,64.941,28.320,27.344,33.203,-10.742,0
5166.815,197.266,25.391,22.461,56.152,54.199,0
5166.818,15.137,34.668,31.250,34.668,45.410,0
5166.822,-153.809,41.016,32.715,3.418,42.969,0
5166.826,-11.230,37.109,25.391,25.879,25.879,0
5166.830,203.613,29.785,19.531,66.895,14.648,0
5166.834,79.102,32.715,22.949,48.340,34.180,0
5166.838,-150.879,36.621,30.762,17.578,16.113,0
5166.842,-74.219,30.762,26.367,38.086,-3.906,0
5166.846,159.668,26.855,19.531,79.590,26.855,0
5166.850,134.766,30.762,24.902,68.359,15.625,0
5166.854,-106.934,39.062,33.691,16.113,1.465,0
5166.858,-121.582,39.551,30.273,6.836,-49.316,0
5166.861,108.887,32.227,21.484,43.945,-30.273,0
5166.865,182.129,27.832,21.973,54.688,73.242,0
5166.869,-41.992,35.156,30.762,9.277,17.578,0
5166.873,-155.273,39.062,32.715,-18.555,-25.391,0
5166.877,39.062,34.668,26.855,3.906,0.488,0
5166.881,202.637,31.250,22.461,28.809,54.199,0
5166.885,34.668,33.691,31.738,10.254,67.383,0
5166.889,-148.926,37.598,36.133,-26.855,22.461,0
5166.893,-27.832,32.227,27.344,-24.902,34.180,0
5166.897,186.523,32.227,24.902,20.020,22.949,0
5166.901,98.145,40.039,34.180,17.578,10.254,0
5166.904,-132.324,41.992,40.527,-20.508,23.926,0
5166.908,-73.730,38.086,34.668,-2.441,-11.230,0
5166.912,168.457,30.762,26.855,28.320,4.883,0
5166.916,159.180,29.297,28.809,17.090,3.418,0
5166.920,-82.031,34.180,36.621,-13.672,24.414,0
5166.924,-105.957,37.598,39.062,-20.508,65.918,0
5166.928,113.281,31.250,32.715,17.090,22.461,0
5166.932,196.777,27.344,32.227,40.039,77.637,0
5166.936,-15.625,37.598,40.527,1.465,92.285,0
5166.940,-149.414,39.551,38.086,-23.926,41.992,0
5166.943,34.180,31.250,29.785,-5.371,-0.977,0
5166.947,219.238,29.297,27.344,28.809,-41.016,0
5166.951,65.430,34.180,33.691,16.113,-6.348,0
5166.955,-135.742,37.598,36.621,-14.160,32.227,0
5166.959,-28.320,34.180,31.738,13.672,30.273,0
5166.963,196.289,25.879,25.391,61.035,59.570,0
5166.967,120.605,28.320,31.250,60.059,80.078,0
5166.971,-115.234,33.691,41.016,19.043,29.785,0
5166.975,-83.984,29.297,37.598,20.508,15.137,0
5166.979,153.320,28.809,29.785,65.918,12.695,0
5166.983,167.480,32.227,29.297,77.148,22.461,0
5166.986,-75.195,37.109,39.062,31.250,54.688,0
5166.990,-135.742,37.598,41.016,4.395,0.488,0
5166.994,81.543,30.762,29.785,35.645,-2.930,0
5166.998,208.496,27.832,26.367,67.383,25.391,0
5167.002,8.789,30.273,32.715,34.180,-13.184,0
5167.006,-149.414,31.250,34.668,-13.184,22.461,0
5167.010,11.719,27.832,31.738,3.418,68.848,0
5167.014,204.590,24.902,30.273,39.062,21.484,0
5167.018,64.453,29.785,37.598,18.555,-5.371,0
5167.022,-151.855,37.109,43.945,-26.367,45.410,0
5167.026,-56.152,34.180,40.039,-17.578,8.301,0
5167.029,182.617,26.855,32.715,20.996,-20.508,0
5167.033,130.371,27.832,35.645,12.207,37.598,1
5167.037,-114.258,32.227,41.016,-26.367,52.246,0
5167.041,-107.422,30.273,36.621,-29.785,9.766,0
5167.045,121.582,24.414,26.367,-11.719,58.105,0
5167.049,179.688,26.855,26.855,-2.441,75.684,0
5167.053,-49.316,35.645,34.180,-27.344,56.641,0
5167.057,-145.996,35.645,35.645,-46.387,66.406,0
5167.061,53.711,28.320,30.762,-5.371,0.000,0
5167.065,204.590,27.832,27.344,25.879,62.012,0
5167.068,24.902,35.156,34.668,-13.672,79.590,0
5167.072,-139.160,41.016,37.598,-35.156,22.461,0
5167.076,3.906,31.250,31.250,-5.859,21.484,0
5167.080,202.148,23.926,24.902,27.832,27.344,0
5167.084,78.125,31.250,29.785,18.066,31.738,0
5167.088,-150.391,38.574,38.574,-14.648,9.766,0
5167.092,-75.684,33.691,36.621,-1.465,48.340,0
5167.096,152.344,24.414,30.762,34.180,42.969,0
5167.100,127.441,26.367,31.250,28.320,14.648,0
5167.104,-106.445,31.250,35.645,-9.766,12.207,0
5167.108,-117.188,32.715,31.738,-20.020,12.695,0
5167.111,106.934,29.785,25.391,16.113,58.594,0
5167.115,182.617,28.809,25.391,49.316,60.547,0
5167.119,-35.156,35.156,33.203,24.902,-22.461,0
5167.123,-135.742,35.156,37.109,0.000,-23.926,0
5167.127,55.664,28.809,29.785,44.922,11.230,0
5167.131,211.914,29.297,24.414,81.543,6.836,0
5167.135,48.340,38.574,34.180,69.824,8.301,0
5167.139,-145.996,42.969,41.016,45.898,12.695,0
5167.143,-22.949,34.668,33.203,64.941,-16.113,0
5167.147,198.242,27.344,27.832,102.539,5.371,0
5167.151,100.586,31.738,30.273,80.078,13.672,0
5167.154,-132.324,35.156,32.715,41.016,-16.113,0
5167.158,-70.801,34.668,29.297,57.129,10.254,0
5167.162,157.227,28.809,25.879,109.375,16.113,0
5167.166,151.855,24.902,28.320,123.047,79.102,0
5167.170,-94.238,33.203,32.227,80.078,113.281,0
5167.174,-134.277,35.156,27.344,76.660,68.359,0
5167.178,93.750,29.785,20.508,131.348,27.344,0
5167.182,193.359,32.715,22.949,160.156,23.438,0
5167.186,-19.531,31.250,32.715,127.441,13.184,0
5167.190,-153.809,29.785,34.668,109.375,25.391,0
5167.193,31.250,34.180,29.785,149.414,63.477,0
5167.197,223.145,30.762,30.273,186.523,55.176,0
5167.201,63.965,33.203,33.691,156.250,66.895,0
5167.205,-143.555,40.527,34.180,121.582,18.555,0
5167.209,-27.832,39.062,28.809,147.461,12.695,0
5167.213,195.312,33.203,23.438,187.988,99.609,0
5167.217,130.371,38.086,38.574,188.477,25.879,0
5167.221,-114.258,39.551,43.457,151.855,-39.551,0
5167.225,-94.727,43.457,40.039,150.391,-12.695,0
5167.229,136.230,38.086,33.203,187.500,32.715,0
5167.233,157.227,25.879,16.113,190.430,74.219,0
5167.236,-68.848,32.715,22.949,144.531,68.359,0
5167.240,-136.719,30.762,28.809,120.605,-5.371,0
5167.244,65.918,20.996,26.367,153.809,14.160,0
5167.248,189.941,22.461,27.832,172.852,52.734,0
5167.252,-2.930,32.715,36.621,147.461,29.785,0
5167.256,-159.668,33.203,34.180,133.789,36.133,0
5167.260,0.488,28.320,27.344,155.762,51.758,0
5167.264,198.730,27.832,24.414,177.246,24.414,0
5167.268,67.383,34.180,30.273,154.785,-21.973,0
5167.272,-150.879,38.574,34.668,104.492,4.395,0
5167.276,-55.664,33.203,26.367,103.027,19.531,0
5167.279,181.641,28.320,20.020,146.973,23.438,0
5167.283,128.418,28.809,21.484,143.555,29.785,0
5167.287,-114.746,34.180,28.320,110.352,48.828,0
5167.291,-107.422,35.156,26.367,113.770,12.695,0
5167.295,126.953,25.879,18.555,153.809,40.039,0
5167.299,185.059,31.738,30.273,183.594,30.273,0
5167.303,-42.969,41.016,41.016,145.996,9.766,0
5167.307,-145.020,27.832,30.273,110.352,54.199,0
5167.311,54.199,21.973,21.484,147.461,13.672,0
5167.315,200.195,25.391,19.531,179.199,30.273,0
5167.318,19.531,31.250,27.344,144.531,36.133,0
5167.322,-147.461,31.738,33.691,115.723,-3.418,0
5167.326,6.348,27.832,33.691,149.414,23.438,0
5167.330,212.891,25.391,26.367,180.176,31.250,0
5167.334,102.051,33.203,26.855,147.949,17.578,0
5167.338,-119.629,39.062,38.086,106.934,30.762,0
5167.342,-65.430,32.715,41.016,108.887,74.707,0
5167.346,169.922,28.809,33.691,144.531,48.828,0
5167.350,154.785,31.250,36.133,146.484,51.758,0
5167.354,-93.262,34.668,42.969,105.957,50.293,0
5167.358,-116.211,31.738,38.574,103.027,5.371,0
5167.361,117.188,27.832,30.762,139.160,26.367,0
5167.365,204.102,32.715,28.320,146.484,48.340,0
5167.369,-27.832,41.016,34.668,107.422,39.062,0
5167.373,-148.438,42.480,37.598,85.938,14.648,0
5167.377,47.852,36.621,30.762,110.352,34.180,0
5167.381,206.055,34.180,25.391,136.230,69.824,0
5167.385,30.762,39.062,29.297,108.887,44.434,0
5167.389,-157.715,39.062,31.738,69.336,14.160,0
5167.393,-28.809,31.250,30.273,85.938,2.441,0
5167.397,193.359,26.855,27.832,130.859,61.523,0
5167.401,108.887,34.668,33.203,118.164,86.914,0
5167.404,-120.605,41.016,41.504,77.637,35.645,0
5167.408,-75.684,36.133,38.574,89.355,33.691,0
5167.412,166.016,30.273,28.809,126.953,64.941,0
5167.416,160.156,34.180,33.203,121.582,86.426,0
5167.420,-92.285,40.039,43.945,82.031,6.348,0
5167.424,-127.930,37.598,40.039,78.613,-9.277,0
5167.428,104.004,34.180,29.297,111.816,3.418,0
5167.432,205.566,34.180,27.832,124.512,-5.371,0
5167.436,-13.184,40.527,37.109,83.496,35.645,0
5167.440,-152.832,38.574,34.668,50.293,75.195,0
5167.443,20.508,30.762,27.344,83.984,33.691,0
5167.447,207.520,28.320,25.391,129.395,12.207,0
5167.451,52.246,34.180,31.738,100.586,-1.465,0
5167.455,-155.273,39.551,38.574,53.223,-2.930,0
5167.459,-34.668,34.180,30.762,79.590,4.883,0
5167.463,190.918,28.320,22.949,129.395,-4.395,0
5167.467,112.305,33.203,26.855,115.723,39.062,0
5167.471,-128.418,41.992,36.133,68.359,2.930,0
5167.475,-92.285,40.039,36.621,69.336,-0.977,0
5167.479,138.184,31.250,29.785,118.652,45.410,0
5167.483,164.062,32.227,31.738,127.930,5.859,0
5167.486,-63.965,39.551,41.504,77.148,4.395,0
5167.490,-129.395,37.109,41.016,56.152,43.945,0
5167.494,77.148,29.297,33.203,91.797,10.254,0
5167.498,200.684,30.762,32.715,126.953,28.320,0
5167.502,10.742,36.621,36.621,96.680,32.715,0
5167.506,-155.762,35.645,37.598,51.270,-22.949,0
5167.510,-0.488,29.297,33.691,71.289,35.156,0
5167.514,202.637,26.367,30.273,127.930,70.801,0
5167.518,62.500,31.250,35.156,108.887,14.160,0
5167.522,-146.973,30.273,41.016,57.617,-10.254,0
5167.526,-45.410,30.273,37.109,77.148,16.602,0
5167.529,179.688,30.762,30.273,110.840,44.922,0
5167.533,131.836,33.203,31.738,101.074,8.789,0
5167.537,-116.699,37.598,36.621,65.918,17.090,0
5167.541,-117.676,33.203,37.109,61.523,83.984,0
5167.545,118.164,28.809,31.738,89.844,61.035,0
5167.549,171.387,32.227,34.180,100.586,-1.953,0
5167.553,-59.570,36.621,42.969,51.758,2.930,0
5167.557,-143.066,34.668,40.039,26.855,22.461,0
5167.561,59.082,28.320,29.785,67.383,3.906,0
5167.565,195.801,24.414,23.926,82.031,-49.805,0
5167.568,10.742,26.367,28.809,48.340,-44.922,0
5167.572,-166.504,27.344,32.227,22.461,58.594,0
5167.576,-21.973,23.438,27.832,38.086,61.035,0
5167.580,202.148,24.414,28.320,79.102,27.344,0
5167.584,89.355,32.715,34.180,65.918,4.395,0
5167.588,-147.461,34.668,34.180,32.227,9.766,0
5167.592,-78.613,29.297,29.785,60.547,10.742,0
5167.596,166.016,24.414,27.832,124.512,32.715,0
5167.600,149.902,25.879,32.715,134.766,51.270,0
5167.604,-105.957,34.668,39.062,92.285,10.742,0
5167.608,-125.000,35.645,35.645,87.402,-0.488,0
5167.611,109.375,29.297,20.996,114.258,0.977,0
5167.615,196.289,30.273,25.391,133.789,-1.465,0
5167.619,-26.367,36.621,34.668,99.121,1.953,0
5167.623,-150.879,37.109,26.367,64.453,37.598,0
5167.627,39.062,31.250,22.461,97.656,16.602,0
5167.631,203.125,24.414,26.367,136.230,43.945,0
5167.635,32.227,28.809,33.691,109.863,17.090,0
5167.639,-157.715,36.621,36.621,76.660,-9.766,0
5167.643,-22.949,32.227,33.203,101.074,62.500,0
5167.647,194.336,24.902,29.297,141.602,69.824,0
5167.651,97.168,24.902,36.133,128.418,70.312,0
5167.654,-139.648,30.273,43.457,93.262,0.488,0
5167.658,-92.285,27.832,41.992,104.004,-38.086,0
5167.662,148.438,20.508,36.621,145.996,43.457,0
5167.666,153.320,26.367,34.180,145.996,80.078,0
5167.670,-87.891,36.133,35.156,95.703,19.531,0
5167.674,-123.535,38.574,40.527,83.496,26.367,0
5167.678,113.281,35.645,38.086,115.234,64.453,0
5167.682,208.984,23.926,28.809,123.535,50.293,0
5167.686,-12.207,21.484,36.133,81.055,3.906,0
5167.690,-148.926,28.809,37.109,57.617,-35.645,0
5167.693,25.879,25.391,20.996,79.590,-19.531,0
5167.697,220.215,24.414,17.090,113.281,37.109,0
5167.701,70.801,37.109,31.738,100.586,32.227,0
5167.705,-143.555,40.039,40.527,76.172,54.688,0
5167.709,-32.715,33.691,29.297,92.773,86.426,0
5167.713,201.660,29.785,18.066,121.094,26.367,0
5167.717,133.301,33.203,27.344,116.211,90.332,0
5167.721,-113.770,35.645,38.574,82.520,31.250,1
5167.725,-85.938,32.715,31.250,86.426,4.883,0
5167.729,148.926,30.762,23.438,114.258,49.316,0
5167.733,181.641,32.715,31.738,108.887,8.301,0
5167.736,-49.316,39.551,44.434,74.219,-13.184,0
5167.740,-132.812,33.203,40.527,60.059,-1.953,0
5167.744,80.566,24.902,27.344,98.145,50.293,0
5167.748,211.914,23.926,27.344,119.629,70.312,0
5167.752,2.441,28.809,33.691,65.430,46.387,0
5167.756,-159.668,28.809,31.250,16.113,4.395,0
5167.760,8.301,26.855,24.902,43.945,-22.949,0
5167.764,212.891,25.879,26.855,84.473,52.246,0
5167.768,80.078,32.227,35.645,56.152,41.992,0
5167.772,-136.719,35.645,38.574,6.348,-2.441,0
5167.776,-44.922,26.367,32.227,24.414,49.316,0
5167.779,187.012,21.973,28.809,66.895,34.180,0
5167.783,145.996,30.762,31.250,51.758,-8.789,0
5167.787,-102.051,35.645,35.156,0.977,26.367,0
5167.791,-100.098,31.738,35.156,-6.348,73.242,0
5167.795,126.953,25.879,30.273,33.203,50.293,0
5167.799,183.594,27.344,25.879,45.410,58.105,0
5167.803,-45.410,33.691,31.250,1.953,97.168,0
5167.807,-153.809,33.203,36.133,-20.020,47.363,0
5167.811,58.105,27.344,30.762,19.043,37.598,0
5167.815,215.332,24.902,27.344,60.547,87.402,0
5167.818,27.832,26.367,37.109,41.992,48.828,0
5167.822,-155.762,28.320,44.922,14.160,21.484,0
5167.826,-18.066,27.832,41.504,36.133,52.734,0
5167.830,200.684,22.949,37.109,71.289,34.668,0
5167.834,87.402,25.391,35.156,48.340,36.133,0
5167.838,-153.320,28.320,41.016,13.672,45.410,0
5167.842,-82.520,22.949,41.016,32.227,13.184,0
5167.846,159.180,23.438,34.180,58.105,35.645,0
5167.850,139.160,29.785,38.574,64.453,59.570,0
5167.854,-107.910,34.180,46.387,36.621,8.789,0
5167.858,-133.789,34.668,41.992,26.855,2.441,0
5167.861,95.703,27.344,33.203,46.387,9.277,0
5167.865,178.223,28.809,35.645,37.598,-5.371,0
5167.869,-43.457,35.645,43.457,-9.277,12.207,0
5167.873,-160.156,36.133,41.992,-53.223,18.066,0
5167.877,28.809,29.297,33.691,-40.527,4.395,0
5167.881,207.520,27.344,30.762,-4.395,14.160,0
5167.885,41.016,39.062,42.480,-27.832,61.035,0
5167.889,-166.016,40.527,41.016,-83.496,10.742,0
5167.893,-38.086,29.785,21.484,-100.586,2.930,0
5167.897,188.477,24.902,11.230,-86.426,49.316,0
5167.901,100.586,24.414,22.461,-101.562,20.020,0
5167.904,-130.371,29.297,38.086,-117.188,-8.301,0
5167.908,-91.797,33.691,39.062,-95.215,27.832,0
5167.912,144.043,29.785,33.203,-35.156,62.012,0
5167.916,159.668,32.227,34.668,-18.066,23.926,0
5167.920,-83.008,38.574,40.039,-49.316,-43.457,0
5167.924,-132.812,34.180,36.133,-56.152,-13.184,0
5167.928,89.844,26.855,25.391,-16.602,19.531,0
5167.932,197.266,25.391,23.926,4.395,30.762,0
5167.936,-8.301,29.297,33.691,-54.688,19.531,0
5167.940,-145.508,31.250,35.645,-88.867,-69.336,0
5167.943,29.297,26.855,27.344,-44.922,-1.953,0
5167.947,211.914,25.879,22.461,-1.465,89.844,0
5167.951,60.547,36.133,28.809,-23.926,45.410,0
5167.955,-145.020,41.016,36.133,-51.758,65.430,0
5167.959,-25.879,35.156,30.762,-27.344,80.566,0
5167.963,204.590,29.785,22.949,4.883,74.219,0
5167.967,130.859,34.180,28.809,-4.883,12.695,0
5167.971,-113.281,35.156,39.062,-40.527,-53.711,0
5167.975,-90.332,27.832,34.180,-37.598,-41.504,0
5167.979,142.578,26.367,29.297,11.230,-14.160,0
5167.983,177.734,34.180,34.180,26.855,7.812,0
5167.986,-55.176,41.016,37.598,-4.395,23.926,0
5167.990,-136.230,35.156,37.109,-11.230,0.000,0
5167.994,70.801,26.367,30.273,18.066,-29.297,0
5167.998,203.613,27.344,27.832,53.223,15.625,0
5168.002,10.742,34.180,37.598,33.203,36.133,0
5168.006,-149.414,36.133,41.016,7.812,-12.207,0
5168.010,6.348,30.273,33.691,36.621,16.113,0
