timestamps,TP9,AF7,AF8,TP10,Right AUX,Marker0
15965.409,-14.648,29.785,30.273,-19.043,28.320,0
15965.413,-21.484,29.297,32.715,-36.621,87.402,0
15965.417,-18.066,30.273,35.645,-54.688,47.852,0
15965.421,-8.789,32.715,30.762,-39.062,42.480,0
15965.425,8.789,34.180,26.855,-11.230,79.590,0
15965.428,15.137,36.621,32.715,31.250,60.059,0
15965.432,-25.391,39.062,35.645,0.977,37.109,0
15965.436,-19.043,41.992,32.715,-39.062,36.621,0
15965.440,13.184,37.109,30.273,-23.438,44.434,0
15965.444,17.578,32.227,30.762,-11.719,47.852,0
15965.448,-9.277,34.180,34.180,-29.297,8.789,0
15965.452,-14.648,32.715,35.645,-30.273,-6.836,0
15965.456,3.906,30.762,37.109,3.906,48.828,0
15965.460,23.926,30.762,38.086,33.691,35.645,0
15965.464,-1.953,29.785,41.016,10.742,-2.930,0
15965.467,0.488,28.809,42.969,-22.461,43.457,0
15965.471,-0.488,22.949,44.434,-12.207,22.461,0
15965.475,-9.277,21.973,43.945,30.273,35.645,0
15965.479,-5.859,25.391,46.875,20.020,36.621,0
15965.483,-16.602,25.391,48.340,-4.883,-3.418,0
15965.487,-10.254,29.297,45.410,20.508,19.531,0
15965.491,2.930,34.668,37.109,4.883,19.531,0
15965.495,8.789,33.203,37.109,-20.020,22.461,0
15965.499,24.414,30.273,44.434,13.672,55.176,0
15965.503,8.301,30.762,44.434,-8.301,75.195,0
15965.507,34.180,29.297,40.039,-38.574,16.602,0
15965.510,80.566,28.809,37.109,25.391,-31.250,0
15965.514,5.371,30.273,42.969,19.043,34.180,0
15965.518,-4.883,31.738,46.875,-17.578,43.457,0
15965.522,21.484,29.297,43.945,-4.883,25.391,0
15965.526,14.648,27.344,43.945,26.367,45.898,0
15965.530,11.230,29.785,45.898,9.277,57.617,0
15965.534,10.742,30.273,47.852,-0.977,64.453,0
15965.538,24.414,28.809,46.875,9.766,18.066,0
15965.542,25.391,29.785,42.969,-5.371,38.574,0
15965.546,11.230,32.715,43.457,0.488,63.965,0
15965.550,-4.395,34.180,47.852,-7.324,22.949,0
15965.553,7.324,35.156,47.363,3.906,43.945,0
15965.557,44.434,33.691,39.062,11.230,20.508,0
15965.561,18.066,34.180,37.598,20.508,-4.395,0
15965.565,-21.484,33.203,44.434,9.277,26.855,0
15965.569,-23.926,33.203,47.852,-17.578,46.875,0
15965.573,-14.160,30.762,42.969,0.000,75.195,0
15965.577,7.324,26.855,38.574,24.902,53.711,0
15965.581,-1.953,25.391,45.410,23.438,-1.953,0
15965.585,-16.113,27.344,46.387,-4.395,-7.324,0
15965.589,3.418,32.715,40.527,-34.180,-27.832,0
15965.592,12.695,31.738,40.039,5.859,-18.066,0
15965.596,-0.977,31.738,45.898,35.156,19.531,0
15965.600,-15.625,33.691,48.340,-6.836,44.434,0
15965.604,-18.066,32.227,43.945,-15.625,46.875,0
15965.608,-8.301,32.715,39.062,27.832,34.180,0
15965.612,22.949,34.668,41.992,14.160,41.016,0
15965.616,25.391,34.180,46.387,-19.531,29.297,0
15965.620,25.391,32.227,44.922,-22.461,-1.953,0
15965.624,42.480,29.785,43.457,-15.625,34.668,0
15965.628,55.664,30.762,41.992,-16.602,4.395,0
15965.632,65.430,34.668,45.410,-41.504,3.418,0
15965.635,41.992,36.133,42.969,-51.758,19.531,0
15965.639,37.598,33.691,38.086,20.996,-32.227,0
15965.643,65.430,32.227,42.480,35.156,17.578,0
15965.647,62.500,34.180,44.434,-27.832,-6.836,0
15965.651,37.598,36.621,45.898,-27.832,-35.645,0
15965.655,1.465,34.180,46.875,0.977,69.336,0
15965.659,15.137,33.203,41.992,37.598,61.523,0
15965.663,47.852,36.133,43.457,25.879,-6.836,0
15965.667,17.578,39.062,46.387,10.254,28.320,0
15965.671,-14.160,36.133,42.969,21.973,18.066,0
15965.675,16.113,32.227,41.992,44.922,-3.418,0
15965.678,14.160,29.785,44.434,52.734,44.922,0
15965.682,-33.203,29.297,49.316,22.949,6.348,0
15965.686,-27.832,34.180,47.852,8.789,25.391,0
15965.690,7.324,35.645,38.574,15.625,48.828,0
15965.694,-19.531,35.645,31.250,19.043,81.543,0
15965.698,-30.762,34.180,36.621,-8.789,13.672,0
15965.702,6.348,33.203,43.945,-9.277,-64.941,0
15965.706,27.344,32.715,41.504,10.254,-13.672,0
15965.710,24.414,30.762,38.574,29.297,29.297,0
15965.714,10.254,32.715,41.016,4.883,-7.324,1
15965.717,0.977,35.645,41.992,-11.230,-39.062,0
15965.721,-18.066,32.227,42.969,-17.090,-13.184,0
15965.725,8.789,31.738,40.039,-14.648,19.043,0
15965.729,49.316,36.621,39.062,2.441,25.879,0
15965.733,16.602,36.133,45.410,-16.113,-6.836,0
15965.737,21.484,34.180,44.434,-20.996,-32.227,0
15965.741,35.645,32.227,38.574,1.953,-6.348,0
15965.745,1.953,32.227,39.551,20.996,45.410,0
15965.749,0.000,33.691,44.922,5.371,52.734,0
15965.753,-0.488,34.180,46.875,-3.418,3.906,0
15965.757,6.836,35.645,45.410,30.762,-17.090,0
15965.760,44.434,36.133,40.039,55.664,18.555,0
15965.764,-2.930,35.645,44.922,26.367,14.648,0
15965.768,-45.898,35.645,48.828,9.277,0.488,0
15965.772,-27.832,30.762,48.340,37.598,20.020,0
15965.776,9.766,30.273,44.922,56.152,8.301,0
15965.780,22.461,36.621,41.992,35.156,45.898,0
15965.784,-7.324,35.645,46.875,12.207,69.824,0
15965.788,-7.324,30.762,48.828,29.785,-9.766,0
15965.792,13.184,31.738,44.434,57.617,-13.184,0
15965.796,16.113,36.621,45.410,53.711,40.039,0
15965.800,-5.371,34.668,48.340,25.391,3.418,0
15965.803,-27.832,30.762,45.410,-5.859,-25.879,0
15965.807,0.977,32.715,40.527,-14.160,1.953,0
15965.811,24.902,37.109,41.016,16.113,24.902,0
15965.815,-7.324,40.527,46.387,5.859,44.922,0
15965.819,-3.906,41.016,48.340,3.418,20.508,0
15965.823,0.977,36.621,48.340,35.156,10.742,0
15965.827,28.320,36.133,43.457,38.086,22.949,0
15965.831,50.781,38.574,41.016,-3.906,34.668,0
15965.835,27.344,36.133,45.410,-32.227,59.082,0
15965.839,31.738,31.738,47.363,-13.184,79.590,0
15965.842,40.039,34.668,41.504,29.297,59.082,0
15965.846,48.340,41.992,37.598,-4.883,-9.277,0
15965.850,61.035,45.410,41.016,-15.625,-34.668,0
15965.854,42.969,41.992,40.039,21.484,-10.254,0
15965.858,64.453,40.039,38.574,26.367,23.926,0
15965.862,74.219,37.109,41.504,32.715,-1.465,0
15965.866,39.551,38.574,43.945,-26.367,-83.496,0
15965.870,44.434,42.480,42.480,-16.113,-44.434,0
15965.874,46.387,41.016,39.551,30.762,22.461,0
15965.878,61.035,41.016,38.574,61.035,5.371,0
15965.882,51.270,42.969,40.527,40.039,-33.691,0
15965.885,3.418,42.969,39.062,27.344,-43.945,0
15965.889,-11.719,40.527,38.086,61.035,1.465,0
15965.893,18.066,37.109,41.504,81.543,32.227,0
15965.897,2.930,34.180,43.457,78.125,-32.715,0
15965.901,-36.133,33.203,42.969,16.113,-46.875,0
15965.905,-25.391,33.203,42.969,11.230,7.324,0
15965.909,-22.949,33.691,41.016,34.668,32.715,0
15965.913,-1.465,31.250,39.062,27.344,14.160,0
15965.917,8.789,30.273,43.945,17.090,35.645,0
15965.921,21.973,33.203,44.922,15.137,60.059,0
15965.925,34.180,34.180,39.062,45.898,36.133,0
15965.928,37.598,32.227,42.969,16.113,78.613,0
15965.932,53.711,33.203,46.387,-29.785,100.098,0
15965.936,72.754,33.203,46.387,-31.738,74.707,0
15965.940,36.133,34.180,44.434,25.879,41.992,0
15965.944,27.832,35.156,41.504,19.531,67.871,0
15965.948,37.598,33.203,40.039,-35.645,81.055,0
15965.952,-13.184,39.062,39.551,-7.812,19.043,0
15965.956,-7.812,39.062,37.109,-10.254,-1.953,0
15965.960,52.734,35.645,37.109,17.578,19.043,0
15965.964,49.316,38.086,43.945,39.551,34.668,0
15965.967,3.418,42.969,45.410,-16.602,17.578,0
15965.971,-7.812,42.480,40.527,-4.883,41.992,0
15965.975,32.227,37.598,34.668,41.992,33.691,0
15965.979,70.312,37.109,39.062,14.160,14.160,0
15965.983,42.480,38.574,45.410,11.719,-10.254,0
15965.987,0.977,37.598,38.574,5.371,-42.480,0
15965.991,14.648,38.086,35.156,20.020,34.668,0
15965.995,20.020,36.621,39.062,34.668,79.102,0
15965.999,36.133,36.621,41.504,-12.695,36.133,0
15966.003,60.059,41.504,39.551,-0.977,52.734,0
15966.007,66.895,40.039,40.039,4.883,60.547,0
15966.010,32.715,33.691,40.039,24.414,41.504,0
15966.014,30.273,31.738,40.039,30.273,12.695,0
15966.018,81.543,38.574,40.527,-6.348,36.133,0
15966.022,69.336,37.598,41.504,15.625,55.664,0
15966.026,39.062,28.320,41.016,29.785,60.059,0
15966.030,65.430,34.180,42.969,-13.184,22.949,0
15966.034,80.566,41.504,41.992,-22.949,-44.434,0
15966.038,65.918,39.551,36.621,-25.879,5.371,0
15966.042,110.352,33.691,37.598,-0.488,56.152,0
15966.046,85.938,33.203,39.551,-6.836,29.297,0
15966.050,57.129,41.992,40.039,-68.359,14.648,0
15966.053,97.168,44.922,38.086,-30.273,28.320,0
15966.057,119.629,38.086,36.133,14.160,20.020,0
15966.061,122.070,33.203,37.598,14.160,38.574,0
15966.065,98.145,33.203,39.551,-43.945,7.812,0
15966.069,75.684,31.738,38.086,-66.895,-10.254,0
15966.073,83.008,30.762,36.621,-24.902,38.086,0
15966.077,100.098,28.320,37.598,12.695,52.734,0
15966.081,124.023,27.344,42.480,3.418,1.465,0
15966.085,95.215,26.367,45.410,-46.875,32.715,0
15966.089,74.219,26.855,41.016,-30.273,57.617,0
15966.092,102.539,31.738,35.645,18.555,1.953,0
15966.096,102.539,34.180,41.504,-8.789,-29.297,0
15966.100,91.309,33.691,45.898,-31.738,-59.570,0
15966.104,84.473,32.227,43.457,-22.461,-2.930,0
15966.108,90.820,31.738,37.109,-15.137,2.441,0
15966.112,82.031,31.250,36.621,-13.184,-6.348,0
15966.116,65.430,30.762,37.109,-2.441,-1.953,0
15966.120,79.102,29.297,38.086,-23.926,33.691,0
15966.124,95.215,23.926,40.527,-24.414,50.781,0
15966.128,84.961,21.973,34.668,11.230,-4.883,0
15966.132,64.941,28.809,31.738,-33.203,-40.039,0
15966.135,19.043,26.855,33.691,-67.871,-36.133,0
15966.139,9.766,24.902,31.250,-15.137,9.277,0
15966.143,37.598,21.973,34.668,20.996,95.703,0
15966.147,32.227,21.973,39.551,-19.043,69.824,0
15966.151,50.293,23.926,36.621,-45.898,-12.207,0
15966.155,42.969,22.949,35.156,-32.715,-5.859,0
15966.159,10.742,21.973,33.691,2.930,33.203,0
15966.163,44.922,22.949,35.156,13.184,45.898,0
15966.167,37.598,21.484,38.574,-35.156,13.184,0
15966.171,35.156,17.578,40.039,-19.043,-5.371,0
15966.175,47.363,16.113,38.086,11.230,29.297,0
15966.178,39.551,20.996,39.551,7.324,41.016,0
15966.182,35.645,27.832,43.945,-24.902,22.461,0
15966.186,40.527,29.297,40.039,-7.324,9.277,0
15966.190,28.320,25.879,34.668,31.738,55.176,0
15966.194,37.109,27.344,35.156,3.418,29.785,0
15966.198,38.086,27.832,40.039,-16.602,-8.301,0
15966.202,27.344,25.391,42.480,-13.184,19.531,0
15966.206,44.434,25.391,37.598,11.230,14.160,0
15966.210,42.480,20.996,41.504,36.133,-1.953,0
15966.214,21.484,23.926,42.969,-1.953,-23.926,0
15966.217,17.578,30.762,37.598,-51.758,-2.441,0
15966.221,31.738,25.391,37.109,-42.969,39.062,0
15966.225,38.574,20.996,37.109,15.137,40.527,0
15966.229,23.926,21.484,40.039,15.137,72.754,0
15966.233,11.230,28.809,41.992,-5.859,38.574,0
15966.237,11.230,32.227,41.992,24.902,0.977,0
15966.241,37.109,25.391,40.039,36.133,43.945,0
15966.245,21.484,22.949,41.016,-4.395,-0.977,0
15966.249,-9.766,23.438,42.969,-39.551,-5.859,0
15966.253,-0.977,25.391,39.062,-26.855,62.012,0
15966.257,0.488,26.855,35.645,26.367,47.852,0
15966.260,11.230,25.391,38.574,56.152,31.738,0
15966.264,8.789,25.879,43.945,-2.441,26.367,0
15966.268,30.273,26.855,42.969,-26.855,6.836,0
15966.272,6.348,27.344,40.527,-10.254,50.293,0
15966.276,31.738,25.879,39.062,32.715,105.957,0
15966.280,41.992,26.855,40.039,23.438,72.754,0
15966.284,-11.719,29.297,44.922,-21.484,20.996,0
15966.288,5.371,29.297,45.898,-23.926,36.621,0
15966.292,41.016,27.344,37.598,36.621,24.902,0
15966.296,57.617,24.902,42.480,5.859,18.555,0
15966.300,25.879,25.879,46.387,-73.242,17.090,2
15966.303,15.137,29.297,42.480,-49.316,8.301,0
15966.307,34.668,23.926,43.945,15.137,19.043,0
15966.311,46.387,16.602,44.922,3.418,12.207,0
15966.315,30.273,20.020,47.363,-34.180,-8.789,0
15966.319,-6.348,23.438,44.922,-17.578,-16.113,0
15966.323,24.902,21.973,40.527,-4.395,54.199,0
15966.327,59.082,20.996,39.062,10.254,58.594,0
15966.331,47.363,25.879,40.039,47.363,38.574,0
15966.335,5.859,28.809,43.945,-3.906,54.199,0
15966.339,27.832,29.785,41.504,-58.105,62.500,0
15966.342,57.617,29.297,31.250,3.906,22.461,0
15966.346,19.043,23.926,38.086,10.254,-30.762,0
15966.350,25.391,19.531,48.340,-10.254,-9.277,0
15966.354,33.691,16.113,43.945,4.883,40.039,0
15966.358,23.438,17.578,40.527,15.625,2.930,0
15966.362,54.688,26.855,37.598,3.906,-34.180,0
15966.366,10.742,25.879,41.992,-9.277,-12.207,0
15966.370,-0.488,27.832,42.480,-19.531,-34.180,0
15966.374,38.574,31.738,36.621,-0.488,-18.066,0
15966.378,60.059,29.785,39.062,30.762,8.301,0
15966.382,35.645,33.691,44.434,8.301,24.414,0
15966.385,29.297,26.367,51.270,-17.578,28.809,0
15966.389,33.203,22.461,46.387,-30.762,-35.645,0
15966.393,41.504,32.227,38.086,-21.484,-3.418,0
15966.397,60.547,31.250,46.875,-13.184,49.805,0
15966.401,45.410,31.250,46.387,-14.160,20.508,0
15966.405,63.477,37.109,37.598,3.418,35.645,0
15966.409,67.383,33.691,34.668,-13.184,36.133,0
15966.413,28.809,29.785,40.527,-28.320,-13.184,0
15966.417,32.715,30.762,44.434,-35.156,-41.016,0
15966.421,52.734,32.715,40.039,-25.879,-28.320,0
15966.425,57.129,34.180,36.133,0.488,14.648,0
15966.428,53.223,34.668,37.109,19.043,65.430,0
15966.432,35.156,34.180,41.992,-16.602,28.809,0
15966.436,41.016,34.180,38.086,-20.020,-24.414,0
15966.440,55.664,30.762,31.250,16.113,36.133,0
15966.444,36.133,27.832,33.691,-21.484,56.641,0
15966.448,41.016,34.180,37.109,-24.902,-12.695,0
15966.452,23.438,30.762,40.039,1.465,-27.832,0
15966.456,48.828,27.832,40.039,10.742,67.871,0
15966.460,72.754,31.250,33.691,13.184,20.508,0
15966.464,22.949,28.809,38.086,18.555,6.836,0
15966.467,-8.301,28.809,40.527,6.348,44.922,0
15966.471,8.789,32.227,38.086,-14.160,34.668,0
15966.475,58.105,29.785,40.039,29.785,61.523,0
15966.479,52.734,30.762,40.039,15.137,35.645,0
15966.483,1.465,34.668,41.016,-26.367,30.762,0
15966.487,5.371,38.574,37.109,12.207,24.414,0
15966.491,33.691,36.133,33.203,49.805,8.789,0
15966.495,55.176,30.273,36.621,21.973,39.062,0
15966.499,35.645,28.320,45.410,1.465,52.246,0
15966.503,-6.348,24.902,45.410,-4.395,7.812,0
15966.507,38.086,26.855,37.598,-4.395,-23.438,0
15966.510,60.059,28.809,35.156,34.668,6.348,0
15966.514,-4.883,25.391,42.480,40.039,58.594,0
15966.518,-16.113,25.879,39.062,-33.691,33.203,0
15966.522,0.000,23.438,31.250,-21.973,53.223,0
15966.526,20.508,20.508,32.227,-0.977,28.809,0
15966.530,-4.395,21.973,34.668,-12.207,-44.922,0
15966.534,3.906,25.879,40.527,0.977,19.531,0
15966.538,15.137,26.855,42.480,-2.441,20.996,0
15966.542,49.316,27.832,36.133,20.508,-21.973,0
15966.546,64.453,32.227,40.039,91.309,42.969,0
15966.550,9.766,33.691,44.434,17.090,72.754,0
15966.553,0.488,27.832,41.016,-24.902,17.578,0
15966.557,10.742,27.344,37.598,28.809,4.883,0
15966.561,55.176,29.785,39.062,45.410,43.945,0
15966.565,54.199,32.715,42.969,-1.465,37.109,0
15966.569,59.082,34.668,44.434,-25.879,8.301,0
15966.573,53.711,29.785,41.504,43.457,46.387,0
15966.577,30.273,24.902,39.551,74.707,45.410,0
15966.581,45.410,29.297,46.875,-24.414,42.969,0
15966.585,28.320,35.156,47.852,-32.227,48.828,0
15966.589,39.062,33.691,42.480,11.719,27.344,0
15966.592,83.984,36.621,35.645,-2.930,83.984,0
15966.596,62.988,35.645,37.598,25.879,57.617,0
15966.600,5.859,29.297,42.480,10.254,11.230,0
15966.604,33.691,33.203,41.016,-32.227,20.996,0
15966.608,55.176,37.109,38.086,-14.648,8.789,0
15966.612,24.414,33.691,38.574,15.137,29.785,0
15966.616,0.977,34.180,42.480,-8.789,38.574,0
15966.620,-1.465,33.691,40.527,-32.715,51.270,0
15966.624,21.973,31.250,35.156,-15.137,20.996,0
15966.628,3.418,26.367,36.133,10.254,30.762,0
15966.632,12.207,32.227,36.621,-15.625,48.340,0
15966.635,19.531,35.645,39.062,-5.859,-24.414,0
15966.639,0.488,28.320,41.504,49.316,-13.672,0
15966.643,14.160,22.949,38.086,43.457,67.383,0
15966.647,13.184,27.344,38.574,-0.977,58.105,0
15966.651,-39.062,30.762,42.480,-10.254,35.645,0
15966.655,-31.250,28.809,40.527,11.719,-8.301,0
15966.659,18.066,28.320,35.156,47.852,26.855,0
15966.663,75.684,26.367,42.480,27.344,51.270,0
15966.667,31.738,24.902,47.363,-18.555,3.906,0
15966.671,-38.574,23.438,39.062,-6.836,31.250,0
15966.675,12.695,24.902,37.598,64.941,83.984,0
15966.678,-4.395,26.855,40.039,64.453,54.688,0
15966.682,-29.785,24.902,45.410,-12.207,60.059,0
15966.686,-20.996,22.949,49.805,-8.789,55.176,0
15966.690,-20.996,24.902,41.504,-3.906,39.062,0
15966.694,2.441,27.832,33.203,-5.371,85.938,0
15966.698,20.508,26.855,43.457,19.043,52.734,0
15966.702,-25.391,24.902,49.805,19.531,21.973,0
15966.706,-45.410,23.438,41.992,-25.879,53.223,0
15966.710,-21.484,22.949,37.109,-1.465,51.270,0
15966.714,-59.082,28.809,38.574,8.301,86.914,0
15966.717,-72.754,29.785,44.434,-9.277,53.223,0
15966.721,-55.664,25.879,47.852,11.230,48.340,0
15966.725,-33.203,24.414,38.086,41.504,95.703,0
15966.729,-24.902,23.926,38.086,12.695,93.262,0
15966.733,-73.730,21.484,46.875,-29.785,24.414,0
15966.737,-83.496,18.555,45.410,8.301,-54.199,0
15966.741,-57.617,20.996,39.551,18.066,-38.086,0
15966.745,-65.430,29.297,38.086,-22.949,15.137,0
15966.749,-84.961,32.715,43.457,-20.996,49.316,0
15966.753,-82.520,30.762,45.410,-2.930,49.316,0
15966.757,-68.359,27.832,38.574,8.789,-11.230,0
15966.760,-20.020,24.414,39.062,21.973,-12.695,0
15966.764,-15.137,25.879,41.992,4.395,50.781,0
15966.768,-76.660,26.367,41.504,35.645,44.434,0
15966.772,-68.848,24.902,38.086,23.438,41.992,0
15966.776,-35.156,29.297,29.785,-34.180,60.547,0
15966.780,-57.617,32.227,34.180,4.395,45.410,0
15966.784,-69.824,28.320,46.875,29.785,36.133,0
15966.788,-51.270,25.391,43.457,13.184,-10.254,0
15966.792,-8.789,25.879,36.133,1.953,29.785,0
15966.796,-26.855,25.391,34.668,26.855,66.406,0
15966.800,-93.262,22.949,36.133,12.695,50.293,0
15966.803,-58.105,24.902,36.133,-64.941,8.789,0
15966.807,-14.648,25.391,29.785,-32.227,1.953,0
15966.811,5.371,28.809,29.785,12.695,14.648,0
15966.815,-14.648,33.691,38.574,-12.695,7.812,0
15966.819,-40.527,35.156,39.551,-37.109,14.648,0
15966.823,-2.930,32.715,34.668,-12.695,13.672,0
15966.827,-20.020,28.320,32.227,4.883,15.137,0
15966.831,-33.203,29.785,36.133,-21.484,13.184,1
15966.835,-21.484,30.762,41.504,-25.879,-8.301,0
15966.839,10.742,24.902,41.016,-19.043,29.297,0
15966.842,25.879,27.344,37.598,8.301,57.129,0
15966.846,-36.133,29.785,40.039,3.906,90.820,0
15966.850,-1.953,25.879,41.992,2.930,53.711,0
15966.854,10.254,28.809,40.039,24.902,-50.293,0
15966.858,1.465,32.227,39.062,21.484,-24.414,0
15966.862,16.113,31.250,39.062,-26.367,-2.441,0
15966.866,-27.344,30.762,43.457,-42.969,2.930,0
15966.870,-28.320,28.809,46.875,-16.602,31.250,0
15966.874,23.438,25.879,41.992,84.961,40.527,0
15966.878,11.719,23.926,39.062,67.871,65.918,0
15966.882,-35.156,26.367,44.434,-51.270,43.945,0
15966.885,-26.855,25.879,41.992,-41.504,39.062,0
15966.889,6.836,22.461,33.203,-11.230,27.344,0
15966.893,19.531,24.414,32.715,37.109,-1.953,0
15966.897,-6.348,27.344,39.062,14.648,22.949,0
15966.901,-20.020,24.414,45.410,-0.488,20.020,0
15966.905,-24.414,19.531,43.457,39.062,40.527,0
15966.909,-1.953,20.508,37.109,21.484,53.711,0
15966.913,14.160,28.809,39.062,-0.488,-38.086,0
15966.917,-14.160,35.156,38.574,-34.180,-3.906,0
15966.921,-32.227,34.180,36.133,-18.555,45.898,0
15966.925,2.441,25.879,41.016,20.508,-20.996,0
15966.928,25.879,26.367,48.340,40.039,-27.832,0
15966.932,-12.695,30.762,50.781,1.953,-3.906,0
15966.936,-38.086,29.785,41.992,-16.602,37.109,0
15966.940,0.000,32.227,36.621,14.160,39.062,0
15966.944,13.184,28.809,35.645,17.578,14.648,0
15966.948,0.977,31.738,37.598,-27.344,48.828,0
15966.952,-15.625,35.156,45.898,-13.672,79.590,0
15966.956,-0.977,30.762,45.410,12.207,67.383,0
15966.960,24.902,30.762,33.691,18.555,40.527,0
15966.964,1.465,28.809,45.410,20.020,47.363,0
15966.967,-17.578,30.273,58.594,6.836,46.387,0
15966.971,15.625,34.668,47.852,0.977,27.344,0
15966.975,43.457,35.645,40.039,21.484,39.551,0
15966.979,27.344,35.156,44.922,54.688,82.031,0
15966.983,-10.742,29.297,48.340,15.625,69.336,0
15966.987,2.441,28.320,46.875,8.301,-13.672,0
15966.991,47.363,31.738,42.969,23.438,-4.395,0
15966.995,46.387,31.250,43.457,23.926,20.996,0
15966.999,-7.812,26.367,51.758,22.461,41.992,0
15967.003,12.695,27.832,47.363,-2.930,24.902,0
15967.007,13.672,34.180,41.992,24.902,-23.438,0
15967.010,0.488,32.715,42.969,62.988,50.293,0
15967.014,9.277,35.156,42.969,-1.953,68.359,0
15967.018,27.344,37.109,41.504,-43.457,1.465,0
15967.022,17.090,36.621,44.922,28.809,48.340,0
15967.026,23.926,35.156,43.457,44.434,38.086,0
15967.030,33.203,36.133,42.969,0.977,31.250,0
15967.034,8.301,41.016,41.016,-7.324,67.383,0
15967.038,-10.742,38.086,41.016,-17.090,81.543,0
15967.042,44.922,36.621,41.504,-3.906,83.496,0
15967.046,35.156,37.109,39.551,21.973,42.480,0
15967.050,-33.203,31.738,45.410,28.320,49.805,0
15967.053,9.766,31.250,43.457,9.277,111.328,0
15967.057,41.504,34.668,38.574,-4.883,71.777,0
15967.061,-1.465,31.738,37.598,6.348,65.918,0
15967.065,-19.531,30.273,38.086,3.418,103.516,0
15967.069,10.742,29.297,40.039,19.043,70.312,0
15967.073,28.320,30.273,32.227,-7.812,70.312,0
15967.077,46.387,27.832,33.203,-1.953,49.316,0
15967.081,38.086,27.832,37.109,9.277,69.824,0
15967.085,16.602,36.621,35.156,-32.715,24.414,0
15967.089,0.000,38.574,37.109,-19.531,-9.766,0
15967.092,30.273,38.574,33.691,34.180,32.715,0
15967.096,27.344,34.668,41.504,47.852,34.180,0
15967.100,-41.992,27.344,44.434,8.301,2.930,0
15967.104,-36.621,31.738,32.227,-39.551,3.418,0
15967.108,14.648,31.738,31.738,8.301,60.059,0
15967.112,27.832,31.738,36.621,40.039,77.148,0
15967.116,-19.043,31.250,41.016,7.324,28.809,0
15967.120,-33.691,33.203,37.109,-8.789,-2.441,0
15967.124,-13.672,37.109,32.227,-2.441,57.129,0
15967.128,-7.812,36.621,35.156,27.344,76.660,0
15967.132,-36.133,31.250,38.574,8.301,21.484,0
15967.135,-60.059,25.879,40.527,-19.043,19.043,0
15967.139,-37.598,29.297,31.738,4.395,13.184,0
15967.143,-12.207,36.621,29.785,24.414,11.230,0
15967.147,-59.570,32.227,38.086,35.645,55.664,0
15967.151,-62.500,26.367,37.598,8.301,61.035,0
15967.155,-90.332,29.785,34.668,-2.441,29.785,0
15967.159,-56.152,37.109,27.344,11.719,46.875,0
15967.163,-42.480,40.527,31.738,-1.953,80.566,0
15967.167,-121.094,37.109,38.574,-44.434,52.734,0
15967.171,-87.402,36.133,38.574,3.906,41.992,0
15967.175,-38.086,28.809,39.062,65.430,66.895,0
15967.178,-72.266,29.297,39.062,51.270,52.734,0
15967.182,-96.191,34.668,39.062,12.207,28.320,0
15967.186,-99.121,39.551,34.668,-56.641,58.105,0
15967.190,-50.293,40.527,31.250,10.254,62.012,0
15967.194,-13.672,40.527,31.738,60.059,41.992,0
15967.198,-10.254,41.504,39.062,31.738,41.016,0
15967.202,-32.715,35.156,42.480,29.297,35.156,0
15967.206,-78.613,36.621,33.203,32.227,56.641,0
15967.210,-41.992,32.715,34.668,53.223,58.105,0
15967.214,-71.289,27.832,41.016,42.480,93.262,0
15967.217,-108.887,33.203,38.574,-9.277,131.836,0
15967.221,-79.590,34.180,40.039,18.555,54.688,0
15967.225,-78.613,37.109,33.203,12.695,-12.207,0
15967.229,-53.711,45.898,25.879,-41.504,21.973,0
15967.233,-71.777,44.922,33.691,-25.879,47.363,0
15967.237,-92.773,31.250,41.992,53.223,60.547,0
15967.241,-67.871,31.738,41.016,93.262,98.633,0
15967.245,-22.461,42.969,35.156,21.973,104.004,0
15967.249,-25.879,42.480,37.109,-1.953,61.035,0
15967.253,-37.598,37.598,42.969,22.461,30.273,0
15967.257,-61.523,37.109,36.621,50.781,35.645,0
15967.260,-69.336,35.645,39.062,83.984,38.086,0
15967.264,-53.223,36.621,49.316,54.199,22.461,0
15967.268,-69.824,42.969,43.457,-18.066,-12.207,0
15967.272,-69.336,44.922,31.738,6.348,-15.625,0
15967.276,-83.008,37.109,34.180,79.102,54.199,0
15967.280,-94.238,37.109,41.992,36.133,122.559,0
15967.284,-62.012,37.598,48.340,-0.977,103.027,0
15967.288,-52.734,37.598,47.363,28.320,55.176,0
15967.292,-85.449,39.062,41.504,65.430,86.426,0
15967.296,-76.172,38.086,41.992,58.594,117.188,0
15967.300,-74.707,36.621,43.945,-6.348,56.152,0
15967.303,-72.754,35.645,43.457,0.000,23.926,0
15967.307,-49.316,37.109,37.598,56.152,95.703,0
15967.311,-77.637,37.109,41.504,48.828,54.688,0
15967.315,-75.195,37.598,49.805,40.039,-9.766,0
15967.319,-64.453,32.715,50.293,40.039,23.438,0
15967.323,-89.844,24.414,47.852,31.250,-20.508,0
15967.327,-78.125,27.832,39.551,18.555,-14.160,0
15967.331,-81.055,34.668,39.062,18.066,15.625,0
15967.335,-27.832,37.598,39.062,-9.766,8.789,0
15967.339,-26.367,40.039,30.273,-3.418,33.203,0
15967.342,-21.484,41.504,32.715,60.059,71.777,0
15967.346,-24.902,33.203,43.457,27.832,98.145,0
15967.350,-81.055,29.785,48.828,0.488,85.449,0
15967.354,-14.160,29.785,42.969,13.672,77.637,0
15967.358,8.301,22.461,32.715,8.301,59.082,0
15967.362,-24.414,20.020,35.645,10.742,102.051,0
15967.366,-35.645,20.996,47.363,50.293,42.969,0
15967.370,-60.059,24.414,41.504,39.062,-74.219,0
15967.374,-22.949,31.738,33.203,-23.438,19.531,0
15967.378,6.348,32.715,34.668,-7.812,83.008,0
15967.382,-19.043,31.250,39.551,7.812,42.969,0
15967.385,-38.574,29.297,43.945,8.789,81.543,0
15967.389,10.742,28.320,39.062,-3.906,83.984,0
15967.393,19.531,25.879,33.203,9.766,42.969,0
15967.397,-8.789,21.484,44.434,18.066,14.648,0
15967.401,-13.184,22.461,50.293,28.320,26.367,0
15967.405,-15.137,24.414,42.969,-3.906,38.086,0
15967.409,20.020,28.320,35.645,-1.465,74.707,0
15967.413,12.207,29.785,35.645,20.996,84.473,0
15967.417,-23.438,25.391,41.504,-20.996,31.738,0
15967.421,-15.137,26.855,42.480,-24.414,11.719,0
15967.425,7.812,25.879,39.062,10.254,26.855,0
15967.428,30.273,20.508,42.480,40.039,49.805,0
15967.432,-20.508,20.020,45.898,1.465,19.531,0
15967.436,-70.801,26.367,38.574,-34.668,20.996,0
15967.440,-38.086,26.855,34.668,4.395,41.504,0
15967.444,0.000,25.879,36.621,-5.859,44.434,0
15967.448,-2.930,28.320,37.109,-48.340,5.371,0
15967.452,-4.883,31.250,36.133,-36.621,-4.395,0
15967.456,19.531,34.668,27.832,-35.156,108.887,0
15967.460,4.395,28.320,28.809,-5.371,102.051,0
15967.464,-20.996,29.785,32.715,4.883,77.637,0
15967.467,-14.648,34.180,31.250,-67.871,80.566,0
15967.471,-48.340,28.809,35.645,-54.199,73.242,0
15967.475,-48.340,26.855,39.062,6.348,63.965,0
15967.479,-7.324,28.809,40.039,-13.672,86.914,0
15967.483,-11.230,26.367,39.062,-14.648,101.074,1
15967.487,-31.250,23.438,41.992,10.254,98.145,0
15967.491,-9.766,28.320,35.156,-11.230,85.938,0
15967.495,14.160,37.598,23.926,-5.859,30.273,0
15967.499,-37.598,33.203,30.273,-8.301,26.855,0
15967.503,-11.230,27.832,38.574,-56.152,58.594,0
15967.507,4.883,33.691,37.109,-29.297,34.668,0
15967.510,-20.508,34.668,31.738,-5.371,25.879,0
15967.514,-20.508,30.762,35.156,-0.977,27.344,0
15967.518,41.992,32.715,34.180,-30.273,4.883,0
15967.522,34.180,28.320,35.156,-32.227,28.809,0
15967.526,-72.266,19.531,37.109,0.000,29.785,0
15967.530,-41.016,21.973,35.156,-23.438,41.016,0
15967.534,-23.926,30.273,35.156,-40.527,100.586,0
15967.538,-41.992,28.320,34.668,-28.809,63.477,0
15967.542,-17.090,25.391,32.227,-23.438,-3.906,0
15967.546,-24.414,25.879,35.156,4.395,-11.719,0
15967.550,-42.969,24.902,39.551,20.020,13.672,0
15967.553,-38.574,22.461,45.410,-28.320,30.273,0
15967.557,-33.691,24.902,37.109,-32.715,33.691,0
15967.561,-13.184,20.996,38.086,19.043,50.781,0
15967.565,-55.176,10.742,47.852,0.977,69.336,0
15967.569,-88.867,17.578,35.156,-19.531,30.762,0
15967.573,-38.086,26.855,30.273,-3.418,16.113,0
15967.577,-18.555,26.855,35.156,-33.691,38.086,0
15967.581,-14.648,25.879,41.504,0.488,17.090,0
15967.585,-57.617,25.879,39.062,-15.137,7.324,0
15967.589,-41.016,30.762,33.203,-14.160,15.137,0
15967.592,-29.785,26.855,36.133,41.016,79.590,0
15967.596,-15.137,16.113,44.922,6.348,100.586,0
15967.600,-15.137,14.648,41.992,-17.090,64.941,0
15967.604,-74.219,24.414,30.762,-0.488,30.273,0
15967.608,-13.672,28.320,27.832,10.742,51.270,0
15967.612,23.926,23.926,32.715,-4.883,90.332,0
15967.616,-25.879,23.438,37.109,-22.461,61.523,0
15967.620,-7.812,29.785,35.156,-20.996,15.137,0
15967.624,4.395,30.273,34.668,20.020,35.645,0
15967.628,-7.812,26.855,33.203,2.930,29.297,0
15967.632,-19.531,28.809,36.133,-38.086,-20.020,0
15967.635,-6.836,27.832,41.992,-46.387,-41.504,0
15967.639,-0.488,24.414,36.133,-35.645,-28.320,0
15967.643,-25.879,22.461,28.809,-4.395,29.785,0
15967.647,-21.484,29.785,28.809,-14.648,44.434,0
15967.651,-20.508,34.180,32.715,-54.199,12.207,0
15967.655,10.742,30.762,32.715,-69.336,4.883,0
15967.659,8.789,22.949,31.738,-19.531,39.551,0
15967.663,-33.203,22.461,35.645,-7.812,55.664,0
15967.667,-31.250,26.855,42.969,-48.828,37.109,0
15967.671,-5.859,22.949,44.922,-20.020,5.859,0
15967.675,-18.066,26.367,38.086,25.391,43.457,0
15967.678,-4.883,28.320,40.527,17.578,37.109,0
15967.682,-2.441,29.785,41.992,-31.738,27.832,0
15967.686,-24.902,26.367,41.504,-41.992,54.688,0
15967.690,-9.766,22.949,34.180,-38.086,86.426,0
15967.694,20.020,27.344,31.738,0.488,13.184,0
15967.698,0.977,35.156,39.551,-18.066,-30.762,0
15967.702,-0.977,36.133,39.551,-31.738,6.348,0
15967.706,27.832,31.250,36.621,26.855,22.949,0
15967.710,12.695,29.297,35.156,24.902,23.926,0
15967.714,-29.785,28.809,41.504,-10.254,27.344,0
15967.717,-2.441,29.297,43.457,-38.086,21.484,0
15967.721,9.277,25.391,44.922,-24.414,33.203,0
15967.725,-36.133,25.879,41.016,6.348,66.895,0
15967.729,-1.953,33.691,34.180,22.461,108.887,0
15967.733,-3.418,29.785,43.945,-10.742,73.730,0
15967.737,-24.902,22.949,45.410,-42.969,38.574,0
15967.741,-5.859,22.949,33.691,-21.484,51.758,0
15967.745,-29.297,22.949,33.203,7.812,57.129,0
15967.749,-29.785,26.855,35.645,-17.578,135.254,0
15967.753,-30.762,26.855,35.156,-51.758,85.938,0
15967.757,-27.344,20.508,34.180,-27.344,16.113,0
15967.760,-33.203,20.508,32.715,-10.254,60.547,0
15967.764,-66.895,20.508,41.016,-18.555,60.059,0
15967.768,-69.824,16.113,41.504,-1.465,33.691,0
15967.772,-19.531,25.391,32.715,-4.395,23.926,0
15967.776,8.789,25.879,28.809,-28.320,4.883,0
15967.780,-7.812,22.949,28.809,18.066,10.254,0
15967.784,-61.035,27.344,38.574,-15.625,36.133,0
15967.788,-61.035,24.414,40.527,-76.172,70.312,0
15967.792,-64.941,24.414,30.762,-15.137,76.660,0
15967.796,-56.641,25.391,30.762,-20.996,41.016,0
15967.800,-13.672,23.438,39.551,-10.254,3.418,0
15967.803,-57.617,25.391,41.504,37.598,-14.160,0
15967.807,-59.082,28.320,36.133,1.465,18.066,0
15967.811,-38.574,25.879,34.180,-40.527,7.324,0
15967.815,-64.453,28.320,37.598,-23.926,4.395,0
15967.819,-44.434,37.598,38.086,-8.789,23.438,0
15967.823,-33.691,33.691,34.668,-34.180,17.578,0
15967.827,-46.387,19.531,35.645,-28.320,51.758,0
15967.831,-39.062,16.113,43.457,7.324,50.293,0
15967.835,-27.832,17.578,42.969,-33.691,-8.301,0
15967.839,-11.719,10.742,38.086,-22.949,-35.645,0
15967.842,-33.203,15.137,35.645,9.277,9.766,0
15967.846,-69.824,22.949,34.180,-17.090,70.312,0
15967.850,-58.594,20.020,38.086,-35.156,53.711,0
15967.854,-69.824,16.113,40.039,-48.828,47.363,0
15967.858,-60.547,17.578,34.180,11.719,60.547,0
15967.862,-47.852,20.020,36.133,20.020,40.527,0
15967.866,-57.617,20.508,44.434,-32.227,83.984,0
15967.870,-22.949,23.926,41.992,-21.973,74.707,0
15967.874,-30.762,24.414,35.156,9.766,20.020,0
15967.878,-65.918,20.020,34.668,8.301,0.977,0
15967.882,-59.570,18.555,40.527,-9.766,35.645,0
15967.885,-28.320,25.391,37.598,-31.250,45.898,0
15967.889,-7.324,24.414,36.621,-19.043,-17.090,0
15967.893,-11.719,20.020,37.109,28.809,13.184,0
15967.897,-41.504,25.391,34.668,-7.324,63.965,0
15967.901,-68.359,25.391,38.574,-35.156,48.828,0
15967.905,-37.598,24.902,37.598,-4.395,42.969,0
15967.909,10.254,25.879,33.203,3.418,81.055,0
15967.913,-29.297,20.996,37.598,-19.531,54.199,0
15967.917,-69.824,17.090,43.945,-29.785,1.465,0
15967.921,-28.809,19.531,44.434,-13.672,14.648,0
15967.925,-42.969,14.648,46.387,-0.488,44.434,0
15967.928,-55.664,18.555,44.922,-5.371,89.844,0
15967.932,-40.527,19.043,46.387,2.930,2.441,0
15967.936,-32.715,17.578,43.457,-19.043,-66.895,0
15967.940,-31.250,24.902,37.598,2.930,5.371,0
15967.944,-51.270,22.949,35.645,44.434,55.176,0
15967.948,-24.414,23.926,35.156,3.418,41.504,0
15967.952,6.836,21.973,43.945,-20.508,11.719,0
15967.956,-33.691,15.625,45.410,-16.113,44.922,0
15967.960,-39.551,23.926,39.551,-10.254,76.172,0
15967.964,-37.109,23.926,47.852,33.691,30.762,0
15967.967,-53.711,19.043,52.246,15.625,-15.137,0
15967.971,0.488,20.996,44.922,-29.785,18.066,0
15967.975,11.719,21.973,38.086,-18.555,57.129,0
15967.979,-41.016,25.391,36.133,0.000,29.297,0
15967.983,6.836,23.438,36.621,-2.441,-5.859,0
15967.987,-24.902,20.996,33.203,-13.184,37.109,0
15967.991,-53.711,20.508,30.762,9.277,39.551,0
15967.995,-27.832,19.531,37.109,17.090,-10.254,0
15967.999,-24.902,21.484,41.992,-40.527,49.316,0
15968.003,3.906,21.484,39.551,-4.395,78.125,0
15968.007,-23.926,16.602,40.039,43.457,41.992,1
15968.010,-9.766,18.066,35.645,25.879,89.355,0
15968.014,-11.230,21.484,38.086,13.184,81.055,0
15968.018,-28.320,21.484,38.086,-12.207,21.973,0
15968.022,18.066,22.949,35.645,-3.906,22.461,0
15968.026,7.812,22.461,35.645,16.602,14.648,0
15968.030,-3.906,21.973,31.250,14.648,-3.418,0
15968.034,4.883,23.926,33.203,3.906,34.180,0
15968.038,-10.742,24.902,35.156,0.000,-3.906,0
15968.042,-3.418,23.438,36.133,32.715,56.152,0
15968.046,-13.672,24.414,35.156,21.973,124.023,0
15968.050,-18.066,28.809,36.621,-45.410,22.461,0
15968.053,8.789,25.879,42.480,-14.160,-42.969,0
15968.057,-14.160,26.367,35.645,-9.766,-27.832,0
15968.061,-25.391,27.832,31.738,-19.531,3.418,0
15968.065,-20.020,24.902,42.480,-0.977,-9.277,0
15968.069,-23.438,26.367,37.109,-16.113,-22.949,0
15968.073,-28.320,25.879,34.180,23.926,-11.719,0
15968.077,-19.043,26.855,35.645,47.852,52.246,0
15968.081,-7.812,27.832,34.668,-13.672,86.914,0
15968.085,14.160,20.996,39.062,-53.223,16.602,0
15968.089,9.766,22.949,29.297,-41.504,50.293,0
15968.092,-33.691,24.414,30.273,-19.043,87.402,0
15968.096,-9.277,20.020,41.992,15.625,36.133,0
15968.100,-13.184,20.996,44.434,18.555,34.668,0
15968.104,-36.621,22.949,44.434,-13.184,91.797,0
15968.108,-0.488,25.879,35.645,-18.555,73.730,0
15968.112,-4.883,27.832,32.715,3.418,17.090,0
15968.116,-65.430,21.973,39.551,-26.855,49.316,0
15968.120,-50.293,12.695,45.898,22.949,51.270,0
15968.124,4.395,18.555,40.039,34.180,59.570,0
15968.128,2.441,28.320,32.715,-9.277,14.160,0
15968.132,25.879,28.320,40.527,9.277,-39.062,0
15968.135,-17.578,25.391,44.434,23.926,-63.965,0
15968.139,-57.617,24.414,37.109,4.883,-17.578,0
15968.143,-5.859,25.391,29.297,2.930,39.551,0
15968.147,-0.977,26.855,34.180,13.672,17.578,0
15968.151,-13.672,31.250,36.133,8.301,9.277,0
15968.155,5.859,30.762,31.738,-23.926,8.301,0
15968.159,4.883,20.508,33.203,8.789,10.742,0
15968.163,-49.805,22.461,36.133,28.809,26.855,0
15968.167,5.859,32.227,37.598,12.207,45.898,0
15968.171,11.719,30.762,42.480,48.828,62.012,0
15968.175,-27.344,23.926,41.992,55.664,55.176,0
15968.178,2.930,22.461,36.133,23.438,18.555,0
15968.182,7.812,29.297,38.574,-10.254,0.977,0
15968.186,-2.930,29.785,40.527,-23.438,0.000,0
15968.190,28.809,23.926,39.551,36.621,15.625,0
15968.194,35.156,23.926,39.551,63.965,3.418,0
15968.198,-18.555,28.809,38.086,-0.977,9.766,0
15968.202,-34.180,24.414,40.039,-29.297,83.008,0
15968.206,3.418,23.438,40.039,-9.766,114.746,0
15968.210,-1.465,31.250,31.738,18.555,70.312,0
15968.214,-6.836,29.785,34.180,8.789,53.223,0
15968.217,-3.418,21.484,43.945,-2.930,32.715,0
15968.221,-31.250,23.438,39.551,-8.301,71.777,0
15968.225,3.906,25.391,33.691,3.906,66.406,0
15968.229,13.672,19.043,38.574,55.664,77.148,0
15968.233,-12.207,23.438,41.016,14.160,65.430,0
15968.237,-1.953,26.855,37.598,-61.035,-37.598,0
15968.241,22.949,20.996,35.645,-11.719,40.039,0
15968.245,5.371,19.531,34.180,9.766,119.141,0
15968.249,-23.926,18.066,36.621,-2.441,91.797,0
15968.253,-22.461,13.672,44.434,25.391,51.270,0
15968.257,31.738,18.555,39.062,44.434,56.641,0
15968.260,40.527,26.855,27.344,8.301,49.805,0
15968.264,-27.832,23.926,34.668,-24.902,54.199,0
15968.268,-44.434,22.949,38.086,-8.301,3.906,0
15968.272,6.836,27.344,34.180,24.414,3.906,0
15968.276,37.109,20.020,36.133,62.012,79.102,0
15968.280,-10.742,16.602,36.621,59.570,-5.371,0
15968.284,19.043,20.508,37.598,-4.883,-40.039,0
15968.288,27.344,19.043,41.016,1.953,55.664,0
15968.292,-5.859,8.301,43.457,48.340,18.555,0
15968.296,23.926,13.184,39.551,40.039,18.555,0
15968.300,20.996,22.949,42.480,16.113,59.082,0
15968.303,1.465,13.672,43.945,-45.898,36.133,0
15968.307,28.809,15.137,34.180,-21.973,-16.602,0
15968.311,28.809,23.438,31.250,30.762,-9.766,0
15968.315,-32.715,20.508,40.039,0.488,62.988,0
15968.319,-37.109,13.184,47.363,-26.367,58.105,0
15968.323,12.695,13.672,47.363,-7.812,49.805,0
15968.327,20.020,17.578,41.992,17.090,31.738,0
15968.331,29.297,18.066,42.480,11.230,-34.180,0
15968.335,6.348,16.602,43.945,-24.414,-25.391,0
15968.339,8.789,18.555,38.574,31.738,-1.465,0
15968.342,65.430,18.066,39.062,23.438,43.457,0
15968.346,57.129,16.113,52.246,10.254,56.152,0
15968.350,-2.930,16.602,50.781,39.551,24.902,0
15968.354,-28.320,19.531,36.621,5.859,40.039,0
15968.358,18.066,17.090,33.691,-12.207,55.664,0
15968.362,41.992,17.578,38.086,20.508,40.039,0
15968.366,20.996,20.020,41.504,10.742,22.461,0
15968.370,-0.488,10.254,44.434,-4.883,17.578,0
15968.374,-7.812,9.277,45.898,38.574,17.090,0
15968.378,31.250,16.113,45.410,82.520,2.930,0
15968.382,50.293,15.137,47.852,30.273,18.066,0
15968.385,10.254,21.973,41.992,-54.688,70.312,0
15968.389,5.371,22.461,36.133,-12.695,43.945,0
15968.393,21.484,13.184,38.086,40.039,21.973,0
15968.397,-15.137,8.789,45.898,59.570,8.789,0
15968.401,15.625,8.301,47.363,9.277,33.203,0
15968.405,62.012,14.160,35.645,-19.043,61.523,0
15968.409,12.207,20.996,28.320,-3.418,7.812,0
15968.413,0.000,20.508,33.691,-18.066,20.020,0
15968.417,18.066,19.043,36.621,-18.555,41.504,0
15968.421,36.133,20.508,33.203,-25.391,-24.902,0
15968.425,28.809,17.090,31.738,17.090,20.020,0
15968.428,18.555,13.184,35.156,4.395,63.965,0
15968.432,50.293,14.648,40.527,-33.203,11.230,0
15968.436,43.945,16.113,38.086,-0.977,2.930,0
15968.440,20.020,15.625,36.133,8.789,55.664,0
15968.444,56.152,20.508,31.738,8.789,92.285,0
15968.448,60.059,24.414,33.203,-23.438,25.391,0
15968.452,61.523,19.043,39.551,-6.836,-60.547,0
15968.456,60.059,14.160,40.039,44.434,28.809,0
15968.460,48.340,12.695,35.156,-6.836,43.457,0
15968.464,53.711,9.766,38.086,-17.090,-46.387,0
15968.467,49.316,15.625,40.527,-22.949,-15.137,0
15968.471,51.758,26.855,35.156,-38.086,61.035,0
15968.475,53.223,18.066,34.668,-4.883,57.617,0
15968.479,30.273,10.742,43.457,24.902,30.762,0
15968.483,83.984,22.949,40.039,29.785,48.340,0
15968.487,76.172,29.785,31.250,-15.625,20.020,0
15968.491,32.715,18.066,31.738,-21.973,20.020,0
15968.495,74.219,12.695,35.645,-2.441,62.988,0
15968.499,109.375,17.578,40.527,19.043,40.527,0
15968.503,97.656,24.414,34.668,29.785,16.113,0
15968.507,68.359,24.414,31.250,-45.410,52.734,0
15968.510,104.004,16.602,38.086,-19.531,49.316,0
15968.514,38.086,8.789,48.828,7.324,52.246,0
15968.518,14.648,5.859,47.852,-6.348,25.391,0
15968.522,66.406,8.789,43.945,6.836,-17.090,0
15968.526,76.660,10.742,35.156,-23.926,46.387,0
15968.530,67.871,13.184,35.156,-20.020,58.105,0
15968.534,52.734,17.090,42.480,-24.414,-9.766,0
15968.538,82.031,20.020,37.109,-23.438,0.488,0
15968.542,88.867,14.160,35.645,22.949,19.531,0
15968.546,86.914,12.207,40.039,12.695,17.090,0
15968.550,81.055,13.184,39.062,-11.230,2.441,0
15968.553,91.309,18.555,34.668,-10.742,19.531,0
15968.557,89.355,19.043,37.109,12.207,14.648,0
15968.561,53.711,14.648,41.504,13.672,39.551,0
15968.565,47.852,18.066,42.480,10.742,57.129,0
15968.569,62.988,20.020,36.133,-12.695,-19.043,0
15968.573,90.332,18.066,37.598,3.906,36.133,0
15968.577,116.211,14.648,43.945,23.926,114.258,0
15968.581,34.180,19.043,39.551,-24.902,54.199,0
15968.585,20.508,23.926,41.992,-42.480,5.859,0
15968.589,77.637,16.602,44.922,-17.090,39.062,0
15968.592,104.004,14.648,37.598,34.668,83.984,0
15968.596,79.102,20.020,38.086,30.762,43.457,0
15968.600,48.340,16.113,46.387,-37.598,-18.066,0
15968.604,94.238,20.996,44.434,-41.016,20.996,0
15968.608,74.707,23.926,34.668,13.672,73.730,0
15968.612,53.711,19.043,37.109,18.555,37.598,0
15968.616,49.316,19.043,40.527,-3.906,-5.371,0
15968.620,49.805,19.531,38.086,-21.973,-20.020,0
15968.624,91.797,15.137,43.457,-2.930,-11.719,0
15968.628,73.242,12.695,46.387,32.227,27.832,0
15968.632,15.137,16.602,41.504,-15.625,71.777,0
15968.635,12.695,10.254,45.410,-32.715,52.734,0
15968.639,38.574,4.395,44.434,-9.766,57.129,0
15968.643,61.035,15.137,29.785,-13.184,27.344,0
15968.647,46.875,17.090,33.691,4.883,12.695,0
15968.651,13.184,13.184,40.039,-8.301,34.668,0
15968.655,51.270,15.137,31.738,-60.059,1.953,1
15968.659,66.895,10.254,30.273,-11.230,68.848,0
15968.663,58.105,7.812,38.574,25.391,47.852,0
15968.667,39.062,18.066,37.109,-33.203,6.836,0
15968.671,19.043,15.625,35.645,-29.297,14.160,0
15968.675,51.758,4.883,38.086,8.301,23.438,0
15968.678,57.617,2.930,37.598,3.418,23.926,0
15968.682,10.742,13.672,41.504,-16.602,-10.254,0
15968.686,17.090,16.602,38.086,-50.781,12.695,0
15968.690,15.137,10.742,32.227,-15.625,38.086,0
15968.694,29.297,10.742,32.227,2.441,50.293,0
15968.698,72.754,10.254,35.156,-37.109,7.324,0
15968.702,-3.906,7.812,38.574,-36.133,-20.020,0
15968.706,-20.020,0.488,38.574,3.418,16.113,0
15968.710,32.227,5.859,37.109,11.230,55.176,0
15968.714,39.551,18.066,36.621,-0.977,55.664,0
15968.717,18.555,20.996,33.203,-67.383,-5.859,0
15968.721,1.465,15.625,31.738,-84.961,2.441,0
15968.725,2.930,12.207,35.645,-0.977,36.133,0
15968.729,-1.953,16.602,35.156,23.926,25.391,0
15968.733,-35.156,13.184,38.086,-24.414,35.156,0
15968.737,-17.090,13.672,39.062,-37.598,56.152,0
15968.741,9.277,13.672,35.156,-25.391,-11.719,0
15968.745,-6.836,10.254,41.504,-1.953,-11.719,0
15968.749,7.324,17.090,42.480,-23.926,30.273,0
15968.753,9.766,19.043,40.527,-9.766,-36.621,0
15968.757,-16.602,16.113,47.363,23.926,-7.324,0
15968.760,42.480,20.020,38.086,29.297,34.668,0
15968.764,17.578,21.973,36.621,-20.508,38.086,0
15968.768,-20.020,20.508,41.504,-59.082,23.438,0
15968.772,19.043,21.973,39.551,-6.836,27.832,0
15968.776,53.223,15.625,40.039,24.414,71.289,0
15968.780,35.645,10.742,42.969,16.602,60.547,0
15968.784,-42.969,19.043,42.480,-69.336,42.480,0
15968.788,28.320,26.855,42.969,-59.570,47.852,0
15968.792,92.773,25.391,41.016,23.926,94.727,0
15968.796,22.461,20.508,42.969,46.875,102.051,0
15968.800,5.859,21.484,47.363,-0.488,21.484,0
15968.803,29.297,19.531,50.293,-50.293,48.340,0
15968.807,29.297,16.602,45.410,-1.465,18.066,0
15968.811,77.637,24.902,38.086,13.184,15.137,0
15968.815,41.992,30.762,41.992,-30.762,76.172,0
15968.819,-0.488,26.367,47.363,-29.297,52.734,0
15968.823,34.668,21.973,50.293,-20.996,21.484,0
15968.827,29.785,20.996,43.945,0.000,38.574,0
15968.831,27.344,24.414,45.898,16.602,48.340,0
15968.835,27.832,30.273,49.316,0.977,18.066,0
15968.839,11.230,25.879,44.434,-17.578,34.668,0
15968.842,30.762,16.602,43.945,-17.578,34.668,0
15968.846,29.297,19.531,48.828,-5.859,57.617,0
15968.850,26.367,26.855,48.340,-31.738,52.246,0
15968.854,16.113,22.949,42.969,-53.223,19.043,0
15968.858,7.812,14.648,41.992,-4.883,76.660,0
15968.862,11.230,20.020,42.969,11.719,81.543,0
15968.866,-6.348,24.414,45.898,-6.836,59.082,0
15968.870,41.016,21.484,50.781,2.930,-2.930,0
15968.874,39.551,21.484,47.363,-10.254,26.855,0
15968.878,-4.395,18.555,42.480,11.719,43.945,0
15968.882,-1.953,18.066,46.387,13.672,15.625,0
15968.885,5.371,20.996,47.363,-14.648,47.852,0
15968.889,32.227,20.020,45.410,-5.371,59.570,0
15968.893,85.938,18.555,42.480,16.113,85.449,0
15968.897,34.180,15.137,45.410,1.953,94.238,0
15968.901,-0.488,12.207,48.828,25.391,61.523,0
15968.905,20.996,17.090,45.410,19.043,-17.578,0
15968.909,24.902,20.996,41.504,15.625,-37.109,0
15968.913,47.363,20.996,44.922,65.430,15.137,0
15968.917,8.301,24.414,48.340,-19.043,52.246,0
15968.921,3.418,25.391,46.387,-20.020,71.777,0
15968.925,28.809,21.973,42.969,44.922,58.594,0
15968.928,56.152,22.461,43.457,9.766,20.996,0
15968.932,21.484,27.344,45.410,-4.883,41.016,0
15968.936,70.801,29.297,42.969,23.926,57.129,0
15968.940,94.238,30.273,41.504,16.602,12.695,0
15968.944,-14.160,26.367,47.363,6.348,22.461,0
15968.948,-26.855,23.438,48.828,3.418,3.906,0
15968.952,-16.113,26.855,45.410,4.395,-23.438,0
15968.956,19.531,30.762,40.039,57.129,9.766,0
15968.960,26.367,30.762,38.086,72.266,36.133,0
15968.964,21.484,33.203,41.016,-18.066,-7.324,0
15968.967,5.371,41.016,41.504,-59.570,-8.789,0
15968.971,-5.371,40.527,37.598,-10.254,-7.812,0
15968.975,8.789,35.156,36.133,32.227,24.902,0
15968.979,5.371,27.344,39.062,10.742,55.664,0
15968.983,38.086,25.879,45.898,-10.742,41.016,0
15968.987,20.020,31.250,41.504,0.000,27.832,0
15968.991,18.555,32.715,34.180,20.996,13.184,0
15968.995,56.152,32.715,35.645,27.344,48.340,0
15968.999,13.672,35.156,37.109,-41.016,78.125,0
15969.003,-3.906,29.785,40.039,-10.254,30.273,0
15969.007,3.418,24.414,41.992,41.504,0.977,0
15969.010,17.090,27.832,38.574,1.465,10.254,0
15969.014,11.719,30.273,40.527,-7.812,31.738,0
15969.018,14.648,27.832,41.016,0.000,46.875,0
15969.022,38.086,26.367,40.527,16.602,28.809,0
15969.026,4.883,23.926,41.504,16.113,27.832,0
15969.030,12.207,24.902,43.945,16.113,-2.930,0
15969.034,40.527,25.879,46.387,36.621,-14.648,0
15969.038,-25.391,25.391,40.527,39.551,-30.762,0
15969.042,-31.250,29.297,33.691,-20.020,-1.465,0
15969.046,31.738,29.297,33.691,-17.578,-1.465,0
15969.050,20.508,31.250,34.668,-24.414,-32.227,0
15969.053,-9.277,29.297,37.109,-10.254,16.602,0
15969.057,16.602,30.762,33.691,28.320,65.918,0
15969.061,42.480,26.855,41.992,34.668,63.965,0
15969.065,-4.883,20.996,49.316,-11.230,13.672,0
15969.069,-28.320,24.902,41.504,-33.203,41.016,0
15969.073,44.922,25.391,41.016,42.969,79.102,0
15969.077,28.809,22.949,41.016,55.176,77.148,0
15969.081,-33.691,21.973,41.016,-4.883,91.309,0
15969.085,-38.574,17.578,44.434,-35.645,58.594,0
15969.089,-7.324,15.625,46.387,-20.020,21.484,0
15969.092,34.180,23.438,37.598,15.625,59.570,0
15969.096,71.289,25.879,37.109,2.441,74.219,0
15969.100,46.875,32.227,36.133,-11.230,49.316,0
15969.104,-51.758,28.320,34.668,9.277,21.973,0
15969.108,-41.992,17.578,36.621,22.949,-7.812,0
15969.112,-0.488,18.066,33.691,10.742,-15.625,0
15969.116,2.441,22.461,37.598,-38.574,26.855,0
15969.120,1.465,25.391,41.016,-24.414,29.297,0
15969.124,16.602,25.879,38.086,4.883,0.977,0
15969.128,55.176,27.344,37.109,15.137,14.160,0
15969.132,23.926,30.273,40.527,-24.414,21.973,0
15969.135,0.000,26.367,45.898,7.812,21.484,0
15969.139,0.488,22.949,47.363,32.227,72.754,0
15969.143,13.672,30.273,41.992,1.953,60.547,0
15969.147,4.883,32.227,44.434,0.488,23.438,0
15969.151,-1.953,28.809,45.410,-10.254,67.383,0
15969.155,35.645,24.414,40.039,-1.465,123.047,0
15969.159,34.668,29.297,29.785,-7.812,114.258,0
15969.163,-13.672,28.320,31.738,4.883,71.777,0
15969.167,-25.879,24.414,41.992,11.719,71.289,0
15969.171,10.254,30.273,39.062,-22.461,60.059,0
15969.175,36.621,27.832,37.598,4.883,52.734,0
15969.178,30.273,28.320,39.551,25.391,88.867,0
15969.182,-17.578,27.832,42.480,7.812,45.898,0
15969.186,-9.277,24.902,42.480,-13.184,10.742,0
15969.190,30.273,25.391,37.109,-12.695,39.062,0
15969.194,40.039,29.297,36.133,39.551,51.758,0
15969.198,-2.441,35.156,40.527,5.859,45.898,0
15969.202,-55.176,29.297,48.340,-11.230,10.254,0
15969.206,-20.996,27.344,42.480,-11.719,44.922,0
15969.210,37.598,32.715,33.203,-7.812,38.574,0
15969.214,34.180,31.250,43.457,11.719,-41.992,0
15969.217,27.832,33.691,43.945,-25.879,-9.277,1
15969.221,32.227,38.086,40.039,-21.973,16.602,0
15969.225,17.090,38.574,40.527,48.828,33.691,0
15969.229,44.434,36.133,41.992,38.574,42.969,0
15969.233,16.602,39.062,42.480,-45.898,18.555,0
15969.237,-10.254,41.992,37.109,-48.828,-22.461,0
15969.241,1.465,38.086,39.551,7.812,34.668,0
15969.245,-1.953,32.715,45.410,21.484,55.664,0
15969.249,16.602,38.574,42.480,13.672,17.578,0
15969.253,17.578,41.016,42.480,-6.836,2.930,0
15969.257,30.273,37.598,44.922,-21.973,34.180,0
15969.260,35.645,37.109,46.387,23.926,76.172,0
15969.264,8.301,33.203,46.387,-0.488,87.891,0
15969.268,1.465,37.109,40.039,-32.715,53.711,0
15969.272,-0.488,41.016,40.039,-9.766,-3.418,0
15969.276,3.906,32.715,40.039,11.230,23.926,0
15969.280,28.809,27.832,40.527,-11.230,2.441,0
15969.284,0.977,31.738,44.434,-40.039,0.000,0
15969.288,-33.203,37.109,43.945,-20.020,64.453,0
15969.292,-17.578,34.668,40.527,11.719,23.438,0
15969.296,-18.066,31.250,41.016,-5.371,13.672,0
15969.300,17.090,32.227,42.480,-19.531,-1.465,0
15969.303,25.879,36.621,40.527,-24.414,-78.125,0
15969.307,-45.410,33.691,40.527,-6.348,19.043,0
15969.311,-25.391,25.879,41.504,12.695,53.711,0
15969.315,-1.465,25.391,42.969,-15.137,3.418,0
15969.319,-19.531,28.320,47.363,-14.160,55.664,0
15969.323,-1.953,29.297,45.898,-13.672,47.363,0
15969.327,27.832,33.203,36.133,17.578,4.395,0
15969.331,13.184,37.109,38.574,26.855,-21.484,0
15969.335,-16.602,37.109,41.016,-53.223,-6.348,0
15969.339,56.641,38.574,33.203,-53.711,72.266,0
15969.342,61.523,36.133,31.738,11.719,48.828,0
15969.346,-27.344,31.250,41.992,29.297,-2.930,0
15969.350,-31.738,23.926,45.898,2.441,22.949,0
15969.354,22.949,27.344,43.945,-27.832,59.570,0
15969.358,21.973,34.180,43.457,-10.742,79.590,0
15969.362,28.320,37.109,40.039,42.480,46.387,0
15969.366,40.039,38.086,40.039,1.953,44.434,0
15969.370,6.348,36.133,38.086,-39.551,75.195,0
15969.374,-4.883,30.273,36.133,9.766,69.336,0
15969.378,2.441,27.344,39.062,34.180,84.961,0
15969.382,11.230,36.133,40.039,19.531,65.918,0
15969.385,-4.395,40.039,39.551,-6.348,34.668,0
15969.389,12.207,40.039,36.133,-35.156,12.695,0
15969.393,67.871,38.574,35.156,-0.488,30.762,0
15969.397,19.043,30.762,41.016,20.020,71.777,0
15969.401,-19.531,33.691,43.457,17.578,38.574,0
15969.405,21.973,37.109,39.551,7.812,28.320,0
15969.409,20.020,31.250,35.645,15.137,73.242,0
15969.413,17.578,31.250,35.156,-20.508,44.434,0
15969.417,13.184,35.156,38.086,-28.809,20.996,0
15969.421,12.695,34.668,36.133,-3.906,6.348,0
15969.425,31.250,34.180,34.668,13.184,-2.441,0
15969.428,64.453,30.273,41.504,21.973,41.992,0
15969.432,23.926,21.973,44.434,-16.602,63.965,0
15969.436,-32.227,23.438,41.016,-23.438,81.055,0
15969.440,33.203,28.320,41.016,34.180,58.105,0
15969.444,59.082,27.832,43.945,33.203,19.531,0
15969.448,0.488,32.227,45.410,-18.066,20.508,0
15969.452,18.555,33.203,42.969,22.461,14.648,0
15969.456,58.594,26.367,42.480,37.598,-7.324,0
15969.460,54.688,22.949,42.969,24.902,35.645,0
15969.464,9.277,28.320,46.387,4.395,4.395,0
15969.467,-11.230,31.250,46.387,-29.785,6.836,0
15969.471,27.832,26.855,43.457,5.859,39.551,0
15969.475,43.945,22.949,41.016,16.602,21.973,0
15969.479,55.176,27.344,37.598,-5.371,24.902,0
15969.483,-4.395,25.879,46.387,-3.418,-1.465,0
15969.487,9.766,25.391,48.828,12.207,41.504,0
15969.491,39.551,29.297,43.457,54.688,99.121,0
15969.495,22.949,30.762,41.992,15.625,72.754,0
15969.499,34.668,30.762,44.922,-20.996,45.410,0
15969.503,11.230,25.879,49.316,8.301,28.809,0
15969.507,39.062,28.809,42.969,1.465,35.156,0
15969.510,55.176,33.691,37.598,-3.906,65.918,0
15969.514,0.488,33.691,38.574,20.996,14.648,0
15969.518,11.230,32.227,41.504,28.809,-16.602,0
15969.522,21.484,23.926,45.410,-5.859,10.254,0
15969.526,10.254,22.949,41.016,-0.977,8.301,0
15969.530,48.340,30.273,39.551,12.207,15.137,0
15969.534,41.504,34.668,39.062,-37.109,-8.789,0
15969.538,17.090,37.109,34.668,17.090,-58.594,0
15969.542,16.113,34.180,34.668,42.480,-38.574,0
15969.546,22.949,28.809,40.527,1.953,26.855,0
15969.550,33.691,26.367,45.410,-3.418,19.043,0
15969.553,25.391,31.250,43.457,-10.742,8.789,0
15969.557,4.883,32.227,38.574,16.602,99.609,0
15969.561,15.625,25.391,40.039,37.109,117.188,0
15969.565,0.000,26.855,46.875,-14.648,47.852,0
15969.569,-11.230,28.320,43.945,-31.738,46.875,0
15969.573,12.695,24.902,40.039,-3.906,47.363,0
15969.577,35.156,23.926,45.410,29.297,79.102,0
15969.581,15.137,28.320,46.387,0.000,49.805,0
15969.585,2.441,34.180,42.480,-14.160,11.230,0
15969.589,-10.742,31.250,41.016,23.438,-18.066,0
15969.592,17.090,32.715,36.133,-3.906,-28.809,0
15969.596,25.879,37.598,38.574,-21.973,45.898,0
15969.600,-9.277,35.156,43.457,15.625,54.199,0
15969.604,1.465,35.645,42.969,-21.973,18.555,0
15969.608,10.254,34.668,34.668,-45.410,51.758,0
15969.612,6.348,29.785,36.133,0.000,31.738,0
15969.616,8.301,26.855,42.480,-26.855,3.906,0
15969.620,-2.441,27.344,43.945,-4.883,7.324,0
15969.624,8.789,26.855,42.480,11.230,-0.488,0
15969.628,52.734,27.344,37.109,6.836,17.090,0
15969.632,-13.184,33.691,35.645,1.953,-35.645,0
15969.635,-37.109,36.133,38.086,-21.484,-18.555,0
15969.639,9.277,33.691,37.109,-13.672,19.531,0
15969.643,41.504,31.738,36.133,24.414,20.020,0
15969.647,20.020,27.832,41.016,29.785,74.707,0
15969.651,-16.602,31.738,41.016,4.395,87.891,0
15969.655,-21.484,35.645,37.598,-11.719,6.836,0
15969.659,11.719,35.645,34.668,18.066,-14.648,0
15969.663,24.902,36.133,37.598,5.371,49.316,0
15969.667,-24.902,37.109,41.992,-29.297,81.055,0
15969.671,-10.254,33.691,41.504,-11.719,77.637,0
15969.675,21.484,27.832,38.086,17.090,31.250,0
15969.678,24.414,30.762,36.621,25.879,67.383,0
15969.682,-4.883,31.738,39.062,-7.324,55.176,0
15969.686,-38.086,30.762,36.133,-30.762,10.742,0
15969.690,-4.883,32.227,35.645,-25.879,42.969,0
15969.694,33.203,29.297,41.016,5.859,104.980,0
15969.698,8.301,27.344,41.016,28.320,57.129,0
15969.702,-4.883,32.227,38.574,-6.348,47.852,0
15969.706,-0.977,31.738,39.062,-18.555,77.148,0
15969.710,14.648,34.180,34.180,6.348,40.527,0
15969.714,7.812,35.156,34.668,1.465,5.371,0
15969.717,-21.973,32.227,38.086,-56.641,6.348,0
15969.721,-2.441,32.715,39.551,-25.879,4.883,0
15969.725,57.617,34.668,37.598,47.363,37.598,0
15969.729,21.973,35.156,35.645,30.762,57.617,0
15969.733,-43.945,29.297,41.504,-21.484,34.180,0
15969.737,-8.301,26.367,44.434,-46.875,21.484,0
15969.741,6.348,25.391,42.480,-12.695,-3.906,0
15969.745,-7.324,26.367,40.039,14.648,17.090,0
15969.749,-22.461,31.250,39.551,-22.949,13.672,0
15969.753,-25.391,30.762,39.062,-35.645,9.766,0
15969.757,-2.441,28.809,38.086,17.090,26.855,0
15969.760,41.992,26.855,34.668,41.016,30.273,0
15969.764,-5.371,28.809,41.504,-23.926,62.012,0
15969.768,-28.320,34.668,45.410,-12.695,63.965,0
15969.772,-18.066,35.156,37.598,-1.465,80.566,0
15969.776,16.602,34.180,34.668,-31.738,54.199,0
15969.780,21.973,29.297,37.109,3.418,1.465,0
15969.784,-44.922,23.438,41.504,-17.090,8.301,0
15969.788,-18.555,25.391,44.434,0.000,28.809,0
15969.792,45.898,28.320,41.504,51.270,9.766,0
15969.796,40.039,31.738,40.527,-3.906,17.578,0
15969.800,-28.320,34.180,44.922,-54.199,52.734,0
15969.803,-39.062,27.832,45.410,-36.621,28.809,0
15969.807,26.367,29.297,39.062,-3.906,-9.766,0
15969.811,33.691,33.691,37.598,12.207,31.738,0
15969.815,0.488,32.227,42.969,-11.230,13.184,0
15969.819,1.465,32.715,43.945,-15.625,19.531,0
15969.823,-6.836,29.785,46.387,18.066,68.848,0
15969.827,-10.254,28.320,43.945,42.480,33.203,0
15969.831,1.953,31.250,44.434,-16.113,41.016,0
15969.835,-13.184,32.227,45.898,-20.996,20.996,0
15969.839,0.977,32.227,42.480,23.926,-34.668,0
15969.842,2.930,34.668,38.086,-17.578,-27.344,0
15969.846,-4.883,33.691,40.039,-32.227,21.484,0
15969.850,-0.488,31.250,43.945,-3.418,30.762,0
15969.854,-32.227,25.879,43.945,-5.859,45.410,2
15969.858,-4.883,22.949,42.969,10.742,126.465,0
15969.862,9.766,26.855,42.969,42.480,120.117,0
15969.866,-17.578,31.738,42.969,-28.809,88.867,0
15969.870,-36.133,30.273,39.062,-48.828,83.008,0
15969.874,-9.766,27.344,41.504,34.180,26.855,0
15969.878,36.621,26.855,44.922,25.391,34.668,0
15969.882,17.578,25.391,46.875,-46.387,48.828,0
15969.885,-33.203,25.879,47.363,-51.270,45.898,0
15969.889,-55.664,28.320,41.504,-22.949,34.668,0
15969.893,10.742,28.320,40.527,6.348,47.852,0
15969.897,40.039,25.391,42.480,-8.301,58.105,0
15969.901,-20.020,24.414,45.898,-21.973,43.945,0
15969.905,-27.344,24.902,46.387,-17.090,62.988,0
15969.909,12.207,23.438,40.039,27.832,41.992,0
15969.913,29.297,26.855,43.457,30.273,30.273,0
15969.917,-5.371,30.762,50.781,-19.531,40.527,0
15969.921,11.719,34.180,44.922,-15.137,92.285,0
15969.925,4.883,33.203,40.527,0.977,92.285,0
15969.928,26.367,36.133,42.969,34.180,78.613,0
15969.932,33.203,39.062,46.875,37.598,60.547,0
15969.936,-30.762,31.738,45.410,18.066,3.418,0
15969.940,22.461,32.227,41.016,-4.883,-8.301,0
15969.944,20.508,36.133,41.504,-22.949,31.738,0
15969.948,-9.277,32.227,47.852,-15.137,29.785,0
15969.952,-7.324,28.809,50.293,-24.414,-18.066,0
15969.956,9.277,28.809,45.898,16.113,27.344,0
15969.960,18.555,25.879,41.992,47.363,19.043,0
15969.964,-10.742,25.879,45.898,-13.184,-0.488,0
15969.967,-6.348,30.273,47.852,-33.203,3.418,0
15969.971,8.301,28.809,43.457,5.859,-23.438,0
15969.975,20.020,25.391,38.086,43.945,-12.695,0
15969.979,4.883,29.297,40.039,14.160,29.785,0
15969.983,-16.113,32.227,46.387,10.254,21.973,0
15969.987,0.488,29.785,42.480,-7.324,3.906,0
15969.991,7.324,30.273,33.691,-43.457,5.859,0
15969.995,-2.930,27.832,35.156,-25.391,23.438,0
15969.999,10.254,25.879,43.945,6.348,15.137,0
15970.003,-21.973,29.785,44.922,-1.465,33.203,0
15970.007,-20.996,32.715,35.645,-8.301,62.012,0
15970.010,15.625,33.691,33.691,30.762,-16.602,0
15970.014,1.465,34.180,35.645,9.766,9.277,0
15970.018,-0.488,35.156,36.133,-32.715,31.250,0
15970.022,12.207,31.250,32.715,-11.719,1.953,0
15970.026,-17.090,29.785,29.297,2.930,14.648,0
15970.030,2.930,28.320,35.645,30.762,25.879,0
15970.034,18.066,20.996,40.039,-8.789,42.480,0
15970.038,-36.133,23.926,37.109,-61.523,14.160,0
15970.042,0.977,28.320,35.156,8.789,71.777,0
15970.046,48.340,32.227,34.180,18.066,97.656,0
15970.050,-9.766,32.715,34.180,-18.066,-3.418,0
15970.053,-16.602,34.668,24.414,-32.227,-3.418,0
15970.057,6.836,36.621,21.484,-34.668,29.785,0
15970.061,-10.742,29.297,34.180,12.207,39.062,0
15970.065,-19.531,28.809,41.992,-4.883,41.504,0
15970.069,-26.855,31.250,42.480,-27.344,-7.812,0
15970.073,-8.789,30.273,38.574,-12.207,-11.719,0
15970.077,5.859,30.273,34.668,-2.441,13.672,0
15970.081,-3.906,31.738,38.086,14.160,-1.465,0
15970.085,-9.277,33.203,43.457,-11.230,29.297,0
15970.089,-28.809,37.598,42.480,-36.621,25.391,0
15970.092,-1.465,39.062,36.621,9.277,25.879,0
15970.096,45.410,39.551,34.668,2.930,41.016,0
15970.100,-27.344,43.457,38.086,-32.715,42.480,0
15970.104,-40.527,44.434,41.016,-19.531,58.105,0
15970.108,30.762,42.480,40.527,21.484,42.969,0
15970.112,24.414,41.504,43.457,51.270,30.762,0
15970.116,-27.344,40.527,48.828,-9.766,-12.695,0
15970.120,-39.062,38.086,48.828,-9.277,17.090,0
15970.124,16.602,38.086,45.410,4.883,36.133,0
15970.128,42.480,43.945,40.039,19.043,-5.371,0
15970.132,-0.977,42.480,40.527,13.184,7.324,0
15970.135,13.184,37.109,44.922,-19.531,44.434,0
15970.139,10.742,35.156,44.922,39.551,61.035,0
15970.143,-8.301,37.109,42.480,16.113,51.758,0
15970.147,16.602,41.992,41.992,-12.207,36.621,0
15970.151,-5.859,40.527,42.969,-27.832,57.617,0
15970.155,16.602,40.039,41.504,-7.812,76.172,0
15970.159,29.785,39.551,40.039,46.875,83.984,0
15970.163,3.418,32.715,45.898,24.902,89.844,0
15970.167,-15.625,32.715,49.805,-16.602,74.219,0
15970.171,-12.695,31.738,47.852,-33.691,-13.184,0
15970.175,2.441,30.273,42.969,2.930,-43.457,0
15970.178,7.812,33.691,40.527,22.949,-0.488,0
15970.182,-14.160,36.621,44.922,24.902,18.555,0
15970.186,17.578,36.621,46.387,29.785,20.508,0
15970.190,29.297,35.645,45.898,-23.438,18.066,0
15970.194,5.859,33.691,45.410,-15.137,97.168,0
15970.198,9.277,34.668,46.387,-6.348,117.188,0
15970.202,-17.090,35.156,50.293,-21.484,9.277,0
15970.206,-7.324,30.762,48.340,16.113,-14.160,0
15970.210,17.578,30.762,45.410,76.172,18.066,0
15970.214,43.457,39.062,49.805,19.531,57.617,0
15970.217,41.992,39.551,53.711,6.348,78.613,0
15970.221,-2.441,30.762,50.293,18.066,42.969,0
15970.225,-4.883,28.809,46.387,13.672,19.531,0
15970.229,14.648,31.738,46.875,5.371,34.180,0
15970.233,-8.789,34.180,43.457,-31.250,58.594,0
15970.237,-12.695,36.621,39.551,-27.832,58.105,0
15970.241,16.602,33.203,39.551,-8.301,-7.324,0
15970.245,8.789,35.156,39.551,20.020,0.488,0
15970.249,-11.230,40.039,40.527,-3.906,17.090,0
15970.253,-16.113,34.180,42.969,4.395,33.203,0
15970.257,-2.441,31.738,40.039,18.066,48.340,0
15970.260,60.547,35.156,39.551,29.785,34.180,0
15970.264,17.090,37.109,41.016,-2.441,38.574,0
15970.268,-54.199,40.039,41.992,-59.570,33.691,0
15970.272,-12.695,37.109,41.992,-5.371,33.691,0
15970.276,25.879,34.668,41.016,42.969,42.480,0
15970.280,-1.465,34.668,41.992,3.418,70.312,0
15970.284,-2.441,31.738,45.898,1.465,75.684,0
15970.288,35.645,35.156,45.898,24.414,20.020,0
15970.292,19.531,36.621,42.480,20.996,38.086,0
15970.296,4.883,33.203,42.480,36.621,67.383,0
15970.300,3.906,36.621,44.922,1.953,35.156,0
15970.303,6.836,38.574,42.969,-12.695,-2.441,0
15970.307,8.789,37.598,41.016,28.809,20.508,0
15970.311,7.812,38.574,38.086,2.930,49.805,0
15970.315,11.719,41.016,41.016,-34.668,31.738,0
15970.319,-11.719,38.086,45.898,-1.465,54.688,0
15970.323,-5.859,34.180,45.898,3.906,37.109,0
15970.327,38.086,35.156,42.969,47.852,11.230,0
15970.331,3.418,37.598,46.875,51.270,4.395,0
15970.335,-29.785,36.133,48.828,-20.508,-8.301,0
15970.339,-6.348,32.715,43.945,-31.250,31.738,0
15970.342,3.418,32.715,38.086,-9.766,18.555,0
15970.346,6.836,35.156,40.527,-21.484,59.570,0
15970.350,-16.113,33.691,50.293,-16.602,40.039,0
15970.354,-3.418,32.227,50.781,24.414,20.508,0
15970.358,27.832,33.691,43.457,34.668,79.590,0
15970.362,9.766,34.180,42.480,0.000,68.848,0
15970.366,-14.160,36.133,44.434,-12.695,41.016,0
15970.370,-4.883,33.691,41.016,-41.016,20.508,0
15970.374,17.578,27.832,40.039,0.977,3.418,0
15970.378,28.320,26.367,41.504,47.363,0.977,0
15970.382,12.695,31.738,42.969,8.301,33.203,0
15970.385,-28.809,35.156,41.016,-46.875,21.973,0
15970.389,1.953,33.203,36.621,-44.434,2.441,0
15970.393,25.879,32.715,36.133,9.277,-34.180,0
15970.397,-9.277,31.738,45.410,21.973,-32.715,0
15970.401,-3.906,36.133,50.293,-11.230,17.090,0
15970.405,21.973,40.527,42.969,-17.090,2.441,0
15970.409,22.949,37.109,36.133,12.207,65.918,0
15970.413,-5.859,30.762,40.039,-6.836,143.555,0
15970.417,-15.137,31.250,46.387,-35.645,87.402,0
15970.421,5.371,31.250,48.828,-10.742,62.012,0
15970.425,9.277,28.320,46.387,17.578,33.691,0
15970.428,31.738,31.738,44.434,32.227,38.574,0
15970.432,0.488,35.645,47.852,20.508,63.477,0
15970.436,-21.973,37.598,44.434,-7.812,6.348,0
15970.440,7.324,37.598,41.504,-21.973,26.367,0
15970.444,43.945,36.621,39.062,15.137,64.453,0
15970.448,16.602,37.598,41.992,-9.277,51.270,0
15970.452,-42.969,36.133,46.387,-31.738,58.594,0
15970.456,0.000,34.668,41.992,-3.906,44.434,0
15970.460,68.848,37.109,41.504,50.781,33.691,0
15970.464,9.277,38.086,47.852,21.973,36.133,0
15970.467,-29.785,41.504,45.898,-43.457,79.102,0
15970.471,-3.906,41.016,41.992,-5.859,64.941,0
15970.475,4.395,33.203,41.016,25.879,-9.766,1
15970.479,20.020,35.156,44.922,43.457,16.113,0
15970.483,10.742,41.504,48.340,11.230,21.973,0
15970.487,-7.324,40.527,44.434,-50.293,41.992,0
15970.491,30.762,37.109,41.016,-10.254,80.566,0
15970.495,38.086,35.156,41.016,54.688,21.973,0
15970.499,-17.090,35.645,45.410,14.648,-27.344,0
15970.503,-5.859,40.039,45.898,-32.715,-7.324,0
15970.507,5.371,37.598,41.016,0.977,21.973,0
15970.510,13.184,35.156,36.621,9.766,17.578,0
15970.514,29.297,40.527,40.039,-20.020,9.277,0
15970.518,21.973,41.992,41.504,-16.113,18.555,0
15970.522,10.742,41.992,40.527,20.508,30.273,0
15970.526,-12.207,44.434,36.621,36.133,73.242,0
15970.530,-20.996,44.922,41.504,-7.324,52.734,0
15970.534,-10.254,43.945,47.852,-22.461,13.184,0
15970.538,11.719,43.945,41.016,-18.066,20.020,0
15970.542,24.902,43.457,34.668,22.461,44.922,0
15970.546,15.625,41.504,37.109,0.488,100.586,0
15970.550,-3.418,42.480,41.504,-30.273,63.965,0
15970.553,-11.230,41.504,42.480,1.953,18.555,0
15970.557,29.297,39.551,40.039,0.000,43.457,0
15970.561,44.922,40.039,39.551,43.945,25.391,0
15970.565,-14.648,44.434,41.504,1.953,12.207,0
15970.569,-20.996,43.945,39.551,-42.969,12.695,0
15970.573,36.621,39.551,36.133,3.906,-12.207,0
15970.577,61.523,37.109,36.621,29.297,-17.090,0
15970.581,13.672,37.109,41.992,0.488,38.574,0
15970.585,-12.695,39.551,45.410,19.043,32.227,0
15970.589,-7.812,41.016,42.480,29.297,31.738,0
15970.592,23.926,40.039,38.574,7.324,44.434,0
15970.596,40.039,39.551,38.086,1.953,3.906,0
15970.600,0.488,39.062,39.551,7.812,-10.254,0
15970.604,-5.859,37.598,41.992,0.977,-6.348,0
15970.608,2.441,37.109,42.969,4.883,53.223,0
15970.612,31.738,36.133,47.363,42.480,78.125,0
15970.616,1.953,37.598,50.781,-19.531,56.641,0
15970.620,-1.465,41.504,45.410,-28.809,60.547,0
15970.624,7.812,42.480,38.574,15.625,78.613,0
15970.628,-7.324,39.062,39.062,20.996,66.406,0
15970.632,8.789,37.598,44.434,-4.883,32.715,0
15970.635,-11.719,37.598,45.898,-4.883,50.293,0
15970.639,-9.277,36.133,41.992,-10.254,40.527,0
15970.643,13.184,35.156,39.062,7.324,34.668,0
15970.647,11.719,35.156,41.016,0.488,103.516,0
15970.651,-13.672,33.691,42.480,-40.039,104.004,0
15970.655,-26.855,33.691,38.574,-10.254,-9.766,0
15970.659,-2.930,37.109,34.668,31.250,26.367,0
15970.663,24.414,38.086,36.133,12.695,58.105,0
15970.667,5.859,36.621,39.062,-39.551,-1.953,0
15970.671,-20.996,33.203,39.062,-15.625,15.625,0
15970.675,7.324,29.297,35.645,48.828,7.324,0
15970.678,5.859,28.320,38.086,20.508,-8.301,0
15970.682,-13.672,29.297,43.457,-30.762,41.016,0
15970.686,-6.348,30.762,41.016,-39.551,58.594,0
15970.690,1.465,29.297,30.762,-27.344,24.414,0
15970.694,23.926,30.762,32.227,30.273,27.832,0
15970.698,8.789,36.133,38.574,32.227,90.820,0
15970.702,-15.137,34.668,41.016,-13.672,24.414,0
15970.706,-3.418,35.156,39.551,-23.926,-8.789,0
15970.710,-1.465,34.668,34.180,14.648,19.043,0
15970.714,8.301,33.691,37.109,13.672,21.973,0
15970.717,-6.836,37.598,42.480,-6.348,33.691,0
15970.721,-11.719,38.086,38.574,11.230,12.207,0
15970.725,10.742,36.621,34.180,-5.859,39.062,0
15970.729,-1.465,38.086,39.062,7.324,27.832,0
15970.733,-21.484,39.551,42.969,16.602,-32.715,0
15970.737,-11.719,38.086,40.527,-19.043,-26.367,0
15970.741,9.766,39.062,38.574,-21.973,-27.832,0
15970.745,14.160,38.086,39.062,-2.441,33.203,0
15970.749,-6.836,39.062,41.016,0.977,53.711,0
15970.753,-17.090,37.598,39.551,-10.742,19.043,0
15970.757,2.441,31.250,37.109,8.789,-9.277,0
15970.760,25.391,28.320,36.621,23.438,-31.250,0
15970.764,3.906,32.715,38.574,-26.367,0.000,0
15970.768,-27.832,36.621,39.062,-29.785,40.527,0
15970.772,-12.207,36.133,36.133,1.465,73.730,0
15970.776,7.324,33.691,36.621,15.137,54.199,0
15970.780,-14.648,32.227,38.086,20.996,51.758,0
15970.784,31.738,33.691,43.945,1.953,23.926,0
15970.788,21.484,35.156,43.457,-21.484,-13.184,0
15970.792,-29.297,34.668,36.621,-7.324,-1.953,0
15970.796,-19.043,32.715,39.551,-20.996,36.621,0
15970.800,-27.344,30.762,45.410,-13.184,29.785,0
15970.803,4.395,36.133,44.922,-15.625,8.789,0
15970.807,2.930,36.621,42.480,2.930,21.973,0
15970.811,17.578,33.691,41.504,33.203,35.645,0
15970.815,20.996,38.574,41.504,-20.996,22.949,0
15970.819,-36.133,38.086,40.527,-37.109,4.395,0
15970.823,-16.602,33.203,39.551,-5.371,32.715,0
15970.827,16.602,35.156,37.598,3.906,30.273,0
15970.831,2.930,38.086,39.062,-5.371,41.016,0
15970.835,3.418,39.062,45.898,-0.977,42.480,0
15970.839,26.367,38.574,49.316,25.879,3.418,0
15970.842,32.715,33.203,48.828,14.648,34.180,0
15970.846,16.113,35.645,47.852,-4.395,30.273,0
15970.850,-0.488,40.039,48.828,-46.387,10.254,0
15970.854,-4.395,38.086,47.363,-6.348,4.883,0
15970.858,2.930,37.109,47.363,48.828,25.879,0
15970.862,18.555,36.621,50.781,25.879,85.938,0
15970.866,25.391,38.086,53.223,-8.789,51.270,0
15970.870,4.883,39.062,52.734,6.348,29.785,0
15970.874,-3.418,37.109,47.852,31.250,100.586,0
15970.878,29.785,35.156,42.969,16.113,101.562,0
15970.882,-17.090,31.738,43.945,-47.852,56.152,0
15970.885,-59.082,32.715,47.363,-57.617,52.734,0
15970.889,-36.133,34.668,42.969,-44.434,58.105,0
15970.893,-28.809,28.320,37.598,-22.949,44.922,0
15970.897,-41.504,30.762,40.039,-19.043,39.551,0
15970.901,-73.730,31.738,49.805,-63.965,68.359,0
15970.905,-83.984,24.902,51.758,-93.750,5.859,0
15970.909,-54.199,26.367,44.922,-72.754,-3.418,0
15970.913,-53.223,27.832,45.898,-74.707,61.035,0
15970.917,-76.172,26.367,48.340,-100.586,55.664,0
15970.921,-99.609,27.832,46.387,-115.234,30.273,0
15970.925,-112.793,27.832,45.898,-99.121,46.875,0
15970.928,-89.844,30.762,41.016,-72.266,20.020,0
15970.932,-101.074,35.645,36.133,-96.191,-6.836,0
15970.936,-96.191,34.668,39.551,-142.578,15.625,0
15970.940,-88.379,35.645,36.621,-122.559,83.496,0
15970.944,-107.910,34.180,31.738,-92.285,64.453,0
15970.948,-121.094,31.250,34.668,-122.559,5.859,0
15970.952,-113.770,30.273,40.039,-124.512,42.480,0
15970.956,-96.191,27.344,43.945,-68.848,67.871,0
15970.960,-92.773,26.367,41.016,-62.012,83.496,0
15970.964,-81.055,26.367,40.039,-113.770,64.453,0
15970.967,-90.820,29.297,41.504,-139.648,-18.555,0
15970.971,-102.539,29.785,38.574,-107.910,-39.551,0
15970.975,-72.754,28.809,37.598,-62.500,15.137,0
15970.979,-62.012,33.203,38.086,-63.477,30.762,0
15970.983,-66.895,31.738,43.945,-91.309,42.480,0
15970.987,-81.055,31.250,44.434,-86.426,41.016,0
15970.991,-53.711,31.250,40.527,-36.133,47.852,0
15970.995,-31.250,28.809,41.016,-36.133,62.500,0
15970.999,-37.598,32.715,45.898,-61.523,41.992,0
15971.003,-25.879,36.133,45.410,-47.363,-3.418,0
15971.007,-16.602,36.621,41.504,-22.949,5.371,0
15971.010,14.160,32.715,41.992,3.906,55.664,0
15971.014,-4.883,36.133,44.922,-5.859,16.113,0
15971.018,-27.832,41.504,45.410,-15.625,36.621,0
15971.022,8.789,39.551,44.434,47.363,67.383,0
15971.026,22.949,38.574,40.527,27.832,46.875,0
15971.030,40.039,40.527,39.062,-46.875,104.492,0
15971.034,23.926,37.109,45.898,-32.227,65.918,0
15971.038,9.766,30.762,47.363,27.344,52.734,0
15971.042,44.922,29.785,42.969,45.898,29.297,0
15971.046,33.203,35.156,41.016,18.555,-2.930,0
15971.050,28.320,36.621,43.457,3.906,21.484,0
15971.053,45.898,32.715,44.434,5.859,12.207,0
15971.057,48.340,34.180,41.016,50.293,-6.348,0
15971.061,62.012,35.156,41.016,81.055,23.438,0
15971.065,30.762,35.156,42.969,-12.695,47.852,0
15971.069,10.742,35.156,40.039,-54.199,78.613,0
15971.073,57.617,32.715,39.551,27.832,86.914,0
15971.077,53.711,29.297,40.039,44.434,65.918,0
15971.081,43.945,28.320,43.945,67.383,58.105,0
15971.085,20.996,34.668,44.434,41.016,17.090,0
15971.089,17.578,38.086,41.504,-12.207,1.465,1
15971.092,53.711,34.180,41.504,40.039,31.738,0
15971.096,22.949,35.645,44.922,43.457,62.988,0
15971.100,-1.953,38.086,46.387,20.508,28.809,0
15971.104,35.156,32.715,45.410,31.738,42.480,0
15971.108,74.219,32.715,45.410,56.641,87.402,0
15971.112,52.246,34.180,46.875,33.203,73.242,0
15971.116,14.160,35.645,49.805,-15.137,42.969,0
15971.120,10.254,39.062,47.852,19.531,33.203,0
15971.124,50.781,38.086,44.434,55.664,73.242,0
15971.128,69.824,39.551,41.992,59.082,49.316,0
15971.132,4.883,42.969,42.480,39.062,13.672,0
15971.135,-1.465,45.410,42.480,22.461,4.883,0
15971.139,50.293,45.898,41.504,48.828,5.371,0
15971.143,53.711,43.457,41.504,61.523,31.250,0
15971.147,15.625,45.410,41.016,16.602,16.113,0
15971.151,18.555,45.898,45.410,42.969,15.137,0
15971.155,41.504,44.434,46.875,49.805,17.090,0
15971.159,48.828,43.945,43.457,12.207,25.391,0
15971.163,41.504,43.945,43.457,25.391,50.781,0
15971.167,30.273,47.363,45.410,15.137,3.906,0
15971.171,52.246,49.316,39.062,34.668,43.457,0
15971.175,53.223,47.363,33.203,28.320,106.934,0
15971.178,34.180,42.969,36.621,39.551,43.945,0
15971.182,34.180,41.016,41.016,45.410,8.789,0
15971.186,34.668,42.480,41.504,4.883,3.418,0
15971.190,42.480,43.457,36.621,8.789,-31.738,0
15971.194,35.645,39.551,34.668,20.508,-19.043,0
15971.198,22.949,38.574,36.621,17.578,-15.137,0
15971.202,33.203,40.039,38.574,10.742,18.066,0
15971.206,48.828,43.457,33.691,19.043,3.418,0
15971.210,37.109,43.945,33.203,66.406,-0.488,0
15971.214,33.691,38.574,42.969,63.965,77.148,0
15971.217,58.594,41.992,41.016,8.301,22.461,0
15971.221,51.270,48.828,34.668,7.324,3.906,0
15971.225,66.895,45.410,33.691,68.848,32.715,0
15971.229,65.918,40.527,36.621,57.129,-1.465,0
15971.233,2.930,42.969,43.945,-0.977,-8.789,0
15971.237,42.969,43.945,45.898,15.625,18.066,0
15971.241,57.617,42.480,41.016,46.875,23.438,0
15971.245,12.695,40.039,41.504,51.270,56.641,0
15971.249,4.395,37.598,44.922,8.789,36.621,0
15971.253,21.484,37.109,42.480,-17.090,17.090,0
15971.257,60.059,36.621,41.016,24.902,38.574,0
15971.260,64.453,34.668,41.992,33.691,24.414,0
15971.264,39.062,38.574,44.434,12.207,19.043,0
15971.268,30.273,41.504,41.016,39.551,101.074,0
15971.272,11.719,33.203,38.574,47.852,133.301,0
15971.276,47.852,28.809,41.016,10.254,65.918,0
15971.280,47.852,32.715,45.410,16.113,35.645,0
15971.284,32.227,38.086,46.387,15.137,-4.395,0
15971.288,48.828,41.992,43.457,20.020,-17.578,0
15971.292,34.180,40.527,38.086,32.227,54.199,0
15971.296,6.348,38.086,35.156,20.020,54.199,0
15971.300,-8.301,36.133,40.039,0.488,3.906,0
15971.303,6.836,36.621,41.504,-17.090,-4.883,0
15971.307,39.551,41.504,35.645,7.324,39.551,0
15971.311,27.832,41.504,36.621,71.777,74.219,0
15971.315,8.789,39.062,42.969,20.508,10.742,0
15971.319,42.969,39.551,41.504,-35.156,-19.043,0
15971.323,22.461,39.062,42.480,22.461,19.043,0
15971.327,13.672,37.598,43.945,52.246,45.898,0
15971.331,22.949,35.156,44.434,44.922,60.059,0
15971.335,8.789,36.621,43.457,-7.812,69.336,0
15971.339,28.809,38.574,41.016,-10.742,120.117,0
15971.342,54.688,38.574,39.551,31.738,92.285,0
15971.346,63.965,43.945,40.039,34.180,23.926,0
15971.350,45.410,47.363,42.480,-20.996,44.922,0
15971.354,15.137,43.945,42.480,-24.414,46.875,0
15971.358,3.906,40.527,38.574,47.852,0.977,0
15971.362,37.109,38.086,41.016,33.691,6.836,0
15971.366,45.898,41.504,44.434,-11.719,4.883,0
15971.370,-7.324,43.457,41.504,-7.812,36.621,0
15971.374,24.902,40.039,39.551,17.090,55.176,0
15971.378,51.758,38.086,38.574,59.082,6.348,0
15971.382,35.645,38.574,42.480,50.781,35.645,0
15971.385,46.875,41.016,46.875,5.371,23.438,0
15971.389,32.227,46.387,38.574,-1.465,26.367,0
15971.393,32.227,47.363,33.691,22.949,103.027,0
15971.397,28.809,47.363,39.062,20.508,102.539,0
15971.401,16.602,47.852,40.527,1.465,62.988,0
15971.405,23.438,42.969,41.016,21.973,75.195,0
15971.409,23.926,38.086,37.109,13.672,4.395,0
15971.413,32.227,41.992,37.598,7.812,37.109,0
15971.417,28.320,44.434,40.527,0.977,110.840,0
15971.421,10.254,41.016,40.527,5.371,71.777,0
15971.425,7.324,39.062,39.551,35.156,30.273,0
15971.428,46.875,41.992,39.551,27.832,11.230,0
15971.432,31.250,45.410,41.504,51.270,20.996,0
15971.436,4.395,41.016,43.457,25.391,-14.160,0
15971.440,25.391,39.551,40.039,-28.320,15.137,0
15971.444,39.551,40.527,39.062,27.832,90.820,0
15971.448,47.363,42.969,44.434,8.301,9.766,0
15971.452,48.828,45.410,41.504,-29.297,-22.949,0
15971.456,8.301,41.504,40.039,6.836,17.090,0
15971.460,26.855,39.062,43.457,75.684,29.297,0
15971.464,47.363,42.480,45.898,24.902,69.824,0
15971.467,0.000,43.457,46.387,-41.504,77.148,0
15971.471,13.184,40.527,43.945,2.930,61.035,0
15971.475,39.062,40.527,40.527,24.902,21.973,0
15971.479,21.973,38.086,42.480,1.465,15.137,0
15971.483,-1.953,35.645,47.852,7.812,-7.812,0
15971.487,1.953,39.551,43.945,-9.766,-13.672,0
15971.491,12.695,43.457,37.598,0.488,-16.113,0
15971.495,9.766,41.504,37.598,20.020,18.555,0
15971.499,10.254,35.645,41.992,-13.184,10.254,0
15971.503,5.371,37.109,40.039,-11.230,11.230,0
15971.507,12.207,40.527,37.598,13.184,97.656,0
15971.510,23.926,37.109,39.062,17.090,93.262,0
15971.514,0.000,35.156,41.016,-9.766,85.449,0
15971.518,2.441,35.645,41.992,-31.250,112.793,0
15971.522,20.020,35.645,42.480,-14.160,69.824,0
15971.526,11.719,36.621,40.527,14.160,59.570,0
15971.530,-4.395,35.156,40.039,-0.977,64.941,0
15971.534,-19.043,36.621,40.039,-5.859,60.059,0
15971.538,13.184,39.062,38.574,-11.719,-9.277,0
15971.542,27.344,38.574,39.062,-1.465,20.508,0
15971.546,29.785,36.133,41.504,38.574,80.566,0
15971.550,12.207,36.621,41.016,0.977,19.043,0
15971.553,-10.742,37.109,39.062,-44.922,-38.574,0
15971.557,0.000,33.691,35.156,-8.301,-22.461,0
15971.561,24.414,32.715,35.156,24.902,53.223,0
15971.565,22.949,34.180,40.527,-1.465,43.945,0
15971.569,8.301,35.645,41.992,-21.973,53.711,0
15971.573,8.301,36.133,37.598,3.906,4.395,0
15971.577,20.996,39.062,34.180,19.043,28.809,0
15971.581,-3.906,38.086,38.086,15.137,65.430,0
15971.585,-2.930,36.621,43.457,-11.719,81.055,0
15971.589,19.043,36.621,40.039,-40.039,73.242,0
15971.592,24.902,34.180,36.621,4.395,79.102,1
15971.596,23.438,35.156,39.551,11.230,99.609,0
15971.600,-3.418,36.621,42.480,-16.113,36.621,0
15971.604,-2.930,36.133,41.016,-8.301,23.926,0
15971.608,19.531,33.691,33.691,-4.883,19.043,0
15971.612,21.484,36.133,33.691,31.250,47.852,0
15971.616,-11.230,36.621,41.992,12.207,42.969,0
15971.620,4.883,35.156,41.992,-45.410,13.184,0
15971.624,16.113,33.203,37.598,6.836,10.254,0
15971.628,18.066,28.320,41.016,61.035,19.043,0
15971.632,16.602,31.250,42.969,-7.324,35.645,0
15971.635,24.902,37.109,39.551,-24.902,-24.902,0
15971.639,20.508,39.551,40.039,-18.066,33.203,0
15971.643,12.207,35.156,38.086,-10.742,81.543,0
15971.647,0.977,36.133,40.039,-17.578,8.789,0
15971.651,-14.648,40.527,43.457,-41.992,5.859,0
15971.655,14.160,38.574,42.480,-24.414,9.766,0
15971.659,13.672,38.086,41.016,21.973,36.621,0
15971.663,-2.930,36.621,43.457,24.902,38.086,0
15971.667,-1.953,38.086,45.898,0.000,-24.902,0
15971.671,0.977,37.109,44.922,-14.648,-29.785,0
15971.675,-0.977,33.203,41.504,-29.297,-33.203,0
15971.678,-3.418,34.180,38.574,-13.672,-8.789,0
15971.682,7.812,36.133,41.504,-23.926,41.016,0
15971.686,-4.883,39.062,41.504,-17.090,-4.883,0
15971.690,-0.977,35.156,37.598,28.809,14.160,0
15971.694,0.488,32.715,41.016,16.113,44.434,0
15971.698,-13.672,38.086,43.457,-19.531,-10.742,0
15971.702,-15.137,38.574,41.992,-38.574,39.062,0
15971.706,5.859,40.039,40.527,-18.066,84.961,0
15971.710,18.555,42.480,37.598,15.625,46.387,0
15971.714,30.273,40.527,39.551,8.789,45.898,0
15971.717,2.930,40.039,42.969,-36.133,72.754,0
15971.721,-13.672,39.551,40.527,-29.297,68.848,0
15971.725,15.137,38.574,36.621,14.648,65.430,0
15971.729,15.625,38.574,38.086,-3.418,40.039,0
15971.733,-11.719,39.062,41.992,-33.691,10.742,0
15971.737,-8.789,39.062,42.480,-14.160,53.223,0
15971.741,20.020,38.574,41.992,-7.812,75.684,0
15971.745,44.922,37.598,42.480,31.738,67.383,0
15971.749,24.902,38.086,44.922,8.789,59.570,0
15971.753,-29.297,40.039,46.875,-31.250,35.645,0
15971.757,3.418,39.062,44.434,22.949,41.992,0
15971.760,31.738,36.133,41.016,31.250,69.336,0
15971.764,-1.953,38.086,42.969,-26.855,44.434,0
15971.768,16.113,41.016,41.504,-34.180,3.418,0
15971.772,30.273,40.039,39.551,11.230,-46.387,0
15971.776,15.625,37.598,43.457,27.832,-15.137,0
15971.780,36.621,37.598,44.922,19.043,57.617,0
15971.784,-1.465,36.621,43.457,-9.277,31.738,0
15971.788,-2.930,38.574,40.039,-35.156,6.348,0
15971.792,20.020,39.062,40.527,4.395,32.715,0
15971.796,0.000,35.645,44.922,25.391,50.293,0
15971.800,9.277,37.109,49.316,-13.184,48.828,0
15971.803,6.348,35.645,48.340,-40.039,53.711,0
15971.807,-21.484,33.203,42.969,-34.180,21.973,0
15971.811,10.254,31.250,42.969,25.391,68.359,0
15971.815,26.855,33.691,47.852,15.625,117.188,0
15971.819,-4.883,35.645,45.898,-29.297,64.453,0
15971.823,-11.719,32.227,45.898,-12.207,47.852,0
15971.827,12.695,33.203,43.457,-2.441,61.035,0
15971.831,-0.488,34.180,43.945,-7.324,75.195,0
15971.835,-3.418,33.691,48.828,-14.160,72.754,0
15971.839,14.648,32.227,47.363,34.668,89.355,0
15971.842,4.395,29.785,42.480,26.367,87.891,0
15971.846,30.762,36.133,42.969,-35.645,20.508,0
15971.850,24.414,40.039,44.922,-6.348,16.602,0
15971.854,-10.254,37.109,42.969,-3.906,9.766,0
15971.858,2.930,35.645,41.504,-1.465,58.105,0
15971.862,18.555,34.180,43.945,23.926,58.594,0
15971.866,20.996,36.621,44.922,-23.926,-19.043,0
15971.870,17.090,40.527,41.504,-21.973,2.930,0
15971.874,5.859,36.621,41.016,11.230,10.254,0
15971.878,21.484,35.156,40.039,30.273,32.715,0
15971.882,38.574,34.180,41.992,22.949,-3.906,0
15971.885,7.812,33.203,45.410,-19.043,-18.066,0
15971.889,0.977,37.109,40.527,-8.301,68.848,0
15971.893,60.059,36.133,35.156,45.410,55.664,0
15971.897,20.508,34.180,40.039,13.672,61.523,0
15971.901,-17.578,35.156,41.992,-48.340,59.082,0
15971.905,9.277,32.715,38.574,-20.508,39.551,0
15971.909,9.277,29.785,38.086,20.020,61.035,0
15971.913,7.324,31.250,41.016,14.160,57.129,0
15971.917,-12.695,34.180,44.434,11.719,1.465,0
15971.921,18.066,35.156,44.434,20.508,-20.996,0
15971.925,24.902,36.621,45.898,17.578,19.043,0
15971.928,35.156,36.133,43.457,19.531,25.391,0
15971.932,22.949,35.645,41.504,17.578,6.348,0
15971.936,-7.812,31.738,42.480,13.184,12.695,0
15971.940,30.762,27.832,41.016,5.371,27.832,0
15971.944,-2.441,28.320,40.527,23.438,46.875,0
15971.948,0.488,30.762,41.016,-4.883,18.555,0
15971.952,16.602,31.250,42.969,-17.090,14.648,0
15971.956,20.020,30.273,40.527,4.395,35.645,0
15971.960,72.754,32.227,37.598,55.664,62.012,0
15971.964,24.414,32.227,43.457,46.875,43.457,0
15971.967,-17.090,29.297,42.969,-35.156,14.648,0
15971.971,4.883,31.250,39.551,0.000,18.555,0
15971.975,-7.812,29.785,39.551,28.809,26.367,0
15971.979,34.668,28.809,41.016,25.391,24.902,0
15971.983,25.879,32.715,40.039,-0.977,-16.602,0
15971.987,-11.719,35.156,37.109,-22.949,54.688,0
15971.991,6.348,36.133,38.086,17.090,133.789,0
15971.995,18.555,32.715,39.551,21.973,120.605,0
15971.999,-0.488,32.227,41.016,0.488,42.969,0
15972.003,-5.859,33.691,42.480,14.648,-0.488,0
15972.007,-3.418,31.250,39.551,-20.508,34.668,0
15972.010,13.672,30.762,34.180,-6.348,71.777,0
15972.014,19.043,33.691,37.109,6.836,68.848,0
15972.018,-16.602,32.227,40.527,-15.137,40.527,0
15972.022,4.395,32.227,36.621,-10.254,63.477,0
15972.026,53.223,33.203,33.691,15.137,69.824,0
15972.030,-0.977,32.715,35.156,9.766,61.523,0
15972.034,-31.738,31.738,38.574,-22.461,-2.441,0
15972.038,-1.465,27.832,42.969,-12.207,33.691,0
15972.042,29.785,27.344,42.969,44.434,16.113,0
15972.046,6.836,34.180,40.039,13.672,-53.223,0
15972.050,-34.180,38.574,36.133,-50.781,-29.785,0
15972.053,4.395,40.527,35.156,-4.883,16.602,0
15972.057,47.363,39.062,36.133,31.738,61.523,0
15972.061,-1.465,31.738,35.645,16.113,58.594,0
15972.065,-21.484,33.203,41.016,-28.320,61.035,0
15972.069,22.949,39.062,41.992,-27.344,16.602,0
15972.073,23.926,40.527,37.598,3.906,38.574,0
15972.077,2.930,37.598,34.668,17.578,46.387,0
15972.081,0.000,33.203,38.574,-15.137,24.902,0
15972.085,6.836,34.180,41.504,-26.855,39.551,0
15972.089,9.277,36.133,39.551,-1.953,33.203,0
15972.092,24.902,35.156,35.156,0.977,92.285,0
15972.096,18.066,38.086,35.156,-5.371,54.199,0
15972.100,-8.301,40.039,37.598,-36.133,11.230,0
15972.104,-4.883,38.086,38.086,-25.391,12.695,0
15972.108,26.855,38.574,37.109,-8.301,-4.395,0
15972.112,41.016,38.086,36.621,15.137,29.297,0
15972.116,-2.930,36.621,43.457,-5.859,9.277,0
15972.120,-2.441,35.156,47.363,-23.926,-19.531,0
15972.124,23.438,36.621,41.992,-4.883,33.203,0
15972.128,4.395,38.574,37.598,11.230,38.086,0
15972.132,3.418,37.598,41.016,7.324,-3.906,1
15972.135,4.395,39.062,42.480,2.441,4.395,0
15972.139,1.953,37.109,39.062,11.719,9.277,0
15972.143,17.578,37.109,36.133,-1.953,53.223,0
15972.147,55.664,41.504,32.715,-23.438,64.941,0
15972.151,5.859,40.039,31.738,-42.480,50.781,0
15972.155,-36.133,35.156,35.156,-0.488,9.766,0
15972.159,6.836,31.738,34.668,42.480,31.250,0
15972.163,18.066,32.227,38.086,12.695,94.727,0
15972.167,-1.953,35.645,39.551,-29.297,59.082,0
15972.171,28.320,37.598,33.691,-20.020,23.438,0
15972.175,39.062,35.645,33.203,14.648,51.270,0
15972.178,1.953,32.715,36.621,24.414,54.199,0
15972.182,6.348,35.156,40.039,-13.672,34.668,0
15972.186,5.859,36.133,38.574,-21.484,49.805,0
15972.190,-7.812,35.156,34.180,-10.742,23.438,0
15972.194,12.695,35.645,32.715,20.508,11.719,0
15972.198,23.438,37.109,36.621,0.977,70.312,0
15972.202,-0.488,36.133,41.504,-32.715,89.844,0
15972.206,-1.465,32.715,39.551,-8.301,65.918,0
15972.210,12.207,29.785,36.133,14.648,19.043,0
15972.214,8.301,33.203,41.016,12.207,10.742,0
15972.217,7.324,35.156,42.969,-10.742,-14.160,0
15972.221,16.602,33.203,37.598,-34.180,-21.484,0
15972.225,30.762,34.180,35.645,-9.277,41.992,0
15972.229,24.902,37.598,37.109,12.207,53.711,0
15972.233,-20.996,38.086,38.086,-17.578,-23.926,0
15972.237,-26.855,38.086,38.574,-16.602,-1.465,0
15972.241,23.438,36.621,38.086,21.484,40.039,0
15972.245,33.691,36.133,38.574,18.555,13.184,0
15972.249,-2.441,37.598,42.480,-26.367,20.020,0
15972.253,-12.207,36.621,42.480,-20.020,43.457,0
15972.257,54.688,37.109,40.527,9.766,42.969,0
15972.260,77.637,39.551,41.016,24.902,0.977,0
15972.264,5.371,40.039,44.922,47.363,11.230,0
15972.268,-2.441,39.062,45.410,22.461,74.707,0
15972.272,-4.883,38.086,41.992,2.441,61.035,0
15972.276,1.953,34.668,41.016,1.953,60.059,0
15972.280,11.230,36.133,41.504,-1.953,73.730,0
15972.284,9.766,36.621,45.898,7.812,54.688,0
15972.288,55.664,39.062,43.945,-6.836,27.344,0
15972.292,52.734,41.016,40.039,16.602,14.160,0
15972.296,5.859,38.574,43.457,38.574,51.758,0
15972.300,7.324,39.551,42.969,3.906,37.109,0
15972.303,24.414,38.574,41.992,-25.879,9.277,0
15972.307,30.762,39.551,41.992,11.719,29.297,0
15972.311,38.574,40.527,38.574,25.391,46.875,0
15972.315,52.734,39.551,43.945,-9.766,46.875,0
15972.319,39.551,44.922,42.480,-21.484,37.598,0
15972.323,8.301,47.363,36.133,-14.648,22.949,0
15972.327,1.953,37.598,35.645,16.602,11.719,0
15972.331,4.883,29.297,36.621,2.930,0.488,0
15972.335,9.277,27.344,43.457,6.836,25.391,0
15972.339,39.062,30.762,42.969,5.859,20.508,0
15972.342,19.531,34.180,36.621,-5.859,19.531,0
15972.346,7.812,34.668,36.621,7.812,11.230,0
15972.350,-5.859,35.156,41.992,-10.254,-17.090,0
15972.354,-31.250,31.250,43.457,-52.246,11.230,0
15972.358,-4.395,26.855,39.551,-16.113,54.199,0
15972.362,-7.324,30.762,40.039,13.184,22.461,0
15972.366,-30.762,33.203,44.922,-23.438,12.207,0
15972.370,-51.270,33.691,43.945,-21.973,28.809,0
15972.374,-49.805,32.715,42.480,33.203,0.000,0
15972.378,-34.668,32.227,46.387,32.227,35.156,0
15972.382,-51.758,34.668,48.828,-22.461,41.992,0
15972.385,-84.473,35.156,47.852,-41.504,38.574,0
15972.389,-50.781,31.250,44.922,-30.762,22.949,0
15972.393,-50.293,29.785,44.434,4.883,42.969,0
15972.397,-79.102,33.203,46.387,0.977,35.156,0
15972.401,-74.707,35.645,46.875,2.930,34.668,0
15972.405,-97.656,33.691,47.363,33.691,54.688,0
15972.409,-81.055,32.715,41.992,4.883,-8.789,0
15972.413,-64.941,34.180,41.504,-4.395,14.160,0
15972.417,-69.824,36.133,41.016,-15.625,33.203,0
15972.421,-64.941,38.086,35.645,-9.766,-16.113,0
15972.425,-73.730,35.645,35.156,-0.488,58.105,0
15972.428,-95.703,36.133,34.668,-7.812,83.496,0
15972.432,-99.121,36.133,36.621,-1.953,70.801,0
15972.436,-104.492,33.203,40.527,7.812,78.125,0
15972.440,-92.773,32.715,39.062,13.672,25.391,0
15972.444,-47.852,32.715,37.598,25.391,-4.395,0
15972.448,-68.359,33.691,39.062,14.648,22.461,0
15972.452,-99.609,33.691,39.062,6.836,13.184,0
15972.456,-101.074,32.715,41.504,14.160,40.527,0
15972.460,-98.633,32.715,41.504,32.227,86.914,0
15972.464,-68.848,33.691,42.969,-13.672,49.805,0
15972.467,-69.336,34.180,40.039,-57.617,20.996,0
15972.471,-92.285,33.691,37.109,-4.395,46.875,0
15972.475,-73.730,30.273,37.598,39.551,68.359,0
15972.479,-71.777,30.273,35.645,25.391,28.320,0
15972.483,-83.984,34.180,35.156,-1.953,0.000,0
15972.487,-66.406,35.645,36.621,-13.672,46.387,0
15972.491,-49.805,33.203,35.156,0.977,47.363,0
15972.495,-49.805,33.691,36.133,44.434,41.992,0
15972.499,-69.336,38.574,41.992,32.715,71.777,0
15972.503,-91.309,33.691,41.504,-13.184,34.180,0
15972.507,-80.566,28.320,40.039,6.836,3.418,0
15972.510,-62.988,27.832,41.016,31.738,78.125,0
15972.514,-77.148,31.738,44.922,18.066,46.387,0
15972.518,-91.309,35.156,44.434,10.254,30.762,0
15972.522,-41.016,31.250,40.527,38.086,88.867,0
15972.526,-32.715,31.250,36.133,18.555,89.355,0
15972.530,-75.195,35.156,38.086,-21.973,51.758,0
15972.534,-77.637,34.668,43.457,-17.090,-2.930,0
15972.538,-67.383,35.645,41.992,-2.441,15.137,0
15972.542,-47.363,34.180,40.039,34.668,48.340,0
15972.546,-45.898,30.762,41.992,29.785,70.801,0
15972.550,-61.035,30.273,43.457,5.371,78.125,0
15972.553,-76.172,29.297,42.969,-10.254,40.527,0
15972.557,-73.242,29.297,39.062,-4.883,69.336,0
15972.561,-38.086,30.762,37.598,29.785,82.031,0
15972.565,-26.855,33.203,40.039,-11.230,28.809,0
15972.569,-58.105,35.645,39.551,-33.203,3.906,0
15972.573,-60.059,30.762,38.086,-5.371,43.945,0
15972.577,-24.414,25.391,36.621,41.016,75.195,0
15972.581,-24.414,26.855,41.992,32.715,43.457,0
15972.585,-50.293,29.297,48.340,-21.973,22.461,0
15972.589,-46.875,28.809,45.898,-5.859,-19.531,0
15972.592,-26.855,28.809,40.527,48.340,-11.719,0
15972.596,-37.598,33.203,42.969,26.855,58.105,0
15972.600,-36.621,38.086,45.410,-22.461,14.160,0
15972.604,-3.906,37.598,41.504,-3.906,-10.254,0
15972.608,-19.531,37.598,38.574,25.879,63.477,0
15972.612,-37.109,37.598,41.016,17.090,26.367,0
15972.616,-35.156,36.133,45.898,13.672,-9.277,0
15972.620,-22.949,36.621,43.945,-15.137,15.137,0
15972.624,-13.672,35.645,38.574,-7.324,25.391,0
15972.628,-16.602,33.691,35.645,22.461,28.320,0
15972.632,-21.973,34.668,39.062,-28.320,-2.441,0
15972.635,-39.062,36.133,37.598,-23.926,-5.859,1
15972.639,0.488,36.621,34.180,-0.488,57.129,0
15972.643,14.160,35.645,36.133,37.109,49.316,0
15972.647,-37.598,36.621,42.480,21.973,28.320,0
15972.651,-39.551,36.621,46.387,-46.387,71.777,0
15972.655,-12.695,32.715,43.945,-20.508,11.230,0
15972.659,-9.766,31.738,36.133,14.160,58.105,0
15972.663,-29.297,29.785,40.527,-7.324,149.414,0
15972.667,2.930,32.227,44.434,-26.855,62.988,0
15972.671,-8.301,37.109,41.504,-2.441,33.203,0
15972.675,-11.230,35.645,41.016,-0.977,46.875,0
15972.678,-3.418,34.668,39.551,7.812,66.406,0
15972.682,-27.344,30.762,43.457,7.812,40.039,0
15972.686,-7.324,28.809,43.457,-16.602,20.508,0
15972.690,-3.906,32.715,38.086,-7.324,-0.977,0
15972.694,4.395,36.621,36.621,24.414,-13.672,0
15972.698,2.441,38.574,38.574,9.277,30.762,0
15972.702,-35.645,35.156,43.457,-20.020,49.316,0
15972.706,-24.902,32.715,39.551,-20.996,41.016,0
15972.710,-5.859,34.668,34.668,5.371,50.293,0
15972.714,-7.324,37.598,41.992,23.926,25.391,0
15972.717,1.465,39.551,44.922,-12.207,-41.016,0
15972.721,-14.160,39.062,41.992,-21.484,-29.297,0
15972.725,-18.066,37.598,38.574,-5.371,8.301,0
15972.729,19.043,37.598,39.062,7.812,57.617,0
15972.733,-2.441,37.598,43.945,4.883,29.297,0
15972.737,-20.508,34.180,44.434,-3.418,23.926,0
15972.741,17.090,34.668,42.480,21.484,37.109,0
15972.745,39.062,35.645,43.457,19.043,34.180,0
15972.749,-3.418,38.574,42.480,-14.648,42.969,0
15972.753,-24.902,42.969,39.062,-15.625,59.082,0
15972.757,4.395,40.527,40.039,3.906,44.434,0
15972.760,23.438,38.086,39.551,13.184,53.711,0
15972.764,30.273,39.551,43.457,14.160,76.172,0
15972.768,56.641,42.480,42.480,22.461,38.574,0
15972.772,10.742,39.551,38.086,15.625,73.242,0
15972.776,-6.836,35.156,36.621,4.395,95.215,0
15972.780,16.602,37.109,36.621,-6.836,53.223,0
15972.784,8.789,38.086,39.062,-12.695,-3.418,0
15972.788,18.555,35.645,36.133,-5.371,-33.691,0
15972.792,46.387,32.227,36.621,39.551,-7.812,0
15972.796,42.969,30.273,41.504,59.082,9.766,0
15972.800,12.207,36.133,41.504,-25.879,10.254,0
15972.803,-13.184,38.574,39.551,-44.922,-10.742,0
15972.807,1.465,36.621,37.598,-20.508,-3.906,0
15972.811,38.574,35.645,38.086,29.297,63.965,0
15972.815,3.418,35.645,44.434,25.879,19.531,0
15972.819,-7.324,37.598,41.992,-21.973,-15.625,0
15972.823,17.578,35.156,34.180,-6.836,64.941,0
15972.827,5.859,31.250,32.227,9.277,83.496,0
15972.831,5.859,34.180,38.086,17.090,65.430,0
15972.835,22.949,37.109,41.016,-17.090,26.367,0
15972.839,18.555,34.668,39.062,12.207,42.969,0
15972.842,33.691,33.203,38.086,40.039,52.246,0
15972.846,20.996,36.133,40.527,-11.230,34.180,0
15972.850,-13.184,37.598,42.969,-27.832,51.758,0
15972.854,-6.348,35.156,40.039,-13.184,41.504,0
15972.858,19.043,31.250,36.621,3.906,104.492,0
15972.862,23.926,31.250,41.016,17.090,74.707,0
15972.866,15.137,32.715,45.898,8.789,25.879,0
15972.870,12.207,32.227,42.969,-3.418,54.688,0
15972.874,18.555,31.738,41.504,1.465,62.500,0
15972.878,18.066,31.250,41.504,6.836,48.828,0
15972.882,-7.812,29.785,44.922,43.945,20.996,0
15972.885,-14.160,29.785,44.922,0.977,5.371,0
15972.889,7.812,32.227,38.086,-59.570,39.551,0
15972.893,36.133,29.297,37.598,31.738,105.469,0
15972.897,58.594,29.297,43.945,28.320,32.227,0
15972.901,9.766,34.668,41.504,-44.922,-20.020,0
15972.905,-21.484,34.668,39.062,-5.859,25.391,0
15972.909,29.785,32.715,38.574,45.410,86.426,0
15972.913,40.527,37.109,40.039,15.625,85.449,0
15972.917,8.301,38.086,43.945,-7.324,18.555,0
15972.921,3.906,31.250,44.922,0.000,72.266,0
15972.925,31.738,27.344,41.016,-3.418,68.359,0
15972.928,47.852,30.762,41.016,14.160,19.043,0
15972.932,30.273,34.180,43.457,-2.930,40.527,0
15972.936,6.348,36.621,44.434,-11.719,45.410,0
15972.940,10.742,38.086,40.527,32.715,33.203,0
15972.944,25.879,31.250,39.551,55.176,58.105,0
15972.948,12.695,30.762,42.480,-18.555,56.641,0
15972.952,20.508,37.109,40.039,-48.340,11.230,0
15972.956,13.184,39.062,37.109,-32.227,40.039,0
15972.960,26.855,35.156,34.180,0.000,57.129,0
15972.964,51.270,36.621,34.180,3.418,-21.484,0
15972.967,36.133,37.598,34.668,-2.930,-38.086,0
15972.971,1.953,32.227,37.598,3.906,-13.672,0
15972.975,-12.695,28.320,39.062,-5.371,55.664,0
15972.979,7.812,29.785,40.039,-15.625,49.316,0
15972.983,13.184,32.715,43.457,-30.273,9.766,0
15972.987,23.438,33.203,41.504,-34.180,30.762,0
15972.991,35.156,35.156,34.668,-1.465,-20.996,0
15972.995,28.320,34.668,33.691,-9.766,-24.414,0
15972.999,11.230,32.227,38.574,-4.883,18.555,0
15973.003,-24.414,34.180,41.016,14.160,-14.648,0
15973.007,0.977,35.156,40.527,-16.602,31.250,0
15973.010,33.203,31.738,41.504,-8.301,110.840,0
15973.014,5.371,30.762,44.922,-10.742,68.848,0
15973.018,7.324,29.785,46.387,-12.695,42.480,0
15973.022,28.809,29.297,44.434,-18.066,54.688,0
15973.026,20.508,32.715,39.551,0.977,45.410,0
15973.030,-0.488,32.715,38.086,-3.906,65.430,0
15973.034,-16.113,30.273,41.504,-25.391,70.801,0
15973.038,-7.812,31.738,42.969,-31.250,59.082,0
15973.042,16.113,31.250,40.039,0.488,65.918,0
15973.046,14.648,33.203,38.574,17.090,31.738,0
15973.050,5.371,38.086,42.480,-12.695,14.160,0
15973.053,6.836,39.551,43.457,-19.043,10.254,0
15973.057,19.531,36.621,41.992,4.395,40.527,0
15973.061,40.039,33.203,42.480,16.602,55.176,0
15973.065,25.391,36.133,43.457,2.441,41.992,0
15973.069,-16.602,38.574,43.945,-15.137,38.574,0
15973.073,3.418,41.016,43.945,-2.930,41.992,0
15973.077,65.918,41.504,41.016,12.695,24.902,0
15973.081,37.109,39.551,43.457,17.578,30.762,0
15973.085,-11.719,41.504,47.852,-5.859,3.418,0
15973.089,-1.465,41.992,48.340,-29.297,1.953,0
15973.092,31.738,37.109,47.363,0.000,83.496,0
15973.096,43.945,39.062,45.410,-13.184,74.707,0
15973.100,-8.789,40.527,47.852,-20.996,29.785,0
15973.104,-3.906,34.668,50.781,-5.371,-5.371,0
15973.108,35.156,33.203,44.922,8.301,-53.223,0
15973.112,47.363,36.621,41.992,12.695,-7.324,0
15973.116,14.160,39.551,44.922,-16.602,-13.184,0
15973.120,-0.488,41.504,43.945,-10.254,0.977,0
15973.124,41.016,44.922,39.062,4.883,30.762,0
15973.128,38.574,43.457,36.621,-2.930,41.504,0
15973.132,-8.789,38.574,41.992,-11.719,52.734,0
15973.135,-38.086,39.551,45.410,-29.297,5.859,0
15973.139,-12.695,38.574,45.898,-8.301,26.367,0
15973.143,20.020,36.621,45.898,20.508,56.641,0
15973.147,2.930,35.156,45.898,0.977,65.918,0
15973.151,2.930,34.668,45.410,-28.809,79.590,0
15973.155,-6.348,36.621,44.434,-25.879,53.223,0
15973.159,0.977,36.621,43.457,12.207,56.152,0
15973.163,8.789,34.180,44.922,11.230,42.480,0
15973.167,-10.254,38.574,44.922,-20.020,28.809,0
15973.171,-8.789,38.574,44.434,-15.137,50.781,0
15973.175,17.090,35.156,42.969,15.625,45.410,0
15973.178,19.043,32.227,41.016,7.324,20.020,0
15973.182,8.301,29.297,45.898,-12.695,-16.602,0
15973.186,-13.184,34.180,46.875,-25.879,13.184,1
15973.190,-1.953,36.621,41.016,-16.602,44.922,0
15973.194,14.160,36.621,41.504,15.625,-8.301,0
15973.198,9.766,33.691,43.945,0.488,-4.395,0
15973.202,0.977,33.691,44.922,-12.695,12.695,0
15973.206,5.859,37.598,44.434,24.414,26.855,0
15973.210,18.066,35.645,42.969,55.176,54.688,0
15973.214,28.320,34.668,44.434,17.578,31.250,0
15973.217,6.348,36.621,44.922,-37.109,19.043,0
15973.221,-39.062,32.227,42.969,-27.344,29.297,0
15973.225,-10.254,32.227,42.480,16.602,25.391,0
15973.229,18.066,36.133,44.434,0.977,1.465,0
15973.233,14.160,37.109,44.922,-18.555,-22.461,0
15973.237,14.648,38.574,40.527,-15.625,4.395,0
15973.241,-11.719,36.621,37.109,6.836,67.871,0
15973.245,-27.344,27.832,39.062,44.434,73.242,0
15973.249,-33.203,27.832,41.504,-13.672,51.758,0
15973.253,-30.273,34.180,42.480,4.883,64.453,0
15973.257,-17.090,33.203,40.527,29.785,30.273,0
15973.260,-26.855,33.691,39.062,-20.508,57.129,0
15973.264,-45.410,37.598,38.086,-32.715,71.289,0
15973.268,-80.566,40.039,36.621,-53.223,65.918,0
15973.272,-62.500,37.598,34.668,-27.832,32.227,0
15973.276,-45.898,36.133,33.203,26.855,1.953,0
15973.280,-95.703,35.645,38.086,12.207,17.090,0
15973.284,-103.027,36.133,42.480,-21.973,58.594,0
15973.288,-88.867,37.598,38.086,-0.977,80.566,0
15973.292,-85.938,35.156,32.227,2.441,51.270,0
15973.296,-92.285,33.691,33.203,-8.301,42.480,0
15973.300,-104.980,37.598,39.551,-10.742,65.918,0
15973.303,-104.980,36.133,43.457,-18.555,19.531,0
15973.307,-108.887,32.715,41.016,-13.672,29.297,0
15973.311,-101.074,32.227,38.086,8.789,104.004,0
15973.315,-119.629,36.133,40.527,-14.160,59.082,0
15973.319,-113.281,36.621,41.504,-2.930,14.160,0
15973.323,-74.219,34.180,42.480,25.391,43.457,0
15973.327,-75.684,35.645,41.016,3.418,69.824,0
15973.331,-124.512,36.621,39.062,25.391,48.828,0
15973.335,-111.816,33.203,39.551,19.043,-13.672,0
15973.339,-83.984,33.203,38.086,-14.160,-16.113,0
15973.342,-71.777,33.203,37.109,14.648,45.898,0
15973.346,-60.059,32.715,39.551,22.461,68.848,0
15973.350,-72.754,34.180,42.480,26.367,101.074,0
15973.354,-97.168,34.668,42.480,-7.324,63.965,0
15973.358,-96.191,35.645,39.551,-26.855,27.344,0
15973.362,-75.195,34.180,39.551,15.137,13.672,0
15973.366,-85.449,36.133,42.969,-14.160,-20.020,0
15973.370,-66.406,39.062,42.969,4.883,7.812,0
15973.374,-55.176,36.621,40.527,31.250,-14.160,0
15973.378,-70.312,34.668,40.039,8.301,33.691,0
15973.382,-53.711,36.133,43.457,-6.348,42.969,0
15973.385,-37.109,38.086,43.457,-23.438,3.906,0
15973.389,-85.938,35.645,39.062,12.695,23.926,0
15973.393,-89.844,29.785,35.156,40.039,0.977,0
15973.397,-63.965,33.691,37.109,13.672,27.344,0
15973.401,-59.082,39.551,41.992,5.371,34.668,0
15973.405,-65.918,40.527,40.527,-2.441,66.895,0
15973.409,-68.359,37.598,34.180,0.000,56.152,0
15973.413,-62.500,36.133,36.133,5.371,7.812,0
15973.417,-71.777,36.621,42.969,1.465,15.625,0
15973.421,-83.008,36.133,43.945,-3.906,39.551,0
15973.425,-75.195,36.133,41.992,-9.766,41.016,0
15973.428,-71.777,35.156,42.969,5.371,17.090,0
15973.432,-80.078,36.621,44.922,-3.418,30.762,0
15973.436,-63.965,34.180,43.945,-34.668,-3.906,0
15973.440,-62.012,30.273,39.551,-13.672,-27.832,0
15973.444,-39.551,35.156,38.574,21.973,41.016,0
15973.448,-38.086,41.016,41.992,-8.301,48.828,0
15973.452,-54.688,38.574,44.922,-34.180,35.645,0
15973.456,-59.082,34.668,40.039,-8.301,15.625,0
15973.460,-50.293,33.203,36.621,38.574,28.809,0
15973.464,-47.363,34.180,41.504,48.340,41.504,0
15973.467,-58.105,37.109,43.457,-0.488,-41.504,0
15973.471,-44.434,39.062,40.039,-37.109,-58.105,0
15973.475,-32.227,36.621,37.109,20.996,14.648,0
15973.479,-44.922,35.645,38.086,39.551,86.426,0
15973.483,-53.711,38.086,41.504,-14.160,108.398,0
15973.487,-47.852,33.203,42.969,20.996,56.152,0
15973.491,-34.668,32.227,39.062,57.129,53.223,0
15973.495,1.465,37.109,37.598,-2.930,104.492,0
15973.499,-15.137,38.574,41.016,-37.109,72.266,0
15973.503,-35.645,39.062,42.969,-20.508,71.777,0
15973.507,-14.160,37.109,39.062,-11.719,35.156,0
15973.510,19.531,35.645,34.180,1.465,0.977,0
15973.514,44.922,39.551,38.086,3.906,3.418,0
15973.518,-17.090,40.527,43.945,12.207,-32.715,0
15973.522,-22.949,36.621,44.434,13.184,5.859,0
15973.526,13.184,35.645,41.992,15.625,-23.926,0
15973.530,23.438,34.668,43.457,20.020,-32.227,0
15973.534,-16.602,34.668,48.828,-6.348,10.254,0
15973.538,-36.133,35.156,47.363,-14.648,-18.066,0
15973.542,1.953,32.715,42.969,5.859,0.488,0
15973.546,6.836,32.715,42.480,10.254,6.348,0
15973.550,-10.254,32.227,42.480,-0.977,25.879,0
15973.553,-0.977,30.762,42.480,-4.883,45.410,0
15973.557,3.906,29.297,39.062,6.348,78.613,0
15973.561,4.883,29.297,38.574,11.230,86.426,0
15973.565,5.371,30.273,46.387,-4.883,68.359,0
15973.569,1.953,30.273,47.363,-9.277,43.945,0
15973.573,-19.531,30.273,40.039,3.906,26.855,0
15973.577,15.625,27.832,36.621,16.602,62.988,0
15973.581,15.137,24.902,41.992,-15.625,64.941,0
15973.585,-28.809,27.832,47.363,-15.625,28.809,0
15973.589,-8.789,31.738,45.898,-7.324,54.199,0
15973.592,35.156,34.180,41.016,8.301,97.656,0
15973.596,11.719,35.156,40.527,12.207,49.805,0
15973.600,-33.691,33.203,43.457,-13.672,25.391,0
15973.604,-10.742,30.762,45.410,-12.695,9.277,0
15973.608,31.250,28.809,40.527,19.043,20.996,0
15973.612,25.879,28.320,40.039,37.598,30.762,0
15973.616,28.320,29.297,46.875,-1.465,24.414,0
15973.620,25.391,32.715,45.898,-8.789,61.035,0
15973.624,26.367,34.180,45.410,3.418,67.871,0
15973.628,22.949,33.691,43.457,9.766,67.871,0
15973.632,-5.371,31.738,43.457,9.766,51.758,0
15973.635,3.418,29.785,43.457,-4.883,50.293,0
15973.639,26.855,28.809,38.086,10.254,60.547,0
15973.643,43.945,27.344,36.133,52.734,48.828,0
15973.647,23.438,31.738,40.527,3.418,40.039,0
15973.651,34.180,35.645,39.062,-28.320,23.926,0
15973.655,51.270,33.203,32.227,-33.203,14.648,0
15973.659,18.555,26.367,35.645,5.371,35.156,0
15973.663,15.625,25.391,41.016,20.996,68.848,0
15973.667,29.785,31.250,39.551,-21.973,14.648,0
15973.671,42.969,37.598,37.598,0.000,7.812,0
15973.675,41.016,37.109,33.203,13.184,44.434,0
15973.678,30.273,32.715,36.621,7.812,63.965,0
15973.682,6.348,32.227,41.504,-3.906,49.316,0
15973.686,20.020,32.227,39.551,-16.113,-4.395,0
15973.690,54.688,33.691,35.156,10.742,0.000,0
15973.694,47.852,33.691,35.156,32.715,90.820,0
15973.698,27.344,34.180,41.504,12.207,56.641,0
15973.702,16.602,34.668,42.480,2.930,8.789,0
15973.706,23.438,34.180,41.016,-4.883,47.363,0
15973.710,35.645,32.715,37.109,-1.465,63.477,0
15973.714,48.340,33.203,38.086,2.441,63.477,0
15973.717,34.668,34.180,40.039,-2.441,14.648,0
15973.721,11.719,34.668,39.551,-20.996,-29.297,0
15973.725,23.438,32.715,40.527,8.789,12.207,0
15973.729,38.574,26.855,40.527,21.973,59.082,0
15973.733,35.645,28.320,41.504,-24.902,23.926,0
15973.737,31.250,32.227,39.062,-24.414,77.148,0
15973.741,33.203,29.785,36.133,4.395,58.105,0
15973.745,42.480,27.832,38.086,23.438,10.742,0
15973.749,37.109,32.227,38.086,-3.418,12.207,0
15973.753,31.738,34.180,35.645,-21.973,-36.133,0
15973.757,48.340,30.762,36.133,6.348,22.461,0
15973.760,80.078,29.785,36.621,13.672,11.230,0
15973.764,30.762,33.203,39.062,-27.832,-19.531,0
15973.768,-7.324,32.227,41.504,-14.648,-30.273,0
15973.772,21.973,31.250,41.016,-13.184,-65.430,0
15973.776,54.688,33.691,35.645,2.441,73.730,0
15973.780,39.062,33.691,34.668,30.273,109.863,0
15973.784,26.855,36.133,40.527,-6.836,-32.715,0
15973.788,28.320,36.133,38.574,-14.160,-16.113,0
15973.792,43.457,34.180,36.621,14.648,69.336,0
15973.796,51.758,34.180,37.598,40.039,57.617,0
15973.800,18.066,33.691,40.039,23.438,53.711,0
15973.803,33.691,32.715,42.969,-9.277,59.570,0
15973.807,46.875,33.203,36.621,5.371,30.762,0
15973.811,24.414,30.762,34.180,-2.441,45.410,0
15973.815,27.832,29.297,41.504,-15.625,83.984,0
15973.819,38.574,31.250,42.969,-17.578,74.707,1
15973.823,45.898,33.203,40.039,-14.648,59.082,0
15973.827,39.062,34.668,34.180,-1.465,39.062,0
15973.831,44.922,36.621,34.180,-5.371,30.762,0
15973.835,40.527,36.133,37.109,-16.113,9.766,0
15973.839,45.898,34.180,34.668,11.719,22.949,0
15973.842,49.805,29.297,36.133,56.641,51.758,0
15973.846,33.203,29.785,41.992,-3.418,47.363,0
15973.850,27.832,34.180,45.410,-42.480,44.434,0
15973.854,32.227,34.180,43.945,-11.230,39.062,0
15973.858,52.734,35.645,41.016,32.227,30.762,0
15973.862,74.707,36.621,39.551,33.203,51.758,0
15973.866,53.223,38.574,42.480,-6.348,72.754,0
15973.870,20.020,40.039,43.457,-8.301,39.062,0
15973.874,33.203,37.109,38.086,0.000,41.992,0
15973.878,53.711,33.691,36.621,6.348,45.898,0
15973.882,41.016,34.180,44.922,-5.371,-20.996,0
15973.885,28.320,35.645,45.898,-24.902,-25.391,0
15973.889,38.086,34.180,37.598,-21.484,52.246,0
15973.893,28.320,30.762,35.645,20.508,24.414,0
15973.897,24.414,33.203,40.039,17.578,30.273,0
15973.901,37.109,33.691,40.527,-11.230,53.711,0
15973.905,47.363,34.180,38.086,-6.836,-22.949,0
15973.909,72.266,38.086,37.598,19.531,-43.457,0
15973.913,46.387,39.062,43.945,4.395,7.812,0
15973.917,16.602,36.621,43.457,-16.113,31.250,0
15973.921,34.668,35.156,39.551,-2.441,-3.906,0
15973.925,41.504,34.180,42.480,-4.883,35.156,0
15973.928,49.805,33.691,41.016,-2.441,74.219,0
15973.932,44.434,35.156,41.504,-19.043,1.465,0
15973.936,31.250,31.738,43.457,-14.648,-10.742,0
15973.940,48.828,32.227,43.945,13.672,39.062,0
15973.944,80.078,36.133,41.504,18.555,55.176,0
15973.948,40.527,34.180,42.480,0.000,9.277,0
15973.952,44.922,32.715,43.457,-17.578,24.414,0
15973.956,74.219,31.250,38.574,12.695,28.809,0
15973.960,48.340,31.250,39.062,49.805,22.461,0
15973.964,28.320,33.203,46.875,1.465,60.059,0
15973.967,20.508,34.668,44.922,-74.219,12.695,0
15973.971,48.828,36.621,40.039,-41.992,9.277,0
15973.975,54.199,33.691,40.527,24.902,33.203,0
15973.979,53.711,33.691,43.457,23.438,30.762,0
15973.983,46.387,33.203,48.828,-2.930,63.477,0
15973.987,63.965,32.227,47.363,-6.348,57.129,0
15973.991,84.473,34.668,41.016,24.902,46.875,0
15973.995,75.195,33.203,37.109,20.508,88.867,0
15973.999,38.086,33.691,41.992,-9.277,41.992,0
15974.003,24.414,32.227,42.969,-15.137,0.488,0
15974.007,61.523,28.809,39.551,-10.742,63.965,0
15974.010,84.961,31.250,39.062,21.973,88.379,0
15974.014,68.848,34.668,41.992,18.555,101.562,0
15974.018,56.152,35.156,45.410,-4.395,54.199,0
15974.022,68.848,35.645,43.457,-4.395,2.441,0
15974.026,62.500,35.645,38.086,-22.461,32.715,0
15974.030,62.988,34.180,40.527,22.461,62.988,0
15974.034,72.754,32.715,47.363,16.113,65.430,0
15974.038,76.172,35.645,45.410,-19.531,29.297,0
15974.042,88.379,32.715,38.086,25.879,29.785,0
15974.046,48.340,29.785,34.668,30.762,-1.953,0
15974.050,33.203,31.250,36.621,-10.742,-4.883,0
15974.053,37.598,30.762,39.062,-30.273,20.996,0
15974.057,57.129,30.273,35.645,3.418,15.137,0
15974.061,76.172,29.297,36.621,46.875,20.020,0
15974.065,52.246,29.785,42.969,0.000,18.555,0
15974.069,54.199,31.250,40.039,-39.062,69.824,0
15974.073,71.289,31.250,33.691,-6.836,91.797,0
15974.077,80.566,29.785,33.691,23.926,29.297,0
15974.081,75.684,34.180,38.086,25.879,32.227,0
15974.085,27.832,36.621,38.574,-31.250,55.176,0
15974.089,31.250,34.180,33.691,-40.039,32.227,0
15974.092,66.406,30.762,29.785,6.348,30.762,0
15974.096,60.059,30.762,34.180,-1.465,34.668,0
15974.100,41.016,31.738,41.992,-25.391,-9.277,0
15974.104,50.293,33.203,42.480,-20.020,-1.465,0
15974.108,66.895,36.621,35.645,-10.742,40.039,0
15974.112,70.312,37.109,35.645,-3.906,25.879,0
15974.116,50.293,37.109,40.039,-12.695,-20.020,0
15974.120,47.852,37.109,37.109,-28.809,-37.109,0
15974.124,68.359,35.156,36.133,-4.883,-6.836,0
15974.128,82.031,33.691,36.133,12.207,41.016,0
15974.132,59.082,33.691,39.062,-25.879,64.941,0
15974.135,43.457,34.180,41.016,-10.254,20.020,0
15974.139,66.406,32.715,39.551,14.648,43.945,0
15974.143,96.191,29.297,37.109,25.879,78.613,0
15974.147,84.961,29.297,40.527,30.273,63.965,0
15974.151,78.125,28.809,41.992,-10.254,-15.625,0
15974.155,62.988,31.738,38.086,-15.137,-23.926,0
15974.159,64.941,32.227,35.156,16.113,35.156,0
15974.163,87.891,28.809,39.551,11.719,25.391,0
15974.167,76.660,34.180,41.992,-20.020,18.066,0
15974.171,84.961,37.598,39.551,6.348,9.277,0
15974.175,94.238,36.133,37.109,32.227,9.766,0
15974.178,92.285,35.645,33.203,14.648,20.508,0
15974.182,56.152,33.203,39.062,-4.395,22.461,0
15974.186,56.152,32.227,41.992,-16.602,-24.414,0
15974.190,74.219,33.203,37.109,18.066,44.434,0
15974.194,90.332,34.180,38.574,48.828,87.402,0
15974.198,77.148,36.133,42.969,16.113,20.996,0
15974.202,61.035,36.133,43.457,-8.789,27.832,0
15974.206,69.824,34.180,38.574,-14.648,93.262,0
15974.210,94.238,34.668,36.621,20.996,123.535,0
15974.214,89.844,34.668,38.574,28.320,64.453,0
15974.217,55.664,35.645,40.527,-30.762,-37.598,0
15974.221,50.781,37.109,40.039,-2.441,-14.648,0
15974.225,60.547,36.621,38.574,21.973,76.172,0
15974.229,60.547,34.668,39.062,-5.371,79.590,0
15974.233,59.082,35.156,42.480,-8.301,48.340,0
15974.237,64.453,35.645,44.434,-12.207,-6.348,0
15974.241,64.453,31.738,42.480,15.625,-8.301,0
15974.245,61.035,31.250,41.016,28.809,52.246,0
15974.249,47.363,33.691,42.480,-10.254,5.371,0
15974.253,36.621,37.598,41.016,-13.184,14.160,0
15974.257,50.781,38.574,34.180,-0.977,69.336,0
15974.260,73.730,37.598,32.715,7.812,37.109,0
15974.264,44.434,37.109,41.504,11.719,68.359,0
15974.268,41.504,38.574,46.387,-8.301,49.805,0
15974.272,69.824,39.551,42.969,-13.184,20.996,0
15974.276,56.152,33.691,38.086,23.926,34.668,0
15974.280,57.617,31.738,41.016,31.250,44.434,0
15974.284,52.734,34.180,46.387,2.930,39.551,0
15974.288,51.758,34.668,44.922,-6.836,-3.906,0
15974.292,66.895,34.180,41.504,1.953,-3.418,0
15974.296,68.848,34.668,40.527,5.859,28.809,0
15974.300,50.781,34.180,40.527,19.043,26.855,0
15974.303,25.391,33.203,41.016,7.324,36.133,0
15974.307,52.734,34.668,37.598,26.367,-4.395,0
15974.311,78.125,30.762,37.109,41.016,2.441,0
15974.315,77.148,29.785,40.527,-42.480,60.547,0
15974.319,51.270,34.668,40.527,-31.250,68.848,0
15974.323,29.785,32.227,41.504,6.348,43.457,0
15974.327,63.477,32.715,37.109,24.902,23.926,0
15974.331,58.594,35.645,36.133,26.855,60.059,0
15974.335,23.926,31.738,41.504,-19.043,24.414,0
15974.339,42.969,33.203,40.039,-35.645,-16.113,0
15974.342,82.520,31.738,35.645,9.766,67.871,0
15974.346,64.453,33.203,36.133,19.043,73.730,0
15974.350,30.273,36.133,39.551,-1.953,-9.277,0
15974.354,38.574,37.109,37.109,1.465,24.414,0
15974.358,63.965,38.086,30.762,7.324,42.480,0
15974.362,60.059,36.621,34.180,-0.488,30.273,0
15974.366,43.457,37.598,39.062,-13.672,58.105,0
15974.370,52.246,38.574,38.086,-15.137,33.691,0
15974.374,60.059,39.551,38.086,4.883,50.293,0
15974.378,64.941,36.133,39.062,24.902,12.695,0
15974.382,37.109,38.086,41.504,-6.348,-1.953,0
15974.385,40.039,43.457,42.480,-28.320,45.410,0
15974.389,57.617,45.410,39.551,-12.207,19.043,0
15974.393,55.176,45.410,36.621,22.461,43.457,0
15974.397,66.406,44.922,41.016,23.438,28.320,0
15974.401,62.012,46.875,43.457,10.254,16.602,0
15974.405,44.922,46.875,39.062,12.207,65.918,0
15974.409,49.805,43.457,37.598,26.855,27.344,0
15974.413,63.477,41.016,41.016,31.738,4.883,0
15974.417,47.852,40.039,42.480,-11.719,-0.488,0
15974.421,48.828,38.574,38.574,-31.738,22.949,0
15974.425,55.176,36.133,37.598,5.859,55.176,0
15974.428,49.805,37.109,41.504,14.160,55.664,0
15974.432,19.531,41.016,41.992,-14.160,30.273,0
15974.436,19.531,42.480,41.504,-20.996,8.789,0
15974.440,43.457,43.945,39.551,-12.207,24.902,0
15974.444,56.152,43.457,39.551,15.625,-13.184,0
15974.448,64.453,43.457,41.504,6.348,30.762,0
15974.452,41.504,44.434,41.016,-30.273,78.125,0
15974.456,49.316,46.387,41.504,-1.953,56.641,0
15974.460,51.270,42.480,38.574,42.480,44.922,1
15974.464,36.133,41.016,40.527,8.789,29.785,0
15974.467,45.898,48.340,44.434,-44.434,46.875,0
15974.471,55.664,46.875,41.504,-13.184,63.477,0
15974.475,49.805,39.551,38.086,15.625,35.645,0
15974.479,36.133,37.109,36.621,7.324,37.109,0
15974.483,33.203,39.551,41.016,-16.602,71.777,0
15974.487,59.570,40.527,41.016,-12.207,89.355,0
15974.491,67.383,37.598,37.109,26.855,51.758,0
15974.495,40.039,36.133,37.598,22.949,40.527,0
15974.499,41.504,36.133,43.945,-9.766,37.598,0
15974.503,51.758,36.133,46.387,-5.371,53.711,0
15974.507,53.711,34.180,38.574,4.395,58.594,0
15974.510,68.848,33.691,37.598,16.113,2.441,0
15974.514,68.359,33.691,42.969,8.301,17.578,0
15974.518,17.578,34.668,41.016,-17.090,17.090,0
15974.522,11.230,34.668,41.992,-11.230,67.871,0
15974.526,50.293,32.715,41.992,5.371,137.695,0
15974.530,52.246,32.715,41.504,1.953,87.891,0
15974.534,47.852,33.691,41.992,-0.488,16.113,0
15974.538,45.898,34.180,36.621,-14.648,14.648,0
15974.542,35.156,30.762,38.574,12.695,82.031,0
15974.546,49.316,32.227,40.527,10.254,72.266,0
15974.550,41.016,36.133,37.109,-42.480,-23.926,0
15974.553,27.832,34.668,36.621,-19.043,-5.859,0
15974.557,33.691,35.645,36.133,13.672,41.992,0
15974.561,47.852,37.598,39.062,20.020,67.383,0
15974.565,83.496,37.598,43.457,10.742,45.898,0
15974.569,74.219,40.039,42.480,-6.836,-42.480,0
15974.573,23.438,41.992,39.062,-4.395,-59.082,0
15974.577,44.434,41.016,40.039,7.812,7.812,0
15974.581,49.805,39.062,44.922,20.020,29.297,0
15974.585,32.715,37.598,44.922,-3.906,-22.461,0
15974.589,38.086,37.109,41.992,-16.113,11.230,0
15974.592,49.316,35.645,35.645,19.531,14.648,0
15974.596,59.570,37.109,34.180,5.859,7.812,0
15974.600,19.531,39.551,39.551,-36.621,31.738,0
15974.604,40.527,36.621,40.039,-15.625,35.156,0
15974.608,65.918,34.180,36.133,24.902,48.340,0
15974.612,28.809,33.691,38.574,11.719,25.391,0
15974.616,18.066,34.180,42.969,-23.438,34.668,0
15974.620,19.531,36.133,40.527,20.508,24.414,0
15974.624,51.758,34.180,37.109,17.090,-22.461,0
15974.628,61.523,36.621,32.715,-34.180,-20.020,0
15974.632,21.973,38.086,35.156,7.812,33.691,0
15974.635,7.812,37.598,40.039,3.906,55.664,0
15974.639,26.367,40.527,37.109,-26.367,64.453,0
15974.643,41.504,41.016,35.156,22.461,40.039,0
15974.647,37.109,40.039,37.598,15.137,26.367,0
15974.651,27.344,39.551,37.109,-15.625,29.785,0
15974.655,25.879,38.086,35.156,6.836,12.207,0
15974.659,52.246,35.645,35.156,14.648,27.832,0
15974.663,79.590,35.645,36.621,22.949,55.664,0
15974.667,14.160,34.668,37.598,-20.508,62.988,0
15974.671,-10.742,35.156,34.668,-59.082,11.719,0
15974.675,33.691,36.621,31.250,22.461,3.418,0
15974.678,42.480,36.133,34.180,36.133,37.598,0
15974.682,27.344,37.598,39.551,-32.227,-15.137,0
15974.686,26.855,40.527,36.621,-6.836,7.324,0
15974.690,35.645,39.551,34.180,4.395,75.195,0
15974.694,34.180,35.156,33.691,8.789,47.852,0
15974.698,34.180,36.621,37.598,9.277,53.223,0
15974.702,13.672,39.062,40.527,-25.391,85.449,0
15974.706,15.625,36.621,37.598,-1.465,86.426,0
15974.710,41.016,37.109,36.621,38.086,62.500,0
15974.714,40.039,38.086,39.062,20.508,44.434,0
15974.717,18.066,40.039,42.969,-11.230,33.691,0
15974.721,19.043,41.992,42.969,0.000,96.680,0
15974.725,35.645,38.086,37.109,45.898,68.848,0
15974.729,34.180,39.062,37.109,31.250,21.484,0
15974.733,30.273,39.551,41.992,-8.301,25.391,0
15974.737,33.203,39.062,40.527,-8.301,-32.227,0
15974.741,33.203,38.574,39.062,6.836,11.230,0
15974.745,25.391,34.180,38.086,30.762,91.309,0
15974.749,37.109,34.668,38.574,11.230,67.383,0
15974.753,32.227,32.227,39.551,-18.066,20.996,0
15974.757,33.691,32.715,38.086,9.277,45.410,0
15974.760,43.457,35.156,36.133,41.016,22.949,0
15974.764,24.902,36.621,39.062,22.949,-13.672,0
15974.768,13.672,40.527,39.062,-17.090,40.039,0
15974.772,44.434,41.016,36.621,0.977,39.062,0
15974.776,54.199,40.527,36.621,24.902,56.152,0
15974.780,15.137,40.527,40.527,1.465,88.379,0
15974.784,7.812,41.016,44.434,-9.277,21.484,0
15974.788,30.273,42.969,42.969,5.371,-54.199,0
15974.792,77.148,44.434,39.551,33.691,6.348,0
15974.796,62.012,44.434,41.016,21.973,81.543,0
15974.800,5.371,45.410,42.969,-16.113,35.156,0
15974.803,22.949,43.945,40.039,-29.297,-8.301,0
15974.807,34.668,41.504,36.621,-0.488,-0.977,0
15974.811,25.879,41.992,34.180,29.785,6.348,0
15974.815,16.602,41.016,40.527,31.250,29.297,0
15974.819,18.555,41.016,44.434,5.859,31.738,0
15974.823,32.715,40.039,40.527,-3.418,26.367,0
15974.827,36.621,37.109,36.621,17.090,50.781,0
15974.831,18.066,37.598,41.016,4.395,47.363,0
15974.835,13.672,39.062,40.039,-20.020,37.598,0
15974.839,12.207,38.574,38.086,-20.996,61.035,0
15974.842,19.531,35.645,39.551,28.320,50.293,0
15974.846,41.992,36.133,42.969,24.902,27.344,0
15974.850,20.020,37.109,46.875,-12.207,59.082,0
15974.854,-5.371,36.621,42.969,0.977,10.254,0
15974.858,42.969,34.668,36.133,21.484,-43.945,0
15974.862,48.828,34.668,36.621,16.602,-13.184,0
15974.866,3.418,37.109,42.480,-22.949,64.453,0
15974.870,8.789,42.480,35.645,-29.785,19.043,0
15974.874,21.973,40.527,31.250,-0.977,36.133,0
15974.878,36.621,34.180,36.621,37.109,69.824,0
15974.882,31.738,36.133,41.504,18.555,22.949,0
15974.885,24.414,35.645,41.504,-21.484,33.691,0
15974.889,17.578,35.156,37.109,15.625,58.594,0
15974.893,27.832,35.645,35.156,35.645,87.402,0
15974.897,23.926,34.180,37.598,13.184,41.992,0
15974.901,-3.418,34.668,38.086,-20.508,0.000,0
15974.905,7.324,34.668,35.645,-51.270,36.621,0
15974.909,19.531,38.086,29.785,-18.066,17.090,0
15974.913,23.438,38.574,31.738,-6.348,56.152,0
15974.917,25.879,33.203,38.574,-24.902,50.293,0
15974.921,-1.465,29.785,39.551,8.301,-8.789,0
15974.925,2.441,26.367,36.133,20.508,-20.020,0
15974.928,34.668,29.785,33.691,-0.488,6.348,0
15974.932,22.461,38.086,36.621,-7.812,106.445,0
15974.936,4.883,36.133,38.086,-24.902,41.016,0
15974.940,27.832,34.668,37.109,-5.371,-9.766,0
15974.944,15.625,34.668,38.574,12.695,112.793,0
15974.948,2.441,34.668,41.992,13.184,128.418,0
15974.952,39.062,35.645,42.969,-5.859,42.969,0
15974.956,26.367,33.691,42.480,7.324,23.926,0
15974.960,14.648,32.227,39.062,13.672,59.570,0
15974.964,21.484,34.180,41.016,-38.086,78.125,0
15974.967,-14.648,38.086,44.922,-18.555,90.820,0
15974.971,-2.930,39.062,45.410,9.277,59.570,0
15974.975,50.293,40.039,42.480,7.812,47.363,0
15974.979,48.340,41.992,39.062,15.137,20.996,0
15974.983,8.301,41.016,45.410,9.277,-17.090,0
15974.987,36.133,41.016,47.363,15.625,75.195,0
15974.991,48.828,41.992,42.480,22.949,50.293,0
15974.995,23.438,39.062,38.574,6.836,26.367,0
15974.999,10.742,37.109,40.527,-24.902,8.789,0
15975.003,2.441,41.992,44.922,-31.250,9.277,0
15975.007,10.254,42.969,42.969,-18.555,31.738,0
15975.010,22.461,39.062,38.574,1.953,66.406,0
15975.014,16.602,37.598,41.992,-4.883,28.320,0
15975.018,9.766,40.527,43.945,-18.066,-24.902,0
15975.022,14.160,41.992,40.527,2.930,88.867,0
15975.026,32.227,41.992,38.574,50.781,109.375,0
15975.030,13.184,42.480,38.574,16.602,73.730,1
15975.034,7.812,39.551,42.480,-20.020,33.203,0
15975.038,35.156,41.504,42.969,4.883,32.715,0
15975.042,22.949,41.992,41.016,12.207,94.727,0
15975.046,41.016,40.527,39.551,-6.348,23.926,0
15975.050,23.438,42.969,40.527,-45.410,-26.855,0
15975.053,-4.395,41.504,39.551,-34.668,18.066,0
15975.057,15.625,37.598,38.086,10.254,24.902,0
15975.061,26.367,32.227,39.062,33.691,28.809,0
15975.065,20.508,28.809,39.551,-7.812,13.184,0
15975.069,12.207,31.738,40.527,7.812,48.340,0
15975.073,13.672,32.715,41.992,52.246,44.922,0
15975.077,16.602,32.227,42.969,16.602,-4.883,0
15975.081,5.859,32.715,43.457,-20.020,18.066,0
15975.085,-8.301,36.133,42.969,-24.414,-30.762,0
15975.089,4.883,36.621,42.480,-18.066,14.160,0
15975.092,22.949,31.738,38.086,17.090,69.824,0
15975.096,0.000,32.715,38.574,4.883,74.219,0
15975.100,14.648,37.598,41.016,-49.805,72.266,0
15975.104,20.996,36.621,39.551,-26.855,32.227,0
15975.108,15.137,33.203,38.574,17.090,44.434,0
15975.112,21.484,33.691,39.062,4.883,44.434,0
15975.116,-2.441,33.691,41.992,-28.809,14.648,0
15975.120,-6.836,34.668,42.969,-22.949,0.977,0
15975.124,20.996,37.598,41.016,8.301,27.832,0
15975.128,38.574,37.598,41.504,23.926,47.852,0
15975.132,35.156,34.180,44.922,-5.371,24.902,0
15975.135,11.719,35.156,45.410,-33.203,-22.949,0
15975.139,2.441,37.109,41.016,-13.184,7.812,0
15975.143,50.781,33.691,36.621,19.531,42.969,0
15975.147,42.969,34.180,38.574,-7.812,14.648,0
15975.151,0.488,36.133,41.992,-22.949,19.043,0
15975.155,23.438,36.133,41.504,28.320,-8.789,0
15975.159,35.156,36.133,38.086,34.668,-38.574,0
15975.163,29.297,39.551,36.621,10.742,-34.668,0
15975.167,2.441,41.992,40.039,1.465,-16.602,0
15975.171,1.465,40.039,39.062,8.789,-20.020,0
15975.175,30.762,41.016,36.621,4.883,2.441,0
15975.178,48.828,40.039,34.668,-0.488,40.039,0
15975.182,42.480,39.062,41.016,29.785,52.734,0
15975.186,-3.906,38.574,42.969,-2.441,52.734,0
15975.190,8.301,38.086,36.621,-12.695,87.402,0
15975.194,52.734,38.086,34.668,48.828,78.613,0
15975.198,21.484,39.062,38.574,-7.812,37.598,0
15975.202,-9.277,39.551,40.039,-41.992,67.383,0
15975.206,20.020,35.645,37.109,-4.395,62.012,0
15975.210,18.555,32.715,35.156,35.645,60.547,0
15975.214,39.062,33.691,36.621,4.883,92.285,0
15975.217,16.113,35.156,35.156,-30.762,85.938,0
15975.221,-26.855,33.203,34.180,-10.254,21.973,0
15975.225,16.602,33.203,34.668,21.484,-30.762,0
15975.229,15.137,35.156,37.109,46.875,-10.742,0
15975.233,-3.418,37.598,41.504,-8.301,39.551,0
15975.237,-5.859,38.086,38.574,-24.414,20.020,0
15975.241,18.555,40.039,35.645,16.113,41.992,0
15975.245,27.832,37.598,36.621,16.113,50.781,0
15975.249,15.625,34.668,36.621,-22.949,8.789,0
15975.253,2.441,35.156,36.621,-28.320,35.156,0
15975.257,0.000,30.762,38.086,-3.418,78.125,0
15975.260,17.090,25.879,38.086,31.250,38.086,0
15975.264,37.598,28.320,45.410,4.883,-10.742,0
15975.268,5.371,34.668,47.363,-26.855,8.301,0
15975.272,-9.766,34.668,44.434,3.418,12.695,0
15975.276,39.062,30.762,41.016,21.973,41.016,0
15975.280,50.781,33.203,38.086,45.898,70.801,0
15975.284,32.227,35.645,41.992,5.371,60.059,0
15975.288,-13.672,33.203,39.062,-24.414,42.480,0
15975.292,18.555,31.250,34.668,22.461,28.320,0
15975.296,28.320,30.762,37.598,16.113,50.293,0
