timestamps,TP9,AF7,AF8,TP10,Right AUX,Marker0
1553633001.580,58.594,22.949,20.020,93.750,89.844,0
1553633001.584,81.055,23.438,25.391,86.914,89.355,0
1553633001.588,90.332,29.297,25.879,67.871,41.992,0
1553633001.592,70.801,29.785,22.461,93.750,72.266,0
1553633001.596,73.730,29.785,21.484,87.891,64.453,0
1553633001.600,81.543,27.832,13.184,83.008,72.266,0
1553633001.604,78.125,20.508,6.348,82.520,67.383,0
1553633001.608,67.383,22.461,22.949,77.148,13.672,0
1553633001.612,80.078,31.738,29.785,85.449,18.066,0
1553633001.615,79.102,33.691,22.949,88.867,48.340,0
1553633001.619,51.270,29.785,30.273,76.172,72.266,0
1553633001.623,45.898,25.391,31.250,75.684,39.062,0
1553633001.627,52.246,25.879,28.320,83.984,31.738,0
1553633001.631,62.012,29.785,27.832,83.008,38.574,0
1553633001.635,90.820,24.902,25.391,92.285,58.594,0
1553633001.639,125.000,22.949,19.531,88.379,43.457,0
1553633001.643,82.520,21.484,23.926,69.824,33.691,0
1553633001.647,36.621,16.602,24.414,111.816,76.660,0
1553633001.651,51.270,17.578,20.020,106.445,66.406,0
1553633001.655,104.004,18.555,25.391,76.660,47.852,0
1553633001.658,92.773,22.461,34.180,95.215,79.102,0
1553633001.662,51.758,22.461,32.227,82.031,76.660,0
1553633001.666,60.059,28.320,28.320,73.730,39.062,0
1553633001.670,80.566,32.715,32.715,96.680,50.781,0
1553633001.674,88.379,31.250,35.645,96.680,31.250,0
1553633001.678,67.383,26.855,27.344,72.266,8.789,0
1553633001.682,57.617,24.902,21.973,68.848,13.672,0
1553633001.686,67.871,27.344,26.855,72.754,-3.418,0
1553633001.690,93.262,25.879,32.227,81.055,-30.273,0
1553633001.694,77.637,24.414,34.180,78.613,-24.414,0
1553633001.697,30.273,26.367,25.879,86.426,20.508,0
1553633001.701,58.594,29.785,27.832,107.422,33.203,0
1553633001.705,99.609,23.926,35.156,101.562,40.527,0
1553633001.709,78.613,22.949,31.250,97.168,47.363,0
1553633001.713,65.430,24.414,30.273,92.773,46.875,0
1553633001.717,59.082,21.484,29.785,88.379,65.918,0
1553633001.721,62.500,22.949,27.832,92.773,53.711,0
1553633001.725,68.359,21.484,26.855,76.172,-5.859,0
1553633001.729,66.895,20.020,26.367,85.938,-21.484,0
1553633001.733,75.195,20.996,26.855,89.844,63.965,0
1553633001.737,69.824,29.297,25.879,84.961,57.129,0
1553633001.740,45.410,33.203,25.391,88.379,17.578,0
1553633001.744,63.965,33.203,23.926,64.941,35.156,0
1553633001.748,66.406,30.762,27.344,75.684,42.480,0
1553633001.752,42.969,25.391,34.668,100.098,37.109,0
1553633001.756,26.367,20.996,35.156,84.473,2.441,0
1553633001.760,49.316,24.902,29.785,58.594,13.672,0
1553633001.764,51.270,25.879,24.902,54.688,24.414,0
1553633001.768,18.066,20.020,24.902,59.570,6.836,0
1553633001.772,26.855,18.555,27.344,63.477,1.953,0
1553633001.776,44.922,24.414,26.367,80.566,39.062,0
1553633001.780,80.078,26.855,22.461,77.637,85.449,0
1553633001.783,98.633,23.438,23.438,73.730,39.062,0
1553633001.787,31.738,21.973,29.297,80.078,53.711,0
1553633001.791,1.953,25.879,26.855,58.594,42.480,0
1553633001.795,17.578,24.902,26.367,53.711,39.062,0
1553633001.799,20.508,21.484,25.879,67.383,94.727,0
1553633001.803,41.504,22.949,24.414,60.059,70.312,0
1553633001.807,59.570,30.273,25.391,69.824,42.480,0
1553633001.811,50.781,36.621,26.855,79.102,56.152,0
1553633001.815,44.922,36.133,26.855,62.500,96.191,0
1553633001.819,41.504,35.156,26.855,48.828,28.320,0
1553633001.822,8.789,33.203,31.738,50.781,29.785,0
1553633001.826,-5.371,35.156,28.809,42.480,84.961,0
1553633001.830,16.602,33.691,21.484,48.828,40.527,0
1553633001.834,41.504,31.738,27.832,64.941,5.371,0
1553633001.838,36.133,40.039,29.297,73.730,74.219,0
1553633001.842,44.922,43.457,20.996,58.594,52.734,0
1553633001.846,56.152,40.039,19.531,49.805,31.250,0
1553633001.850,56.641,41.992,26.367,67.383,84.961,0
1553633001.854,70.801,50.293,31.250,56.641,37.598,0
1553633001.858,70.312,42.969,32.227,64.941,42.969,0
1553633001.862,62.988,34.180,31.738,104.492,43.945,0
1553633001.865,75.684,23.438,34.180,105.469,6.836,0
1553633001.869,103.027,13.672,36.133,112.305,28.809,0
1553633001.873,115.234,21.973,38.574,141.602,45.410,0
1553633001.877,104.004,25.391,32.715,154.785,17.578,0
1553633001.881,96.191,21.973,31.738,139.160,40.527,0
1553633001.885,101.074,27.832,39.062,108.398,46.387,0
1553633001.889,109.863,26.367,36.133,106.445,16.113,0
1553633001.893,148.438,23.926,36.133,116.211,27.832,0
1553633001.897,124.512,23.926,40.039,116.211,66.406,0
1553633001.901,71.289,23.926,39.551,116.699,64.453,0
1553633001.905,62.988,25.391,38.086,138.184,13.672,0
1553633001.908,70.801,22.949,37.598,130.371,9.277,0
1553633001.912,96.191,27.344,40.527,108.398,12.695,0
1553633001.916,92.285,23.438,40.527,119.629,1.465,0
1553633001.920,81.055,16.113,37.109,131.348,54.688,0
1553633001.924,101.562,34.668,26.367,122.559,56.641,0
1553633001.928,112.305,41.504,29.297,120.117,35.156,0
1553633001.932,116.699,33.203,47.363,140.137,57.129,0
1553633001.936,109.863,35.645,41.992,125.977,63.477,0
1553633001.940,98.145,37.109,36.133,101.562,64.941,0
1553633001.944,94.238,35.156,46.875,138.184,81.543,0
1553633001.947,95.703,29.785,46.387,121.094,27.832,0
1553633001.951,90.820,22.949,33.691,96.191,9.277,0
1553633001.955,83.008,25.391,30.273,106.445,94.727,0
1553633001.959,90.332,31.250,33.203,110.840,104.004,0
1553633001.963,75.684,26.855,36.621,105.469,62.012,0
1553633001.967,83.008,28.809,39.551,124.512,34.668,0
1553633001.971,101.074,37.109,36.621,133.789,-37.109,0
1553633001.975,75.195,36.133,32.715,96.191,11.719,0
1553633001.979,71.289,30.273,34.668,105.957,109.863,0
1553633001.983,90.820,33.691,24.902,114.258,74.219,0
1553633001.987,93.262,37.598,24.414,99.609,53.223,0
1553633001.990,89.355,23.438,40.527,104.492,26.367,0
1553633001.994,74.219,21.973,32.715,109.863,-3.906,0
1553633001.998,77.148,24.414,30.273,102.539,46.387,0
1553633002.002,87.891,21.973,38.574,104.980,34.180,0
1553633002.006,101.562,35.156,36.133,126.953,41.992,0
1553633002.010,94.727,47.852,33.691,101.562,66.406,0
1553633002.014,81.543,56.152,35.645,88.867,32.227,0
1553633002.018,93.750,50.781,37.598,90.820,22.949,0
1553633002.022,78.125,29.297,38.086,82.031,11.719,0
1553633002.026,94.727,30.762,32.715,86.914,48.340,0
1553633002.030,112.305,34.668,30.762,91.309,42.480,0
1553633002.033,90.332,33.203,29.297,91.797,31.738,0
1553633002.037,78.125,32.715,24.902,83.984,77.637,0
1553633002.041,89.355,31.738,27.832,87.402,82.031,0
1553633002.045,81.543,33.691,35.156,83.008,26.367,0
1553633002.049,60.547,33.203,37.109,107.910,-7.324,0
1553633002.053,64.941,30.762,34.180,114.746,3.418,0
1553633002.057,70.312,20.508,31.250,115.234,11.719,0
1553633002.061,80.566,20.020,32.227,137.695,40.039,0
1553633002.065,106.934,30.762,24.902,131.348,87.402,0
1553633002.069,144.531,27.344,29.297,110.352,60.059,0
1553633002.072,98.145,21.484,36.621,92.773,53.711,0
1553633002.076,49.316,29.297,31.250,83.984,39.062,0
1553633002.080,64.941,31.738,31.738,97.656,14.648,0
1553633002.084,82.520,30.273,31.250,95.703,-3.906,0
1553633002.088,85.449,33.691,29.297,77.148,-19.043,0
1553633002.092,94.238,31.738,30.273,95.215,14.160,0
1553633002.096,99.121,26.367,31.250,113.770,46.875,0
1553633002.100,78.613,31.738,33.691,96.191,71.777,0
1553633002.104,81.543,33.203,33.203,78.613,54.688,0
1553633002.108,78.613,18.555,30.762,108.887,56.641,0
1553633002.112,89.844,25.879,32.227,119.141,34.180,0
1553633002.115,122.070,40.527,30.762,77.637,42.480,0
1553633002.119,82.031,40.527,27.344,60.547,58.594,0
1553633002.123,43.457,35.156,29.785,77.148,51.270,0
1553633002.127,74.707,28.809,26.367,77.637,63.477,0
1553633002.131,70.801,30.273,22.949,94.238,65.430,0
1553633002.135,54.199,33.203,24.902,87.891,69.336,0
1553633002.139,60.547,32.715,24.902,59.570,29.297,0
1553633002.143,77.637,29.785,27.344,86.914,30.273,0
1553633002.147,60.059,31.738,34.180,97.168,11.719,0
1553633002.151,61.035,32.715,38.574,80.566,-13.672,0
1553633002.155,77.637,31.738,38.574,82.031,-25.879,0
1553633002.158,67.871,29.785,32.227,69.824,-10.742,0
1553633002.162,67.383,32.227,30.273,79.590,23.926,0
1553633002.166,66.406,28.320,33.203,86.426,59.082,0
1553633002.170,78.613,27.344,27.344,80.566,83.984,0
1553633002.174,61.523,28.809,28.809,92.773,48.828,0
1553633002.178,42.480,26.855,30.762,75.195,18.066,0
1553633002.182,61.035,34.180,26.855,72.266,0.977,0
1553633002.186,68.848,31.250,37.109,80.078,17.090,0
1553633002.190,70.801,27.832,36.133,83.984,73.730,0
1553633002.194,75.684,27.344,27.832,83.496,74.219,0
1553633002.197,59.570,32.227,24.902,83.984,33.691,0
1553633002.201,48.828,31.250,24.902,86.426,46.387,0
1553633002.205,54.688,30.273,28.320,64.941,55.664,0
1553633002.209,62.988,29.785,30.273,73.242,9.766,0
1553633002.213,77.637,22.949,29.297,82.520,56.152,0
1553633002.217,80.566,28.809,23.438,56.152,69.336,0
1553633002.221,56.152,32.715,15.625,74.707,6.348,0
1553633002.225,51.758,36.133,18.555,82.520,62.988,0
1553633002.229,58.594,33.203,26.367,65.430,50.293,0
1553633002.233,89.355,21.484,27.832,78.613,10.254,0
1553633002.237,92.285,30.762,26.367,79.102,35.645,0
1553633002.240,61.523,38.086,26.855,74.219,19.531,0
1553633002.244,56.152,29.785,30.762,68.848,19.043,0
1553633002.248,58.594,24.902,26.855,80.566,58.594,0
1553633002.252,52.734,23.926,26.855,80.078,26.367,0
1553633002.256,97.168,30.273,32.227,59.570,-25.391,0
1553633002.260,94.238,27.344,30.762,69.824,16.113,0
1553633002.264,17.578,20.996,21.973,71.289,52.246,0
1553633002.268,26.855,25.391,22.949,71.777,28.320,0
1553633002.272,49.805,28.320,30.762,88.867,41.016,0
1553633002.276,41.016,28.320,29.785,81.543,55.176,0
1553633002.280,46.387,26.855,29.297,76.660,63.477,0
1553633002.283,58.105,29.297,29.785,86.914,-2.930,0
1553633002.287,62.012,28.320,30.273,77.637,6.836,0
1553633002.291,61.035,24.902,28.809,70.801,86.426,0
1553633002.295,61.035,28.809,27.832,73.242,62.988,0
1553633002.299,62.500,25.391,33.691,85.938,86.914,0
1553633002.303,52.246,21.484,34.180,83.008,75.684,0
1553633002.307,42.480,25.391,28.809,68.359,86.914,0
1553633002.311,40.527,25.879,28.320,53.223,85.938,0
1553633002.315,41.504,29.785,31.738,73.242,32.227,0
1553633002.319,48.828,35.156,29.297,81.055,49.316,0
1553633002.322,55.176,33.203,23.438,51.758,22.949,0
1553633002.326,62.012,25.391,27.832,81.055,-4.883,0
1553633002.330,49.805,23.926,34.180,90.820,30.762,0
1553633002.334,34.668,20.996,32.715,66.406,65.430,0
1553633002.338,47.363,16.602,24.902,62.500,73.730,0
1553633002.342,45.898,31.250,21.973,68.848,77.637,0
1553633002.346,46.387,38.574,28.320,69.336,55.664,0
1553633002.350,44.434,36.621,28.320,66.406,34.180,0
1553633002.354,39.551,36.621,28.320,69.824,29.785,0
1553633002.358,52.246,35.156,29.785,62.988,50.781,0
1553633002.362,38.086,29.785,27.832,60.547,-0.488,0
1553633002.365,36.621,26.855,28.809,64.453,-0.488,0
1553633002.369,64.941,30.762,28.809,59.570,64.941,0
1553633002.373,61.035,35.156,27.344,59.082,0.977,0
1553633002.377,25.879,36.621,27.344,77.637,25.391,0
1553633002.381,40.039,28.320,28.809,85.938,76.660,0
1553633002.385,63.477,26.855,27.832,72.266,-0.488,0
1553633002.389,43.457,32.227,20.508,67.871,-1.465,0
1553633002.393,41.992,32.715,19.531,53.223,-4.883,0
1553633002.397,42.969,25.391,20.020,47.852,20.996,0
1553633002.401,57.617,19.043,22.461,47.363,89.844,0
1553633002.405,60.059,25.391,23.926,49.316,103.027,0
1553633002.408,27.344,31.738,18.555,66.895,80.078,0
1553633002.412,37.109,33.203,10.254,83.496,66.895,0
1553633002.416,52.734,25.879,13.672,51.270,72.754,0
1553633002.420,47.852,22.461,24.414,39.062,75.195,0
1553633002.424,62.012,33.691,22.949,64.453,44.922,0
1553633002.428,64.453,39.062,19.531,70.312,33.691,0
1553633002.432,51.758,35.156,23.438,62.988,43.457,0
1553633002.436,52.734,30.273,29.785,52.734,7.324,0
1553633002.440,52.734,24.902,31.250,50.781,-10.742,0
1553633002.444,51.758,24.414,29.785,52.246,26.855,0
1553633002.447,54.199,24.414,27.832,53.223,22.461,0
1553633002.451,75.684,26.855,25.879,48.340,-5.859,0
1553633002.455,69.336,27.832,26.855,58.105,24.902,0
1553633002.459,20.508,26.855,27.832,57.617,18.555,0
1553633002.463,8.789,29.297,27.832,61.523,42.480,0
1553633002.467,36.621,29.297,31.250,51.270,17.578,0
1553633002.471,39.062,37.109,36.133,33.691,20.996,0
1553633002.475,27.832,40.527,37.109,44.434,32.227,0
1553633002.479,25.879,43.457,40.039,44.922,39.551,0
1553633002.483,14.648,43.457,35.645,45.410,32.227,0
1553633002.487,8.301,36.133,17.578,23.926,43.945,0
1553633002.490,-11.230,39.062,20.508,-1.465,78.125,0
1553633002.494,-12.695,54.688,34.668,0.977,67.383,0
1553633002.498,-22.461,64.453,34.180,-1.465,47.363,0
1553633002.502,-41.504,55.176,20.020,-29.785,67.383,0
1553633002.506,-9.277,53.223,19.531,-20.996,26.367,0
1553633002.510,-30.273,64.453,30.762,-9.766,52.246,0
1553633002.514,-102.051,68.359,32.715,-64.453,70.801,0
1553633002.518,-121.582,60.059,20.996,-99.609,42.480,0
1553633002.522,-143.555,66.406,16.602,-106.934,77.637,0
1553633002.526,-161.133,77.637,17.578,-133.301,75.195,0
1553633002.530,-154.785,78.125,17.578,-145.508,73.730,0
1553633002.533,-145.020,77.637,23.438,-149.414,87.402,0
1553633002.537,-161.621,80.078,24.414,-187.988,50.293,0
1553633002.541,-218.750,73.242,7.324,-209.961,37.109,0
1553633002.545,-218.750,83.984,2.441,-215.332,66.406,0
1553633002.549,-190.918,83.496,9.766,-209.473,55.176,0
1553633002.553,-187.012,81.055,15.137,-189.941,27.344,0
1553633002.557,-227.539,83.008,12.695,-201.172,21.484,0
1553633002.561,-206.055,82.520,13.184,-208.008,57.129,0
1553633002.565,-183.594,86.426,5.859,-187.012,88.379,0
1553633002.569,-226.074,82.031,-0.488,-198.730,76.660,0
1553633002.572,-238.770,74.219,5.371,-205.078,-0.488,0
1553633002.576,-213.867,72.754,5.371,-193.848,-13.184,0
1553633002.580,-194.336,69.824,4.883,-184.570,16.602,0
1553633002.584,-192.383,66.895,11.230,-161.133,-12.695,0
1553633002.588,-181.641,71.777,9.277,-168.457,19.531,0
1553633002.592,-172.852,66.895,10.742,-161.133,24.902,0
1553633002.596,-159.668,60.547,11.230,-136.230,28.809,0
1553633002.600,-129.395,61.035,8.789,-130.859,115.234,0
1553633002.604,-131.836,55.664,11.719,-124.512,107.910,0
1553633002.608,-126.953,50.781,12.207,-118.652,46.875,0
1553633002.612,-102.539,54.688,10.254,-100.586,35.645,0
1553633002.615,-104.492,57.129,8.301,-72.754,39.062,0
1553633002.619,-88.867,58.105,6.348,-71.777,20.020,0
1553633002.623,-65.430,55.664,6.836,-67.383,-24.902,0
1553633002.627,-44.434,38.574,8.301,-39.551,-13.672,0
1553633002.631,-35.156,37.109,9.277,-20.996,10.742,0
1553633002.635,-25.391,42.480,13.184,-21.484,25.879,0
1553633002.639,-12.695,29.785,14.160,0.000,12.207,0
1553633002.643,-8.789,24.414,11.230,12.207,-11.230,0
1553633002.647,10.742,27.344,5.371,6.836,11.719,0
1553633002.651,39.062,28.809,3.418,32.227,53.711,0
1553633002.655,28.809,25.391,-0.977,48.340,36.133,0
1553633002.658,25.391,11.230,-1.953,41.992,-31.738,0
1553633002.662,48.340,12.207,6.836,53.711,-22.461,0
1553633002.666,48.828,24.414,9.277,66.406,63.477,0
1553633002.670,38.574,12.207,8.789,62.012,77.148,0
1553633002.674,56.152,3.418,17.578,79.102,6.348,0
1553633002.678,88.867,12.207,28.320,91.797,-5.371,0
1553633002.682,96.191,16.113,-3.418,94.727,-22.949,0
1553633002.686,81.543,12.695,-12.207,102.539,-10.742,0
1553633002.690,67.871,15.625,24.414,97.656,40.527,0
1553633002.694,86.914,15.625,30.762,103.516,50.781,0
1553633002.697,94.238,-0.488,24.414,113.281,68.359,0
1553633002.701,105.957,6.348,17.090,113.281,81.543,0
1553633002.705,124.512,10.742,19.531,125.977,107.422,0
1553633002.709,124.023,6.348,25.391,137.207,98.145,0
1553633002.713,124.512,13.184,14.160,138.184,80.566,0
1553633002.717,133.789,11.230,13.184,151.367,84.473,0
1553633002.721,141.113,12.695,22.949,177.734,82.031,0
1553633002.725,144.043,9.277,20.020,178.223,97.168,0
1553633002.729,144.531,-5.859,31.250,165.039,91.309,0
1553633002.733,143.066,-17.090,32.227,161.133,61.035,0
1553633002.737,158.691,-5.371,21.973,161.133,99.609,0
1553633002.740,172.852,3.418,18.555,160.645,95.215,0
1553633002.744,168.457,-2.441,24.902,163.574,67.383,0
1553633002.748,146.484,-3.906,33.203,175.293,48.828,0
1553633002.752,153.320,-2.441,29.785,183.105,41.992,0
1553633002.756,176.758,-2.930,27.344,176.758,62.012,0
1553633002.760,166.504,-3.418,30.273,190.918,54.199,0
1553633002.764,159.668,-1.465,24.414,189.453,78.125,0
1553633002.768,159.180,-0.977,23.438,171.875,45.410,0
1553633002.772,152.344,-6.836,32.715,193.848,66.895,0
1553633002.776,145.020,-12.695,33.691,204.590,69.336,0
1553633002.780,147.461,-1.465,35.645,181.641,24.414,0
1553633002.783,161.621,4.395,31.250,176.758,-15.137,0
1553633002.787,168.457,-2.441,26.855,186.035,0.977,0
1553633002.791,167.480,1.465,28.320,180.664,-7.812,0
1553633002.795,148.438,-8.301,28.320,176.758,-52.734,0
1553633002.799,141.113,-12.207,34.668,178.223,-4.883,0
1553633002.803,154.785,6.348,36.133,166.992,12.207,0
1553633002.807,142.578,8.789,23.438,152.832,14.648,0
1553633002.811,117.188,10.742,24.414,153.320,25.391,0
1553633002.815,122.070,7.812,34.668,150.391,20.508,0
1553633002.819,140.625,-0.977,36.621,159.668,51.758,0
1553633002.822,127.441,-0.977,34.668,163.574,96.191,0
1553633002.826,123.535,4.883,32.227,152.832,66.406,0
1553633002.830,119.141,8.301,32.715,163.574,21.484,0
1553633002.834,130.859,4.395,30.273,156.250,5.859,0
1553633002.838,147.461,4.395,15.137,131.348,9.277,0
1553633002.842,108.398,13.184,17.090,125.488,-1.465,0
1553633002.846,95.215,13.184,26.367,139.160,17.578,0
1553633002.850,104.004,-4.395,23.438,138.672,36.621,0
1553633002.854,105.469,-7.324,31.738,133.789,-12.207,0
1553633002.858,115.234,20.020,37.598,118.652,34.180,0
1553633002.862,113.770,29.297,34.180,100.098,49.316,0
1553633002.865,91.309,21.973,32.715,109.863,39.062,0
1553633002.869,73.730,16.113,38.086,109.863,-0.977,0
1553633002.873,88.379,8.789,31.738,117.188,-50.293,0
1553633002.877,104.492,11.719,15.137,120.117,21.973,0
1553633002.881,92.285,7.324,24.414,116.699,24.902,0
1553633002.885,85.938,12.207,29.785,100.586,-18.555,0
1553633002.889,63.477,10.742,20.508,82.031,-17.578,0
1553633002.893,60.059,2.930,23.438,86.426,-28.809,0
1553633002.897,81.543,10.742,32.227,82.520,38.086,0
1553633002.901,83.984,12.207,32.227,90.332,69.336,0
1553633002.905,78.613,10.254,28.320,106.445,61.035,0
1553633002.908,83.008,4.395,32.227,108.398,50.781,0
1553633002.912,92.285,-5.859,34.668,103.027,55.664,0
1553633002.916,81.543,1.465,23.438,86.914,61.523,0
1553633002.920,64.941,20.020,15.137,70.312,40.527,0
1553633002.924,59.082,20.508,19.531,71.777,51.758,0
1553633002.928,79.102,20.508,19.531,85.449,39.062,0
1553633002.932,59.082,23.926,8.789,78.125,6.348,0
1553633002.936,66.406,22.461,24.414,75.195,-3.906,0
1553633002.940,85.449,19.531,47.363,83.008,31.250,0
1553633002.944,53.223,13.184,39.062,72.754,-9.766,0
1553633002.947,60.547,10.254,32.227,78.613,11.719,0
1553633002.951,80.566,6.348,32.227,96.191,25.879,0
1553633002.955,74.707,11.719,25.391,89.844,-14.160,0
1553633002.959,83.008,22.949,23.438,66.895,15.137,0
1553633002.963,85.449,18.555,30.762,75.195,80.078,0
1553633002.967,60.547,10.742,36.133,100.098,80.078,0
1553633002.971,60.059,10.742,26.367,83.496,74.219,0
1553633002.975,61.523,9.766,20.020,65.918,84.473,0
1553633002.979,63.965,18.066,28.809,87.891,86.914,0
1553633002.983,64.453,23.926,32.227,77.148,22.461,0
1553633002.987,52.246,23.926,28.809,67.871,33.691,0
1553633002.990,40.039,21.484,26.855,88.379,62.012,0
1553633002.994,29.785,7.324,32.227,83.496,22.461,0
1553633002.998,37.109,14.160,27.832,64.941,16.113,0
1553633003.002,39.551,34.668,22.949,58.594,42.969,0
1553633003.006,42.969,29.785,21.484,72.754,28.809,0
1553633003.010,53.711,12.695,30.273,90.820,31.738,0
1553633003.014,50.293,13.184,41.016,83.008,63.477,0
1553633003.018,42.969,27.832,32.227,68.848,29.297,0
1553633003.022,95.215,27.832,22.949,87.402,58.105,0
1553633003.026,114.258,26.367,22.461,117.676,53.711,0
1553633003.030,113.281,32.227,18.555,128.418,23.926,0
1553633003.033,146.973,35.156,13.672,130.371,31.738,0
1553633003.037,166.992,36.621,20.020,154.785,49.805,0
1553633003.041,165.527,23.926,31.250,167.969,108.398,0
1553633003.045,156.250,17.090,35.156,167.969,45.898,0
1553633003.049,179.688,21.973,31.738,171.875,38.574,0
1553633003.053,193.848,29.785,33.691,168.457,55.176,0
1553633003.057,177.246,28.320,31.738,155.762,27.832,0
1553633003.061,170.898,22.949,24.902,169.922,25.391,0
1553633003.065,166.016,23.438,32.715,195.312,29.297,0
1553633003.069,160.156,27.832,39.062,174.316,46.387,0
1553633003.072,149.414,25.879,22.461,166.992,68.848,0
1553633003.076,138.672,15.137,26.855,166.504,51.758,0
1553633003.080,163.574,27.344,44.922,155.273,17.578,0
1553633003.084,174.316,26.855,41.504,154.785,53.223,0
1553633003.088,117.676,27.832,30.762,142.578,82.031,0
1553633003.092,79.590,31.738,31.738,135.742,68.848,0
1553633003.096,94.238,28.320,43.945,135.742,21.973,0
1553633003.100,107.910,26.367,40.527,136.230,37.109,0
1553633003.104,105.469,17.578,29.785,136.719,58.594,0
1553633003.108,93.262,18.066,28.809,123.047,38.086,0
1553633003.112,109.375,24.902,33.691,116.699,41.504,0
1553633003.115,122.559,24.414,33.203,116.211,44.434,0
1553633003.119,121.094,22.949,24.414,126.465,39.551,0
1553633003.123,118.164,19.531,25.879,129.395,85.938,0
1553633003.127,94.238,18.555,41.992,134.277,85.938,0
1553633003.131,85.938,22.461,42.969,140.137,55.176,0
1553633003.135,111.328,30.273,35.645,115.723,49.316,0
1553633003.139,110.840,26.855,37.598,101.562,45.410,0
1553633003.143,76.172,20.508,35.645,108.398,48.828,0
1553633003.147,74.219,23.438,31.738,107.422,39.551,0
1553633003.151,93.262,20.996,29.785,112.793,55.664,0
1553633003.155,91.309,19.043,30.762,109.863,73.730,0
1553633003.158,75.195,25.391,39.551,105.469,70.312,0
1553633003.162,96.191,21.973,34.668,128.906,35.645,0
1553633003.166,103.027,17.090,29.297,128.906,-16.113,0
1553633003.170,111.328,16.113,38.086,115.723,-14.648,0
1553633003.174,127.441,9.766,35.156,81.055,1.953,0
1553633003.178,89.355,34.668,27.344,64.453,51.270,0
1553633003.182,37.598,40.039,27.344,85.938,50.293,0
1553633003.186,48.340,26.367,23.926,99.609,15.137,0
1553633003.190,78.125,42.480,22.461,92.285,26.367,0
1553633003.194,62.500,40.039,32.227,84.961,49.316,0
1553633003.197,37.109,29.785,21.973,69.336,45.898,0
1553633003.201,51.758,34.668,24.414,68.359,73.730,0
1553633003.205,60.059,29.785,37.598,74.707,50.781,0
1553633003.209,68.359,28.809,38.086,76.172,70.801,0
1553633003.213,69.336,30.273,41.504,83.984,99.609,0
1553633003.217,77.148,20.996,38.574,68.848,83.008,0
1553633003.221,81.543,17.090,23.438,69.336,54.688,0
1553633003.225,60.059,21.973,23.438,94.727,-8.789,0
1553633003.229,67.871,21.973,31.738,74.707,-10.742,0
1553633003.233,64.941,25.879,31.738,55.176,-20.508,0
1553633003.237,61.523,26.855,33.691,63.477,-5.859,0
1553633003.240,76.172,23.926,32.715,80.078,50.293,0
1553633003.244,62.500,25.391,27.344,87.402,-2.930,0
1553633003.248,47.363,24.902,25.391,74.707,-31.250,0
1553633003.252,54.688,22.949,25.879,58.594,14.648,0
1553633003.256,69.336,18.066,21.484,63.965,74.219,0
1553633003.260,64.941,21.973,23.438,79.590,61.523,0
1553633003.264,47.852,32.715,22.461,65.430,23.926,0
1553633003.268,62.012,29.785,21.484,54.199,34.668,0
1553633003.272,55.664,31.250,30.273,53.711,21.973,0
1553633003.276,38.086,39.062,26.855,69.336,39.062,0
1553633003.280,52.246,26.367,20.020,93.750,36.621,0
1553633003.283,57.617,13.184,22.461,87.891,17.578,0
1553633003.287,65.918,26.367,25.391,81.543,52.734,0
1553633003.291,91.797,38.086,15.137,74.707,75.684,0
1553633003.295,91.797,33.203,17.578,70.312,81.055,0
1553633003.299,43.457,21.973,19.043,63.477,84.961,0
1553633003.303,26.367,22.949,20.020,56.152,81.055,0
1553633003.307,60.059,28.320,40.039,62.012,9.277,0
1553633003.311,61.523,26.367,42.480,85.938,0.000,0
1553633003.315,56.152,23.438,31.738,97.168,84.473,0
1553633003.319,63.965,26.855,33.691,71.777,102.051,0
1553633003.322,63.965,40.527,35.156,76.172,130.859,0
1553633003.326,61.035,43.945,28.320,87.891,111.816,0
1553633003.330,49.805,39.062,18.555,73.242,1.953,0
1553633003.334,37.598,36.133,25.879,73.242,-44.922,0
1553633003.338,35.645,29.785,32.227,91.797,-39.551,0
1553633003.342,51.270,24.902,33.203,99.609,65.430,0
1553633003.346,43.457,24.414,32.715,69.336,44.434,0
1553633003.350,47.852,31.738,27.832,55.664,37.109,0
1553633003.354,66.895,24.414,37.109,68.359,70.312,0
1553633003.358,67.383,17.578,28.320,84.473,15.625,0
1553633003.362,50.293,43.457,25.391,90.820,56.152,0
1553633003.365,59.082,56.641,38.086,92.285,48.340,0
1553633003.369,72.266,51.270,34.180,96.191,2.930,0
1553633003.373,41.504,43.945,27.344,82.520,-6.836,0
1553633003.377,62.988,39.551,26.855,77.148,-5.371,0
1553633003.381,98.633,39.062,29.785,92.773,47.852,0
1553633003.385,63.965,46.875,27.832,74.219,78.125,0
1553633003.389,30.273,42.969,25.879,62.500,49.805,0
1553633003.393,33.691,35.156,28.809,77.637,31.250,0
1553633003.397,41.504,43.945,31.250,75.684,-1.465,0
1553633003.401,52.246,42.480,29.297,77.148,5.371,0
1553633003.405,52.246,37.598,19.043,64.941,32.715,0
1553633003.408,50.781,34.668,18.066,53.711,-13.184,0
1553633003.412,66.406,34.668,18.555,82.031,39.062,0
1553633003.416,59.570,41.016,22.461,75.195,84.961,0
1553633003.420,40.527,34.668,36.133,56.641,53.711,0
1553633003.424,63.477,40.039,34.180,66.895,23.926,0
1553633003.428,76.660,46.875,20.996,74.707,31.738,0
1553633003.432,51.758,37.109,27.344,84.473,43.945,0
1553633003.436,43.457,38.086,26.367,79.590,24.902,0
1553633003.440,56.152,55.664,21.484,69.336,22.949,0
1553633003.444,30.273,42.969,34.668,52.734,49.805,0
1553633003.447,19.043,31.738,32.715,60.059,36.133,0
1553633003.451,53.711,35.156,31.250,89.844,-13.672,0
1553633003.455,60.547,24.902,54.199,62.012,41.504,0
1553633003.459,19.043,45.898,41.016,49.805,64.941,0
1553633003.463,4.883,46.387,27.344,70.801,7.324,0
1553633003.467,34.668,28.320,34.180,57.617,20.508,0
1553633003.471,56.152,31.250,17.090,77.148,62.500,0
1553633003.475,81.543,31.250,21.484,116.699,68.848,0
1553633003.479,41.992,42.969,41.992,67.383,84.961,0
1553633003.483,-10.742,36.133,63.477,24.414,84.961,0
1553633003.487,34.668,11.719,34.180,76.660,-19.531,0
1553633003.490,47.852,34.180,41.504,63.477,-3.906,0
1553633003.494,20.020,57.129,43.457,41.992,28.320,0
1553633003.498,34.180,66.895,10.254,80.078,58.594,0
1553633003.502,65.430,53.223,19.531,88.379,88.379,0
1553633003.506,73.242,25.391,11.230,95.215,84.473,0
1553633003.510,53.223,14.160,25.879,121.582,58.594,0
1553633003.514,42.480,51.758,39.551,87.402,53.711,0
1553633003.518,20.020,74.707,35.645,34.180,30.762,0
1553633003.522,58.594,64.453,-7.324,81.055,16.113,0
1553633003.526,73.242,69.336,-4.395,72.754,40.527,0
1553633003.530,64.941,62.988,21.484,75.195,58.105,0
1553633003.533,69.336,43.945,27.344,85.938,65.430,0
1553633003.537,64.941,64.453,8.789,83.984,78.125,0
1553633003.541,82.031,75.684,6.348,99.609,56.641,0
1553633003.545,72.754,71.777,19.043,67.871,62.012,0
1553633003.549,64.453,82.031,7.812,48.340,39.551,0
1553633003.553,88.379,51.758,10.742,71.289,43.457,0
1553633003.557,106.445,60.547,-0.977,96.680,109.863,0
1553633003.561,66.406,77.637,-17.578,93.750,82.031,0
1553633003.565,62.500,80.078,-32.227,81.543,53.711,0
1553633003.569,85.449,80.566,-1.465,79.102,30.273,0
1553633003.572,31.738,75.195,47.363,40.039,41.504,0
1553633003.576,54.688,81.055,-13.672,62.988,35.156,0
1553633003.580,95.703,86.914,-15.137,119.629,42.969,0
1553633003.584,77.148,86.426,-4.395,108.398,52.734,0
1553633003.588,84.473,87.402,-17.578,98.633,3.418,0
1553633003.592,90.820,112.793,1.953,89.844,-6.836,0
1553633003.596,72.266,100.098,5.859,92.773,25.879,0
1553633003.600,60.059,86.426,-2.930,100.098,16.113,0
1553633003.604,59.570,105.957,2.930,72.266,43.457,0
1553633003.608,72.266,105.957,5.371,85.938,-5.371,0
1553633003.612,59.082,109.375,20.020,63.477,4.395,0
1553633003.615,48.340,93.750,32.227,36.133,30.762,0
1553633003.619,53.223,83.496,10.254,59.570,17.090,0
1553633003.623,46.875,90.332,27.832,74.707,12.207,0
1553633003.627,61.035,93.262,26.855,80.078,38.086,0
1553633003.631,70.801,69.336,4.395,73.730,30.273,0
1553633003.635,101.074,70.312,11.230,99.121,36.133,0
1553633003.639,99.609,85.449,15.625,111.328,33.691,0
1553633003.643,62.988,83.984,4.395,109.863,51.270,0
1553633003.647,64.453,78.613,-5.859,78.125,83.008,0
1553633003.651,75.195,75.684,3.906,51.758,24.902,0
1553633003.655,66.895,82.520,11.719,65.918,26.367,0
1553633003.658,53.223,91.309,13.184,69.824,100.586,0
1553633003.662,52.734,92.773,1.953,80.078,109.863,0
1553633003.666,71.289,80.566,-8.789,82.520,78.613,0
1553633003.670,77.148,58.594,11.719,76.172,81.543,0
1553633003.674,86.426,54.199,19.043,72.754,87.891,0
1553633003.678,95.215,66.406,7.324,70.801,87.402,0
1553633003.682,64.453,76.172,14.160,73.730,85.449,0
1553633003.686,47.363,71.777,26.367,55.176,63.477,0
1553633003.690,72.266,70.801,17.578,68.848,81.543,0
1553633003.694,68.359,67.383,18.555,95.215,44.434,0
1553633003.697,60.547,62.988,15.625,75.195,38.574,0
1553633003.701,60.547,56.641,15.625,66.895,42.969,0
1553633003.705,53.711,47.363,24.902,77.148,5.859,0
1553633003.709,83.008,53.711,26.367,86.426,42.969,0
1553633003.713,107.422,64.941,11.719,79.590,63.965,0
1553633003.717,87.891,57.129,0.977,69.336,70.312,0
1553633003.721,77.148,45.898,15.625,86.426,68.848,0
1553633003.725,76.660,44.434,27.344,104.004,63.477,0
1553633003.729,84.473,47.852,23.438,105.957,60.059,0
1553633003.733,89.844,55.664,24.414,89.844,43.945,0
1553633003.737,76.172,43.457,35.156,65.918,45.410,0
1553633003.740,73.730,35.156,30.762,77.148,18.066,0
1553633003.744,89.355,39.062,25.879,86.426,4.395,0
1553633003.748,66.406,36.621,29.785,66.406,3.906,0
1553633003.752,59.082,39.551,18.555,67.383,-44.922,0
1553633003.756,99.609,40.039,19.531,85.449,13.184,0
1553633003.760,94.238,33.691,28.809,82.031,60.059,0
1553633003.764,60.547,31.738,28.809,72.266,33.691,0
1553633003.768,88.867,33.203,19.043,98.145,-29.297,0
1553633003.772,90.820,10.742,13.184,97.168,4.883,0
1553633003.776,74.219,14.648,21.484,65.430,47.852,0
1553633003.780,61.035,49.316,28.320,47.852,36.133,0
1553633003.783,59.570,50.293,36.621,60.547,68.359,0
1553633003.787,56.641,38.574,29.297,90.332,37.109,0
1553633003.791,58.105,36.133,17.090,90.332,30.273,0
1553633003.795,71.777,25.391,32.227,92.285,28.320,0
1553633003.799,59.570,26.367,41.016,86.914,16.602,0
1553633003.803,64.941,36.621,36.133,76.660,42.969,0
1553633003.807,61.523,27.832,28.809,74.219,8.789,0
1553633003.811,51.758,21.484,29.785,79.102,-18.066,0
1553633003.815,51.270,22.461,34.180,93.262,18.066,0
1553633003.819,55.664,25.391,26.855,91.309,57.617,0
1553633003.822,59.570,24.414,27.832,74.707,39.551,0
1553633003.826,48.340,13.672,32.227,76.172,68.359,0
1553633003.830,61.035,26.855,29.297,98.145,115.234,0
1553633003.834,78.125,37.598,27.344,85.449,126.465,0
1553633003.838,79.590,20.508,31.250,89.355,91.309,0
1553633003.842,67.871,19.043,29.297,95.215,60.059,0
1553633003.846,47.852,29.785,22.461,83.008,90.332,0
1553633003.850,45.410,32.715,34.668,94.238,75.684,0
1553633003.854,73.730,37.598,35.156,93.750,67.383,0
1553633003.858,86.914,40.527,26.855,88.379,70.801,0
1553633003.862,62.012,29.785,34.668,82.031,27.832,0
1553633003.865,68.359,23.438,41.016,85.449,29.297,0
1553633003.869,78.125,6.836,47.852,108.398,47.852,0
1553633003.873,81.055,0.977,48.828,120.605,61.035,0
1553633003.877,113.770,15.625,44.434,140.625,30.762,0
1553633003.881,116.699,7.812,50.293,149.414,-33.203,0
1553633003.885,109.863,0.000,54.688,160.645,-25.879,0
1553633003.889,130.859,-0.488,57.617,175.293,-8.789,0
1553633003.893,142.578,7.324,51.758,170.410,0.977,0
1553633003.897,141.113,6.348,45.410,170.410,33.203,0
1553633003.901,125.000,0.488,53.223,164.062,32.715,0
1553633003.905,108.398,10.254,40.039,152.344,36.133,0
1553633003.908,121.094,10.742,42.969,145.508,37.598,0
1553633003.912,112.793,7.324,59.570,134.766,16.602,0
1553633003.916,99.121,7.812,50.781,134.766,59.570,0
1553633003.920,92.285,21.484,40.039,148.438,68.359,0
1553633003.924,90.332,32.715,44.434,141.113,21.973,0
1553633003.928,104.980,26.367,57.617,113.770,65.918,0
1553633003.932,106.934,17.090,58.594,108.398,73.730,0
1553633003.936,109.863,11.230,42.969,123.047,50.293,0
1553633003.940,97.656,14.648,38.574,116.211,54.199,0
1553633003.944,75.195,21.484,41.992,99.121,83.496,0
1553633003.947,82.031,30.273,39.551,108.887,65.918,0
1553633003.951,76.172,32.227,43.945,125.488,30.762,0
1553633003.955,60.059,21.484,49.316,108.887,14.160,0
1553633003.959,65.918,21.973,41.016,102.539,34.180,0
1553633003.963,73.730,23.438,39.551,103.027,44.922,0
1553633003.967,79.590,27.832,39.551,92.773,-30.273,0
1553633003.971,73.730,27.832,39.551,95.703,-28.809,0
1553633003.975,76.660,20.996,48.340,117.188,22.461,0
1553633003.979,82.031,22.949,46.387,113.770,39.062,0
1553633003.983,74.219,26.367,33.691,93.262,87.402,0
1553633003.987,79.102,29.785,27.344,96.680,92.773,0
1553633003.990,85.938,29.297,29.785,113.281,37.109,0
1553633003.994,67.871,26.855,36.133,96.191,45.898,0
1553633003.998,61.523,29.785,43.945,80.566,68.848,0
1553633004.002,58.105,30.762,48.828,98.633,36.133,0
1553633004.006,49.316,27.832,33.691,87.891,79.590,0
1553633004.010,53.223,21.973,23.926,85.449,86.914,0
1553633004.014,58.105,23.438,38.086,85.449,53.223,0
1553633004.018,68.359,22.461,37.598,78.125,5.371,0
1553633004.022,78.613,24.414,28.809,73.242,43.945,0
1553633004.026,74.219,29.785,39.551,80.078,72.266,0
1553633004.030,80.566,30.273,40.039,87.402,9.766,0
1553633004.033,94.727,37.598,13.672,90.820,45.410,0
1553633004.037,87.891,34.180,22.461,85.449,29.785,0
1553633004.041,83.496,24.902,49.316,59.082,0.488,0
1553633004.045,85.938,28.320,42.480,73.242,20.508,0
1553633004.049,83.008,33.691,28.809,105.469,16.602,0
1553633004.053,56.152,29.785,33.203,95.703,73.730,0
1553633004.057,46.387,25.391,40.527,83.008,121.094,0
1553633004.061,59.570,24.414,42.480,104.004,74.219,0
1553633004.065,55.664,17.090,51.270,100.586,-13.672,0
1553633004.069,68.848,10.254,58.594,92.285,-20.020,0
1553633004.072,84.961,3.418,64.941,100.586,29.785,0
1553633004.076,81.543,-2.930,61.523,120.117,72.266,0
1553633004.080,89.844,4.395,53.223,113.281,22.949,0
1553633004.084,80.078,4.883,55.664,104.980,16.602,0
1553633004.088,90.820,2.441,47.363,119.629,51.270,0
1553633004.092,100.098,0.488,41.016,104.980,70.312,0
1553633004.096,71.289,7.812,52.734,100.586,52.246,0
1553633004.100,76.172,19.043,51.270,118.164,34.668,0
1553633004.104,81.055,19.531,46.875,124.512,62.500,0
1553633004.108,86.426,24.902,45.410,113.281,18.555,0
1553633004.112,90.332,12.695,33.203,106.934,75.684,0
1553633004.115,84.961,5.859,35.645,96.191,71.777,0
1553633004.119,63.965,20.508,41.016,91.309,-20.996,0
1553633004.123,70.312,24.414,47.363,96.191,20.508,0
1553633004.127,84.473,24.902,53.223,72.266,47.852,0
1553633004.131,72.754,25.391,43.457,73.730,19.531,0
1553633004.135,62.988,25.879,31.738,90.820,-39.062,0
1553633004.139,62.500,23.438,34.668,86.914,-60.547,0
1553633004.143,66.895,20.996,45.898,91.309,15.137,0
1553633004.147,65.430,17.090,39.551,93.750,57.617,0
1553633004.151,65.430,18.066,21.973,91.309,24.414,0
1553633004.155,62.012,30.762,23.926,82.520,31.250,0
1553633004.158,69.336,29.785,40.039,69.336,37.109,0
1553633004.162,74.707,30.273,39.551,81.543,-26.367,0
1553633004.166,76.660,23.926,32.715,92.285,-41.992,0
1553633004.170,104.980,6.348,28.320,111.328,24.902,0
1553633004.174,76.172,14.160,36.133,99.121,43.457,0
1553633004.178,22.949,20.508,41.992,59.082,41.992,0
1553633004.182,33.691,19.531,39.062,70.801,38.086,0
1553633004.186,72.266,27.832,35.645,83.984,56.152,0
1553633004.190,72.266,30.273,29.297,80.078,44.922,0
1553633004.194,42.969,21.484,26.855,85.938,65.918,0
1553633004.197,56.152,24.414,32.715,84.961,61.523,0
1553633004.201,68.848,38.086,29.297,64.453,35.156,0
1553633004.205,72.266,28.320,25.879,81.543,55.664,0
1553633004.209,80.078,20.508,23.926,105.957,39.062,0
1553633004.213,76.172,25.391,28.320,85.449,51.758,0
1553633004.217,60.059,33.203,32.227,70.801,52.734,0
1553633004.221,64.941,32.715,28.320,78.613,83.008,0
1553633004.225,64.453,29.297,42.969,73.242,-7.812,0
1553633004.229,43.945,28.320,42.480,60.547,-36.133,0
1553633004.233,47.852,26.855,29.785,61.035,56.152,0
1553633004.237,60.059,32.715,30.273,71.777,57.617,0
1553633004.240,61.523,27.344,23.926,61.523,83.008,0
1553633004.244,64.453,19.531,23.926,56.152,105.957,0
1553633004.248,71.289,27.832,36.133,70.312,51.270,0
1553633004.252,64.941,35.645,34.180,77.148,72.266,0
1553633004.256,52.734,35.156,31.250,59.570,50.781,0
1553633004.260,42.969,34.180,26.855,55.664,34.668,0
1553633004.264,34.180,26.855,25.879,55.664,86.426,0
1553633004.268,43.945,24.902,28.809,63.965,46.387,0
1553633004.272,57.617,30.762,33.203,69.336,48.340,0
1553633004.276,56.641,28.809,34.180,64.453,19.531,0
1553633004.280,66.895,31.738,29.785,63.477,60.547,0
1553633004.283,57.129,28.809,29.785,77.148,77.148,0
1553633004.287,34.180,28.809,28.809,89.844,54.199,0
1553633004.291,28.320,29.785,25.391,73.242,92.773,0
1553633004.295,54.199,39.062,38.574,64.941,51.270,0
1553633004.299,57.617,49.805,43.945,61.523,62.012,0
1553633004.303,39.551,41.992,34.180,58.594,64.453,0
1553633004.307,31.250,31.250,25.879,52.734,22.949,0
1553633004.311,36.133,40.527,33.203,47.852,53.711,0
1553633004.315,30.273,47.852,41.016,42.480,53.223,0
1553633004.319,-5.371,29.297,32.715,25.879,75.684,0
1553633004.322,4.883,21.973,38.574,39.551,26.855,0
1553633004.326,20.996,51.270,51.758,41.504,44.922,0
1553633004.330,-18.066,69.336,37.598,-7.812,115.723,0
1553633004.334,-63.477,60.059,21.484,-50.781,32.715,0
1553633004.338,-69.824,57.617,34.668,-57.617,55.176,0
1553633004.342,-95.215,65.918,32.227,-71.289,123.047,0
1553633004.346,-124.023,73.730,35.156,-95.215,65.430,0
1553633004.350,-130.859,69.824,34.180,-124.023,37.598,0
1553633004.354,-142.090,69.824,20.020,-135.254,21.973,0
1553633004.358,-163.574,78.613,18.555,-139.160,-8.301,0
1553633004.362,-173.828,83.008,12.695,-170.898,10.254,0
1553633004.365,-188.477,89.844,10.254,-193.359,27.344,0
1553633004.369,-184.082,88.867,13.672,-189.941,41.504,0
1553633004.373,-180.664,94.727,15.137,-187.500,49.316,0
1553633004.377,-204.590,102.051,3.906,-210.938,26.855,0
1553633004.381,-200.195,98.145,5.371,-214.355,36.621,0
1553633004.385,-194.336,97.656,7.324,-202.148,67.383,0
1553633004.389,-216.309,92.773,-3.418,-222.656,45.898,0
1553633004.393,-195.312,91.309,-2.441,-227.539,41.992,0
1553633004.397,-183.105,102.539,0.000,-214.355,49.805,0
1553633004.401,-203.613,101.074,-3.418,-203.613,51.758,0
1553633004.405,-187.988,85.938,-5.371,-188.477,40.039,0
1553633004.408,-187.988,91.797,-11.719,-194.824,54.199,0
1553633004.412,-179.688,83.008,-12.207,-181.641,103.516,0
1553633004.416,-165.039,78.613,-14.648,-160.156,75.195,0
1553633004.420,-150.391,91.797,-29.785,-152.832,38.086,0
1553633004.424,-120.605,74.219,-15.137,-135.742,104.004,0
1553633004.428,-118.652,75.684,-9.766,-129.395,54.199,0
1553633004.432,-109.375,85.938,-12.207,-118.164,45.410,0
1553633004.436,-80.566,78.613,1.465,-83.984,109.863,0
1553633004.440,-54.199,77.637,-1.953,-61.523,70.801,0
1553633004.444,-43.457,70.801,-17.090,-56.152,40.527,0
1553633004.447,-17.090,59.570,-19.043,-21.973,65.430,0
1553633004.451,28.809,53.223,-6.836,15.625,94.727,0
1553633004.455,40.039,44.434,-8.789,22.949,44.434,0
1553633004.459,35.645,41.992,-23.438,46.875,51.270,0
1553633004.463,36.621,47.363,-18.555,52.246,94.238,0
1553633004.467,46.387,31.738,6.348,51.758,36.133,0
1553633004.471,77.148,26.855,-3.906,64.941,-30.762,0
1553633004.475,90.332,29.297,-20.020,79.590,-24.902,0
1553633004.479,95.215,21.484,2.441,98.633,30.762,0
1553633004.483,100.586,32.227,-3.906,107.910,79.102,0
1553633004.487,99.121,31.250,-24.902,114.258,-19.531,0
1553633004.490,106.445,32.227,-4.883,106.934,-55.176,0
1553633004.494,115.234,30.762,14.648,109.863,8.301,0
1553633004.498,124.512,20.508,17.090,118.164,-26.367,0
1553633004.502,125.488,20.996,0.488,109.863,-29.785,0
1553633004.506,132.324,17.090,-12.695,117.676,-4.395,0
1553633004.510,133.789,19.043,13.672,132.812,43.945,0
1553633004.514,134.277,34.180,24.902,119.629,16.602,0
1553633004.518,159.668,29.785,14.648,120.117,8.789,0
1553633004.522,166.992,25.879,5.859,146.973,21.973,0
1553633004.526,141.113,24.902,4.395,142.090,61.035,0
1553633004.530,123.535,21.973,7.324,130.371,103.027,0
1553633004.533,158.691,2.930,3.418,151.367,66.406,0
1553633004.537,171.875,3.418,-14.648,187.012,36.621,0
1553633004.541,136.719,30.762,7.812,168.945,72.266,0
1553633004.545,124.512,27.832,33.691,145.996,31.738,0
1553633004.549,136.230,28.809,20.508,168.945,11.719,0
1553633004.553,144.043,26.367,9.277,178.223,5.859,0
1553633004.557,144.531,20.996,0.977,139.160,20.508,0
1553633004.561,153.809,23.926,7.812,138.672,60.547,0
1553633004.565,141.602,20.996,2.930,164.551,1.953,0
1553633004.569,127.930,23.926,-2.930,152.344,64.453,0
1553633004.572,129.395,34.668,20.020,135.254,83.496,0
1553633004.576,125.488,30.762,18.555,140.625,43.457,0
1553633004.580,132.812,30.762,12.695,150.391,54.688,0
1553633004.584,133.301,32.715,11.719,144.043,37.109,0
1553633004.588,131.348,41.016,-17.090,148.926,33.203,0
1553633004.592,134.766,39.551,-7.812,154.785,37.109,0
1553633004.596,129.395,20.996,31.250,138.184,-11.719,0
1553633004.600,123.047,21.973,28.320,131.836,-45.898,0
1553633004.604,123.535,29.785,17.578,126.953,-23.926,0
1553633004.608,125.977,30.762,24.414,126.953,16.113,0
1553633004.612,121.094,36.133,20.020,132.324,61.035,0
1553633004.615,122.559,32.227,-2.441,143.555,62.500,0
1553633004.619,122.559,13.672,2.930,163.086,38.574,0
1553633004.623,125.977,22.949,7.324,164.551,24.414,0
1553633004.627,119.629,44.434,19.043,125.977,18.555,0
1553633004.631,108.398,41.992,43.945,111.328,43.457,0
1553633004.635,97.168,38.086,35.156,108.398,50.293,0
1553633004.639,107.422,26.367,20.508,104.004,76.172,0
1553633004.643,108.887,32.227,13.672,115.723,54.688,0
1553633004.647,102.051,30.762,14.648,113.281,26.855,0
1553633004.651,106.934,20.996,14.648,117.188,88.379,0
1553633004.655,102.051,20.508,15.625,120.117,110.840,0
1553633004.658,98.633,14.160,26.367,113.281,55.176,0
1553633004.662,97.656,12.695,22.949,133.301,36.621,0
1553633004.666,108.398,26.367,11.230,122.559,41.504,0
1553633004.670,110.840,34.668,10.254,74.219,29.785,0
1553633004.674,85.938,36.133,-3.418,83.984,21.973,0
1553633004.678,87.402,32.227,21.973,114.258,15.625,0
1553633004.682,76.172,38.574,45.898,89.355,7.324,0
1553633004.686,64.941,49.805,28.320,61.523,20.996,0
1553633004.690,67.871,52.246,10.742,58.594,62.012,0
1553633004.694,60.547,42.969,0.488,58.594,38.574,0
1553633004.697,59.082,44.922,3.418,55.176,-19.531,0
1553633004.701,50.293,58.105,4.883,46.875,-9.766,0
1553633004.705,57.617,51.758,8.301,49.316,56.641,0
1553633004.709,56.641,52.734,9.277,51.270,46.875,0
1553633004.713,43.945,48.828,5.371,41.504,-17.090,0
1553633004.717,55.664,35.156,-1.953,54.688,-13.184,0
1553633004.721,59.570,43.457,1.953,59.570,-20.020,0
1553633004.725,52.246,54.199,23.438,51.758,11.230,0
1553633004.729,49.805,54.688,17.090,47.852,48.828,0
1553633004.733,59.570,53.223,5.859,59.570,27.832,0
1553633004.737,63.477,51.270,8.789,63.477,32.227,0
1553633004.740,59.570,45.410,1.465,61.523,58.594,0
1553633004.744,59.570,45.898,4.395,89.355,92.773,0
1553633004.748,55.664,54.199,25.391,86.426,62.012,0
1553633004.752,64.453,46.875,35.645,69.336,39.062,0
1553633004.756,74.219,40.527,24.414,71.289,9.277,0
1553633004.760,65.430,40.039,15.625,79.102,37.598,0
1553633004.764,68.359,43.945,9.766,84.961,61.035,0
1553633004.768,74.707,46.387,8.301,79.590,55.664,0
1553633004.772,49.805,41.016,16.602,67.383,48.828,0
1553633004.776,36.133,46.387,20.996,51.758,49.805,0
1553633004.780,52.246,43.945,19.531,63.965,97.656,0
1553633004.783,65.430,32.227,19.531,77.148,74.707,0
1553633004.787,60.547,33.203,14.648,72.266,44.434,0
1553633004.791,54.688,44.922,13.672,66.895,37.109,0
1553633004.795,55.664,52.246,20.020,85.938,65.430,0
1553633004.799,64.941,36.133,21.484,83.496,73.730,0
1553633004.803,72.754,33.203,17.578,68.359,33.203,0
1553633004.807,62.988,50.293,8.301,80.566,34.180,0
1553633004.811,54.688,42.480,16.113,84.961,50.293,0
1553633004.815,55.176,37.109,34.180,68.848,24.414,0
1553633004.819,59.082,37.109,36.133,76.172,3.906,0
1553633004.822,53.223,30.762,22.949,77.148,62.500,0
1553633004.826,47.363,32.227,15.625,55.176,95.215,0
1553633004.830,53.223,36.133,16.602,60.059,66.895,0
1553633004.834,54.199,39.062,23.926,78.125,50.293,0
1553633004.838,59.570,37.598,24.414,92.773,46.387,0
1553633004.842,80.566,34.668,5.859,103.027,24.902,0
1553633004.846,79.590,34.668,14.160,83.496,7.324,0
1553633004.850,62.500,35.645,33.691,59.570,-12.207,0
1553633004.854,63.477,39.062,32.715,65.918,-3.418,0
1553633004.858,61.523,33.691,29.297,66.406,2.930,0
1553633004.862,63.965,38.574,21.484,59.082,35.645,0
1553633004.865,62.988,46.387,18.066,64.941,44.922,0
1553633004.869,65.430,43.457,19.043,79.590,6.348,0
1553633004.873,76.660,40.039,21.973,76.172,28.320,0
1553633004.877,73.242,35.645,35.156,77.637,30.273,0
1553633004.881,63.477,36.621,34.668,70.312,28.320,0
1553633004.885,63.477,38.574,21.484,64.453,54.199,0
1553633004.889,59.082,27.344,19.043,72.266,45.410,0
1553633004.893,62.988,19.531,30.762,70.312,1.465,0
1553633004.897,62.988,30.762,20.020,91.309,-9.277,0
1553633004.901,66.895,44.922,9.277,78.125,23.438,0
1553633004.905,73.242,35.156,20.508,70.312,63.965,0
1553633004.908,79.102,30.762,14.160,93.750,68.848,0
1553633004.912,83.496,39.551,19.043,81.055,63.477,0
1553633004.916,75.195,33.203,36.133,61.523,36.621,0
1553633004.920,62.988,38.574,30.273,61.523,34.180,0
1553633004.924,54.199,39.062,24.414,79.102,107.422,0
1553633004.928,53.711,28.809,29.785,83.496,55.176,0
1553633004.932,54.199,27.344,23.926,70.312,-22.461,0
1553633004.936,63.965,38.086,21.484,62.012,-17.090,0
1553633004.940,67.383,41.504,27.344,70.801,1.465,0
1553633004.944,61.523,32.715,29.785,89.355,49.316,0
1553633004.947,53.223,35.156,28.809,68.359,47.852,0
1553633004.951,65.430,41.992,18.066,71.777,-0.977,0
1553633004.955,72.754,38.574,19.043,87.891,9.766,0
1553633004.959,57.617,39.551,19.043,81.543,14.160,0
1553633004.963,46.387,35.645,16.113,73.730,4.883,0
1553633004.967,50.293,32.715,28.320,53.711,79.590,0
1553633004.971,59.082,33.691,25.879,58.594,60.059,0
1553633004.975,60.059,35.645,20.508,77.637,41.992,0
1553633004.979,67.871,49.316,18.066,75.684,59.570,0
1553633004.983,71.777,52.734,9.766,56.152,38.574,0
1553633004.987,86.426,47.363,20.020,67.383,90.332,0
1553633004.990,96.191,43.945,26.855,66.406,63.965,0
1553633004.994,74.219,31.738,27.344,44.922,36.133,0
1553633004.998,61.523,32.715,23.926,51.758,58.594,0
1553633005.002,61.035,45.410,23.926,68.848,82.520,0
1553633005.006,62.988,37.598,21.484,65.918,33.203,0
1553633005.010,57.617,32.227,20.020,82.031,-17.090,0
1553633005.014,76.660,37.109,25.879,116.699,41.992,0
1553633005.018,84.961,48.340,22.461,95.215,78.613,0
1553633005.022,52.246,50.781,24.902,52.246,83.984,0
1553633005.026,46.387,33.691,39.551,50.781,3.418,0
1553633005.030,44.434,24.902,34.668,53.711,12.207,0
1553633005.033,46.875,21.973,25.391,61.523,69.336,0
1553633005.037,57.617,23.438,38.574,76.172,34.180,0
1553633005.041,74.707,24.414,41.504,92.773,66.406,0
1553633005.045,75.195,35.645,23.926,75.195,41.992,0
1553633005.049,46.387,43.945,22.949,63.477,31.250,0
1553633005.053,41.504,38.086,45.898,76.660,83.008,0
1553633005.057,52.734,41.016,47.852,64.941,104.980,0
1553633005.061,44.922,36.133,38.574,59.082,53.223,0
1553633005.065,52.246,23.926,33.203,62.500,34.180,0
1553633005.069,79.102,24.414,26.855,69.336,72.754,0
1553633005.072,69.336,30.762,32.227,77.148,61.523,0
1553633005.076,49.805,37.598,35.645,83.496,2.441,0
1553633005.080,56.641,34.180,26.855,91.797,27.344,0
1553633005.084,65.430,30.273,32.227,69.336,85.938,0
1553633005.088,72.754,29.297,30.273,56.152,45.898,0
1553633005.092,66.406,25.879,19.531,68.359,10.254,0
1553633005.096,55.664,20.508,31.738,64.941,23.926,0
1553633005.100,60.547,20.996,37.109,63.965,67.871,0
1553633005.104,68.848,28.809,38.086,65.918,35.645,0
1553633005.108,62.012,29.297,36.621,63.965,16.113,0
1553633005.112,66.895,27.832,29.785,62.500,31.738,0
1553633005.115,69.824,28.809,24.902,79.102,51.270,0
1553633005.119,60.547,33.691,27.832,105.469,89.355,0
1553633005.123,63.477,34.180,33.203,103.027,26.855,0
1553633005.127,69.336,19.531,32.227,94.238,-31.738,0
1553633005.131,64.453,19.531,40.527,80.566,13.672,0
1553633005.135,77.637,33.203,38.086,59.082,11.230,0
1553633005.139,67.383,26.367,30.762,60.547,11.719,0
1553633005.143,55.664,25.391,26.855,63.477,28.809,0
1553633005.147,80.078,31.250,24.902,63.477,2.930,0
1553633005.151,67.383,20.020,32.715,69.824,29.785,0
1553633005.155,59.570,23.438,24.414,80.566,15.137,0
1553633005.158,63.965,34.668,16.113,74.219,51.270,0
1553633005.162,58.594,30.273,29.297,59.082,121.582,0
1553633005.166,55.664,25.391,34.180,58.105,84.473,0
1553633005.170,62.988,20.996,28.809,62.988,13.184,0
1553633005.174,65.430,22.461,26.367,67.383,38.086,0
1553633005.178,56.641,29.297,21.973,51.270,48.340,0
1553633005.182,52.246,34.180,23.438,32.227,7.324,0
1553633005.186,62.012,32.715,25.879,46.875,37.598,0
1553633005.190,87.402,28.809,26.855,81.543,22.949,0
1553633005.194,102.539,28.809,24.902,98.633,15.137,0
1553633005.197,71.289,33.691,23.926,62.012,2.930,0
1553633005.201,48.340,27.832,36.621,42.969,-22.949,0
1553633005.205,83.496,17.578,41.016,96.680,5.859,0
1553633005.209,118.164,16.113,38.086,130.371,32.227,0
1553633005.213,141.602,13.672,45.898,137.207,58.594,0
1553633005.217,149.414,3.418,52.246,158.691,96.680,0
1553633005.221,158.203,0.977,49.316,173.340,63.477,0
1553633005.225,186.523,4.395,46.387,197.266,62.988,0
1553633005.229,200.684,5.859,50.293,222.168,64.453,0
1553633005.233,191.895,5.859,54.199,218.750,34.668,0
1553633005.237,214.844,3.418,56.152,224.609,89.844,0
1553633005.240,220.703,2.441,59.082,240.234,56.641,0
1553633005.244,196.289,0.977,53.223,216.797,3.906,0
1553633005.248,193.848,1.465,50.781,195.801,1.465,0
1553633005.252,197.266,-3.418,45.410,210.449,28.809,0
1553633005.256,204.590,-6.348,46.875,209.473,37.109,0
1553633005.260,197.754,16.602,55.176,192.383,91.797,0
1553633005.264,174.316,24.902,52.734,187.988,88.379,0
1553633005.268,169.922,22.949,48.340,188.965,71.777,0
1553633005.272,165.039,26.855,48.340,193.359,74.219,0
1553633005.276,150.879,21.484,47.363,194.336,13.672,0
1553633005.280,134.766,19.043,44.434,170.410,12.695,0
1553633005.283,136.719,12.695,53.223,163.086,-23.926,0
1553633005.287,150.391,15.137,52.734,172.852,-7.812,0
1553633005.291,140.625,29.785,46.387,147.949,74.707,0
1553633005.295,128.418,26.855,48.340,131.348,70.801,0
1553633005.299,130.371,24.414,47.852,148.438,19.043,0
1553633005.303,138.184,21.973,43.945,147.461,14.160,0
1553633005.307,130.859,29.785,41.016,131.348,66.895,0
1553633005.311,114.258,35.645,41.992,119.629,65.918,0
1553633005.315,117.676,34.180,27.344,134.766,24.902,0
1553633005.319,123.535,22.949,18.066,145.996,49.316,0
1553633005.322,111.816,20.020,38.574,133.789,82.031,0
1553633005.326,104.492,37.598,48.340,115.234,46.875,0
1553633005.330,98.145,39.551,48.828,98.145,44.434,0
1553633005.334,105.957,28.320,44.434,110.352,56.152,0
1553633005.338,106.445,30.762,33.691,112.793,33.691,0
1553633005.342,108.398,23.926,44.922,112.305,55.176,0
1553633005.346,104.980,26.367,52.246,104.980,61.523,0
1553633005.350,77.148,32.227,44.922,93.262,28.320,0
1553633005.354,88.379,29.785,33.691,97.168,-10.254,0
1553633005.358,88.867,33.691,32.715,115.723,24.902,0
1553633005.362,74.219,36.133,40.527,128.418,36.621,0
1553633005.365,92.285,12.207,37.598,116.699,-11.230,0
1553633005.369,97.656,15.137,39.551,100.586,7.324,0
1553633005.373,79.102,51.758,41.016,95.703,23.926,0
1553633005.377,74.707,49.805,35.645,97.168,6.836,0
1553633005.381,76.660,34.668,35.645,97.168,35.156,0
1553633005.385,90.332,26.855,34.180,97.656,36.621,0
1553633005.389,86.914,22.461,34.668,106.445,5.371,0
1553633005.393,78.613,28.809,18.066,106.445,33.691,0
1553633005.397,93.262,22.949,19.043,124.023,50.781,0
1553633005.401,100.586,17.578,44.434,145.508,91.309,0
1553633005.405,59.570,36.133,36.621,87.402,115.723,0
1553633005.408,11.230,43.457,22.461,20.508,70.801,0
1553633005.412,-32.715,43.945,22.949,-24.414,58.105,0
1553633005.416,-82.031,45.898,10.742,-68.359,5.371,0
1553633005.420,-106.445,47.852,2.930,-96.680,-21.484,0
1553633005.424,-144.043,53.711,-6.836,-138.184,11.230,0
1553633005.428,-161.621,63.477,-12.695,-145.996,26.855,0
1553633005.432,-177.246,58.594,-21.484,-158.203,18.555,0
1553633005.436,-194.336,65.918,-35.156,-194.824,46.387,0
1553633005.440,-186.035,73.242,-31.250,-187.500,50.781,0
1553633005.444,-178.711,57.129,-23.438,-155.273,43.457,0
1553633005.447,-169.434,61.035,-4.883,-124.023,61.035,0
1553633005.451,-133.301,57.129,6.348,-118.652,27.344,0
1553633005.455,-103.516,56.641,2.930,-118.652,26.855,0
1553633005.459,-94.238,52.734,0.000,-99.609,-18.066,0
1553633005.463,-74.707,44.434,0.977,-78.613,-36.621,0
1553633005.467,-43.945,45.898,2.441,-62.500,-11.230,0
1553633005.471,-28.320,43.457,4.883,-41.992,18.555,0
1553633005.475,-21.484,43.457,3.906,-30.762,-12.207,0
1553633005.479,-11.230,48.340,-5.859,-23.438,-39.062,0
1553633005.483,-9.277,42.969,-6.836,-10.254,19.531,0
1553633005.487,-1.465,41.504,8.301,-9.277,76.660,0
1553633005.490,9.277,47.852,13.672,3.418,49.805,0
1553633005.494,3.418,36.621,13.184,18.555,30.273,0
1553633005.498,-11.230,34.180,10.254,9.277,48.828,0
1553633005.502,1.953,44.922,10.742,17.090,36.621,0
1553633005.506,14.648,37.109,19.531,28.320,55.664,0
1553633005.510,11.230,35.645,10.742,28.320,44.922,0
1553633005.514,18.555,39.551,12.695,30.762,19.531,0
1553633005.518,33.691,35.645,11.230,31.738,111.328,0
1553633005.522,48.340,27.344,0.000,46.387,51.270,0
1553633005.526,38.574,32.715,15.137,55.664,-17.578,0
1553633005.530,27.344,41.016,12.207,55.176,53.223,0
1553633005.533,40.039,27.832,-0.488,53.223,-50.781,0
1553633005.537,32.715,33.691,20.508,25.879,-23.926,0
1553633005.541,36.621,45.898,30.273,26.855,73.242,0
1553633005.545,46.387,53.711,21.484,49.805,-2.441,0
1553633005.549,44.922,43.457,15.625,37.598,50.781,0
1553633005.553,60.547,48.340,13.672,64.453,121.582,0
1553633005.557,57.617,38.086,20.508,94.727,73.730,0
1553633005.561,46.387,18.555,18.555,69.336,82.520,0
1553633005.565,52.734,38.086,13.672,52.246,90.820,0
1553633005.569,55.664,41.504,21.484,57.129,31.738,0
1553633005.572,63.477,33.691,28.809,64.941,14.648,0
1553633005.576,63.477,32.715,27.832,63.477,73.730,0
1553633005.580,34.180,45.410,12.207,25.879,80.078,0
1553633005.584,26.855,52.734,4.883,18.555,40.527,0
1553633005.588,39.551,46.387,7.812,53.223,77.148,0
1553633005.592,32.227,45.410,-4.395,50.293,55.176,0
1553633005.596,24.902,44.434,14.648,23.438,77.637,0
1553633005.600,16.113,39.551,26.855,12.695,108.887,0
1553633005.604,25.879,27.832,21.484,30.762,21.484,0
1553633005.608,39.551,38.086,16.602,34.180,-18.555,0
1553633005.612,45.410,45.410,14.648,41.992,-11.719,0
1553633005.615,47.852,41.992,13.184,52.246,-2.930,0
1553633005.619,40.527,51.758,7.324,54.688,16.113,0
1553633005.623,39.062,43.457,13.672,60.547,42.969,0
1553633005.627,47.363,44.922,17.090,65.430,19.043,0
1553633005.631,57.617,49.316,14.648,51.758,0.000,0
1553633005.635,59.082,33.203,20.996,30.762,58.594,0
1553633005.639,52.734,27.832,15.137,34.668,91.309,0
1553633005.643,40.527,40.039,-0.977,41.504,33.203,0
1553633005.647,44.922,44.922,4.395,51.758,13.672,0
1553633005.651,63.477,34.668,20.020,51.270,61.035,0
1553633005.655,57.617,38.574,25.879,53.711,46.387,0
1553633005.658,58.105,42.969,34.180,72.754,-25.879,0
1553633005.662,61.035,40.039,30.273,64.453,23.438,0
1553633005.666,60.547,39.062,24.902,47.363,55.176,0
1553633005.670,59.570,34.180,21.484,48.828,24.414,0
1553633005.674,56.152,36.621,13.672,44.922,83.496,0
1553633005.678,50.293,36.621,7.812,48.828,78.125,0
1553633005.682,65.430,29.785,16.113,68.359,54.199,0
1553633005.686,76.660,35.645,15.137,61.523,92.773,0
1553633005.690,81.055,19.531,17.578,66.406,77.148,0
1553633005.694,76.660,8.301,32.715,70.312,48.828,0
1553633005.697,52.734,28.320,31.738,50.781,12.207,0
1553633005.701,38.574,42.480,31.250,50.781,36.133,0
1553633005.705,37.109,44.434,28.809,64.453,86.426,0
1553633005.709,46.875,44.434,20.020,57.617,41.016,0
1553633005.713,59.570,35.156,25.391,47.363,-2.441,0
1553633005.717,56.152,30.762,26.855,50.781,-2.930,0
1553633005.721,60.547,39.551,17.090,69.336,51.270,0
1553633005.725,59.570,23.438,17.578,71.777,20.996,0
1553633005.729,38.086,22.461,21.973,61.035,-57.129,0
1553633005.733,39.062,39.062,32.227,56.152,10.254,0
1553633005.737,61.035,35.645,22.461,71.289,54.688,0
1553633005.740,64.453,41.016,15.137,73.242,-13.184,0
1553633005.744,48.828,40.039,27.832,55.176,2.930,0
1553633005.748,50.293,28.809,33.691,66.895,-13.184,0
1553633005.752,70.312,20.996,32.227,86.914,1.953,0
1553633005.756,61.035,27.344,19.043,77.148,60.547,0
1553633005.760,54.199,40.527,4.395,49.316,30.762,0
1553633005.764,72.266,41.504,7.324,52.734,86.426,0
1553633005.768,65.918,42.969,16.113,54.688,85.938,0
1553633005.772,49.805,49.316,14.648,48.828,25.879,0
1553633005.776,52.246,47.363,11.719,46.875,43.457,0
1553633005.780,49.316,39.062,11.719,54.688,44.434,0
1553633005.783,42.969,35.156,11.719,53.223,61.035,0
1553633005.787,52.734,29.785,6.348,51.270,57.129,0
1553633005.791,60.059,38.086,1.953,69.824,24.414,0
1553633005.795,59.570,43.945,11.230,66.406,76.660,0
1553633005.799,59.570,40.039,18.555,72.754,55.664,0
1553633005.803,54.688,35.645,19.531,67.383,3.906,0
1553633005.807,48.340,33.203,21.484,48.340,2.441,0
1553633005.811,53.223,32.715,15.625,51.758,12.207,0
1553633005.815,65.430,36.133,4.883,70.801,64.453,0
1553633005.819,76.172,33.691,16.113,89.355,111.816,0
1553633005.822,69.336,32.227,35.156,76.660,104.980,0
1553633005.826,64.453,36.621,23.438,84.961,62.988,0
1553633005.830,72.266,34.668,8.789,85.449,46.875,0
1553633005.834,58.594,36.133,22.461,48.828,129.395,0
1553633005.838,48.828,31.738,20.020,47.852,132.324,0
1553633005.842,56.641,20.508,7.812,57.617,75.195,0
1553633005.846,53.711,27.832,17.578,64.453,33.203,0
1553633005.850,53.223,32.715,30.273,78.613,25.879,0
1553633005.854,46.875,21.484,31.250,72.266,49.805,0
1553633005.858,51.270,23.926,24.902,68.359,72.266,0
1553633005.862,67.383,34.668,22.461,62.012,91.309,0
1553633005.865,70.801,34.180,23.438,55.664,2.441,0
1553633005.869,63.965,23.926,21.484,79.590,-14.160,0
1553633005.873,53.711,28.809,18.066,79.102,29.297,0
1553633005.877,51.270,37.109,19.043,75.684,20.508,0
1553633005.881,60.059,26.855,23.926,81.055,25.879,0
1553633005.885,79.590,28.320,22.949,69.336,71.777,0
1553633005.889,84.961,19.531,12.207,72.266,89.355,0
1553633005.893,56.152,20.508,4.395,63.477,89.355,0
1553633005.897,42.480,26.367,15.137,48.340,72.754,0
1553633005.901,52.246,27.832,27.344,55.176,48.828,0
1553633005.905,51.758,41.992,35.156,65.430,65.918,0
1553633005.908,56.641,45.410,28.809,53.223,59.570,0
1553633005.912,62.500,41.504,19.043,61.523,82.031,0
1553633005.916,67.871,34.180,20.508,81.543,57.129,0
1553633005.920,52.734,27.832,17.578,56.641,60.059,0
1553633005.924,40.527,26.855,24.414,50.293,63.965,0
1553633005.928,39.062,20.020,18.066,48.828,36.133,0
1553633005.932,55.176,18.555,15.625,45.898,75.195,0
1553633005.936,65.918,34.180,25.879,70.312,100.098,0
1553633005.940,61.035,28.809,25.391,70.312,-9.766,0
1553633005.944,73.242,23.438,24.414,56.641,-16.113,0
1553633005.947,83.008,28.809,23.926,55.664,20.020,0
1553633005.951,80.566,32.715,22.461,66.895,21.973,0
1553633005.955,73.242,34.180,10.742,61.035,0.000,0
1553633005.959,62.500,25.879,6.348,49.805,-13.672,0
1553633005.963,56.641,18.555,27.832,58.594,48.340,0
1553633005.967,44.434,18.555,41.992,62.988,18.555,0
1553633005.971,41.992,31.738,35.156,72.754,32.227,0
1553633005.975,41.504,43.945,24.902,65.430,62.500,0
1553633005.979,45.410,42.969,28.320,65.430,42.969,0
1553633005.983,62.988,31.250,27.344,70.312,-3.906,0
1553633005.987,80.566,31.250,20.508,85.938,-3.906,0
1553633005.990,80.078,39.062,16.113,95.215,20.508,0
1553633005.994,36.621,26.855,25.879,65.430,52.246,0
1553633005.998,17.090,19.043,28.809,48.828,43.457,0
1553633006.002,28.809,19.043,39.551,55.664,64.941,0
1553633006.006,22.949,14.648,55.664,57.129,76.660,0
1553633006.010,26.367,8.789,47.363,53.223,23.926,0
1553633006.014,31.738,9.277,44.434,49.316,58.105,0
1553633006.018,25.391,8.789,48.828,54.199,99.121,0
1553633006.022,37.109,8.301,45.410,57.129,51.758,0
1553633006.026,41.992,17.090,34.668,51.270,46.875,0
1553633006.030,43.945,20.508,42.480,51.758,49.805,0
1553633006.033,55.664,2.441,47.363,60.547,29.785,0
1553633006.037,48.340,2.930,40.039,68.848,21.484,0
1553633006.041,40.527,25.879,41.016,68.848,20.996,0
1553633006.045,41.992,33.203,43.945,58.105,63.477,0
1553633006.049,40.039,28.809,31.738,53.223,63.965,0
1553633006.053,42.480,20.996,30.762,61.523,33.203,0
1553633006.057,33.691,18.066,41.016,59.082,14.160,0
1553633006.061,50.293,19.531,38.086,69.824,42.480,0
1553633006.065,56.152,18.555,28.809,66.406,38.574,0
1553633006.069,68.359,12.695,26.855,54.199,14.648,0
1553633006.072,81.055,17.578,25.391,62.500,47.852,0
1553633006.076,43.457,25.391,31.250,60.059,90.332,0
1553633006.080,38.574,25.879,35.645,66.406,74.707,0
1553633006.084,63.477,28.809,30.762,88.379,78.125,0
1553633006.088,81.055,25.879,33.203,75.195,84.961,0
1553633006.092,57.129,25.879,39.551,66.895,82.031,0
1553633006.096,29.785,26.855,37.598,75.195,50.293,0
1553633006.100,40.039,22.461,34.180,67.871,6.836,0
1553633006.104,43.457,13.184,31.250,67.383,24.414,0
1553633006.108,54.688,14.648,27.832,67.383,0.488,0
1553633006.112,57.129,27.832,31.250,60.547,16.602,0
1553633006.115,51.758,26.855,36.621,62.500,29.785,0
1553633006.119,59.082,21.484,37.598,54.688,9.766,0
1553633006.123,60.059,28.320,29.297,62.988,48.828,0
1553633006.127,57.129,30.762,27.832,65.918,38.574,0
1553633006.131,54.688,24.902,30.273,61.523,-12.695,0
1553633006.135,62.012,24.902,25.391,74.219,13.184,0
1553633006.139,65.430,27.832,33.203,57.129,79.102,0
1553633006.143,53.711,26.367,36.621,44.434,80.078,0
1553633006.147,35.156,20.020,31.738,60.547,27.832,0
1553633006.151,47.363,19.531,29.785,71.777,17.090,0
1553633006.155,77.637,33.691,24.414,62.012,43.457,0
1553633006.158,73.242,38.574,18.066,70.312,13.184,0
1553633006.162,36.621,28.320,24.902,74.219,33.203,0
1553633006.166,29.785,33.203,34.180,51.270,85.449,0
1553633006.170,53.711,37.598,25.391,50.293,42.969,0
1553633006.174,52.734,25.879,25.391,69.824,23.438,0
1553633006.178,48.828,27.832,34.668,67.871,20.996,0
1553633006.182,47.363,32.715,30.273,60.059,13.184,0
1553633006.186,73.242,30.273,25.879,69.336,57.129,0
1553633006.190,101.074,42.480,24.414,78.125,41.504,0
1553633006.194,44.434,39.551,30.762,71.777,32.715,0
1553633006.197,11.719,25.391,41.992,54.199,57.617,0
1553633006.201,39.551,28.809,42.969,68.848,32.715,0
1553633006.205,48.340,30.273,34.180,75.195,22.461,0
1553633006.209,44.922,28.809,36.133,53.223,37.109,0
1553633006.213,43.457,23.438,39.551,60.547,16.602,0
1553633006.217,44.922,23.438,32.227,70.801,-30.762,0
1553633006.221,45.898,29.297,25.391,56.152,28.809,0
1553633006.225,57.617,23.438,31.250,65.918,92.285,0
1553633006.229,64.941,26.855,44.922,86.914,100.098,0
1553633006.233,44.434,32.715,37.109,74.707,50.781,0
1553633006.237,38.086,29.297,29.297,56.152,-0.977,0
1553633006.240,40.039,28.320,33.691,53.711,-8.301,0
1553633006.244,46.875,31.738,32.227,55.664,21.973,0
1553633006.248,44.434,31.738,27.832,55.664,56.152,0
1553633006.252,57.129,32.227,28.320,78.125,9.277,0
1553633006.256,74.707,24.902,35.156,76.172,-31.738,0
1553633006.260,57.617,28.809,28.809,55.176,25.879,0
1553633006.264,44.922,28.809,22.461,66.406,62.012,0
1553633006.268,60.059,24.902,24.902,72.266,33.203,0
1553633006.272,83.984,27.832,23.926,64.453,43.457,0
1553633006.276,62.988,33.203,29.785,63.965,14.648,0
1553633006.280,38.086,38.086,30.273,68.848,33.691,0
1553633006.283,36.621,34.668,30.762,63.477,44.922,0
1553633006.287,42.480,30.762,31.738,73.242,10.254,0
1553633006.291,61.523,32.227,30.273,70.801,42.480,0
1553633006.295,54.199,36.133,32.227,62.500,58.594,0
1553633006.299,40.039,35.645,28.809,59.570,48.828,0
1553633006.303,46.875,35.156,29.785,64.941,61.523,0
1553633006.307,51.758,28.320,30.273,69.336,-2.441,0
1553633006.311,57.617,30.273,31.738,65.430,-3.906,0
1553633006.315,64.941,33.691,37.109,82.520,17.090,0
1553633006.319,52.734,27.832,34.180,91.309,64.941,0
1553633006.322,48.340,31.250,31.738,68.848,105.469,0
1553633006.326,64.941,38.574,20.996,74.219,51.270,0
1553633006.330,68.359,41.992,9.277,82.520,72.266,0
1553633006.334,62.500,35.645,23.438,63.477,22.461,0
1553633006.338,61.523,24.414,31.250,57.129,-17.090,0
1553633006.342,70.801,24.414,26.367,66.406,52.734,0
1553633006.346,62.988,16.113,37.598,101.562,82.031,0
1553633006.350,61.523,2.930,41.992,108.398,31.738,0
1553633006.354,63.477,29.297,27.344,68.359,1.953,0
1553633006.358,50.781,50.293,14.160,67.871,20.020,0
1553633006.362,45.410,50.293,11.230,68.359,35.156,0
1553633006.365,59.082,44.434,9.766,48.340,28.320,0
1553633006.369,64.453,52.246,2.441,47.363,-0.488,0
1553633006.373,73.730,63.477,-7.324,61.035,-12.695,0
1553633006.377,77.637,62.012,-6.348,68.848,-3.418,0
1553633006.381,58.594,58.105,0.977,68.359,11.230,0
1553633006.385,62.988,58.105,1.953,67.871,17.090,0
1553633006.389,65.918,50.293,-1.465,71.289,-8.301,0
1553633006.393,68.359,38.574,8.301,79.590,-58.594,0
1553633006.397,68.848,49.805,4.395,56.152,4.883,0
1553633006.401,80.078,50.293,1.953,51.758,80.566,0
1553633006.405,93.750,41.504,13.184,68.359,36.133,0
1553633006.408,89.355,42.969,7.324,93.262,50.781,0
1553633006.412,112.305,49.805,6.836,98.633,76.172,0
1553633006.416,132.812,44.922,13.184,57.129,72.754,0
1553633006.420,96.680,37.109,16.113,58.105,95.703,0
1553633006.424,74.219,39.551,17.090,75.195,110.840,0
1553633006.428,64.453,39.551,11.719,85.938,85.938,0
1553633006.432,60.059,32.715,17.090,72.266,22.461,0
1553633006.436,64.941,35.156,11.719,73.242,-2.441,0
1553633006.440,63.477,43.945,8.301,83.984,27.832,0
1553633006.444,65.430,43.945,13.184,68.359,75.684,0
1553633006.447,75.195,42.480,-0.488,73.730,111.816,0
1553633006.451,48.340,35.645,-0.488,59.082,73.242,0
1553633006.455,30.273,30.762,20.996,53.711,51.270,0
1553633006.459,51.758,37.109,23.926,54.199,53.711,0
1553633006.463,42.969,36.621,17.090,42.969,66.406,0
1553633006.467,32.227,34.180,18.555,28.809,68.848,0
1553633006.471,43.457,35.645,13.672,29.785,43.457,0
1553633006.475,42.969,27.832,11.230,40.527,18.555,0
1553633006.479,31.738,20.508,18.555,31.738,36.133,0
1553633006.483,43.945,28.809,20.996,29.785,26.367,0
1553633006.487,37.109,33.203,21.973,36.621,-12.207,0
1553633006.490,37.598,31.738,22.461,40.527,19.531,0
1553633006.494,32.715,33.203,20.508,54.199,68.848,0
1553633006.498,32.227,31.250,20.508,44.922,32.715,0
1553633006.502,51.758,31.250,19.043,44.922,2.441,0
1553633006.506,51.758,33.203,16.113,53.711,22.949,0
1553633006.510,38.574,29.297,16.113,20.508,59.570,0
1553633006.514,35.156,26.855,18.066,16.602,74.219,0
1553633006.518,36.621,27.344,20.996,27.344,25.391,0
1553633006.522,40.527,25.879,18.555,41.016,1.953,0
1553633006.526,49.316,26.367,12.695,33.691,15.625,0
1553633006.530,50.293,27.832,18.555,31.250,33.203,0
1553633006.533,57.617,31.250,24.902,37.109,58.105,0
1553633006.537,52.246,34.180,27.344,50.781,-0.977,0
1553633006.541,63.477,31.250,28.320,61.523,0.977,0
1553633006.545,69.824,32.715,22.461,53.711,86.914,0
1553633006.549,45.410,32.715,21.973,52.734,78.613,0
1553633006.553,41.504,24.414,19.531,44.434,95.703,0
1553633006.557,49.316,18.555,18.555,39.062,86.426,0
1553633006.561,50.293,20.020,21.484,43.945,20.020,0
1553633006.565,58.105,22.461,20.020,47.852,45.410,0
1553633006.569,66.406,19.531,24.902,49.805,31.738,0
1553633006.572,65.918,20.508,27.344,43.945,53.711,0
1553633006.576,77.148,27.344,23.438,55.176,81.543,0
1553633006.580,75.195,35.645,21.973,65.430,38.574,0
1553633006.584,47.852,40.039,23.438,49.316,56.152,0
1553633006.588,47.363,36.621,23.926,37.598,141.113,0
1553633006.592,57.617,35.156,25.391,31.738,107.910,0
1553633006.596,62.500,34.668,27.344,35.645,8.301,0
1553633006.600,69.336,31.250,21.973,48.340,4.395,0
1553633006.604,75.195,27.344,12.695,68.359,1.953,0
1553633006.608,72.266,17.578,14.648,64.941,-2.930,0
1553633006.612,67.383,16.113,31.250,53.223,30.762,0
1553633006.615,54.688,26.855,40.527,39.551,30.762,0
1553633006.619,49.316,39.062,34.180,38.574,34.180,0
1553633006.623,54.199,37.109,18.555,43.457,57.617,0
1553633006.627,58.594,32.227,27.344,42.969,34.668,0
1553633006.631,57.129,26.367,41.016,53.711,27.832,0
1553633006.635,41.992,25.391,33.691,81.543,61.523,0
1553633006.639,44.922,20.508,31.250,76.660,48.340,0
1553633006.643,54.199,20.020,18.555,61.523,33.203,0
1553633006.647,63.965,33.691,20.020,66.895,38.086,0
1553633006.651,78.125,28.320,37.598,64.453,5.859,0
1553633006.655,83.496,28.809,33.691,83.984,15.625,0
1553633006.658,70.312,33.203,23.438,71.777,64.453,0
1553633006.662,39.062,34.668,30.273,59.570,38.574,0
1553633006.666,32.715,26.855,37.598,81.543,9.277,0
1553633006.670,41.504,19.043,31.738,75.684,16.602,0
1553633006.674,49.316,24.902,29.785,62.988,61.035,0
1553633006.678,44.922,23.438,28.320,73.730,59.082,0
1553633006.682,59.082,24.902,27.344,83.008,45.898,0
1553633006.686,83.984,29.297,23.438,95.215,44.922,0
1553633006.690,61.523,24.902,18.555,87.891,33.691,0
1553633006.694,42.480,21.973,27.832,64.453,26.367,0
1553633006.697,49.316,26.367,40.039,74.707,27.832,0
1553633006.701,51.758,32.227,32.227,88.379,51.270,0
1553633006.705,64.453,31.250,24.902,66.895,73.242,0
1553633006.709,51.270,31.250,26.367,58.105,86.914,0
1553633006.713,50.293,22.949,28.320,81.055,54.199,0
1553633006.717,52.246,19.531,31.250,83.984,35.156,0
1553633006.721,41.504,30.762,30.273,57.129,-13.672,0
1553633006.725,39.062,33.203,31.250,58.105,-27.344,0
1553633006.729,43.945,20.020,28.809,88.867,-1.465,0
1553633006.733,51.270,20.996,23.926,91.797,-39.062,0
1553633006.737,79.590,35.645,22.949,60.547,23.926,0
1553633006.740,71.777,34.668,23.438,49.316,56.641,0
1553633006.744,22.461,36.133,21.973,55.664,16.113,0
1553633006.748,22.461,34.180,21.484,48.828,20.508,0
1553633006.752,48.340,30.273,21.973,62.988,69.336,0
1553633006.756,49.805,26.855,20.508,74.219,37.598,0
1553633006.760,44.922,26.367,27.344,57.617,21.973,0
1553633006.764,46.875,33.203,34.668,64.941,58.105,0
1553633006.768,40.039,32.227,30.273,70.312,35.645,0
1553633006.772,53.223,33.203,25.879,63.965,79.102,0
1553633006.776,70.801,33.691,30.273,80.078,88.379,0
1553633006.780,62.988,29.297,33.203,79.590,38.086,0
1553633006.783,63.965,30.762,30.273,60.059,47.363,0
1553633006.787,57.617,35.156,27.344,73.242,52.246,0
1553633006.791,47.852,34.668,30.273,76.172,52.246,0
1553633006.795,44.922,29.785,26.855,62.012,11.230,0
1553633006.799,37.109,28.809,25.879,68.848,-2.930,0
1553633006.803,49.805,32.227,32.227,86.914,49.316,0
1553633006.807,55.176,30.273,35.645,89.844,90.820,0
1553633006.811,53.223,24.902,32.715,89.844,54.199,0
1553633006.815,53.711,24.414,33.203,78.613,74.219,0
1553633006.819,77.637,22.949,37.109,82.520,41.992,0
1553633006.822,84.473,28.320,36.621,88.867,29.297,0
1553633006.826,41.992,32.227,33.203,81.543,78.125,0
1553633006.830,45.898,32.715,20.508,85.449,61.035,0
1553633006.834,63.477,31.738,21.484,71.289,41.016,0
1553633006.838,80.078,28.809,33.203,80.566,22.949,0
1553633006.842,74.707,22.461,35.645,87.891,45.410,0
1553633006.846,49.805,24.414,38.574,76.660,44.434,0
1553633006.850,55.176,25.391,35.156,74.219,56.152,0
1553633006.854,59.570,26.367,27.344,72.754,84.961,0
1553633006.858,71.777,28.320,33.691,93.262,64.941,0
1553633006.862,69.336,26.367,32.715,95.703,39.062,0
1553633006.865,59.570,27.832,25.879,63.965,69.824,0
1553633006.869,61.035,29.785,27.344,83.984,93.750,0
1553633006.873,69.824,31.738,28.320,99.609,65.918,0
1553633006.877,80.078,32.715,29.785,67.383,70.801,0
1553633006.881,68.848,34.668,27.344,54.199,90.332,0
1553633006.885,75.195,32.715,27.832,76.660,85.938,0
1553633006.889,82.520,27.832,31.250,87.891,102.539,0
1553633006.893,70.312,27.344,31.738,83.008,74.219,0
1553633006.897,65.918,23.926,26.367,85.449,37.109,0
1553633006.901,74.707,21.484,28.809,110.352,23.926,0
1553633006.905,63.477,23.438,37.109,103.516,0.488,0
1553633006.908,52.246,29.297,31.250,67.383,37.598,0
1553633006.912,55.176,29.297,31.738,75.195,90.820,0
1553633006.916,52.734,26.367,35.156,69.336,47.852,0
1553633006.920,62.012,33.691,32.715,61.035,20.020,0
1553633006.924,89.355,37.598,30.762,84.961,90.332,0
1553633006.928,80.566,35.156,26.367,86.426,65.918,0
1553633006.932,59.570,32.227,28.809,72.754,3.418,0
1553633006.936,54.688,26.855,33.691,91.309,41.016,0
1553633006.940,49.805,25.391,36.621,82.031,76.660,0
1553633006.944,48.340,26.367,36.133,79.102,42.480,0
1553633006.947,64.941,25.391,34.668,93.750,8.301,0
1553633006.951,59.570,28.809,31.250,87.891,3.418,0
1553633006.955,89.844,36.133,25.879,83.496,7.324,0
1553633006.959,108.887,37.598,24.414,75.684,-17.090,0
1553633006.963,64.941,30.273,30.762,52.734,-7.324,0
1553633006.967,51.270,22.949,38.574,58.594,37.598,0
1553633006.971,54.199,12.695,48.828,83.984,49.316,0
1553633006.975,44.434,0.488,59.082,98.145,74.707,0
1553633006.979,71.777,-7.812,66.406,114.746,61.523,0
1553633006.983,105.469,-17.090,73.242,139.648,19.043,0
1553633006.987,95.703,-26.367,81.055,158.203,55.176,0
1553633006.990,120.117,-28.320,89.355,148.438,73.730,0
1553633006.994,111.328,-29.785,93.262,147.949,33.691,0
1553633006.998,95.215,-29.297,96.191,176.270,44.922,0
1553633007.002,122.559,-33.691,101.562,194.824,70.801,0
1553633007.006,131.836,-39.551,102.539,203.125,61.523,0
1553633007.010,146.973,-42.480,109.863,211.426,73.242,0
1553633007.014,148.438,-46.875,118.652,239.746,31.250,0
1553633007.018,185.059,-53.223,121.094,263.184,-38.086,0
1553633007.022,208.008,-48.828,120.605,256.348,17.090,0
1553633007.026,190.430,-46.875,117.676,253.906,51.758,0
1553633007.030,180.176,-51.270,118.164,268.555,-10.742,0
1553633007.033,177.734,-51.758,115.723,264.160,-12.695,0
1553633007.037,181.641,-46.387,109.863,239.258,12.207,0
1553633007.041,174.316,-42.480,110.352,235.840,-19.531,0
1553633007.045,187.988,-36.621,104.004,224.121,14.648,0
1553633007.049,177.246,-36.621,95.703,214.844,45.410,0
1553633007.053,177.246,-29.785,96.680,220.703,31.738,0
1553633007.057,187.012,-18.066,94.238,229.492,38.086,0
1553633007.061,155.273,-22.461,94.727,236.816,75.195,0
1553633007.065,136.719,-20.996,95.215,215.332,91.797,0
1553633007.069,150.391,-15.137,89.355,181.641,106.445,0
1553633007.072,158.203,-11.230,84.961,175.293,73.242,0
1553633007.076,173.828,-12.207,82.520,198.242,35.156,0
1553633007.080,156.250,-10.254,79.102,192.383,53.711,0
1553633007.084,124.512,-6.348,71.777,170.410,47.363,0
1553633007.088,124.512,-0.977,65.430,161.133,20.020,0
1553633007.092,125.000,-2.441,67.871,156.250,18.066,0
1553633007.096,129.883,-3.418,67.871,137.207,9.277,0
1553633007.100,118.652,8.789,62.012,124.512,19.531,0
1553633007.104,122.070,7.812,57.129,141.602,58.594,0
1553633007.108,134.766,13.184,57.129,145.508,77.637,0
1553633007.112,109.375,18.066,60.547,145.508,56.152,0
1553633007.115,94.238,15.625,61.035,148.926,16.602,0
1553633007.119,116.699,18.066,56.641,148.926,28.809,0
1553633007.123,103.516,16.602,54.688,134.277,74.707,0
1553633007.127,98.145,14.648,54.688,149.902,55.664,0
1553633007.131,122.559,16.113,56.152,157.227,68.359,0
1553633007.135,110.352,15.137,52.734,128.906,77.637,0
1553633007.139,96.191,16.113,49.316,106.445,10.254,0
1553633007.143,105.957,20.508,50.781,120.605,5.371,0
1553633007.147,118.164,20.508,57.129,133.789,51.758,0
1553633007.151,129.883,15.625,55.176,147.461,41.992,0
1553633007.155,149.414,16.602,44.922,167.969,-33.203,0
1553633007.158,153.809,18.066,41.504,130.859,-21.484,0
1553633007.162,121.094,9.277,46.387,109.863,46.875,0
1553633007.166,129.395,12.207,52.246,134.766,77.148,0
1553633007.170,98.145,17.090,49.805,138.184,32.227,0
1553633007.174,63.477,17.578,48.340,115.723,-17.090,0
1553633007.178,89.844,21.973,45.898,114.258,11.719,0
1553633007.182,104.980,23.438,39.062,119.141,3.906,0
1553633007.186,92.773,24.414,36.133,104.980,27.832,0
1553633007.190,81.055,24.902,40.039,125.000,67.383,0
1553633007.194,89.355,21.973,41.016,147.461,72.266,0
1553633007.197,95.215,21.484,37.109,121.582,103.027,0
1553633007.201,111.328,20.996,24.414,114.746,66.895,0
1553633007.205,113.281,17.090,25.391,121.582,40.527,0
1553633007.209,87.402,18.555,40.527,92.285,80.078,0
1553633007.213,76.172,31.250,42.480,79.590,31.738,0
1553633007.217,82.520,29.785,39.551,91.309,-0.977,0
1553633007.221,103.027,22.949,39.062,89.355,66.895,0
1553633007.225,82.520,29.297,41.016,120.117,89.844,0
1553633007.229,61.035,27.832,41.016,119.141,43.945,0
1553633007.233,73.242,25.879,37.109,80.078,52.734,0
1553633007.237,68.848,29.785,37.109,81.055,60.547,0
1553633007.240,67.383,27.832,37.109,100.586,19.531,0
1553633007.244,94.727,24.902,31.738,123.535,-8.789,0
1553633007.248,97.168,24.902,29.297,102.539,-19.531,0
1553633007.252,68.848,28.809,28.809,86.914,21.973,0
1553633007.256,62.500,27.832,34.668,96.191,73.730,0
1553633007.260,66.895,21.973,40.039,102.539,38.574,0
1553633007.264,97.168,23.438,31.738,97.168,15.137,0
1553633007.268,80.566,27.344,32.227,89.355,-4.883,0
1553633007.272,58.594,34.180,29.785,100.098,1.465,0
1553633007.276,69.824,27.344,23.926,82.031,20.996,0
1553633007.280,66.406,28.320,25.391,80.566,30.273,0
1553633007.283,58.105,38.086,28.320,93.750,45.410,0
1553633007.287,62.012,30.273,31.738,76.172,27.832,0
1553633007.291,79.590,29.785,31.738,72.266,70.801,0
1553633007.295,67.383,21.484,35.156,69.336,50.781,0
1553633007.299,46.875,22.461,38.574,67.383,-15.137,0
1553633007.303,41.016,37.598,32.715,63.477,54.199,0
1553633007.307,48.340,33.691,26.855,57.617,82.031,0
1553633007.311,35.156,30.273,34.668,52.734,-29.785,0
1553633007.315,29.297,30.273,33.203,62.988,-41.504,0
1553633007.319,46.875,26.855,33.203,64.453,25.879,0
1553633007.322,35.645,27.832,32.227,30.762,49.316,0
1553633007.326,28.809,31.250,25.879,3.906,19.043,0
1553633007.330,36.621,28.320,28.809,38.086,59.082,0
1553633007.334,32.227,20.020,30.273,47.852,80.078,0
1553633007.338,43.945,22.461,29.785,31.738,67.383,0
1553633007.342,60.059,31.250,29.297,32.227,73.242,0
1553633007.346,65.918,32.715,37.598,43.945,30.273,0
1553633007.350,76.172,28.320,37.598,62.500,47.852,0
1553633007.354,86.914,20.996,32.715,81.055,52.734,0
1553633007.358,60.059,29.297,40.527,81.055,52.734,0
1553633007.362,24.902,34.668,47.852,79.590,68.359,0
1553633007.365,16.113,27.344,43.457,74.219,51.270,0
1553633007.369,15.137,26.367,37.109,52.246,81.055,0
1553633007.373,14.648,26.367,33.203,50.781,80.566,0
1553633007.377,16.113,8.301,36.621,68.848,109.863,0
1553633007.381,32.715,9.766,50.781,74.707,120.117,0
1553633007.385,4.883,40.527,38.574,33.203,35.156,0
1553633007.389,-34.180,49.805,24.902,-6.348,46.875,0
1553633007.393,-49.805,42.969,38.086,-5.859,104.004,0
1553633007.397,-79.590,46.875,32.227,-75.195,114.746,0
1553633007.401,-140.137,57.129,8.789,-162.109,72.266,0
1553633007.405,-195.312,69.824,5.371,-179.199,62.012,0
1553633007.408,-231.934,79.102,0.000,-213.867,65.918,0
1553633007.412,-249.023,81.543,1.953,-225.586,75.195,0
1553633007.416,-254.883,86.914,-1.953,-249.512,106.445,0
1553633007.420,-265.625,111.328,-15.137,-273.926,35.645,0
1553633007.424,-278.320,112.305,-14.648,-286.621,39.551,0
1553633007.428,-312.500,104.492,-11.719,-323.730,107.910,0
1553633007.432,-334.473,112.305,-25.879,-324.707,66.406,0
1553633007.436,-298.340,103.516,-36.133,-311.523,18.555,0
1553633007.440,-290.039,110.352,-40.039,-330.566,56.641,0
1553633007.444,-278.320,125.488,-35.156,-333.008,78.613,0
1553633007.447,-270.996,130.859,-25.879,-325.195,59.082,0
1553633007.451,-310.547,128.906,-41.504,-325.684,41.504,0
1553633007.455,-307.129,119.629,-61.035,-307.129,-4.395,0
1553633007.459,-273.438,125.977,-55.664,-292.480,4.883,0
1553633007.463,-253.418,121.582,-50.293,-276.367,-1.465,0
1553633007.467,-233.887,100.586,-41.504,-236.816,6.836,0
1553633007.471,-215.820,90.332,-28.320,-236.328,50.293,0
1553633007.475,-171.875,92.285,-38.086,-219.238,73.242,0
1553633007.479,-125.488,97.656,-42.480,-153.320,54.199,0
1553633007.483,-121.094,96.680,-41.992,-120.605,14.160,0
1553633007.487,-73.730,96.680,-58.105,-122.559,44.434,0
1553633007.490,-44.922,94.727,-59.570,-95.215,13.672,0
1553633007.494,-6.836,66.895,-31.738,-67.383,-16.602,0
1553633007.498,43.457,48.828,-45.898,-20.996,-0.977,0
1553633007.502,31.738,78.613,-61.523,12.207,-66.406,0
1553633007.506,40.039,72.754,-30.273,11.230,-21.973,0
1553633007.510,36.133,51.270,-15.137,13.672,63.965,0
1553633007.514,17.090,52.246,-28.320,16.602,40.527,0
1553633007.518,36.621,50.781,-25.391,30.273,34.668,0
1553633007.522,54.199,43.945,-11.230,41.504,114.746,0
1553633007.526,71.289,38.086,-24.414,41.504,154.785,0
1553633007.530,106.934,32.227,-24.414,43.945,86.914,0
1553633007.533,94.727,34.668,-4.395,65.918,62.012,0
1553633007.537,109.863,42.480,-7.812,82.031,74.219,0
1553633007.541,140.137,30.273,-9.277,78.613,62.500,0
1553633007.545,105.469,21.484,-3.418,84.961,29.297,0
1553633007.549,104.004,29.297,-11.230,123.535,-0.977,0
1553633007.553,131.348,22.461,-9.277,135.254,-0.977,0
1553633007.557,144.531,14.648,4.395,117.188,41.016,0
1553633007.561,128.906,15.137,9.277,117.676,-5.859,0
1553633007.565,131.836,22.461,-0.488,125.977,23.438,0
1553633007.569,155.762,24.414,8.789,116.211,31.738,0
1553633007.572,169.922,17.090,24.414,121.582,-47.363,0
1553633007.576,185.547,13.672,15.625,154.785,-36.133,0
1553633007.580,150.391,12.207,9.766,140.137,-29.297,0
1553633007.584,128.906,10.742,10.254,125.977,22.949,0
1553633007.588,158.691,10.742,9.766,147.461,-1.953,0
1553633007.592,146.484,7.324,5.371,157.715,11.719,0
1553633007.596,136.719,12.695,4.883,165.039,77.637,0
1553633007.600,137.207,15.625,22.949,165.527,50.781,0
1553633007.604,154.785,12.207,23.438,167.969,22.949,0
1553633007.608,169.434,13.184,13.672,162.598,27.832,0
1553633007.612,172.852,21.973,5.371,158.203,24.902,0
1553633007.615,175.781,24.414,1.953,165.039,68.848,0
1553633007.619,168.457,15.137,17.090,168.945,74.707,0
1553633007.623,130.371,11.230,23.438,159.668,46.387,0
1553633007.627,116.699,-0.488,21.973,159.668,15.137,0
1553633007.631,126.465,-5.371,31.738,173.340,0.488,0
1553633007.635,145.020,17.578,29.297,170.898,45.410,0
1553633007.639,148.926,22.949,20.996,155.273,36.133,0
1553633007.643,127.930,13.672,11.719,143.066,48.340,0
1553633007.647,133.789,11.230,8.789,154.785,14.648,0
1553633007.651,162.598,15.625,15.625,154.297,-10.254,0
1553633007.655,175.293,23.926,19.043,143.555,62.012,0
1553633007.658,103.027,15.137,27.344,144.043,76.172,0
1553633007.662,79.102,17.578,16.113,152.832,27.832,0
1553633007.666,121.094,29.785,8.301,138.184,21.973,0
1553633007.670,125.488,23.926,16.602,133.789,42.480,0
1553633007.674,107.422,22.949,23.438,124.023,49.805,0
1553633007.678,77.148,19.531,29.785,118.652,46.875,0
1553633007.682,78.613,11.719,25.879,125.488,39.551,0
1553633007.686,75.684,20.020,23.926,107.910,-0.977,0
1553633007.690,89.355,26.367,24.902,101.074,35.156,0
1553633007.694,89.355,26.855,29.785,102.051,83.008,0
1553633007.697,104.492,23.926,10.742,103.027,67.383,0
1553633007.701,140.625,22.461,3.418,113.770,33.691,0
1553633007.705,86.426,31.738,26.855,109.375,61.523,0
1553633007.709,57.617,31.250,32.715,110.840,79.590,0
1553633007.713,78.125,31.250,20.996,121.094,68.359,0
1553633007.717,74.219,32.227,16.602,97.168,90.820,0
1553633007.721,102.539,38.086,-0.977,97.168,74.707,0
1553633007.725,101.562,30.762,-16.602,124.512,54.688,0
1553633007.729,67.383,14.160,30.273,88.379,56.641,0
1553633007.733,63.477,25.879,43.457,57.129,46.875,0
1553633007.737,54.199,32.227,28.320,65.430,33.691,0
1553633007.740,66.895,31.738,23.926,64.941,33.691,0
1553633007.744,116.699,36.621,10.254,79.102,47.363,0
1553633007.748,79.102,37.598,16.602,95.703,38.086,0
1553633007.752,30.762,31.738,25.391,83.984,44.434,0
1553633007.756,52.734,32.227,21.484,74.219,67.383,0
1553633007.760,45.898,19.531,29.297,86.914,45.410,0
1553633007.764,39.551,19.531,24.902,88.379,24.414,0
1553633007.768,68.359,38.086,21.484,82.520,39.062,0
1553633007.772,88.379,33.691,27.344,87.402,24.414,0
1553633007.776,71.289,28.320,24.414,82.520,44.922,0
1553633007.780,40.527,21.973,20.508,71.777,70.312,0
1553633007.783,57.617,8.301,14.160,71.289,18.066,0
1553633007.787,55.176,16.602,15.625,63.965,12.207,0
1553633007.791,37.109,31.738,33.203,59.082,58.594,0
1553633007.795,58.594,41.016,27.344,61.035,61.035,0
1553633007.799,68.848,32.227,4.883,71.289,52.734,0
1553633007.803,92.285,18.066,-7.324,79.102,-4.395,0
1553633007.807,89.355,31.738,18.066,69.824,-43.457,0
1553633007.811,51.270,32.227,45.410,91.797,49.805,0
1553633007.815,56.152,26.855,39.551,104.492,54.199,0
1553633007.819,116.211,30.273,34.180,93.750,2.441,0
1553633007.822,85.449,21.484,26.367,93.750,27.344,0
1553633007.826,-6.348,26.855,8.789,66.895,18.066,0
1553633007.830,19.531,41.992,20.020,77.637,6.836,0
1553633007.834,43.945,30.762,31.250,85.449,-9.766,0
1553633007.838,51.270,27.344,19.043,60.059,-34.180,0
1553633007.842,67.871,31.250,22.461,66.406,6.348,0
1553633007.846,62.012,24.414,25.879,60.059,73.730,0
1553633007.850,53.223,30.762,12.695,64.453,43.457,0
1553633007.854,57.129,36.621,18.066,90.820,48.340,0
1553633007.858,68.359,36.621,37.109,79.102,113.770,0
1553633007.862,61.523,31.738,28.320,52.246,69.336,0
1553633007.865,36.133,27.832,16.113,60.059,38.086,0
1553633007.869,47.363,26.855,20.508,54.688,77.637,0
1553633007.873,62.012,29.785,26.367,57.617,71.777,0
1553633007.877,54.199,24.902,27.344,80.078,98.633,0
1553633007.881,87.891,11.230,33.203,103.516,122.559,0
1553633007.885,81.055,42.480,14.160,106.934,43.457,0
1553633007.889,23.926,63.477,3.418,29.785,25.391,0
1553633007.893,32.227,49.805,17.090,18.066,22.949,0
1553633007.897,58.105,47.852,14.160,31.250,19.531,0
1553633007.901,66.406,51.758,4.395,17.578,61.523,0
1553633007.905,32.227,55.176,-3.906,37.598,87.402,0
1553633007.908,21.484,48.340,-4.883,33.691,74.219,0
1553633007.912,44.434,46.387,7.324,36.621,19.043,0
1553633007.916,22.461,49.316,8.789,41.016,14.648,0
1553633007.920,21.973,48.340,2.930,43.945,22.949,0
1553633007.924,43.457,43.457,3.418,59.082,-3.906,0
1553633007.928,59.082,38.574,7.324,62.988,3.418,0
1553633007.932,58.594,36.621,16.113,49.805,6.348,0
1553633007.936,29.785,32.715,21.973,65.430,-18.066,0
1553633007.940,33.203,19.043,20.020,77.148,31.250,0
1553633007.944,50.293,24.902,13.184,68.848,76.172,0
1553633007.947,61.035,39.551,14.648,61.035,-5.859,0
1553633007.951,64.453,40.527,20.996,57.617,-14.648,0
1553633007.955,73.730,38.574,20.996,65.430,8.301,0
1553633007.959,85.449,39.551,15.625,67.383,20.996,0
1553633007.963,66.406,35.645,16.113,84.473,38.086,0
1553633007.967,64.453,27.344,2.930,92.285,5.859,0
1553633007.971,78.125,36.133,15.137,83.008,21.484,0
1553633007.975,87.402,37.598,33.691,86.914,44.434,0
1553633007.979,78.613,31.250,25.391,76.172,47.852,0
1553633007.983,70.312,33.691,27.832,78.125,75.684,0
1553633007.987,71.777,32.227,25.391,76.172,55.176,0
1553633007.990,53.223,31.738,12.207,58.105,61.035,0
1553633007.994,46.387,27.832,15.137,57.129,81.543,0
1553633007.998,52.246,32.227,30.273,48.340,77.148,0
1553633008.002,62.500,38.086,26.367,75.195,24.902,0
1553633008.006,84.473,32.227,21.484,83.984,-2.441,0
1553633008.010,65.430,27.344,14.648,74.707,4.883,0
1553633008.014,38.086,21.973,10.742,72.754,41.504,0
1553633008.018,42.480,22.949,27.344,58.105,65.918,0
1553633008.022,63.965,21.484,39.062,59.082,47.852,0
1553633008.026,47.852,22.461,27.344,56.641,74.219,0
1553633008.030,26.855,25.879,29.297,60.547,134.277,0
1553633008.033,42.480,32.227,30.273,63.965,105.957,0
1553633008.037,49.316,34.180,11.719,55.664,39.551,0
1553633008.041,60.059,21.973,15.625,62.012,18.066,0
1553633008.045,58.594,7.324,33.203,64.941,4.395,0
1553633008.049,23.926,12.695,29.785,47.852,16.113,0
1553633008.053,18.555,22.461,30.273,50.293,3.906,0
1553633008.057,49.805,16.602,37.109,69.824,-45.410,0
1553633008.061,41.992,20.996,29.297,66.895,-29.785,0
1553633008.065,36.621,22.461,25.879,45.898,38.086,0
1553633008.069,40.039,8.301,24.414,55.664,32.227,0
1553633008.072,45.410,10.742,22.949,55.664,32.227,0
1553633008.076,32.227,28.320,21.973,32.715,51.758,0
1553633008.080,37.598,24.902,19.531,41.016,3.906,0
1553633008.084,65.918,15.137,20.996,56.152,-29.297,0
1553633008.088,37.109,24.902,30.762,58.105,3.906,0
1553633008.092,27.344,29.297,36.133,43.457,29.785,0
1553633008.096,28.320,24.902,29.297,32.227,49.805,0
1553633008.100,44.434,19.531,28.809,44.922,44.922,0
1553633008.104,68.848,23.438,28.809,48.340,-7.812,0
1553633008.108,48.340,22.949,24.902,52.246,-19.043,0
1553633008.112,18.066,18.066,23.438,60.059,23.926,0
1553633008.115,25.391,27.344,22.461,51.270,43.945,0
1553633008.119,31.738,24.902,22.949,57.129,60.547,0
1553633008.123,51.758,20.508,19.531,78.613,0.977,0
1553633008.127,52.246,32.227,20.508,53.223,-31.738,0
1553633008.131,43.457,33.203,19.043,37.109,1.465,0
1553633008.135,62.988,30.273,18.555,75.195,63.477,0
1553633008.139,55.664,33.691,18.555,68.359,78.613,0
1553633008.143,48.340,23.926,28.320,61.035,35.645,0
1553633008.147,42.969,24.902,29.785,50.293,34.180,0
1553633008.151,33.203,31.738,29.785,43.457,37.598,0
1553633008.155,25.879,20.508,31.738,59.570,46.387,0
1553633008.158,42.969,21.484,27.832,61.523,66.895,0
1553633008.162,37.598,35.645,28.809,51.758,105.957,0
1553633008.166,48.828,41.992,28.320,49.316,20.996,0
1553633008.170,53.223,37.109,25.879,51.270,-27.344,0
1553633008.174,30.762,29.785,33.203,57.129,9.277,0
1553633008.178,71.289,34.180,25.391,65.918,57.617,0
1553633008.182,64.941,38.086,16.113,79.590,103.516,0
1553633008.186,16.113,35.645,30.762,64.941,79.102,0
1553633008.190,14.648,45.898,31.738,56.641,69.336,0
1553633008.194,31.250,42.969,24.902,47.363,53.711,0
1553633008.197,43.457,40.527,17.578,33.691,31.250,0
1553633008.201,47.363,38.086,26.367,62.500,20.996,0
1553633008.205,39.062,29.785,36.621,58.594,20.996,0
1553633008.209,47.852,24.414,33.203,41.504,38.086,0
1553633008.213,60.547,30.762,26.367,59.082,45.410,0
1553633008.217,49.805,46.875,24.902,47.363,-5.859,0
1553633008.221,45.410,39.551,22.461,38.574,-36.621,0
1553633008.225,38.574,32.227,25.879,58.594,12.695,0
1553633008.229,52.246,42.480,16.113,51.758,78.125,0
1553633008.233,56.152,36.621,11.230,53.223,30.762,0
1553633008.237,41.992,35.645,28.809,55.664,-45.898,0
1553633008.240,38.086,40.527,26.855,53.711,-0.488,0
1553633008.244,36.133,41.016,26.855,74.707,38.574,0
1553633008.248,49.316,42.480,25.391,64.453,88.867,0
1553633008.252,46.875,24.902,23.438,72.754,71.289,0
1553633008.256,51.270,20.996,34.668,96.191,29.785,0
1553633008.260,63.965,35.156,26.367,88.867,58.105,0
1553633008.264,67.383,29.297,15.137,73.242,54.199,0
1553633008.268,70.312,33.203,26.367,76.172,41.016,0
1553633008.272,70.801,35.156,24.414,112.305,14.160,0
1553633008.276,94.238,46.387,23.438,126.953,26.855,0
1553633008.280,89.844,54.688,34.180,105.469,27.832,0
1553633008.283,55.176,39.062,33.691,89.844,43.945,0
1553633008.287,47.852,21.484,27.344,110.352,70.801,0
1553633008.291,48.340,20.996,32.715,122.070,70.312,0
1553633008.295,44.434,32.227,37.598,102.539,76.172,0
1553633008.299,69.824,24.414,31.738,102.051,81.543,0
1553633008.303,54.688,21.973,36.133,98.633,66.406,0
1553633008.307,21.484,32.227,36.133,101.074,57.129,0
1553633008.311,34.668,34.668,31.250,101.074,52.246,0
1553633008.315,63.965,35.645,32.227,100.586,16.602,0
1553633008.319,63.477,30.762,31.250,109.375,13.672,0
1553633008.322,56.641,26.367,32.715,104.980,84.473,0
1553633008.326,72.754,33.203,41.016,114.258,79.590,0
1553633008.330,73.242,25.879,32.715,123.047,-11.719,0
1553633008.334,80.078,17.090,18.555,155.273,3.418,0
1553633008.338,74.219,31.738,30.762,140.625,33.691,0
1553633008.342,63.965,34.668,31.738,101.074,4.395,0
1553633008.346,122.559,24.902,11.230,118.652,10.254,0
1553633008.350,94.727,32.227,20.508,107.910,83.984,0
1553633008.354,33.203,37.109,43.945,83.984,88.379,0
1553633008.358,48.340,30.273,40.527,86.426,75.684,0
1553633008.362,59.082,30.273,31.250,85.938,63.965,0
1553633008.365,63.965,41.504,23.926,96.680,53.223,0
1553633008.369,64.941,47.363,21.973,122.070,68.848,0
1553633008.373,59.570,34.180,29.297,125.488,48.340,0
1553633008.377,87.402,36.133,28.809,115.234,25.879,0
1553633008.381,116.699,44.922,21.484,108.887,55.176,0
1553633008.385,94.727,41.016,20.996,113.281,95.703,0
1553633008.389,65.918,36.133,27.832,107.910,108.398,0
1553633008.393,66.895,34.180,27.344,99.121,55.664,0
1553633008.397,82.520,28.809,20.996,95.215,38.574,0
1553633008.401,85.938,31.250,15.625,105.469,71.289,0
1553633008.405,78.613,41.504,12.695,105.469,86.426,0
1553633008.408,75.195,42.480,26.367,81.055,86.914,0
1553633008.412,80.566,41.992,31.738,92.773,63.477,0
1553633008.416,96.680,34.180,20.508,101.562,74.219,0
1553633008.420,86.426,33.691,16.113,99.121,85.449,0
1553633008.424,67.871,44.922,25.879,96.680,52.246,0
1553633008.428,63.965,29.785,38.574,79.102,48.828,0
1553633008.432,75.195,26.367,30.762,75.684,33.691,0
1553633008.436,97.656,37.109,27.832,95.215,36.133,0
1553633008.440,92.773,21.973,19.531,103.516,-1.465,0
1553633008.444,83.008,39.551,4.883,95.215,30.762,0
1553633008.447,63.965,39.062,20.996,87.402,35.645,0
1553633008.451,65.918,40.039,22.949,86.426,-34.668,0
1553633008.455,108.887,53.223,23.926,91.797,-5.859,0
1553633008.459,75.195,40.527,43.457,84.473,-23.926,0
1553633008.463,52.246,41.504,30.273,77.148,22.461,0
1553633008.467,70.312,56.152,15.137,75.195,80.566,0
1553633008.471,73.242,51.270,24.902,65.430,54.688,0
1553633008.475,84.961,38.086,33.203,75.684,33.203,0
1553633008.479,84.961,28.809,31.250,92.773,10.254,0
1553633008.483,76.660,20.020,30.762,96.680,23.926,0
1553633008.487,59.082,42.969,23.926,71.777,41.016,0
1553633008.490,57.129,41.016,20.508,68.848,48.340,0
1553633008.494,76.172,14.160,36.133,112.305,60.547,0
1553633008.498,84.473,38.086,32.715,95.215,70.312,0
1553633008.502,73.242,53.223,22.461,62.012,78.125,0
1553633008.506,66.895,42.480,33.691,78.613,62.012,0
1553633008.510,65.918,44.922,32.227,90.332,65.918,0
1553633008.514,80.566,48.340,10.254,83.496,85.938,0
1553633008.518,93.262,47.363,9.766,71.777,83.984,0
1553633008.522,78.613,34.668,34.668,69.824,57.617,0
1553633008.526,59.570,33.691,43.945,82.031,22.949,0
1553633008.530,78.125,41.016,37.109,82.031,-3.906,0
1553633008.533,86.426,41.504,30.273,78.125,-0.488,0
1553633008.537,65.430,44.922,14.160,72.754,28.320,0
1553633008.541,77.637,42.969,16.113,61.523,32.227,0
1553633008.545,76.660,36.133,24.902,71.777,4.395,0
1553633008.549,62.012,31.738,19.043,71.289,-34.668,0
1553633008.553,75.684,36.621,27.344,65.430,30.273,0
1553633008.557,66.406,35.645,24.414,63.965,28.320,0
1553633008.561,53.223,29.297,22.949,70.801,-18.555,0
1553633008.565,67.383,23.438,34.180,80.078,30.273,0
1553633008.569,86.914,30.762,21.484,67.871,31.250,0
1553633008.572,99.121,38.086,21.973,61.523,-8.789,0
1553633008.576,71.289,46.875,30.762,61.523,32.715,0
1553633008.580,62.500,53.711,21.973,76.660,53.711,0
1553633008.584,100.098,44.434,22.949,82.031,60.059,0
1553633008.588,85.449,33.203,20.996,66.895,70.312,0
1553633008.592,52.734,38.086,20.020,71.777,53.223,0
1553633008.596,47.363,36.621,29.785,78.125,46.387,0
1553633008.600,60.547,22.949,20.996,62.988,90.332,0
1553633008.604,67.871,38.574,17.578,52.734,81.543,0
1553633008.608,64.453,49.805,23.438,62.988,31.738,0
1553633008.612,71.289,45.410,14.160,81.055,30.762,0
1553633008.615,87.402,50.293,22.461,82.520,58.105,0
1553633008.619,86.914,42.969,32.715,71.777,83.984,0
1553633008.623,72.266,32.715,31.738,69.824,52.734,0
1553633008.627,71.289,36.133,24.902,78.125,16.602,0
1553633008.631,70.801,43.945,23.926,59.082,13.184,0
1553633008.635,69.824,36.133,22.949,72.754,63.477,0
1553633008.639,54.688,29.785,24.902,107.422,86.426,0
1553633008.643,56.641,30.762,27.344,75.195,22.461,0
1553633008.647,72.266,34.668,26.855,39.551,1.465,0
1553633008.651,68.848,40.527,16.602,57.617,39.551,0
1553633008.655,51.758,38.086,16.113,59.570,37.109,0
1553633008.658,43.457,26.367,32.715,60.547,1.953,0
1553633008.662,52.246,25.879,35.645,75.684,34.180,0
1553633008.666,69.824,38.574,27.832,83.008,90.820,0
1553633008.670,66.895,33.691,20.020,95.703,37.598,0
1553633008.674,58.105,24.414,22.949,77.637,59.082,0
1553633008.678,61.523,30.762,28.809,56.641,67.871,0
1553633008.682,64.453,37.598,22.461,62.012,-21.973,0
1553633008.686,72.754,33.691,16.113,53.711,-15.625,0
1553633008.690,72.754,30.273,21.973,62.012,31.250,0
1553633008.694,59.082,32.715,31.738,69.824,41.504,0
1553633008.697,50.293,37.598,33.203,65.430,72.754,0
1553633008.701,69.824,34.668,31.738,83.496,53.711,0
1553633008.705,74.707,38.086,28.320,88.379,47.852,0
1553633008.709,56.641,27.344,25.879,78.613,73.730,0
1553633008.713,53.711,15.625,16.602,96.680,60.059,0
1553633008.717,74.219,34.668,6.348,78.613,97.656,0
1553633008.721,84.961,45.898,21.484,47.852,71.289,0
1553633008.725,75.684,43.945,24.902,54.688,35.645,0
1553633008.729,79.590,36.621,21.973,76.660,42.969,0
1553633008.733,84.473,28.809,32.227,83.984,20.996,0
1553633008.737,75.195,40.527,20.020,102.539,3.418,0
1553633008.740,63.477,43.457,19.531,95.215,-8.789,0
1553633008.744,61.035,19.043,36.133,64.453,-26.367,0
1553633008.748,50.293,19.531,35.156,58.594,-15.625,0
1553633008.752,47.852,33.691,38.086,61.035,-1.953,0
1553633008.756,64.941,33.691,42.480,80.566,-9.766,0
1553633008.760,55.176,29.297,35.156,82.031,27.832,0
1553633008.764,35.645,26.855,28.320,59.082,44.922,0
1553633008.768,39.551,24.414,33.203,62.012,10.742,0
1553633008.772,56.641,26.367,33.691,76.172,24.902,0
1553633008.776,64.453,18.555,29.297,64.453,31.738,0
1553633008.780,73.242,15.137,25.391,63.477,-16.602,0
1553633008.783,65.430,31.738,19.531,85.938,49.316,0
1553633008.787,57.129,28.809,17.090,99.609,33.691,0
1553633008.791,59.570,25.391,22.461,95.703,13.672,0
1553633008.795,57.129,32.227,29.297,71.777,33.203,0
1553633008.799,62.012,20.508,24.414,79.590,43.457,0
1553633008.803,61.523,26.367,22.949,87.891,80.566,0
1553633008.807,75.195,34.180,30.273,68.848,56.641,0
1553633008.811,98.633,34.180,35.156,68.848,93.262,0
1553633008.815,81.543,38.574,37.109,81.055,99.121,0
1553633008.819,61.035,29.297,33.203,83.008,26.855,0
1553633008.822,60.547,14.160,36.133,62.500,23.926,0
1553633008.826,69.336,36.133,15.625,64.941,16.602,0
1553633008.830,67.383,33.691,11.719,81.055,29.785,0
1553633008.834,65.430,15.625,39.551,80.566,47.852,0
1553633008.838,70.801,35.156,33.203,82.520,58.594,0
1553633008.842,66.895,40.039,30.273,90.332,29.297,0
1553633008.846,77.637,35.645,32.227,87.402,64.941,0
1553633008.850,95.703,29.785,33.203,69.824,88.379,0
1553633008.854,70.801,26.855,39.062,76.172,29.785,0
1553633008.858,58.594,31.250,29.297,83.008,68.359,0
1553633008.862,72.754,32.715,21.973,82.520,62.988,0
1553633008.865,91.309,25.879,28.809,79.102,58.594,0
1553633008.869,95.215,13.672,21.973,95.703,52.246,0
1553633008.873,83.496,27.832,23.438,96.191,53.223,0
1553633008.877,72.266,42.969,29.785,71.289,70.312,0
1553633008.881,74.707,41.504,29.785,72.266,13.184,0
1553633008.885,82.520,26.367,33.203,72.754,-7.812,0
1553633008.889,85.938,27.832,26.855,70.801,21.484,0
1553633008.893,91.797,26.855,20.996,71.289,4.395,0
1553633008.897,85.449,16.113,22.461,73.242,-26.367,0
1553633008.901,81.543,39.062,23.438,80.078,47.852,0
1553633008.905,93.262,47.363,22.461,80.566,74.219,0
1553633008.908,72.754,34.668,35.156,62.500,34.180,0
1553633008.912,53.711,29.785,37.109,58.594,21.973,0
1553633008.916,68.848,34.668,25.391,72.754,31.738,0
1553633008.920,88.867,46.387,25.391,76.660,62.988,0
1553633008.924,83.496,30.273,29.785,68.848,105.469,0
1553633008.928,47.363,13.184,35.156,48.340,55.664,0
1553633008.932,45.898,24.414,28.320,42.480,-21.484,0
1553633008.936,56.152,20.508,23.438,65.918,20.508,0
1553633008.940,54.199,9.277,40.039,68.848,78.613,0
1553633008.944,53.223,20.020,56.641,58.105,101.074,0
1553633008.947,25.879,23.926,47.852,62.988,62.012,0
1553633008.951,24.414,20.996,36.621,61.035,57.129,0
1553633008.955,40.039,23.926,37.598,53.223,70.801,0
1553633008.959,28.809,22.461,38.086,41.992,60.059,0
1553633008.963,38.574,15.137,31.738,52.734,67.871,0
1553633008.967,57.617,15.625,30.762,81.055,55.176,0
1553633008.971,57.129,12.207,25.879,74.219,33.203,0
1553633008.975,67.871,20.020,-4.883,72.754,67.871,0
1553633008.979,58.594,30.762,16.113,72.754,78.125,0
1553633008.983,42.969,25.879,53.223,61.035,47.852,0
1553633008.987,49.805,16.113,45.898,77.637,42.969,0
1553633008.990,48.828,12.695,42.480,85.449,45.898,0
1553633008.994,51.758,28.809,38.574,82.520,32.715,0
1553633008.998,48.828,39.551,32.715,62.988,37.109,0
1553633009.002,39.062,34.668,37.109,54.688,64.941,0
1553633009.006,31.738,29.297,34.668,55.664,46.875,0
1553633009.010,33.203,29.297,33.203,56.641,81.055,0
1553633009.014,45.410,26.855,32.227,59.570,21.973,0
1553633009.018,61.035,25.879,31.738,68.848,56.152,0
1553633009.022,52.246,25.879,31.738,88.379,78.613,0
1553633009.026,66.406,28.320,25.391,88.379,-29.297,0
1553633009.030,98.145,20.020,18.555,89.844,-8.789,0
1553633009.033,53.711,18.066,20.996,76.660,9.277,0
1553633009.037,22.949,29.297,29.785,56.641,57.617,0
1553633009.041,32.227,33.203,27.832,58.105,28.320,0
1553633009.045,43.457,41.504,18.555,61.035,-5.371,0
1553633009.049,60.547,27.832,30.762,73.242,17.578,0
1553633009.053,64.453,18.555,40.039,68.359,-16.113,0
1553633009.057,65.918,33.691,29.785,85.449,17.090,0
1553633009.061,87.891,34.668,16.602,84.961,98.633,0
1553633009.065,73.242,30.273,24.902,64.941,75.684,0
1553633009.069,38.574,28.809,41.016,67.383,75.684,0
1553633009.072,40.039,28.320,41.504,74.707,65.430,0
1553633009.076,56.152,28.320,34.668,88.867,36.621,0
1553633009.080,67.871,38.086,24.414,71.289,15.625,0
1553633009.084,48.828,36.133,20.996,68.848,-21.484,0
1553633009.088,56.152,17.090,23.438,107.910,-1.465,0
1553633009.092,80.566,20.020,29.785,112.793,28.320,0
1553633009.096,67.871,41.992,21.973,60.059,16.113,0
1553633009.100,66.895,48.828,15.137,40.527,-0.488,0
1553633009.104,91.309,44.922,9.277,58.105,38.086,0
1553633009.108,80.566,46.875,5.859,76.172,65.918,0
1553633009.112,74.219,54.199,-1.465,77.637,41.504,0
1553633009.115,84.961,63.477,-7.812,71.777,-2.441,0
1553633009.119,71.777,61.035,-2.441,72.266,20.508,0
1553633009.123,81.055,55.176,-4.395,70.801,93.750,0
1553633009.127,91.797,49.316,-1.953,75.195,86.914,0
1553633009.131,91.309,45.898,-0.977,92.773,70.312,0
1553633009.135,93.750,34.180,-7.324,101.074,30.762,0
1553633009.139,83.008,23.926,-5.371,82.031,41.016,0
1553633009.143,78.125,46.387,11.230,51.758,31.250,0
1553633009.147,84.473,65.430,12.207,64.941,13.672,0
1553633009.151,93.262,53.223,1.953,69.336,22.949,0
1553633009.155,96.680,45.898,3.418,58.594,15.137,0
1553633009.158,88.867,59.082,10.254,76.172,75.684,0
1553633009.162,55.664,62.500,7.324,84.473,77.637,0
1553633009.166,42.969,39.551,0.977,72.754,43.945,0
1553633009.170,66.406,38.086,8.789,57.617,87.402,0
1553633009.174,63.965,50.293,15.137,65.430,102.539,0
1553633009.178,50.781,43.945,17.090,77.148,27.832,0
1553633009.182,71.289,41.016,16.602,67.383,-30.762,0
1553633009.186,106.934,45.410,17.578,59.570,6.348,0
1553633009.190,105.957,47.852,18.555,63.965,37.109,0
1553633009.194,80.566,46.387,19.531,64.453,72.754,0
1553633009.197,65.918,41.992,18.066,62.012,145.020,0
1553633009.201,55.664,37.109,13.184,63.965,35.645,0
1553633009.205,58.105,29.785,5.859,69.824,-15.625,0
1553633009.209,60.547,24.902,3.418,70.801,51.270,0
1553633009.213,49.805,36.621,10.742,74.707,53.711,0
1553633009.217,51.270,45.898,12.695,73.242,52.246,0
1553633009.221,82.031,31.738,18.555,79.590,46.387,0
1553633009.225,74.219,31.250,22.949,65.430,27.344,0
1553633009.229,36.133,41.992,10.254,54.199,6.836,0
1553633009.233,65.430,42.969,0.488,81.543,31.738,0
1553633009.237,91.797,26.855,10.742,86.426,70.801,0
1553633009.240,60.059,25.391,30.273,64.941,58.105,0
1553633009.244,35.645,46.875,20.996,69.824,12.695,0
1553633009.248,51.758,46.387,16.113,91.309,22.949,0
1553633009.252,52.734,38.574,34.180,89.844,70.312,0
1553633009.256,53.711,35.156,25.391,66.406,82.031,0
1553633009.260,95.703,32.715,13.184,73.730,86.426,0
1553633009.264,69.336,32.227,21.484,82.520,56.641,0
1553633009.268,50.293,36.621,24.902,69.336,40.527,0
1553633009.272,64.941,36.133,27.832,66.895,21.484,0
1553633009.276,47.852,38.086,23.438,59.570,17.090,0
1553633009.280,46.875,41.016,12.695,48.340,59.082,0
1553633009.283,66.406,31.250,13.184,63.965,-4.883,0
1553633009.287,67.871,9.766,20.020,79.590,-22.461,0
1553633009.291,59.082,20.996,11.719,47.852,21.973,0
1553633009.295,65.430,44.922,8.301,52.734,-2.930,0
1553633009.299,71.289,34.180,27.832,67.871,53.711,0
1553633009.303,63.965,34.180,23.438,51.758,49.805,0
1553633009.307,54.688,37.109,11.719,58.105,19.043,0
1553633009.311,40.527,32.227,18.066,50.293,65.918,0
1553633009.315,61.035,33.691,10.254,57.617,43.457,0
1553633009.319,75.684,20.508,10.254,80.566,70.312,0
1553633009.322,50.781,33.691,20.508,81.055,76.172,0
1553633009.326,59.570,51.758,20.996,63.965,12.695,0
1553633009.330,55.664,35.645,28.320,62.988,45.410,0
1553633009.334,59.570,30.762,19.531,87.402,48.828,0
1553633009.338,66.895,34.668,13.672,76.172,41.016,0
1553633009.342,72.754,39.062,13.672,47.852,5.859,0
1553633009.346,65.918,26.367,13.672,50.781,-18.066,0
1553633009.350,50.781,28.320,16.602,57.617,-5.371,0
1553633009.354,56.152,41.504,13.184,63.477,23.438,0
1553633009.358,70.801,31.738,14.160,78.125,35.156,0
1553633009.362,82.031,34.668,23.926,69.824,47.363,0
1553633009.365,108.887,47.363,23.926,58.594,38.574,0
1553633009.369,100.586,53.223,19.531,78.613,-12.695,0
1553633009.373,51.270,47.852,21.973,70.801,53.223,0
1553633009.377,41.016,32.227,30.273,54.688,16.113,0
1553633009.381,38.574,18.066,31.250,61.523,-22.949,0
1553633009.385,56.152,14.648,34.180,74.219,12.207,0
1553633009.389,76.172,25.391,21.484,59.570,32.715,0
1553633009.393,68.848,35.645,16.113,56.641,41.504,0
1553633009.397,59.570,28.320,38.086,57.617,32.715,0
1553633009.401,67.871,26.367,41.504,65.918,25.879,0
1553633009.405,49.805,26.855,37.109,79.102,73.730,0
1553633009.408,28.809,1.953,29.785,62.988,45.410,0
1553633009.412,52.246,4.883,30.762,54.199,21.484,0
1553633009.416,73.242,37.598,33.691,48.340,96.680,0
1553633009.420,65.918,41.992,29.785,72.266,80.078,0
1553633009.424,32.715,35.645,30.762,86.426,60.059,0
1553633009.428,31.250,30.273,32.715,67.871,25.391,0
1553633009.432,46.387,27.344,30.762,63.965,53.223,0
1553633009.436,51.758,32.715,26.367,58.594,48.340,0
1553633009.440,55.176,33.203,26.367,61.035,11.230,0
1553633009.444,64.941,49.805,45.898,72.754,30.273,0
1553633009.447,51.758,49.316,50.293,67.871,44.922,0
1553633009.451,30.762,38.574,31.738,50.781,50.781,0
1553633009.455,14.160,46.387,27.832,37.109,36.621,0
1553633009.459,-14.648,42.480,16.602,4.395,27.344,0
1553633009.463,-19.531,53.223,24.902,-10.254,29.785,0
1553633009.467,-15.625,67.383,38.086,-16.602,22.949,0
1553633009.471,-39.062,62.988,28.809,-41.992,6.836,0
1553633009.475,-77.637,65.430,24.902,-64.941,51.758,0
1553633009.479,-93.262,70.312,26.855,-75.684,96.191,0
1553633009.483,-104.980,72.754,28.809,-90.332,63.477,0
1553633009.487,-113.281,81.055,35.645,-82.520,42.969,0
1553633009.490,-83.008,80.078,38.086,-72.754,52.246,0
1553633009.494,-71.289,74.707,28.809,-92.285,75.195,0
1553633009.498,-94.727,76.172,24.902,-86.426,90.332,0
1553633009.502,-106.934,72.754,30.273,-83.008,107.422,0
1553633009.506,-105.957,58.105,35.645,-85.938,81.055,0
1553633009.510,-114.746,57.617,27.344,-52.734,18.066,0
1553633009.514,-117.188,66.406,21.484,-64.941,43.457,0
1553633009.518,-63.965,62.500,34.180,-93.262,56.152,0
1553633009.522,-68.848,50.293,43.945,-67.871,37.598,0
1553633009.526,-104.492,36.133,44.434,-64.941,64.453,0
1553633009.530,-80.566,28.809,37.598,-65.430,57.129,0
1553633009.533,-52.246,38.574,19.531,-34.180,55.176,0
1553633009.537,-34.180,28.809,11.230,-18.066,42.969,0
1553633009.541,-12.207,37.598,26.367,-8.789,50.293,0
1553633009.545,-17.578,49.316,28.809,-6.348,67.383,0
1553633009.549,-5.371,33.203,33.203,-1.953,-7.324,0
1553633009.553,38.086,20.020,39.551,39.551,-29.785,0
1553633009.557,59.082,32.227,26.367,65.430,11.719,0
1553633009.561,44.922,31.250,29.785,38.086,51.758,0
1553633009.565,12.695,19.531,38.086,34.668,41.992,0
1553633009.569,32.715,22.461,26.367,55.176,33.203,0
1553633009.572,55.176,8.789,8.789,58.594,31.250,0
1553633009.576,81.055,7.812,15.137,75.684,6.836,0
1553633009.580,103.027,24.414,29.785,89.844,0.977,0
1553633009.584,88.379,28.809,25.879,101.074,14.160,0
1553633009.588,74.219,25.879,22.949,117.676,26.367,0
1553633009.592,104.980,14.160,21.484,113.281,36.133,0
1553633009.596,104.492,10.742,18.066,110.840,72.754,0
1553633009.600,81.055,14.160,23.438,110.840,48.340,0
1553633009.604,89.355,9.277,26.855,113.281,-6.348,0
1553633009.608,88.379,4.883,24.414,121.582,19.043,0
1553633009.612,134.766,-9.277,26.855,134.277,65.918,0
1553633009.615,138.672,-5.859,21.484,135.254,56.152,0
1553633009.619,104.980,5.859,25.879,134.277,26.855,0
1553633009.623,129.395,10.742,31.250,138.672,88.379,0
1553633009.627,142.578,20.996,29.297,133.789,83.984,0
1553633009.631,116.211,17.090,18.555,140.625,29.785,0
1553633009.635,116.699,7.324,22.461,158.203,64.941,0
1553633009.639,138.672,3.906,20.508,165.527,17.090,0
1553633009.643,134.766,1.465,14.648,162.598,7.324,0
1553633009.647,155.762,-5.371,25.391,149.414,49.316,0
1553633009.651,154.297,3.418,24.902,142.578,71.289,0
1553633009.655,120.117,7.812,25.879,153.809,114.258,0
1553633009.658,154.297,8.301,17.090,148.926,30.273,0
1553633009.662,168.457,11.230,13.184,137.207,-1.953,0
1553633009.666,162.598,14.648,26.367,150.391,47.363,0
1553633009.670,157.227,6.836,31.738,144.043,42.480,0
1553633009.674,140.625,-8.301,24.414,136.719,32.227,0
1553633009.678,162.598,0.977,17.090,157.715,48.828,0
1553633009.682,149.414,3.418,23.926,154.297,41.504,0
1553633009.686,138.672,-1.465,34.180,128.418,56.641,0
1553633009.690,131.836,12.695,31.738,125.977,77.637,0
1553633009.694,111.816,19.043,28.320,136.719,82.520,0
1553633009.697,121.582,13.672,21.973,149.902,72.266,0
1553633009.701,114.746,0.977,16.113,135.254,34.180,0
1553633009.705,106.934,-0.977,19.531,115.723,-4.883,0
1553633009.709,103.516,10.254,20.020,116.699,28.809,0
1553633009.713,120.605,13.184,18.066,122.070,73.730,0
1553633009.717,131.348,18.066,14.648,113.281,24.902,0
1553633009.721,108.887,19.531,19.043,105.957,18.555,0
1553633009.725,83.008,15.625,28.320,111.816,81.543,0
1553633009.729,91.309,20.020,21.973,115.723,79.102,0
1553633009.733,111.816,20.020,20.020,105.469,35.645,0
1553633009.737,86.914,15.625,22.461,89.844,34.668,0
1553633009.740,86.914,22.461,8.301,93.262,18.555,0
1553633009.744,117.676,23.438,13.672,109.375,8.789,0
1553633009.748,82.520,12.207,39.551,104.004,47.363,0
1553633009.752,66.895,14.648,39.062,80.078,22.461,0
1553633009.756,78.125,22.949,28.809,76.172,-17.090,0
1553633009.760,78.613,28.809,28.320,88.379,-14.648,0
1553633009.764,87.891,28.320,32.227,83.984,-0.488,0
1553633009.768,74.219,21.484,22.949,76.660,59.570,0
1553633009.772,84.473,19.531,17.090,91.797,108.887,0
1553633009.776,107.910,8.789,11.230,85.449,86.426,0
1553633009.780,86.426,9.766,12.207,70.312,-14.648,0
1553633009.783,96.680,37.598,23.438,91.797,-6.836,0
1553633009.787,89.844,36.133,35.156,94.238,35.645,0
1553633009.791,66.895,17.090,34.180,64.941,12.207,0
1553633009.795,86.426,20.996,29.785,73.730,10.742,0
1553633009.799,69.336,14.648,42.969,83.984,39.062,0
1553633009.803,76.660,-2.441,46.875,101.562,49.805,0
1553633009.807,98.145,7.324,29.297,103.027,0.977,0
1553633009.811,71.777,19.043,26.855,95.215,-4.883,0
1553633009.815,57.617,19.531,54.688,95.215,41.016,0
1553633009.819,71.777,17.578,56.152,85.449,52.734,0
1553633009.822,92.773,17.578,41.504,76.172,37.598,0
1553633009.826,66.895,10.254,39.551,78.613,50.293,0
1553633009.830,31.250,6.836,40.527,74.219,64.941,0
1553633009.834,57.617,20.508,34.180,62.500,69.824,0
1553633009.838,82.520,26.367,28.320,75.195,36.133,0
1553633009.842,91.309,8.789,32.227,98.145,7.324,0
1553633009.846,108.887,8.301,31.250,113.281,31.738,0
1553633009.850,104.980,37.109,24.902,98.145,68.848,0
1553633009.854,57.129,23.926,34.668,60.547,55.176,0
1553633009.858,51.270,14.160,34.668,58.594,-19.531,0
1553633009.862,65.430,32.227,25.391,48.340,-26.367,0
1553633009.865,62.012,29.297,32.227,49.805,68.848,0
1553633009.869,47.363,15.137,35.645,45.898,53.223,0
1553633009.873,36.621,10.742,37.109,52.734,2.930,0
1553633009.877,40.039,16.113,38.086,59.570,56.152,0
1553633009.881,60.547,30.762,27.832,63.965,125.000,0
1553633009.885,69.824,35.156,21.973,62.012,95.215,0
1553633009.889,69.336,18.555,26.367,56.152,58.105,0
1553633009.893,78.125,10.742,21.973,90.820,30.273,0
1553633009.897,51.758,27.832,23.438,78.613,-13.184,0
1553633009.901,41.992,31.738,27.832,34.668,30.762,0
1553633009.905,32.715,27.832,33.691,32.227,58.105,0
1553633009.908,9.766,21.973,40.039,50.781,29.785,0
1553633009.912,26.367,21.484,36.621,63.477,89.355,0
1553633009.916,65.430,29.297,29.297,49.805,75.684,0
1553633009.920,56.641,35.645,18.555,49.316,71.777,0
1553633009.924,26.367,31.738,20.996,55.664,60.547,0
1553633009.928,29.297,30.273,31.250,60.059,89.355,0
1553633009.932,29.785,29.297,28.809,59.570,166.992,0
1553633009.936,24.902,30.273,23.926,37.109,55.664,0
1553633009.940,42.969,19.531,29.785,58.594,38.086,0
1553633009.944,63.477,5.859,39.062,87.402,57.129,0
1553633009.947,43.457,26.855,35.645,62.500,-10.254,0
1553633009.951,13.672,49.316,17.578,23.438,-5.859,0
1553633009.955,41.992,57.617,0.488,16.602,14.648,0
1553633009.959,59.082,52.734,3.906,35.156,25.879,0
1553633009.963,26.367,48.828,1.953,49.316,67.871,0
1553633009.967,34.180,54.688,-2.441,52.246,91.309,0
1553633009.971,39.062,41.016,8.789,63.477,46.875,0
1553633009.975,58.105,37.598,18.066,71.777,3.906,0
1553633009.979,80.078,51.270,17.578,57.617,-30.273,0
1553633009.983,61.035,50.293,15.625,65.430,73.730,0
1553633009.987,43.945,46.387,8.789,66.406,99.121,0
1553633009.990,29.785,26.855,4.395,47.363,-29.297,0
1553633009.994,40.039,26.367,9.766,53.711,-11.719,0
1553633009.998,39.062,34.180,18.066,65.918,1.953,0
1553633010.002,65.918,38.086,17.578,65.430,14.648,0
1553633010.006,70.312,47.852,15.137,63.965,1.465,0
1553633010.010,44.434,48.340,7.324,40.039,15.137,0
1553633010.014,62.500,54.199,-0.488,33.691,20.508,0
1553633010.018,66.406,48.828,3.906,59.570,-25.391,0
1553633010.022,68.359,39.551,23.926,66.406,-25.391,0
1553633010.026,58.105,37.598,28.320,63.477,-25.879,0
1553633010.030,31.738,36.621,16.602,50.781,25.879,0
1553633010.033,15.625,25.391,13.672,36.621,70.312,0
1553633010.037,32.227,36.133,11.719,48.340,29.785,0
1553633010.041,57.617,45.898,11.719,49.316,-4.883,0
1553633010.045,41.016,33.203,17.578,41.992,59.570,0
1553633010.049,23.926,34.668,17.090,37.109,49.316,0
1553633010.053,45.410,33.691,11.230,14.160,34.668,0
1553633010.057,86.914,45.898,16.602,28.809,64.453,0
1553633010.061,68.848,43.945,29.297,76.172,-0.488,0
1553633010.065,28.320,29.297,29.785,74.219,46.387,0
1553633010.069,57.617,30.762,22.949,64.453,124.023,0
1553633010.072,87.402,32.227,19.043,58.105,78.613,0
1553633010.076,59.082,37.109,18.066,43.945,36.133,0
1553633010.080,58.594,41.016,20.508,68.848,34.668,0
1553633010.084,86.426,44.922,20.996,85.449,29.785,0
1553633010.088,78.613,39.551,21.484,83.984,72.754,0
1553633010.092,58.594,23.438,19.531,62.988,30.273,0
1553633010.096,51.758,32.715,3.418,37.109,80.078,0
1553633010.100,50.293,44.434,2.441,36.621,84.961,0
1553633010.104,45.410,35.156,18.066,49.805,50.781,0
1553633010.108,65.918,38.086,31.738,67.871,81.543,0
1553633010.112,71.289,43.945,26.855,52.734,70.312,0
1553633010.115,57.129,36.621,19.531,43.457,60.059,0
1553633010.119,65.430,32.227,16.602,58.594,35.156,0
1553633010.123,62.500,30.762,12.207,56.641,57.617,0
1553633010.127,54.199,6.348,21.973,83.984,67.383,0
1553633010.131,72.754,9.277,22.461,96.191,-1.465,0
1553633010.135,63.965,28.809,24.902,69.824,27.344,0
1553633010.139,48.340,37.598,20.020,50.293,50.781,0
1553633010.143,58.594,59.570,16.113,27.344,25.391,0
1553633010.147,38.086,53.711,24.902,31.250,69.824,0
1553633010.151,23.438,40.527,19.531,45.410,81.055,0
1553633010.155,23.926,52.246,0.977,22.461,61.523,0
1553633010.158,-5.371,54.688,2.441,0.977,79.590,0
1553633010.162,23.926,44.434,3.906,-0.488,25.391,0
1553633010.166,34.180,39.551,2.441,14.160,24.414,0
1553633010.170,-2.930,34.180,7.812,25.391,54.688,0
1553633010.174,20.020,40.527,8.301,18.066,26.367,0
1553633010.178,34.668,43.945,11.230,25.879,36.621,0
1553633010.182,31.738,41.504,9.277,38.086,4.883,0
1553633010.186,46.875,30.762,4.395,32.227,17.578,0
1553633010.190,67.383,33.691,11.230,26.367,59.570,0
1553633010.194,54.688,41.504,16.113,27.344,40.527,0
1553633010.197,39.062,35.645,13.672,37.598,79.102,0
1553633010.201,65.430,37.109,13.184,59.570,89.355,0
1553633010.205,58.105,19.043,27.344,89.844,44.922,0
1553633010.209,34.668,26.855,14.648,60.059,28.809,0
1553633010.213,16.602,41.504,-0.488,22.949,50.781,0
1553633010.217,19.531,25.391,20.508,54.688,49.316,0
1553633010.221,31.250,22.949,16.113,54.199,-18.066,0
1553633010.225,65.918,44.922,9.766,32.715,-19.531,0
1553633010.229,65.918,45.898,15.137,45.898,37.598,0
1553633010.233,47.363,29.785,22.949,60.547,32.227,0
1553633010.237,79.102,30.273,22.461,70.801,-7.324,0
1553633010.240,46.875,27.344,14.648,77.637,-3.418,0
1553633010.244,35.645,18.066,24.902,72.266,39.551,0
1553633010.248,59.570,19.531,17.090,77.637,57.129,0
1553633010.252,77.637,35.645,1.465,74.707,66.895,0
1553633010.256,49.805,45.898,5.859,37.598,37.598,0
1553633010.260,21.973,39.062,22.461,46.875,45.410,0
1553633010.264,52.246,38.086,31.250,74.707,102.539,0
1553633010.268,73.242,39.062,24.414,66.895,61.523,0
1553633010.272,55.664,25.391,26.367,57.129,35.156,0
1553633010.276,50.293,23.926,26.855,61.523,70.801,0
1553633010.280,78.613,28.809,15.625,61.035,90.820,0
1553633010.283,71.777,11.719,17.090,96.191,58.594,0
1553633010.287,54.199,14.648,24.414,115.234,22.949,0
1553633010.291,78.613,41.504,18.555,66.895,16.113,0
1553633010.295,81.543,49.316,10.254,37.109,21.973,0
1553633010.299,60.059,39.062,13.672,55.664,4.395,0
1553633010.303,52.734,30.762,21.973,56.641,7.324,0
1553633010.307,50.293,28.320,28.320,63.965,19.531,0
1553633010.311,60.059,23.926,40.527,94.727,-1.465,0
1553633010.315,62.988,26.367,31.250,88.379,-12.695,0
1553633010.319,77.637,31.738,9.277,84.473,24.414,0
1553633010.322,80.078,35.645,15.625,64.941,8.789,0
1553633010.326,63.965,40.039,26.855,46.387,-23.926,0
1553633010.330,63.477,39.062,21.973,55.664,35.645,0
1553633010.334,57.129,34.668,15.625,56.152,-2.930,0
1553633010.338,64.941,30.273,20.020,49.805,-12.695,0
1553633010.342,60.547,25.391,24.414,58.594,27.344,0
1553633010.346,62.500,23.438,21.973,74.707,36.133,0
1553633010.350,69.336,19.531,17.090,65.430,41.504,0
1553633010.354,65.918,29.297,15.625,64.941,57.129,0
1553633010.358,85.449,44.434,23.438,70.312,42.480,0
1553633010.362,93.750,48.340,18.555,60.059,20.996,0
1553633010.365,79.590,26.367,23.926,64.453,56.641,0
1553633010.369,70.312,25.391,34.180,83.008,50.293,0
1553633010.373,48.828,41.992,32.227,81.543,44.434,0
1553633010.377,53.711,40.527,28.809,86.914,100.586,0
1553633010.381,85.938,37.109,19.531,78.613,67.383,0
1553633010.385,116.699,33.203,19.531,78.125,60.547,0
1553633010.389,105.957,39.062,30.762,86.914,40.527,0
1553633010.393,56.641,36.621,23.438,39.062,-16.113,0
1553633010.397,35.645,23.438,27.832,24.902,26.367,0
1553633010.401,6.836,27.344,30.273,26.855,42.480,0
1553633010.405,11.230,31.738,19.531,27.344,63.477,0
1553633010.408,3.418,32.715,19.043,16.602,79.590,0
1553633010.412,-32.227,31.250,11.719,-0.488,131.348,0
1553633010.416,-15.137,35.645,9.277,-2.441,64.941,0
1553633010.420,-7.812,46.387,13.184,-39.062,7.812,0
1553633010.424,-15.625,38.574,23.438,-34.668,26.855,0
1553633010.428,-5.371,30.762,27.344,-4.883,14.648,0
1553633010.432,-18.555,22.461,21.973,32.715,45.410,0
1553633010.436,-22.949,19.531,18.555,33.691,43.945,0
1553633010.440,-9.766,11.230,14.648,7.812,41.504,0
1553633010.444,7.812,16.113,17.090,10.254,-6.348,0
1553633010.447,3.906,33.203,25.879,37.598,-1.465,0
1553633010.451,23.438,31.250,20.996,45.410,-14.160,0
1553633010.455,31.250,26.855,23.926,39.062,-20.020,0
1553633010.459,25.391,18.555,26.855,48.340,51.758,0
1553633010.463,38.086,19.043,20.020,67.383,120.605,0
1553633010.467,42.969,33.203,10.254,55.176,88.379,0
1553633010.471,34.668,18.066,13.184,43.457,-7.324,0
1553633010.475,29.297,19.043,20.996,49.316,-44.922,0
1553633010.479,21.484,27.344,22.461,49.805,10.254,0
1553633010.483,30.762,6.836,44.922,81.543,81.543,0
1553633010.487,63.965,30.273,29.297,62.500,70.801,0
1553633010.490,35.156,43.457,11.719,38.086,19.531,0
1553633010.494,35.645,35.645,23.438,56.641,41.016,0
