timestamps,TP9,AF7,AF8,TP10,Right AUX,Marker0
1553805783.058,967.773,-22.949,12.695,-216.797,0.000,0
1553805783.062,968.262,-5.859,-2.930,-377.441,0.000,0
1553805783.066,967.773,-9.277,-2.441,-601.074,0.000,0
1553805783.070,967.773,-29.297,7.324,-1000.000,0.000,0
1553805783.074,967.773,-32.227,0.977,-507.324,0.000,0
1553805783.078,967.773,-29.297,4.395,-60.059,0.000,0
1553805783.082,967.773,-20.996,0.977,80.566,0.000,0
1553805783.086,967.773,-17.578,-9.766,163.574,0.000,0
1553805783.090,967.773,-20.020,-1.465,-531.738,0.000,0
1553805783.094,967.773,-22.949,13.184,-1000.000,0.000,0
1553805783.097,967.285,-18.555,13.184,-669.434,0.000,0
1553805783.101,967.773,-7.324,7.324,62.988,0.000,0
1553805783.105,967.773,-24.902,8.789,-78.613,0.000,0
1553805783.109,967.773,-26.367,8.789,-118.652,0.000,0
1553805783.113,967.773,-14.160,9.766,556.641,0.000,0
1553805783.117,967.773,-24.414,12.695,958.496,0.000,0
1553805783.121,967.773,-18.066,8.301,956.055,0.000,0
1553805783.125,967.773,-16.113,-0.488,958.984,0.000,0
1553805783.129,967.773,-13.672,-0.488,968.750,0.000,0
1553805783.133,967.773,-16.602,-0.488,968.750,0.000,0
1553805783.137,967.773,-23.926,-3.418,967.773,0.000,0
1553805783.140,967.773,-22.461,-1.953,968.262,0.000,0
1553805783.144,967.773,-25.391,1.465,968.262,0.000,0
1553805783.148,968.262,-23.438,2.441,968.262,0.000,0
1553805783.152,967.773,-17.578,1.465,968.262,0.000,0
1553805783.156,967.773,-18.555,4.395,968.262,0.000,0
1553805783.160,967.773,-24.902,3.906,968.262,0.000,0
1553805783.164,967.773,-15.137,2.441,968.262,0.000,0
1553805783.168,968.262,-7.324,0.000,968.262,0.000,0
1553805783.172,967.773,-21.973,-0.977,968.262,0.000,0
1553805783.176,967.773,-26.367,2.930,968.262,0.000,0
1553805783.180,967.773,-18.066,-1.953,968.262,0.000,0
1553805783.183,967.773,-28.320,-3.418,968.262,0.000,0
1553805783.187,967.773,-30.762,7.812,968.262,0.000,0
1553805783.191,967.773,-17.578,1.465,968.262,0.000,0
1553805783.195,967.773,-23.926,-8.301,967.773,0.000,0
1553805783.199,967.773,-21.484,-0.977,968.262,0.000,0
1553805783.203,967.773,-20.508,2.930,968.262,0.000,0
1553805783.207,967.773,-25.879,-0.977,968.262,0.000,0
1553805783.211,967.773,-16.602,-8.301,968.262,0.000,0
1553805783.215,967.773,-19.043,-2.930,967.773,0.000,0
1553805783.219,967.773,-25.391,7.324,968.262,0.000,0
1553805783.222,967.773,-27.832,2.441,968.262,0.000,0
1553805783.226,967.773,-36.621,-5.371,968.750,0.000,0
1553805783.230,967.773,-36.621,-7.812,966.797,0.000,0
1553805783.234,967.773,-27.832,-12.207,957.031,0.000,0
1553805783.238,967.773,-30.273,-9.766,991.699,0.000,0
1553805783.242,967.773,-26.367,-3.418,749.512,0.000,0
1553805783.246,968.262,-20.996,-7.324,550.781,0.000,0
1553805783.250,965.332,-34.180,3.906,726.562,0.000,0
1553805783.254,966.309,-35.645,5.859,814.453,0.000,0
1553805783.258,968.262,-36.133,-1.953,887.695,0.000,0
1553805783.262,967.285,-37.598,-4.395,932.129,0.000,0
1553805783.265,967.773,-30.762,-1.953,970.215,0.000,0
1553805783.269,967.773,-31.250,3.418,966.797,0.000,0
1553805783.273,967.773,-33.691,4.883,953.125,0.000,0
1553805783.277,967.773,-34.668,-3.906,966.797,0.000,0
1553805783.281,967.773,-32.227,-9.766,804.688,0.000,0
1553805783.285,967.773,-27.832,-7.324,-23.438,0.000,0
1553805783.289,967.773,-21.484,-12.207,-549.316,0.000,0
1553805783.293,967.773,-20.508,-12.695,-174.805,0.000,0
1553805783.297,967.773,-28.809,-10.742,-172.852,0.000,0
1553805783.301,967.773,-33.203,-13.184,-272.461,0.000,0
1553805783.305,967.773,-32.715,-8.789,-132.324,0.000,0
1553805783.308,967.773,-30.273,-7.812,-337.891,0.000,0
1553805783.312,967.773,-16.113,-14.160,-453.125,0.000,0
1553805783.316,967.773,-16.113,-11.719,-309.082,0.000,0
1553805783.320,967.773,-29.297,-12.695,-216.797,0.000,0
1553805783.324,967.773,-28.320,-8.789,-240.723,0.000,0
1553805783.328,967.773,-21.973,-6.348,-280.762,0.000,0
1553805783.332,967.773,-22.461,-9.277,-133.301,0.000,0
1553805783.336,967.773,-25.391,-10.254,-266.602,0.000,0
1553805783.340,967.773,-28.809,-8.301,-410.645,0.000,0
1553805783.344,967.773,-29.785,-2.930,-250.488,0.000,0
1553805783.347,967.773,-22.461,-1.953,-444.336,0.000,0
1553805783.351,967.773,-27.344,-1.465,-905.273,0.000,0
1553805783.355,967.773,-32.715,-2.930,-853.027,0.000,0
1553805783.359,967.773,-31.738,-11.230,-573.730,0.000,0
1553805783.363,967.773,-34.668,-12.207,-364.258,0.000,0
1553805783.367,967.773,-34.180,-9.766,-239.746,0.000,0
1553805783.371,967.773,-28.320,-8.301,0.488,0.000,0
1553805783.375,967.773,-22.949,-15.625,293.945,0.000,0
1553805783.379,967.773,-26.855,-19.043,151.855,0.000,0
1553805783.383,967.773,-34.668,-14.160,-41.504,0.000,0
1553805783.387,967.773,-33.691,-12.207,-89.355,0.000,0
1553805783.390,967.773,-33.691,-12.695,41.992,0.000,0
1553805783.394,967.773,-42.969,-13.184,34.180,0.000,0
1553805783.398,967.773,-34.668,-8.789,103.516,0.000,0
1553805783.402,967.773,-25.879,-8.789,141.602,0.000,0
1553805783.406,967.773,-26.855,-20.020,-86.426,0.000,0
1553805783.410,967.773,-27.344,-17.090,-56.641,0.000,0
1553805783.414,967.773,-19.531,-10.254,8.789,0.000,0
1553805783.418,967.773,-14.160,-10.254,239.746,0.000,0
1553805783.422,967.773,-22.949,-16.113,516.113,0.000,0
1553805783.426,967.773,-27.344,-22.949,417.480,0.000,0
1553805783.430,967.773,-20.508,-20.020,503.906,0.000,0
1553805783.433,967.773,-25.879,-10.742,501.953,0.000,0
1553805783.437,967.285,-19.531,-13.672,459.473,0.000,0
1553805783.441,967.773,-11.230,-18.555,194.824,0.000,0
1553805783.445,967.773,-14.648,-22.949,-707.031,0.000,0
1553805783.449,967.773,-17.090,-28.809,-1000.000,0.000,0
1553805783.453,967.773,-29.297,-22.461,-988.770,0.000,0
1553805783.457,967.773,-25.879,-21.973,-946.777,0.000,0
1553805783.461,967.773,-28.320,-14.648,-901.855,0.000,0
1553805783.465,967.773,-37.109,-15.625,-994.629,0.000,0
1553805783.469,968.262,-35.645,-21.484,-1000.000,0.000,0
1553805783.472,967.773,-36.133,-15.625,-875.000,0.000,0
1553805783.476,967.773,-44.922,-11.230,-592.773,0.000,0
1553805783.480,967.773,-44.922,-14.160,-357.910,0.000,0
1553805783.484,967.773,-27.832,-20.020,-0.488,0.000,0
1553805783.488,967.773,-34.668,-12.207,221.680,0.000,0
1553805783.492,967.773,-37.598,-5.859,268.555,0.000,0
1553805783.496,967.773,-20.996,-7.812,398.438,0.000,0
1553805783.500,967.773,-39.551,-7.812,471.680,0.000,0
1553805783.504,967.773,-45.898,-9.766,510.742,0.000,0
1553805783.508,967.773,-33.203,-5.859,561.035,0.000,0
1553805783.512,967.773,-32.227,-3.418,524.902,0.000,0
1553805783.515,967.773,-17.090,-7.324,253.906,0.000,0
1553805783.519,967.773,-26.367,-8.301,197.266,0.000,0
1553805783.523,967.773,-47.363,-4.395,468.750,0.000,0
1553805783.527,967.773,-39.062,-5.371,487.305,0.000,0
1553805783.531,967.773,-22.461,-9.766,167.480,0.000,0
1553805783.535,967.773,-30.273,-10.254,-89.844,0.000,0
1553805783.539,967.773,-47.852,-6.836,-177.734,0.000,0
1553805783.543,967.773,-34.180,-2.441,-189.941,0.000,0
1553805783.547,967.773,-34.180,-7.812,50.293,0.000,0
1553805783.551,967.773,-28.320,-12.695,304.688,0.000,0
1553805783.555,967.773,-15.137,-13.672,302.246,0.000,0
1553805783.558,967.773,-28.809,-15.625,113.281,0.000,0
1553805783.562,967.773,-40.039,-13.672,-116.699,0.000,0
1553805783.566,967.773,-31.250,-5.371,-608.398,0.000,0
1553805783.570,968.262,-22.949,-6.836,-1000.000,0.000,0
1553805783.574,968.262,-29.785,-16.602,-992.188,0.000,0
1553805783.578,967.773,-19.043,-13.672,-992.676,0.000,0
1553805783.582,967.773,-28.320,-2.930,-1000.000,0.000,0
1553805783.586,968.262,-37.109,-9.277,-1000.000,0.000,0
1553805783.590,967.773,-33.203,-19.531,-1000.000,0.000,0
1553805783.594,967.773,-34.668,-30.273,-1000.000,0.000,0
1553805783.597,968.262,-27.832,-33.691,-1000.000,0.000,0
1553805783.601,967.773,-18.555,-19.043,-1000.000,0.000,0
1553805783.605,967.773,-27.832,-12.695,-1000.000,0.000,0
1553805783.609,967.773,-49.805,-6.836,-1000.000,0.000,0
1553805783.613,967.773,-27.344,-11.230,-1000.000,0.000,0
1553805783.617,967.773,-17.578,-19.043,-1000.000,0.000,0
1553805783.621,967.773,-37.598,-12.695,-1000.000,0.000,0
1553805783.625,967.773,-32.715,-8.789,-1000.000,0.000,0
1553805783.629,967.773,-18.066,-19.043,-1000.000,0.000,0
1553805783.633,967.773,-29.297,-19.531,-1000.000,0.000,0
1553805783.637,967.773,-46.387,-13.184,-1000.000,0.000,0
1553805783.640,967.773,-48.340,-16.602,-1000.000,0.000,0
1553805783.644,967.773,-32.227,-15.625,-1000.000,0.000,0
1553805783.648,967.773,-34.180,-14.648,-1000.000,0.000,0
1553805783.652,968.262,-41.504,-22.949,-1000.000,0.000,0
1553805783.656,967.773,-32.227,-21.973,-1000.000,0.000,0
1553805783.660,967.773,-40.039,-20.508,-1000.000,0.000,0
1553805783.664,968.262,-32.227,-9.277,-1000.000,0.000,0
1553805783.668,967.773,-28.809,0.977,-1000.000,0.000,0
1553805783.672,967.773,-26.855,-3.418,-1000.000,0.000,0
1553805783.676,967.773,-28.809,-3.906,-1000.000,0.000,0
1553805783.680,967.773,-22.461,-11.719,-993.652,0.000,0
1553805783.683,968.262,-28.809,-17.090,-1000.000,0.000,0
1553805783.687,967.773,-34.180,-12.695,-881.348,0.000,0
1553805783.691,967.773,-34.180,-10.742,-680.176,0.000,0
1553805783.695,967.773,-28.809,-20.996,-467.773,0.000,0
1553805783.699,967.773,-15.625,-17.578,-456.055,0.000,0
1553805783.703,967.773,-27.832,-9.766,-875.000,0.000,0
1553805783.707,967.773,-37.109,-19.043,-1000.000,0.000,0
1553805783.711,967.773,-30.762,-21.973,-937.988,0.000,0
1553805783.715,967.773,-33.203,-19.043,-711.426,0.000,0
1553805783.719,967.773,-36.621,-25.879,-481.445,0.000,0
1553805783.722,967.773,-27.344,-24.902,-380.371,0.000,0
1553805783.726,967.773,-34.668,-20.020,-429.688,0.000,0
1553805783.730,967.773,-33.691,-22.461,-517.578,0.000,0
1553805783.734,967.773,-39.062,-19.531,-324.707,0.000,0
1553805783.738,967.773,-50.781,-19.531,-266.113,0.000,0
1553805783.742,967.773,-27.832,-21.484,-478.027,0.000,0
1553805783.746,967.773,-28.320,-19.043,-723.145,0.000,0
1553805783.750,967.773,-51.758,-19.043,-956.543,0.000,0
1553805783.754,967.773,-48.340,-12.207,-1000.000,0.000,0
1553805783.758,967.773,-45.898,-14.648,-992.188,0.000,0
1553805783.762,967.773,-38.574,-26.855,-1000.000,0.000,0
1553805783.765,967.773,-36.133,-23.438,-1000.000,0.000,0
1553805783.769,967.773,-39.551,-15.625,-1000.000,0.000,0
1553805783.773,967.773,-35.156,-11.230,-1000.000,0.000,0
1553805783.777,967.773,-41.504,-12.207,-1000.000,0.000,0
1553805783.781,967.773,-41.504,-12.695,-1000.000,0.000,0
1553805783.785,967.773,-36.133,-6.836,-1000.000,0.000,0
1553805783.789,967.773,-36.133,-14.160,-1000.000,0.000,0
1553805783.793,967.773,-55.176,-10.742,-1000.000,0.000,0
1553805783.797,967.773,-64.453,-4.395,-1000.000,0.000,0
1553805783.801,967.773,-60.059,-11.230,-1000.000,0.000,0
1553805783.805,967.773,-52.734,-11.719,-1000.000,0.000,0
1553805783.808,967.773,-45.410,-13.184,-1000.000,0.000,0
1553805783.812,967.773,-49.316,-10.254,-1000.000,0.000,0
1553805783.816,967.773,-45.898,-10.742,-1000.000,0.000,0
1553805783.820,967.773,-46.875,-18.066,-997.559,0.000,0
1553805783.824,967.773,-47.852,-19.531,-1000.000,0.000,0
1553805783.828,967.773,-38.086,-21.973,-985.840,0.000,0
1553805783.832,967.773,-38.574,-20.508,-917.480,0.000,0
1553805783.836,967.773,-34.668,-17.578,-874.023,0.000,0
1553805783.840,967.773,-23.438,-20.996,-789.062,0.000,0
1553805783.844,967.773,-48.340,-11.719,-874.512,0.000,0
1553805783.847,967.773,-45.898,-10.742,-1000.000,0.000,0
1553805783.851,967.773,-30.762,-20.020,-996.582,0.000,0
1553805783.855,967.773,-31.250,-16.602,-998.535,0.000,0
1553805783.859,967.773,-31.738,-18.066,-1000.000,0.000,0
1553805783.863,968.262,-31.250,-25.391,-996.582,0.000,0
1553805783.867,976.562,-42.480,-20.020,-1000.000,0.000,0
1553805783.871,913.574,-36.133,-18.555,-990.723,0.000,0
1553805783.875,-954.590,-33.203,-18.066,-850.586,0.000,0
1553805783.879,622.559,-41.016,-22.461,-780.273,0.000,0
1553805783.883,-700.195,-36.133,-25.391,-833.008,0.000,0
1553805783.887,-1000.000,-27.344,-19.531,-830.566,0.000,0
1553805783.890,-952.637,-32.715,-20.996,-820.312,0.000,0
1553805783.894,-999.023,-43.945,-19.531,-918.457,0.000,0
1553805783.898,-1000.000,-34.180,-17.090,-1000.000,0.000,0
1553805783.902,-937.988,-40.527,-14.648,-960.938,0.000,0
1553805783.906,-608.398,-36.133,-12.695,-1000.000,0.000,0
1553805783.910,-281.250,-24.902,-19.043,-896.973,0.000,0
1553805783.914,-59.082,-44.922,-22.461,-773.438,0.000,0
1553805783.918,197.754,-39.062,-16.602,-930.664,0.000,0
1553805783.922,346.680,-24.414,-11.230,-899.902,0.000,0
1553805783.926,448.730,-35.156,-10.254,-917.480,0.000,0
1553805783.930,560.059,-35.645,-22.461,-950.195,0.000,0
1553805783.933,640.625,-43.457,-32.227,-897.949,0.000,0
1553805783.937,756.348,-31.738,-26.367,-976.074,0.000,0
1553805783.941,830.078,-20.996,-31.738,-1000.000,0.000,0
1553805783.945,878.906,-29.785,-29.785,-996.582,0.000,0
1553805783.949,915.527,-24.902,-19.043,-1000.000,0.000,0
1553805783.953,953.125,-35.645,-20.020,-1000.000,0.000,0
1553805783.957,964.355,-41.016,-22.461,-1000.000,0.000,0
1553805783.961,966.309,-32.227,-20.996,-1000.000,0.000,0
1553805783.965,968.262,-32.715,-23.926,-995.117,0.000,0
1553805783.969,967.773,-36.621,-17.090,-1000.000,0.000,0
1553805783.972,967.773,-41.016,-7.324,-963.867,0.000,0
1553805783.976,967.773,-25.879,-11.230,-830.566,0.000,0
1553805783.980,967.773,-24.414,-15.137,-748.535,0.000,0
1553805783.984,967.773,-25.879,-6.836,-663.574,0.000,0
1553805783.988,967.773,-19.531,-11.230,-578.613,0.000,0
1553805783.992,967.773,-23.438,-27.344,-548.828,0.000,0
1553805783.996,967.773,-46.387,-25.879,-569.824,0.000,0
1553805784.000,967.773,-32.227,-23.926,-595.703,0.000,0
1553805784.004,967.773,-19.043,-28.320,-616.699,0.000,0
1553805784.008,967.773,-37.598,-31.250,-705.566,0.000,0
1553805784.012,967.773,-10.742,-27.344,-798.828,0.000,0
1553805784.015,967.773,1.953,-31.250,-800.293,0.000,0
1553805784.019,968.262,-21.973,-33.691,-740.234,0.000,0
1553805784.023,967.285,-23.438,-30.762,-592.773,0.000,0
1553805784.027,972.656,-25.879,-20.508,-510.254,0.000,0
1553805784.031,943.359,-25.879,-8.789,-505.371,0.000,0
1553805784.035,965.332,-35.156,-13.184,-416.992,0.000,0
1553805784.039,821.289,-53.223,-10.254,-229.980,0.000,0
1553805784.043,6.836,-46.875,-4.883,-149.902,0.000,0
1553805784.047,-731.445,-43.457,-2.930,-122.559,0.000,0
1553805784.051,-969.727,-41.992,4.883,-48.828,0.000,0
1553805784.055,-995.605,-43.457,3.906,-92.773,0.000,0
1553805784.058,-995.605,-52.246,-6.836,-104.492,0.000,0
1553805784.062,-1000.000,-52.734,-3.906,-47.363,0.000,0
1553805784.066,-1000.000,-44.434,0.000,4.883,0.000,0
1553805784.070,-1000.000,-44.922,-4.883,63.477,0.000,0
1553805784.074,-1000.000,-63.965,-4.883,108.398,0.000,0
1553805784.078,-1000.000,-56.641,-5.859,132.812,0.000,0
1553805784.082,-1000.000,-52.246,-12.207,148.438,0.000,0
1553805784.086,-1000.000,-49.316,-15.625,197.266,0.000,0
1553805784.090,-1000.000,-47.363,-27.832,198.730,0.000,0
1553805784.094,-1000.000,-47.363,-31.738,310.059,0.000,0
1553805784.097,-1000.000,-50.293,-4.883,732.910,0.000,0
1553805784.101,-1000.000,-40.527,0.000,979.980,0.000,0
1553805784.105,-1000.000,-34.668,-8.301,958.984,0.000,0
1553805784.109,-1000.000,-51.270,-2.930,964.355,0.000,0
1553805784.113,-1000.000,-61.523,-6.836,969.727,0.000,0
1553805784.117,-1000.000,-64.941,-10.254,968.262,0.000,0
1553805784.121,-1000.000,-45.410,-18.555,968.262,0.000,0
1553805784.125,-1000.000,-33.203,-28.809,968.750,0.000,0
1553805784.129,-1000.000,-49.805,-26.855,969.238,0.000,0
1553805784.133,-1000.000,-53.711,-24.414,965.332,0.000,0
1553805784.137,-1000.000,-49.805,-16.602,973.633,0.000,0
1553805784.140,-999.512,-48.828,-11.719,954.590,0.000,0
1553805784.144,-993.164,-33.691,-19.531,906.738,0.000,0
1553805784.148,-1000.000,-39.062,-17.578,935.059,0.000,0
1553805784.152,-870.117,-56.641,-13.672,968.262,0.000,0
1553805784.156,-646.484,-46.387,-23.438,925.781,0.000,0
1553805784.160,-539.062,-48.340,-28.320,420.410,0.000,0
1553805784.164,-411.621,-29.785,-28.809,-392.578,0.000,0
1553805784.168,-304.688,-36.621,-23.438,-592.773,0.000,0
1553805784.172,-286.133,-58.594,-19.531,-336.426,0.000,0
1553805784.176,-352.539,-41.016,-17.090,-280.273,0.000,0
1553805784.180,-426.758,-33.203,-20.020,37.598,0.000,0
1553805784.183,-444.824,-38.086,-21.484,347.168,0.000,0
1553805784.187,-391.602,-37.109,-18.066,354.980,0.000,0
1553805784.191,-437.988,-39.551,-13.672,407.715,0.000,0
1553805784.195,-529.297,-41.016,-13.184,478.516,0.000,0
1553805784.199,-606.445,-37.598,-13.672,506.348,0.000,0
1553805784.203,-768.555,-34.180,-18.066,440.918,0.000,0
1553805784.207,-770.508,-31.250,-27.344,498.047,0.000,0
1553805784.211,-628.906,-41.992,-27.344,825.684,0.000,0
1553805784.215,-688.965,-41.016,-25.391,983.398,0.000,0
1553805784.219,-812.988,-37.598,-22.461,958.008,0.000,0
1553805784.222,-925.781,-39.551,-16.602,967.285,0.000,0
1553805784.226,-1000.000,-36.621,-21.973,968.750,0.000,0
1553805784.230,-992.188,-34.668,-21.973,968.262,0.000,0
1553805784.234,-996.094,-39.551,-21.973,968.262,0.000,0
1553805784.238,-990.723,-38.574,-25.391,968.262,0.000,0
1553805784.242,-743.164,-32.227,-14.160,967.773,0.000,0
1553805784.246,-380.859,-24.414,-10.254,963.379,0.000,0
1553805784.250,-209.961,-29.785,-12.695,983.887,0.000,0
1553805784.254,-67.383,-42.480,-10.254,883.789,0.000,0
1553805784.258,56.152,-31.738,-16.113,817.871,0.000,0
1553805784.262,175.293,-27.344,-22.461,954.590,0.000,0
1553805784.265,208.008,-27.344,-21.484,878.906,0.000,0
1553805784.269,376.953,-37.598,-21.484,597.656,0.000,0
1553805784.273,358.398,-29.785,-28.320,464.355,0.000,0
1553805784.277,-552.246,-26.367,-29.297,219.238,0.000,0
1553805784.281,-1000.000,-15.137,-30.273,-166.504,0.000,0
1553805784.285,-988.281,-10.254,-31.250,-337.891,0.000,0
1553805784.289,-766.113,-28.320,-34.180,-115.723,0.000,0
1553805784.293,-186.035,-22.461,-38.086,123.047,0.000,0
1553805784.297,203.125,-15.625,-40.527,157.715,0.000,0
1553805784.301,468.750,-25.879,-41.016,160.645,0.000,0
1553805784.305,697.266,-11.230,-38.086,27.344,0.000,0
1553805784.308,874.512,-3.906,-35.645,-128.906,0.000,0
1553805784.312,970.703,-18.066,-33.203,-229.492,0.000,0
1553805784.316,964.844,-0.488,-42.969,-496.094,0.000,0
1553805784.320,966.309,-19.043,-37.109,-871.582,0.000,0
1553805784.324,968.262,-45.898,-33.691,-612.793,0.000,0
1553805784.328,967.773,-26.367,-35.645,-212.891,0.000,0
1553805784.332,967.773,-17.578,-32.227,-617.188,0.000,0
1553805784.336,968.262,-23.438,-36.621,-1000.000,0.000,0
1553805784.340,967.773,-33.691,-31.738,-769.531,0.000,0
1553805784.344,967.773,-38.574,-19.531,-507.812,0.000,0
1553805784.347,967.773,-26.855,-22.461,-735.840,0.000,0
1553805784.351,967.773,-20.996,-30.762,-830.078,0.000,0
1553805784.355,967.773,-12.695,-30.273,-483.887,0.000,0
1553805784.359,967.773,-13.672,-22.949,-242.676,0.000,0
1553805784.363,967.773,-26.855,-18.066,-584.473,0.000,0
1553805784.367,967.773,-24.414,-25.879,-978.516,0.000,0
1553805784.371,967.773,-20.508,-29.785,-1000.000,0.000,0
1553805784.375,967.773,-26.855,-23.926,-791.992,0.000,0
1553805784.379,967.773,-23.438,-25.391,-354.004,0.000,0
1553805784.383,967.773,-21.973,-21.973,-8.789,0.000,0
1553805784.387,967.773,-33.691,-17.578,268.066,0.000,0
1553805784.390,967.773,-28.320,-21.973,353.027,0.000,0
1553805784.394,967.773,-23.438,-20.020,310.547,0.000,0
1553805784.398,967.773,-46.387,-16.113,363.281,0.000,0
1553805784.402,967.773,-25.879,-17.578,531.738,0.000,0
1553805784.406,967.773,-28.809,-19.531,563.477,0.000,0
1553805784.410,968.262,-53.711,-12.695,481.934,0.000,0
1553805784.414,968.750,-26.367,-20.508,371.582,0.000,0
1553805784.418,962.891,-31.250,-28.320,312.988,0.000,0
1553805784.422,976.562,-45.410,-21.973,496.094,0.000,0
1553805784.426,900.879,-41.016,-18.066,599.121,0.000,0
1553805784.430,840.820,-44.434,-17.578,724.609,0.000,0
1553805784.433,503.906,-44.434,-16.113,920.410,0.000,0
1553805784.437,116.211,-51.270,-13.672,981.445,0.000,0
1553805784.441,366.211,-52.246,-17.090,711.914,0.000,0
1553805784.445,700.684,-28.809,-23.438,382.324,0.000,0
1553805784.449,857.910,-41.992,-22.461,294.434,0.000,0
1553805784.453,897.461,-41.992,-15.137,-35.156,0.000,0
1553805784.457,941.895,-23.926,-20.508,-325.195,0.000,0
1553805784.461,970.703,-38.086,-26.855,-482.422,0.000,0
1553805784.465,966.797,-42.480,-26.367,-366.699,0.000,0
1553805784.469,967.285,-39.062,-29.297,-171.875,0.000,0
1553805784.472,967.773,-31.250,-33.203,20.996,0.000,0
1553805784.476,967.773,-37.109,-30.762,493.164,0.000,0
1553805784.480,967.773,-43.945,-26.855,868.652,0.000,0
1553805784.484,967.773,-45.898,-30.762,972.168,0.000,0
1553805784.488,967.773,-37.109,-30.762,878.906,0.000,0
1553805784.492,967.773,-37.109,-26.855,579.590,0.000,0
1553805784.496,967.773,-33.691,-21.973,147.949,0.000,0
1553805784.500,967.773,-27.344,-21.973,15.625,0.000,0
1553805784.504,967.773,-32.227,-26.855,190.430,0.000,0
1553805784.508,967.773,-41.016,-24.414,352.539,0.000,0
1553805784.512,967.773,-49.316,-22.461,328.613,0.000,0
1553805784.515,967.773,-44.434,-28.809,-22.461,0.000,0
1553805784.519,967.773,-35.156,-32.715,-263.672,0.000,0
1553805784.523,967.773,-37.109,-29.785,-403.320,0.000,0
1553805784.527,967.773,-34.180,-32.715,-292.969,0.000,0
1553805784.531,967.773,-35.645,-35.156,-222.656,0.000,0
1553805784.535,967.773,-35.645,-33.691,-620.605,0.000,0
1553805784.539,967.773,-27.832,-31.250,-506.348,0.000,0
1553805784.543,967.773,-24.414,-30.273,-39.062,0.000,0
1553805784.547,967.773,-39.551,-29.785,31.250,0.000,0
1553805784.551,967.773,-48.340,-21.973,182.129,0.000,0
1553805784.555,967.773,-41.992,-22.949,253.418,0.000,0
1553805784.558,967.773,-27.832,-24.902,85.449,0.000,0
1553805784.562,967.773,-22.949,-24.902,19.531,0.000,0
1553805784.566,967.773,-34.668,-26.855,116.211,0.000,0
1553805784.570,967.773,-46.387,-24.902,310.547,0.000,0
1553805784.574,967.773,-41.016,-25.391,166.504,0.000,0
1553805784.578,967.773,-26.855,-24.414,-31.250,0.000,0
1553805784.582,967.773,-24.902,-26.855,-55.176,0.000,0
1553805784.586,967.773,-26.367,-23.926,-38.574,0.000,0
1553805784.590,967.773,-28.809,-24.414,-135.742,0.000,0
1553805784.594,967.773,-35.156,-23.438,-229.492,0.000,0
1553805784.597,967.773,-24.414,-28.809,-123.047,0.000,0
1553805784.601,967.773,-14.160,-38.574,-89.355,0.000,0
1553805784.605,967.773,-26.855,-32.715,-94.727,0.000,0
1553805784.609,967.773,-42.969,-23.926,57.617,0.000,0
1553805784.613,967.773,-39.551,-27.832,414.551,0.000,0
1553805784.617,967.773,-33.691,-33.691,714.355,0.000,0
1553805784.621,967.773,-35.156,-32.227,891.113,0.000,0
1553805784.625,967.773,-35.156,-32.715,971.191,0.000,0
1553805784.629,967.773,-37.109,-33.691,936.035,0.000,0
1553805784.633,967.773,-35.156,-24.414,910.645,0.000,0
1553805784.637,967.773,-41.016,-15.137,583.496,0.000,0
1553805784.640,967.773,-48.340,-11.719,143.555,0.000,0
1553805784.644,967.773,-39.551,-13.672,41.504,0.000,0
1553805784.648,967.773,-32.715,-17.090,125.977,0.000,0
1553805784.652,967.773,-41.504,-14.648,257.324,0.000,0
1553805784.656,967.773,-46.387,-10.742,371.094,0.000,0
1553805784.660,967.773,-36.133,-16.113,452.637,0.000,0
1553805784.664,967.773,-25.879,-27.344,333.984,0.000,0
1553805784.668,967.773,-41.992,-16.113,432.617,0.000,0
1553805784.672,967.773,-55.664,-11.719,536.621,0.000,0
1553805784.676,967.773,-37.598,-19.043,446.777,0.000,0
1553805784.680,967.773,-30.273,-11.719,405.762,0.000,0
1553805784.683,967.773,-31.250,-13.184,344.238,0.000,0
1553805784.687,967.773,-33.691,-17.090,274.902,0.000,0
1553805784.691,967.773,-41.016,-15.625,301.758,0.000,0
1553805784.695,967.773,-35.645,-22.949,360.840,0.000,0
1553805784.699,967.773,-39.551,-28.809,411.133,0.000,0
1553805784.703,967.773,-39.551,-21.484,295.898,0.000,0
1553805784.707,967.773,-38.086,-17.578,-235.840,0.000,0
1553805784.711,967.773,-36.133,-24.902,-672.363,0.000,0
1553805784.715,968.262,-32.715,-26.367,-833.496,0.000,0
1553805784.719,967.773,-30.762,-23.926,-962.402,0.000,0
1553805784.722,967.773,-27.832,-30.273,-949.707,0.000,0
1553805784.726,967.773,-33.203,-26.367,-774.414,0.000,0
1553805784.730,967.773,-37.598,-19.531,-457.031,0.000,0
1553805784.734,967.773,-28.320,-19.531,-262.207,0.000,0
1553805784.738,967.773,-26.855,-22.949,-466.797,0.000,0
1553805784.742,967.773,-36.621,-26.367,-622.559,0.000,0
1553805784.746,967.773,-38.086,-24.414,-717.285,0.000,0
1553805784.750,967.773,-41.504,-24.414,-803.711,0.000,0
1553805784.754,967.773,-42.480,-23.926,-750.000,0.000,0
1553805784.758,967.773,-42.969,-23.926,-881.348,0.000,0
1553805784.762,967.773,-46.387,-19.531,-825.195,0.000,0
1553805784.765,967.773,-41.016,-19.043,-725.586,0.000,0
1553805784.769,967.773,-26.855,-21.484,-907.715,0.000,0
1553805784.773,967.773,-27.832,-22.461,-968.262,0.000,0
1553805784.777,967.773,-46.387,-20.508,-1000.000,0.000,0
1553805784.781,967.773,-37.109,-19.043,-999.023,0.000,0
1553805784.785,967.773,-19.531,-26.367,-994.629,0.000,0
1553805784.789,967.773,-35.156,-27.344,-1000.000,0.000,0
1553805784.793,967.773,-43.457,-24.902,-941.406,0.000,0
1553805784.797,967.773,-28.809,-22.461,-694.824,0.000,0
1553805784.801,967.773,-29.297,-22.949,-255.371,0.000,0
1553805784.805,969.727,-26.367,-22.949,5.371,0.000,0
1553805784.808,960.938,-22.949,-24.414,-56.152,0.000,0
1553805784.812,962.891,-33.203,-21.484,19.531,0.000,0
1553805784.816,949.219,-41.504,-16.113,236.328,0.000,0
1553805784.820,601.074,-38.086,-17.090,358.398,0.000,0
1553805784.824,7.324,-40.527,-13.184,321.777,0.000,0
1553805784.828,-637.695,-38.574,-11.719,118.652,0.000,0
1553805784.832,-998.047,-32.715,-20.508,-162.598,0.000,0
1553805784.836,-990.234,-41.016,-23.438,-262.207,0.000,0
1553805784.840,-994.629,-37.598,-17.578,-541.016,0.000,0
1553805784.844,-1000.000,-31.250,-15.625,-618.164,0.000,0
1553805784.847,-1000.000,-25.879,-21.973,-341.309,0.000,0
1553805784.851,-1000.000,-30.273,-27.832,-472.656,0.000,0
1553805784.855,-1000.000,-33.203,-28.809,-545.410,0.000,0
1553805784.859,-1000.000,-24.414,-32.715,-339.355,0.000,0
1553805784.863,-1000.000,-28.320,-34.180,-615.723,0.000,0
1553805784.867,-1000.000,-35.645,-25.879,-747.070,0.000,0
1553805784.871,-1000.000,-34.668,-21.973,-634.277,0.000,0
1553805784.875,-1000.000,-29.297,-21.973,-779.297,0.000,0
1553805784.879,-1000.000,-29.785,-21.973,-669.922,0.000,0
1553805784.883,-1000.000,-34.668,-21.973,-495.605,0.000,0
1553805784.887,-1000.000,-34.180,-20.020,-560.547,0.000,0
1553805784.890,-1000.000,-38.086,-15.625,-594.727,0.000,0
1553805784.894,-1000.000,-42.480,-18.066,-475.586,0.000,0
1553805784.898,-1000.000,-41.504,-20.996,-318.848,0.000,0
1553805784.902,-1000.000,-33.691,-16.113,-491.211,0.000,0
1553805784.906,-1000.000,-40.039,-16.602,-652.344,0.000,0
1553805784.910,-1000.000,-51.270,-23.438,-416.504,0.000,0
1553805784.914,-1000.000,-33.691,-24.414,-123.047,0.000,0
1553805784.918,-1000.000,-28.809,-24.902,208.008,0.000,0
1553805784.922,-1000.000,-34.668,-25.879,434.082,0.000,0
1553805784.926,-1000.000,-33.691,-25.391,614.746,0.000,0
1553805784.930,-1000.000,-28.809,-23.438,636.719,0.000,0
1553805784.933,-1000.000,-28.320,-23.926,369.629,0.000,0
1553805784.937,-1000.000,-31.738,-26.855,-104.980,0.000,0
1553805784.941,-1000.000,-32.715,-26.367,-468.262,0.000,0
1553805784.945,-1000.000,-33.203,-22.461,-779.297,0.000,0
1553805784.949,-1000.000,-37.109,-24.414,-816.895,0.000,0
1553805784.953,-1000.000,-37.598,-24.902,-552.734,0.000,0
1553805784.957,-998.535,-33.203,-24.902,-647.461,0.000,0
1553805784.961,-1000.000,-34.668,-25.879,-748.047,0.000,0
1553805784.965,-996.582,-29.785,-24.414,-360.840,0.000,0
1553805784.969,-911.133,-39.551,-19.043,210.938,0.000,0
1553805784.972,-795.898,-37.109,-17.578,641.602,0.000,0
1553805784.976,-701.660,-25.391,-16.602,796.387,0.000,0
1553805784.980,-540.039,-32.715,-10.742,350.586,0.000,0
1553805784.984,-359.863,-30.273,-22.461,-217.285,0.000,0
1553805784.988,-237.305,-29.297,-33.203,-351.562,0.000,0
1553805784.992,-14.648,-32.227,-27.344,-506.348,0.000,0
1553805784.996,235.840,-33.691,-21.484,-708.008,0.000,0
1553805785.000,392.090,-29.785,-21.973,-701.660,0.000,0
1553805785.004,582.520,-33.203,-23.438,-588.379,0.000,0
1553805785.008,755.371,-44.922,-14.648,-284.668,0.000,0
1553805785.012,858.887,-38.574,-8.789,51.758,0.000,0
1553805785.015,945.801,-28.320,-12.207,12.695,0.000,0
1553805785.019,968.750,-36.133,-13.672,-9.277,0.000,0
1553805785.023,965.820,-28.320,-14.648,194.336,0.000,0
1553805785.027,967.773,-18.066,-18.066,359.375,0.000,0
1553805785.031,967.773,-28.809,-16.602,556.641,0.000,0
1553805785.035,967.773,-27.832,-20.020,766.602,0.000,0
1553805785.039,967.773,-25.391,-12.695,930.664,0.000,0
1553805785.043,967.773,-33.691,-12.207,959.473,0.000,0
1553805785.047,967.773,-28.809,-20.508,961.426,0.000,0
1553805785.051,967.773,-28.809,-14.648,969.727,0.000,0
1553805785.055,967.773,-24.902,-17.090,967.773,0.000,0
1553805785.058,967.773,-22.949,-20.020,968.750,0.000,0
1553805785.062,967.773,-25.391,-20.996,968.262,0.000,0
1553805785.066,967.773,-25.879,-22.949,967.773,0.000,0
1553805785.070,967.773,-33.691,-18.066,968.750,0.000,0
1553805785.074,967.773,-30.762,-14.160,966.309,0.000,0
1553805785.078,967.773,-29.785,-14.160,963.867,0.000,0
1553805785.082,967.773,-27.344,-20.508,968.262,0.000,0
1553805785.086,967.773,-22.949,-21.973,968.750,0.000,0
1553805785.090,967.773,-22.461,-14.648,968.750,0.000,0
1553805785.094,967.773,-18.555,-17.090,960.938,0.000,0
1553805785.097,967.773,-23.438,-19.043,980.469,0.000,0
1553805785.101,967.773,-28.809,-22.949,915.039,0.000,0
1553805785.105,967.773,-27.832,-26.367,763.672,0.000,0
1553805785.109,967.773,-26.367,-29.297,797.852,0.000,0
1553805785.113,967.773,-32.227,-23.926,846.191,0.000,0
1553805785.117,967.773,-32.227,-18.555,700.684,0.000,0
1553805785.121,967.773,-21.973,-22.949,575.684,0.000,0
1553805785.125,967.773,-26.855,-16.602,676.758,0.000,0
1553805785.129,967.773,-27.832,-14.160,709.961,0.000,0
1553805785.133,967.773,-26.367,-13.184,551.758,0.000,0
1553805785.137,967.773,-30.762,-13.184,440.918,0.000,0
1553805785.140,967.773,-31.250,-18.066,433.594,0.000,0
1553805785.144,967.773,-32.715,-20.020,428.223,0.000,0
1553805785.148,967.773,-36.621,-25.879,418.457,0.000,0
1553805785.152,968.262,-37.109,-29.297,468.750,0.000,0
1553805785.156,966.309,-36.133,-22.949,419.434,0.000,0
1553805785.160,968.262,-32.227,-20.996,229.980,0.000,0
1553805785.164,964.844,-26.367,-20.020,184.570,0.000,0
1553805785.168,916.016,-27.832,-19.531,281.250,0.000,0
1553805785.172,866.211,-33.203,-21.973,352.539,0.000,0
1553805785.176,849.609,-31.738,-25.879,400.879,0.000,0
1553805785.180,826.660,-30.273,-23.926,497.559,0.000,0
1553805785.183,820.312,-31.738,-16.602,612.305,0.000,0
1553805785.187,826.660,-38.574,-16.602,218.750,0.000,0
1553805785.191,790.527,-31.738,-18.066,-207.520,0.000,0
1553805785.195,749.512,-42.969,-20.996,-25.879,0.000,0
1553805785.199,726.074,-50.293,-29.297,0.000,0.000,0
1553805785.203,755.371,-28.320,-29.785,114.746,0.000,0
1553805785.207,807.129,-23.926,-26.367,497.070,0.000,0
1553805785.211,792.480,-26.855,-25.879,450.684,0.000,0
1553805785.215,775.391,-37.109,-13.672,-199.219,0.000,0
1553805785.219,791.016,-39.062,-12.695,-457.031,0.000,0
1553805785.222,770.996,-26.367,-26.367,-433.594,0.000,0
1553805785.226,735.352,-20.996,-37.598,-718.262,0.000,0
1553805785.230,626.465,-21.484,-46.387,-1000.000,0.000,0
1553805785.234,369.141,-23.926,-43.457,-654.785,0.000,0
1553805785.238,-23.926,-19.043,-41.016,16.602,0.000,0
1553805785.242,-432.617,-4.395,-46.875,125.977,0.000,0
1553805785.246,-669.922,3.906,-50.781,7.812,0.000,0
1553805785.250,-721.191,4.395,-54.688,-121.094,0.000,0
1553805785.254,-786.133,6.348,-60.547,-260.254,0.000,0
1553805785.258,-919.922,13.672,-62.988,-196.777,0.000,0
1553805785.262,-998.535,16.602,-60.059,-347.168,0.000,0
1553805785.265,-1000.000,19.043,-64.941,-843.262,0.000,0
1553805785.269,-998.047,20.508,-71.289,-1000.000,0.000,0
1553805785.273,-1000.000,22.461,-79.102,-691.895,0.000,0
1553805785.277,-1000.000,21.484,-83.496,-318.848,0.000,0
1553805785.281,-1000.000,25.879,-72.754,-410.156,0.000,0
1553805785.285,-1000.000,26.367,-69.336,-400.391,0.000,0
1553805785.289,-1000.000,27.344,-74.707,-52.734,0.000,0
1553805785.293,-991.699,32.715,-75.195,152.344,0.000,0
1553805785.297,-1000.000,28.320,-73.242,-16.602,0.000,0
1553805785.301,-933.105,22.949,-76.172,-93.750,0.000,0
1553805785.305,-631.348,33.691,-82.031,-199.707,0.000,0
1553805785.308,-315.430,41.504,-87.402,-768.555,0.000,0
1553805785.312,-60.059,35.645,-79.102,-911.133,0.000,0
1553805785.316,155.762,32.715,-67.383,-587.402,0.000,0
1553805785.320,359.375,27.344,-66.406,-302.734,0.000,0
1553805785.324,539.062,26.855,-60.059,-173.828,0.000,0
1553805785.328,652.832,19.043,-49.316,-90.820,0.000,0
1553805785.332,746.582,11.230,-43.945,250.000,0.000,0
1553805785.336,833.008,11.230,-56.152,544.434,0.000,0
1553805785.340,906.250,9.277,-67.383,697.266,0.000,0
1553805785.344,921.875,0.488,-53.223,688.965,0.000,0
1553805785.347,848.633,-4.883,-39.062,548.828,0.000,0
1553805785.351,753.906,-10.742,-31.738,371.582,0.000,0
1553805785.355,566.406,-13.672,-48.340,31.250,0.000,0
1553805785.359,359.863,-11.230,-55.664,-130.859,0.000,0
1553805785.363,323.242,-23.438,-28.809,-377.930,0.000,0
1553805785.367,413.086,-29.785,-19.531,-644.531,0.000,0
1553805785.371,475.098,-24.902,-20.020,-584.961,0.000,0
1553805785.375,508.789,-27.832,-17.578,-531.250,0.000,0
1553805785.379,499.512,-37.598,-18.555,-269.531,0.000,0
1553805785.383,525.879,-33.691,-14.648,44.434,0.000,0
1553805785.387,641.113,-23.438,-9.277,278.320,0.000,0
1553805785.390,749.512,-20.508,-9.766,124.023,0.000,0
1553805785.394,808.594,-20.020,-6.836,-364.258,0.000,0
1553805785.398,837.402,-28.320,4.395,-757.324,0.000,0
1553805785.402,867.676,-28.320,8.789,-937.012,0.000,0
1553805785.406,913.574,-26.855,10.254,-642.090,0.000,0
1553805785.410,969.238,-35.645,13.672,-613.770,0.000,0
1553805785.414,967.285,-37.109,13.672,-541.504,0.000,0
1553805785.418,966.797,-36.621,18.066,-363.281,0.000,0
1553805785.422,968.262,-38.086,20.020,-386.719,0.000,0
1553805785.426,967.773,-42.480,20.020,111.816,0.000,0
1553805785.430,967.773,-44.434,20.996,567.383,0.000,0
1553805785.433,967.773,-45.898,23.438,453.125,0.000,0
1553805785.437,967.773,-46.875,27.344,201.660,0.000,0
1553805785.441,967.773,-42.480,22.949,91.309,0.000,0
1553805785.445,967.773,-41.016,20.020,165.039,0.000,0
1553805785.449,968.262,-40.039,21.973,587.402,0.000,0
1553805785.453,965.820,-38.574,17.578,880.859,0.000,0
1553805785.457,968.750,-38.086,19.043,867.676,0.000,0
1553805785.461,963.867,-39.062,17.090,933.594,0.000,0
1553805785.465,883.789,-54.199,16.602,978.516,0.000,0
1553805785.469,823.242,-48.828,18.555,963.379,0.000,0
1553805785.472,757.812,-41.992,12.695,968.750,0.000,0
1553805785.476,672.363,-51.758,11.719,968.750,0.000,0
1553805785.480,534.180,-45.410,15.625,965.332,0.000,0
1553805785.484,248.535,-38.086,16.113,973.633,0.000,0
1553805785.488,-187.012,-39.062,17.578,956.055,0.000,0
1553805785.492,-665.527,-39.551,19.531,928.711,0.000,0
1553805785.496,-938.965,-35.645,17.578,964.355,0.000,0
1553805785.500,-999.512,-37.109,19.531,971.680,0.000,0
1553805785.504,-995.117,-42.480,20.996,966.309,0.000,0
1553805785.508,-1000.000,-39.062,17.578,968.750,0.000,0
1553805785.512,-1000.000,-35.645,13.672,967.773,0.000,0
1553805785.515,-1000.000,-38.574,14.648,969.727,0.000,0
1553805785.519,-1000.000,-39.062,16.602,960.938,0.000,0
1553805785.523,-1000.000,-39.551,13.184,958.496,0.000,0
1553805785.527,-1000.000,-44.922,9.277,937.500,0.000,0
1553805785.531,-1000.000,-46.875,9.277,922.363,0.000,0
1553805785.535,-1000.000,-44.922,8.789,985.352,0.000,0
1553805785.539,-1000.000,-47.363,7.324,895.020,0.000,0
1553805785.543,-1000.000,-45.410,8.301,380.371,0.000,0
1553805785.547,-1000.000,-40.039,11.230,8.301,0.000,0
1553805785.551,-1000.000,-45.410,6.836,-219.238,0.000,0
1553805785.555,-1000.000,-49.316,0.488,-124.512,0.000,0
1553805785.558,-1000.000,-43.457,-2.930,322.754,0.000,0
1553805785.562,-1000.000,-42.480,-0.977,529.785,0.000,0
1553805785.566,-1000.000,-53.223,11.230,718.262,0.000,0
1553805785.570,-1000.000,-57.129,4.883,736.816,0.000,0
1553805785.574,-1000.000,-55.176,-15.137,774.414,0.000,0
1553805785.578,-1000.000,-50.293,-12.695,481.445,0.000,0
1553805785.582,-1000.000,-47.852,-10.742,-181.641,0.000,0
1553805785.586,-1000.000,-47.363,-14.648,-168.457,0.000,0
1553805785.590,-1000.000,-46.875,-11.230,261.719,0.000,0
1553805785.594,-1000.000,-48.828,-15.137,449.219,0.000,0
1553805785.597,-1000.000,-39.062,-17.090,475.586,0.000,0
1553805785.601,-1000.000,-31.250,-14.648,480.957,0.000,0
1553805785.605,-1000.000,-34.668,-19.043,611.816,0.000,0
1553805785.609,-1000.000,-28.809,-20.508,880.859,0.000,0
1553805785.613,-1000.000,-19.043,-21.484,998.535,0.000,0
1553805785.617,-1000.000,-25.879,-26.367,817.383,0.000,0
1553805785.621,-1000.000,-24.902,-27.832,422.852,0.000,0
1553805785.625,-998.047,-11.230,-25.391,381.836,0.000,0
1553805785.629,-1000.000,-13.184,-24.414,588.867,0.000,0
1553805785.633,-983.398,-21.484,-20.996,656.738,0.000,0
1553805785.637,-890.137,-24.902,-20.508,527.344,0.000,0
1553805785.640,-785.156,-21.484,-20.508,497.559,0.000,0
1553805785.644,-643.555,-25.391,-18.066,421.387,0.000,0
1553805785.648,-440.430,-26.855,-21.484,277.832,0.000,0
1553805785.652,-539.551,-20.020,-25.391,-422.852,0.000,0
1553805785.656,-740.234,-25.391,-17.578,-874.023,0.000,0
1553805785.660,-826.172,-24.414,-15.625,-362.305,0.000,0
1553805785.664,-981.934,-20.020,-18.066,-312.988,0.000,0
1553805785.668,-998.047,-25.879,-14.648,-883.789,0.000,0
1553805785.672,-1000.000,-31.738,-13.672,-698.730,0.000,0
1553805785.676,-960.449,-39.551,-8.789,-694.336,0.000,0
1553805785.680,-715.820,-30.762,-6.836,-1000.000,0.000,0
1553805785.683,-466.797,-21.484,-4.395,-994.141,0.000,0
1553805785.687,-172.852,-30.273,2.441,-963.867,0.000,0
1553805785.691,205.566,-23.438,10.254,-929.688,0.000,0
1553805785.695,523.438,-19.531,0.977,-661.621,0.000,0
1553805785.699,722.656,-29.785,-1.953,-150.879,0.000,0
1553805785.703,885.742,-34.668,16.602,102.051,0.000,0
1553805785.707,968.262,-23.926,25.391,295.410,0.000,0
1553805785.711,969.238,-18.555,20.020,586.426,0.000,0
1553805785.715,952.148,10.254,13.184,689.453,0.000,0
1553805785.719,933.105,-5.371,21.973,772.949,0.000,0
1553805785.722,967.285,-47.852,25.391,921.387,0.000,0
1553805785.726,960.449,-35.645,25.879,894.043,0.000,0
1553805785.730,918.457,-36.133,32.227,937.500,0.000,0
1553805785.734,860.840,-33.691,35.156,817.871,0.000,0
1553805785.738,804.199,-25.391,41.504,435.547,0.000,0
1553805785.742,899.414,-28.809,50.293,405.762,0.000,0
1553805785.746,976.562,-30.762,45.898,404.297,0.000,0
1553805785.750,963.867,-23.438,55.176,414.551,0.000,0
1553805785.754,968.262,-23.438,65.918,519.531,0.000,0
1553805785.758,953.125,-15.137,74.707,585.938,0.000,0
1553805785.762,985.352,-10.254,91.309,450.684,0.000,0
1553805785.765,799.316,-18.555,101.562,278.809,0.000,0
1553805785.769,304.688,-9.766,105.957,420.898,0.000,0
1553805785.773,-224.121,-10.742,108.398,652.832,0.000,0
1553805785.777,-806.152,-12.207,111.816,899.902,0.000,0
1553805785.781,-1000.000,-7.324,112.793,866.699,0.000,0
1553805785.785,-983.398,-11.719,112.305,708.008,0.000,0
1553805785.789,-1000.000,-4.883,112.305,883.789,0.000,0
1553805785.793,-1000.000,12.207,108.398,983.398,0.000,0
1553805785.797,-1000.000,4.883,116.211,933.594,0.000,0
1553805785.801,-1000.000,-6.836,122.559,899.902,0.000,0
1553805785.805,-1000.000,2.441,116.211,695.312,0.000,0
1553805785.808,-1000.000,7.812,111.328,657.715,0.000,0
1553805785.812,-1000.000,4.883,112.305,777.832,0.000,0
1553805785.816,-1000.000,3.418,108.887,788.086,0.000,0
1553805785.820,-1000.000,0.000,97.656,913.574,0.000,0
1553805785.824,-1000.000,-0.977,92.773,963.867,0.000,0
1553805785.828,-1000.000,0.977,94.727,875.977,0.000,0
1553805785.832,-1000.000,4.395,101.562,635.254,0.000,0
1553805785.836,-1000.000,9.766,104.980,314.453,0.000,0
1553805785.840,-1000.000,2.441,103.516,156.250,0.000,0
1553805785.844,-1000.000,-11.719,95.215,208.496,0.000,0
1553805785.847,-1000.000,-8.301,80.566,371.094,0.000,0
1553805785.851,-1000.000,-9.766,77.148,423.340,0.000,0
1553805785.855,-1000.000,-15.625,80.078,349.121,0.000,0
1553805785.859,-1000.000,0.000,70.312,150.879,0.000,0
1553805785.863,-1000.000,-0.488,54.199,-21.484,0.000,0
1553805785.867,-1000.000,-4.883,49.316,-100.586,0.000,0
1553805785.871,-1000.000,-2.930,44.922,-158.203,0.000,0
1553805785.875,-1000.000,-3.906,38.086,-121.582,0.000,0
1553805785.879,-1000.000,-6.836,37.598,-182.617,0.000,0
1553805785.883,-1000.000,-10.254,39.062,-291.016,0.000,0
1553805785.887,-1000.000,-4.395,41.992,-44.434,0.000,0
1553805785.890,-1000.000,-2.441,28.320,242.676,0.000,0
1553805785.894,-998.535,-9.766,25.391,320.312,0.000,0
1553805785.898,-1000.000,-10.742,28.320,548.828,0.000,0
1553805785.902,-1000.000,-16.113,19.043,359.375,0.000,0
1553805785.906,-900.879,-10.254,24.902,230.469,0.000,0
1553805785.910,-890.625,4.883,22.949,298.828,0.000,0
1553805785.914,-1000.000,3.418,16.602,5.859,0.000,0
1553805785.918,-942.383,-6.348,20.508,-184.570,0.000,0
1553805785.922,-666.504,-2.930,19.043,-34.180,0.000,0
1553805785.926,-547.363,-11.719,13.672,332.031,0.000,0
1553805785.930,-622.070,-12.695,14.648,487.305,0.000,0
1553805785.933,-737.305,12.207,12.695,518.066,0.000,0
1553805785.937,-938.965,1.465,-2.441,333.496,0.000,0
1553805785.941,-1000.000,-11.719,-2.441,289.062,0.000,0
1553805785.945,-947.754,8.301,-3.418,428.711,0.000,0
1553805785.949,-731.445,23.438,-16.113,472.656,0.000,0
1553805785.953,-581.055,8.789,-13.184,341.797,0.000,0
1553805785.957,-501.465,14.648,-19.531,-148.926,0.000,0
1553805785.961,-434.570,22.949,-24.414,-619.629,0.000,0
1553805785.965,-360.840,11.230,-18.555,-663.086,0.000,0
1553805785.969,-237.305,22.949,-28.320,-608.887,0.000,0
1553805785.972,-130.371,27.832,-35.156,-423.340,0.000,0
1553805785.976,-42.480,21.973,-25.879,-314.453,0.000,0
1553805785.980,18.066,19.043,-23.926,-397.949,0.000,0
1553805785.984,31.738,18.066,-20.020,-555.664,0.000,0
1553805785.988,95.215,17.578,-12.695,-345.215,0.000,0
1553805785.992,157.715,16.113,-16.113,-8.301,0.000,0
1553805785.996,190.918,9.766,-24.902,-184.570,0.000,0
1553805786.000,268.555,3.906,-23.438,-285.156,0.000,0
1553805786.004,297.852,-0.488,-4.883,-291.016,0.000,0
1553805786.008,317.871,4.395,-4.883,-366.211,0.000,0
1553805786.012,285.645,2.441,-13.184,-201.660,0.000,0
1553805786.015,211.426,-1.465,-14.648,-243.652,0.000,0
1553805786.019,171.387,-4.883,-19.531,-448.242,0.000,0
1553805786.023,206.055,-13.184,-12.207,-579.590,0.000,0
1553805786.027,171.387,-8.789,4.395,-681.641,0.000,0
1553805786.031,111.328,-6.836,0.488,-442.871,0.000,0
1553805786.035,134.277,-10.254,-3.906,-45.898,0.000,0
1553805786.039,110.840,-13.672,-1.465,306.152,0.000,0
1553805786.043,54.688,-17.090,-4.395,552.734,0.000,0
1553805786.047,36.133,-11.230,-9.277,746.582,0.000,0
1553805786.051,5.371,-15.137,-4.395,792.969,0.000,0
1553805786.055,44.922,-22.949,-1.465,312.988,0.000,0
1553805786.058,193.359,-20.508,0.488,-33.691,0.000,0
1553805786.062,255.371,-18.066,0.000,149.902,0.000,0
1553805786.066,281.250,-24.902,-11.230,379.883,0.000,0
1553805786.070,361.816,-25.391,-8.789,458.008,0.000,0
1553805786.074,355.957,-22.949,-6.836,725.586,0.000,0
1553805786.078,328.613,-31.250,-8.301,757.812,0.000,0
1553805786.082,324.707,-29.785,-9.766,549.316,0.000,0
1553805786.086,246.094,-16.602,-7.812,684.082,0.000,0
1553805786.090,128.418,-14.160,-4.883,791.016,0.000,0
1553805786.094,-176.270,-26.855,0.000,602.539,0.000,0
1553805786.097,-538.574,-26.855,11.230,479.004,0.000,0
1553805786.101,-583.008,-18.555,12.695,371.094,0.000,0
1553805786.105,-660.156,-18.066,0.977,-17.578,0.000,0
1553805786.109,-852.051,-9.277,-5.371,-489.258,0.000,0
1553805786.113,-873.047,-12.695,0.977,-508.789,0.000,0
1553805786.117,-739.258,-26.855,12.695,-719.727,0.000,0
1553805786.121,-516.602,-24.414,12.207,-895.020,0.000,0
1553805786.125,-153.320,-25.879,15.625,-254.395,0.000,0
1553805786.129,195.312,-24.414,29.297,275.879,0.000,0
1553805786.133,434.570,-14.160,35.645,536.621,0.000,0
1553805786.137,728.027,-24.902,41.016,674.805,0.000,0
1553805786.140,948.242,-3.906,40.039,720.215,0.000,0
1553805786.144,968.262,6.836,43.945,778.320,0.000,0
1553805786.148,962.402,-17.578,60.547,795.410,0.000,0
1553805786.152,969.238,-4.395,52.734,705.566,0.000,0
1553805786.156,967.773,11.230,58.594,604.980,0.000,0
1553805786.160,967.773,8.789,66.406,589.844,0.000,0
1553805786.164,967.773,4.395,53.711,503.418,0.000,0
1553805786.168,967.773,12.207,64.453,319.824,0.000,0
1553805786.172,967.773,23.926,70.312,126.953,0.000,0
1553805786.176,967.773,26.367,65.918,97.168,0.000,0
1553805786.180,967.773,24.414,64.453,163.574,0.000,0
1553805786.183,967.773,30.273,62.988,379.883,0.000,0
1553805786.187,967.773,35.645,60.547,344.238,0.000,0
1553805786.191,967.773,29.785,54.199,245.117,0.000,0
1553805786.195,967.773,22.461,60.547,428.711,0.000,0
1553805786.199,967.773,25.391,64.453,390.625,0.000,0
1553805786.203,967.773,29.297,70.801,231.934,0.000,0
1553805786.207,967.773,30.273,77.148,256.348,0.000,0
1553805786.211,967.773,27.832,73.730,222.168,0.000,0
1553805786.215,967.773,39.551,69.824,274.414,0.000,0
1553805786.219,967.773,42.480,77.148,244.141,0.000,0
1553805786.222,967.773,29.785,85.449,200.684,0.000,0
1553805786.226,967.773,23.438,85.938,136.230,0.000,0
1553805786.230,967.773,24.414,73.730,-35.156,0.000,0
1553805786.234,967.773,25.879,70.312,53.223,0.000,0
1553805786.238,967.773,31.250,70.312,104.004,0.000,0
1553805786.242,967.773,35.156,71.777,107.422,0.000,0
1553805786.246,967.773,29.785,63.477,285.645,0.000,0
1553805786.250,968.262,40.039,51.270,389.160,0.000,0
1553805786.254,967.773,40.039,47.363,270.508,0.000,0
1553805786.258,967.773,22.461,46.875,210.938,0.000,0
1553805786.262,967.773,25.391,56.641,259.766,0.000,0
1553805786.265,968.262,32.227,52.734,361.328,0.000,0
1553805786.269,967.773,33.203,41.016,563.477,0.000,0
1553805786.273,967.773,23.926,36.133,671.875,0.000,0
1553805786.277,967.773,30.273,36.133,627.930,0.000,0
1553805786.281,967.773,47.363,31.738,680.664,0.000,0
1553805786.285,967.773,24.902,32.227,686.035,0.000,0
1553805786.289,967.773,26.367,38.574,897.461,0.000,0
1553805786.293,967.773,39.062,25.391,641.113,0.000,0
1553805786.297,967.773,19.531,20.508,-111.816,0.000,0
1553805786.301,967.773,15.137,23.438,-634.277,0.000,0
1553805786.305,967.773,19.531,18.066,-636.719,0.000,0
1553805786.308,967.773,33.691,9.766,-355.957,0.000,0
1553805786.312,967.773,41.992,9.277,-251.465,0.000,0
1553805786.316,967.773,27.832,12.695,-310.547,0.000,0
1553805786.320,967.773,22.949,8.789,-736.328,0.000,0
1553805786.324,967.773,23.926,7.324,-1000.000,0.000,0
1553805786.328,967.773,18.555,1.953,-912.598,0.000,0
1553805786.332,967.773,19.043,-4.395,-449.219,0.000,0
1553805786.336,967.773,21.973,-4.395,-171.875,0.000,0
1553805786.340,967.773,17.578,-5.371,-205.078,0.000,0
1553805786.344,967.773,10.742,-7.812,-425.293,0.000,0
1553805786.347,967.773,28.809,-10.742,-459.473,0.000,0
1553805786.351,967.773,25.391,3.906,-25.879,0.000,0
1553805786.355,967.773,7.812,-8.301,-8.789,0.000,0
1553805786.359,967.773,-2.930,-19.531,20.996,0.000,0
1553805786.363,967.773,7.812,-9.277,117.676,0.000,0
1553805786.367,967.773,17.090,-10.742,157.227,0.000,0
1553805786.371,967.773,9.766,-8.301,399.902,0.000,0
1553805786.375,967.773,14.648,-17.090,472.168,0.000,0
1553805786.379,967.773,23.926,-23.926,508.301,0.000,0
1553805786.383,967.773,17.090,-16.602,491.211,0.000,0
1553805786.387,967.773,18.066,-23.926,346.680,0.000,0
1553805786.390,967.773,22.461,-32.227,433.594,0.000,0
1553805786.394,967.773,24.902,-13.184,395.020,0.000,0
1553805786.398,967.773,20.508,-11.230,94.727,0.000,0
1553805786.402,967.773,13.672,-19.043,-439.453,0.000,0
1553805786.406,967.773,10.254,-18.066,-976.562,0.000,0
1553805786.410,968.262,21.484,-27.344,-995.117,0.000,0
1553805786.414,968.262,20.508,-20.508,-985.840,0.000,0
1553805786.418,967.773,-1.953,-9.766,-955.078,0.000,0
1553805786.422,967.773,12.207,-17.578,-690.918,0.000,0
1553805786.426,967.773,12.695,-17.578,-353.516,0.000,0
1553805786.430,967.773,12.695,-19.531,-340.332,0.000,0
1553805786.433,967.773,11.719,-19.043,-528.809,0.000,0
1553805786.437,967.773,20.996,-9.277,-811.523,0.000,0
1553805786.441,967.773,25.879,-13.184,-1000.000,0.000,0
1553805786.445,967.773,12.695,-17.578,-855.957,0.000,0
1553805786.449,967.773,7.324,-6.836,-471.680,0.000,0
1553805786.453,967.773,10.254,-5.371,-136.230,0.000,0
1553805786.457,967.773,20.508,-11.230,-139.160,0.000,0
1553805786.461,967.773,22.461,-6.348,-506.348,0.000,0
1553805786.465,967.773,21.484,-3.418,-750.488,0.000,0
1553805786.469,967.773,15.137,-7.324,-767.090,0.000,0
1553805786.472,967.773,16.602,-16.602,-249.023,0.000,0
1553805786.476,967.773,20.508,-18.066,205.078,0.000,0
1553805786.480,967.773,26.367,-1.465,215.820,0.000,0
1553805786.484,967.773,15.625,-1.465,244.629,0.000,0
1553805786.488,967.773,3.418,-6.836,448.242,0.000,0
1553805786.492,967.773,12.207,-3.906,418.457,0.000,0
1553805786.496,967.773,9.766,2.441,258.301,0.000,0
1553805786.500,967.773,11.719,-11.230,23.438,0.000,0
1553805786.504,967.773,10.254,-17.090,-137.207,0.000,0
1553805786.508,967.773,1.953,-7.812,90.820,0.000,0
1553805786.512,967.773,12.207,-15.625,335.938,0.000,0
1553805786.515,967.773,9.277,-19.531,391.113,0.000,0
1553805786.519,967.773,5.371,-14.648,304.688,0.000,0
1553805786.523,967.773,24.414,-7.324,387.207,0.000,0
1553805786.527,967.773,11.719,-5.859,161.133,0.000,0
1553805786.531,967.773,0.977,-13.672,-184.570,0.000,0
1553805786.535,967.773,-4.883,-15.625,-121.094,0.000,0
1553805786.539,967.773,4.395,-11.719,-40.527,0.000,0
1553805786.543,967.773,28.809,-7.324,151.367,0.000,0
1553805786.547,967.773,16.602,-3.418,247.070,0.000,0
1553805786.551,967.773,-9.766,-4.883,79.102,0.000,0
1553805786.555,967.773,-5.371,-6.348,66.406,0.000,0
1553805786.558,967.773,22.949,-15.625,366.211,0.000,0
1553805786.562,967.773,20.996,-13.184,274.902,0.000,0
1553805786.566,967.773,16.113,3.906,-196.777,0.000,0
1553805786.570,967.773,28.809,-1.465,-203.125,0.000,0
1553805786.574,967.773,24.414,-18.066,-80.566,0.000,0
1553805786.578,967.773,-0.977,-9.766,-323.242,0.000,0
1553805786.582,967.773,-6.348,2.930,-236.816,0.000,0
1553805786.586,967.773,9.766,-5.859,39.551,0.000,0
1553805786.590,967.773,12.207,-13.184,-105.469,0.000,0
1553805786.594,967.773,16.602,-13.672,-159.668,0.000,0
1553805786.597,967.773,7.812,-14.648,-103.027,0.000,0
1553805786.601,968.262,14.160,-30.273,147.949,0.000,0
1553805786.605,967.773,5.859,-34.180,354.492,0.000,0
1553805786.609,967.773,-8.789,-1.465,366.699,0.000,0
1553805786.613,967.773,-3.418,15.137,338.867,0.000,0
1553805786.617,967.773,-4.395,-3.418,357.910,0.000,0
1553805786.621,967.773,-5.859,-3.906,276.367,0.000,0
1553805786.625,967.773,1.465,15.137,153.320,0.000,0
1553805786.629,967.773,-23.926,21.973,297.363,0.000,0
1553805786.633,967.773,-32.715,9.766,33.203,0.000,0
1553805786.637,967.773,-24.902,4.395,-339.355,0.000,0
1553805786.640,967.773,-27.832,20.508,-545.410,0.000,0
1553805786.644,967.773,-26.367,29.297,-956.543,0.000,0
1553805786.648,968.262,-45.410,25.879,-997.559,0.000,0
1553805786.652,966.309,-40.039,19.531,-1000.000,0.000,0
1553805786.656,968.262,-38.574,21.484,-750.977,0.000,0
1553805786.660,963.867,-65.918,34.668,-208.984,0.000,0
1553805786.664,912.109,-67.383,37.598,56.641,0.000,0
1553805786.668,876.465,-48.828,39.062,103.027,0.000,0
1553805786.672,882.812,-74.707,56.641,201.172,0.000,0
1553805786.676,891.113,-78.125,48.340,128.418,0.000,0
1553805786.680,898.438,-57.129,40.527,51.758,0.000,0
1553805786.683,908.203,-61.523,62.500,104.004,0.000,0
1553805786.687,877.441,-73.242,67.383,-331.543,0.000,0
1553805786.691,870.117,-83.984,59.082,-809.082,0.000,0
1553805786.695,870.605,-81.543,62.988,-770.508,0.000,0
1553805786.699,889.160,-81.543,70.312,-629.395,0.000,0
1553805786.703,894.043,-80.566,74.707,-815.430,0.000,0
1553805786.707,869.629,-82.520,70.801,-791.992,0.000,0
1553805786.711,897.461,-93.262,71.289,-501.953,0.000,0
1553805786.715,869.629,-78.613,78.125,-278.809,0.000,0
1553805786.719,890.137,-78.613,74.707,13.184,0.000,0
1553805786.722,941.406,-93.750,72.266,-7.324,0.000,0
1553805786.726,971.191,-68.359,76.660,-63.965,0.000,0
1553805786.730,920.898,-83.496,80.566,-190.918,0.000,0
1553805786.734,890.625,-109.375,80.078,-465.820,0.000,0
1553805786.738,947.266,-83.984,71.777,-680.176,0.000,0
1553805786.742,969.727,-69.824,73.242,-1000.000,0.000,0
1553805786.746,966.797,-76.660,80.566,-870.117,0.000,0
1553805786.750,967.285,-82.520,78.125,-476.562,0.000,0
1553805786.754,938.477,-92.773,74.707,-727.051,0.000,0
1553805786.758,946.777,-94.238,76.172,-890.137,0.000,0
1553805786.762,972.168,-76.172,76.172,-374.512,0.000,0
1553805786.765,966.797,-69.824,72.754,-414.551,0.000,0
1553805786.769,967.773,-71.777,66.406,-584.473,0.000,0
1553805786.773,967.773,-86.426,59.570,-428.711,0.000,0
1553805786.777,967.773,-91.797,53.711,-442.871,0.000,0
1553805786.781,967.773,-73.730,52.246,-466.797,0.000,0
1553805786.785,967.773,-79.102,45.898,-683.594,0.000,0
1553805786.789,967.773,-102.051,52.246,-513.184,0.000,0
1553805786.793,967.773,-86.426,40.039,-135.742,0.000,0
1553805786.797,967.773,-62.012,21.973,124.023,0.000,0
1553805786.801,967.773,-58.594,35.156,84.961,0.000,0
1553805786.805,967.773,-68.848,30.273,62.988,0.000,0
1553805786.808,967.773,-70.312,20.508,391.113,0.000,0
1553805786.812,967.773,-62.012,18.555,407.227,0.000,0
1553805786.816,967.773,-57.617,12.207,563.965,0.000,0
1553805786.820,967.773,-49.316,7.812,837.402,0.000,0
1553805786.824,967.773,-58.105,5.371,570.312,0.000,0
1553805786.828,967.773,-52.734,0.977,-212.402,0.000,0
1553805786.832,967.773,-32.715,-12.695,-889.648,0.000,0
1553805786.836,967.773,-25.391,-20.996,-961.426,0.000,0
1553805786.840,967.773,-34.668,-36.621,-933.594,0.000,0
1553805786.844,968.262,-41.016,-39.062,-991.211,0.000,0
1553805786.847,968.262,-28.320,-20.996,-1000.000,0.000,0
1553805786.851,967.773,-29.297,-21.973,-890.625,0.000,0
1553805786.855,967.773,-28.809,-25.391,-506.836,0.000,0
1553805786.859,967.773,-16.113,-28.320,-167.969,0.000,0
1553805786.863,967.773,-33.691,-29.785,224.609,0.000,0
1553805786.867,967.773,-39.551,-34.668,495.117,0.000,0
1553805786.871,967.773,-10.742,-53.711,193.359,0.000,0
1553805786.875,967.773,-6.836,-48.828,-320.801,0.000,0
1553805786.879,967.773,-20.020,-28.809,-583.008,0.000,0
1553805786.883,967.773,-29.297,-24.902,-832.031,0.000,0
1553805786.887,967.773,-23.438,-24.902,-785.645,0.000,0
1553805786.890,967.773,-20.996,-27.344,-663.574,0.000,0
1553805786.894,967.773,-29.297,-30.762,-680.664,0.000,0
1553805786.898,967.773,-23.926,-29.297,-492.188,0.000,0
1553805786.902,967.773,-25.879,-27.344,-5.859,0.000,0
1553805786.906,967.773,-20.508,-32.227,-76.660,0.000,0
1553805786.910,967.773,-10.254,-34.180,-521.484,0.000,0
1553805786.914,967.773,-7.812,-45.410,-610.840,0.000,0
1553805786.918,967.773,-13.672,-33.691,-458.984,0.000,0
1553805786.922,967.773,-15.137,-17.578,-316.895,0.000,0
1553805786.926,967.773,-11.230,-28.809,-783.203,0.000,0
1553805786.930,968.262,-10.742,-31.738,-998.047,0.000,0
1553805786.933,967.773,-18.555,-28.320,-915.527,0.000,0
1553805786.937,967.773,-0.488,-33.203,-986.328,0.000,0
1553805786.941,967.773,-3.418,-45.898,-1000.000,0.000,0
1553805786.945,967.773,-15.137,-44.922,-925.781,0.000,0
1553805786.949,967.773,-2.441,-28.320,-925.781,0.000,0
1553805786.953,967.773,-10.742,-17.578,-991.211,0.000,0
1553805786.957,967.773,-0.488,-27.832,-1000.000,0.000,0
1553805786.961,968.262,1.465,-26.855,-864.258,0.000,0
1553805786.965,966.797,-24.902,-27.344,-833.496,0.000,0
1553805786.969,966.797,-14.160,-30.762,-915.527,0.000,0
1553805786.972,968.262,0.000,-29.785,-518.066,0.000,0
1553805786.976,967.285,-8.301,-37.598,-199.219,0.000,0
1553805786.980,968.262,-12.207,-31.738,-29.785,0.000,0
1553805786.984,967.773,-22.949,-15.137,41.992,0.000,0
1553805786.988,958.008,-10.254,-16.113,72.754,0.000,0
1553805786.992,966.309,-12.207,-24.414,120.117,0.000,0
1553805786.996,966.797,-27.344,-30.273,157.227,0.000,0
1553805787.000,923.340,-13.184,-35.156,91.797,0.000,0
1553805787.004,931.641,-17.090,-26.367,-113.281,0.000,0
1553805787.008,967.285,-21.484,-21.973,100.098,0.000,0
1553805787.012,968.750,-2.441,-28.320,518.555,0.000,0
1553805787.015,953.613,-5.859,-24.414,530.273,0.000,0
1553805787.019,904.297,-7.324,-30.273,529.785,0.000,0
1553805787.023,860.352,-3.906,-41.504,699.219,0.000,0
1553805787.027,836.914,-13.672,-35.156,539.062,0.000,0
1553805787.031,861.816,-9.277,-26.855,191.895,0.000,0
1553805787.035,882.324,-2.930,-28.320,292.480,0.000,0
1553805787.039,867.188,-8.789,-29.785,418.457,0.000,0
1553805787.043,841.797,-22.949,-31.250,429.199,0.000,0
1553805787.047,873.535,-8.789,-41.016,544.922,0.000,0
1553805787.051,878.418,-2.441,-50.781,751.465,0.000,0
1553805787.055,880.371,-12.695,-49.316,191.895,0.000,0
1553805787.058,874.023,-6.836,-35.156,-196.289,0.000,0
1553805787.062,847.656,-14.160,-20.020,388.672,0.000,0
1553805787.066,889.160,-17.090,-27.832,591.309,0.000,0
1553805787.070,905.273,-11.230,-35.156,799.316,0.000,0
1553805787.074,921.875,-6.348,-33.203,958.008,0.000,0
1553805787.078,912.109,2.441,-39.062,679.199,0.000,0
1553805787.082,883.301,-7.812,-36.621,668.945,0.000,0
1553805787.086,887.207,-14.160,-35.156,806.152,0.000,0
1553805787.090,886.230,-14.160,-30.273,833.008,0.000,0
1553805787.094,907.715,-25.391,-26.367,859.375,0.000,0
1553805787.097,881.836,-6.348,-42.480,922.852,0.000,0
1553805787.101,862.305,0.977,-33.203,933.594,0.000,0
1553805787.105,910.156,-23.438,-16.113,804.199,0.000,0
1553805787.109,936.035,-29.785,-19.531,850.098,0.000,0
1553805787.113,881.836,-25.879,-37.598,976.562,0.000,0
1553805787.117,844.727,-11.230,-48.828,815.918,0.000,0
1553805787.121,878.906,-8.789,-44.922,735.352,0.000,0
1553805787.125,876.465,-21.484,-35.645,907.715,0.000,0
1553805787.129,856.445,-11.719,-29.785,996.582,0.000,0
1553805787.133,873.535,-2.930,-35.645,895.020,0.000,0
1553805787.137,930.664,-11.719,-36.621,853.027,0.000,0
1553805787.140,946.289,-20.020,-28.809,958.496,0.000,0
1553805787.144,870.605,-18.555,-35.645,959.473,0.000,0
1553805787.148,815.918,-16.602,-44.434,982.422,0.000,0
1553805787.152,870.605,-4.395,-41.016,875.000,0.000,0
1553805787.156,907.227,-9.766,-31.738,601.562,0.000,0
1553805787.160,885.742,-13.672,-26.367,483.887,0.000,0
1553805787.164,924.805,0.488,-36.621,454.102,0.000,0
1553805787.168,902.832,-9.277,-42.480,566.406,0.000,0
1553805787.172,843.262,-21.484,-44.434,835.938,0.000,0
1553805787.176,858.887,-29.297,-38.574,897.949,0.000,0
1553805787.180,877.930,-30.273,-31.250,583.496,0.000,0
1553805787.183,899.902,-18.066,-41.016,386.719,0.000,0
1553805787.187,888.672,-17.090,-34.668,577.148,0.000,0
1553805787.191,877.441,-16.602,-27.832,502.441,0.000,0
1553805787.195,892.578,-21.973,-34.668,164.551,0.000,0
1553805787.199,830.566,-29.297,-30.273,207.031,0.000,0
1553805787.203,887.695,-24.902,-27.832,504.883,0.000,0
1553805787.207,906.250,-15.625,-25.879,527.832,0.000,0
1553805787.211,857.910,-9.766,-23.926,353.516,0.000,0
1553805787.215,870.605,-20.996,-24.414,471.191,0.000,0
1553805787.219,894.531,-37.109,-23.438,653.809,0.000,0
1553805787.222,857.910,-10.742,-32.715,458.008,0.000,0
1553805787.226,863.281,-0.977,-34.180,168.457,0.000,0
1553805787.230,875.000,-20.996,-31.250,-48.828,0.000,0
1553805787.234,817.871,-26.855,-29.297,-524.902,0.000,0
1553805787.238,855.469,-11.719,-26.367,-538.086,0.000,0
1553805787.242,867.676,-10.742,-34.180,-10.742,0.000,0
1553805787.246,863.770,-24.414,-37.109,387.207,0.000,0
1553805787.250,838.867,-30.273,-38.086,360.840,0.000,0
1553805787.254,858.398,-22.461,-34.668,258.789,0.000,0
1553805787.258,903.320,-20.020,-18.066,380.371,0.000,0
1553805787.262,849.121,-21.973,-20.020,410.645,0.000,0
1553805787.265,846.680,-26.367,-28.320,451.172,0.000,0
1553805787.269,870.117,-20.996,-29.785,666.016,0.000,0
1553805787.273,849.121,-13.184,-32.715,768.066,0.000,0
1553805787.277,810.547,-26.367,-26.367,547.363,0.000,0
1553805787.281,817.383,-26.367,-21.484,168.457,0.000,0
1553805787.285,848.633,-22.461,-29.785,35.645,0.000,0
1553805787.289,853.516,-24.414,-32.715,142.578,0.000,0
1553805787.293,829.102,-20.020,-30.273,279.297,0.000,0
1553805787.297,804.688,-24.414,-24.902,170.410,0.000,0
1553805787.301,853.516,-31.250,-19.043,-462.891,0.000,0
1553805787.305,867.676,-23.438,-20.996,-550.781,0.000,0
1553805787.308,848.145,-15.137,-25.879,-175.293,0.000,0
1553805787.312,821.289,-27.832,-37.109,-50.293,0.000,0
1553805787.316,808.105,-19.531,-36.133,-429.688,0.000,0
1553805787.320,781.738,-26.367,-22.949,-983.887,0.000,0
1553805787.324,761.719,-40.039,-20.020,-994.141,0.000,0
1553805787.328,818.359,-24.902,-21.484,-1000.000,0.000,0
1553805787.332,836.914,-19.043,-20.996,-971.191,0.000,0
1553805787.336,816.895,-35.645,-16.602,-861.328,0.000,0
1553805787.340,849.121,-27.344,-19.043,-976.562,0.000,0
1553805787.344,810.059,-21.973,-24.902,-998.047,0.000,0
1553805787.347,822.754,-28.809,-26.367,-1000.000,0.000,0
1553805787.351,856.445,-25.391,-22.461,-866.211,0.000,0
1553805787.355,778.809,-33.691,3.418,-428.711,0.000,0
1553805787.359,771.484,-36.621,8.789,-393.066,0.000,0
1553805787.363,803.223,-35.156,-9.766,-327.148,0.000,0
1553805787.367,782.715,-46.875,-11.719,-460.449,0.000,0
1553805787.371,778.320,-37.109,-5.371,-322.266,0.000,0
1553805787.375,824.707,-27.832,1.953,-114.258,0.000,0
1553805787.379,833.008,-39.062,2.441,-750.977,0.000,0
1553805787.383,789.551,-44.434,-2.930,-884.766,0.000,0
1553805787.387,751.953,-38.086,-12.695,-759.766,0.000,0
1553805787.390,757.812,-39.551,-14.160,-841.309,0.000,0
1553805787.394,805.176,-49.805,-15.137,-354.004,0.000,0
1553805787.398,784.668,-54.688,-9.277,8.301,0.000,0
1553805787.402,804.199,-47.852,-4.883,-572.754,0.000,0
1553805787.406,797.852,-32.227,-15.625,-644.043,0.000,0
1553805787.410,784.668,-29.785,-25.879,-752.441,0.000,0
1553805787.414,753.906,-41.992,-20.996,-998.047,0.000,0
1553805787.418,738.281,-36.621,-20.996,-800.293,0.000,0
1553805787.422,758.301,-27.832,-26.367,-709.473,0.000,0
1553805787.426,752.930,-37.109,-14.160,-881.348,0.000,0
1553805787.430,784.180,-47.852,-10.742,-1000.000,0.000,0
1553805787.433,792.969,-45.898,-20.020,-982.910,0.000,0
1553805787.437,727.539,-41.016,-18.066,-677.734,0.000,0
1553805787.441,720.703,-38.086,-20.020,104.492,0.000,0
1553805787.445,788.574,-32.227,-23.926,730.957,0.000,0
1553805787.449,762.207,-32.227,-23.926,692.383,0.000,0
1553805787.453,720.703,-36.133,-20.508,758.789,0.000,0
1553805787.457,726.074,-37.598,-19.531,988.281,0.000,0
1553805787.461,756.836,-27.344,-11.719,906.250,0.000,0
1553805787.465,790.527,-20.996,-6.348,912.109,0.000,0
1553805787.469,769.043,-19.531,-20.508,971.680,0.000,0
1553805787.472,715.820,-26.855,-24.902,968.750,0.000,0
1553805787.476,747.070,-29.297,-23.438,966.309,0.000,0
1553805787.480,813.477,-39.062,-24.414,968.750,0.000,0
1553805787.484,782.227,-42.480,-14.648,969.238,0.000,0
1553805787.488,700.195,-30.273,-19.043,962.402,0.000,0
1553805787.492,699.219,-33.691,-32.227,968.750,0.000,0
1553805787.496,731.934,-39.062,-29.297,940.430,0.000,0
1553805787.500,722.168,-34.668,-21.484,714.355,0.000,0
1553805787.504,721.680,-41.992,-25.879,444.336,0.000,0
1553805787.508,758.301,-39.062,-27.832,692.871,0.000,0
1553805787.512,765.625,-26.367,-23.926,979.004,0.000,0
1553805787.515,729.004,-16.602,-20.996,481.934,0.000,0
1553805787.519,728.027,-32.227,-13.184,201.660,0.000,0
1553805787.523,750.977,-52.734,-14.648,348.633,0.000,0
1553805787.527,724.121,-36.133,-19.531,10.254,0.000,0
1553805787.531,719.238,-38.574,-24.414,112.793,0.000,0
1553805787.535,721.680,-42.969,-24.902,430.664,0.000,0
1553805787.539,750.488,-36.133,-20.020,237.305,0.000,0
1553805787.543,715.820,-33.691,-27.832,361.816,0.000,0
1553805787.547,704.590,-31.250,-31.250,205.078,0.000,0
1553805787.551,731.445,-42.480,-28.809,-145.020,0.000,0
1553805787.555,734.863,-42.480,-35.156,68.359,0.000,0
1553805787.558,757.812,-39.551,-31.738,171.875,0.000,0
1553805787.562,718.262,-46.875,-27.344,302.734,0.000,0
1553805787.566,715.332,-40.039,-28.809,138.672,0.000,0
1553805787.570,713.867,-33.203,-31.250,115.234,0.000,0
1553805787.574,693.359,-32.227,-41.504,455.566,0.000,0
1553805787.578,734.863,-31.738,-37.598,507.812,0.000,0
1553805787.582,741.699,-27.344,-20.996,541.992,0.000,0
1553805787.586,690.430,-43.457,-10.254,189.453,0.000,0
1553805787.590,710.938,-44.922,-13.672,-124.023,0.000,0
1553805787.594,751.953,-34.180,-30.762,54.199,0.000,0
1553805787.597,661.133,-28.809,-39.551,363.281,0.000,0
1553805787.601,656.250,-31.738,-30.762,699.219,0.000,0
1553805787.605,693.848,-43.945,-19.531,744.141,0.000,0
1553805787.609,704.590,-36.133,-20.508,561.035,0.000,0
1553805787.613,683.105,-28.809,-24.902,677.734,0.000,0
1553805787.617,685.059,-27.832,-26.855,854.980,0.000,0
1553805787.621,696.289,-29.297,-26.367,654.785,0.000,0
1553805787.625,677.734,-26.855,-25.879,190.918,0.000,0
1553805787.629,645.996,-29.297,-20.508,-143.066,0.000,0
1553805787.633,660.645,-31.738,-17.578,-41.504,0.000,0
1553805787.637,693.359,-26.367,-29.297,56.641,0.000,0
1553805787.640,684.570,-36.133,-24.902,151.855,0.000,0
1553805787.644,684.082,-46.875,-13.672,-334.961,0.000,0
1553805787.648,645.508,-43.457,-31.250,-852.539,0.000,0
1553805787.652,636.719,-40.039,-38.086,-763.672,0.000,0
1553805787.656,687.988,-54.688,-23.438,-778.809,0.000,0
1553805787.660,705.566,-42.969,-18.066,-355.957,0.000,0
1553805787.664,658.691,-20.996,-22.949,180.176,0.000,0
1553805787.668,672.363,-24.414,-21.973,413.574,0.000,0
1553805787.672,659.668,-36.621,-21.973,618.164,0.000,0
1553805787.676,658.203,-32.715,-29.297,610.352,0.000,0
1553805787.680,665.527,-38.086,-12.695,479.004,0.000,0
1553805787.683,613.770,-50.781,-2.930,270.996,0.000,0
1553805787.687,604.004,-37.109,-23.438,-178.223,0.000,0
1553805787.691,626.953,-35.645,-25.879,103.027,0.000,0
1553805787.695,625.977,-37.598,-24.902,512.695,0.000,0
1553805787.699,661.621,-25.391,-27.832,590.332,0.000,0
1553805787.703,667.480,-39.062,-23.438,459.473,0.000,0
1553805787.707,648.926,-39.062,-25.391,257.324,0.000,0
1553805787.711,639.648,-38.574,-19.531,301.270,0.000,0
1553805787.715,619.141,-38.086,-21.484,425.293,0.000,0
1553805787.719,659.180,-32.715,-22.949,638.184,0.000,0
1553805787.722,689.941,-39.062,-12.207,421.387,0.000,0
1553805787.726,660.156,-27.832,-20.508,33.691,0.000,0
1553805787.730,657.715,-27.344,-28.809,347.656,0.000,0
1553805787.734,655.762,-26.367,-26.367,720.215,0.000,0
1553805787.738,656.250,-39.551,-20.508,604.492,0.000,0
1553805787.742,653.809,-43.945,-20.996,603.516,0.000,0
1553805787.746,678.223,-29.785,-24.902,655.273,0.000,0
1553805787.750,682.129,-24.902,-20.020,107.910,0.000,0
1553805787.754,685.059,-27.832,-23.926,-279.785,0.000,0
1553805787.758,710.938,-42.969,-18.555,-16.602,0.000,0
1553805787.762,674.805,-38.086,-6.348,309.082,0.000,0
1553805787.765,670.898,-29.297,-13.672,759.277,0.000,0
1553805787.769,676.758,-34.668,-19.043,946.777,0.000,0
1553805787.773,628.906,-35.156,-23.438,944.336,0.000,0
1553805787.777,622.559,-37.109,-24.414,887.207,0.000,0
1553805787.781,689.453,-30.762,-33.691,534.668,0.000,0
1553805787.785,689.941,-11.719,-32.227,496.582,0.000,0
1553805787.789,657.227,-16.602,-28.320,573.730,0.000,0
1553805787.793,645.020,-31.250,-34.668,618.652,0.000,0
1553805787.797,605.469,-31.738,-35.156,-166.504,0.000,0
1553805787.801,630.371,-29.297,-39.551,-1000.000,0.000,0
1553805787.805,644.531,-24.902,-44.434,-876.953,0.000,0
1553805787.808,651.367,-12.695,-36.133,-485.352,0.000,0
1553805787.812,657.715,-18.555,-32.227,14.648,0.000,0
1553805787.816,619.141,-20.996,-31.738,234.863,0.000,0
1553805787.820,629.395,-21.973,-28.320,129.395,0.000,0
1553805787.824,691.895,-23.926,-23.438,6.348,0.000,0
1553805787.828,671.387,-26.367,-28.809,42.969,0.000,0
1553805787.832,627.930,-20.996,-36.133,217.773,0.000,0
1553805787.836,654.297,-19.043,-28.809,435.547,0.000,0
1553805787.840,621.582,-28.320,-23.926,772.949,0.000,0
1553805787.844,620.117,-28.320,-28.809,942.871,0.000,0
1553805787.847,685.059,-33.691,-23.438,966.309,0.000,0
1553805787.851,691.406,-26.367,-20.020,959.961,0.000,0
1553805787.855,673.340,-21.484,-22.949,953.125,0.000,0
1553805787.859,631.348,-37.109,-17.090,-981.934,0.000,0
1553805787.863,625.488,-37.109,-20.996,525.391,0.000,0
1553805787.867,635.742,-26.855,-20.508,267.578,0.000,0
1553805787.871,639.160,-20.996,-18.066,700.195,0.000,0
1553805787.875,660.645,-23.926,-14.160,635.254,0.000,0
1553805787.879,679.199,-38.574,-8.301,268.066,0.000,0
1553805787.883,656.738,-32.715,-15.137,257.324,0.000,0
1553805787.887,634.277,-31.738,-15.137,-152.832,0.000,0
1553805787.890,659.668,-23.438,-18.555,-757.324,0.000,0
1553805787.894,656.250,-20.020,-26.367,-318.848,0.000,0
1553805787.898,641.602,-41.016,-13.184,-5.371,0.000,0
1553805787.902,635.254,-34.668,-6.348,-416.992,0.000,0
1553805787.906,677.246,-24.902,-18.066,-838.379,0.000,0
1553805787.910,709.473,-24.902,-28.320,-790.527,0.000,0
1553805787.914,642.090,-21.973,-29.297,-605.469,0.000,0
1553805787.918,623.535,-42.969,-21.973,-610.840,0.000,0
1553805787.922,679.688,-37.109,-19.531,-854.980,0.000,0
1553805787.926,628.906,-33.203,-21.973,-1000.000,0.000,0
1553805787.930,639.160,-35.156,-20.996,-1000.000,0.000,0
1553805787.933,691.895,-13.672,-24.414,-848.145,0.000,0
1553805787.937,653.320,-12.695,-26.855,-460.938,0.000,0
1553805787.941,666.992,-22.949,-26.855,-137.207,0.000,0
1553805787.945,702.148,-30.273,-22.949,50.293,0.000,0
1553805787.949,673.828,-41.504,-18.066,-318.359,0.000,0
1553805787.953,639.160,-36.621,-21.973,-553.223,0.000,0
1553805787.957,650.391,-12.207,-29.297,-129.883,0.000,0
1553805787.961,667.480,-21.973,-26.367,-445.801,0.000,0
1553805787.965,670.410,-37.109,-15.625,-1000.000,0.000,0
1553805787.969,674.316,-20.508,-14.160,-1000.000,0.000,0
1553805787.972,677.734,-26.367,-8.301,-746.582,0.000,0
1553805787.976,684.082,-30.762,-6.348,-94.238,0.000,0
1553805787.980,687.500,-27.344,-20.996,298.828,0.000,0
1553805787.984,688.965,-19.043,-29.297,248.535,0.000,0
1553805787.988,671.387,-32.227,-23.926,359.863,0.000,0
1553805787.992,685.059,-34.180,-23.438,665.527,0.000,0
1553805787.996,687.500,-33.203,-21.973,592.773,0.000,0
1553805788.000,676.270,-37.109,-16.113,500.488,0.000,0
1553805788.004,708.984,-26.855,-16.602,578.613,0.000,0
1553805788.008,695.801,-35.645,-20.020,790.527,0.000,0
1553805788.012,665.527,-37.109,-18.555,964.844,0.000,0
1553805788.015,676.758,-23.926,-17.578,949.707,0.000,0
1553805788.019,670.898,-37.598,-11.719,610.840,0.000,0
1553805788.023,673.340,-50.781,-7.324,535.156,0.000,0
1553805788.027,651.855,-41.992,-13.184,882.812,0.000,0
1553805788.031,664.551,-44.434,-16.113,951.660,0.000,0
1553805788.035,711.426,-30.273,-16.602,606.445,0.000,0
1553805788.039,681.641,-18.066,-15.137,179.199,0.000,0
1553805788.043,656.738,-46.387,-14.648,95.703,0.000,0
1553805788.047,632.324,-43.457,-20.508,400.879,0.000,0
1553805788.051,625.000,-34.668,-16.602,473.145,0.000,0
1553805788.055,681.152,-48.828,-15.137,208.496,0.000,0
1553805788.058,682.129,-33.691,-21.973,259.277,0.000,0
1553805788.062,673.828,-39.551,-17.578,642.578,0.000,0
1553805788.066,661.621,-41.016,-18.066,703.613,0.000,0
1553805788.070,643.555,-29.785,-20.020,616.211,0.000,0
1553805788.074,646.484,-40.527,-18.066,796.387,0.000,0
1553805788.078,660.645,-46.875,-19.531,837.402,0.000,0
1553805788.082,662.109,-32.715,-18.555,731.445,0.000,0
1553805788.086,648.438,-26.367,-12.695,800.293,0.000,0
1553805788.090,692.871,-37.109,-15.137,902.344,0.000,0
1553805788.094,692.383,-44.922,-18.555,706.055,0.000,0
1553805788.097,670.410,-29.297,-20.996,362.305,0.000,0
1553805788.101,655.273,-37.598,-20.508,225.098,0.000,0
1553805788.105,666.992,-45.898,-26.855,350.098,0.000,0
1553805788.109,660.156,-33.203,-26.367,522.949,0.000,0
1553805788.113,661.133,-34.180,-20.508,536.133,0.000,0
1553805788.117,698.730,-38.086,-22.949,534.668,0.000,0
1553805788.121,684.082,-37.109,-18.066,582.031,0.000,0
1553805788.125,667.480,-37.598,-14.160,659.180,0.000,0
1553805788.129,695.312,-43.457,-15.137,729.980,0.000,0
1553805788.133,669.434,-45.898,-29.297,585.938,0.000,0
1553805788.137,649.414,-35.156,-36.133,332.031,0.000,0
1553805788.140,656.738,-46.875,-27.832,334.961,0.000,0
1553805788.144,635.742,-49.316,-25.879,228.027,0.000,0
1553805788.148,679.688,-32.227,-24.414,41.016,0.000,0
1553805788.152,692.383,-44.434,-23.438,289.551,0.000,0
1553805788.156,698.242,-44.434,-24.902,458.984,0.000,0
1553805788.160,713.379,-32.715,-31.250,579.102,0.000,0
1553805788.164,660.645,-32.715,-32.227,695.801,0.000,0
1553805788.168,672.852,-41.504,-25.879,720.703,0.000,0
1553805788.172,710.938,-38.086,-20.508,822.266,0.000,0
1553805788.176,690.430,-39.551,-27.344,800.781,0.000,0
1553805788.180,683.105,-50.781,-29.297,877.930,0.000,0
1553805788.183,659.180,-40.527,-28.320,588.867,0.000,0
1553805788.187,654.297,-44.434,-29.297,-19.531,0.000,0
1553805788.191,685.059,-51.270,-23.438,-403.809,0.000,0
1553805788.195,688.965,-35.156,-26.367,-450.195,0.000,0
1553805788.199,692.383,-39.062,-30.762,-129.883,0.000,0
1553805788.203,677.246,-41.016,-34.668,31.250,0.000,0
1553805788.207,670.898,-38.086,-34.668,224.121,0.000,0
1553805788.211,681.641,-43.457,-34.180,401.855,0.000,0
1553805788.215,685.059,-47.363,-29.785,127.441,0.000,0
1553805788.219,679.199,-44.922,-25.879,85.938,0.000,0
1553805788.222,688.965,-48.340,-26.367,330.078,0.000,0
1553805788.226,709.473,-48.828,-26.855,470.215,0.000,0
1553805788.230,662.598,-41.992,-35.156,663.574,0.000,0
1553805788.234,611.328,-51.758,-35.645,827.637,0.000,0
1553805788.238,661.621,-51.270,-36.621,949.707,0.000,0
1553805788.242,678.711,-44.434,-47.852,889.648,0.000,0
1553805788.246,633.789,-49.805,-47.852,643.555,0.000,0
1553805788.250,665.039,-49.316,-51.270,473.145,0.000,0
1553805788.254,678.711,-48.340,-48.340,489.258,0.000,0
1553805788.258,656.738,-48.828,-38.574,626.465,0.000,0
1553805788.262,661.133,-62.500,-39.062,701.660,0.000,0
1553805788.265,656.250,-56.641,-37.598,750.000,0.000,0
1553805788.269,641.602,-44.922,-33.691,770.996,0.000,0
1553805788.273,645.996,-63.477,-30.762,461.914,0.000,0
1553805788.277,646.973,-60.059,-30.273,261.230,0.000,0
1553805788.281,622.070,-49.805,-33.203,479.492,0.000,0
1553805788.285,651.855,-49.805,-39.551,192.383,0.000,0
1553805788.289,658.691,-41.016,-41.504,-200.195,0.000,0
1553805788.293,654.297,-34.668,-33.203,-61.523,0.000,0
1553805788.297,674.316,-36.621,-26.367,235.352,0.000,0
1553805788.301,634.277,-42.969,-30.273,103.516,0.000,0
1553805788.305,602.539,-46.875,-36.133,22.461,0.000,0
1553805788.308,624.512,-51.758,-40.527,31.250,0.000,0
1553805788.312,605.957,-55.664,-39.062,209.473,0.000,0
1553805788.316,602.539,-44.434,-39.062,442.383,0.000,0
1553805788.320,603.516,-38.086,-40.039,396.973,0.000,0
1553805788.324,620.117,-45.410,-34.668,448.242,0.000,0
1553805788.328,583.984,-57.129,-29.785,315.918,0.000,0
1553805788.332,585.449,-58.105,-34.180,-0.488,0.000,0
1553805788.336,634.277,-62.012,-37.598,-17.090,0.000,0
1553805788.340,631.348,-60.059,-38.086,89.355,0.000,0
1553805788.344,604.492,-42.969,-47.363,242.188,0.000,0
1553805788.347,576.660,-35.156,-54.199,172.363,0.000,0
1553805788.351,569.824,-47.363,-51.758,-10.254,0.000,0
1553805788.355,551.758,-69.824,-50.293,223.145,0.000,0
1553805788.359,548.828,-65.918,-42.969,336.426,0.000,0
1553805788.363,563.965,-63.965,-45.410,-56.641,0.000,0
1553805788.367,621.094,-64.453,-56.152,-255.371,0.000,0
1553805788.371,620.605,-36.621,-55.664,-9.277,0.000,0
1553805788.375,568.359,-44.922,-48.828,152.344,0.000,0
1553805788.379,592.773,-67.383,-40.527,381.836,0.000,0
1553805788.383,588.867,-59.082,-39.062,259.277,0.000,0
1553805788.387,558.594,-57.129,-38.574,-383.301,0.000,0
1553805788.390,603.027,-57.129,-44.434,-468.750,0.000,0
1553805788.394,597.656,-40.039,-49.316,-523.926,0.000,0
1553805788.398,544.922,-42.480,-39.062,-470.215,0.000,0
1553805788.402,554.199,-46.387,-42.969,-79.102,0.000,0
1553805788.406,579.102,-49.805,-42.969,-47.363,0.000,0
1553805788.410,578.613,-51.758,-26.855,-224.121,0.000,0
1553805788.414,552.246,-44.922,-30.762,-369.141,0.000,0
1553805788.418,565.430,-43.457,-47.363,-727.539,0.000,0
1553805788.422,599.121,-44.922,-49.316,-1000.000,0.000,0
1553805788.426,595.703,-41.504,-44.922,-970.703,0.000,0
1553805788.430,565.918,-42.969,-39.062,-960.938,0.000,0
1553805788.433,538.574,-47.852,-33.691,-992.676,0.000,0
1553805788.437,573.242,-42.969,-36.133,-920.410,0.000,0
1553805788.441,585.938,-47.363,-41.992,-625.977,0.000,0
1553805788.445,581.055,-45.410,-50.293,-159.668,0.000,0
1553805788.449,580.078,-38.086,-54.199,76.172,0.000,0
1553805788.453,573.730,-45.410,-47.852,151.367,0.000,0
1553805788.457,572.266,-60.059,-35.645,254.395,0.000,0
1553805788.461,579.590,-58.594,-34.180,348.633,0.000,0
1553805788.465,587.402,-51.758,-39.551,-40.039,0.000,0
1553805788.469,583.984,-49.805,-39.551,-216.797,0.000,0
1553805788.472,597.168,-39.551,-47.852,276.855,0.000,0
1553805788.476,592.285,-40.039,-46.387,269.043,0.000,0
1553805788.480,619.141,-51.758,-48.340,15.625,0.000,0
1553805788.484,617.676,-40.527,-58.105,292.969,0.000,0
1553805788.488,580.078,-20.508,-53.223,549.316,0.000,0
1553805788.492,608.887,-20.996,-53.223,419.434,0.000,0
1553805788.496,641.113,-2.930,-67.871,347.168,0.000,0
1553805788.500,615.234,13.672,-79.590,245.117,0.000,0
1553805788.504,580.078,5.371,-84.961,370.605,0.000,0
1553805788.508,600.098,-4.883,-92.285,489.258,0.000,0
1553805788.512,612.305,5.859,-96.680,277.344,0.000,0
1553805788.515,639.160,3.418,-97.168,149.414,0.000,0
1553805788.519,662.598,11.230,-93.262,152.344,0.000,0
1553805788.523,638.672,19.043,-98.633,184.082,0.000,0
1553805788.527,634.766,9.766,-104.980,250.977,0.000,0
1553805788.531,635.742,14.648,-103.516,279.297,0.000,0
1553805788.535,626.465,29.785,-101.074,-151.367,0.000,0
1553805788.539,631.836,39.062,-95.215,-202.637,0.000,0
1553805788.543,641.113,26.855,-79.590,-28.320,0.000,0
1553805788.547,668.945,2.930,-69.336,-166.992,0.000,0
1553805788.551,657.715,-9.277,-72.266,41.992,0.000,0
1553805788.555,673.828,-2.930,-75.195,272.461,0.000,0
1553805788.558,642.090,-6.348,-75.195,250.000,0.000,0
1553805788.562,576.660,-15.625,-69.824,30.762,0.000,0
1553805788.566,606.445,-10.254,-66.895,-116.699,0.000,0
1553805788.570,633.301,-14.648,-65.430,-134.277,0.000,0
1553805788.574,660.645,-27.832,-62.988,-57.617,0.000,0
1553805788.578,649.414,-24.414,-67.383,-84.473,0.000,0
1553805788.582,604.492,-15.625,-70.312,-17.578,0.000,0
1553805788.586,605.469,-20.020,-69.824,254.395,0.000,0
1553805788.590,615.723,-30.762,-68.848,184.570,0.000,0
1553805788.594,562.012,-28.809,-62.012,-40.039,0.000,0
1553805788.597,577.148,-37.109,-57.617,-0.977,0.000,0
1553805788.601,609.863,-39.551,-58.594,-144.531,0.000,0
1553805788.605,538.574,-43.457,-62.500,-285.645,0.000,0
1553805788.609,578.613,-45.898,-64.453,-348.145,0.000,0
1553805788.613,586.426,-45.898,-62.500,-181.152,0.000,0
1553805788.617,573.242,-49.316,-57.617,123.047,0.000,0
1553805788.621,547.363,-47.852,-59.082,304.688,0.000,0
1553805788.625,543.945,-45.410,-61.523,283.203,0.000,0
1553805788.629,592.285,-38.086,-61.035,86.914,0.000,0
1553805788.633,618.652,-34.180,-56.152,50.781,0.000,0
1553805788.637,583.496,-47.363,-53.223,223.633,0.000,0
1553805788.640,537.598,-67.383,-48.828,401.367,0.000,0
1553805788.644,564.941,-59.082,-46.387,522.949,0.000,0
1553805788.648,561.523,-42.480,-59.082,701.660,0.000,0
1553805788.652,570.801,-41.504,-61.523,674.805,0.000,0
1553805788.656,580.078,-41.992,-59.082,194.336,0.000,0
1553805788.660,550.781,-49.805,-51.758,-258.301,0.000,0
1553805788.664,563.965,-47.852,-44.922,-63.965,0.000,0
1553805788.668,603.516,-41.992,-47.363,166.504,0.000,0
1553805788.672,566.895,-46.387,-46.875,124.512,0.000,0
1553805788.676,555.664,-46.875,-43.457,-94.727,0.000,0
1553805788.680,561.523,-46.387,-45.410,-587.402,0.000,0
1553805788.683,501.465,-40.527,-53.223,-684.570,0.000,0
1553805788.687,529.785,-43.945,-55.664,-396.484,0.000,0
1553805788.691,537.109,-47.852,-53.223,-525.391,0.000,0
1553805788.695,511.230,-37.598,-52.734,-566.895,0.000,0
1553805788.699,507.812,-44.922,-51.758,-627.930,0.000,0
1553805788.703,512.207,-73.730,-50.293,-670.898,0.000,0
1553805788.707,560.059,-65.918,-47.363,-273.926,0.000,0
1553805788.711,575.684,-41.504,-52.246,111.328,0.000,0
1553805788.715,547.363,-41.016,-44.434,259.277,0.000,0
1553805788.719,525.391,-51.270,-37.598,208.984,0.000,0
1553805788.722,494.629,-50.781,-47.363,-0.977,0.000,0
1553805788.726,490.234,-46.387,-55.176,-25.391,0.000,0
1553805788.730,529.297,-48.340,-58.105,-73.242,0.000,0
1553805788.734,533.203,-43.945,-55.664,-474.609,0.000,0
1553805788.738,533.691,-39.551,-52.734,-627.930,0.000,0
1553805788.742,557.617,-39.551,-52.246,-803.711,0.000,0
1553805788.746,511.230,-33.203,-52.246,-1000.000,0.000,0
1553805788.750,455.566,-40.039,-49.805,-995.605,0.000,0
1553805788.754,537.109,-50.781,-47.852,-997.559,0.000,0
1553805788.758,554.199,-53.223,-54.688,-1000.000,0.000,0
1553805788.762,500.488,-41.992,-57.617,-1000.000,0.000,0
1553805788.765,503.906,-38.574,-55.176,-997.559,0.000,0
1553805788.769,534.668,-45.898,-54.199,-1000.000,0.000,0
1553805788.773,556.152,-55.664,-47.852,-934.570,0.000,0
1553805788.777,531.250,-69.824,-46.875,-974.121,0.000,0
1553805788.781,499.023,-70.312,-50.293,-846.680,0.000,0
1553805788.785,517.090,-51.270,-48.340,-458.984,0.000,0
1553805788.789,468.750,-43.457,-48.828,-416.016,0.000,0
1553805788.793,490.723,-52.246,-47.852,-591.309,0.000,0
1553805788.797,585.449,-48.340,-54.688,-595.703,0.000,0
1553805788.801,552.734,-39.551,-57.617,-434.082,0.000,0
1553805788.805,516.602,-48.828,-55.176,-201.660,0.000,0
1553805788.808,508.301,-46.387,-56.641,179.199,0.000,0
1553805788.812,526.367,-37.598,-58.594,416.016,0.000,0
1553805788.816,515.625,-48.340,-53.223,378.906,0.000,0
1553805788.820,494.141,-45.898,-42.969,-2.930,0.000,0
1553805788.824,488.770,-37.109,-42.969,-85.938,0.000,0
1553805788.828,474.609,-37.598,-46.387,-104.980,0.000,0
1553805788.832,466.309,-43.945,-49.805,-321.777,0.000,0
1553805788.836,495.117,-44.922,-46.875,-316.406,0.000,0
1553805788.840,518.066,-41.504,-41.016,-479.492,0.000,0
1553805788.844,534.180,-48.340,-35.645,-297.852,0.000,0
1553805788.847,541.504,-30.762,-42.969,28.320,0.000,0
1553805788.851,502.441,-32.715,-46.387,-22.461,0.000,0
1553805788.855,473.145,-54.199,-40.527,37.598,0.000,0
1553805788.859,520.020,-43.945,-44.922,8.301,0.000,0
1553805788.863,544.434,-41.016,-43.457,-23.438,0.000,0
1553805788.867,503.906,-38.086,-41.016,-42.969,0.000,0
1553805788.871,484.375,-33.203,-43.457,-565.918,0.000,0
1553805788.875,529.297,-49.316,-43.457,-604.004,0.000,0
1553805788.879,552.734,-41.016,-54.688,-420.898,0.000,0
1553805788.883,495.605,-34.180,-55.176,-753.418,0.000,0
1553805788.887,491.699,-44.922,-50.293,-932.129,0.000,0
1553805788.890,533.691,-44.922,-47.363,-605.469,0.000,0
1553805788.894,500.488,-45.410,-36.621,-438.477,0.000,0
1553805788.898,500.977,-40.527,-38.086,-438.965,0.000,0
1553805788.902,512.207,-46.387,-41.016,-414.062,0.000,0
1553805788.906,492.188,-46.875,-43.457,-450.684,0.000,0
1553805788.910,527.832,-35.156,-48.828,-462.402,0.000,0
1553805788.914,564.453,-36.621,-43.457,-287.109,0.000,0
1553805788.918,535.156,-45.410,-36.621,-558.594,0.000,0
1553805788.922,537.598,-50.293,-38.574,-1000.000,0.000,0
1553805788.926,520.996,-48.340,-42.480,-982.422,0.000,0
1553805788.930,502.441,-48.828,-41.992,-871.582,0.000,0
1553805788.933,574.707,-54.688,-41.504,-969.727,0.000,0
1553805788.937,571.289,-48.340,-44.922,-1000.000,0.000,0
1553805788.941,536.621,-41.504,-44.434,-993.164,0.000,0
1553805788.945,491.211,-38.086,-38.086,-991.211,0.000,0
1553805788.949,501.953,-36.621,-32.227,-1000.000,0.000,0
1553805788.953,561.035,-36.133,-34.668,-849.121,0.000,0
1553805788.957,534.668,-36.133,-39.551,-588.867,0.000,0
1553805788.961,525.391,-36.621,-44.434,-528.809,0.000,0
1553805788.965,534.180,-47.363,-40.039,-347.168,0.000,0
1553805788.969,521.973,-39.551,-35.645,-427.246,0.000,0
1553805788.972,538.574,-29.785,-38.574,-796.875,0.000,0
1553805788.976,549.316,-21.484,-35.645,-1000.000,0.000,0
1553805788.980,532.715,-33.203,-32.227,-925.781,0.000,0
1553805788.984,527.832,-60.547,-32.715,-674.316,0.000,0
1553805788.988,516.113,-45.410,-40.039,-645.508,0.000,0
1553805788.992,494.141,-34.668,-46.875,-586.914,0.000,0
1553805788.996,489.258,-33.691,-44.922,-796.875,0.000,0
1553805789.000,537.109,-38.574,-35.645,-844.727,0.000,0
1553805789.004,530.273,-42.480,-35.156,-485.840,0.000,0
1553805789.008,493.164,-41.504,-41.504,-185.547,0.000,0
1553805789.012,515.625,-44.434,-38.574,40.527,0.000,0
1553805789.015,515.625,-29.785,-41.016,-35.156,0.000,0
1553805789.019,516.113,-35.645,-31.738,3.418,0.000,0
1553805789.023,526.367,-41.504,-29.297,352.539,0.000,0
1553805789.027,526.855,-38.574,-32.227,358.887,0.000,0
1553805789.031,522.949,-49.316,-29.297,-201.172,0.000,0
1553805789.035,524.902,-44.434,-35.645,-318.848,0.000,0
1553805789.039,489.258,-40.039,-40.039,154.785,0.000,0
1553805789.043,473.633,-35.156,-40.039,31.738,0.000,0
1553805789.047,517.578,-43.457,-35.645,-407.227,0.000,0
1553805789.051,529.297,-39.551,-36.621,-437.500,0.000,0
1553805789.055,495.117,-25.879,-39.551,-311.035,0.000,0
1553805789.058,470.215,-42.480,-27.832,-160.645,0.000,0
1553805789.062,457.520,-33.203,-23.438,62.500,0.000,0
1553805789.066,476.074,-31.738,-30.762,125.977,0.000,0
1553805789.070,488.770,-48.340,-32.715,135.742,0.000,0
1553805789.074,499.023,-41.016,-37.598,251.465,0.000,0
1553805789.078,502.930,-42.969,-35.156,-153.809,0.000,0
1553805789.082,469.238,-36.133,-36.621,-803.223,0.000,0
1553805789.086,456.055,-47.363,-41.992,-724.609,0.000,0
1553805789.090,494.629,-38.086,-31.738,-736.816,0.000,0
1553805789.094,505.859,-39.062,-30.273,-564.941,0.000,0
1553805789.097,471.191,-60.547,-27.344,-109.863,0.000,0
1553805789.101,477.051,-41.504,-25.391,13.672,0.000,0
1553805789.105,479.980,-35.645,-31.738,53.711,0.000,0
1553805789.109,483.398,-43.457,-30.762,-219.727,0.000,0
1553805789.113,522.949,-30.273,-34.180,-88.867,0.000,0
1553805789.117,490.234,-36.133,-30.273,327.637,0.000,0
1553805789.121,459.961,-46.387,-26.855,150.391,0.000,0
1553805789.125,460.449,-42.969,-33.691,-185.547,0.000,0
1553805789.129,482.422,-27.832,-35.156,-315.430,0.000,0
1553805789.133,500.488,-29.785,-30.273,-304.688,0.000,0
1553805789.137,498.535,-31.250,-26.367,-247.070,0.000,0
1553805789.140,490.234,-24.414,-31.738,65.918,0.000,0
1553805789.144,471.191,-45.410,-32.227,99.609,0.000,0
1553805789.148,462.891,-49.316,-36.621,274.414,0.000,0
1553805789.152,476.562,-34.668,-40.039,612.305,0.000,0
1553805789.156,469.727,-45.410,-27.832,175.781,0.000,0
1553805789.160,471.191,-53.223,-25.879,-532.715,0.000,0
1553805789.164,448.730,-45.898,-30.273,-444.336,0.000,0
1553805789.168,427.246,-43.457,-27.344,-546.875,0.000,0
1553805789.172,483.887,-39.062,-31.250,-1000.000,0.000,0
1553805789.176,474.609,-25.391,-33.203,-1000.000,0.000,0
1553805789.180,428.223,-25.391,-29.297,-990.723,0.000,0
1553805789.183,448.242,-53.223,-24.902,-991.699,0.000,0
1553805789.187,473.633,-60.059,-22.461,-1000.000,0.000,0
1553805789.191,494.141,-52.246,-23.926,-925.781,0.000,0
1553805789.195,463.867,-17.578,-34.668,-547.852,0.000,0
1553805789.199,486.816,-19.043,-34.180,-383.789,0.000,0
1553805789.203,464.355,-46.387,-29.297,-270.020,0.000,0
1553805789.207,420.898,-46.387,-36.621,220.215,0.000,0
1553805789.211,462.402,-54.199,-34.668,448.242,0.000,0
1553805789.215,453.125,-39.551,-31.250,502.930,0.000,0
1553805789.219,408.691,-20.508,-36.621,478.027,0.000,0
1553805789.222,437.988,-41.016,-29.297,427.246,0.000,0
1553805789.226,493.164,-59.570,-21.973,377.930,0.000,0
1553805789.230,482.422,-40.039,-29.297,336.914,0.000,0
1553805789.234,465.820,-29.297,-31.738,625.488,0.000,0
1553805789.238,465.332,-42.969,-25.879,609.375,0.000,0
1553805789.242,494.629,-38.574,-23.438,-41.504,0.000,0
1553805789.246,486.816,-25.391,-27.832,-576.172,0.000,0
1553805789.250,412.109,-25.879,-34.668,-582.520,0.000,0
1553805789.254,421.387,-38.574,-26.855,-588.379,0.000,0
1553805789.258,481.445,-36.133,-24.414,-660.156,0.000,0
1553805789.262,474.121,-30.273,-32.715,-895.996,0.000,0
1553805789.265,450.684,-57.617,-25.879,-994.141,0.000,0
1553805789.269,411.133,-47.363,-34.180,-985.352,0.000,0
1553805789.273,419.922,-34.668,-41.992,-999.023,0.000,0
1553805789.277,495.117,-38.086,-35.156,-1000.000,0.000,0
1553805789.281,469.238,3.906,-46.387,-715.820,0.000,0
1553805789.285,404.297,0.000,-43.945,-798.340,0.000,0
1553805789.289,442.383,-58.594,-28.809,-752.441,0.000,0
1553805789.293,495.117,-67.383,-20.020,-689.941,0.000,0
1553805789.297,431.152,-46.387,-20.508,-1000.000,0.000,0
1553805789.301,399.414,-54.688,-28.809,-992.676,0.000,0
1553805789.305,483.398,-37.598,-40.039,-999.512,0.000,0
1553805789.308,437.012,-3.418,-38.086,-986.328,0.000,0
1553805789.312,410.645,-28.809,-28.809,-1000.000,0.000,0
1553805789.316,455.078,-42.480,-28.809,-934.570,0.000,0
1553805789.320,467.285,-42.969,-22.949,-327.637,0.000,0
1553805789.324,461.914,-43.457,-21.484,291.504,0.000,0
1553805789.328,414.062,-38.574,-22.461,559.082,0.000,0
1553805789.332,446.777,-17.090,-36.621,671.875,0.000,0
1553805789.336,415.527,-2.441,-30.762,653.809,0.000,0
1553805789.340,424.805,-51.270,-11.719,806.152,0.000,0
1553805789.344,494.141,-53.223,-31.250,908.691,0.000,0
1553805789.347,445.312,-22.461,-40.039,274.902,0.000,0
1553805789.351,485.840,-25.879,-37.598,-27.344,0.000,0
1553805789.355,513.184,-41.016,-3.906,100.586,0.000,0
1553805789.359,466.309,-39.551,-2.930,-281.250,0.000,0
1553805789.363,475.586,-29.785,-44.922,-116.699,0.000,0
1553805789.367,483.887,-33.691,-26.855,-373.535,0.000,0
1553805789.371,524.902,-44.922,-20.996,-1000.000,0.000,0
1553805789.375,516.113,-27.832,-35.156,-1000.000,0.000,0
1553805789.379,457.520,-34.180,-39.062,-969.238,0.000,0
1553805789.383,411.621,-41.992,-32.227,-1000.000,0.000,0
1553805789.387,432.617,-45.898,-24.902,-901.367,0.000,0
1553805789.390,459.961,-29.785,-45.898,-635.254,0.000,0
1553805789.394,445.312,-38.574,-36.621,-416.992,0.000,0
1553805789.398,496.582,-53.223,-23.438,-591.797,0.000,0
1553805789.402,507.812,-45.410,-29.785,-1000.000,0.000,0
1553805789.406,455.078,-21.973,-37.109,-987.793,0.000,0
1553805789.410,475.098,-42.480,-38.086,-1000.000,0.000,0
1553805789.414,500.000,-44.922,-33.203,-876.465,0.000,0
1553805789.418,456.055,-20.020,-29.785,-430.664,0.000,0
1553805789.422,465.332,-60.059,-18.555,208.496,0.000,0
1553805789.426,457.520,-41.504,-0.977,554.199,0.000,0
1553805789.430,469.238,-31.250,-19.043,602.539,0.000,0
1553805789.433,480.957,-45.898,-32.715,903.320,0.000,0
1553805789.437,429.688,-36.133,-25.879,951.172,0.000,0
1553805789.441,464.355,-18.066,-20.508,938.477,0.000,0
1553805789.445,471.680,-32.715,-22.461,837.402,0.000,0
1553805789.449,467.285,-46.387,-39.551,548.340,0.000,0
1553805789.453,475.586,-34.180,-37.598,503.418,0.000,0
1553805789.457,456.055,-39.551,-28.320,-429.199,0.000,0
1553805789.461,478.516,-38.086,-28.320,-1000.000,0.000,0
1553805789.465,473.145,-36.621,-29.785,-959.473,0.000,0
1553805789.469,455.078,-30.273,-29.297,-996.582,0.000,0
1553805789.472,452.637,-39.062,-25.391,-978.516,0.000,0
1553805789.476,441.895,-20.020,-26.367,-1000.000,0.000,0
1553805789.480,416.016,-17.578,-35.156,-557.129,0.000,0
1553805789.484,435.059,-54.199,-33.691,-324.219,0.000,0
1553805789.488,454.102,-44.922,-27.344,-968.750,0.000,0
1553805789.492,416.504,-37.109,-27.832,-1000.000,0.000,0
1553805789.496,418.457,-45.410,-27.832,-962.891,0.000,0
1553805789.500,424.316,-38.086,-25.879,-1000.000,0.000,0
1553805789.504,406.250,-31.250,-33.203,-827.637,0.000,0
1553805789.508,403.809,-39.551,-31.250,-562.500,0.000,0
1553805789.512,398.926,-40.527,-24.902,-722.168,0.000,0
1553805789.515,394.043,-30.273,-29.785,-872.559,0.000,0
1553805789.519,416.992,-35.156,-28.320,-490.234,0.000,0
1553805789.523,412.598,-38.086,-28.809,-140.137,0.000,0
1553805789.527,379.883,-23.926,-35.156,440.918,0.000,0
1553805789.531,393.555,-17.090,-31.738,883.301,0.000,0
1553805789.535,419.434,-23.926,-28.809,837.891,0.000,0
1553805789.539,416.992,-18.555,-35.645,946.289,0.000,0
1553805789.543,392.578,-4.395,-50.293,971.680,0.000,0
1553805789.547,395.020,-5.371,-60.059,966.309,0.000,0
1553805789.551,381.348,-3.906,-61.035,967.773,0.000,0
1553805789.555,348.145,11.230,-67.383,968.262,0.000,0
1553805789.558,372.559,16.602,-72.266,968.262,0.000,0
1553805789.562,378.906,7.324,-70.801,968.262,0.000,0
1553805789.566,413.574,10.254,-69.336,968.262,0.000,0
1553805789.570,450.684,9.766,-63.477,968.262,0.000,0
1553805789.574,424.805,-4.883,-59.570,959.961,0.000,0
1553805789.578,386.230,-4.395,-64.453,986.816,0.000,0
1553805789.582,401.367,-2.930,-66.406,842.773,0.000,0
1553805789.586,398.438,-8.301,-67.871,702.637,0.000,0
1553805789.590,416.992,-18.066,-59.082,471.680,0.000,0
1553805789.594,421.387,-21.973,-52.734,58.105,0.000,0
1553805789.597,365.723,-19.043,-62.988,-95.215,0.000,0
1553805789.601,383.301,-21.484,-61.523,128.906,0.000,0
1553805789.605,394.531,-29.297,-54.199,457.520,0.000,0
1553805789.609,400.391,-27.344,-55.664,488.281,0.000,0
1553805789.613,365.723,-31.250,-57.129,404.297,0.000,0
1553805789.617,341.797,-29.297,-62.500,367.188,0.000,0
1553805789.621,387.207,-38.086,-59.082,443.359,0.000,0
1553805789.625,371.582,-43.945,-49.805,643.555,0.000,0
1553805789.629,368.164,-30.273,-57.129,920.410,0.000,0
1553805789.633,420.410,-34.180,-66.406,960.938,0.000,0
1553805789.637,387.695,-39.062,-59.082,960.449,0.000,0
1553805789.640,347.656,-51.270,-47.852,972.656,0.000,0
1553805789.644,378.906,-50.781,-48.828,951.660,0.000,0
1553805789.648,387.207,-48.340,-49.316,891.113,0.000,0
1553805789.652,348.145,-40.527,-50.293,810.059,0.000,0
1553805789.656,336.426,-46.875,-44.434,690.918,0.000,0
1553805789.660,383.789,-34.180,-43.945,684.082,0.000,0
1553805789.664,406.250,-29.297,-43.945,375.977,0.000,0
1553805789.668,396.484,-68.848,-33.691,26.855,0.000,0
1553805789.672,387.695,-49.805,-41.992,-114.746,0.000,0
1553805789.676,386.719,-38.086,-49.805,-60.547,0.000,0
1553805789.680,397.949,-56.641,-42.969,265.625,0.000,0
1553805789.683,398.438,-42.969,-44.922,542.480,0.000,0
1553805789.687,423.340,-40.527,-49.316,661.621,0.000,0
1553805789.691,427.246,-53.223,-41.504,690.918,0.000,0
1553805789.695,405.273,-33.691,-48.340,637.695,0.000,0
1553805789.699,405.762,-33.203,-55.176,356.445,0.000,0
1553805789.703,400.391,-50.293,-39.551,203.125,0.000,0
1553805789.707,396.973,-55.176,-38.086,-43.945,0.000,0
1553805789.711,427.734,-57.129,-44.434,30.762,0.000,0
1553805789.715,440.918,-52.734,-45.410,399.902,0.000,0
1553805789.719,397.461,-46.875,-41.992,477.539,0.000,0
1553805789.722,396.973,-43.457,-42.969,550.781,0.000,0
1553805789.726,418.945,-49.316,-45.410,416.016,0.000,0
1553805789.730,406.250,-64.453,-40.039,143.066,0.000,0
1553805789.734,428.711,-52.246,-44.922,11.719,0.000,0
1553805789.738,435.547,-30.762,-50.293,61.035,0.000,0
1553805789.742,390.137,-35.645,-45.410,243.652,0.000,0
1553805789.746,422.852,-51.270,-44.434,241.699,0.000,0
1553805789.750,439.453,-53.711,-45.410,200.195,0.000,0
1553805789.754,405.762,-49.805,-44.922,371.094,0.000,0
1553805789.758,413.574,-50.781,-43.945,587.891,0.000,0
1553805789.762,423.828,-44.434,-48.828,470.215,0.000,0
1553805789.765,435.059,-43.945,-45.410,267.578,0.000,0
1553805789.769,426.758,-52.734,-45.410,282.715,0.000,0
1553805789.773,373.047,-52.246,-52.246,354.004,0.000,0
1553805789.777,401.367,-41.504,-47.363,292.480,0.000,0
1553805789.781,423.340,-45.898,-40.527,224.121,0.000,0
1553805789.785,404.785,-52.246,-40.527,461.426,0.000,0
1553805789.789,422.363,-45.410,-40.527,637.207,0.000,0
1553805789.793,419.922,-51.758,-39.551,561.035,0.000,0
1553805789.797,419.434,-58.594,-36.133,687.500,0.000,0
1553805789.801,408.691,-60.059,-42.480,406.250,0.000,0
1553805789.805,395.020,-50.781,-51.758,33.203,0.000,0
1553805789.808,434.570,-53.711,-45.410,226.074,0.000,0
1553805789.812,436.523,-51.270,-47.852,77.637,0.000,0
1553805789.816,412.598,-47.363,-48.828,220.215,0.000,0
1553805789.820,390.137,-51.758,-42.480,349.121,0.000,0
1553805789.824,379.395,-54.199,-43.945,191.406,0.000,0
1553805789.828,401.855,-54.199,-41.504,266.602,0.000,0
1553805789.832,418.457,-44.922,-42.969,169.922,0.000,0
1553805789.836,409.668,-45.410,-46.875,-9.277,0.000,0
1553805789.840,418.457,-47.363,-46.387,-356.445,0.000,0
1553805789.844,454.590,-44.434,-42.969,-460.449,0.000,0
1553805789.847,436.035,-60.059,-40.527,-516.113,0.000,0
1553805789.851,428.223,-67.383,-44.922,-902.832,0.000,0
1553805789.855,425.781,-63.477,-41.504,-856.445,0.000,0
1553805789.859,436.035,-60.547,-39.551,-463.867,0.000,0
1553805789.863,449.219,-58.105,-45.410,-290.527,0.000,0
1553805789.867,444.824,-40.527,-49.316,-687.012,0.000,0
1553805789.871,435.547,-41.504,-50.293,-1000.000,0.000,0
1553805789.875,417.480,-57.617,-42.969,-794.434,0.000,0
1553805789.879,377.930,-57.617,-40.039,-604.980,0.000,0
1553805789.883,370.605,-56.641,-40.039,-596.680,0.000,0
1553805789.887,440.430,-57.129,-41.016,-252.441,0.000,0
1553805789.890,464.355,-50.781,-43.945,-306.152,0.000,0
1553805789.894,407.715,-49.805,-45.410,-500.000,0.000,0
1553805789.898,408.203,-46.387,-50.781,-51.758,0.000,0
1553805789.902,417.969,-55.664,-41.504,189.453,0.000,0
1553805789.906,437.500,-67.383,-37.109,-84.961,0.000,0
1553805789.910,457.520,-63.477,-42.969,-415.039,0.000,0
1553805789.914,433.105,-60.059,-38.574,-298.340,0.000,0
1553805789.918,440.430,-62.988,-40.527,-19.531,0.000,0
1553805789.922,421.387,-59.082,-48.340,-31.738,0.000,0
1553805789.926,387.695,-54.688,-47.363,-94.727,0.000,0
1553805789.930,398.438,-62.012,-41.992,-55.664,0.000,0
1553805789.933,414.062,-68.848,-43.457,-72.754,0.000,0
1553805789.937,396.973,-65.430,-36.621,-130.859,0.000,0
1553805789.941,420.410,-57.617,-37.109,-180.176,0.000,0
1553805789.945,435.059,-57.617,-48.828,-597.168,0.000,0
1553805789.949,424.316,-43.457,-46.875,-895.020,0.000,0
1553805789.953,449.707,-42.480,-41.504,-759.277,0.000,0
1553805789.957,423.340,-61.523,-41.016,-608.398,0.000,0
1553805789.961,400.879,-50.293,-44.922,-511.230,0.000,0
1553805789.965,431.641,-54.199,-38.574,-228.516,0.000,0
1553805789.969,431.641,-57.617,-35.645,169.922,0.000,0
1553805789.972,416.992,-56.152,-35.645,253.418,0.000,0
1553805789.976,443.848,-54.199,-36.621,-55.176,0.000,0
1553805789.980,439.453,-51.758,-42.480,-666.504,0.000,0
1553805789.984,427.734,-53.223,-42.969,-851.562,0.000,0
1553805789.988,400.879,-60.547,-39.062,-593.262,0.000,0
1553805789.992,388.184,-54.199,-40.039,42.969,0.000,0
1553805789.996,439.941,-43.457,-40.527,303.711,0.000,0
1553805790.000,428.711,-59.082,-41.504,-532.715,0.000,0
1553805790.004,395.508,-67.871,-47.363,-832.031,0.000,0
1553805790.008,408.203,-45.898,-49.805,-465.332,0.000,0
1553805790.012,419.922,-44.922,-51.270,-422.363,0.000,0
1553805790.015,437.988,-67.383,-50.293,-477.539,0.000,0
1553805790.019,400.391,-67.383,-42.969,-477.051,0.000,0
1553805790.023,360.352,-64.453,-41.504,-385.254,0.000,0
1553805790.027,412.598,-65.918,-47.852,-536.621,0.000,0
1553805790.031,453.125,-53.711,-53.223,-919.434,0.000,0
1553805790.035,420.898,-50.293,-53.223,-1000.000,0.000,0
1553805790.039,377.441,-72.754,-45.898,-981.934,0.000,0
1553805790.043,387.207,-68.359,-42.480,-993.652,0.000,0
1553805790.047,393.555,-57.617,-49.316,-1000.000,0.000,0
1553805790.051,396.484,-74.219,-51.270,-667.480,0.000,0
1553805790.055,415.527,-63.477,-48.340,-479.492,0.000,0
1553805790.058,419.922,-59.082,-49.805,-530.273,0.000,0
1553805790.062,416.504,-79.102,-42.969,-367.188,0.000,0
1553805790.066,400.391,-64.941,-42.969,-372.070,0.000,0
1553805790.070,378.418,-71.777,-43.945,-458.008,0.000,0
1553805790.074,390.137,-78.613,-41.992,-360.352,0.000,0
1553805790.078,420.410,-66.406,-42.480,-23.926,0.000,0
1553805790.082,391.113,-77.148,-44.922,-55.664,0.000,0
1553805790.086,372.070,-74.707,-52.734,-3.906,0.000,0
1553805790.090,394.531,-62.012,-51.270,278.320,0.000,0
1553805790.094,430.664,-64.941,-44.922,604.004,0.000,0
1553805790.097,417.480,-78.613,-43.945,924.316,0.000,0
1553805790.101,386.719,-70.801,-46.387,687.500,0.000,0
1553805790.105,416.504,-74.707,-45.898,633.301,0.000,0
1553805790.109,400.391,-80.078,-51.270,754.883,0.000,0
1553805790.113,392.090,-71.777,-50.781,414.551,0.000,0
1553805790.117,416.504,-82.520,-41.992,224.121,0.000,0
1553805790.121,405.762,-71.289,-47.852,290.039,0.000,0
1553805790.125,385.254,-71.289,-47.363,215.820,0.000,0
1553805790.129,397.461,-83.496,-46.875,197.266,0.000,0
1553805790.133,407.227,-75.684,-47.852,176.270,0.000,0
1553805790.137,351.074,-62.988,-47.852,94.238,0.000,0
1553805790.140,342.285,-64.941,-51.270,283.691,0.000,0
1553805790.144,390.625,-83.496,-44.922,436.523,0.000,0
1553805790.148,385.742,-57.129,-42.480,546.875,0.000,0
1553805790.152,365.234,-51.758,-42.969,835.938,0.000,0
1553805790.156,370.117,-96.680,-39.551,987.305,0.000,0
1553805790.160,372.559,-79.102,-45.410,948.730,0.000,0
1553805790.164,392.578,-67.383,-41.016,825.195,0.000,0
1553805790.168,415.527,-75.684,-42.969,670.410,0.000,0
1553805790.172,385.742,-75.684,-53.711,334.473,0.000,0
1553805790.176,368.652,-68.848,-46.875,153.809,0.000,0
1553805790.180,368.164,-58.594,-43.457,311.523,0.000,0
1553805790.183,371.582,-59.570,-44.434,340.820,0.000,0
1553805790.187,368.164,-53.223,-46.387,108.887,0.000,0
1553805790.191,324.707,-45.410,-49.805,-37.109,0.000,0
1553805790.195,360.352,-63.477,-51.758,-31.250,0.000,0
1553805790.199,413.086,-63.477,-54.199,-221.680,0.000,0
1553805790.203,396.484,-64.941,-55.664,-213.379,0.000,0
1553805790.207,356.934,-77.148,-52.734,7.324,0.000,0
1553805790.211,382.812,-72.266,-48.340,179.688,0.000,0
1553805790.215,425.293,-71.777,-49.316,366.211,0.000,0
1553805790.219,441.895,-69.824,-49.805,431.152,0.000,0
1553805790.222,458.496,-69.824,-55.664,382.324,0.000,0
1553805790.226,495.117,-59.570,-63.477,574.707,0.000,0
1553805790.230,537.598,-54.199,-53.711,580.078,0.000,0
1553805790.234,497.559,-58.105,-41.992,431.152,0.000,0
1553805790.238,459.473,-79.102,-33.691,604.492,0.000,0
1553805790.242,464.355,-81.543,-34.668,437.500,0.000,0
1553805790.246,444.824,-81.055,-37.598,188.477,0.000,0
1553805790.250,429.199,-104.980,-33.203,313.477,0.000,0
1553805790.254,452.148,-106.934,-32.227,561.035,0.000,0
1553805790.258,415.527,-94.727,-27.832,702.148,0.000,0
1553805790.262,340.820,-100.586,-26.855,782.715,0.000,0
1553805790.265,397.949,-110.840,-29.297,791.504,0.000,0
1553805790.269,432.129,-111.328,-27.832,734.375,0.000,0
1553805790.273,390.137,-120.117,-23.926,667.969,0.000,0
1553805790.277,397.461,-119.629,-23.926,567.871,0.000,0
1553805790.281,385.742,-117.676,-30.762,216.309,0.000,0
1553805790.285,397.949,-117.676,-38.574,-271.484,0.000,0
1553805790.289,443.359,-110.352,-39.551,-542.969,0.000,0
1553805790.293,438.965,-102.539,-34.668,-400.391,0.000,0
1553805790.297,455.566,-104.492,-34.180,-98.145,0.000,0
1553805790.301,467.773,-101.562,-35.156,-97.656,0.000,0
1553805790.305,489.258,-104.004,-24.902,-232.910,0.000,0
1553805790.308,512.695,-108.398,-28.320,-602.539,0.000,0
1553805790.312,507.812,-80.566,-44.922,-699.219,0.000,0
1553805790.316,463.867,-76.172,-43.945,-527.344,0.000,0
1553805790.320,448.730,-101.562,-40.527,-316.895,0.000,0
1553805790.324,447.266,-89.844,-42.480,4.883,0.000,0
1553805790.328,433.105,-85.449,-39.062,377.441,0.000,0
1553805790.332,436.523,-78.125,-38.086,750.000,0.000,0
1553805790.336,424.805,-68.359,-38.574,746.094,0.000,0
1553805790.340,436.523,-80.078,-40.527,-335.449,0.000,0
1553805790.344,470.215,-74.219,-48.340,-1000.000,0.000,0
1553805790.347,458.984,-64.941,-44.434,-966.309,0.000,0
1553805790.351,437.988,-65.918,-43.945,-992.676,0.000,0
1553805790.355,464.844,-73.730,-45.410,-1000.000,0.000,0
1553805790.359,441.895,-66.406,-45.898,-991.211,0.000,0
1553805790.363,407.715,-66.895,-50.293,-1000.000,0.000,0
1553805790.367,382.324,-78.125,-45.898,-944.336,0.000,0
1553805790.371,381.836,-74.707,-41.016,-605.957,0.000,0
1553805790.375,405.273,-79.102,-46.387,-154.785,0.000,0
1553805790.379,411.133,-70.801,-48.828,135.254,0.000,0
1553805790.383,417.969,-62.988,-44.922,353.516,0.000,0
1553805790.387,410.645,-65.918,-47.363,725.586,0.000,0
1553805790.390,412.109,-52.734,-45.898,792.969,0.000,0
1553805790.394,420.898,-66.406,-50.293,534.668,0.000,0
1553805790.398,401.855,-70.312,-52.734,181.641,0.000,0
1553805790.402,398.926,-58.594,-51.270,-71.777,0.000,0
1553805790.406,389.648,-62.988,-52.246,79.590,0.000,0
1553805790.410,383.301,-70.801,-51.270,211.914,0.000,0
1553805790.414,391.602,-58.594,-52.734,231.445,0.000,0
1553805790.418,406.250,-51.758,-51.758,356.445,0.000,0
1553805790.422,374.512,-62.012,-49.316,388.184,0.000,0
1553805790.426,387.207,-72.754,-45.898,483.887,0.000,0
1553805790.430,377.930,-74.707,-48.340,458.984,0.000,0
1553805790.433,315.430,-51.758,-59.082,220.215,0.000,0
1553805790.437,297.852,-43.945,-55.176,188.965,0.000,0
1553805790.441,300.293,-62.012,-50.781,250.488,0.000,0
1553805790.445,331.055,-62.988,-50.781,171.875,0.000,0
1553805790.449,385.254,-60.059,-51.270,116.699,0.000,0
1553805790.453,434.082,-55.176,-55.176,112.305,0.000,0
1553805790.457,443.848,-55.664,-57.617,107.422,0.000,0
1553805790.461,441.406,-64.453,-53.711,96.680,0.000,0
1553805790.465,477.051,-63.477,-49.316,-24.902,0.000,0
1553805790.469,516.602,-60.547,-55.176,63.477,0.000,0
1553805790.472,532.227,-60.059,-54.688,313.965,0.000,0
1553805790.476,529.297,-60.059,-48.340,388.184,0.000,0
1553805790.480,522.949,-61.523,-45.410,176.270,0.000,0
1553805790.484,528.320,-65.430,-44.922,121.094,0.000,0
1553805790.488,544.922,-68.848,-49.805,254.395,0.000,0
1553805790.492,536.133,-57.129,-48.340,97.656,0.000,0
1553805790.496,558.594,-60.547,-41.016,-24.414,0.000,0
1553805790.500,552.734,-64.941,-38.086,-301.270,0.000,0
1553805790.504,561.523,-57.129,-40.527,-539.062,0.000,0
1553805790.508,577.637,-55.176,-51.758,-444.824,0.000,0
1553805790.512,550.293,-55.664,-56.641,-394.531,0.000,0
1553805790.515,586.914,-50.293,-54.199,-80.078,0.000,0
1553805790.519,588.379,-49.316,-50.293,276.367,0.000,0
1553805790.523,565.918,-47.852,-46.875,467.773,0.000,0
1553805790.527,624.512,-52.246,-50.781,431.152,0.000,0
1553805790.531,634.766,-56.152,-54.199,414.062,0.000,0
1553805790.535,606.445,-53.223,-52.246,559.570,0.000,0
1553805790.539,592.773,-47.363,-49.805,657.227,0.000,0
1553805790.543,588.379,-50.293,-48.340,761.719,0.000,0
1553805790.547,583.984,-61.035,-46.875,803.711,0.000,0
1553805790.551,587.402,-48.340,-50.781,600.586,0.000,0
1553805790.555,592.773,-46.875,-54.199,141.602,0.000,0
1553805790.558,625.488,-54.688,-49.316,96.680,0.000,0
1553805790.562,597.656,-41.504,-42.969,-136.719,0.000,0
1553805790.566,561.523,-45.410,-45.410,-576.172,0.000,0
1553805790.570,621.094,-45.898,-51.270,-438.965,0.000,0
1553805790.574,621.094,-42.480,-52.734,-673.340,0.000,0
1553805790.578,600.098,-49.316,-48.828,-921.387,0.000,0
1553805790.582,592.773,-60.059,-50.781,-792.969,0.000,0
1553805790.586,564.453,-61.523,-53.223,-687.500,0.000,0
1553805790.590,585.449,-54.688,-50.781,-719.727,0.000,0
1553805790.594,603.516,-50.781,-46.387,-643.066,0.000,0
1553805790.597,589.355,-48.828,-46.875,-292.480,0.000,0
1553805790.601,557.129,-52.734,-50.293,0.977,0.000,0
1553805790.605,550.293,-47.852,-47.852,-144.043,0.000,0
1553805790.609,534.180,-47.852,-47.852,-321.777,0.000,0
1553805790.613,500.000,-53.711,-55.664,-455.078,0.000,0
1553805790.617,484.375,-46.875,-48.828,-463.379,0.000,0
1553805790.621,461.426,-52.246,-40.039,-252.930,0.000,0
1553805790.625,536.133,-54.688,-44.434,-26.367,0.000,0
1553805790.629,557.129,-41.504,-52.246,-136.230,0.000,0
1553805790.633,520.020,-41.016,-56.152,-445.312,0.000,0
1553805790.637,490.723,-47.852,-49.316,-507.812,0.000,0
1553805790.640,475.586,-54.688,-44.434,-497.559,0.000,0
1553805790.644,463.379,-52.246,-46.387,-430.176,0.000,0
1553805790.648,419.434,-46.875,-56.152,-405.762,0.000,0
1553805790.652,395.508,-45.410,-62.988,-339.844,0.000,0
1553805790.656,404.297,-45.898,-54.688,-223.145,0.000,0
1553805790.660,386.230,-43.945,-45.410,-98.633,0.000,0
1553805790.664,379.395,-48.828,-45.898,184.082,0.000,0
1553805790.668,421.875,-51.758,-46.875,252.441,0.000,0
1553805790.672,420.410,-38.574,-52.734,376.953,0.000,0
1553805790.676,417.480,-39.551,-47.852,636.230,0.000,0
1553805790.680,418.945,-47.852,-46.387,754.883,0.000,0
1553805790.683,413.574,-47.363,-54.199,453.613,0.000,0
1553805790.687,387.207,-49.805,-46.875,171.387,0.000,0
1553805790.691,336.914,-43.457,-42.969,202.637,0.000,0
1553805790.695,352.539,-32.715,-52.246,229.004,0.000,0
1553805790.699,354.980,-37.598,-48.340,217.773,0.000,0
1553805790.703,301.270,-36.133,-41.992,208.496,0.000,0
1553805790.707,250.488,-34.668,-41.016,259.766,0.000,0
1553805790.711,201.172,-46.387,-39.062,-360.840,0.000,0
1553805790.715,181.152,-47.852,-41.992,-838.379,0.000,0
1553805790.719,137.695,-39.551,-48.828,-555.176,0.000,0
1553805790.722,134.277,-41.504,-43.945,-38.086,0.000,0
1553805790.726,121.582,-36.621,-44.434,323.730,0.000,0
1553805790.730,33.203,-41.504,-43.945,273.926,0.000,0
1553805790.734,-4.883,-47.363,-43.457,189.453,0.000,0
1553805790.738,-46.875,-42.969,-53.223,235.840,0.000,0
1553805790.742,14.160,-43.945,-48.340,375.488,0.000,0
1553805790.746,75.195,-37.109,-42.969,452.637,0.000,0
1553805790.750,126.953,-38.086,-35.645,185.547,0.000,0
1553805790.754,103.027,-38.574,-40.527,-115.723,0.000,0
1553805790.758,155.762,-44.922,-42.480,-108.887,0.000,0
1553805790.762,387.695,-48.340,-38.574,-231.445,0.000,0
1553805790.765,447.754,-47.363,-41.016,-7.324,0.000,0
1553805790.769,444.824,-41.992,-42.480,195.312,0.000,0
1553805790.773,448.730,-41.016,-41.016,-142.090,0.000,0
1553805790.777,439.453,-44.922,-42.969,-452.148,0.000,0
1553805790.781,457.031,-36.133,-47.852,-453.125,0.000,0
1553805790.785,485.352,-39.551,-50.293,-409.180,0.000,0
1553805790.789,497.559,-36.133,-49.805,-333.008,0.000,0
1553805790.793,505.859,-30.273,-47.852,-395.508,0.000,0
1553805790.797,506.836,-37.109,-46.875,-516.602,0.000,0
1553805790.801,526.367,-36.621,-40.527,-149.414,0.000,0
1553805790.805,583.496,-36.621,-38.574,-36.133,0.000,0
1553805790.808,572.754,-35.156,-40.527,51.270,0.000,0
1553805790.812,550.781,-40.039,-43.945,-97.656,0.000,0
1553805790.816,573.730,-36.133,-51.758,-487.305,0.000,0
1553805790.820,573.730,-34.180,-55.176,-537.598,0.000,0
1553805790.824,574.219,-42.969,-52.734,-648.926,0.000,0
1553805790.828,552.734,-45.898,-47.363,-775.879,0.000,0
1553805790.832,557.617,-42.969,-44.922,-595.215,0.000,0
1553805790.836,583.496,-36.133,-46.387,-288.574,0.000,0
1553805790.840,594.727,-36.133,-42.969,8.789,0.000,0
1553805790.844,592.285,-42.480,-39.551,45.410,0.000,0
1553805790.847,578.613,-43.945,-44.434,-160.156,0.000,0
1553805790.851,583.496,-49.316,-42.969,106.934,0.000,0
1553805790.855,601.074,-53.223,-43.945,-3.418,0.000,0
1553805790.859,572.266,-46.387,-50.781,-443.359,0.000,0
1553805790.863,562.988,-38.574,-49.316,-677.246,0.000,0
1553805790.867,572.266,-40.039,-45.410,-795.898,0.000,0
1553805790.871,576.172,-41.016,-48.340,-509.277,0.000,0
1553805790.875,578.125,-37.598,-51.270,-387.207,0.000,0
1553805790.879,567.383,-36.621,-42.969,-321.777,0.000,0
1553805790.883,579.590,-41.504,-30.762,-44.922,0.000,0
1553805790.887,587.402,-39.062,-34.180,281.250,0.000,0
1553805790.890,573.242,-38.086,-39.551,310.547,0.000,0
1553805790.894,577.637,-32.715,-37.109,120.117,0.000,0
1553805790.898,578.125,-32.227,-33.691,236.816,0.000,0
1553805790.902,600.586,-38.574,-36.133,284.180,0.000,0
1553805790.906,585.449,-42.480,-41.504,74.707,0.000,0
1553805790.910,548.340,-48.340,-36.621,118.652,0.000,0
1553805790.914,570.312,-38.574,-38.574,-223.633,0.000,0
1553805790.918,557.129,-38.086,-39.062,-626.465,0.000,0
1553805790.922,574.219,-39.062,-38.086,-462.402,0.000,0
1553805790.926,584.961,-41.504,-41.992,-333.008,0.000,0
1553805790.930,583.496,-48.340,-43.457,-49.805,0.000,0
1553805790.933,598.633,-46.875,-41.016,53.711,0.000,0
1553805790.937,602.539,-44.434,-41.992,62.500,0.000,0
1553805790.941,590.332,-40.527,-45.410,188.477,0.000,0
1553805790.945,560.547,-40.039,-40.527,301.758,0.000,0
1553805790.949,562.988,-38.086,-43.945,154.785,0.000,0
1553805790.953,578.125,-37.109,-52.246,-52.734,0.000,0
1553805790.957,580.078,-52.734,-48.340,136.230,0.000,0
1553805790.961,572.266,-58.594,-41.992,405.273,0.000,0
1553805790.965,542.480,-56.152,-44.434,520.020,0.000,0
1553805790.969,550.293,-54.688,-47.852,454.102,0.000,0
1553805790.972,556.641,-44.922,-41.504,436.523,0.000,0
1553805790.976,557.129,-57.617,-41.992,583.496,0.000,0
1553805790.980,554.688,-62.500,-45.410,478.027,0.000,0
1553805790.984,532.715,-53.223,-45.898,97.168,0.000,0
1553805790.988,530.762,-51.270,-49.316,-202.637,0.000,0
1553805790.992,551.270,-57.129,-51.270,-666.016,0.000,0
1553805790.996,557.617,-62.988,-53.223,-875.000,0.000,0
1553805791.000,542.480,-63.965,-46.387,-581.055,0.000,0
1553805791.004,519.531,-56.641,-53.223,-259.766,0.000,0
1553805791.008,514.648,-55.176,-64.453,28.320,0.000,0
1553805791.012,500.977,-64.453,-61.523,41.504,0.000,0
1553805791.015,489.746,-63.965,-61.523,-32.227,0.000,0
1553805791.019,512.207,-62.500,-58.105,-218.750,0.000,0
1553805791.023,500.488,-63.477,-56.641,-229.980,0.000,0
1553805791.027,506.836,-58.105,-52.246,-73.242,0.000,0
1553805791.031,512.207,-59.570,-50.293,16.113,0.000,0
1553805791.035,499.512,-68.848,-59.570,112.305,0.000,0
1553805791.039,476.074,-71.777,-65.430,69.824,0.000,0
1553805791.043,452.637,-70.801,-67.871,-35.645,0.000,0
1553805791.047,473.633,-67.871,-61.523,0.488,0.000,0
1553805791.051,481.445,-64.453,-59.570,131.836,0.000,0
1553805791.055,471.191,-60.547,-65.918,36.133,0.000,0
1553805791.058,484.375,-60.547,-61.523,-113.281,0.000,0
1553805791.062,494.141,-68.359,-58.105,74.219,0.000,0
1553805791.066,486.816,-67.871,-62.988,438.965,0.000,0
1553805791.070,489.258,-58.594,-60.059,427.246,0.000,0
1553805791.074,471.680,-57.617,-57.129,246.582,0.000,0
1553805791.078,480.469,-62.012,-67.383,481.445,0.000,0
1553805791.082,473.633,-60.059,-70.801,650.391,0.000,0
1553805791.086,463.867,-63.965,-62.988,822.754,0.000,0
1553805791.090,473.633,-73.242,-55.176,963.867,0.000,0
1553805791.094,449.707,-64.941,-56.152,719.727,0.000,0
1553805791.097,451.172,-61.523,-60.547,506.836,0.000,0
1553805791.101,423.340,-65.918,-61.035,251.465,0.000,0
1553805791.105,416.504,-64.453,-59.570,-57.617,0.000,0
1553805791.109,419.922,-58.594,-64.453,-93.262,0.000,0
1553805791.113,398.926,-52.734,-70.801,-520.020,0.000,0
1553805791.117,410.156,-57.129,-63.965,-684.082,0.000,0
1553805791.121,421.875,-58.594,-55.664,-512.695,0.000,0
1553805791.125,416.504,-59.570,-58.594,-556.641,0.000,0
1553805791.129,431.152,-57.617,-59.082,-339.844,0.000,0
1553805791.133,429.688,-57.129,-61.035,-0.488,0.000,0
1553805791.137,380.371,-62.988,-70.312,259.277,0.000,0
1553805791.140,369.629,-62.500,-74.219,344.727,0.000,0
1553805791.144,409.668,-65.918,-68.848,350.586,0.000,0
1553805791.148,386.719,-58.105,-64.941,-32.715,0.000,0
1553805791.152,345.215,-48.340,-66.895,-608.398,0.000,0
1553805791.156,317.871,-50.293,-63.477,-366.211,0.000,0
1553805791.160,280.273,-54.199,-67.871,227.051,0.000,0
1553805791.164,266.602,-53.223,-71.289,624.023,0.000,0
1553805791.168,248.535,-54.199,-69.336,623.535,0.000,0
1553805791.172,255.859,-73.242,-91.797,463.379,0.000,0
1553805791.176,267.578,-72.266,-97.168,478.516,0.000,0
1553805791.180,203.613,-41.504,-88.867,326.660,0.000,0
1553805791.183,169.434,-40.039,-87.402,102.051,0.000,0
1553805791.187,198.242,-44.922,-89.844,-239.258,0.000,0
1553805791.191,206.055,-41.992,-93.262,-503.418,0.000,0
1553805791.195,204.590,-53.711,-77.148,-125.488,0.000,0
1553805791.199,187.500,-47.852,-86.426,73.730,0.000,0
1553805791.203,196.777,-42.480,-96.191,-65.918,0.000,0
1553805791.207,221.191,-52.246,-78.125,256.836,0.000,0
1553805791.211,230.957,-51.758,-77.148,683.594,0.000,0
1553805791.215,230.469,-53.711,-81.543,537.598,0.000,0
1553805791.219,233.887,-59.082,-79.102,308.594,0.000,0
1553805791.222,239.746,-52.734,-75.684,616.699,0.000,0
1553805791.226,267.090,-70.312,-66.895,807.617,0.000,0
1553805791.230,305.664,-78.613,-64.941,529.297,0.000,0
1553805791.234,285.645,-71.289,-63.965,617.676,0.000,0
1553805791.238,268.555,-73.242,-70.801,897.949,0.000,0
1553805791.242,305.664,-72.266,-72.754,956.055,0.000,0
1553805791.246,337.891,-65.918,-66.406,970.215,0.000,0
1553805791.250,377.930,-51.270,-72.266,873.047,0.000,0
1553805791.254,409.668,-57.617,-72.266,254.883,0.000,0
1553805791.258,433.594,-67.871,-61.523,27.832,0.000,0
1553805791.262,469.727,-77.148,-61.035,299.805,0.000,0
1553805791.265,482.422,-83.496,-64.453,90.332,0.000,0
1553805791.269,503.906,-68.848,-64.453,-96.680,0.000,0
1553805791.273,527.832,-61.035,-67.383,64.453,0.000,0
1553805791.277,528.320,-62.500,-59.570,133.789,0.000,0
1553805791.281,515.137,-64.453,-59.570,-16.113,0.000,0
1553805791.285,526.855,-75.684,-66.406,-122.070,0.000,0
1553805791.289,548.828,-80.078,-64.941,76.660,0.000,0
1553805791.293,554.688,-75.684,-65.918,-62.012,0.000,0
1553805791.297,555.176,-65.918,-73.242,-479.492,0.000,0
1553805791.301,536.621,-62.988,-70.801,-321.777,0.000,0
1553805791.305,527.832,-63.965,-67.871,-330.078,0.000,0
1553805791.308,535.645,-61.035,-66.406,-423.340,0.000,0
1553805791.312,538.086,-66.406,-58.594,-142.090,0.000,0
1553805791.316,544.922,-69.824,-56.641,247.070,0.000,0
1553805791.320,559.570,-61.523,-64.941,535.645,0.000,0
1553805791.324,561.523,-54.688,-78.125,566.406,0.000,0
1553805791.328,548.340,-59.570,-74.219,113.770,0.000,0
1553805791.332,551.270,-59.570,-64.941,-132.324,0.000,0
1553805791.336,560.547,-61.035,-66.895,-118.652,0.000,0
1553805791.340,574.219,-54.688,-64.941,-718.262,0.000,0
1553805791.344,590.332,-50.293,-63.477,-871.094,0.000,0
1553805791.347,575.195,-54.688,-65.430,-510.254,0.000,0
1553805791.351,587.891,-45.898,-67.871,-854.004,0.000,0
1553805791.355,567.871,-50.293,-75.684,-1000.000,0.000,0
1553805791.359,540.527,-65.918,-74.707,-876.465,0.000,0
1553805791.363,567.383,-62.500,-73.730,-758.789,0.000,0
1553805791.367,543.945,-53.223,-83.008,-645.996,0.000,0
1553805791.371,526.367,-55.176,-84.961,-655.273,0.000,0
1553805791.375,545.410,-57.617,-78.613,-908.691,0.000,0
1553805791.379,552.246,-50.293,-79.590,-964.844,0.000,0
1553805791.383,552.246,-49.316,-74.219,-835.449,0.000,0
1553805791.387,575.195,-43.457,-76.172,-904.297,0.000,0
1553805791.390,558.105,-51.270,-81.055,-1000.000,0.000,0
1553805791.394,524.414,-70.312,-82.031,-976.074,0.000,0
1553805791.398,542.969,-71.289,-86.426,-894.531,0.000,0
1553805791.402,533.203,-66.895,-89.355,-576.660,0.000,0
1553805791.406,512.207,-49.316,-80.566,-107.422,0.000,0
1553805791.410,503.418,-31.738,-59.082,-5.859,0.000,0
1553805791.414,460.449,-32.715,-58.105,-210.449,0.000,0
1553805791.418,416.504,-28.809,-73.730,-445.801,0.000,0
1553805791.422,393.555,-32.715,-79.102,-405.762,0.000,0
1553805791.426,391.602,-42.969,-76.660,-277.344,0.000,0
1553805791.430,379.883,-23.926,-102.539,-610.840,0.000,0
1553805791.433,355.469,-13.672,-111.816,-976.074,0.000,0
1553805791.437,353.027,-13.184,-91.309,-1000.000,0.000,0
1553805791.441,381.836,-15.137,-70.801,-872.559,0.000,0
1553805791.445,377.441,-25.391,-68.848,-498.535,0.000,0
1553805791.449,356.934,-38.086,-91.797,-319.824,0.000,0
1553805791.453,387.695,-36.133,-88.379,-176.270,0.000,0
1553805791.457,378.906,-40.039,-66.895,247.559,0.000,0
1553805791.461,376.953,-51.270,-69.336,446.289,0.000,0
1553805791.465,392.090,-40.039,-74.707,242.676,0.000,0
1553805791.469,407.227,-27.344,-72.266,174.316,0.000,0
1553805791.472,409.668,-24.902,-74.707,423.828,0.000,0
1553805791.476,398.438,-37.109,-73.730,412.598,0.000,0
1553805791.480,433.594,-41.504,-71.289,586.426,0.000,0
1553805791.484,444.336,-40.527,-73.242,799.805,0.000,0
1553805791.488,436.035,-40.527,-67.871,409.180,0.000,0
1553805791.492,462.891,-48.828,-59.082,162.109,0.000,0
1553805791.496,471.191,-47.852,-64.941,-4.395,0.000,0
1553805791.500,433.105,-38.086,-74.707,-579.590,0.000,0
1553805791.504,418.945,-45.410,-71.777,-640.625,0.000,0
1553805791.508,436.523,-50.293,-63.477,-358.887,0.000,0
1553805791.512,442.871,-47.363,-58.594,-204.590,0.000,0
1553805791.515,461.914,-39.062,-59.570,-305.176,0.000,0
1553805791.519,456.055,-38.574,-63.477,-118.652,0.000,0
1553805791.523,459.961,-44.922,-65.430,37.109,0.000,0
1553805791.527,478.516,-49.316,-67.871,-600.098,0.000,0
1553805791.531,431.641,-57.129,-64.941,-1000.000,0.000,0
1553805791.535,427.246,-55.664,-61.523,-979.980,0.000,0
1553805791.539,474.121,-50.293,-62.988,-997.070,0.000,0
1553805791.543,454.102,-51.270,-63.477,-966.797,0.000,0
