timestamps,TP9,AF7,AF8,TP10,Right AUX,Marker0
1542737213.249,71.289,33.691,44.922,-3.906,38.574,0
1542737213.253,84.473,33.203,38.086,-2.930,29.785,0
1542737213.257,80.078,21.973,37.598,5.371,43.945,0
1542737213.260,77.637,22.949,48.828,4.395,43.945,0
1542737213.264,88.867,26.855,49.805,7.324,-20.508,0
1542737213.268,90.332,28.809,50.781,9.277,3.906,0
1542737213.272,94.727,34.180,54.688,2.930,5.859,0
1542737213.276,89.844,32.227,32.227,14.160,19.531,0
1542737213.280,89.355,23.438,26.367,26.855,18.066,0
1542737213.284,97.168,20.996,48.340,7.812,-47.852,0
1542737213.288,100.586,23.438,48.828,7.812,-43.945,0
1542737213.292,95.703,24.902,48.340,28.809,-2.441,0
1542737213.296,89.844,26.855,55.176,18.066,-2.930,0
1542737213.300,113.281,31.738,49.805,-20.996,0.000,0
1542737213.303,100.586,32.715,44.922,-32.227,-23.926,0
1542737213.307,67.383,22.461,62.500,-31.738,-2.441,0
1542737213.311,81.543,28.809,60.547,-22.461,45.410,0
1542737213.315,90.820,36.133,40.527,-18.066,-6.348,0
1542737213.319,73.242,25.391,50.781,5.859,-30.762,0
1542737213.323,77.148,30.762,54.199,18.555,42.480,0
1542737213.327,83.984,41.016,50.293,-6.836,40.039,0
1542737213.331,84.473,41.504,46.387,-9.277,25.879,0
1542737213.335,78.613,39.551,43.945,-14.160,39.551,0
1542737213.339,66.895,33.203,47.363,-10.254,54.688,0
1542737213.342,55.664,34.668,48.828,-14.160,50.293,0
1542737213.346,75.195,42.480,51.758,-1.953,38.086,0
1542737213.350,100.586,42.969,52.246,11.230,-4.883,0
1542737213.354,91.797,41.992,60.059,2.441,21.973,0
1542737213.358,63.965,43.457,60.547,-5.859,67.383,0
1542737213.362,56.641,43.457,56.152,-1.465,72.754,0
1542737213.366,83.008,42.480,51.270,14.648,72.266,0
1542737213.370,101.562,43.457,50.293,9.766,31.738,0
1542737213.374,98.145,45.898,53.711,9.766,5.371,0
1542737213.378,88.867,43.945,53.223,9.766,-27.344,0
1542737213.382,88.867,38.086,52.734,30.762,-26.855,0
1542737213.385,87.402,48.340,45.410,35.645,15.625,0
1542737213.389,97.168,54.199,44.434,34.180,-10.742,0
1542737213.393,119.629,43.945,46.875,48.340,-15.625,0
1542737213.397,113.281,42.969,40.527,39.551,20.508,0
1542737213.401,113.770,43.945,49.316,59.570,44.434,0
1542737213.405,128.418,44.922,48.340,77.637,46.387,0
1542737213.409,129.883,45.898,41.504,57.617,52.734,0
1542737213.413,127.441,44.434,41.016,60.547,71.777,0
1542737213.417,127.441,43.945,44.922,80.078,18.066,0
1542737213.421,133.789,42.480,45.898,84.961,4.395,0
1542737213.425,123.535,45.410,39.551,77.637,42.969,0
1542737213.428,118.164,48.828,37.109,83.496,19.531,0
1542737213.432,123.535,48.340,38.574,86.426,43.457,0
1542737213.436,112.793,43.945,47.363,84.961,71.289,0
1542737213.440,121.094,38.086,42.969,82.520,51.270,0
1542737213.444,118.164,31.738,37.109,74.219,4.883,0
1542737213.448,118.164,37.598,38.574,74.219,-2.930,0
1542737213.452,103.516,40.039,35.156,68.848,30.273,0
1542737213.456,93.750,32.715,32.227,79.590,14.648,0
1542737213.460,107.422,31.738,28.320,89.355,23.438,0
1542737213.464,91.309,27.832,29.785,78.613,18.066,0
1542737213.467,102.539,27.832,25.879,76.660,-3.906,0
1542737213.471,114.258,31.738,22.461,75.195,28.809,0
1542737213.475,103.027,26.367,28.320,79.590,24.414,0
1542737213.479,105.469,29.297,34.180,96.680,11.719,0
1542737213.483,107.910,37.109,25.391,89.355,33.203,0
1542737213.487,94.727,34.668,22.949,78.125,63.477,0
1542737213.491,86.426,31.250,32.715,94.238,26.855,0
1542737213.495,83.008,27.832,28.809,96.191,-25.879,0
1542737213.499,88.379,23.438,25.391,85.449,48.340,0
1542737213.503,104.980,29.785,31.738,89.355,39.551,0
1542737213.507,99.121,36.621,14.648,102.051,-17.090,0
1542737213.510,96.680,36.621,16.113,95.215,-2.930,0
1542737213.514,110.352,35.156,39.551,90.820,32.227,0
1542737213.518,90.820,35.156,41.016,108.398,42.969,0
1542737213.522,71.777,32.227,35.156,109.863,33.691,0
1542737213.526,91.309,21.973,36.621,115.234,-13.184,0
1542737213.530,94.238,23.926,22.949,124.512,-12.695,0
1542737213.534,75.684,33.691,17.578,130.371,57.617,0
1542737213.538,77.637,32.715,32.715,129.395,40.527,0
1542737213.542,83.984,33.203,35.156,123.047,15.625,0
1542737213.546,87.402,37.109,24.902,115.234,77.148,0
1542737213.550,81.543,25.879,21.484,118.652,104.004,0
1542737213.553,84.961,23.926,27.832,123.047,123.047,0
1542737213.557,78.125,31.250,29.297,128.418,108.887,0
1542737213.561,70.312,29.785,28.320,143.066,76.172,0
1542737213.565,72.266,33.203,28.809,144.531,101.562,0
1542737213.569,74.219,38.086,28.320,156.738,101.562,0
1542737213.573,81.055,33.203,28.320,174.316,145.020,0
1542737213.577,81.543,26.367,34.180,182.129,95.215,0
1542737213.581,89.355,34.668,30.273,193.848,51.270,0
1542737213.585,94.727,51.758,33.691,202.637,121.582,0
1542737213.589,90.332,44.922,41.992,199.219,112.793,0
1542737213.592,58.594,18.066,30.762,184.570,105.957,0
1542737213.596,52.246,16.113,30.762,180.664,116.699,0
1542737213.600,62.012,27.832,41.504,181.152,173.828,0
1542737213.604,61.523,34.180,36.133,173.340,190.430,0
1542737213.608,65.918,30.762,28.320,157.715,167.969,0
1542737213.612,43.457,38.574,41.016,145.996,195.312,0
1542737213.616,19.043,33.691,53.223,133.789,225.586,0
1542737213.620,52.246,22.461,47.363,119.141,232.422,0
1542737213.624,36.621,37.109,40.039,126.953,237.305,0
1542737213.628,-0.977,46.387,45.898,94.727,213.867,0
1542737213.632,-19.531,43.457,48.828,31.738,201.660,0
1542737213.635,-57.129,49.316,50.293,24.902,180.664,0
1542737213.639,-63.477,53.223,53.223,24.414,156.250,0
1542737213.643,-75.684,50.781,55.176,-3.906,201.172,0
1542737213.647,-62.500,54.688,52.246,-43.945,194.336,0
1542737213.651,-52.734,57.129,48.828,-58.105,183.105,0
1542737213.655,-82.031,53.223,58.594,-32.715,167.969,0
1542737213.659,-71.777,42.480,65.918,-20.020,174.805,0
1542737213.663,-66.406,34.180,71.289,-29.297,153.320,0
1542737213.667,-74.707,45.898,63.965,-66.406,188.477,0
1542737213.671,-45.410,46.875,49.316,-59.082,209.473,0
1542737213.675,-33.203,40.039,53.711,-31.738,165.039,0
1542737213.678,-43.945,36.133,51.270,-19.531,161.621,0
1542737213.682,-45.898,35.645,45.410,-18.555,203.125,0
1542737213.686,-12.207,50.781,48.828,-22.461,173.828,0
1542737213.690,-15.625,38.574,41.504,-35.156,96.191,0
1542737213.694,-41.992,23.926,34.668,-75.195,150.879,0
1542737213.698,-38.574,32.715,44.434,-77.637,139.648,0
1542737213.702,-63.477,47.852,43.945,-65.430,23.926,0
1542737213.706,-62.500,46.875,44.434,-66.895,51.270,0
1542737213.710,-60.547,38.574,56.152,-89.844,127.441,0
1542737213.714,-88.379,45.410,48.828,-116.211,91.309,0
1542737213.717,-88.867,42.969,63.477,-119.141,51.270,0
1542737213.721,-67.383,54.199,66.406,-94.238,83.984,0
1542737213.725,-65.430,64.453,48.828,-90.332,79.590,0
1542737213.729,-68.359,56.641,51.758,-122.070,31.250,0
1542737213.733,-57.617,61.035,52.246,-97.168,27.832,0
1542737213.737,-66.895,56.152,54.199,-87.402,59.570,0
1542737213.741,-66.895,53.711,56.641,-117.188,67.383,0
1542737213.745,-55.664,57.129,60.059,-111.328,76.660,0
1542737213.749,-62.012,59.082,60.547,-94.238,35.156,0
1542737213.753,-52.246,60.059,54.688,-96.191,-3.418,0
1542737213.757,-41.504,51.758,55.664,-99.609,47.852,0
1542737213.760,-42.480,51.270,60.059,-83.496,36.133,0
1542737213.764,-23.926,59.570,60.059,-70.312,-0.488,0
1542737213.768,-6.348,55.664,59.570,-55.176,21.484,0
1542737213.772,-12.695,49.316,49.316,-49.805,49.805,0
1542737213.776,3.418,51.758,44.434,-37.598,11.230,0
1542737213.780,29.297,48.828,48.340,-22.949,-43.945,0
1542737213.784,23.926,42.969,53.711,-13.184,-42.480,0
1542737213.788,15.137,38.574,47.852,-7.324,-11.719,0
1542737213.792,38.574,36.133,29.297,3.906,6.836,0
1542737213.796,64.941,37.598,23.438,13.184,-20.996,0
1542737213.800,73.730,39.551,22.461,4.883,3.418,0
1542737213.803,62.012,31.738,17.578,19.531,-2.930,0
1542737213.807,64.453,25.391,24.902,42.969,-72.266,0
1542737213.811,92.773,28.320,25.391,45.898,-37.109,0
1542737213.815,105.469,24.414,16.602,52.246,33.203,0
1542737213.819,98.145,23.438,20.996,61.035,70.312,0
1542737213.823,97.168,22.461,19.531,57.617,-25.879,0
1542737213.827,101.562,17.578,12.207,56.152,-55.664,0
1542737213.831,111.816,22.949,4.395,51.270,10.742,0
1542737213.835,116.699,24.414,7.324,64.453,-30.762,0
1542737213.839,110.352,16.602,14.648,90.820,-58.105,0
1542737213.842,126.465,13.672,8.789,96.680,-18.555,0
1542737213.846,123.535,10.742,9.277,85.938,-10.254,0
1542737213.850,108.398,7.812,6.348,74.219,-40.527,0
1542737213.854,114.746,12.695,2.441,76.172,-25.879,0
1542737213.858,108.887,8.301,7.812,99.609,-29.297,0
1542737213.862,111.328,4.883,4.395,92.285,-56.152,0
1542737213.866,122.559,6.836,4.883,85.449,-64.453,0
1542737213.870,117.188,10.254,6.836,75.684,-58.105,0
1542737213.874,121.094,14.160,-0.977,65.918,-46.387,0
1542737213.878,115.723,11.230,1.953,79.102,11.719,0
1542737213.882,106.934,5.859,2.441,78.613,21.973,0
1542737213.885,100.098,3.906,0.000,69.824,-54.199,0
1542737213.889,94.727,5.371,2.441,60.547,-92.773,0
1542737213.893,100.098,0.977,3.418,66.895,-63.965,0
1542737213.897,96.680,-3.418,7.324,78.613,-47.852,0
1542737213.901,99.121,2.441,11.230,83.984,-69.336,0
1542737213.905,98.145,8.301,6.836,66.406,-104.980,0
1542737213.909,105.957,18.066,2.441,58.594,-39.551,0
1542737213.913,125.000,18.555,3.906,79.102,-22.949,0
1542737213.917,113.770,23.438,2.441,64.941,-115.723,0
1542737213.921,97.168,19.043,10.742,43.945,-122.559,0
1542737213.925,98.633,3.418,11.719,40.039,-80.566,0
1542737213.928,102.539,6.836,6.836,23.438,-72.754,0
1542737213.932,91.797,6.836,7.812,7.812,-93.262,0
1542737213.936,78.125,9.766,5.371,5.859,-95.215,0
1542737213.940,95.215,12.207,10.254,6.348,-123.047,0
1542737213.944,101.562,14.160,11.719,-12.207,-176.758,0
1542737213.948,74.219,12.695,10.742,-19.043,-120.117,0
1542737213.952,67.383,9.277,12.207,1.465,-86.426,0
1542737213.956,81.543,17.578,15.625,-5.371,-76.172,0
1542737213.960,83.984,20.508,9.277,-16.602,-79.102,0
1542737213.964,68.359,13.184,0.488,-7.324,-16.602,0
1542737213.967,69.824,12.695,17.578,-15.625,2.441,0
1542737213.971,90.332,20.508,22.461,-3.418,-84.961,0
1542737213.975,82.031,23.926,16.113,-3.906,-98.145,0
1542737213.979,76.660,23.438,20.508,-4.883,-66.406,0
1542737213.983,72.754,15.137,19.043,-1.953,-72.754,0
1542737213.987,75.195,16.113,20.020,3.906,-67.383,0
1542737213.991,74.219,19.531,18.555,16.113,-23.926,0
1542737213.995,65.430,16.602,19.043,17.578,-38.574,0
1542737213.999,79.590,21.973,21.973,8.789,-11.719,0
1542737214.003,81.543,26.855,17.090,14.648,-15.625,0
1542737214.007,51.758,21.484,14.648,9.277,-46.387,0
1542737214.010,42.969,12.207,16.602,-9.277,21.973,0
1542737214.014,50.293,12.207,10.254,7.324,22.949,0
1542737214.018,44.922,21.484,11.230,2.441,29.785,0
1542737214.022,50.293,23.438,21.484,-9.766,60.547,0
1542737214.026,50.293,18.555,20.020,5.859,54.688,0
1542737214.030,50.293,23.926,20.996,19.043,25.879,0
1542737214.034,53.711,23.926,29.297,18.555,23.926,0
1542737214.038,55.176,18.066,21.973,4.395,30.273,0
1542737214.042,54.199,18.066,15.137,-1.465,-38.086,0
1542737214.046,47.363,18.066,15.625,-7.812,-8.301,0
1542737214.050,37.598,27.832,15.625,-5.371,59.082,0
1542737214.053,34.180,33.691,21.973,7.324,62.500,0
1542737214.057,51.758,28.320,19.531,10.742,57.617,0
1542737214.061,55.176,21.484,10.742,4.395,-26.855,0
1542737214.065,41.016,24.902,11.719,-0.977,-77.637,0
1542737214.069,46.387,29.785,15.137,-0.977,-13.184,0
1542737214.073,46.875,21.973,18.555,7.324,25.391,0
1542737214.077,39.551,18.066,19.043,19.531,14.160,0
1542737214.081,31.250,18.555,20.508,18.555,40.039,0
1542737214.085,29.297,20.508,22.949,8.789,72.266,0
1542737214.089,37.598,27.344,20.020,-6.348,56.641,0
1542737214.092,44.922,29.785,25.879,-7.324,-4.883,0
1542737214.096,51.270,28.320,23.438,-10.254,23.438,0
1542737214.100,46.875,19.531,0.488,-0.977,62.988,0
1542737214.104,29.297,6.348,13.184,10.254,25.879,0
1542737214.108,20.996,13.672,34.180,12.207,74.219,0
1542737214.112,34.668,30.762,34.180,20.020,36.133,0
1542737214.116,33.203,39.062,32.715,18.555,-28.320,0
1542737214.120,24.414,31.738,27.832,12.695,-18.066,0
1542737214.124,12.207,25.391,29.297,8.789,30.273,0
1542737214.128,10.742,26.367,27.344,-2.930,36.133,0
1542737214.132,30.273,34.180,18.066,4.395,39.062,0
1542737214.135,36.621,39.551,31.738,9.277,9.766,0
1542737214.139,21.484,34.668,47.363,0.977,-57.617,0
1542737214.143,14.648,46.387,61.523,11.719,-33.691,0
1542737214.147,8.301,50.781,55.176,9.766,-13.184,0
1542737214.151,-19.043,29.785,40.039,-20.996,-13.184,0
1542737214.155,-17.578,32.715,50.293,-22.461,-22.461,0
1542737214.159,-21.973,49.316,57.129,-25.879,-39.551,0
1542737214.163,-43.457,42.480,54.688,-50.293,-11.230,0
1542737214.167,-41.504,32.715,41.016,-46.875,-12.695,0
1542737214.171,-55.664,48.828,36.133,-56.152,-5.371,0
1542737214.175,-105.957,58.594,51.758,-102.051,-36.133,0
1542737214.178,-125.000,54.199,64.453,-125.488,-35.645,0
1542737214.182,-124.023,62.500,68.359,-135.254,67.383,0
1542737214.186,-145.020,66.406,64.941,-160.156,30.273,0
1542737214.190,-155.762,60.547,60.547,-183.594,-19.531,0
1542737214.194,-178.223,41.992,75.684,-201.172,24.414,0
1542737214.198,-212.891,34.180,91.309,-217.773,27.344,0
1542737214.202,-222.656,37.598,86.426,-224.609,3.906,0
1542737214.206,-204.102,39.062,96.191,-223.633,36.133,0
1542737214.210,-202.148,57.129,116.699,-213.867,64.453,0
1542737214.214,-205.566,61.035,109.863,-212.402,24.902,0
1542737214.217,-212.891,50.781,86.426,-225.098,41.016,0
1542737214.221,-198.242,48.340,74.707,-211.426,68.848,0
1542737214.225,-168.945,49.805,70.801,-189.941,8.789,0
1542737214.229,-162.598,46.387,64.941,-175.293,27.832,0
1542737214.233,-135.254,36.133,60.059,-162.598,50.293,0
1542737214.237,-115.234,31.250,62.012,-137.207,-7.324,0
1542737214.241,-110.840,27.832,58.594,-120.117,32.715,0
1542737214.245,-93.262,28.320,46.387,-108.887,25.879,0
1542737214.249,-81.543,21.973,42.480,-79.590,16.602,0
1542737214.253,-67.383,15.625,39.551,-70.312,14.160,0
1542737214.257,-55.664,15.625,37.598,-75.684,51.758,0
1542737214.260,-38.086,17.090,27.344,-61.035,88.379,0
1542737214.264,-9.766,14.160,17.578,-47.852,-12.695,0
1542737214.268,-4.395,6.836,14.648,-39.062,39.551,0
1542737214.272,0.977,9.766,12.207,-17.090,52.246,0
1542737214.276,16.113,12.695,8.301,7.324,0.000,0
1542737214.280,30.762,16.602,7.812,16.602,22.949,0
1542737214.284,50.781,12.207,3.906,7.324,43.945,0
1542737214.288,39.062,7.324,-3.906,8.301,35.645,0
1542737214.292,42.480,14.648,-2.441,26.855,65.430,0
1542737214.296,74.219,11.230,0.488,48.340,68.359,0
1542737214.300,60.547,-0.488,1.953,52.246,11.230,0
1542737214.303,50.293,-1.953,8.301,56.641,49.805,0
1542737214.307,78.125,10.742,10.254,54.688,66.895,0
1542737214.311,93.262,13.672,9.766,61.523,2.441,0
1542737214.315,82.031,8.301,11.230,78.613,-20.020,0
1542737214.319,94.238,11.230,10.254,76.172,13.672,0
1542737214.323,104.980,8.789,4.883,67.383,43.945,0
1542737214.327,92.285,-0.488,4.395,59.082,-24.414,0
1542737214.331,89.844,13.672,-13.184,52.734,-6.836,0
1542737214.335,98.633,22.949,-26.855,64.453,46.387,0
1542737214.339,84.473,12.695,-2.930,70.312,25.391,0
1542737214.342,88.379,18.555,13.672,73.242,20.508,0
1542737214.346,106.445,12.207,21.484,91.309,33.203,0
1542737214.350,107.422,5.371,21.484,91.797,-16.602,0
1542737214.354,115.234,8.789,8.789,86.914,-36.133,0
1542737214.358,114.746,5.859,0.488,93.750,3.906,0
1542737214.362,106.934,14.648,-2.441,94.727,46.387,0
1542737214.366,104.492,22.461,10.254,84.473,50.781,0
1542737214.370,95.215,19.043,10.742,83.984,-18.555,0
1542737214.374,90.820,20.996,3.906,80.566,-20.996,0
1542737214.378,94.238,24.414,7.324,72.266,-16.113,0
1542737214.382,90.332,15.137,8.301,83.984,20.996,0
1542737214.385,99.609,15.137,4.883,88.379,118.652,0
1542737214.389,95.703,19.531,6.348,77.637,44.922,0
1542737214.393,78.613,18.555,12.207,76.660,7.324,0
1542737214.397,76.172,14.160,20.020,84.961,2.441,0
1542737214.401,86.426,15.625,24.414,97.168,16.602,0
1542737214.405,84.961,25.879,9.766,103.027,29.297,0
1542737214.409,79.590,26.855,-1.953,104.492,0.977,0
1542737214.413,77.637,22.949,19.043,94.727,21.484,0
1542737214.417,70.312,24.414,31.738,85.938,-31.738,0
1542737214.421,68.359,21.973,26.855,96.680,-79.590,0
1542737214.425,73.730,20.020,27.344,92.285,1.953,0
1542737214.428,74.707,20.508,24.902,105.469,40.527,0
1542737214.432,78.613,13.184,21.484,127.930,33.691,0
1542737214.436,75.684,12.695,11.230,118.652,55.664,0
1542737214.440,79.102,27.344,13.184,108.398,79.102,0
1542737214.444,92.773,29.785,26.367,101.074,63.477,0
1542737214.448,77.637,22.949,29.785,112.793,27.344,0
1542737214.452,58.105,25.391,32.227,129.395,48.828,0
1542737214.456,68.848,32.715,28.320,130.859,2.441,0
1542737214.460,81.543,25.391,11.719,138.672,-23.438,0
1542737214.464,78.125,18.066,21.973,135.254,0.488,0
1542737214.467,65.918,26.367,18.555,105.469,29.297,0
1542737214.471,56.152,21.973,17.578,93.750,51.758,0
1542737214.475,42.969,12.207,45.898,100.098,-1.953,0
1542737214.479,56.152,14.648,45.898,108.887,8.789,0
1542737214.483,65.918,18.066,36.133,111.816,57.129,0
1542737214.487,54.688,21.973,40.527,93.750,39.062,0
1542737214.491,43.945,24.902,46.875,88.867,5.859,0
1542737214.495,51.758,24.414,36.621,107.910,31.738,0
1542737214.499,83.008,24.902,28.320,110.352,45.410,0
1542737214.503,64.941,19.043,44.434,90.820,33.203,0
1542737214.507,39.062,17.578,45.410,92.773,34.180,0
1542737214.510,57.617,26.855,36.133,106.445,35.645,0
1542737214.514,57.129,32.227,37.598,102.539,68.848,0
1542737214.518,56.641,22.949,39.551,97.656,63.965,0
1542737214.522,47.852,14.648,41.992,102.051,91.797,0
1542737214.526,40.039,26.367,42.969,96.191,76.660,0
1542737214.530,59.082,32.715,32.227,89.844,24.414,0
1542737214.534,45.410,17.090,39.062,106.445,3.906,0
1542737214.538,30.273,15.137,43.945,85.938,-34.180,0
1542737214.542,60.059,28.320,31.250,76.172,14.160,0
1542737214.546,73.730,33.203,35.645,91.309,75.195,0
1542737214.550,55.664,34.180,38.086,87.891,64.453,0
1542737214.553,52.734,29.785,39.551,104.492,-0.488,0
1542737214.557,73.242,25.879,37.109,115.234,2.441,0
1542737214.561,61.035,28.809,32.227,98.633,76.172,0
1542737214.565,61.035,28.809,19.531,98.145,75.195,0
1542737214.569,72.754,28.320,15.625,108.887,24.414,0
1542737214.573,61.035,31.738,29.785,103.027,0.977,0
1542737214.577,62.012,30.762,50.781,112.305,-32.715,0
1542737214.581,59.570,30.273,56.641,134.766,-36.133,0
1542737214.585,65.430,27.344,42.969,149.902,32.715,0
1542737214.589,72.266,21.484,40.039,145.508,20.996,0
1542737214.592,86.914,23.926,37.598,134.277,4.395,0
1542737214.596,107.422,31.250,37.109,142.578,52.246,0
1542737214.600,101.562,33.691,36.133,143.555,46.875,0
1542737214.604,85.449,24.902,39.062,147.461,28.809,0
1542737214.608,89.355,25.391,40.527,161.133,15.625,0
1542737214.612,83.008,23.926,43.457,153.809,36.621,0
1542737214.616,90.820,13.672,45.898,163.086,82.031,0
1542737214.620,119.141,12.695,39.062,181.641,65.430,0
1542737214.624,92.773,20.020,38.086,176.270,73.242,0
1542737214.628,93.750,31.738,40.039,169.434,66.895,0
1542737214.632,110.352,31.738,40.527,170.898,72.754,0
1542737214.635,100.586,26.855,42.969,165.527,84.961,0
1542737214.639,80.566,23.926,42.480,150.879,45.410,0
1542737214.643,73.730,20.020,42.969,161.133,78.125,0
1542737214.647,87.891,20.996,43.457,158.203,103.516,0
1542737214.651,97.656,24.902,39.551,150.391,24.414,0
1542737214.655,96.191,28.320,28.809,146.484,20.996,0
1542737214.659,96.191,22.949,33.203,149.902,69.336,0
1542737214.663,103.516,18.555,44.434,144.043,72.266,0
1542737214.667,95.703,22.461,34.668,129.395,46.387,0
1542737214.671,94.238,24.414,24.902,125.000,21.484,0
1542737214.675,126.953,23.926,30.273,110.352,22.461,0
1542737214.678,117.188,24.414,43.945,108.398,19.531,0
1542737214.682,93.750,29.785,44.434,110.352,25.879,0
1542737214.686,109.863,24.902,41.992,76.172,36.133,0
1542737214.690,103.516,23.438,39.062,72.754,20.508,0
1542737214.694,108.398,40.527,30.762,85.938,68.848,0
1542737214.698,124.512,39.551,34.180,67.383,90.332,0
1542737214.702,117.188,31.738,31.738,56.641,45.410,0
1542737214.706,126.465,41.016,30.273,52.246,28.320,0
1542737214.710,173.828,41.992,38.086,48.828,51.758,0
1542737214.714,208.008,32.715,31.250,57.129,72.266,0
1542737214.717,148.926,26.855,22.461,48.828,94.238,0
1542737214.721,105.957,22.461,34.180,13.672,104.492,0
1542737214.725,143.066,13.184,56.152,1.465,56.641,0
1542737214.729,182.617,13.184,49.316,12.207,36.133,0
1542737214.733,173.340,6.836,49.805,10.742,10.742,0
1542737214.737,148.438,0.977,61.523,11.230,-27.344,0
1542737214.741,148.926,-0.488,51.758,12.695,22.461,0
1542737214.745,165.039,-14.160,44.434,22.949,40.527,0
1542737214.749,178.711,-12.695,55.664,16.113,47.852,0
1542737214.753,170.898,-13.184,73.730,22.949,75.195,0
1542737214.757,172.363,-17.090,78.613,38.086,92.773,0
1542737214.760,187.500,-16.602,69.336,30.762,96.680,0
1542737214.764,206.543,-24.902,69.336,36.621,17.578,0
1542737214.768,222.656,-28.320,75.684,55.176,-19.043,0
1542737214.772,223.633,-31.738,64.941,54.688,36.621,0
1542737214.776,226.074,-39.551,68.359,68.359,66.406,0
1542737214.780,229.980,-46.875,75.684,83.984,-14.160,0
1542737214.784,232.910,-47.852,80.078,71.777,-36.621,0
1542737214.788,231.934,-51.270,94.238,91.797,51.758,0
1542737214.792,230.469,-58.105,87.402,106.445,-16.602,0
1542737214.796,240.723,-47.363,79.590,88.379,-65.430,0
1542737214.800,242.188,-40.527,90.820,90.332,19.043,0
1542737214.803,245.117,-44.434,92.773,96.680,41.016,0
1542737214.807,237.305,-40.527,88.379,98.145,-24.414,0
1542737214.811,245.117,-38.086,93.262,105.957,0.488,0
1542737214.815,270.020,-39.551,71.777,111.816,30.762,0
1542737214.819,265.625,-32.227,54.688,106.934,6.348,0
1542737214.823,255.371,-22.461,78.613,111.816,16.113,0
1542737214.827,249.512,-14.648,82.031,125.488,-12.207,0
1542737214.831,260.742,-11.719,82.520,121.582,-14.160,0
1542737214.835,259.277,-11.230,81.055,120.117,-24.902,0
1542737214.839,258.789,-15.625,79.590,138.672,9.766,0
1542737214.842,268.555,-15.137,77.148,134.277,69.336,0
1542737214.846,265.625,-5.371,68.359,122.070,36.621,0
1542737214.850,256.836,-1.953,61.523,134.277,42.969,0
1542737214.854,254.395,-2.441,53.711,135.254,44.922,0
1542737214.858,266.602,-6.348,42.480,150.391,18.555,0
1542737214.862,266.113,-0.977,52.246,146.973,-25.391,0
1542737214.866,261.719,10.742,72.754,129.395,-76.660,0
1542737214.870,270.020,12.207,75.684,145.508,-15.625,0
1542737214.874,273.438,15.137,67.383,144.531,35.645,0
1542737214.878,279.297,23.438,62.500,117.676,32.227,0
1542737214.882,274.414,24.414,52.734,114.746,3.906,0
1542737214.885,265.625,21.973,36.133,134.766,-49.316,0
1542737214.889,279.785,26.855,46.387,128.906,-42.969,0
1542737214.893,292.969,34.180,65.430,118.164,2.930,0
1542737214.897,285.156,30.273,58.594,122.070,18.066,0
1542737214.901,272.949,29.297,47.363,125.488,17.578,0
1542737214.905,271.973,35.645,47.852,125.977,-16.602,0
1542737214.909,273.438,32.227,47.363,136.230,-14.160,0
1542737214.913,273.438,19.531,18.066,134.766,0.977,0
1542737214.917,270.996,17.578,20.508,139.648,-17.090,0
1542737214.921,270.508,29.297,53.223,157.227,54.688,0
1542737214.925,259.766,33.691,65.430,160.156,20.996,0
1542737214.928,255.371,34.180,62.012,143.555,6.348,0
1542737214.932,251.953,34.180,54.199,141.113,22.949,0
1542737214.936,237.793,32.227,53.223,174.805,-9.766,0
1542737214.940,244.141,32.227,50.781,178.223,0.000,0
1542737214.944,239.258,32.715,53.711,164.551,20.020,0
1542737214.948,245.117,34.180,46.875,167.969,26.855,0
1542737214.952,241.699,37.598,37.598,161.133,-11.719,0
1542737214.956,218.750,40.039,39.062,159.668,18.066,0
1542737214.960,218.262,39.551,37.598,169.922,47.363,0
1542737214.964,212.402,38.086,42.480,170.898,24.414,0
1542737214.967,210.449,37.109,45.410,182.129,33.203,0
1542737214.971,210.938,32.227,37.109,190.430,5.859,0
1542737214.975,211.426,28.809,22.461,182.617,38.086,0
1542737214.979,193.848,35.156,22.949,179.199,122.559,0
1542737214.983,204.102,33.691,45.410,192.383,78.613,0
1542737214.987,230.469,27.832,48.340,210.449,0.488,0
1542737214.991,194.824,31.250,40.527,191.895,14.160,0
1542737214.995,156.250,38.086,37.109,178.711,48.340,0
1542737214.999,157.227,37.109,41.016,182.129,22.461,0
1542737215.003,167.969,27.832,47.852,181.152,24.902,0
1542737215.007,168.457,29.297,41.504,192.383,16.113,0
1542737215.010,176.758,31.250,35.645,179.688,27.832,0
1542737215.014,181.152,31.738,37.109,181.152,-5.859,0
1542737215.018,152.832,35.156,45.410,187.988,8.789,0
1542737215.022,152.832,33.691,41.504,182.129,105.957,0
1542737215.026,183.105,28.320,32.715,185.547,50.781,0
1542737215.030,163.086,23.438,37.109,180.176,2.930,0
1542737215.034,140.625,31.250,45.898,171.875,34.668,0
1542737215.038,140.625,36.621,41.504,170.898,35.156,0
1542737215.042,152.344,38.086,25.391,179.199,34.180,0
1542737215.046,156.738,41.992,37.598,184.082,19.531,0
1542737215.050,135.254,35.156,49.316,176.270,13.184,0
1542737215.053,128.418,35.156,52.246,166.016,22.949,0
1542737215.057,140.137,28.809,51.758,166.992,62.988,0
1542737215.061,137.207,22.461,36.621,184.082,45.898,0
1542737215.065,129.883,39.062,16.602,183.105,4.883,0
1542737215.069,146.484,38.086,27.344,171.387,-34.180,0
1542737215.073,145.996,27.832,48.340,172.363,20.996,0
1542737215.077,136.719,42.480,55.176,154.297,54.688,0
1542737215.081,140.137,59.570,66.406,153.320,26.367,0
1542737215.085,132.324,61.035,61.523,167.969,75.195,0
1542737215.089,148.926,45.410,54.199,162.109,90.332,0
1542737215.092,132.324,30.273,57.617,144.043,32.715,0
1542737215.096,88.379,38.574,62.988,142.090,45.898,0
1542737215.100,126.953,50.781,63.965,150.391,45.898,0
1542737215.104,120.605,47.363,63.965,152.832,70.801,0
1542737215.108,70.801,38.086,55.664,136.230,22.949,0
1542737215.112,73.242,40.039,38.574,115.234,26.855,0
1542737215.116,113.770,34.668,53.711,113.281,83.496,0
1542737215.120,107.422,38.086,80.566,118.652,0.488,0
1542737215.124,57.129,30.273,62.988,96.680,-43.945,0
1542737215.128,76.660,9.766,42.480,67.383,32.227,0
1542737215.132,77.148,28.320,72.266,62.500,78.125,0
1542737215.135,46.875,54.688,82.520,62.500,45.410,0
1542737215.139,40.039,51.270,82.031,61.035,36.133,0
1542737215.143,47.363,61.035,100.586,50.781,15.625,0
1542737215.147,12.207,66.406,92.285,1.953,-21.484,0
1542737215.151,-40.039,57.129,85.938,-34.668,15.625,0
1542737215.155,-35.645,61.523,108.398,-37.598,64.941,0
1542737215.159,-49.316,51.758,126.465,-75.195,56.641,0
1542737215.163,-46.875,61.523,128.906,-97.168,-21.484,0
1542737215.167,-67.383,70.801,128.418,-95.703,-27.344,0
1542737215.171,-69.824,79.102,132.812,-93.750,9.277,0
1542737215.175,-52.246,96.191,121.582,-85.938,36.621,0
1542737215.178,-54.688,110.840,91.309,-81.543,23.438,0
1542737215.182,-50.781,121.582,85.938,-77.148,48.340,0
1542737215.186,-63.477,119.629,93.750,-83.496,87.402,0
1542737215.190,-26.367,130.859,97.168,-62.500,41.992,0
1542737215.194,0.000,144.531,90.820,-57.617,-6.836,0
1542737215.198,-1.465,140.137,72.266,-44.434,-25.879,0
1542737215.202,15.625,132.812,46.875,-9.766,10.742,0
1542737215.206,28.320,129.395,35.645,-12.207,-13.672,0
1542737215.210,63.965,119.629,29.785,17.090,-3.418,0
1542737215.214,87.891,104.980,23.438,51.270,43.457,0
1542737215.217,83.984,104.492,20.020,67.871,20.020,0
1542737215.221,83.984,122.070,4.395,72.754,-18.066,0
1542737215.225,86.914,130.859,-10.254,68.848,74.707,0
1542737215.229,113.770,120.117,-13.184,81.543,47.852,0
1542737215.233,128.418,107.910,-9.277,90.820,-25.391,0
1542737215.237,149.902,108.398,-4.395,107.422,-13.184,0
1542737215.241,158.691,106.445,-7.324,133.301,-12.207,0
1542737215.245,140.137,97.168,-13.184,138.184,9.766,0
1542737215.249,149.902,86.914,-30.762,136.230,4.883,0
1542737215.253,164.062,76.660,-34.668,133.789,11.230,0
1542737215.257,162.109,73.730,-9.277,143.555,30.762,0
1542737215.260,175.293,73.730,-4.883,162.109,27.832,0
1542737215.264,190.918,72.266,-17.090,187.012,26.855,0
1542737215.268,200.195,72.266,-18.555,186.035,99.609,0
1542737215.272,200.684,66.895,-5.859,163.086,111.328,0
1542737215.276,186.035,59.082,-1.953,186.035,82.031,0
1542737215.280,171.387,53.223,0.977,219.238,49.316,0
1542737215.284,170.410,45.898,-8.789,208.008,42.969,0
1542737215.288,180.176,51.270,-12.207,176.758,16.113,0
1542737215.292,167.480,55.176,-17.578,180.664,-31.250,0
1542737215.296,187.988,47.852,-26.855,180.176,16.113,0
1542737215.300,193.359,39.551,-16.602,183.105,28.809,0
1542737215.303,161.621,38.574,4.395,187.012,10.254,0
1542737215.307,173.828,37.109,10.742,187.988,12.695,0
1542737215.311,189.453,39.062,7.324,198.730,46.875,0
1542737215.315,174.805,47.363,-8.301,187.500,48.340,0
1542737215.319,181.152,43.457,-18.555,182.129,-17.090,0
1542737215.323,168.457,23.438,12.695,194.336,-16.113,0
1542737215.327,154.297,22.949,17.090,200.684,26.367,0
1542737215.331,161.621,28.320,5.371,198.242,82.520,0
1542737215.335,162.598,19.531,5.371,197.266,49.805,0
1542737215.339,172.852,27.832,-1.465,188.965,-53.711,0
1542737215.342,151.855,35.645,16.602,169.434,0.488,0
1542737215.346,142.090,35.645,31.250,173.340,58.594,0
1542737215.350,155.273,40.039,32.715,177.246,28.320,0
1542737215.354,163.086,34.180,17.090,166.504,19.531,0
1542737215.358,159.180,29.785,1.465,160.156,0.977,0
1542737215.362,146.484,24.414,2.441,159.668,-7.812,0
1542737215.366,131.348,21.484,14.648,147.461,-20.020,0
1542737215.370,115.234,22.949,29.785,138.672,-50.293,0
1542737215.374,115.723,22.461,27.344,140.137,24.414,0
1542737215.378,125.488,16.113,29.297,143.066,76.172,0
1542737215.382,144.531,9.277,17.090,142.578,9.277,0
1542737215.385,125.488,13.184,0.977,137.207,21.484,0
1542737215.389,123.047,24.414,17.090,135.254,105.957,0
1542737215.393,138.184,25.391,23.438,131.836,82.031,0
1542737215.397,128.418,15.625,20.996,135.742,17.090,0
1542737215.401,104.980,16.602,27.344,136.230,-7.812,0
1542737215.405,104.980,28.320,21.973,123.535,12.207,0
1542737215.409,113.770,36.133,19.043,128.418,50.781,0
1542737215.413,110.840,28.809,13.184,130.371,34.180,0
1542737215.417,104.980,19.043,11.719,103.027,-13.184,0
1542737215.421,98.145,8.301,23.438,95.215,44.922,0
1542737215.425,122.559,14.160,23.438,87.891,45.410,0
1542737215.428,120.117,24.414,31.738,99.121,36.621,0
1542737215.432,109.375,22.461,31.250,98.145,43.945,0
1542737215.436,93.750,24.414,28.809,72.266,35.645,0
1542737215.440,95.703,30.273,19.531,56.152,59.570,0
1542737215.444,98.145,22.949,19.043,47.852,32.715,0
1542737215.448,85.938,8.301,26.855,40.039,36.133,0
1542737215.452,101.074,19.043,30.273,32.227,116.211,0
1542737215.456,104.492,26.367,48.828,40.527,89.844,0
1542737215.460,98.633,18.555,46.875,41.016,32.715,0
1542737215.464,108.887,33.691,41.992,40.039,50.781,0
1542737215.467,104.980,43.945,19.043,30.762,-18.066,0
1542737215.471,104.492,39.062,0.977,34.668,-48.340,0
1542737215.475,111.816,35.645,25.391,41.992,-12.207,0
1542737215.479,87.402,31.738,44.434,39.062,29.785,0
1542737215.483,93.262,35.156,51.270,44.434,42.480,0
1542737215.487,120.605,32.715,48.828,50.781,-6.836,0
1542737215.491,111.328,22.949,43.945,48.828,19.043,0
1542737215.495,82.520,19.531,30.762,33.203,25.879,0
1542737215.499,78.613,19.043,30.762,30.273,23.438,0
1542737215.503,73.730,20.996,41.992,33.203,66.895,0
1542737215.507,97.656,19.043,36.621,37.598,50.293,0
1542737215.510,117.188,28.320,30.273,57.129,-12.207,0
1542737215.514,93.262,36.133,33.203,68.359,56.641,0
1542737215.518,92.285,27.832,37.598,81.055,88.379,0
1542737215.522,83.008,25.879,45.410,74.219,55.664,0
1542737215.526,92.285,34.668,47.363,65.430,27.344,0
1542737215.530,88.867,31.738,44.922,76.660,39.062,0
1542737215.534,72.754,25.879,41.016,73.242,89.355,0
1542737215.538,100.586,27.344,38.574,82.031,69.824,0
1542737215.542,108.887,24.902,44.434,108.887,48.828,0
1542737215.546,76.660,20.508,35.645,104.004,27.832,0
1542737215.550,67.383,21.484,15.625,80.566,16.602,0
1542737215.553,102.539,25.391,40.527,97.656,21.973,0
1542737215.557,110.840,24.902,48.828,106.934,31.738,0
1542737215.561,93.262,12.207,32.227,107.422,38.574,0
1542737215.565,94.727,20.996,30.273,112.305,20.508,0
1542737215.569,105.469,38.574,29.297,106.934,30.762,0
1542737215.573,101.074,30.273,33.203,117.676,34.180,0
1542737215.577,101.562,28.809,42.969,110.840,22.461,0
1542737215.581,97.656,34.180,51.758,107.422,70.312,0
1542737215.585,95.703,28.809,50.293,116.211,64.453,0
1542737215.589,115.723,29.785,42.480,125.977,0.977,0
1542737215.592,110.352,25.391,38.086,119.141,-8.301,0
1542737215.596,84.961,6.836,45.898,110.352,-25.879,0
1542737215.600,100.586,10.254,54.688,108.398,31.250,0
1542737215.604,107.910,27.344,43.457,93.262,98.633,0
1542737215.608,103.027,33.691,33.691,106.934,33.691,0
1542737215.612,108.398,25.879,33.691,112.793,48.828,0
1542737215.616,111.816,24.902,34.668,122.070,103.027,0
1542737215.620,126.953,28.320,40.039,144.531,80.566,0
1542737215.624,107.910,29.785,24.902,139.648,20.020,0
1542737215.628,103.516,27.344,29.785,130.371,-4.395,0
1542737215.632,100.586,31.738,46.875,123.047,50.293,0
1542737215.635,85.449,36.133,51.758,119.629,52.734,0
1542737215.639,92.773,20.508,48.828,121.582,24.902,0
1542737215.643,89.844,20.020,40.039,126.465,32.715,0
1542737215.647,94.727,28.809,39.551,114.746,3.906,0
1542737215.651,113.770,34.180,46.387,107.422,56.152,0
1542737215.655,88.379,41.504,44.434,105.957,37.598,0
1542737215.659,92.773,31.738,37.109,134.277,-36.621,0
1542737215.663,101.074,22.461,39.062,150.391,-8.301,0
1542737215.667,83.496,28.809,47.363,120.117,-20.996,0
1542737215.671,83.984,39.062,46.875,126.953,41.504,0
1542737215.675,79.102,32.715,43.457,139.160,107.422,0
1542737215.678,72.754,20.996,33.691,119.141,59.082,0
1542737215.682,95.215,17.090,31.250,118.164,22.949,0
1542737215.686,102.051,19.043,37.598,159.668,-26.367,0
1542737215.690,98.633,22.461,50.293,155.762,-48.828,0
1542737215.694,86.426,20.508,55.664,107.910,5.859,0
1542737215.698,58.105,22.461,41.992,100.098,12.207,0
1542737215.702,53.711,22.461,28.809,127.441,-26.367,0
1542737215.706,69.336,17.090,30.762,148.926,-10.742,0
1542737215.710,59.570,13.184,47.852,126.465,47.852,0
1542737215.714,31.738,20.020,52.734,108.887,53.711,0
1542737215.717,55.176,17.578,53.711,122.070,14.648,0
1542737215.721,74.219,8.301,45.410,142.090,-12.207,0
1542737215.725,60.059,2.930,47.852,134.277,1.953,0
1542737215.729,53.711,-1.465,37.109,110.840,24.414,0
1542737215.733,62.988,-2.930,30.273,119.141,55.176,0
1542737215.737,78.125,10.254,31.738,135.742,22.949,0
1542737215.741,66.406,13.184,22.461,139.648,65.430,0
1542737215.745,45.898,8.789,44.434,138.672,70.312,0
1542737215.749,56.152,17.090,55.664,129.883,-73.730,0
1542737215.753,67.871,16.602,43.457,141.602,-93.262,0
1542737215.757,53.711,10.742,40.039,153.809,-3.418,0
1542737215.760,36.621,3.418,49.805,149.902,19.043,0
1542737215.764,61.035,10.742,40.527,139.160,35.156,0
1542737215.768,75.684,21.973,38.086,149.414,71.777,0
1542737215.772,79.102,22.461,29.297,151.367,98.145,0
1542737215.776,53.711,23.926,28.320,156.738,80.566,0
1542737215.780,50.293,20.996,49.805,159.180,80.566,0
1542737215.784,73.730,26.367,52.246,161.133,33.203,0
1542737215.788,68.848,29.297,50.781,171.875,-7.324,0
1542737215.792,60.547,22.949,49.316,166.504,38.086,0
1542737215.796,61.523,15.625,30.762,173.828,52.246,0
1542737215.800,60.059,12.207,25.879,192.383,13.184,0
1542737215.803,67.383,26.855,41.016,188.965,3.906,0
1542737215.807,66.895,21.484,40.527,175.781,14.648,0
1542737215.811,40.527,17.090,42.480,156.250,81.055,0
1542737215.815,49.805,40.039,41.504,186.523,87.402,0
1542737215.819,68.359,38.574,40.527,191.895,26.855,0
1542737215.823,61.035,25.391,38.086,175.781,53.711,0
1542737215.827,54.199,21.973,36.621,190.918,58.105,0
1542737215.831,70.312,22.461,37.598,196.777,51.758,0
1542737215.835,66.895,23.438,37.109,193.359,6.836,0
1542737215.839,58.594,27.344,38.574,172.852,-27.344,0
1542737215.842,65.918,28.809,35.645,181.152,-27.832,0
1542737215.846,64.941,23.438,33.691,190.430,0.000,0
1542737215.850,65.430,18.555,38.086,183.105,43.945,0
1542737215.854,64.941,21.484,43.945,176.758,3.418,0
1542737215.858,59.082,27.832,26.855,157.715,-19.043,0
1542737215.862,82.520,23.438,4.883,172.363,40.527,0
1542737215.866,88.379,21.484,29.297,197.266,61.035,0
1542737215.870,64.941,27.344,53.711,184.570,8.301,0
1542737215.874,82.031,24.414,42.480,184.570,62.988,0
1542737215.878,117.188,25.391,25.879,195.801,56.152,0
1542737215.882,113.281,27.344,39.551,197.266,9.277,0
1542737215.885,76.660,24.902,46.875,197.266,42.969,0
1542737215.889,74.707,20.996,38.574,184.082,49.316,0
1542737215.893,81.543,20.996,41.504,180.664,26.367,0
1542737215.897,86.914,16.602,36.133,186.523,20.508,0
1542737215.901,86.426,22.949,23.438,178.711,22.461,0
1542737215.905,96.191,28.809,30.762,171.387,39.551,0
1542737215.909,99.121,28.809,37.598,176.270,101.074,0
1542737215.913,97.168,31.250,29.297,175.293,68.359,0
1542737215.917,91.797,24.902,27.832,186.523,57.129,0
1542737215.921,91.797,29.297,33.691,188.965,106.934,0
1542737215.925,113.770,38.086,35.156,187.500,51.758,0
1542737215.928,119.629,25.391,25.391,189.453,23.926,0
1542737215.932,121.582,23.438,22.461,171.875,42.480,0
1542737215.936,100.098,30.273,31.250,188.965,23.926,0
1542737215.940,70.312,30.762,23.926,189.941,17.090,0
1542737215.944,92.773,33.691,24.414,168.457,80.078,0
1542737215.948,113.770,37.109,9.277,160.645,81.055,0
1542737215.952,95.215,38.574,-0.977,173.828,41.016,0
1542737215.956,96.680,32.227,41.504,176.758,98.145,0
1542737215.960,144.531,31.250,47.852,169.434,68.359,0
1542737215.964,116.699,27.832,35.156,173.340,1.953,0
1542737215.967,90.820,23.926,33.203,176.758,17.090,0
1542737215.971,111.816,23.926,27.832,175.781,13.672,0
1542737215.975,118.164,17.090,30.762,160.156,41.504,0
1542737215.979,123.535,17.578,40.527,161.133,62.500,0
1542737215.983,127.441,23.926,27.344,161.621,23.926,0
1542737215.987,116.699,30.762,24.414,149.414,-35.645,0
1542737215.991,104.980,36.621,26.855,141.602,-30.273,0
1542737215.995,133.789,23.926,18.555,151.367,19.043,0
1542737215.999,145.020,20.508,24.902,158.203,29.785,0
1542737216.003,125.488,27.344,27.832,144.531,62.988,0
1542737216.007,127.930,31.250,32.715,153.809,88.867,0
1542737216.010,123.535,29.785,32.227,164.062,33.691,0
1542737216.014,123.535,24.902,36.133,152.832,-7.812,0
1542737216.018,117.676,27.832,28.320,147.461,35.156,0
1542737216.022,114.746,31.738,35.156,149.414,72.266,0
1542737216.026,126.465,27.832,18.066,144.531,47.852,0
1542737216.030,116.699,24.902,-1.953,147.949,3.418,0
1542737216.034,118.652,33.691,26.855,129.395,57.617,0
1542737216.038,86.914,39.062,27.832,128.906,89.844,0
1542737216.042,101.074,23.926,24.414,158.203,-0.977,0
1542737216.046,158.691,21.973,32.227,143.066,-47.852,0
1542737216.050,149.414,34.668,27.344,139.648,-14.648,0
1542737216.053,103.027,33.203,39.551,142.578,32.715,0
1542737216.057,117.188,32.715,40.039,153.809,-9.766,0
1542737216.061,141.113,31.738,32.227,143.066,-19.043,0
1542737216.065,123.047,27.344,30.762,114.746,30.762,0
1542737216.069,112.793,24.414,30.762,136.719,21.973,0
1542737216.073,119.629,34.668,29.297,149.902,37.598,0
1542737216.077,107.910,46.387,21.973,134.277,28.320,0
1542737216.081,129.883,34.180,18.555,126.465,20.996,0
1542737216.085,139.648,26.367,22.949,123.535,32.715,0
1542737216.089,138.184,31.250,26.367,135.254,23.438,0
1542737216.092,141.113,36.133,21.484,144.531,44.922,0
1542737216.096,119.629,30.273,22.461,143.555,36.621,0
1542737216.100,133.301,17.578,29.785,136.719,36.133,0
1542737216.104,139.160,27.832,24.902,135.254,90.332,0
1542737216.108,130.371,28.320,19.531,133.301,69.824,0
1542737216.112,110.840,20.020,26.855,131.836,2.441,0
1542737216.116,135.742,26.855,28.809,123.047,-25.879,0
1542737216.120,133.301,30.273,25.879,128.418,52.734,0
1542737216.124,125.977,21.973,27.832,138.184,53.223,0
1542737216.128,134.277,26.367,29.297,124.023,-2.441,0
1542737216.132,126.465,29.297,13.672,128.418,6.348,0
1542737216.135,132.324,24.902,18.555,124.512,5.859,0
1542737216.139,135.254,29.297,29.297,109.375,18.555,0
1542737216.143,126.465,32.715,27.832,112.793,21.973,0
1542737216.147,107.910,33.203,26.855,116.699,52.734,0
1542737216.151,109.375,27.832,25.391,121.094,73.242,0
1542737216.155,122.070,25.391,20.996,101.562,48.828,0
1542737216.159,118.164,33.691,19.531,92.773,49.805,0
1542737216.163,80.566,15.625,27.344,105.957,73.242,0
1542737216.167,104.492,10.254,33.691,108.398,33.691,0
1542737216.171,126.465,37.598,22.949,101.074,2.441,0
1542737216.175,114.258,23.438,23.926,116.699,-40.039,0
1542737216.178,123.535,18.555,27.344,128.906,-56.641,0
1542737216.182,134.277,33.203,12.695,109.863,-17.090,0
1542737216.186,151.855,30.762,17.090,93.262,-14.160,0
1542737216.190,137.695,19.043,34.180,98.145,24.414,0
1542737216.194,108.887,10.742,32.715,95.215,23.926,0
1542737216.198,113.770,9.277,24.414,89.844,-20.996,0
1542737216.202,126.953,31.738,20.508,94.727,-25.879,0
1542737216.206,119.141,41.992,24.414,106.934,81.543,0
1542737216.210,105.957,35.156,27.344,106.445,77.148,0
1542737216.214,128.906,30.762,23.926,88.867,16.113,0
1542737216.217,125.488,36.621,23.438,84.961,59.082,0
1542737216.221,118.164,25.879,17.578,100.098,51.270,0
1542737216.225,124.023,20.996,17.090,101.562,27.832,0
1542737216.229,104.004,15.137,38.086,87.402,-6.836,0
1542737216.233,118.164,18.555,18.555,102.051,-4.395,0
1542737216.237,129.395,19.043,1.953,99.609,37.598,0
1542737216.241,109.863,12.207,40.039,91.309,75.195,0
1542737216.245,129.395,22.949,45.898,96.191,55.176,0
1542737216.249,109.863,38.086,23.438,81.543,33.691,0
1542737216.253,69.824,40.527,14.648,58.105,72.754,0
1542737216.257,67.383,48.340,13.672,41.016,42.969,0
1542737216.260,55.664,55.176,12.207,35.645,46.875,0
1542737216.264,48.828,34.180,23.438,8.301,85.938,0
1542737216.268,37.598,29.297,37.109,6.348,63.477,0
1542737216.272,25.879,24.414,10.254,2.930,39.062,0
1542737216.276,21.973,8.789,-5.859,-8.789,55.176,0
1542737216.280,-18.555,32.715,19.043,-30.762,64.941,0
1542737216.284,-28.320,67.383,39.062,-64.941,14.648,0
1542737216.288,-8.301,61.523,51.758,-54.199,-0.977,0
1542737216.292,-19.531,44.922,51.758,-48.340,-18.555,0
1542737216.296,-23.926,58.594,48.340,-70.801,-40.527,0
1542737216.300,-17.578,57.129,52.734,-63.477,23.438,0
1542737216.303,-16.602,48.828,52.246,-42.480,90.820,0
1542737216.307,-6.348,60.059,19.043,-41.016,64.453,0
1542737216.311,-22.461,49.805,-8.301,-45.898,28.809,0
1542737216.315,-38.574,44.922,8.789,-42.969,73.242,0
1542737216.319,-20.508,38.086,29.785,-31.738,96.191,0
1542737216.323,-19.043,31.250,28.320,-37.598,68.359,0
1542737216.327,-20.508,42.480,30.762,-28.320,-2.441,0
1542737216.331,-4.395,64.941,34.668,-5.859,-28.809,0
1542737216.335,15.137,64.941,33.691,8.301,49.805,0
1542737216.339,37.598,55.664,31.738,14.648,33.691,0
1542737216.342,39.551,53.223,40.039,25.391,7.324,0
1542737216.346,66.406,48.828,50.781,49.316,46.387,0
1542737216.350,70.801,38.086,20.508,52.734,21.973,0
1542737216.354,44.434,27.832,28.809,49.316,-10.742,0
1542737216.358,64.453,20.508,46.387,63.477,14.648,0
1542737216.362,62.012,42.480,21.484,61.523,71.777,0
1542737216.366,48.340,49.805,22.461,62.988,68.848,0
1542737216.370,50.293,41.992,26.367,68.848,40.039,0
1542737216.374,68.359,44.434,24.414,82.520,8.789,0
1542737216.378,80.566,35.156,23.438,93.262,-8.789,0
1542737216.382,83.496,37.598,31.250,92.773,28.809,0
1542737216.385,110.840,35.645,29.297,111.816,47.363,0
1542737216.389,100.098,31.738,28.320,133.301,-10.742,0
1542737216.393,90.820,31.250,40.527,144.531,20.996,0
1542737216.397,99.609,22.461,40.039,143.555,42.480,0
1542737216.401,94.727,25.879,28.320,145.508,38.086,0
1542737216.405,104.980,33.203,27.832,152.344,55.664,0
1542737216.409,121.582,35.645,29.297,154.785,38.574,0
1542737216.413,87.891,37.598,50.781,146.484,59.082,0
1542737216.417,62.500,30.762,73.242,146.484,71.777,0
1542737216.421,86.914,42.969,59.570,139.648,80.566,0
1542737216.425,81.543,39.551,46.875,133.301,66.895,0
1542737216.428,97.656,23.926,53.223,140.137,43.457,0
1542737216.432,101.074,14.648,50.293,132.324,68.848,0
1542737216.436,93.750,7.812,36.621,112.305,81.055,0
1542737216.440,92.773,20.020,48.340,103.027,74.707,0
1542737216.444,96.191,41.016,43.945,101.074,53.223,0
1542737216.448,82.520,35.645,13.672,106.934,21.973,0
1542737216.452,66.406,34.180,19.531,98.145,45.410,0
1542737216.456,70.312,44.434,54.688,76.660,82.520,0
1542737216.460,43.457,4.883,70.801,68.359,86.914,0
1542737216.464,49.805,29.297,53.711,63.965,83.496,0
1542737216.467,78.125,64.453,41.016,51.270,22.461,0
1542737216.471,99.609,22.461,48.828,58.105,-31.738,0
1542737216.475,89.844,12.695,55.664,68.359,17.090,0
1542737216.479,80.566,22.949,53.223,63.965,46.875,0
1542737216.483,81.055,43.457,39.062,59.082,33.203,0
1542737216.487,75.195,44.434,15.137,71.777,35.645,0
1542737216.491,76.660,22.949,24.902,77.637,14.648,0
1542737216.495,62.988,32.715,39.551,73.242,-4.395,0
1542737216.499,51.270,40.039,46.387,58.594,17.090,0
1542737216.503,73.242,30.762,64.453,51.270,48.828,0
1542737216.507,55.176,34.180,55.176,59.570,20.508,0
1542737216.510,50.293,34.180,41.992,47.852,-14.648,0
1542737216.514,83.008,27.832,52.734,41.992,10.254,0
1542737216.518,83.984,11.719,45.898,58.105,22.461,0
1542737216.522,84.473,18.555,26.367,72.266,34.180,0
1542737216.526,76.172,30.273,8.301,61.035,57.129,0
1542737216.530,62.012,42.969,27.344,55.176,14.160,0
1542737216.534,60.547,17.090,57.617,58.594,-12.207,0
1542737216.538,64.941,4.395,63.965,39.062,-9.766,0
1542737216.542,54.688,31.250,71.289,35.156,0.977,0
1542737216.546,58.105,26.855,34.180,39.062,27.832,0
1542737216.550,61.523,39.062,33.691,28.320,28.320,0
1542737216.553,11.230,38.574,53.711,20.996,-5.859,0
1542737216.557,6.836,37.109,42.480,-3.418,-4.883,0
1542737216.561,60.547,34.180,39.551,-3.906,26.855,0
1542737216.565,60.059,7.324,41.992,29.785,2.441,0
1542737216.569,78.125,18.066,50.781,24.414,-19.531,0
1542737216.573,82.520,31.250,48.828,16.602,-2.441,0
1542737216.577,55.176,31.250,27.344,22.949,38.086,0
1542737216.581,37.109,39.551,32.227,11.719,56.152,0
1542737216.585,39.551,32.227,56.641,-9.766,31.250,0
1542737216.589,52.246,14.160,46.387,-20.508,9.277,0
1542737216.592,42.969,9.277,36.133,-27.832,13.672,0
1542737216.596,42.969,12.695,41.992,-28.320,38.086,0
1542737216.600,39.551,29.785,47.363,-39.062,27.344,0
1542737216.604,30.762,36.621,21.484,-34.668,33.691,0
1542737216.608,34.668,41.992,-4.395,-25.391,51.758,0
1542737216.612,38.086,31.250,25.879,-25.391,70.312,0
1542737216.616,54.199,29.785,54.199,-12.207,75.684,0
1542737216.620,67.383,24.414,58.105,-13.184,46.875,0
1542737216.624,87.402,17.090,63.477,-7.812,18.555,0
1542737216.628,69.824,28.320,74.219,7.324,33.203,0
1542737216.632,51.270,25.391,52.734,17.090,3.418,0
1542737216.635,55.176,31.738,43.457,12.207,-23.438,0
1542737216.639,46.875,32.715,31.250,18.555,-25.391,0
1542737216.643,52.734,39.062,17.578,22.949,-18.555,0
1542737216.647,64.941,41.016,53.711,17.090,-5.371,0
1542737216.651,56.152,28.320,62.988,22.949,-4.883,0
1542737216.655,49.805,35.156,44.922,28.320,-30.273,0
1542737216.659,47.363,31.250,10.742,35.156,-22.949,0
1542737216.663,35.645,28.809,38.574,25.879,65.918,0
1542737216.667,64.453,39.062,49.805,26.367,8.301,0
1542737216.671,101.074,27.832,31.250,60.059,-91.309,0
1542737216.675,87.891,39.062,43.945,63.965,-23.926,0
1542737216.678,69.824,46.387,58.105,51.758,11.719,0
1542737216.682,55.176,41.992,62.988,43.945,-4.395,0
1542737216.686,57.617,41.992,63.477,44.434,-8.789,0
1542737216.690,60.547,32.227,79.590,63.965,0.000,0
1542737216.694,56.152,0.977,61.523,62.988,-2.441,0
1542737216.698,53.711,18.066,42.969,50.781,-38.574,0
1542737216.702,59.570,41.504,42.969,51.270,-19.043,0
1542737216.706,56.641,41.992,42.480,48.340,52.246,0
1542737216.710,64.941,51.270,47.363,61.035,40.527,0
1542737216.714,64.453,42.480,55.176,59.082,29.785,0
1542737216.717,66.406,37.598,79.590,65.430,32.227,0
1542737216.721,61.523,38.574,87.402,98.145,5.859,0
1542737216.725,71.777,44.922,75.684,92.773,7.812,0
1542737216.729,83.008,43.457,83.008,79.590,53.223,0
1542737216.733,73.730,29.297,67.383,84.961,59.570,0
1542737216.737,82.520,30.762,47.852,92.285,75.684,0
1542737216.741,70.312,33.691,55.176,83.496,54.199,0
1542737216.745,44.922,26.855,72.754,83.496,24.902,0
1542737216.749,35.645,41.504,88.867,66.895,14.160,0
1542737216.753,45.898,52.246,104.492,56.152,27.344,0
1542737216.757,57.129,41.504,110.840,67.383,32.715,0
1542737216.760,44.434,30.762,98.633,75.195,46.875,0
1542737216.764,43.945,34.668,75.684,78.125,56.641,0
1542737216.768,60.547,44.434,64.941,70.801,14.648,0
1542737216.772,73.242,41.992,77.148,63.477,-12.207,0
1542737216.776,68.359,28.320,88.379,67.871,-1.465,0
1542737216.780,59.082,34.668,93.262,71.777,23.438,0
1542737216.784,51.270,52.734,81.055,66.895,-1.465,0
1542737216.788,55.176,40.527,79.590,77.148,28.809,0
1542737216.792,49.805,25.879,74.219,91.797,85.449,0
1542737216.796,84.961,45.410,67.383,88.379,45.898,0
1542737216.800,85.449,57.129,73.730,68.359,21.973,0
1542737216.803,41.016,47.363,88.379,39.551,57.129,0
1542737216.807,51.758,31.250,85.938,57.617,56.641,0
1542737216.811,56.152,37.109,62.500,58.594,3.418,0
1542737216.815,50.781,60.059,47.363,38.086,-2.930,0
1542737216.819,66.895,75.195,72.266,48.340,63.965,0
1542737216.823,49.805,86.914,84.961,49.805,72.754,0
1542737216.827,65.918,77.148,74.707,44.434,23.926,0
1542737216.831,67.383,72.266,57.129,36.621,52.246,0
1542737216.835,76.660,66.406,43.945,51.270,8.789,0
1542737216.839,96.680,49.805,56.152,62.988,10.742,0
1542737216.842,69.824,68.359,49.805,48.340,59.082,0
1542737216.846,67.871,79.102,42.480,48.340,19.043,0
1542737216.850,83.496,97.656,41.504,52.734,-19.043,0
1542737216.854,108.398,121.094,35.156,43.457,24.414,0
1542737216.858,109.375,106.445,31.738,43.945,27.344,0
1542737216.862,102.051,87.402,29.297,62.988,7.812,0
1542737216.866,112.793,102.539,26.855,56.152,54.688,0
1542737216.870,98.145,106.934,24.414,38.086,45.410,0
1542737216.874,86.914,100.586,16.602,47.363,57.129,0
1542737216.878,85.449,107.910,20.508,37.109,56.152,0
1542737216.882,105.469,99.121,20.508,28.320,70.312,0
1542737216.885,117.676,91.797,8.789,25.391,46.387,0
1542737216.889,104.492,86.426,6.348,34.668,20.996,0
1542737216.893,117.188,101.074,8.301,42.969,14.648,0
1542737216.897,123.047,127.441,11.230,41.992,-5.371,0
1542737216.901,127.441,126.953,12.207,41.992,7.324,0
1542737216.905,120.117,110.840,-15.137,23.926,-23.926,0
1542737216.909,104.980,102.539,-9.277,38.574,11.230,0
1542737216.913,104.004,108.398,17.578,48.828,28.809,0
1542737216.917,100.098,102.051,8.301,35.156,15.137,0
1542737216.921,89.844,93.750,2.930,37.598,10.742,0
1542737216.925,98.145,106.445,3.418,31.738,32.715,0
1542737216.928,106.934,89.844,16.602,21.484,18.066,0
1542737216.932,98.633,62.012,19.531,24.414,-8.789,0
1542737216.936,97.656,83.496,-9.277,18.555,-10.742,0
1542737216.940,72.266,93.262,-15.625,21.973,5.371,0
1542737216.944,71.289,88.379,-4.883,26.855,4.883,0
1542737216.948,90.820,81.543,-12.695,26.367,15.137,0
1542737216.952,90.820,76.660,-12.695,31.738,-11.719,0
1542737216.956,92.773,61.035,16.113,22.461,-42.969,0
1542737216.960,79.102,57.129,27.344,13.184,-22.949,0
1542737216.964,67.871,54.688,16.113,14.160,5.859,0
1542737216.967,76.660,73.730,-0.977,14.160,49.316,0
1542737216.971,64.941,81.543,-1.953,10.742,26.855,0
1542737216.975,62.012,74.219,3.906,25.391,15.137,0
1542737216.979,68.359,73.242,-14.648,13.672,21.973,0
1542737216.983,53.223,63.477,7.812,5.371,33.691,0
1542737216.987,39.551,61.035,19.043,18.555,62.012,0
1542737216.991,44.922,57.617,4.395,14.160,41.992,0
1542737216.995,91.797,48.828,0.977,17.578,18.066,0
1542737216.999,72.266,51.270,1.953,9.277,24.902,0
1542737217.003,42.480,56.152,18.555,3.906,19.043,0
1542737217.007,52.246,57.617,15.625,12.207,-39.062,0
1542737217.010,48.340,54.199,6.836,12.207,46.387,0
1542737217.014,54.199,53.223,14.160,15.625,55.664,0
1542737217.018,71.777,53.711,8.301,8.789,-28.809,0
1542737217.022,76.172,64.453,1.953,-0.977,0.000,0
1542737217.026,35.645,61.035,12.207,-12.207,30.273,0
1542737217.030,34.180,44.922,3.906,1.953,56.152,0
1542737217.034,43.945,54.199,-5.371,17.090,66.406,0
1542737217.038,30.762,50.293,11.719,8.301,12.695,0
1542737217.042,46.387,48.340,19.043,14.648,20.020,0
1542737217.046,44.434,57.129,24.414,22.461,24.414,0
1542737217.050,50.293,50.781,17.578,9.766,6.836,0
1542737217.053,65.430,42.969,10.254,0.488,53.711,0
1542737217.057,51.270,39.551,23.926,0.000,26.855,0
1542737217.061,24.414,60.547,16.113,4.883,35.645,0
1542737217.065,41.992,66.895,8.301,6.836,32.227,0
1542737217.069,37.109,42.969,13.672,1.465,-21.484,0
1542737217.073,26.855,40.039,17.090,2.441,19.043,0
1542737217.077,48.340,47.363,15.137,3.906,43.945,0
1542737217.081,32.715,45.898,10.254,0.488,33.203,0
1542737217.085,10.254,46.875,0.488,-4.395,13.184,0
1542737217.089,19.043,33.203,7.324,-1.465,17.578,0
1542737217.092,23.926,31.250,14.160,8.301,62.988,0
1542737217.096,21.484,41.504,10.254,6.836,41.016,0
1542737217.100,33.203,39.062,4.395,1.465,-20.996,0
1542737217.104,33.203,33.691,0.977,-6.348,17.578,0
1542737217.108,30.273,34.180,10.742,-8.301,47.852,0
1542737217.112,27.344,36.133,14.648,6.348,8.301,0
1542737217.116,39.062,29.297,20.020,23.438,20.996,0
1542737217.120,48.340,36.133,13.672,-0.488,43.945,0
1542737217.124,20.020,35.156,5.859,-4.883,48.828,0
1542737217.128,8.301,21.973,11.719,3.418,44.434,0
1542737217.132,31.250,17.578,1.953,6.348,0.488,0
1542737217.135,41.504,26.855,5.371,6.348,-5.371,0
1542737217.139,20.508,40.527,17.578,9.766,5.371,0
1542737217.143,28.320,39.551,-1.953,32.227,12.695,0
1542737217.147,39.551,40.527,8.301,40.527,-42.969,0
1542737217.151,20.020,41.504,33.691,20.996,-24.414,0
1542737217.155,5.859,34.668,23.438,-4.883,76.172,0
1542737217.159,1.465,35.156,16.113,-10.254,54.199,0
1542737217.163,21.973,35.156,21.484,15.137,13.672,0
1542737217.167,43.945,25.879,18.555,23.926,-3.418,0
1542737217.171,31.250,26.367,13.184,24.414,0.488,0
1542737217.175,34.180,40.527,1.953,24.414,9.277,0
1542737217.178,35.156,32.227,5.859,28.809,24.902,0
1542737217.182,41.504,39.062,14.160,30.762,63.477,0
1542737217.186,58.594,23.926,11.719,32.715,51.758,0
1542737217.190,21.973,-5.859,13.184,29.785,40.039,0
1542737217.194,11.719,13.672,24.414,17.090,13.184,0
1542737217.198,19.531,30.273,50.293,19.531,72.754,0
1542737217.202,0.488,35.156,43.457,20.020,114.746,0
1542737217.206,1.953,41.504,34.668,15.137,88.867,0
1542737217.210,-10.254,50.293,26.367,-1.953,59.082,0
1542737217.214,-1.953,35.156,8.789,14.160,78.125,0
1542737217.217,47.363,23.438,20.020,46.875,81.543,0
1542737217.221,48.828,48.828,11.719,34.668,3.418,0
1542737217.225,28.809,38.574,4.395,34.668,-23.438,0
1542737217.229,30.762,30.762,31.738,37.598,49.805,0
1542737217.233,24.902,40.039,37.598,32.227,44.434,0
1542737217.237,29.297,33.203,32.227,41.016,13.184,0
1542737217.241,36.133,36.133,32.227,36.621,21.484,0
1542737217.245,16.113,32.227,31.250,21.973,7.812,0
1542737217.249,17.090,34.180,16.602,22.461,23.438,0
1542737217.253,9.766,32.715,20.020,18.066,20.020,0
1542737217.257,-4.883,29.785,35.645,17.090,15.137,0
1542737217.260,27.832,32.227,13.672,20.996,38.086,0
1542737217.264,36.133,25.879,5.859,25.391,10.254,0
1542737217.268,15.625,27.344,26.855,26.855,24.414,0
1542737217.272,25.879,24.414,30.273,22.461,47.852,0
1542737217.276,34.180,31.250,31.738,34.668,14.160,0
1542737217.280,19.531,41.504,36.621,29.785,3.418,0
1542737217.284,17.578,46.875,33.691,22.949,57.617,0
1542737217.288,7.812,45.410,37.109,28.320,51.270,0
1542737217.292,15.137,28.809,38.086,21.484,22.949,0
1542737217.296,33.691,39.551,28.320,29.785,61.035,0
1542737217.300,3.906,48.340,27.832,7.812,56.641,0
1542737217.303,-13.184,31.250,28.320,-2.441,61.523,0
1542737217.307,6.836,31.738,25.391,10.742,62.988,0
1542737217.311,21.973,33.203,25.391,18.555,-6.348,0
1542737217.315,23.926,26.367,33.691,36.133,-59.570,0
1542737217.319,23.926,33.203,38.574,35.645,6.348,0
1542737217.323,28.320,31.738,30.762,24.902,-10.254,0
1542737217.327,21.973,34.668,19.531,20.996,-3.906,0
1542737217.331,25.879,46.875,20.996,27.832,51.758,0
1542737217.335,42.480,52.246,37.109,20.508,54.688,0
1542737217.339,26.367,59.082,34.668,21.484,23.438,0
1542737217.342,7.324,52.246,35.645,24.414,7.324,0
1542737217.346,-0.488,42.480,45.410,0.488,3.906,0
1542737217.350,-12.207,29.297,39.062,0.488,9.277,0
1542737217.354,1.953,23.438,41.504,28.320,-25.391,0
1542737217.358,40.039,28.809,36.621,41.016,-31.250,0
1542737217.362,51.758,43.457,23.926,35.645,37.109,0
1542737217.366,44.922,52.246,24.414,27.832,42.969,0
1542737217.370,37.598,45.410,26.367,24.902,55.176,0
1542737217.374,41.504,44.434,20.996,32.227,75.684,0
1542737217.378,27.832,48.828,17.090,31.250,79.102,0
1542737217.382,10.742,51.270,27.344,19.043,40.039,0
1542737217.385,18.555,32.715,33.203,22.461,-16.602,0
1542737217.389,7.812,21.973,31.738,26.367,51.270,0
1542737217.393,2.930,22.949,36.621,-2.441,59.570,0
1542737217.397,-0.977,47.852,30.762,-13.184,-6.836,0
1542737217.401,5.371,54.199,31.250,22.949,-8.301,0
1542737217.405,25.391,41.016,21.973,36.133,1.953,0
1542737217.409,41.504,43.457,14.648,48.828,-14.648,0
1542737217.413,32.715,40.039,20.508,33.691,34.668,0
1542737217.417,6.836,45.898,20.020,10.254,83.496,0
1542737217.421,1.953,57.129,32.715,4.883,65.430,0
1542737217.425,14.648,50.781,30.762,12.695,40.039,0
1542737217.428,20.508,50.293,27.344,23.438,-9.766,0
1542737217.432,14.160,47.852,37.598,24.902,12.695,0
1542737217.436,5.371,32.227,40.039,35.156,44.434,0
1542737217.440,2.441,26.855,36.133,34.180,13.672,0
1542737217.444,5.859,39.062,25.879,10.254,19.043,0
1542737217.448,-10.254,45.898,13.184,13.184,22.949,0
1542737217.452,7.812,38.574,15.137,26.367,18.066,0
1542737217.456,40.039,32.227,17.578,15.137,6.348,0
1542737217.460,27.344,24.414,16.113,14.648,-13.184,0
1542737217.464,18.555,35.156,24.414,29.297,46.387,0
1542737217.467,11.230,40.039,26.855,33.203,25.879,0
1542737217.471,4.395,40.039,19.043,26.367,-12.207,0
1542737217.475,11.230,40.039,20.020,20.508,55.664,0
1542737217.479,27.344,36.621,13.184,16.602,78.613,0
1542737217.483,20.996,38.574,8.789,21.973,49.316,0
1542737217.487,19.531,30.273,20.508,31.738,15.137,0
1542737217.491,33.691,25.879,8.301,34.668,8.301,0
1542737217.495,10.742,35.156,-15.625,25.879,7.812,0
1542737217.499,9.277,42.480,11.230,33.203,0.488,0
1542737217.503,14.648,34.668,37.109,38.574,-11.230,0
1542737217.507,11.719,31.738,25.879,35.156,8.789,0
1542737217.510,1.953,36.133,15.625,32.227,79.102,0
1542737217.514,4.395,37.598,15.625,20.508,54.199,0
1542737217.518,6.348,23.438,26.855,19.531,-48.828,0
1542737217.522,2.441,32.715,20.020,22.461,-45.410,0
1542737217.526,10.254,53.711,6.836,6.836,52.246,0
1542737217.530,10.254,45.898,19.531,12.207,65.430,0
1542737217.534,8.789,40.527,19.043,33.203,26.367,0
1542737217.538,15.625,31.250,16.602,40.039,-32.715,0
1542737217.542,22.949,33.203,21.484,34.668,-2.930,0
1542737217.546,20.508,32.715,19.531,37.109,34.668,0
1542737217.550,21.484,23.926,23.438,41.016,23.438,0
1542737217.553,25.391,20.508,23.926,31.738,36.133,0
1542737217.557,18.555,32.715,24.414,23.438,41.992,0
1542737217.561,23.438,42.480,24.414,32.715,71.289,0
1542737217.565,18.555,30.762,25.879,34.180,55.176,0
1542737217.569,12.695,31.738,16.602,16.113,60.547,0
1542737217.573,18.066,37.598,11.719,19.043,23.438,0
1542737217.577,0.977,31.250,14.160,40.527,30.762,0
1542737217.581,-11.230,25.879,12.207,40.039,14.160,0
1542737217.585,1.465,35.156,26.367,27.832,-28.320,0
1542737217.589,-1.465,35.645,31.738,22.461,18.555,0
1542737217.592,-1.465,32.227,29.297,10.742,36.621,0
1542737217.596,15.137,35.645,25.879,16.602,30.762,0
1542737217.600,21.484,29.785,25.879,36.133,25.391,0
1542737217.604,8.301,37.109,26.367,24.902,27.344,0
1542737217.608,20.508,39.062,22.461,32.715,56.152,0
1542737217.612,39.551,34.180,25.879,41.016,42.480,0
1542737217.616,-6.836,32.227,32.227,33.203,41.992,0
1542737217.620,-15.137,30.762,25.391,30.273,40.527,0
1542737217.624,7.812,37.109,16.113,10.742,23.438,0
1542737217.628,10.254,20.508,20.020,25.879,26.855,0
1542737217.632,23.926,10.254,23.438,53.711,42.480,0
1542737217.635,4.395,32.227,15.137,20.996,-27.832,0
1542737217.639,-25.391,50.293,7.812,-1.465,-9.766,0
1542737217.643,-19.043,52.246,11.719,3.418,23.926,0
1542737217.647,-4.395,54.688,16.602,11.230,-9.277,0
1542737217.651,0.000,62.988,17.090,20.508,11.719,0
1542737217.655,15.137,57.617,19.531,23.926,37.598,0
1542737217.659,4.883,48.340,18.066,34.668,69.336,0
1542737217.663,-13.184,44.434,15.625,42.969,55.176,0
1542737217.667,-13.184,46.387,10.254,28.320,41.504,0
1542737217.671,-12.207,46.387,7.812,18.555,27.344,0
1542737217.675,-1.953,49.805,11.230,22.949,50.781,0
1542737217.678,-5.371,55.176,9.766,34.668,58.105,0
1542737217.682,-3.906,51.270,10.742,42.480,5.859,0
1542737217.686,8.301,41.016,10.742,32.715,19.531,0
1542737217.690,-9.277,46.387,10.742,34.180,48.340,0
1542737217.694,-44.922,51.270,12.207,25.879,76.660,0
1542737217.698,-55.176,50.781,6.836,12.207,83.008,0
1542737217.702,-55.176,44.434,3.418,16.113,73.242,0
1542737217.706,-58.105,37.109,11.230,25.879,85.449,0
1542737217.710,-62.012,39.551,20.020,40.039,42.480,0
1542737217.714,-70.801,42.480,20.508,36.621,-23.438,0
1542737217.717,-74.707,45.898,17.090,21.973,-19.531,0
1542737217.721,-71.289,46.875,17.578,34.668,-32.715,0
1542737217.725,-89.355,41.992,13.184,36.621,-62.500,0
1542737217.729,-90.332,41.016,12.207,20.020,2.930,0
1542737217.733,-73.730,46.387,21.973,25.391,2.930,0
1542737217.737,-82.031,36.621,14.648,22.949,-45.898,0
1542737217.741,-93.750,25.879,-1.953,17.578,5.371,0
1542737217.745,-93.750,36.621,3.906,20.020,24.414,0
1542737217.749,-87.402,41.504,10.254,19.043,-11.230,0
1542737217.753,-85.449,40.039,11.719,20.020,-24.902,0
1542737217.757,-67.871,40.527,8.789,26.367,-18.066,0
1542737217.760,-66.406,39.062,9.766,35.156,-2.930,0
1542737217.764,-78.613,35.645,16.113,43.457,32.227,0
1542737217.768,-67.383,34.180,9.766,42.480,26.855,0
1542737217.772,-55.664,36.621,13.184,31.250,11.719,0
1542737217.776,-52.246,42.480,15.137,37.109,1.465,0
1542737217.780,-47.363,35.645,12.207,45.410,-16.113,0
1542737217.784,-33.203,28.809,15.625,42.969,45.410,0
1542737217.788,-42.480,34.668,7.812,50.781,91.309,0
1542737217.792,-43.457,31.250,6.836,43.945,62.012,0
1542737217.796,-35.156,14.648,21.973,37.598,-3.906,0
1542737217.800,-50.781,15.137,18.066,34.180,-19.531,0
1542737217.803,-48.828,30.273,11.719,36.621,30.273,0
1542737217.807,-42.480,28.320,15.625,37.109,45.410,0
1542737217.811,-42.969,32.227,11.719,29.785,42.969,0
1542737217.815,-32.227,39.062,4.395,30.762,44.922,0
1542737217.819,-20.020,22.461,4.395,30.273,45.898,0
1542737217.823,-36.133,17.578,1.465,50.781,50.781,0
1542737217.827,-34.180,34.180,-1.465,51.758,15.625,0
1542737217.831,-24.414,45.410,10.254,34.668,28.809,0
1542737217.835,-18.555,39.062,12.695,28.320,63.477,0
1542737217.839,-19.043,31.738,8.301,25.391,76.660,0
1542737217.842,-18.555,33.203,3.906,32.227,90.332,0
1542737217.846,-8.789,38.086,4.395,35.645,104.492,0
1542737217.850,-6.836,41.992,5.859,29.785,104.492,0
1542737217.854,-12.207,34.180,7.812,27.832,107.910,0
1542737217.858,-25.879,32.227,10.742,24.414,88.379,0
1542737217.862,-24.414,41.016,13.184,23.926,18.555,0
1542737217.866,-13.672,37.598,16.113,23.438,10.742,0
1542737217.870,-3.418,28.809,12.207,24.902,94.238,0
1542737217.874,-10.742,31.250,8.301,33.691,61.035,0
1542737217.878,-6.836,32.227,6.836,25.879,15.137,0
1542737217.882,6.348,37.109,1.465,16.113,65.918,0
1542737217.885,3.906,39.062,5.371,7.812,78.613,0
1542737217.889,9.766,36.621,3.418,4.883,68.848,0
1542737217.893,0.000,46.387,2.441,9.277,52.246,0
1542737217.897,-11.230,47.852,9.277,13.184,61.523,0
1542737217.901,-1.465,48.340,11.230,15.625,72.266,0
1542737217.905,-0.977,53.223,11.230,6.348,51.758,0
1542737217.909,-2.930,51.270,9.277,9.277,40.039,0
1542737217.913,7.812,46.875,9.766,26.367,62.988,0
1542737217.917,11.719,38.574,13.672,24.414,21.484,0
1542737217.921,16.113,41.992,16.602,-9.277,2.930,0
1542737217.925,-0.977,52.734,24.902,-0.977,61.523,0
1542737217.928,-9.277,66.895,20.996,27.832,3.418,0
1542737217.932,6.836,74.219,2.930,8.301,45.410,0
1542737217.936,-0.977,61.523,3.906,-14.648,60.059,0
1542737217.940,-20.508,62.988,14.648,-17.578,6.348,0
1542737217.944,-41.504,66.895,17.578,-38.086,60.547,0
1542737217.948,-40.039,81.055,19.043,-60.059,27.832,0
1542737217.952,-17.578,97.656,15.137,-74.707,11.719,0
1542737217.956,-36.133,119.629,10.254,-81.055,52.734,0
1542737217.960,-90.820,125.488,13.672,-106.934,74.707,0
1542737217.964,-154.785,108.398,18.555,-167.969,89.355,0
1542737217.967,-159.668,117.676,20.996,-199.707,19.531,0
1542737217.971,-162.598,124.023,27.344,-180.664,46.875,0
1542737217.975,-196.289,113.281,35.156,-187.012,62.988,0
1542737217.979,-203.125,119.141,42.480,-220.703,3.418,0
1542737217.983,-193.359,124.023,38.574,-221.191,6.348,0
1542737217.987,-189.941,123.047,38.574,-187.012,4.883,0
1542737217.991,-192.871,107.422,65.918,-193.359,51.758,0
1542737217.995,-199.707,85.938,73.242,-229.004,49.316,0
1542737217.999,-190.430,70.801,69.336,-280.762,2.441,0
1542737218.003,-185.059,63.477,74.707,-262.695,0.000,0
1542737218.007,-202.637,52.734,76.172,-207.520,48.340,0
1542737218.010,-204.590,33.203,77.637,-231.934,54.688,0
1542737218.014,-191.406,29.785,72.266,-203.613,16.113,0
1542737218.018,-174.805,24.414,70.312,-163.574,26.855,0
1542737218.022,-157.227,13.184,75.195,-171.387,31.738,0
1542737218.026,-145.996,0.000,77.637,-140.137,16.113,0
1542737218.030,-124.512,-21.973,78.613,-126.465,-29.297,0
1542737218.034,-99.121,-29.785,64.941,-68.848,-23.438,0
1542737218.038,-109.375,-33.203,58.105,-51.270,63.477,0
1542737218.042,-92.773,-49.316,64.941,-58.594,13.672,0
1542737218.046,-81.055,-62.500,56.152,-28.320,-45.410,0
1542737218.050,-91.309,-64.453,55.176,-20.508,-11.719,0
1542737218.053,-71.289,-70.801,60.059,-60.547,-7.812,0
1542737218.057,-31.738,-72.266,34.668,-83.496,-15.625,0
1542737218.061,-20.996,-79.102,24.902,11.230,28.320,0
1542737218.065,-18.066,-82.031,32.715,63.477,54.199,0
1542737218.069,-16.113,-85.938,42.480,61.523,59.570,0
1542737218.073,-3.418,-92.285,33.203,82.520,90.332,0
1542737218.077,16.602,-93.262,33.691,78.613,52.246,0
1542737218.081,3.418,-97.168,41.992,74.707,22.461,0
1542737218.085,15.137,-96.191,38.086,103.027,59.570,0
1542737218.089,32.227,-92.773,36.133,120.117,5.371,0
1542737218.092,41.016,-90.820,34.180,117.188,15.137,0
1542737218.096,44.434,-94.238,30.762,77.637,37.598,0
1542737218.100,38.574,-99.121,23.438,70.312,25.879,0
1542737218.104,55.664,-96.680,16.602,118.652,64.453,0
1542737218.108,60.059,-95.215,20.508,151.855,39.551,0
1542737218.112,47.852,-98.145,23.438,114.746,30.762,0
1542737218.116,47.363,-94.727,10.254,83.984,44.922,0
1542737218.120,63.965,-88.867,7.812,130.371,10.742,0
1542737218.124,62.012,-85.938,19.531,157.227,2.930,0
1542737218.128,62.988,-82.520,15.625,151.855,1.953,0
1542737218.132,82.031,-81.543,5.371,159.668,30.273,0
1542737218.135,92.773,-68.848,4.395,162.109,40.527,0
1542737218.139,83.008,-57.617,3.418,125.488,59.082,0
1542737218.143,68.359,-52.734,-1.953,118.652,115.723,0
1542737218.147,73.730,-53.711,0.000,131.348,48.340,0
1542737218.151,59.570,-61.035,-1.953,120.117,-10.254,0
1542737218.155,60.059,-50.781,-3.906,129.395,18.555,0
1542737218.159,96.680,-41.504,-5.371,145.996,16.113,0
1542737218.163,104.492,-37.109,-10.742,141.113,33.691,0
1542737218.167,86.914,-36.133,-8.301,114.746,35.645,0
1542737218.171,87.402,-35.156,-7.812,124.023,17.578,0
1542737218.175,79.590,-32.227,-8.301,160.156,67.383,0
1542737218.178,74.707,-36.133,-5.371,131.348,105.469,0
1542737218.182,75.684,-27.344,-3.906,91.309,77.637,0
1542737218.186,74.219,-14.160,-9.277,118.164,69.336,0
1542737218.190,82.520,-9.277,3.418,141.602,87.402,0
1542737218.194,81.543,-5.859,0.488,125.977,46.875,0
1542737218.198,71.777,-9.766,-11.230,119.629,31.250,0
1542737218.202,83.984,-9.766,-1.465,137.695,23.926,0
1542737218.206,83.008,-0.977,-7.324,96.680,-5.859,0
1542737218.210,72.754,0.488,-14.648,58.594,17.578,0
1542737218.214,64.941,3.418,-1.953,120.605,51.270,0
1542737218.217,67.871,9.766,0.000,130.859,45.410,0
1542737218.221,55.664,0.977,11.719,109.375,42.480,0
1542737218.225,49.805,2.441,11.719,92.285,26.855,0
1542737218.229,68.359,10.742,0.977,81.543,13.672,0
1542737218.233,72.266,3.418,5.371,103.516,10.254,0
1542737218.237,60.059,0.000,-3.418,106.934,58.105,0
1542737218.241,32.715,7.324,0.488,91.797,73.242,0
1542737218.245,38.574,11.230,3.418,85.449,65.430,0
1542737218.249,47.852,13.672,4.883,95.703,60.547,0
1542737218.253,56.641,8.789,4.395,91.797,28.809,0
1542737218.257,59.082,6.348,4.883,85.938,39.551,0
1542737218.260,43.457,19.531,4.883,85.938,49.316,0
1542737218.264,70.801,19.531,-3.418,83.008,88.379,0
1542737218.268,67.871,5.371,1.953,80.566,86.914,0
1542737218.272,26.367,5.371,13.672,75.195,2.441,0
1542737218.276,37.109,16.602,2.441,62.988,23.438,0
1542737218.280,37.598,20.996,2.441,67.871,40.039,0
1542737218.284,51.758,8.301,8.301,86.914,55.176,0
1542737218.288,74.219,9.766,2.441,83.496,40.527,0
1542737218.292,56.152,28.320,8.301,51.758,42.480,0
1542737218.296,38.086,28.809,13.184,41.504,35.156,0
1542737218.300,49.805,35.156,15.625,53.711,7.324,0
1542737218.303,44.922,36.621,14.648,32.715,36.133,0
1542737218.307,36.621,27.344,1.953,65.918,32.715,0
1542737218.311,41.992,25.879,4.883,73.730,41.016,0
1542737218.315,50.781,28.809,8.789,42.480,32.715,0
1542737218.319,45.898,34.180,4.395,55.176,31.250,0
1542737218.323,40.039,32.715,2.441,43.945,32.227,0
1542737218.327,58.105,30.273,4.395,17.090,69.336,0
1542737218.331,57.129,20.996,14.648,54.688,45.410,0
1542737218.335,41.016,17.578,18.066,60.059,-16.113,0
1542737218.339,40.039,28.320,9.277,26.855,24.902,0
1542737218.342,40.039,31.738,7.324,20.508,41.016,0
1542737218.346,38.086,27.832,10.742,52.734,3.906,0
1542737218.350,55.664,21.973,2.441,72.754,5.371,0
1542737218.354,56.641,16.113,4.883,54.199,18.555,0
1542737218.358,40.527,15.137,9.766,69.336,18.066,0
1542737218.362,52.246,21.484,17.578,58.105,-4.395,0
1542737218.366,55.664,17.578,19.531,37.598,0.488,0
1542737218.370,39.551,22.461,17.090,55.664,-13.184,0
1542737218.374,41.992,29.297,14.160,49.316,-41.504,0
1542737218.378,38.574,20.508,8.301,36.133,-7.812,0
1542737218.382,33.203,25.391,18.066,46.875,7.324,0
1542737218.385,55.664,30.762,16.113,51.270,-46.387,0
1542737218.389,64.941,21.973,5.371,55.176,-32.227,0
1542737218.393,53.223,22.461,3.906,61.035,55.176,0
1542737218.397,47.363,29.297,6.836,39.062,62.500,0
1542737218.401,48.828,20.020,3.906,47.852,42.480,0
1542737218.405,53.223,10.742,5.371,74.707,44.434,0
1542737218.409,42.480,6.836,4.883,49.805,24.414,0
1542737218.413,38.574,8.301,4.395,37.109,-38.086,0
1542737218.417,42.969,18.066,9.277,23.438,-26.855,0
1542737218.421,46.387,19.531,7.324,29.297,16.113,0
1542737218.425,45.410,16.602,8.301,33.691,72.754,0
1542737218.428,35.645,19.043,12.695,27.832,99.609,0
1542737218.432,39.062,19.043,16.113,34.180,34.668,0
1542737218.436,44.922,19.043,12.207,41.504,36.621,0
1542737218.440,45.898,17.090,15.137,44.922,50.781,0
1542737218.444,46.387,18.555,14.160,47.363,39.551,0
1542737218.448,53.223,26.855,4.395,49.316,-8.301,0
1542737218.452,44.434,11.230,13.672,-2.930,-33.691,0
1542737218.456,38.086,5.371,19.531,3.906,51.758,0
1542737218.460,57.617,15.137,0.000,15.137,98.145,0
1542737218.464,57.129,15.625,-1.953,26.855,51.270,0
1542737218.467,40.527,17.578,13.184,45.410,28.320,0
1542737218.471,36.133,20.508,12.207,36.133,88.867,0
1542737218.475,37.109,20.508,12.695,33.203,84.961,0
1542737218.479,32.227,16.602,16.113,26.855,58.594,0
1542737218.483,20.508,18.555,12.207,43.457,23.438,0
1542737218.487,21.973,23.438,6.836,33.203,14.648,0
1542737218.491,28.809,24.902,14.648,32.715,9.277,0
1542737218.495,29.297,24.902,23.438,37.598,-14.160,0
1542737218.499,29.297,21.973,19.531,36.621,21.973,0
1542737218.503,18.555,19.043,16.113,44.434,40.039,0
1542737218.507,23.438,20.996,20.508,41.016,44.922,0
1542737218.510,28.320,20.020,21.484,38.574,62.500,0
1542737218.514,28.809,21.973,16.113,38.086,31.738,0
1542737218.518,33.203,25.879,11.230,39.551,30.273,0
1542737218.522,34.180,20.996,13.184,34.668,-15.137,0
1542737218.526,24.902,19.531,10.254,28.320,-3.418,0
1542737218.530,21.484,20.508,7.324,26.367,52.246,0
1542737218.534,26.855,19.531,11.719,25.391,12.695,0
1542737218.538,24.902,22.949,14.160,29.785,3.906,0
1542737218.542,20.996,11.719,11.719,34.180,41.016,0
1542737218.546,20.508,3.906,9.766,34.668,16.113,0
1542737218.550,14.160,12.207,12.695,32.715,45.410,0
1542737218.553,17.090,17.578,6.836,28.320,80.566,0
1542737218.557,20.020,9.277,1.465,21.973,49.316,0
1542737218.561,15.625,12.695,17.090,18.066,37.598,0
1542737218.565,14.160,25.879,21.484,17.090,16.113,0
1542737218.569,23.926,24.414,18.066,28.809,13.184,0
1542737218.573,28.809,23.926,23.438,38.086,44.434,0
1542737218.577,17.578,26.367,23.438,22.949,44.434,0
1542737218.581,12.695,21.973,25.391,21.973,23.438,0
1542737218.585,21.973,18.066,20.020,38.086,-3.418,0
1542737218.589,21.484,14.648,11.230,33.203,67.383,0
1542737218.592,21.484,18.555,16.113,30.273,86.914,0
1542737218.596,20.996,20.020,24.414,13.184,20.020,0
1542737218.600,19.043,21.484,21.973,12.207,3.906,0
1542737218.604,21.484,28.809,19.043,27.832,6.348,0
1542737218.608,16.602,27.344,29.785,18.066,39.062,0
1542737218.612,9.766,23.438,24.414,28.320,19.043,0
1542737218.616,9.766,22.949,18.555,35.156,-11.230,0
1542737218.620,17.090,23.438,22.461,28.320,4.395,0
1542737218.624,16.113,25.391,23.438,7.324,-12.207,0
1542737218.628,18.066,27.344,-4.395,14.160,-38.086,0
1542737218.632,11.719,31.250,-12.695,6.836,-5.859,0
1542737218.635,2.441,23.926,25.879,-10.742,80.078,0
1542737218.639,-2.930,15.137,38.574,4.395,51.758,0
1542737218.643,-7.812,9.277,33.691,22.461,1.465,0
1542737218.647,-4.883,20.020,33.203,24.902,32.715,0
1542737218.651,-6.348,32.715,22.949,7.324,60.059,0
1542737218.655,-0.977,25.391,19.043,6.836,80.566,0
1542737218.659,3.906,26.367,24.902,7.812,50.781,0
1542737218.663,3.418,27.344,19.043,21.973,56.641,0
1542737218.667,7.324,23.438,15.137,26.367,92.285,0
1542737218.671,2.441,20.996,18.555,14.648,42.969,0
1542737218.675,-1.465,19.043,21.484,21.484,46.875,0
1542737218.678,4.395,16.113,20.020,22.949,55.176,0
1542737218.682,11.230,22.949,16.113,19.043,55.176,0
1542737218.686,14.648,20.508,13.184,21.973,80.078,0
1542737218.690,13.184,20.508,18.066,26.855,86.914,0
1542737218.694,8.789,19.531,21.484,26.367,11.719,0
1542737218.698,13.184,13.672,16.602,34.668,25.391,0
1542737218.702,27.344,19.043,20.020,43.457,71.289,0
1542737218.706,25.391,20.996,24.414,33.203,51.758,0
1542737218.710,10.742,14.160,16.602,29.297,30.762,0
1542737218.714,14.648,11.719,13.672,38.574,36.133,0
1542737218.717,21.484,18.066,19.043,34.668,69.824,0
1542737218.721,24.902,25.391,3.906,41.504,97.168,0
1542737218.725,24.414,22.461,-7.324,46.387,57.617,0
1542737218.729,24.414,13.184,21.973,36.621,38.086,0
1542737218.733,36.621,11.719,21.973,47.852,11.719,0
1542737218.737,37.598,14.648,18.066,56.641,14.648,0
1542737218.741,22.461,27.832,24.902,46.387,9.277,0
1542737218.745,18.066,37.109,24.414,21.973,-5.859,0
1542737218.749,28.320,35.645,25.879,26.367,24.414,0
1542737218.753,36.133,36.621,20.020,37.109,14.160,0
1542737218.757,25.879,36.133,18.555,38.574,67.383,0
1542737218.760,19.531,32.715,16.113,38.574,27.832,0
1542737218.764,22.949,33.203,7.812,38.086,-33.203,0
1542737218.768,26.855,29.297,14.160,49.316,37.598,0
1542737218.772,31.738,29.297,15.625,47.852,-13.184,0
1542737218.776,30.762,30.273,7.812,41.016,-31.250,0
1542737218.780,37.598,23.438,7.812,41.016,-5.371,0
1542737218.784,28.320,21.973,11.230,47.363,-20.020,0
1542737218.788,15.625,22.461,12.207,45.898,-2.930,0
1542737218.792,18.555,14.160,2.930,38.086,12.207,0
1542737218.796,23.926,15.137,-6.836,51.270,13.672,0
1542737218.800,23.926,26.367,3.906,61.035,9.277,0
1542737218.803,20.020,16.113,15.137,64.453,20.996,0
1542737218.807,20.996,7.812,12.695,48.828,19.043,0
1542737218.811,24.902,20.508,18.555,50.781,82.031,0
1542737218.815,24.902,27.344,16.113,65.918,117.188,0
1542737218.819,32.715,28.320,1.953,56.152,16.602,0
1542737218.823,28.320,27.832,9.277,51.270,-18.066,0
1542737218.827,24.414,21.973,24.902,44.434,51.270,0
1542737218.831,28.320,20.996,19.531,50.293,72.754,0
1542737218.835,19.043,18.555,10.254,52.734,68.848,0
1542737218.839,21.484,18.066,6.836,47.363,47.363,0
1542737218.842,26.367,18.555,18.555,61.523,9.766,0
1542737218.846,13.672,12.695,21.973,65.918,37.598,0
1542737218.850,7.324,19.043,10.742,47.852,31.250,0
1542737218.854,11.719,26.367,4.883,41.992,55.176,0
1542737218.858,23.926,22.461,8.301,59.082,51.270,0
1542737218.862,16.113,16.602,12.695,52.734,7.324,0
1542737218.866,6.348,19.043,9.766,50.781,11.230,0
1542737218.870,16.602,20.996,12.207,57.617,-6.348,0
1542737218.874,13.184,19.043,21.973,52.246,34.668,0
1542737218.878,19.531,17.578,25.391,42.480,93.262,0
1542737218.882,20.020,17.578,15.137,41.992,92.773,0
1542737218.885,5.371,20.020,6.836,53.223,76.660,0
1542737218.889,0.977,25.391,8.789,45.410,27.344,0
1542737218.893,-2.441,18.555,16.602,42.969,58.105,0
1542737218.897,-6.348,9.766,12.695,38.574,98.633,0
1542737218.901,-5.371,15.625,8.789,27.832,94.727,0
1542737218.905,0.000,25.391,18.066,33.203,22.949,0
1542737218.909,-2.441,27.832,19.043,35.156,-61.035,0
1542737218.913,-7.812,23.926,24.902,23.438,-48.340,0
1542737218.917,-1.465,20.020,20.508,30.762,-15.625,0
1542737218.921,-5.371,20.020,11.230,39.062,20.020,0
1542737218.925,-7.324,22.461,18.066,29.297,5.371,0
1542737218.928,-3.418,16.113,12.695,36.133,15.625,0
1542737218.932,-0.977,16.113,-3.906,29.297,33.203,0
1542737218.936,4.883,21.973,13.184,22.461,3.418,0
1542737218.940,0.488,16.113,27.344,32.715,11.719,0
1542737218.944,-6.348,21.484,23.926,43.945,9.277,0
1542737218.948,-6.836,16.113,21.973,35.645,14.160,0
1542737218.952,-3.418,7.812,18.066,26.855,54.688,0
1542737218.956,13.672,7.324,7.812,37.109,64.941,0
1542737218.960,13.184,6.348,12.695,45.898,46.387,0
1542737218.964,-10.742,12.207,25.391,28.809,80.566,0
1542737218.967,-20.020,5.371,20.508,18.555,56.152,0
1542737218.971,-17.578,-5.371,16.602,19.043,40.527,0
1542737218.975,-11.719,-6.836,26.367,34.180,90.332,0
1542737218.979,-14.160,-6.836,25.879,24.902,72.754,0
1542737218.983,-26.855,-12.207,18.066,3.418,37.598,0
1542737218.987,-24.902,-12.695,15.625,7.812,54.199,0
1542737218.991,-15.137,-8.301,18.066,12.207,52.246,0
1542737218.995,-7.812,-6.836,27.832,14.648,44.434,0
1542737218.999,-4.883,-3.906,28.809,15.137,14.648,0
1542737219.003,-7.324,-5.371,20.996,19.531,-2.930,0
1542737219.007,-11.230,-10.742,23.438,17.578,14.160,0
1542737219.010,-12.695,-9.277,23.438,23.926,-27.832,0
1542737219.014,-10.254,4.395,20.996,40.039,18.555,0
1542737219.018,-2.930,5.859,20.508,36.621,11.230,0
1542737219.022,8.789,-3.906,19.531,36.133,-65.430,0
1542737219.026,0.000,-4.883,11.230,33.203,-29.785,0
1542737219.030,-7.324,-3.906,-6.836,32.715,28.809,0
1542737219.034,-3.418,-4.395,2.441,27.832,50.293,0
1542737219.038,1.465,-10.254,20.508,22.949,2.930,0
1542737219.042,-1.465,-4.883,6.836,30.273,-9.766,0
1542737219.046,-5.371,3.906,13.184,32.715,-24.414,0
1542737219.050,0.977,-4.883,27.832,32.715,-0.488,0
1542737219.053,4.395,-5.371,20.508,33.203,12.695,0
1542737219.057,4.395,12.695,28.809,31.250,-38.574,0
1542737219.061,-2.441,18.555,25.391,32.227,27.832,0
1542737219.065,-11.719,18.066,14.160,30.273,37.598,0
1542737219.069,-14.160,13.672,29.785,29.785,-1.465,0
1542737219.073,-12.207,9.277,27.832,22.461,23.438,0
1542737219.077,-8.301,10.254,21.484,19.531,70.312,0
1542737219.081,-16.113,9.766,29.785,15.625,69.824,0
1542737219.085,-9.766,14.160,26.855,11.719,6.348,0
1542737219.089,-2.441,9.766,16.113,17.578,15.625,0
1542737219.092,-9.766,3.418,11.719,9.766,18.066,0
1542737219.096,-0.977,13.184,18.066,6.836,16.602,0
1542737219.100,-6.348,15.625,22.461,8.789,-23.438,0
1542737219.104,-21.484,10.254,15.625,-4.395,-50.781,0
1542737219.108,-12.207,20.020,21.484,-2.930,17.090,0
1542737219.112,-22.949,14.160,30.273,-0.977,-15.625,0
1542737219.116,-43.457,16.113,23.438,-9.766,15.625,0
1542737219.120,-39.551,24.414,24.414,-18.555,46.387,0
1542737219.124,-38.086,21.484,38.086,-28.320,54.688,0
1542737219.128,-46.875,29.297,34.668,-31.738,52.246,0
1542737219.132,-57.617,33.691,33.691,-40.527,39.062,0
1542737219.135,-53.711,43.945,50.293,-43.945,61.523,0
1542737219.139,-50.293,46.875,35.156,-37.109,82.520,0
1542737219.143,-61.523,32.715,38.086,-42.969,39.551,0
1542737219.147,-62.988,33.691,62.012,-47.852,-22.461,0
1542737219.151,-67.383,39.062,50.293,-46.875,19.043,0
1542737219.155,-74.707,33.203,54.199,-48.340,41.992,0
1542737219.159,-83.008,33.691,61.035,-62.012,12.695,0
1542737219.163,-90.332,40.527,57.129,-76.172,29.297,0
1542737219.167,-96.680,42.969,51.758,-91.309,20.996,0
1542737219.171,-95.215,50.293,54.199,-84.473,-13.184,0
1542737219.175,-79.590,46.875,54.688,-67.871,25.879,0
1542737219.178,-77.637,45.410,53.223,-71.289,28.320,0
1542737219.182,-84.473,53.223,50.781,-74.219,-12.207,0
1542737219.186,-83.008,51.270,51.758,-67.871,-4.883,0
1542737219.190,-54.199,47.852,56.152,-11.719,-19.043,0
1542737219.194,-21.484,44.434,49.316,47.363,-4.395,0
1542737219.198,-3.906,44.434,39.551,61.523,26.367,0
1542737219.202,2.441,43.457,31.738,84.961,9.766,0
1542737219.206,-1.465,35.645,28.320,96.680,17.578,0
1542737219.210,10.742,29.785,23.926,100.098,19.043,0
1542737219.214,20.508,26.367,19.531,101.562,35.156,0
1542737219.217,32.227,24.414,23.438,100.586,86.914,0
1542737219.221,48.340,24.414,20.508,109.863,49.316,0
1542737219.225,49.805,16.602,10.254,101.562,4.395,0
1542737219.229,58.105,7.324,9.277,105.469,27.832,0
1542737219.233,76.660,9.766,9.766,112.305,92.773,0
1542737219.237,88.379,16.113,4.883,114.258,24.414,0
1542737219.241,85.449,12.207,1.465,126.465,-23.438,0
1542737219.245,83.008,13.672,2.441,116.211,45.410,0
1542737219.249,97.656,19.043,4.883,118.164,32.227,0
1542737219.253,99.609,7.812,0.977,117.188,40.527,0
1542737219.257,95.703,1.465,-1.465,107.422,44.922,0
1542737219.260,102.539,3.906,2.930,111.816,14.648,0
1542737219.264,107.910,7.324,8.301,115.723,64.941,0
1542737219.268,108.398,14.648,3.906,119.141,49.316,0
1542737219.272,104.004,14.648,4.883,104.004,61.035,0
1542737219.276,93.262,11.719,9.277,91.309,72.266,0
1542737219.280,88.379,9.277,-2.441,87.891,40.527,0
1542737219.284,84.473,-1.465,-7.324,81.055,45.898,0
1542737219.288,84.473,-2.441,1.465,80.078,63.965,0
1542737219.292,78.613,10.742,4.395,77.637,65.430,0
1542737219.296,64.941,9.277,6.836,76.660,27.832,0
1542737219.300,72.754,0.488,8.789,79.102,11.719,0
1542737219.303,84.961,5.371,1.953,75.684,-14.648,0
1542737219.307,82.520,5.859,5.859,64.941,-24.902,0
1542737219.311,67.871,7.812,12.695,62.012,13.184,0
1542737219.315,62.012,14.648,9.766,57.129,61.523,0
1542737219.319,72.266,9.277,10.742,61.035,63.965,0
1542737219.323,63.477,2.441,11.719,62.988,9.277,0
1542737219.327,59.082,1.953,12.207,47.852,32.715,0
1542737219.331,61.523,2.441,14.160,37.109,62.988,0
1542737219.335,50.293,2.930,12.695,36.621,12.695,0
1542737219.339,43.457,0.977,-9.277,36.133,60.547,0
1542737219.342,46.387,1.953,-12.207,26.855,56.152,0
1542737219.346,56.152,3.418,13.672,23.926,-41.504,0
1542737219.350,49.805,9.277,24.414,20.996,11.719,0
1542737219.354,34.668,12.207,21.973,17.578,88.867,0
1542737219.358,43.945,6.348,12.207,14.160,7.812,0
1542737219.362,50.781,6.348,10.742,8.789,-20.508,0
1542737219.366,38.086,10.742,11.230,2.441,11.719,0
1542737219.370,45.898,0.000,19.043,4.883,-7.324,0
1542737219.374,46.875,-1.953,15.625,13.672,4.395,0
1542737219.378,40.039,13.672,7.324,1.465,-5.371,0
1542737219.382,39.062,7.812,15.137,-9.277,-32.715,0
1542737219.385,33.203,-3.418,19.043,2.441,-13.184,0
1542737219.389,36.621,1.953,21.973,-2.930,54.688,0
1542737219.393,34.668,9.766,19.043,-9.766,72.754,0
1542737219.397,32.227,3.906,17.578,-6.836,69.336,0
1542737219.401,32.715,-5.371,16.113,-8.789,43.945,0
1542737219.405,34.180,0.000,12.207,-2.441,26.855,0
1542737219.409,33.203,6.348,18.066,-7.324,24.414,0
1542737219.413,17.090,4.395,8.789,-18.555,29.785,0
1542737219.417,15.625,-1.953,10.742,-12.695,44.922,0
1542737219.421,18.066,-7.812,20.020,-11.719,49.805,0
1542737219.425,15.137,-9.766,18.555,-25.391,58.594,0
1542737219.428,18.066,-4.883,22.949,-27.344,-9.766,0
1542737219.432,22.461,4.395,17.578,-23.438,-8.789,0
1542737219.436,26.367,1.465,11.719,-27.344,12.207,0
1542737219.440,20.020,-4.395,12.207,-26.367,1.953,0
1542737219.444,0.000,1.465,7.812,-31.738,35.156,0
1542737219.448,4.395,-0.488,8.789,-22.461,62.012,0
1542737219.452,12.695,-2.441,19.043,-15.625,74.707,0
1542737219.456,1.953,1.953,17.578,-37.109,78.125,0
1542737219.460,5.371,16.602,21.484,-32.715,41.504,0
1542737219.464,14.160,14.160,26.855,-23.438,26.855,0
1542737219.467,2.441,0.000,20.996,-43.457,31.738,0
1542737219.471,-0.488,9.766,28.809,-49.316,47.363,0
1542737219.475,-4.395,11.719,28.809,-36.133,26.855,0
1542737219.479,-29.785,5.859,14.160,-59.082,26.855,0
1542737219.483,-28.809,4.883,20.508,-70.801,8.301,0
1542737219.487,-2.930,3.418,33.203,-47.852,-20.020,0
1542737219.491,-36.621,16.113,38.086,-89.844,20.996,0
1542737219.495,-99.121,32.715,47.363,-143.555,21.973,0
1542737219.499,-122.559,36.621,44.922,-160.645,-12.695,0
1542737219.503,-154.297,38.574,41.992,-200.684,31.738,0
1542737219.507,-182.129,38.086,48.340,-229.492,76.660,0
1542737219.510,-215.332,36.133,52.734,-258.301,38.086,0
1542737219.514,-244.141,35.645,64.453,-290.039,6.348,0
1542737219.518,-253.418,28.320,83.008,-303.223,20.020,0
1542737219.522,-273.438,24.414,105.957,-316.895,21.484,0
1542737219.526,-287.109,30.762,93.750,-321.289,-4.883,0
1542737219.530,-281.250,41.992,73.730,-330.078,25.879,0
1542737219.534,-273.438,50.293,103.027,-327.637,48.340,0
1542737219.538,-260.742,51.270,107.910,-313.477,25.391,0
1542737219.542,-241.211,51.758,88.867,-300.293,39.551,0
1542737219.546,-238.770,37.109,93.750,-279.297,90.332,0
1542737219.550,-226.562,23.926,89.355,-264.160,105.957,0
1542737219.553,-206.543,26.367,74.219,-257.812,19.043,0
1542737219.557,-185.547,31.250,69.824,-239.258,7.812,0
1542737219.561,-167.480,32.715,56.641,-217.285,9.766,0
1542737219.565,-156.738,33.203,41.992,-201.660,1.465,0
1542737219.569,-127.441,29.785,47.363,-171.387,58.594,0
1542737219.573,-96.680,25.879,47.852,-147.461,62.500,0
1542737219.577,-83.984,20.020,36.133,-136.230,6.348,0
1542737219.581,-71.777,17.090,28.809,-115.234,-31.738,0
1542737219.585,-54.688,14.160,20.020,-102.539,16.602,0
1542737219.589,-39.551,6.348,11.719,-92.285,55.176,0
1542737219.592,-22.949,3.418,14.648,-74.219,-4.395,0
1542737219.596,-2.930,10.742,10.254,-62.500,1.465,0
1542737219.600,-0.488,9.277,4.883,-47.363,62.988,0
1542737219.604,11.719,-4.883,4.883,-41.992,87.891,0
1542737219.608,33.203,-7.324,3.906,-34.180,106.934,0
1542737219.612,35.156,-0.977,-4.883,-23.926,101.562,0
1542737219.616,36.621,-0.488,-11.230,-22.949,32.715,0
1542737219.620,50.781,-3.906,-2.930,-13.184,27.344,0
1542737219.624,59.082,-4.883,6.836,-3.906,-7.812,0
1542737219.628,59.570,0.488,-2.441,-4.395,12.207,0
1542737219.632,58.594,5.859,-19.043,-5.371,60.547,0
1542737219.635,56.641,-1.465,-13.672,1.465,41.992,0
1542737219.639,67.383,-7.324,-7.812,-8.789,4.395,0
1542737219.643,65.918,-2.441,-14.160,-15.625,41.504,0
1542737219.647,55.664,-1.953,-7.324,-14.160,47.852,0
1542737219.651,68.359,-0.488,11.230,-16.113,41.992,0
1542737219.655,72.266,9.277,1.953,-8.301,51.758,0
1542737219.659,73.242,15.137,-4.883,-7.324,28.320,0
1542737219.663,83.496,9.766,6.836,-16.602,53.223,0
1542737219.667,80.566,4.883,-0.488,-20.020,4.395,0
1542737219.671,79.102,5.859,-1.465,-19.043,-47.852,0
1542737219.675,76.172,8.789,-3.418,-19.531,14.648,0
1542737219.678,74.219,13.672,-12.207,-16.113,5.371,0
1542737219.682,83.496,12.207,1.953,-17.578,21.484,0
1542737219.686,75.195,8.789,20.020,-20.508,24.414,0
1542737219.690,68.359,7.812,9.766,-23.438,45.898,0
1542737219.694,68.359,5.859,5.859,-28.809,94.238,0
1542737219.698,59.082,13.672,0.488,-32.227,51.270,0
1542737219.702,64.941,10.742,3.418,-46.875,48.340,0
1542737219.706,69.336,4.395,9.766,-52.246,69.336,0
1542737219.710,74.219,12.695,5.859,-48.340,94.238,0
1542737219.714,77.148,18.066,10.254,-46.875,49.316,0
1542737219.717,68.359,14.648,10.254,-54.199,65.430,0
1542737219.721,71.777,20.020,7.812,-56.641,81.543,0
1542737219.725,74.707,28.320,8.301,-59.570,49.316,0
1542737219.729,61.035,30.273,7.812,-59.570,25.391,0
1542737219.733,60.547,31.738,3.418,-55.664,14.648,0
1542737219.737,52.246,24.902,5.371,-71.777,66.895,0
1542737219.741,39.551,17.578,2.930,-86.426,-12.695,0
1542737219.745,37.109,13.184,4.883,-84.473,-98.633,0
1542737219.749,42.480,17.090,28.320,-85.938,7.812,0
1542737219.753,51.270,23.438,19.531,-83.008,20.020,0
1542737219.757,42.480,19.531,-2.930,-86.914,22.461,0
1542737219.760,46.387,18.066,19.531,-89.355,23.438,0
1542737219.764,50.781,18.066,35.645,-85.938,-16.113,0
1542737219.768,40.039,12.207,27.832,-87.402,-20.508,0
1542737219.772,35.156,18.555,24.902,-90.332,-2.930,0
1542737219.776,38.574,26.367,20.996,-92.773,18.066,0
1542737219.780,43.457,20.020,21.484,-88.379,43.945,0
1542737219.784,31.738,22.461,21.484,-91.309,76.660,0
1542737219.788,28.320,23.926,18.555,-96.191,40.039,0
1542737219.792,29.785,18.555,18.555,-99.609,22.949,0
1542737219.796,25.879,21.484,17.578,-108.887,69.824,0
1542737219.800,20.508,22.461,19.531,-106.934,40.527,0
1542737219.803,23.438,19.043,21.973,-100.098,19.043,0
1542737219.807,28.320,17.578,24.902,-109.863,49.805,0
1542737219.811,15.625,20.996,12.695,-110.840,38.574,0
1542737219.815,22.461,26.855,5.859,-108.398,35.645,0
1542737219.819,23.926,23.926,10.742,-105.469,43.457,0
1542737219.823,17.090,16.113,13.672,-102.051,41.992,0
1542737219.827,17.090,17.090,24.414,-108.398,42.480,0
1542737219.831,17.578,21.484,2.441,-115.723,8.789,0
1542737219.835,18.066,20.996,-0.488,-117.676,-28.320,0
1542737219.839,10.742,15.625,22.461,-115.234,-5.859,0
1542737219.842,16.113,14.648,28.320,-113.770,55.664,0
1542737219.846,18.066,25.391,12.695,-113.281,24.414,0
1542737219.850,19.043,24.902,-1.953,-106.934,-38.574,0
1542737219.854,29.785,15.137,27.344,-105.469,-4.395,0
1542737219.858,29.297,11.230,34.668,-107.422,5.859,0
1542737219.862,19.531,15.137,18.555,-104.980,7.324,0
1542737219.866,22.461,27.344,15.625,-101.562,56.152,0
1542737219.870,13.672,29.297,13.184,-107.910,20.020,0
1542737219.874,4.883,26.367,10.742,-112.305,29.785,0
1542737219.878,17.578,27.832,19.043,-112.793,54.688,0
1542737219.882,21.973,34.180,18.066,-120.605,76.660,0
1542737219.885,20.508,29.785,13.672,-120.605,80.566,0
1542737219.889,20.508,25.879,17.090,-117.676,13.184,0
1542737219.893,18.555,29.297,23.438,-111.816,5.859,0
1542737219.897,23.438,27.832,30.273,-110.352,12.695,0
1542737219.901,22.461,28.809,24.902,-112.793,10.742,0
1542737219.905,19.043,24.902,22.949,-104.004,32.227,0
1542737219.909,16.113,21.973,17.090,-111.816,28.809,0
1542737219.913,15.137,26.367,14.160,-115.234,24.902,0
1542737219.917,11.719,28.320,13.672,-108.398,8.789,0
1542737219.921,10.254,27.832,10.742,-114.746,22.949,0
1542737219.925,12.207,35.645,23.926,-113.281,26.367,0
1542737219.928,17.090,35.156,22.461,-112.793,-20.996,0
1542737219.932,16.602,25.391,10.742,-119.141,-15.137,0
1542737219.936,14.648,22.461,25.391,-120.605,11.719,0
1542737219.940,20.996,20.508,33.691,-121.582,25.879,0
1542737219.944,20.996,20.996,22.949,-121.582,17.090,0
1542737219.948,18.066,25.391,27.832,-120.117,0.488,0
1542737219.952,20.020,21.973,28.320,-126.953,38.574,0
1542737219.956,7.812,14.648,20.996,-131.348,38.574,0
1542737219.960,3.418,21.484,25.879,-134.766,24.902,0
1542737219.964,13.184,22.461,31.738,-133.301,52.246,0
1542737219.967,20.996,23.926,30.762,-135.742,34.180,0
1542737219.971,24.902,23.926,24.902,-140.137,20.508,0
1542737219.975,14.160,15.137,20.996,-144.043,87.402,0
1542737219.979,12.695,12.695,20.508,-150.879,51.270,0
1542737219.983,14.648,26.367,14.160,-142.578,10.742,0
1542737219.987,9.766,34.180,11.719,-149.902,57.129,0
1542737219.991,13.672,27.832,26.855,-164.551,43.945,0
1542737219.995,8.301,22.949,34.180,-165.039,14.648,0
1542737219.999,10.742,19.043,26.855,-167.480,54.688,0
1542737220.003,17.090,14.160,23.926,-170.410,34.668,0
1542737220.007,8.789,15.137,20.996,-165.527,28.809,0
1542737220.010,-0.977,20.020,9.277,-165.527,70.312,0
1542737220.014,-6.836,19.531,12.207,-167.480,43.945,0
1542737220.018,2.930,13.672,30.762,-162.598,20.996,0
1542737220.022,13.184,1.953,33.203,-160.645,59.082,0
1542737220.026,2.930,6.348,32.227,-159.668,51.758,0
1542737220.030,-6.348,21.484,26.367,-153.809,14.160,0
1542737220.034,-0.977,24.414,25.391,-152.344,16.602,0
1542737220.038,3.906,17.090,24.902,-153.320,12.207,0
1542737220.042,3.418,11.230,19.043,-144.043,22.949,0
1542737220.046,7.812,17.578,29.297,-133.789,10.742,0
1542737220.050,12.207,16.113,37.109,-136.230,17.578,0
1542737220.053,20.996,14.160,29.785,-130.859,77.148,0
1542737220.057,37.109,18.066,25.879,-117.676,79.102,0
1542737220.061,17.090,15.625,19.531,-118.164,64.453,0
1542737220.065,-9.766,15.137,16.602,-129.883,68.848,0
1542737220.069,-5.371,12.207,24.902,-137.695,66.895,0
1542737220.073,-10.254,12.695,30.762,-138.184,62.988,0
1542737220.077,-6.836,12.207,31.738,-125.488,19.043,0
1542737220.081,-3.906,14.160,25.879,-125.000,49.316,0
1542737220.085,-5.859,23.438,12.695,-131.836,83.496,0
1542737220.089,-0.488,22.461,16.602,-123.047,46.387,0
1542737220.092,8.301,20.508,25.879,-121.582,74.707,0
1542737220.096,16.113,28.809,32.715,-127.930,62.988,0
1542737220.100,2.930,30.762,52.734,-123.535,-9.766,0
1542737220.104,0.488,24.414,50.781,-109.863,-4.883,0
1542737220.108,-0.977,29.785,31.738,-107.910,47.363,0
1542737220.112,1.465,28.320,19.531,-105.957,40.039,0
1542737220.116,5.859,19.043,23.926,-95.215,20.996,0
1542737220.120,10.742,21.973,25.879,-95.703,14.160,0
1542737220.124,9.277,23.926,26.367,-97.168,34.668,0
1542737220.128,15.625,21.484,25.879,-90.820,29.785,0
1542737220.132,19.531,21.973,28.809,-79.102,14.160,0
1542737220.135,5.371,24.414,27.832,-83.496,23.926,0
1542737220.139,10.742,23.926,21.973,-92.285,-20.508,0
1542737220.143,6.348,30.273,27.832,-81.543,-44.434,0
1542737220.147,12.695,36.621,31.738,-76.660,-18.066,0
1542737220.151,20.996,35.645,30.273,-76.660,-11.230,0
1542737220.155,19.043,30.762,17.090,-73.730,25.879,0
1542737220.159,22.949,23.926,9.277,-68.359,45.410,0
1542737220.163,19.043,29.785,29.297,-59.570,66.895,0
1542737220.167,18.066,34.180,30.762,-54.199,33.203,0
1542737220.171,17.578,26.367,23.438,-58.105,-35.156,0
1542737220.175,22.461,26.855,34.668,-65.430,-42.969,0
1542737220.178,25.391,27.344,31.250,-63.477,26.855,0
1542737220.182,14.160,24.414,26.855,-61.523,51.758,0
1542737220.186,15.137,27.832,31.738,-63.965,11.230,0
1542737220.190,15.137,24.414,26.855,-60.547,6.348,0
1542737220.194,1.953,20.508,31.250,-63.477,-17.090,0
1542737220.198,3.906,29.785,28.809,-65.918,29.785,0
1542737220.202,9.766,34.668,11.719,-66.895,82.031,0
1542737220.206,12.207,28.809,23.438,-62.988,66.406,0
1542737220.210,11.230,27.344,19.043,-60.059,56.152,0
1542737220.214,11.230,22.461,14.160,-64.941,52.734,0
1542737220.217,9.766,20.020,37.109,-70.801,-12.695,0
1542737220.221,5.371,28.320,40.527,-73.242,-31.250,0
1542737220.225,-2.930,23.926,38.086,-68.848,-22.461,0
1542737220.229,-17.578,18.555,34.180,-72.754,-6.836,0
1542737220.233,6.348,18.555,27.344,-69.336,34.180,0
1542737220.237,-3.906,15.137,22.949,-63.965,27.344,0
1542737220.241,-11.719,25.391,20.020,-64.941,-3.906,0
1542737220.245,17.578,25.391,22.949,-64.941,3.418,0
1542737220.249,-4.395,19.043,24.414,-61.523,-14.648,0
1542737220.253,-21.973,21.484,28.809,-67.383,13.672,0
1542737220.257,-8.789,27.832,32.715,-69.824,78.125,0
1542737220.260,1.465,34.668,33.203,-68.359,57.617,0
1542737220.264,1.465,33.691,26.367,-63.965,56.152,0
1542737220.268,21.484,26.855,14.160,-58.105,29.785,0
1542737220.272,23.926,21.973,18.555,-62.988,38.574,0
1542737220.276,7.812,26.367,26.367,-61.035,46.387,0
1542737220.280,4.883,32.715,30.762,-55.664,20.020,0
1542737220.284,-5.371,34.180,31.738,-64.453,37.109,0
1542737220.288,7.812,34.668,18.066,-71.777,62.012,0
1542737220.292,33.203,24.902,20.508,-63.477,78.613,0
1542737220.296,18.555,20.996,44.922,-59.082,97.656,0
1542737220.300,5.859,27.832,42.480,-58.594,74.219,0
1542737220.303,14.648,27.832,37.109,-55.664,41.504,0
1542737220.307,47.363,20.996,38.574,-55.176,1.953,0
1542737220.311,65.430,20.508,33.691,-40.527,4.883,0
1542737220.315,53.711,20.996,36.133,-23.438,13.184,0
1542737220.319,44.434,27.832,36.133,-26.367,-18.066,0
1542737220.323,49.316,42.480,24.902,-37.598,-6.348,0
1542737220.327,48.828,41.504,23.926,-46.875,20.996,0
1542737220.331,62.988,41.504,23.438,-39.551,-0.977,0
1542737220.335,85.938,50.293,29.785,-26.367,29.785,0
1542737220.339,72.754,41.016,30.762,-27.832,51.758,0
1542737220.342,88.379,36.133,27.344,-39.062,-19.531,0
1542737220.346,94.727,47.363,32.715,-31.250,-18.555,0
1542737220.350,78.613,50.781,34.668,-27.344,22.461,0
1542737220.354,101.074,47.363,25.391,-30.273,3.906,0
1542737220.358,114.746,45.898,28.809,-19.043,19.043,0
1542737220.362,119.629,43.945,38.086,-15.625,28.320,0
1542737220.366,136.230,38.086,30.762,-15.625,26.855,0
1542737220.370,131.836,40.527,27.344,-8.789,-10.742,0
1542737220.374,140.137,40.039,30.762,-5.371,-43.457,0
1542737220.378,152.832,34.668,35.645,-3.418,-31.738,0
1542737220.382,151.855,38.574,17.090,11.230,-19.043,0
1542737220.385,157.227,40.039,7.812,2.930,-6.348,0
1542737220.389,157.715,39.551,26.367,-13.672,54.199,0
1542737220.393,160.645,35.645,27.832,-5.859,41.504,0
1542737220.397,170.410,28.320,28.320,-10.742,49.805,0
1542737220.401,182.129,28.809,29.785,-7.812,62.500,0
1542737220.405,176.270,36.621,26.367,6.348,38.086,0
1542737220.409,156.738,40.039,30.762,5.859,46.387,0
1542737220.413,156.250,37.598,24.902,0.000,17.090,0
1542737220.417,161.133,37.598,9.766,-0.488,68.359,0
1542737220.421,163.086,37.598,8.789,-0.977,136.719,0
1542737220.425,169.434,31.250,18.555,1.465,36.133,0
1542737220.428,152.344,19.531,15.137,4.883,10.254,0
1542737220.432,151.855,22.461,8.789,0.000,16.113,0
1542737220.436,162.598,37.598,16.602,-14.648,21.484,0
1542737220.440,154.785,36.621,16.602,-16.113,65.430,0
1542737220.444,146.484,35.156,23.438,0.488,20.508,0
1542737220.448,155.273,33.691,28.809,5.859,-7.812,0
1542737220.452,161.133,27.832,13.672,9.277,-14.160,0
1542737220.456,133.301,26.367,12.207,10.254,13.672,0
1542737220.460,115.723,29.297,22.949,7.324,64.453,0
1542737220.464,119.629,20.996,24.902,8.789,57.129,0
1542737220.467,125.977,12.695,31.250,16.602,76.660,0
1542737220.471,129.883,13.184,19.531,20.020,89.355,0
1542737220.475,121.582,18.066,21.484,15.625,58.594,0
1542737220.479,121.582,25.879,37.109,17.578,33.203,0
1542737220.483,110.352,18.066,35.156,13.672,10.742,0
1542737220.487,98.145,4.395,34.668,7.324,16.602,0
1542737220.491,101.074,13.672,35.156,14.648,87.402,0
1542737220.495,111.328,28.320,39.551,22.949,96.191,0
1542737220.499,115.234,17.090,32.715,21.973,-2.930,0
1542737220.503,100.586,2.441,31.738,20.508,-19.043,0
1542737220.507,102.051,9.277,30.273,24.902,26.855,0
1542737220.510,99.121,24.414,9.277,25.879,30.273,0
1542737220.514,85.938,25.879,13.184,16.602,76.172,0
1542737220.518,83.496,16.602,40.527,16.113,71.289,0
1542737220.522,87.891,19.043,54.199,21.973,22.949,0
1542737220.526,82.520,17.090,47.363,20.508,53.711,0
1542737220.530,71.289,17.090,28.320,12.695,74.219,0
1542737220.534,68.359,25.879,25.391,8.789,60.547,0
1542737220.538,74.219,18.066,44.434,11.230,-11.719,0
1542737220.542,67.871,18.066,47.852,6.348,-62.988,0
1542737220.546,50.293,28.809,40.527,4.395,20.020,0
1542737220.550,79.102,20.996,37.109,31.738,52.734,0
1542737220.553,72.266,35.645,25.391,18.555,45.898,0
1542737220.557,14.648,45.898,-7.324,-27.832,8.301,0
1542737220.561,-13.184,23.438,-7.324,-50.293,-46.387,0
1542737220.565,-42.969,23.926,16.602,-70.801,8.789,0
1542737220.569,-57.129,25.391,13.184,-81.543,17.090,0
1542737220.573,-61.523,34.668,25.879,-88.379,-6.348,0
1542737220.577,-92.773,46.387,76.660,-123.535,31.738,0
1542737220.581,-119.629,50.293,96.680,-156.250,9.277,0
1542737220.585,-132.812,52.246,69.336,-161.133,-13.184,0
1542737220.589,-143.066,70.801,53.711,-166.016,-24.414,0
1542737220.592,-159.668,92.285,62.500,-203.613,2.441,0
1542737220.596,-190.918,70.801,85.449,-239.258,34.668,0
1542737220.600,-212.891,66.406,68.359,-243.652,9.766,0
1542737220.604,-222.168,77.148,51.758,-247.559,-17.090,0
1542737220.608,-207.520,68.359,48.828,-231.934,29.785,0
1542737220.612,-192.871,53.223,37.598,-214.844,71.777,0
1542737220.616,-191.895,61.523,60.547,-216.797,84.473,0
1542737220.620,-180.664,68.359,68.359,-208.984,80.078,0
1542737220.624,-182.129,71.777,56.152,-198.730,51.270,0
1542737220.628,-175.293,71.289,53.223,-193.848,58.105,0
1542737220.632,-155.273,49.316,46.387,-178.223,33.691,0
1542737220.635,-136.230,37.109,58.594,-156.250,-5.371,0
1542737220.639,-131.348,50.781,56.152,-151.855,59.570,0
1542737220.643,-104.492,63.965,53.711,-147.949,58.105,0
1542737220.647,-79.590,69.336,41.992,-127.930,-30.273,0
1542737220.651,-83.008,77.637,17.578,-100.586,-2.930,0
1542737220.655,-76.172,71.289,17.578,-71.289,63.965,0
1542737220.659,-50.293,47.363,32.227,-56.152,36.133,0
1542737220.663,-21.973,49.805,17.090,-46.387,-6.348,0
1542737220.667,-6.836,48.340,5.371,-26.367,11.719,0
1542737220.671,-0.977,36.621,21.973,-7.324,11.230,0
1542737220.675,7.324,43.945,31.250,8.301,34.668,0
1542737220.678,30.273,43.457,34.180,13.672,25.391,0
1542737220.682,43.945,31.250,25.391,31.738,27.344,0
1542737220.686,36.133,21.484,12.695,52.734,35.645,0
1542737220.690,44.922,21.484,20.020,63.477,-30.273,0
1542737220.694,51.758,22.949,15.137,71.777,7.324,0
1542737220.698,60.547,21.973,-8.301,70.312,58.594,0
1542737220.702,60.547,21.484,0.000,73.242,-19.531,0
1542737220.706,53.711,21.484,15.137,77.637,0.488,0
1542737220.710,57.617,19.043,18.555,81.055,45.410,0
1542737220.714,56.641,15.137,23.438,83.008,21.973,0
1542737220.717,61.523,18.555,15.625,81.543,32.715,0
1542737220.721,65.430,29.297,6.836,80.566,20.020,0
1542737220.725,68.359,33.691,24.414,85.938,-20.508,0
1542737220.729,69.336,11.230,12.207,94.727,18.066,0
1542737220.733,75.684,1.953,-0.488,93.750,30.762,0
1542737220.737,78.613,23.438,13.184,95.215,22.949,0
1542737220.741,76.660,28.320,13.184,101.074,17.090,0
1542737220.745,77.637,13.672,25.391,96.191,11.719,0
1542737220.749,68.359,27.344,44.434,101.562,13.184,0
1542737220.753,74.707,40.039,31.250,106.934,37.109,0
1542737220.757,77.148,29.297,1.953,98.633,33.203,0
1542737220.760,66.895,18.066,29.297,90.332,9.277,0
1542737220.764,64.453,24.414,55.176,90.332,31.250,0
1542737220.768,63.477,28.320,39.062,94.238,84.961,0
1542737220.772,79.102,26.367,17.578,88.867,39.062,0
1542737220.776,67.383,19.043,23.926,84.961,19.531,0
1542737220.780,57.129,13.672,34.668,87.402,43.945,0
1542737220.784,65.430,13.672,18.066,85.449,17.578,0
1542737220.788,62.012,10.254,20.508,82.031,38.086,0
1542737220.792,54.199,9.277,40.039,86.426,27.832,0
1542737220.796,47.363,8.789,41.992,84.961,-9.277,0
1542737220.800,47.852,14.160,23.926,72.266,-20.996,0
1542737220.803,57.129,30.762,12.207,80.078,17.578,0
1542737220.807,63.965,26.367,34.668,88.867,62.012,0
1542737220.811,70.312,24.902,25.879,85.449,47.363,0
1542737220.815,62.500,19.531,21.484,71.289,59.570,0
1542737220.819,41.504,14.648,33.203,66.406,75.684,0
1542737220.823,39.551,22.461,29.297,63.477,55.664,0
1542737220.827,43.945,32.227,35.156,49.316,30.273,0
1542737220.831,47.363,33.691,37.109,57.617,22.949,0
1542737220.835,49.316,22.949,37.109,67.871,91.309,0
1542737220.839,56.641,16.113,40.527,70.312,65.918,0
1542737220.842,54.688,18.066,46.387,70.312,19.531,0
1542737220.846,47.852,25.391,28.320,68.359,56.152,0
1542737220.850,47.363,27.832,20.020,62.012,62.012,0
1542737220.854,49.805,26.367,29.297,57.129,67.871,0
1542737220.858,38.086,16.113,40.039,61.035,108.398,0
1542737220.862,25.391,19.531,56.641,59.082,91.309,0
1542737220.866,22.461,32.227,50.293,56.152,40.527,0
1542737220.870,26.855,21.484,31.738,69.336,32.715,0
1542737220.874,48.340,13.672,20.996,68.359,40.527,0
1542737220.878,50.293,24.414,27.344,50.293,0.488,0
1542737220.882,31.738,34.668,22.461,46.875,-4.395,0
1542737220.885,31.738,30.273,21.484,51.758,36.133,0
1542737220.889,41.992,28.320,32.227,46.875,94.238,0
1542737220.893,41.016,30.273,21.484,47.852,94.727,0
1542737220.897,45.898,27.344,19.531,54.688,39.551,0
1542737220.901,32.715,26.367,24.414,50.781,29.297,0
1542737220.905,20.508,18.066,31.738,48.828,34.180,0
1542737220.909,26.367,11.230,36.621,48.340,61.523,0
1542737220.913,24.414,32.715,30.762,42.480,74.219,0
1542737220.917,24.902,40.039,24.902,41.992,84.473,0
1542737220.921,33.691,36.133,22.949,42.480,95.215,0
1542737220.925,35.156,34.180,27.832,36.133,29.297,0
1542737220.928,23.926,34.180,39.551,35.156,-16.602,0
1542737220.932,23.926,32.715,32.227,30.273,7.324,0
1542737220.936,38.574,23.438,14.160,36.133,-3.418,0
1542737220.940,38.574,21.484,28.809,51.270,-37.109,0
1542737220.944,29.785,21.973,42.480,52.246,-8.301,0
1542737220.948,21.973,21.973,44.434,40.527,8.301,0
1542737220.952,16.602,27.344,25.879,34.668,-31.250,0
1542737220.956,21.973,22.461,22.949,31.250,-11.719,0
1542737220.960,29.297,23.926,41.016,22.949,36.133,0
1542737220.964,24.902,30.762,38.086,23.438,3.906,0
1542737220.967,20.996,27.344,33.691,29.785,22.949,0
1542737220.971,25.879,28.809,20.996,34.180,63.965,0
1542737220.975,28.320,34.180,22.461,25.879,63.965,0
1542737220.979,24.902,41.992,32.715,29.785,87.402,0
1542737220.983,29.785,35.156,21.484,40.039,88.867,0
1542737220.987,31.250,25.879,26.855,37.109,37.598,0
1542737220.991,10.742,30.273,36.621,30.273,70.312,0
1542737220.995,9.766,26.855,28.320,30.273,30.762,0
1542737220.999,11.230,25.879,28.320,30.762,-26.367,0
1542737221.003,16.602,19.531,27.832,23.926,-14.648,0
1542737221.007,27.344,17.090,25.879,24.414,31.250,0
1542737221.010,22.461,21.973,21.484,20.996,54.199,0
1542737221.014,28.809,17.090,20.996,18.066,15.625,0
1542737221.018,23.926,20.996,35.156,28.809,-4.395,0
1542737221.022,7.324,39.062,31.738,24.414,2.930,0
1542737221.026,10.254,37.598,25.879,18.066,47.852,0
1542737221.030,14.160,27.832,32.715,25.391,67.383,0
1542737221.034,14.648,25.391,25.391,31.738,29.297,0
1542737221.038,19.043,26.855,19.043,31.250,23.438,0
1542737221.042,21.973,31.738,27.344,30.273,-4.883,0
1542737221.046,20.020,33.203,30.273,23.926,-57.129,0
1542737221.050,19.043,38.086,26.367,17.090,-11.230,0
1542737221.053,16.113,42.969,32.227,20.508,40.039,0
1542737221.057,11.719,30.762,31.738,17.578,36.621,0
1542737221.061,9.766,26.367,35.156,20.508,14.648,0
1542737221.065,6.836,31.738,41.992,24.414,-13.184,0
1542737221.069,9.277,29.297,14.160,17.578,-13.184,0
1542737221.073,13.184,28.809,0.488,13.184,36.133,0
1542737221.077,11.719,33.691,33.691,13.184,46.387,0
1542737221.081,23.438,40.039,30.762,21.973,54.199,0
1542737221.085,23.926,38.574,19.043,24.414,54.199,0
1542737221.089,14.648,28.809,16.113,20.020,37.598,0
1542737221.092,14.648,23.926,36.621,23.438,31.250,0
1542737221.096,8.789,24.414,34.668,20.996,17.090,0
1542737221.100,15.137,17.090,23.926,19.043,9.277,0
1542737221.104,20.996,25.879,39.062,12.207,39.062,0
1542737221.108,20.020,35.645,29.785,7.324,20.508,0
1542737221.112,22.949,31.738,20.996,12.695,-15.625,0
1542737221.116,20.996,17.090,36.133,18.066,-5.859,0
1542737221.120,17.578,6.348,39.551,13.672,19.531,0
1542737221.124,9.277,24.902,25.879,7.324,57.617,0
1542737221.128,1.953,39.062,29.785,14.648,13.184,0
1542737221.132,12.695,30.273,29.297,18.066,-35.645,0
1542737221.135,16.113,22.461,11.230,13.672,-15.625,0
1542737221.139,16.113,37.109,0.000,14.648,19.531,0
1542737221.143,21.484,32.227,17.578,13.184,43.945,0
1542737221.147,20.996,17.090,48.828,12.695,71.777,0
1542737221.151,10.742,24.902,44.434,10.742,84.961,0
1542737221.155,13.184,35.645,36.133,7.324,50.781,0
1542737221.159,27.344,41.992,31.738,17.090,13.184,0
1542737221.163,20.508,44.922,33.691,23.926,16.602,0
1542737221.167,16.113,39.062,37.598,19.531,18.555,0
1542737221.171,14.160,22.461,28.809,17.090,-18.066,0
1542737221.175,17.090,20.996,17.090,19.043,-8.301,0
1542737221.178,30.762,30.273,13.184,24.902,48.828,0
1542737221.182,17.578,29.785,7.812,15.625,43.457,0
1542737221.186,12.207,23.438,30.762,20.020,24.414,0
1542737221.190,14.648,22.461,37.598,26.367,25.879,0
1542737221.194,24.902,23.438,20.996,10.742,24.902,0
1542737221.198,31.738,18.555,31.250,12.695,-21.973,0
1542737221.202,17.578,33.691,30.762,20.508,1.465,0
1542737221.206,4.883,39.551,36.133,19.043,-22.949,0
1542737221.210,1.953,33.203,46.387,20.508,-30.762,0
1542737221.214,9.766,34.180,35.645,20.508,8.789,0
1542737221.217,17.578,30.762,23.438,15.625,20.020,0
1542737221.221,19.043,28.320,9.277,16.113,48.340,0
1542737221.225,24.902,27.344,21.484,21.484,53.223,0
1542737221.229,22.949,25.879,40.039,22.461,40.527,0
1542737221.233,23.926,23.926,44.434,17.090,42.969,0
1542737221.237,23.926,21.973,28.809,22.949,39.062,0
1542737221.241,6.348,22.461,28.320,24.414,46.387,0
1542737221.245,2.441,21.973,38.574,8.301,100.586,0
1542737221.249,9.766,27.344,35.156,13.672,121.582,0
1542737221.253,20.996,32.227,28.320,21.484,82.520,0
1542737221.257,10.254,30.273,16.602,16.113,35.156,0
1542737221.260,10.254,27.832,15.137,14.648,-13.672,0
1542737221.264,7.324,26.367,25.879,16.113,-41.016,0
1542737221.268,13.672,34.180,37.598,14.160,45.898,0
1542737221.272,13.672,38.574,25.879,4.395,112.305,0
1542737221.276,-2.930,28.320,24.902,10.742,33.691,0
1542737221.280,6.348,25.879,14.648,24.414,16.113,0
1542737221.284,11.719,31.738,14.648,22.949,26.855,0
1542737221.288,18.066,31.250,26.855,19.043,47.363,0
1542737221.292,15.625,28.320,37.109,20.996,29.785,0
1542737221.296,15.625,32.227,34.180,26.855,-14.648,0
1542737221.300,27.344,36.133,8.301,26.855,3.418,0
1542737221.303,25.879,19.043,32.227,17.578,27.344,0
1542737221.307,18.555,13.184,38.086,29.297,29.785,0
1542737221.311,13.672,31.738,20.508,32.715,9.766,0
1542737221.315,6.836,43.457,32.715,7.324,29.297,0
1542737221.319,2.441,38.574,35.156,8.301,4.883,0
1542737221.323,0.000,29.297,33.203,14.160,24.902,0
1542737221.327,8.301,28.809,34.180,12.207,75.684,0
1542737221.331,29.297,32.227,33.203,17.090,54.199,0
1542737221.335,27.832,30.762,29.785,20.020,29.297,0
1542737221.339,8.789,27.344,21.973,19.531,-41.016,0
1542737221.342,4.395,20.996,20.020,5.371,14.648,0
1542737221.346,12.695,28.320,29.297,11.230,106.934,0
1542737221.350,13.184,40.527,22.949,14.648,47.852,0
1542737221.354,9.766,38.574,17.578,11.230,43.945,0
1542737221.358,12.695,37.109,21.973,19.531,19.043,0
1542737221.362,16.113,29.297,3.906,17.090,-9.277,0
1542737221.366,18.555,21.973,23.438,18.066,26.855,0
1542737221.370,23.438,24.414,42.480,19.531,44.922,0
1542737221.374,18.066,24.902,26.367,26.367,62.012,0
1542737221.378,25.879,30.762,21.484,35.156,26.855,0
1542737221.382,31.250,44.922,30.762,33.691,14.648,0
1542737221.385,20.020,36.621,30.273,22.949,40.039,0
1542737221.389,14.160,37.109,28.809,21.973,21.484,0
1542737221.393,20.996,41.992,20.996,24.902,27.832,0
1542737221.397,30.273,35.156,9.766,25.879,-0.977,0
1542737221.401,27.832,30.762,24.414,26.367,5.859,0
1542737221.405,23.926,40.527,28.320,22.461,107.910,0
1542737221.409,26.855,38.574,34.668,28.320,107.422,0
1542737221.413,28.809,16.113,53.223,29.785,57.129,0
1542737221.417,28.320,32.715,49.316,27.832,65.430,0
1542737221.421,25.879,48.828,35.156,21.973,88.379,0
1542737221.425,33.203,43.457,30.762,25.879,43.945,0
1542737221.428,37.598,34.668,22.949,34.180,8.789,0
1542737221.432,29.785,25.879,21.484,32.227,-5.859,0
1542737221.436,24.414,26.367,26.367,22.949,12.207,0
1542737221.440,23.926,22.949,26.855,16.602,5.859,0
1542737221.444,20.996,30.762,30.762,24.902,-39.062,0
1542737221.448,25.879,40.039,33.203,21.973,-13.184,0
1542737221.452,20.020,18.066,25.879,14.648,78.125,0
1542737221.456,13.672,7.812,22.461,17.578,92.285,0
1542737221.460,30.273,24.902,6.348,19.043,45.410,0
1542737221.464,25.879,28.809,-1.953,26.855,-11.719,0
1542737221.467,20.020,24.414,20.020,35.645,-1.953,0
1542737221.471,19.531,31.738,36.621,36.621,24.414,0
1542737221.475,22.949,25.879,45.410,35.645,38.086,0
1542737221.479,27.832,8.789,34.668,24.414,16.602,0
1542737221.483,21.973,29.297,30.762,25.879,-50.781,0
1542737221.487,22.461,39.062,36.621,35.156,-27.832,0
1542737221.491,27.832,34.180,27.344,28.320,25.391,0
1542737221.495,20.020,31.738,20.020,21.484,-10.742,0
1542737221.499,2.930,28.809,29.297,20.508,4.395,0
1542737221.503,9.277,24.414,37.109,20.996,62.012,0
1542737221.507,8.789,24.902,25.391,20.996,53.223,0
1542737221.510,24.902,24.414,20.508,23.438,48.340,0
1542737221.514,56.152,19.531,35.156,44.922,27.344,0
1542737221.518,28.320,14.160,22.949,35.645,37.598,0
1542737221.522,-13.184,28.809,11.719,-1.465,49.805,0
1542737221.526,-12.695,45.898,1.953,-11.230,24.414,0
1542737221.530,-4.883,38.574,-3.418,1.953,42.480,0
1542737221.534,-11.719,47.363,45.410,-8.301,-21.973,0
1542737221.538,-23.438,44.434,66.406,-25.391,-20.996,0
1542737221.542,-23.926,29.785,48.828,-20.508,64.453,0
1542737221.546,-27.344,31.738,41.992,-26.367,59.082,0
1542737221.550,-25.879,37.109,25.391,-24.902,44.922,0
1542737221.553,-24.902,42.480,14.648,-21.484,20.996,0
1542737221.557,-35.645,43.457,28.809,-28.320,52.734,0
1542737221.561,-27.832,50.781,26.855,-24.414,59.570,0
1542737221.565,1.953,46.387,16.113,-20.508,59.082,0
1542737221.569,0.000,25.391,23.926,-20.020,68.848,0
1542737221.573,-20.508,20.996,38.086,-13.672,9.766,0
1542737221.577,-17.578,30.762,34.668,-8.789,-5.371,0
1542737221.581,-5.371,25.879,22.461,-8.789,-6.836,0
1542737221.585,18.555,32.715,21.484,1.953,-8.789,0
1542737221.589,32.227,50.781,35.645,13.672,-4.883,0
1542737221.592,18.555,51.270,15.625,14.160,24.902,0
1542737221.596,2.441,50.293,11.719,11.230,37.598,0
1542737221.600,9.766,43.457,34.668,13.672,7.324,0
1542737221.604,6.836,33.691,29.297,16.113,27.832,0
1542737221.608,6.836,28.809,22.949,20.020,5.371,0
1542737221.612,17.090,31.738,24.414,25.391,1.953,0
1542737221.616,16.113,41.504,33.203,22.949,12.695,0
1542737221.620,12.695,45.410,21.973,19.531,21.484,0
1542737221.624,21.484,39.062,14.648,20.996,61.523,0
1542737221.628,21.973,34.668,23.438,20.020,49.805,0
1542737221.632,17.578,49.316,18.066,21.484,57.617,0
1542737221.635,31.738,51.758,35.156,27.344,55.176,0
1542737221.639,38.574,36.133,41.016,30.273,-12.207,0
1542737221.643,27.832,23.438,25.391,33.203,15.137,0
1542737221.647,7.324,30.273,29.297,19.043,97.656,0
1542737221.651,5.371,48.828,23.438,12.695,76.172,0
1542737221.655,13.184,41.992,20.996,12.695,3.906,0
1542737221.659,21.973,26.367,22.461,12.207,38.086,0
1542737221.663,20.508,21.973,4.395,22.461,48.340,0
1542737221.667,21.973,17.090,20.996,22.461,31.250,0
1542737221.671,17.090,23.438,40.039,23.926,26.855,0
1542737221.675,20.508,39.062,33.203,25.879,20.996,0
1542737221.678,21.973,36.621,37.598,21.973,20.996,0
1542737221.682,19.531,35.645,40.039,17.578,39.062,0
1542737221.686,26.367,34.668,34.180,17.090,82.520,0
1542737221.690,10.742,38.086,26.367,24.414,70.312,0
1542737221.694,10.254,47.363,26.367,24.902,35.645,0
1542737221.698,18.555,35.645,39.062,22.949,52.246,0
1542737221.702,19.531,25.879,40.527,27.344,94.238,0
1542737221.706,15.625,31.738,28.320,29.785,23.926,0
1542737221.710,26.855,25.391,31.738,26.367,-2.930,0
1542737221.714,33.203,25.391,36.133,25.879,30.762,0
1542737221.717,19.043,23.926,20.020,33.203,37.598,0
1542737221.721,19.043,20.508,15.625,33.691,59.570,0
1542737221.725,29.297,32.227,-9.766,25.391,62.500,0
1542737221.729,31.738,26.367,-0.977,29.297,15.137,0
1542737221.733,25.879,36.621,38.574,33.203,-11.719,0
1542737221.737,21.484,45.898,42.480,34.668,8.789,0
1542737221.741,23.926,38.574,46.387,32.715,12.695,0
1542737221.745,20.508,37.598,33.203,27.344,56.152,0
1542737221.749,25.391,33.691,25.391,27.832,46.387,0
1542737221.753,35.156,40.527,24.902,32.227,9.766,0
1542737221.757,24.414,35.645,24.902,34.668,-9.766,0
1542737221.760,21.484,25.391,23.926,23.926,-38.086,0
1542737221.764,22.949,36.621,27.344,17.578,24.902,0
1542737221.768,20.020,33.203,18.066,25.391,44.922,0
1542737221.772,27.344,28.809,3.418,31.250,-9.277,0
1542737221.776,40.527,33.203,12.695,39.551,26.367,0
1542737221.780,30.762,40.527,41.016,35.156,66.406,0
1542737221.784,29.297,37.109,45.898,15.137,4.395,0
1542737221.788,34.668,38.086,32.715,17.090,1.953,0
1542737221.792,12.695,44.922,31.738,24.902,41.992,0
1542737221.796,6.348,38.086,31.250,20.996,10.742,0
1542737221.800,20.020,35.645,25.879,23.926,3.418,0
1542737221.803,22.461,37.109,21.973,33.691,24.414,0
1542737221.807,20.508,38.574,27.832,26.367,-7.324,0
1542737221.811,26.855,38.086,6.836,23.926,16.602,0
1542737221.815,19.043,38.086,13.672,33.203,32.715,0
1542737221.819,18.555,35.156,50.781,30.273,-13.184,0
1542737221.823,23.926,40.039,41.992,25.879,-30.273,0
1542737221.827,19.531,37.109,41.992,33.691,-3.906,0
1542737221.831,20.508,35.156,48.828,30.273,47.852,0
1542737221.835,20.508,38.574,34.180,23.438,83.984,0
1542737221.839,17.578,34.180,28.809,31.250,72.266,0
1542737221.842,17.090,26.855,30.762,28.809,50.781,0
1542737221.846,20.996,24.902,24.414,25.879,92.285,0
1542737221.850,23.438,33.203,33.203,24.414,83.008,0
1542737221.854,13.184,34.668,19.531,14.648,19.531,0
1542737221.858,12.695,29.297,12.695,9.766,18.555,0
1542737221.862,19.531,34.668,29.297,20.020,43.945,0
1542737221.866,14.648,40.039,24.414,19.043,86.914,0
1542737221.870,16.113,34.180,18.066,11.230,75.195,0
1542737221.874,17.578,16.113,24.414,15.137,49.805,0
1542737221.878,21.973,12.695,21.973,16.602,49.316,0
1542737221.882,22.461,35.156,1.953,17.578,41.504,0
1542737221.885,21.484,47.363,13.672,17.090,30.273,0
1542737221.889,25.879,33.691,37.598,23.438,46.875,0
1542737221.893,19.531,22.949,31.250,21.973,35.645,0
1542737221.897,15.137,38.086,19.043,19.531,38.086,0
1542737221.901,10.254,45.410,30.273,20.508,93.262,0
1542737221.905,16.602,39.062,36.133,22.461,79.590,0
1542737221.909,23.926,32.715,33.691,27.832,-8.301,0
1542737221.913,15.137,27.344,32.227,13.672,-15.625,0
1542737221.917,20.508,32.227,25.391,15.625,5.371,0
1542737221.921,24.902,38.574,13.184,28.320,40.527,0
1542737221.925,12.695,24.902,15.625,21.484,60.547,0
1542737221.928,19.531,35.156,32.715,12.695,56.641,0
1542737221.932,24.902,41.992,29.785,16.602,16.602,0
1542737221.936,12.207,30.273,20.508,24.414,-25.879,0
1542737221.940,11.719,31.250,27.832,24.414,-23.438,0
1542737221.944,17.090,38.574,25.391,11.719,16.113,0
1542737221.948,14.648,42.480,19.531,14.648,29.297,0
1542737221.952,19.531,38.574,30.762,24.414,-0.488,0
1542737221.956,21.484,35.156,36.133,17.578,-53.223,0
1542737221.960,23.438,32.715,28.809,22.949,-31.738,0
1542737221.964,41.504,31.250,7.324,44.434,13.672,0
1542737221.967,50.781,26.855,13.672,46.387,0.977,0
1542737221.971,23.438,26.855,42.969,23.926,21.484,0
1542737221.975,-3.906,44.434,39.551,1.953,19.043,0
1542737221.979,15.625,52.734,33.203,18.066,-8.789,0
1542737221.983,34.668,55.664,40.527,37.598,7.324,0
1542737221.987,22.949,56.152,33.691,10.742,-26.855,0
1542737221.991,22.949,54.199,16.113,10.742,-66.895,0
1542737221.995,44.434,52.734,14.160,21.484,-24.414,0
1542737221.999,51.758,52.734,17.578,21.973,26.855,0
1542737222.003,53.711,62.012,23.438,30.762,7.812,0
1542737222.007,57.617,65.918,33.691,34.180,-36.133,0
1542737222.010,47.363,60.547,27.344,28.809,-25.391,0
1542737222.014,48.828,60.059,11.719,33.691,1.465,0
1542737222.018,61.035,62.500,9.766,41.016,30.762,0
1542737222.022,59.570,54.688,18.555,39.062,-12.207,0
1542737222.026,63.965,60.547,16.602,40.039,15.625,0
1542737222.030,65.430,66.895,20.020,45.410,99.121,0
1542737222.034,62.012,51.758,17.578,45.410,55.664,0
1542737222.038,56.641,42.969,6.348,53.711,44.922,0
1542737222.042,59.082,50.293,11.719,49.805,89.844,0
1542737222.046,62.012,56.641,15.137,37.109,65.918,0
1542737222.050,64.941,51.758,8.301,37.598,40.527,0
1542737222.053,64.941,52.246,8.789,41.504,58.594,0
1542737222.057,62.500,54.199,14.648,55.176,68.848,0
1542737222.061,68.848,43.945,22.949,51.758,46.875,0
1542737222.065,69.336,52.246,26.367,42.480,50.293,0
1542737222.069,57.129,56.641,38.086,48.340,99.121,0
1542737222.073,46.875,49.316,28.320,44.922,112.305,0
1542737222.077,43.457,47.852,5.371,44.922,61.035,0
1542737222.081,52.246,41.992,18.555,44.922,76.172,0
1542737222.085,57.129,27.832,32.227,43.457,56.641,0
1542737222.089,54.199,34.180,21.973,50.293,-2.441,0
1542737222.092,52.246,48.340,20.020,43.945,20.996,0
1542737222.096,58.594,51.270,17.578,38.574,80.078,0
1542737222.100,60.059,49.316,19.531,46.875,50.781,0
1542737222.104,41.504,41.992,24.414,44.922,-6.348,0
1542737222.108,37.109,39.062,16.602,38.574,0.000,0
1542737222.112,48.828,40.527,20.508,48.340,44.434,0
1542737222.116,47.363,35.645,20.020,47.852,82.520,0
1542737222.120,46.387,33.691,9.277,41.504,65.430,0
1542737222.124,46.387,41.504,12.695,39.551,69.336,0
1542737222.128,41.016,45.410,14.648,34.180,9.277,0
1542737222.132,47.852,42.969,10.254,33.691,-7.324,0
1542737222.135,49.805,39.062,4.883,27.832,45.898,0
1542737222.139,46.387,39.551,3.418,31.250,6.836,0
