timestamps,TP9,AF7,AF8,TP10,Right AUX,Marker0
1553637268.097,-32.227,10.742,24.902,-310.547,37.109,0
1553637268.101,-36.621,7.812,31.250,-311.523,40.039,0
1553637268.105,-38.086,10.742,31.250,-307.617,44.434,0
1553637268.109,-31.738,13.672,28.320,-316.406,24.902,0
1553637268.113,-26.855,13.672,26.855,-310.059,27.344,0
1553637268.117,-27.344,15.137,28.809,-307.129,51.758,0
1553637268.121,-44.434,14.648,28.320,-315.430,11.230,0
1553637268.125,-42.480,14.648,25.391,-316.406,16.113,0
1553637268.129,-36.133,17.090,25.879,-312.988,58.105,0
1553637268.133,-38.086,17.090,22.949,-306.641,43.945,0
1553637268.136,-28.809,16.602,23.438,-297.852,33.691,0
1553637268.140,-27.832,14.160,24.414,-299.805,68.359,0
1553637268.144,-29.785,13.672,24.902,-302.734,20.020,0
1553637268.148,-26.367,16.113,25.391,-294.922,-17.090,0
1553637268.152,-32.715,14.160,25.391,-292.969,51.270,0
1553637268.156,-34.180,10.742,21.484,-298.828,67.383,0
1553637268.160,-36.133,12.695,18.555,-296.387,19.531,0
1553637268.164,-38.574,13.672,20.508,-291.016,-21.484,0
1553637268.168,-36.133,14.648,19.043,-301.758,49.805,0
1553637268.172,-40.039,17.090,17.090,-310.059,50.293,0
1553637268.176,-41.016,17.090,18.555,-305.664,-13.672,0
1553637268.179,-36.133,19.043,18.555,-302.734,46.387,0
1553637268.183,-27.832,21.484,20.996,-291.016,68.848,0
1553637268.187,-25.879,21.973,22.461,-282.715,8.301,0
1553637268.191,-29.297,20.996,18.555,-296.875,-31.738,0
1553637268.195,-30.762,21.973,20.020,-295.410,36.133,0
1553637268.199,-28.320,22.949,22.949,-298.340,76.660,0
1553637268.203,-27.344,20.020,21.973,-297.852,50.293,0
1553637268.207,-32.227,16.113,21.484,-286.133,33.691,0
1553637268.211,-32.715,12.695,22.461,-292.969,21.973,0
1553637268.215,-34.668,16.113,22.461,-294.922,42.969,0
1553637268.219,-33.203,18.555,23.438,-284.180,41.992,0
1553637268.222,-29.785,17.090,20.996,-281.738,46.875,0
1553637268.226,-29.785,19.043,15.625,-281.250,41.504,0
1553637268.230,-30.273,16.602,19.531,-271.484,-9.766,0
1553637268.234,-33.203,15.137,23.438,-267.090,-36.133,0
1553637268.238,-27.832,18.066,24.902,-270.996,-41.992,0
1553637268.242,-27.832,17.090,26.855,-283.691,-4.883,0
1553637268.246,-29.785,14.648,25.391,-288.574,31.250,0
1553637268.250,-29.297,12.207,25.879,-275.391,71.289,0
1553637268.254,-32.227,13.672,28.320,-265.137,86.914,0
1553637268.258,-32.715,18.066,25.879,-269.531,38.574,0
1553637268.261,-32.715,17.578,20.996,-280.762,11.719,0
1553637268.265,-38.574,15.625,19.043,-275.391,17.090,0
1553637268.269,-40.527,17.578,26.855,-271.484,25.391,0
1553637268.273,-33.691,14.648,32.227,-265.137,-1.465,0
1553637268.277,-22.949,6.836,35.645,-247.070,-19.531,0
1553637268.281,-26.367,13.184,35.645,-247.070,23.926,0
1553637268.285,-45.410,23.926,24.902,-270.020,43.945,0
1553637268.289,-46.387,26.367,22.461,-280.762,20.020,0
1553637268.293,-36.133,23.438,20.508,-272.949,8.789,0
1553637268.297,-29.785,25.391,16.602,-267.090,47.852,0
1553637268.301,-33.691,31.250,16.602,-266.602,71.777,0
1553637268.304,-29.785,30.762,12.695,-271.973,63.965,0
1553637268.308,-21.484,29.785,9.277,-268.066,51.270,0
1553637268.312,-25.879,30.273,12.695,-264.648,29.297,0
1553637268.316,-30.273,28.320,12.207,-264.648,7.324,0
1553637268.320,-27.832,28.320,3.418,-260.254,48.340,0
1553637268.324,-27.344,27.832,3.906,-260.742,46.875,0
1553637268.328,-26.855,28.320,11.230,-266.602,-5.371,0
1553637268.332,-23.438,27.344,15.137,-258.789,73.242,0
1553637268.336,-14.648,27.344,19.043,-244.629,83.496,0
1553637268.340,-9.277,29.297,18.066,-257.812,-18.066,0
1553637268.344,-9.277,25.879,18.555,-260.742,0.488,0
1553637268.347,-7.812,25.391,21.484,-256.836,4.395,0
1553637268.351,-7.812,28.320,19.531,-256.348,12.695,0
1553637268.355,-5.859,29.785,20.020,-253.906,73.242,0
1553637268.359,-11.719,31.250,20.996,-255.371,65.430,0
1553637268.363,-19.043,31.250,22.949,-249.512,26.367,0
1553637268.367,-22.949,29.785,20.020,-249.023,-39.551,0
1553637268.371,-18.555,24.902,18.555,-242.188,-4.395,0
1553637268.375,-16.602,25.391,24.902,-242.676,80.566,0
1553637268.379,-20.020,27.832,30.273,-257.812,11.230,0
1553637268.383,-13.184,29.297,37.109,-246.094,20.996,0
1553637268.386,-20.020,29.297,32.715,-245.605,50.781,0
1553637268.390,-19.043,28.320,24.414,-251.465,30.273,0
1553637268.394,-12.207,27.832,24.414,-246.094,26.367,0
1553637268.398,-22.461,25.391,27.832,-251.465,34.668,0
1553637268.402,-21.484,25.391,28.320,-253.906,8.301,0
1553637268.406,-25.879,20.508,25.879,-252.930,32.227,0
1553637268.410,-35.645,16.602,23.438,-261.719,92.285,0
1553637268.414,-30.273,18.066,20.508,-267.090,65.918,0
1553637268.418,-29.297,17.578,17.578,-267.090,4.883,0
1553637268.422,-39.062,17.578,18.555,-266.602,-29.297,0
1553637268.426,-39.551,16.113,17.578,-254.395,-9.277,0
1553637268.429,-38.574,16.602,15.137,-253.906,61.035,0
1553637268.433,-40.039,18.555,17.090,-254.883,66.895,0
1553637268.437,-33.691,17.578,21.973,-245.605,-20.508,0
1553637268.441,-31.250,17.578,25.879,-248.535,3.418,0
1553637268.445,-37.109,18.066,25.879,-253.906,-3.418,0
1553637268.449,-40.527,20.020,27.832,-257.324,37.109,0
1553637268.453,-38.086,17.090,31.738,-252.930,79.102,0
1553637268.457,-36.621,13.672,31.250,-255.859,62.988,0
1553637268.461,-32.227,20.020,24.414,-251.953,37.598,0
1553637268.465,-26.367,24.414,23.438,-243.164,38.086,0
1553637268.469,-31.250,22.461,27.344,-245.605,62.500,0
1553637268.472,-27.344,12.695,34.180,-231.445,58.105,0
1553637268.476,-23.438,17.578,35.645,-237.793,59.570,0
1553637268.480,-39.062,29.785,26.855,-262.207,70.312,0
1553637268.484,-35.156,27.344,22.461,-256.836,24.414,0
1553637268.488,-25.879,24.414,27.344,-245.117,-22.461,0
1553637268.492,-27.344,22.461,27.832,-242.188,-3.906,0
1553637268.496,-25.879,21.973,25.391,-240.723,-1.465,0
1553637268.500,-33.691,20.508,22.461,-255.859,-28.809,0
1553637268.504,-33.203,20.996,21.484,-268.555,-39.551,0
1553637268.508,-28.809,21.484,27.344,-260.254,10.254,0
1553637268.511,-30.762,19.531,27.344,-263.184,78.613,0
1553637268.515,-24.902,19.043,17.090,-257.812,70.312,0
1553637268.519,-14.648,20.996,16.602,-249.023,16.113,0
1553637268.523,-22.949,19.043,27.832,-252.930,16.602,0
1553637268.527,-42.480,17.090,32.715,-249.512,14.648,0
1553637268.531,-44.434,14.648,30.762,-241.211,30.762,0
1553637268.535,-47.852,11.230,35.156,-237.305,33.691,0
1553637268.539,-50.781,11.230,38.574,-235.840,34.668,0
1553637268.543,-45.410,15.137,31.250,-236.328,91.309,0
1553637268.547,-46.875,11.230,23.926,-234.863,98.145,0
1553637268.551,-46.875,13.184,24.414,-247.559,92.285,0
1553637268.554,-41.992,16.113,25.879,-243.164,55.176,0
1553637268.558,-34.180,15.137,27.344,-224.609,4.395,0
1553637268.562,-31.250,20.508,26.367,-222.656,52.246,0
1553637268.566,-32.227,21.484,26.855,-233.398,50.781,0
1553637268.570,-24.414,16.602,29.297,-234.375,20.996,0
1553637268.574,-27.832,17.578,23.926,-230.469,16.113,0
1553637268.578,-32.227,20.508,20.020,-232.910,28.809,0
1553637268.582,-32.227,20.996,20.996,-225.586,37.109,0
1553637268.586,-26.367,19.043,25.391,-221.191,-35.156,0
1553637268.590,-20.020,15.625,28.320,-225.586,-26.855,0
1553637268.594,-30.273,15.137,27.344,-225.586,29.785,0
1553637268.597,-31.738,19.531,26.855,-230.957,43.945,0
1553637268.601,-26.367,20.508,28.809,-229.980,44.922,0
1553637268.605,-22.949,17.578,33.691,-233.398,35.645,0
1553637268.609,-20.508,19.043,33.691,-230.957,18.066,0
1553637268.613,-25.879,18.555,31.738,-218.750,83.496,0
1553637268.617,-29.785,15.137,27.832,-220.215,90.332,0
1553637268.621,-29.297,13.184,29.297,-213.379,25.879,0
1553637268.625,-29.297,11.230,34.180,-213.867,61.035,0
1553637268.629,-27.832,13.184,33.691,-215.820,55.176,0
1553637268.633,-23.438,17.090,36.621,-215.820,13.672,0
1553637268.636,-14.648,19.043,35.156,-213.867,85.449,0
1553637268.640,-11.230,21.484,33.203,-207.520,66.895,0
1553637268.644,-19.531,24.902,33.203,-208.496,88.379,0
1553637268.648,-15.137,23.926,30.273,-209.473,92.285,0
1553637268.652,-11.719,21.484,31.738,-201.172,18.066,0
1553637268.656,-14.648,20.508,30.762,-203.613,-8.301,0
1553637268.660,-13.672,24.414,25.391,-211.914,33.203,0
1553637268.664,-13.672,19.531,26.367,-203.613,67.871,0
1553637268.668,-17.578,12.695,29.785,-200.195,77.637,0
1553637268.672,-19.043,18.066,26.855,-200.195,30.762,0
1553637268.676,-13.184,20.020,28.809,-201.172,-1.953,0
1553637268.679,-14.648,20.508,32.227,-208.008,24.414,0
1553637268.683,-17.090,20.020,38.086,-202.148,34.668,0
1553637268.687,-15.137,19.043,40.527,-194.824,72.754,0
1553637268.691,-13.184,21.484,34.180,-196.289,90.820,0
1553637268.695,-13.184,21.484,36.133,-197.754,101.074,0
1553637268.699,-9.277,23.438,37.109,-193.848,112.305,0
1553637268.703,-6.836,24.902,36.621,-183.594,56.152,0
1553637268.707,-9.766,22.949,38.086,-182.129,10.742,0
1553637268.711,4.883,29.785,26.855,-181.152,-16.602,0
1553637268.715,14.648,28.809,21.484,-165.527,0.488,0
1553637268.719,-12.207,14.160,39.062,-168.945,4.883,0
1553637268.722,-22.461,12.207,41.992,-181.641,-3.906,0
1553637268.726,-16.602,15.137,31.738,-176.270,-14.160,0
1553637268.730,-28.320,15.625,36.133,-189.941,-19.531,0
1553637268.734,-31.250,8.789,46.875,-189.941,18.555,0
1553637268.738,-27.344,5.859,50.293,-189.941,19.531,0
1553637268.742,-31.250,11.719,48.340,-198.242,-0.488,0
1553637268.746,-29.785,9.277,42.480,-180.664,13.184,0
1553637268.750,-28.320,6.836,44.922,-176.758,31.250,0
1553637268.754,-26.367,6.348,45.410,-186.035,85.449,0
1553637268.758,-23.438,8.301,36.621,-182.617,100.098,0
1553637268.761,-26.855,11.719,38.574,-183.594,16.602,0
1553637268.765,-31.250,9.766,47.363,-181.152,-0.488,0
1553637268.769,-26.855,8.301,46.387,-172.852,3.418,0
1553637268.773,-24.902,9.277,39.551,-170.898,44.434,0
1553637268.777,-23.926,11.719,39.062,-168.945,120.117,0
1553637268.781,-24.414,9.766,40.039,-168.457,80.078,0
1553637268.785,-25.879,8.301,38.574,-163.086,60.059,0
1553637268.789,-16.113,14.160,40.527,-162.109,83.984,0
1553637268.793,-20.508,16.113,40.039,-160.156,51.758,0
1553637268.797,-31.738,16.113,38.086,-162.598,62.988,0
1553637268.801,-32.715,17.578,37.109,-167.969,60.059,0
1553637268.804,-34.180,15.625,34.180,-168.457,18.555,0
1553637268.808,-36.133,14.648,35.156,-170.898,34.180,0
1553637268.812,-32.227,15.625,32.227,-181.152,66.406,0
1553637268.816,-26.367,16.113,27.832,-181.641,78.125,0
1553637268.820,-29.297,19.531,26.855,-180.664,1.465,0
1553637268.824,-25.391,22.461,28.320,-178.711,-35.156,0
1553637268.828,-23.926,19.531,29.297,-181.152,26.855,0
1553637268.832,-26.855,20.508,30.762,-193.359,78.613,0
1553637268.836,-16.113,28.320,37.109,-185.059,61.523,0
1553637268.840,-21.484,24.414,33.203,-187.012,66.406,0
1553637268.844,-24.902,20.508,30.762,-190.918,91.309,0
1553637268.847,-18.555,25.879,27.832,-181.641,29.297,0
1553637268.851,-19.531,23.926,20.996,-184.082,21.484,0
1553637268.855,-16.113,25.879,20.508,-185.059,85.938,0
1553637268.859,-13.672,26.855,24.414,-179.688,-6.836,0
1553637268.863,-17.578,23.926,30.762,-184.082,-13.184,0
1553637268.867,-10.742,25.391,31.250,-187.012,51.270,0
1553637268.871,-9.277,24.902,26.367,-184.570,45.898,0
1553637268.875,-9.277,25.391,25.391,-181.152,43.457,0
1553637268.879,-7.812,25.391,28.809,-187.988,7.324,0
1553637268.883,-9.277,25.391,28.320,-179.688,-8.789,0
1553637268.886,-3.906,24.902,29.297,-179.199,16.602,0
1553637268.890,-12.695,26.367,31.738,-196.289,10.742,0
1553637268.894,-21.484,28.320,31.738,-191.895,33.203,0
1553637268.898,-18.066,28.320,25.391,-188.477,34.180,0
1553637268.902,-20.996,29.785,24.414,-194.824,46.875,0
1553637268.906,-22.461,26.367,24.902,-197.754,90.820,0
1553637268.910,-21.484,25.391,20.996,-196.777,41.992,0
1553637268.914,-29.785,24.414,22.461,-203.613,-20.508,0
1553637268.918,-28.320,20.020,22.461,-206.055,29.297,0
1553637268.922,-15.625,23.438,25.879,-206.543,47.852,0
1553637268.926,-8.789,16.113,35.156,-195.312,83.008,0
1553637268.929,0.488,15.625,34.180,-173.340,56.641,0
1553637268.933,-2.441,33.203,21.484,-189.941,-9.277,0
1553637268.937,-13.184,39.551,16.113,-205.078,35.645,0
1553637268.941,-6.836,35.645,16.602,-199.219,35.156,0
1553637268.945,-5.371,33.203,11.230,-198.242,21.484,0
1553637268.949,-10.742,37.598,5.371,-194.336,38.086,0
1553637268.953,-5.859,42.969,2.930,-192.871,55.176,0
1553637268.957,2.441,42.480,6.348,-184.570,30.273,0
1553637268.961,1.465,40.039,9.277,-178.223,34.668,0
1553637268.965,-2.441,37.598,6.836,-170.898,76.172,0
1553637268.969,-5.371,34.668,7.324,-179.688,53.711,0
1553637268.972,-6.836,34.180,7.812,-187.500,-18.066,0
1553637268.976,0.000,33.691,10.254,-176.758,-37.109,0
1553637268.980,1.465,35.645,13.672,-175.781,7.812,0
1553637268.984,-0.977,35.645,15.137,-180.664,80.566,0
1553637268.988,1.465,35.156,18.066,-174.316,60.059,0
1553637268.992,6.836,41.504,19.043,-170.410,-13.672,0
1553637268.996,6.348,32.227,15.137,-175.781,21.973,0
1553637269.000,6.348,30.273,11.230,-174.805,77.148,0
1553637269.004,-1.953,34.668,14.160,-170.410,26.367,0
1553637269.008,-2.930,29.297,17.578,-172.363,2.441,0
1553637269.011,8.301,30.273,16.602,-167.480,42.480,0
1553637269.015,6.836,32.715,18.555,-165.527,45.898,0
1553637269.019,0.977,31.738,21.973,-167.480,93.262,0
1553637269.023,1.953,27.832,22.949,-164.062,64.941,0
1553637269.027,4.395,31.250,18.066,-168.457,-51.270,0
1553637269.031,-1.465,32.227,14.648,-171.875,-6.836,0
1553637269.035,-9.277,27.832,17.090,-168.457,47.852,0
1553637269.039,-5.859,30.762,20.020,-173.340,78.613,0
1553637269.043,2.930,32.227,14.648,-175.293,99.609,0
1553637269.047,1.465,33.691,9.766,-172.852,68.359,0
1553637269.051,-5.371,33.203,14.160,-176.270,65.430,0
1553637269.054,-10.254,29.785,20.020,-177.734,24.414,0
1553637269.058,-7.812,33.203,21.484,-181.152,22.949,0
1553637269.062,-2.930,32.227,22.949,-185.059,51.758,0
1553637269.066,-13.672,28.809,20.508,-177.734,66.895,0
1553637269.070,-10.742,28.320,9.277,-175.293,17.090,0
1553637269.074,-4.883,25.879,6.836,-172.363,-1.465,0
1553637269.078,-6.836,31.250,15.625,-170.410,36.133,0
1553637269.082,-0.977,32.227,25.879,-166.016,66.895,0
1553637269.086,4.395,32.715,30.273,-163.574,45.898,0
1553637269.090,1.953,30.762,27.832,-165.039,27.832,0
1553637269.094,-3.418,29.785,28.320,-165.039,14.160,0
1553637269.097,-0.488,33.691,26.367,-167.969,28.320,0
1553637269.101,6.348,33.691,20.020,-158.203,4.883,0
1553637269.105,0.488,32.715,19.531,-157.715,26.367,0
1553637269.109,-13.672,29.785,18.555,-170.410,36.133,0
1553637269.113,-15.625,31.250,19.043,-162.109,12.695,0
1553637269.117,-16.602,28.809,19.043,-156.738,17.090,0
1553637269.121,-22.949,23.926,18.555,-169.434,6.836,0
1553637269.125,-21.973,23.926,25.879,-173.828,25.391,0
1553637269.129,-21.484,23.438,27.344,-168.945,10.254,0
1553637269.133,-18.555,25.391,26.367,-168.457,23.438,0
1553637269.136,-14.160,26.855,25.391,-162.598,53.223,0
1553637269.140,-18.066,24.902,27.344,-161.133,83.008,0
1553637269.144,-20.996,22.461,23.438,-160.156,83.984,0
1553637269.148,-22.949,22.461,21.973,-158.691,69.824,0
1553637269.152,-17.578,26.367,25.879,-164.551,62.988,0
1553637269.156,-15.137,25.879,21.973,-164.062,76.660,0
1553637269.160,-19.531,25.879,24.414,-155.762,39.062,0
1553637269.164,-14.648,28.809,29.297,-162.109,-16.602,0
1553637269.168,-11.230,31.738,28.320,-161.621,-7.812,0
1553637269.172,-10.742,33.691,26.855,-162.109,-7.812,0
1553637269.176,-10.742,29.785,29.785,-164.062,43.945,0
1553637269.179,-13.184,30.762,25.879,-162.109,41.504,0
1553637269.183,6.348,34.180,16.113,-155.762,9.766,0
1553637269.187,-4.883,26.367,24.902,-164.551,-13.184,0
1553637269.191,-35.645,18.066,35.645,-185.059,46.875,0
1553637269.195,-23.438,18.555,37.109,-172.852,94.727,0
1553637269.199,-7.812,22.949,37.598,-159.668,48.340,0
1553637269.203,-8.789,19.043,41.504,-160.645,-17.578,0
1553637269.207,-6.836,9.277,45.410,-156.738,-27.832,0
1553637269.211,-9.766,15.625,45.410,-164.551,37.598,0
1553637269.215,-13.672,20.020,43.945,-163.086,77.637,0
1553637269.219,-4.883,11.230,50.781,-145.996,59.082,0
1553637269.222,9.277,13.184,49.805,-143.555,-1.953,0
1553637269.226,7.812,14.160,43.457,-148.926,4.395,0
1553637269.230,-10.742,15.137,41.504,-152.832,53.711,0
1553637269.234,-9.766,21.484,38.574,-155.273,-1.465,0
1553637269.238,1.465,19.531,40.527,-160.645,5.859,0
1553637269.242,-15.625,18.066,42.969,-163.574,72.266,0
1553637269.246,-19.531,15.625,41.016,-162.109,73.242,0
1553637269.250,-12.207,15.625,39.062,-160.645,63.477,0
1553637269.254,-15.625,18.066,43.945,-160.156,71.777,0
1553637269.258,-19.043,14.648,41.016,-168.945,70.312,0
1553637269.261,-13.184,14.160,37.598,-174.805,27.344,0
1553637269.265,-9.277,12.207,42.480,-176.270,29.785,0
1553637269.269,-8.301,13.184,41.016,-172.852,59.570,0
1553637269.273,-2.930,15.625,37.598,-173.828,46.387,0
1553637269.277,-0.488,13.184,34.668,-179.199,17.578,0
1553637269.281,-15.625,16.113,35.645,-177.246,-33.203,0
1553637269.285,-17.090,18.066,36.133,-182.617,20.508,0
1553637269.289,-2.930,19.531,30.762,-184.082,35.645,0
1553637269.293,2.441,21.484,24.902,-158.203,-25.391,0
1553637269.297,12.207,19.531,26.367,-158.203,33.203,0
1553637269.301,3.418,17.578,27.832,-165.527,-13.672,0
1553637269.304,-25.391,11.719,29.297,-160.156,21.484,0
1553637269.308,-45.410,0.488,29.785,-157.715,111.816,0
1553637269.312,-31.250,1.953,33.203,-165.527,42.480,0
1553637269.316,-18.555,17.090,45.410,-168.945,6.836,0
1553637269.320,-25.391,29.297,54.199,-149.902,-2.441,0
1553637269.324,-15.137,29.297,46.387,-174.805,45.410,0
1553637269.328,-34.668,30.762,29.785,-191.406,87.891,0
1553637269.332,-56.641,29.785,36.621,-174.805,18.066,0
1553637269.336,-6.836,31.250,46.875,-176.758,4.395,0
1553637269.340,-1.953,41.016,41.992,-196.289,21.973,0
1553637269.344,-56.152,38.574,41.992,-200.684,20.020,0
1553637269.347,-67.871,25.391,52.734,-183.594,40.527,0
1553637269.351,-72.754,35.645,52.734,-196.289,-8.789,0
1553637269.355,-98.633,52.734,40.527,-245.117,-8.789,0
1553637269.359,-129.883,55.176,29.297,-288.574,70.312,0
1553637269.363,-150.879,58.105,30.273,-302.246,36.133,0
1553637269.367,-171.875,47.852,31.250,-313.965,2.441,0
1553637269.371,-183.105,48.828,19.531,-337.891,36.133,0
1553637269.375,-182.129,67.383,6.348,-345.703,80.566,0
1553637269.379,-188.965,64.941,3.418,-333.008,125.488,0
1553637269.383,-201.172,51.270,13.672,-335.938,78.613,0
1553637269.386,-203.125,55.176,25.391,-343.262,55.664,0
1553637269.390,-192.383,47.852,18.066,-332.031,29.297,0
1553637269.394,-183.105,28.809,13.184,-309.082,1.465,0
1553637269.398,-158.691,40.039,32.715,-278.809,10.742,0
1553637269.402,-163.574,46.387,30.273,-280.762,-7.812,0
1553637269.406,-168.457,23.438,18.555,-283.203,21.484,0
1553637269.410,-128.906,20.020,25.391,-245.605,50.293,0
1553637269.414,-88.379,35.645,32.227,-206.055,24.902,0
1553637269.418,-77.637,40.527,23.438,-182.617,33.691,0
1553637269.422,-75.684,19.531,15.625,-163.086,18.555,0
1553637269.426,-52.246,-8.301,25.879,-145.996,14.160,0
1553637269.429,-30.273,4.395,28.320,-123.535,70.312,0
1553637269.433,-27.344,24.902,24.902,-116.699,60.059,0
1553637269.437,-19.531,25.391,21.973,-114.258,10.254,0
1553637269.441,-9.277,17.578,20.996,-97.656,77.148,0
1553637269.445,-1.465,6.348,27.832,-83.984,75.684,0
1553637269.449,6.348,2.930,27.832,-74.707,29.785,0
1553637269.453,12.207,10.254,22.461,-66.406,29.297,0
1553637269.457,12.695,13.184,21.484,-61.035,-6.348,0
1553637269.461,18.555,12.207,17.090,-59.570,-35.645,0
1553637269.465,24.414,11.230,7.812,-56.641,-8.789,0
1553637269.469,30.762,11.719,10.742,-49.805,62.012,0
1553637269.472,40.039,14.648,21.973,-38.574,43.457,0
1553637269.476,29.785,12.207,24.902,-40.039,36.621,0
1553637269.480,27.832,8.301,26.855,-37.598,58.594,0
1553637269.484,37.109,9.277,31.250,-28.809,63.477,0
1553637269.488,38.574,7.324,28.809,-34.180,54.199,0
1553637269.492,40.527,1.953,25.879,-37.598,46.875,0
1553637269.496,43.457,-0.488,30.762,-32.227,103.027,0
1553637269.500,36.621,4.395,30.273,-27.344,93.750,0
1553637269.504,28.320,13.672,25.879,-27.344,47.852,0
1553637269.508,27.344,19.531,23.438,-30.762,39.551,0
1553637269.511,31.738,20.508,22.461,-28.809,57.617,0
1553637269.515,35.645,20.020,24.414,-24.414,35.156,0
1553637269.519,35.156,18.555,25.391,-24.414,40.039,0
1553637269.523,40.039,19.043,24.414,-24.414,54.688,0
1553637269.527,43.945,18.555,23.438,-25.879,21.484,0
1553637269.531,41.016,18.555,23.438,-20.508,54.199,0
1553637269.535,40.527,22.949,26.367,-21.484,65.430,0
1553637269.539,39.551,19.043,29.785,-29.785,-6.348,0
1553637269.543,30.273,15.137,26.855,-31.738,24.414,0
1553637269.547,26.855,14.160,25.879,-33.691,21.973,0
1553637269.551,27.832,14.160,26.367,-33.203,-17.090,0
1553637269.554,27.344,12.207,25.879,-30.273,-3.418,0
1553637269.558,24.902,11.230,24.902,-36.621,-12.207,0
1553637269.562,22.949,16.602,27.832,-40.527,-16.602,0
1553637269.566,27.344,20.020,27.344,-35.156,24.414,0
1553637269.570,25.879,17.578,27.832,-28.320,30.273,0
1553637269.574,24.902,17.090,27.344,-25.391,55.176,0
1553637269.578,27.344,20.996,20.996,-25.879,48.828,0
1553637269.582,22.949,23.438,23.438,-26.855,-35.156,0
1553637269.586,23.926,23.438,29.785,-29.785,-4.883,0
1553637269.590,22.461,25.879,30.273,-39.062,48.340,0
1553637269.594,15.137,24.414,31.738,-40.527,13.184,0
1553637269.597,12.207,21.484,34.668,-37.109,28.320,0
1553637269.601,4.883,21.484,34.180,-43.457,77.148,0
1553637269.605,8.301,22.461,32.715,-52.246,1.465,0
1553637269.609,10.742,21.973,32.227,-53.711,-22.461,0
1553637269.613,2.441,21.973,31.738,-52.246,7.812,0
1553637269.617,0.977,25.879,29.785,-56.641,45.410,0
1553637269.621,9.277,26.855,29.297,-54.199,55.664,0
1553637269.625,11.230,27.832,24.902,-56.152,7.812,0
1553637269.629,3.906,30.273,24.902,-60.547,4.883,0
1553637269.633,3.418,24.902,26.855,-55.176,68.359,0
1553637269.636,3.906,20.020,23.926,-54.688,63.477,0
1553637269.640,6.348,11.719,20.996,-53.711,9.766,0
1553637269.644,2.441,10.742,19.531,-56.641,-5.859,0
1553637269.648,-13.672,22.949,22.949,-66.406,4.883,0
1553637269.652,-20.020,30.273,27.832,-65.918,44.922,0
1553637269.656,-20.996,31.738,29.297,-65.918,42.480,0
1553637269.660,-18.555,26.367,27.832,-72.754,9.277,0
1553637269.664,-8.789,22.949,29.297,-66.895,-33.691,0
1553637269.668,-1.465,24.902,31.738,-59.082,-4.395,0
1553637269.672,-3.906,23.926,30.762,-58.105,45.410,0
1553637269.676,-0.977,27.832,24.414,-64.453,-8.301,0
1553637269.679,3.418,32.715,20.996,-70.312,33.203,0
1553637269.683,3.906,33.203,24.414,-68.848,60.547,0
1553637269.687,4.395,33.203,21.973,-73.242,17.090,0
1553637269.691,0.000,31.738,20.020,-82.031,39.551,0
1553637269.695,0.977,28.320,27.832,-76.660,13.184,0
1553637269.699,-0.488,29.785,31.250,-72.754,21.484,0
1553637269.703,-2.441,34.668,27.344,-80.566,66.895,0
1553637269.707,9.766,31.250,25.879,-84.473,89.844,0
1553637269.711,5.371,30.762,27.832,-81.055,68.359,0
1553637269.715,-2.930,32.715,27.344,-83.008,23.438,0
1553637269.719,-9.766,30.762,24.902,-93.262,30.273,0
1553637269.722,-13.672,32.715,23.926,-83.984,56.152,0
1553637269.726,-6.836,33.691,20.996,-83.496,65.918,0
1553637269.730,-9.277,29.785,24.414,-95.703,21.484,0
1553637269.734,-4.395,25.391,29.785,-93.750,24.414,0
1553637269.738,-3.418,24.414,30.273,-87.402,51.758,0
1553637269.742,-5.371,27.344,27.344,-84.961,6.836,0
1553637269.746,-5.371,26.367,25.879,-88.867,26.367,0
1553637269.750,0.488,17.090,33.691,-84.961,45.898,0
1553637269.754,7.812,26.367,31.738,-83.496,62.988,0
1553637269.758,-0.977,42.969,27.344,-104.492,25.879,0
1553637269.761,-9.766,43.457,23.438,-117.188,-34.180,0
1553637269.765,-7.324,39.062,15.137,-109.375,-27.832,0
1553637269.769,-1.953,36.133,19.043,-105.957,-0.977,0
1553637269.773,-0.488,41.016,22.949,-106.934,19.043,0
1553637269.777,-11.230,40.527,17.578,-112.305,-20.508,0
1553637269.781,-9.277,35.156,17.578,-112.305,-10.254,0
1553637269.785,-5.371,30.762,17.578,-118.164,94.727,0
1553637269.789,-11.230,31.738,11.719,-117.676,109.375,0
1553637269.793,-6.348,34.180,10.254,-111.816,21.484,0
1553637269.797,-8.301,31.250,13.184,-118.164,44.434,0
1553637269.801,-8.301,32.715,17.578,-115.234,85.449,0
1553637269.804,-3.906,37.598,20.508,-117.188,108.398,0
1553637269.808,-0.488,35.645,20.996,-116.699,47.363,0
1553637269.812,-0.488,34.668,18.066,-115.723,-30.273,0
1553637269.816,-8.789,34.668,14.160,-117.676,25.391,0
1553637269.820,-2.930,29.297,16.602,-109.863,80.566,0
1553637269.824,1.465,31.250,20.020,-107.422,70.801,0
1553637269.828,-3.418,33.203,21.484,-107.422,60.547,0
1553637269.832,-0.488,33.203,22.461,-103.027,18.066,0
1553637269.836,-1.465,35.645,23.926,-107.422,30.762,0
1553637269.840,-1.465,32.715,26.855,-105.469,34.668,0
1553637269.844,0.000,33.203,23.926,-106.445,39.551,0
1553637269.847,4.883,30.762,23.926,-105.957,64.941,0
1553637269.851,2.441,24.414,22.949,-98.145,49.805,0
1553637269.855,-4.883,27.832,19.043,-97.656,65.430,0
1553637269.859,-2.930,29.785,25.879,-103.516,43.945,0
1553637269.863,-1.465,29.297,27.344,-116.211,26.367,0
1553637269.867,-6.348,31.738,25.391,-129.883,6.836,0
1553637269.871,-10.254,31.738,22.949,-122.070,-16.113,0
1553637269.875,-7.812,30.273,27.344,-113.770,10.254,0
1553637269.879,-14.160,27.832,30.762,-122.559,19.043,0
1553637269.883,-11.230,27.344,23.438,-123.047,33.691,0
1553637269.886,-5.371,31.738,23.926,-117.676,65.430,0
1553637269.890,-4.395,32.715,23.926,-117.676,55.176,0
1553637269.894,-13.184,28.320,16.113,-116.699,22.461,0
1553637269.898,-21.484,27.832,20.996,-117.188,6.836,0
1553637269.902,-9.277,34.180,27.832,-114.746,18.066,0
1553637269.906,-14.160,23.438,32.715,-115.234,40.039,0
1553637269.910,-12.207,14.648,29.785,-112.793,4.395,0
1553637269.914,2.441,29.785,24.414,-104.004,-18.555,0
1553637269.918,-4.395,35.156,26.367,-102.051,24.414,0
1553637269.922,-10.254,30.762,31.250,-107.422,46.875,0
1553637269.926,-13.672,27.344,32.227,-105.957,41.992,0
1553637269.929,-8.301,26.367,32.227,-106.445,8.789,0
1553637269.933,-3.906,30.762,33.691,-110.840,27.344,0
1553637269.937,-7.324,31.738,33.203,-111.328,43.457,0
1553637269.941,-3.906,26.855,33.203,-115.234,33.691,0
1553637269.945,4.395,26.855,32.227,-109.375,-2.930,0
1553637269.949,-2.441,29.785,30.273,-110.840,27.832,0
1553637269.953,-9.766,26.855,31.738,-112.793,76.172,0
1553637269.957,-0.977,26.855,36.133,-109.375,62.988,0
1553637269.961,0.000,31.250,35.156,-111.328,23.926,0
1553637269.965,-12.695,32.715,37.109,-114.746,24.414,0
1553637269.969,-17.090,29.297,36.133,-114.258,61.035,0
1553637269.972,-17.090,27.344,32.715,-115.723,76.660,0
1553637269.976,-17.090,25.391,34.668,-116.211,89.844,0
1553637269.980,-13.672,29.297,33.691,-111.816,72.754,0
1553637269.984,-10.254,31.738,30.273,-112.793,81.055,0
1553637269.988,-12.695,30.273,30.273,-117.188,73.730,0
1553637269.992,-10.742,32.227,30.273,-111.816,-3.418,0
1553637269.996,-6.348,34.180,33.691,-102.051,33.691,0
1553637270.000,-6.836,30.273,33.203,-113.281,84.961,0
1553637270.004,-10.742,24.902,30.273,-121.582,63.477,0
1553637270.008,-9.277,30.762,30.273,-106.445,20.508,0
1553637270.011,-14.648,31.250,34.180,-101.562,9.766,0
1553637270.015,-17.090,25.879,33.691,-114.258,66.895,0
1553637270.019,-10.742,28.320,28.809,-118.164,70.312,0
1553637270.023,-10.742,31.738,27.832,-113.770,37.109,0
1553637270.027,-15.137,32.227,29.297,-113.770,40.039,0
1553637270.031,-16.602,27.832,30.762,-113.770,48.828,0
1553637270.035,-9.766,32.715,33.691,-112.793,41.016,0
1553637270.039,-3.906,29.785,37.598,-105.957,7.812,0
1553637270.043,-2.930,21.484,35.645,-104.980,34.668,0
1553637270.047,-0.488,29.785,31.250,-110.840,37.109,0
1553637270.051,12.695,39.062,31.250,-107.422,25.391,0
1553637270.054,20.508,41.992,28.320,-105.957,9.277,0
1553637270.058,20.508,40.039,31.250,-111.328,-26.367,0
1553637270.062,18.555,40.039,36.133,-109.863,-10.742,0
1553637270.066,13.184,39.551,36.133,-105.957,29.785,0
1553637270.070,1.953,33.691,34.180,-103.516,18.555,0
1553637270.074,-4.883,28.320,28.320,-101.074,8.789,0
1553637270.078,-7.812,28.320,31.738,-99.609,30.273,0
1553637270.082,-12.207,27.832,33.203,-104.980,36.621,0
1553637270.086,-12.207,27.832,27.832,-106.445,43.945,0
1553637270.090,-9.277,33.203,23.926,-109.375,58.594,0
1553637270.094,-7.812,33.691,28.320,-117.676,7.324,0
1553637270.097,-2.441,32.227,31.738,-117.676,-30.273,0
1553637270.101,-7.812,25.879,22.461,-125.000,-20.020,0
1553637270.105,-18.555,22.949,21.973,-126.465,-3.418,0
1553637270.109,-20.996,26.855,30.273,-124.512,12.695,0
1553637270.113,-25.391,23.438,33.203,-132.812,16.602,0
1553637270.117,-22.949,23.926,34.668,-131.348,-30.273,0
1553637270.121,-15.625,26.367,31.738,-126.465,-20.508,0
1553637270.125,-23.438,24.902,30.762,-135.254,-19.043,0
1553637270.129,-26.367,26.367,28.320,-133.789,26.855,0
1553637270.133,-15.137,20.996,30.762,-129.395,52.734,0
1553637270.136,-16.602,17.090,33.203,-124.512,11.230,0
1553637270.140,-18.555,23.926,28.809,-121.094,-17.578,0
1553637270.144,-16.113,25.391,26.367,-125.000,-9.277,0
1553637270.148,-10.742,24.902,25.879,-131.348,62.012,0
1553637270.152,-15.137,26.855,24.414,-130.859,81.543,0
1553637270.156,-22.461,29.785,21.973,-132.324,49.805,0
1553637270.160,-20.996,31.738,20.996,-140.625,50.781,0
1553637270.164,-10.742,28.320,22.461,-135.742,36.621,0
1553637270.168,-4.883,25.391,23.438,-135.742,27.344,0
1553637270.172,-3.418,25.391,20.996,-139.160,65.430,0
1553637270.176,0.977,26.855,24.414,-130.859,82.520,0
1553637270.179,-6.348,25.391,26.367,-135.742,96.191,0
1553637270.183,-7.812,29.297,22.461,-140.137,39.062,0
1553637270.187,-12.207,29.297,18.555,-137.695,-5.859,0
1553637270.191,-16.113,30.273,13.184,-143.066,45.410,0
1553637270.195,-15.137,33.203,11.230,-145.996,47.363,0
1553637270.199,-9.277,34.668,20.020,-140.137,21.484,0
1553637270.203,-5.371,35.645,29.785,-133.301,19.043,0
1553637270.207,-8.301,34.668,33.203,-134.277,10.254,0
1553637270.211,-10.254,34.668,27.344,-138.672,58.594,0
1553637270.215,-15.625,34.668,23.438,-141.602,71.289,0
1553637270.219,-13.184,34.180,23.438,-133.789,16.602,0
1553637270.222,-8.789,32.227,25.879,-124.512,15.137,0
1553637270.226,-13.672,29.785,25.391,-135.254,39.062,0
1553637270.230,-14.160,26.367,22.949,-130.371,74.707,0
1553637270.234,-7.812,23.438,25.879,-118.164,49.805,0
1553637270.238,-6.836,25.879,26.855,-124.512,9.766,0
1553637270.242,-5.859,25.391,24.414,-129.883,0.977,0
1553637270.246,-7.812,25.391,23.926,-124.023,34.180,0
1553637270.250,-13.184,25.391,24.414,-120.605,106.445,0
1553637270.254,-8.301,28.320,28.320,-116.699,71.289,0
1553637270.258,1.465,32.715,27.344,-113.770,0.977,0
1553637270.261,0.488,33.691,26.367,-118.652,-32.715,0
1553637270.265,-1.953,33.691,25.879,-124.512,-17.090,0
1553637270.269,-3.418,30.762,20.996,-128.418,23.438,0
1553637270.273,-2.930,28.320,22.461,-127.930,14.160,0
1553637270.277,2.930,28.809,26.855,-119.141,18.066,0
1553637270.281,-4.883,29.785,29.785,-120.605,18.555,0
1553637270.285,-9.766,32.227,31.250,-127.441,-23.438,0
1553637270.289,-4.883,35.156,32.715,-126.953,-24.902,0
1553637270.293,-4.395,31.738,35.645,-125.977,67.383,0
1553637270.297,-5.859,34.180,33.203,-125.488,88.867,0
1553637270.301,-11.719,36.133,28.320,-116.211,83.984,0
1553637270.304,-18.555,30.273,29.785,-120.117,104.980,0
1553637270.308,-14.160,28.809,31.738,-124.023,104.004,0
1553637270.312,-6.836,30.273,30.762,-114.746,116.211,0
1553637270.316,-8.301,29.297,31.250,-117.188,97.168,0
1553637270.320,-13.184,24.414,34.180,-119.629,75.195,0
1553637270.324,-10.254,24.414,37.109,-113.770,58.105,0
1553637270.328,-9.766,21.973,33.691,-117.188,45.898,0
1553637270.332,-12.207,23.438,27.832,-120.605,79.102,0
1553637270.336,-10.742,29.297,28.320,-116.211,30.762,0
1553637270.340,-15.625,26.367,29.297,-115.234,-17.090,0
1553637270.344,-13.184,25.391,30.762,-113.281,16.113,0
1553637270.347,-13.672,24.414,32.227,-111.328,17.090,0
1553637270.351,-13.184,24.414,28.320,-114.746,46.875,0
1553637270.355,-12.695,26.855,28.320,-117.676,43.457,0
1553637270.359,-16.113,25.879,33.691,-118.652,44.922,0
1553637270.363,-15.625,21.973,38.574,-112.793,68.359,0
1553637270.367,-16.602,22.949,35.645,-109.375,87.402,0
1553637270.371,-20.508,23.438,31.250,-107.422,77.148,0
1553637270.375,-12.207,25.879,32.715,-106.934,63.477,0
1553637270.379,-9.766,31.250,30.762,-107.910,67.383,0
1553637270.383,-10.742,28.809,27.832,-105.957,62.012,0
1553637270.386,-4.883,26.855,28.320,-100.098,39.062,0
1553637270.390,-7.812,25.879,29.785,-95.703,-3.906,0
1553637270.394,-6.348,25.391,33.203,-88.867,22.461,0
1553637270.398,4.395,29.785,38.086,-84.473,8.789,0
1553637270.402,0.977,31.250,35.645,-81.543,26.855,0
1553637270.406,-8.789,23.438,31.250,-88.379,53.223,0
1553637270.410,-2.441,21.484,27.344,-95.703,62.500,0
1553637270.414,-4.883,32.227,26.367,-93.750,43.457,0
1553637270.418,-6.348,32.715,30.762,-97.168,31.738,0
1553637270.422,2.441,23.926,29.785,-92.285,13.184,0
1553637270.426,-1.953,28.320,25.391,-81.543,-36.621,0
1553637270.429,-6.836,32.715,28.809,-88.379,-4.883,0
1553637270.433,-0.977,30.762,31.738,-97.168,3.906,0
1553637270.437,-0.488,32.715,31.250,-93.262,21.973,0
1553637270.441,-2.930,32.715,29.297,-89.355,61.035,0
1553637270.445,0.488,30.273,27.832,-84.961,67.871,0
1553637270.449,0.977,27.832,28.809,-92.285,50.781,0
1553637270.453,-3.906,27.832,28.320,-98.633,55.664,0
1553637270.457,3.906,28.809,29.297,-93.262,68.848,0
1553637270.461,6.836,26.367,33.691,-87.891,42.969,0
1553637270.465,-2.930,26.855,35.645,-83.984,-1.465,0
1553637270.469,-0.488,32.715,32.715,-82.031,-29.785,0
1553637270.472,7.324,35.645,30.273,-79.102,48.828,0
1553637270.476,4.395,30.762,30.273,-73.242,62.988,0
1553637270.480,1.465,22.461,31.738,-77.637,36.621,0
1553637270.484,5.371,21.484,30.762,-92.285,45.410,0
1553637270.488,0.977,22.949,25.879,-95.215,74.219,0
1553637270.492,-9.766,23.926,24.414,-91.309,55.664,0
1553637270.496,-4.883,25.879,22.949,-95.703,61.523,0
1553637270.500,-2.930,28.809,23.438,-99.121,86.914,0
1553637270.504,-4.395,31.738,22.461,-91.309,19.043,0
1553637270.508,0.000,29.297,25.391,-87.891,-41.016,0
1553637270.511,4.395,28.809,29.785,-93.750,28.809,0
1553637270.515,4.395,32.715,26.855,-93.262,98.145,0
1553637270.519,-1.465,28.809,24.902,-94.238,80.566,0
1553637270.523,-1.953,24.902,23.926,-96.191,84.473,0
1553637270.527,5.859,27.832,26.855,-90.332,62.988,0
1553637270.531,12.207,31.250,29.297,-83.496,-7.324,0
1553637270.535,14.160,33.203,27.832,-88.379,-28.320,0
1553637270.539,10.742,33.203,29.785,-85.449,-4.395,0
1553637270.543,9.766,32.715,34.668,-82.520,45.410,0
1553637270.547,7.812,34.180,30.762,-80.078,25.879,0
1553637270.551,6.348,30.762,31.738,-75.195,44.434,0
1553637270.554,3.906,29.297,34.180,-85.449,35.156,0
1553637270.558,4.395,30.273,30.762,-84.473,17.578,0
1553637270.562,4.883,27.344,35.645,-80.566,43.945,0
1553637270.566,0.977,27.832,36.621,-83.008,51.270,0
1553637270.570,3.418,31.738,29.785,-85.449,90.332,0
1553637270.574,3.418,34.668,25.879,-86.914,108.398,0
1553637270.578,-6.836,34.180,28.320,-92.773,78.125,0
1553637270.582,-6.348,25.391,33.691,-95.703,62.012,0
1553637270.586,1.953,22.949,39.062,-82.031,46.387,0
1553637270.590,-0.977,36.133,29.785,-91.797,30.273,0
1553637270.594,1.465,38.574,23.438,-98.145,60.059,0
1553637270.597,7.812,34.668,25.879,-91.797,94.238,0
1553637270.601,7.812,33.691,25.879,-91.309,33.691,0
1553637270.605,10.254,33.203,24.902,-90.332,56.152,0
1553637270.609,2.930,31.250,23.926,-86.914,67.871,0
1553637270.613,-9.277,30.762,21.973,-89.844,67.871,0
1553637270.617,-6.348,32.227,17.090,-99.121,82.031,0
1553637270.621,-1.953,33.691,19.043,-98.633,36.621,0
1553637270.625,-1.953,38.086,23.926,-88.867,11.719,0
1553637270.629,5.371,38.574,26.367,-85.938,37.109,0
1553637270.633,16.602,34.180,26.367,-85.449,70.801,0
1553637270.636,13.672,29.297,28.809,-85.449,37.598,0
1553637270.640,8.301,35.156,30.762,-88.379,31.738,0
1553637270.644,8.301,37.598,28.320,-84.473,69.336,0
1553637270.648,5.371,28.809,25.391,-83.984,20.996,0
1553637270.652,9.277,34.668,25.391,-85.449,17.090,0
1553637270.656,7.324,40.039,29.785,-84.473,57.617,0
1553637270.660,1.953,32.715,28.809,-92.773,3.418,0
1553637270.664,7.324,32.715,28.320,-98.145,-37.598,0
1553637270.668,10.742,40.527,32.715,-90.820,4.883,0
1553637270.672,7.812,41.992,30.273,-90.820,35.156,0
1553637270.676,2.441,34.180,26.855,-97.656,7.324,0
1553637270.679,-1.953,31.250,24.414,-101.562,-17.090,0
1553637270.683,-1.953,32.715,25.879,-104.004,2.930,0
1553637270.687,-2.930,31.250,28.809,-102.539,14.160,0
1553637270.691,-9.766,20.996,25.879,-99.121,-14.160,0
1553637270.695,-11.719,20.508,21.484,-102.539,-6.836,0
1553637270.699,-9.766,34.668,22.949,-109.375,11.230,0
1553637270.703,-7.812,36.133,28.809,-103.027,9.277,0
1553637270.707,-8.789,30.273,28.809,-107.422,-16.602,0
1553637270.711,-14.648,33.691,28.320,-109.863,-35.645,0
1553637270.715,-17.578,36.133,30.762,-100.098,26.367,0
1553637270.719,-14.648,31.250,29.785,-102.051,25.391,0
1553637270.722,-10.742,29.297,25.879,-104.980,-32.227,0
1553637270.726,-9.766,29.297,20.508,-107.422,57.617,0
1553637270.730,-5.859,29.785,19.531,-105.957,90.332,0
1553637270.734,-5.859,28.320,20.996,-105.469,33.691,0
1553637270.738,-11.230,24.902,20.020,-104.980,17.578,0
1553637270.742,-14.648,23.926,22.461,-103.516,26.367,0
1553637270.746,-11.230,33.203,23.926,-108.398,53.711,0
1553637270.750,-6.348,37.598,25.391,-106.445,76.172,0
1553637270.754,-11.719,35.156,25.391,-103.516,63.965,0
1553637270.758,-9.766,33.203,22.949,-101.562,1.953,0
1553637270.761,-6.348,30.273,25.391,-99.121,-38.574,0
1553637270.765,-8.789,29.297,26.367,-100.586,-22.461,0
1553637270.769,-7.812,30.762,24.902,-100.098,36.133,0
1553637270.773,-7.812,35.645,21.484,-97.656,58.105,0
1553637270.777,-6.836,36.621,16.602,-103.516,83.496,0
1553637270.781,-6.348,34.668,20.020,-103.516,86.426,0
1553637270.785,8.301,37.598,20.996,-89.355,36.621,0
1553637270.789,17.090,42.969,17.578,-81.543,2.930,0
1553637270.793,-11.230,35.156,24.902,-103.027,-14.160,0
1553637270.797,-22.949,27.344,29.297,-110.840,-5.371,0
1553637270.801,-0.977,28.809,27.344,-92.285,39.062,0
1553637270.804,-0.488,27.344,33.691,-86.426,92.285,0
1553637270.808,-5.371,31.738,36.621,-84.961,77.637,0
1553637270.812,-0.488,31.738,37.109,-86.914,48.828,0
1553637270.816,-5.371,27.344,34.668,-100.586,1.953,0
1553637270.820,-8.301,26.855,32.715,-107.910,65.430,0
1553637270.824,0.977,27.344,35.156,-101.562,64.453,0
1553637270.828,6.348,25.879,33.691,-104.004,6.836,0
1553637270.832,6.348,24.902,32.715,-103.027,21.484,0
1553637270.836,9.277,29.297,32.227,-96.191,3.906,0
1553637270.840,7.812,34.180,31.250,-96.680,12.207,0
1553637270.844,3.418,35.156,33.203,-92.285,58.594,0
1553637270.847,-9.766,29.785,35.156,-89.844,65.918,0
1553637270.851,-14.160,23.926,30.273,-82.031,52.734,0
1553637270.855,-11.719,19.531,28.320,-83.008,55.664,0
1553637270.859,-14.648,22.461,35.645,-93.750,72.266,0
1553637270.863,-16.113,25.391,36.133,-86.914,10.254,0
1553637270.867,-20.020,28.809,29.785,-88.379,-6.348,0
1553637270.871,-19.043,31.250,28.320,-98.633,38.086,0
1553637270.875,-13.672,32.227,29.785,-101.562,-12.207,0
1553637270.879,-16.113,36.133,30.762,-101.562,-17.090,0
1553637270.883,-15.625,29.297,29.297,-103.027,-24.414,0
1553637270.886,-9.277,26.367,22.949,-104.004,19.043,0
1553637270.890,0.000,34.180,19.531,-93.750,40.527,0
1553637270.894,-16.602,27.344,26.367,-102.051,25.391,0
1553637270.898,-33.691,20.508,36.621,-116.211,75.195,0
1553637270.902,-25.879,19.043,42.969,-104.492,98.145,0
1553637270.906,-20.508,15.137,44.922,-93.750,21.484,0
1553637270.910,-13.672,14.160,44.922,-88.867,15.625,0
1553637270.914,-14.160,11.230,45.410,-87.891,41.504,0
1553637270.918,-16.602,12.695,44.922,-92.285,35.645,0
1553637270.922,-11.719,14.648,41.504,-90.820,18.555,0
1553637270.926,-6.348,16.602,38.574,-91.797,-0.977,0
1553637270.929,-5.859,19.043,37.109,-97.656,51.758,0
1553637270.933,-10.742,19.531,34.668,-99.121,39.062,0
1553637270.937,-10.742,23.438,35.156,-101.074,17.090,0
1553637270.941,-9.766,25.391,39.551,-100.098,48.828,0
1553637270.945,-7.812,25.879,41.504,-97.656,17.578,0
1553637270.949,-8.301,26.367,32.715,-96.680,-10.742,0
1553637270.953,-11.230,24.414,28.320,-99.121,27.832,0
1553637270.957,-8.789,25.391,33.203,-98.145,40.039,0
1553637270.961,-8.789,26.855,35.156,-101.562,6.836,0
1553637270.965,-11.719,26.367,31.738,-102.539,-23.438,0
1553637270.969,-9.277,20.020,25.879,-100.098,-0.488,0
1553637270.972,-13.672,9.766,26.367,-99.121,19.531,0
1553637270.976,-12.695,21.484,25.391,-99.609,49.805,0
1553637270.980,-4.883,27.832,29.297,-92.285,94.238,0
1553637270.984,0.977,22.461,36.133,-84.473,39.551,0
1553637270.988,0.977,24.414,33.691,-89.844,15.137,0
1553637270.992,0.488,24.902,30.273,-89.355,61.035,0
1553637270.996,3.906,24.902,29.785,-89.844,85.449,0
1553637271.000,7.812,30.762,33.691,-85.938,48.340,0
1553637271.004,14.648,28.809,36.621,-75.195,9.766,0
1553637271.008,12.695,26.367,35.645,-73.730,-47.852,0
1553637271.011,0.977,26.855,35.645,-76.660,-34.668,0
1553637271.015,-2.441,24.414,34.180,-76.172,-0.977,0
1553637271.019,2.441,25.879,31.738,-74.707,7.324,0
1553637271.023,2.930,27.344,33.203,-73.730,45.898,0
1553637271.027,4.883,25.879,34.668,-73.242,35.156,0
1553637271.031,-0.488,25.391,34.668,-71.777,44.434,0
1553637271.035,-0.977,32.227,38.086,-72.266,26.855,0
1553637271.039,1.465,36.133,40.039,-77.637,65.430,0
1553637271.043,-0.488,29.785,34.668,-76.660,53.223,0
1553637271.047,2.441,25.879,32.227,-73.730,-16.602,0
1553637271.051,9.277,25.391,36.621,-75.195,83.008,0
1553637271.054,13.184,26.367,37.598,-75.195,96.680,0
1553637271.058,9.766,27.832,30.762,-76.172,25.879,0
1553637271.062,6.348,29.785,26.367,-80.566,7.324,0
1553637271.066,9.277,23.438,35.156,-74.707,50.781,0
1553637271.070,14.648,9.277,40.039,-62.988,75.684,0
1553637271.074,15.137,25.391,28.320,-64.941,56.641,0
1553637271.078,-0.488,38.086,21.484,-83.496,84.961,0
1553637271.082,-1.953,32.227,25.391,-84.961,43.457,0
1553637271.086,6.348,32.227,25.391,-75.684,20.996,0
1553637271.090,4.883,31.738,22.949,-76.660,49.805,0
1553637271.094,9.277,37.109,19.043,-80.078,27.832,0
1553637271.097,7.812,42.480,13.672,-83.984,39.551,0
1553637271.101,2.441,41.504,12.207,-86.426,50.293,0
1553637271.105,-0.977,40.039,16.113,-87.891,53.223,0
1553637271.109,0.977,39.062,18.555,-83.984,56.641,0
1553637271.113,6.348,39.551,17.090,-77.637,27.344,0
1553637271.117,3.418,34.180,18.066,-82.031,51.270,0
1553637271.121,2.930,33.203,16.602,-83.496,28.320,0
1553637271.125,7.324,36.133,14.160,-81.055,-34.668,0
1553637271.129,6.836,36.133,18.555,-77.148,0.488,0
1553637271.133,5.371,37.109,20.508,-76.660,18.066,0
1553637271.136,5.371,34.668,16.113,-72.754,-30.762,0
1553637271.140,13.184,36.133,19.043,-66.895,-32.715,0
1553637271.144,14.160,35.156,21.973,-74.707,17.578,0
1553637271.148,7.324,32.227,23.438,-76.660,19.531,0
1553637271.152,4.883,32.715,23.926,-74.219,39.551,0
1553637271.156,0.488,33.691,23.926,-73.242,54.688,0
1553637271.160,-3.418,34.668,26.367,-76.660,40.527,0
1553637271.164,-3.418,32.227,28.809,-75.195,19.043,0
1553637271.168,-2.930,32.227,26.855,-73.242,0.000,0
1553637271.172,-1.953,34.668,24.902,-75.684,44.922,0
1553637271.176,0.977,32.715,27.832,-71.289,24.414,0
1553637271.179,2.441,31.738,30.273,-70.312,36.133,0
1553637271.183,2.441,31.250,29.785,-71.289,47.852,0
1553637271.187,2.441,33.691,21.973,-75.684,43.945,0
1553637271.191,-6.836,31.738,17.090,-84.473,31.738,0
1553637271.195,-6.348,29.297,22.949,-84.473,-12.207,0
1553637271.199,-4.395,34.668,25.391,-82.520,-5.371,0
1553637271.203,-4.883,31.250,25.391,-86.426,21.973,0
1553637271.207,-3.906,30.273,26.367,-92.773,36.621,0
1553637271.211,-6.836,34.180,23.926,-96.680,17.578,0
1553637271.215,-5.371,28.809,28.320,-91.309,9.766,0
1553637271.219,-4.883,28.809,26.367,-91.309,41.992,0
1553637271.222,-2.930,32.227,21.973,-88.867,42.969,0
1553637271.226,0.000,27.832,25.391,-85.938,29.785,0
1553637271.230,-3.906,29.297,29.785,-85.938,57.617,0
1553637271.234,-8.301,33.691,33.691,-83.008,101.562,0
1553637271.238,-6.348,32.227,31.250,-81.055,39.062,0
1553637271.242,-4.395,30.762,24.414,-83.496,14.648,0
1553637271.246,-6.836,28.809,27.832,-81.055,27.832,0
1553637271.250,-3.418,34.180,28.320,-77.148,21.973,0
1553637271.254,0.000,36.621,28.320,-77.637,5.371,0
1553637271.258,-4.395,34.668,30.273,-74.219,52.246,0
1553637271.261,-2.930,35.645,30.762,-80.566,51.270,0
1553637271.265,0.000,33.691,34.180,-84.473,28.320,0
1553637271.269,1.465,33.691,36.133,-77.148,100.586,0
1553637271.273,6.348,33.203,37.109,-75.684,23.926,0
1553637271.277,5.859,33.691,36.621,-81.055,6.836,0
1553637271.281,-0.977,32.227,36.621,-76.660,48.340,0
1553637271.285,4.883,31.738,32.227,-78.125,41.504,0
1553637271.289,8.301,31.250,27.832,-86.914,67.383,0
1553637271.293,2.441,31.250,28.809,-87.402,41.504,0
1553637271.297,4.883,32.227,27.344,-82.520,0.977,0
1553637271.301,4.883,32.715,25.391,-83.008,0.488,0
1553637271.304,0.000,33.203,26.855,-91.797,14.160,0
1553637271.308,1.953,35.645,26.855,-90.332,41.504,0
1553637271.312,2.441,32.227,24.414,-90.820,49.805,0
1553637271.316,-1.465,27.344,20.996,-88.867,39.062,0
1553637271.320,2.441,28.809,24.902,-86.914,35.156,0
1553637271.324,7.812,35.156,25.879,-89.355,34.180,0
1553637271.328,7.324,41.016,25.879,-86.426,89.844,0
1553637271.332,-1.465,41.992,28.809,-86.426,59.082,0
1553637271.336,6.836,51.270,23.926,-86.426,92.773,0
1553637271.340,26.855,62.012,20.996,-72.754,117.188,0
1553637271.344,10.254,44.434,32.715,-75.684,74.707,0
1553637271.347,-14.648,27.344,38.086,-92.285,69.336,0
1553637271.351,-18.066,29.297,36.621,-96.191,66.895,0
1553637271.355,-18.066,29.785,39.551,-91.797,57.617,0
1553637271.359,-13.184,27.344,43.945,-86.426,24.902,0
1553637271.363,-13.672,20.996,49.316,-89.844,20.996,0
1553637271.367,-13.672,20.508,48.340,-97.168,46.387,0
1553637271.371,-11.719,24.902,43.457,-99.121,20.020,0
1553637271.375,-14.648,25.391,44.922,-90.820,-8.789,0
1553637271.379,-14.648,20.996,51.758,-86.426,15.137,0
1553637271.383,-13.184,21.484,47.852,-98.633,14.648,0
1553637271.386,-14.648,23.438,46.875,-104.980,35.645,0
1553637271.390,-10.742,26.855,49.316,-101.562,12.207,0
1553637271.394,-9.766,25.879,45.410,-99.609,3.418,0
1553637271.398,-14.648,22.461,45.410,-97.656,51.758,0
1553637271.402,-12.207,25.879,45.410,-98.145,71.777,0
1553637271.406,-9.766,26.855,42.969,-96.191,36.133,0
1553637271.410,-7.324,22.949,40.039,-97.168,24.902,0
1553637271.414,-7.812,23.438,35.645,-97.168,80.078,0
1553637271.418,-13.184,29.785,38.086,-93.750,40.527,0
1553637271.422,-13.184,29.785,40.039,-95.215,16.602,0
1553637271.426,-13.184,28.809,37.598,-101.074,90.820,0
1553637271.429,-12.695,30.273,36.621,-97.656,65.918,0
1553637271.433,-4.883,31.250,33.691,-86.914,13.672,0
1553637271.437,-9.277,35.645,32.715,-90.332,-6.348,0
1553637271.441,-15.625,31.250,38.574,-95.215,-36.133,0
1553637271.445,-11.719,26.367,40.527,-92.773,20.508,0
1553637271.449,-10.254,24.902,35.156,-98.145,4.395,0
1553637271.453,-11.719,29.297,31.250,-105.469,6.836,0
1553637271.457,-12.207,28.809,32.227,-109.375,1.953,0
1553637271.461,-14.160,28.320,33.203,-106.445,11.719,0
1553637271.465,-9.277,29.297,26.855,-101.074,61.035,0
1553637271.469,-5.859,26.855,23.926,-96.680,53.223,0
1553637271.472,-12.695,28.809,24.902,-107.910,82.031,0
1553637271.476,-9.766,29.297,29.297,-104.004,81.543,0
1553637271.480,-12.695,29.785,32.715,-94.238,79.102,0
1553637271.484,-13.184,28.809,37.598,-98.145,69.336,0
1553637271.488,-11.230,28.809,35.156,-99.609,36.621,0
1553637271.492,-14.648,28.809,31.738,-96.680,5.371,0
1553637271.496,-15.625,29.785,36.133,-95.215,26.367,0
1553637271.500,-12.207,28.809,36.621,-100.098,62.012,0
1553637271.504,-11.719,22.461,38.574,-105.469,72.266,0
1553637271.508,-14.160,24.414,38.086,-103.516,75.684,0
1553637271.511,-10.254,30.273,33.691,-94.727,61.035,0
1553637271.515,-6.836,26.367,33.691,-96.680,64.941,0
1553637271.519,-11.230,29.297,31.250,-95.215,40.527,0
1553637271.523,-13.184,32.227,33.203,-90.332,62.500,0
1553637271.527,-13.184,27.832,38.086,-90.820,28.809,0
1553637271.531,-15.137,29.785,34.180,-91.309,35.156,0
1553637271.535,-16.602,26.855,32.227,-92.773,52.734,0
1553637271.539,-12.207,22.461,31.738,-97.656,20.020,0
1553637271.543,-6.348,32.227,31.250,-91.797,25.879,0
1553637271.547,-9.277,37.598,31.250,-90.332,39.062,0
1553637271.551,-10.254,31.738,29.785,-98.145,55.664,0
1553637271.554,-12.695,28.809,29.785,-96.191,-1.465,0
1553637271.558,-13.672,27.832,24.902,-102.051,3.906,0
1553637271.562,-10.254,32.715,20.508,-108.398,49.316,0
1553637271.566,-11.719,33.203,22.949,-108.887,11.719,0
1553637271.570,-13.672,28.320,31.738,-105.469,65.430,0
1553637271.574,-8.789,31.250,30.762,-102.539,38.574,0
1553637271.578,-7.324,29.297,31.250,-115.234,-13.672,0
1553637271.582,-8.301,31.738,35.156,-118.164,-38.086,0
1553637271.586,6.836,37.598,26.367,-101.074,6.348,0
1553637271.590,14.160,30.273,33.203,-98.145,64.941,0
1553637271.594,-0.488,23.438,45.410,-108.398,30.273,0
1553637271.597,-4.883,23.438,46.875,-102.539,49.316,0
1553637271.601,-5.859,17.090,48.828,-93.262,32.715,0
1553637271.605,-15.137,10.254,45.898,-83.008,45.898,0
1553637271.609,-27.832,5.859,47.852,-86.426,67.383,0
1553637271.613,-33.691,0.488,65.918,-97.656,45.410,0
1553637271.617,-39.062,-2.930,64.941,-110.352,44.922,0
1553637271.621,-43.457,3.418,61.035,-104.492,46.875,0
1553637271.625,-35.645,8.789,71.777,-92.773,-11.230,0
1553637271.629,-31.738,4.395,80.078,-85.938,-4.395,0
1553637271.633,-48.340,0.000,79.590,-98.145,26.855,0
1553637271.636,-55.664,-11.230,94.727,-103.027,-17.578,0
1553637271.640,-55.664,-22.461,108.887,-101.562,7.812,0
1553637271.644,-48.828,-23.926,108.398,-97.168,33.691,0
1553637271.648,-34.668,-19.043,106.934,-85.938,73.242,0
1553637271.652,-31.250,-13.672,106.445,-85.938,82.031,0
1553637271.656,-19.531,-12.695,103.516,-77.148,25.879,0
1553637271.660,-13.184,-5.859,99.121,-68.359,38.086,0
1553637271.664,-9.766,-6.836,100.586,-71.777,86.426,0
1553637271.668,-6.348,-11.719,93.262,-75.684,46.387,0
1553637271.672,-5.371,-9.277,96.680,-58.105,8.789,0
1553637271.676,-1.953,-8.301,113.281,-46.387,-36.621,0
1553637271.679,0.000,-7.812,116.211,-57.129,-7.324,0
1553637271.683,5.859,-7.812,113.281,-55.176,45.410,0
1553637271.687,8.789,-6.348,110.840,-46.875,18.066,0
1553637271.691,5.859,-9.277,107.910,-55.176,60.059,0
1553637271.695,9.277,-8.301,111.328,-54.199,95.215,0
1553637271.699,6.836,-4.883,106.445,-53.711,69.336,0
1553637271.703,0.977,-7.812,96.680,-55.176,68.359,0
1553637271.707,5.371,-3.906,103.027,-56.152,20.508,0
1553637271.711,3.906,-2.930,106.934,-63.965,-8.301,0
1553637271.715,5.371,-5.371,108.398,-59.082,50.293,0
1553637271.719,8.301,-3.418,104.980,-51.270,56.152,0
1553637271.722,2.930,-3.906,94.238,-60.059,1.465,0
1553637271.726,1.953,-2.441,88.867,-64.941,14.160,0
1553637271.730,6.348,-0.488,83.496,-59.570,42.480,0
1553637271.734,8.301,1.953,77.148,-63.965,49.316,0
1553637271.738,10.254,3.906,77.637,-62.988,80.078,0
1553637271.742,12.695,3.906,76.172,-61.523,62.012,0
1553637271.746,17.578,8.789,73.730,-61.523,24.902,0
1553637271.750,19.531,12.207,73.242,-55.176,-8.301,0
1553637271.754,25.391,12.695,67.871,-55.176,-1.953,0
1553637271.758,35.645,18.066,68.359,-50.293,58.594,0
1553637271.761,37.598,22.461,71.289,-44.922,28.320,0
1553637271.765,32.227,19.531,66.406,-46.387,41.016,0
1553637271.769,36.621,20.508,66.406,-46.875,64.453,0
1553637271.773,34.180,18.066,69.824,-52.246,28.809,0
1553637271.777,27.832,14.648,66.895,-56.641,34.668,0
1553637271.781,32.227,20.508,62.500,-53.711,47.363,0
1553637271.785,31.250,25.391,53.711,-56.641,13.184,0
1553637271.789,31.738,26.367,43.457,-66.895,-20.508,0
1553637271.793,38.574,26.855,49.805,-69.824,33.203,0
1553637271.797,37.598,26.855,61.035,-55.664,26.367,0
1553637271.801,40.039,26.855,63.477,-43.945,6.348,0
1553637271.804,40.527,24.414,60.547,-53.223,16.113,0
1553637271.808,35.156,23.926,56.152,-55.664,40.527,0
1553637271.812,23.438,21.484,47.363,-59.082,78.125,0
1553637271.816,23.926,19.043,42.969,-53.711,33.203,0
1553637271.820,32.715,22.949,49.805,-49.316,20.996,0
1553637271.824,30.273,23.438,55.176,-55.176,40.527,0
1553637271.828,27.832,22.949,48.340,-56.641,25.391,0
1553637271.832,25.391,25.391,45.410,-58.105,32.715,0
1553637271.836,25.879,26.367,50.781,-62.012,52.246,0
1553637271.840,26.367,22.949,51.270,-62.500,97.168,0
1553637271.844,25.879,22.949,44.922,-61.523,105.957,0
1553637271.847,28.320,25.391,33.203,-58.594,66.406,0
1553637271.851,30.273,27.832,29.297,-48.828,65.430,0
1553637271.855,30.762,30.273,38.086,-50.293,9.766,0
1553637271.859,27.832,25.879,49.316,-57.129,-44.922,0
1553637271.863,21.484,22.949,48.828,-65.430,-15.137,0
1553637271.867,20.020,27.344,41.504,-74.219,1.953,0
1553637271.871,15.137,26.855,40.039,-81.055,-21.973,0
1553637271.875,10.742,25.879,40.039,-84.961,16.602,0
1553637271.879,16.602,24.902,37.598,-82.520,42.480,0
1553637271.883,22.949,25.879,37.109,-74.219,42.480,0
1553637271.886,28.320,34.668,33.203,-65.430,33.691,0
1553637271.890,27.832,36.133,30.273,-68.848,34.668,0
1553637271.894,23.438,30.273,32.715,-74.219,44.922,0
1553637271.898,24.902,29.785,33.691,-75.195,45.410,0
1553637271.902,25.391,28.320,37.598,-71.289,57.617,0
1553637271.906,23.438,24.902,40.527,-69.824,78.125,0
1553637271.910,26.855,27.832,39.062,-63.477,63.477,0
1553637271.914,32.227,30.273,43.457,-56.152,20.996,0
1553637271.918,27.832,26.855,41.016,-63.965,45.410,0
1553637271.922,22.949,31.250,32.715,-62.500,29.785,0
1553637271.926,27.344,31.738,29.785,-64.941,-47.852,0
1553637271.929,21.973,28.320,27.832,-62.988,-16.602,0
1553637271.933,17.090,28.320,29.297,-61.035,63.965,0
1553637271.937,18.555,30.273,31.738,-66.895,87.891,0
1553637271.941,19.531,32.227,39.551,-69.336,66.895,0
1553637271.945,22.949,29.785,29.297,-68.359,46.875,0
1553637271.949,21.484,24.902,24.902,-69.824,43.457,0
1553637271.953,16.113,28.809,41.016,-79.590,51.758,0
1553637271.957,14.648,28.809,46.387,-79.590,57.129,0
1553637271.961,13.184,27.344,49.805,-82.031,-5.371,0
1553637271.965,14.160,32.227,45.898,-89.844,-27.344,0
1553637271.969,11.719,29.785,27.832,-90.820,32.715,0
1553637271.972,6.836,22.461,23.438,-88.867,40.039,0
1553637271.976,7.324,22.461,31.250,-91.309,21.484,0
1553637271.980,1.953,25.879,36.621,-86.914,0.000,0
1553637271.984,0.000,21.973,44.434,-86.914,-18.066,0
1553637271.988,0.488,23.438,43.457,-89.844,21.973,0
1553637271.992,-2.930,23.438,32.227,-87.402,105.957,0
1553637271.996,0.000,20.996,27.344,-86.426,60.547,0
1553637272.000,-0.488,23.438,31.738,-84.473,-10.254,0
1553637272.004,-6.348,26.367,33.691,-81.055,48.828,0
1553637272.008,-6.348,26.367,34.180,-79.102,23.438,0
1553637272.011,-5.859,25.391,30.762,-84.961,5.859,0
1553637272.015,-4.883,23.926,19.043,-86.914,29.785,0
1553637272.019,-6.348,24.414,24.414,-86.914,35.645,0
1553637272.023,-5.859,25.879,39.551,-90.820,79.102,0
1553637272.027,-2.441,26.367,41.504,-89.844,58.594,0
1553637272.031,-3.418,25.879,36.133,-87.402,40.039,0
1553637272.035,-4.395,24.902,34.668,-86.426,61.523,0
1553637272.039,-5.859,27.832,33.203,-89.355,26.367,0
1553637272.043,-8.301,26.855,32.715,-86.914,44.922,0
1553637272.047,-5.371,27.832,35.645,-80.566,31.738,0
1553637272.051,-6.836,30.762,36.621,-81.543,3.418,0
1553637272.054,-2.441,35.156,39.551,-75.684,44.434,0
1553637272.058,5.859,39.551,36.133,-70.801,42.969,0
1553637272.062,2.441,35.156,22.949,-73.730,33.203,0
1553637272.066,-1.465,32.227,22.461,-78.125,-27.344,0
1553637272.070,-0.977,33.203,34.668,-96.191,-45.898,0
1553637272.074,4.883,34.180,39.551,-90.820,56.152,0
1553637272.078,11.230,37.598,36.133,-78.125,22.461,0
1553637272.082,5.371,37.109,31.738,-89.355,-7.812,0
1553637272.086,-1.465,31.250,25.879,-89.355,36.133,0
1553637272.090,1.465,18.066,25.391,-79.102,41.016,0
1553637272.094,22.949,8.789,36.133,-57.129,38.574,0
1553637272.097,37.109,29.785,33.203,-54.688,8.789,0
1553637272.101,24.414,50.293,15.625,-81.543,-8.301,0
1553637272.105,8.301,42.969,11.230,-100.098,16.602,0
1553637272.109,4.883,39.551,2.930,-106.934,41.504,0
1553637272.113,3.418,42.480,-6.836,-111.328,34.180,0
1553637272.117,-8.301,46.387,-9.277,-122.559,6.348,0
1553637272.121,-10.254,50.781,-13.672,-122.559,44.922,0
1553637272.125,-13.184,52.246,-22.461,-130.371,121.094,0
1553637272.129,-21.973,51.270,-32.227,-142.578,84.473,0
1553637272.133,-17.578,55.664,-41.504,-149.902,62.012,0
1553637272.136,-13.184,58.594,-49.805,-149.902,83.984,0
1553637272.140,-12.207,59.082,-54.199,-143.066,78.613,0
1553637272.144,-6.348,65.918,-58.105,-146.484,59.570,0
1553637272.148,-6.348,66.895,-54.688,-148.926,35.645,0
1553637272.152,-9.766,69.336,-54.199,-152.832,-2.441,0
1553637272.156,1.465,73.242,-59.570,-143.066,0.977,0
1553637272.160,9.277,71.777,-59.082,-138.672,37.598,0
1553637272.164,8.301,75.195,-59.570,-144.043,6.836,0
1553637272.168,14.160,81.055,-61.035,-135.254,-42.480,0
1553637272.172,20.508,83.008,-64.453,-129.395,-19.531,0
1553637272.176,33.691,81.055,-66.406,-126.953,20.508,0
1553637272.179,37.109,78.125,-61.035,-115.234,46.875,0
1553637272.183,32.227,70.801,-53.711,-104.004,27.344,0
1553637272.187,36.621,68.359,-51.758,-101.074,44.922,0
1553637272.191,41.016,68.848,-51.270,-98.633,52.734,0
1553637272.195,39.551,71.777,-45.410,-104.980,55.176,0
1553637272.199,34.180,74.219,-42.480,-111.816,77.637,0
1553637272.203,31.250,70.312,-37.598,-109.375,60.547,0
1553637272.207,24.414,69.336,-34.180,-111.816,62.012,0
1553637272.211,19.043,62.012,-28.320,-110.352,23.926,0
1553637272.215,15.137,56.152,-28.320,-110.352,-7.324,0
1553637272.219,13.672,54.199,-31.738,-114.746,36.621,0
1553637272.222,19.043,55.664,-23.438,-110.840,18.555,0
1553637272.226,19.043,56.641,-18.066,-100.586,23.438,0
1553637272.230,16.113,55.176,-15.137,-102.539,26.855,0
1553637272.234,16.113,55.176,-9.277,-97.168,-17.090,0
1553637272.238,13.184,52.246,-6.836,-93.750,20.508,0
1553637272.242,13.184,49.805,-7.324,-96.680,18.555,0
1553637272.246,18.555,52.246,-1.465,-91.309,3.906,0
1553637272.250,18.555,54.688,2.441,-94.238,41.992,0
1553637272.254,19.531,55.664,4.395,-94.727,36.133,0
1553637272.258,24.414,56.152,4.883,-87.891,3.906,0
1553637272.261,19.531,51.758,4.395,-87.402,39.551,0
1553637272.265,18.555,49.805,10.742,-87.891,95.215,0
1553637272.269,22.461,48.340,11.230,-83.496,83.984,0
1553637272.273,20.508,47.363,4.395,-82.520,56.152,0
1553637272.277,19.531,46.875,2.441,-81.543,96.680,0
1553637272.281,19.531,42.969,5.859,-75.684,63.477,0
1553637272.285,12.207,42.480,3.418,-82.031,0.977,0
1553637272.289,13.184,48.340,2.930,-83.008,29.297,0
1553637272.293,15.625,52.734,11.719,-78.125,19.043,0
1553637272.297,14.648,50.781,17.578,-86.426,-23.438,0
1553637272.301,7.324,42.969,18.555,-91.309,-7.324,0
1553637272.304,3.418,38.574,17.578,-89.844,7.812,0
1553637272.308,10.742,39.551,14.160,-91.309,-25.391,0
1553637272.312,9.277,44.922,11.719,-91.309,28.320,0
1553637272.316,1.953,41.016,14.648,-91.309,58.105,0
1553637272.320,1.953,34.668,19.531,-87.402,27.344,0
1553637272.324,3.418,35.645,20.996,-86.426,61.035,0
1553637272.328,1.465,37.109,15.137,-88.867,41.992,0
1553637272.332,-1.465,38.086,5.859,-93.262,38.086,0
1553637272.336,2.441,35.645,8.301,-90.332,98.145,0
1553637272.340,9.277,33.691,17.578,-91.309,67.871,0
1553637272.344,8.301,34.180,25.879,-96.191,0.488,0
1553637272.347,11.230,32.227,33.691,-91.797,19.531,0
1553637272.351,19.531,31.738,36.133,-83.008,119.629,0
1553637272.355,12.695,41.504,26.855,-98.145,83.496,0
1553637272.359,9.766,43.945,18.555,-104.004,20.996,0
1553637272.363,23.926,42.969,22.949,-86.426,34.180,0
1553637272.367,21.973,44.434,12.207,-78.613,20.020,0
1553637272.371,17.090,41.992,6.836,-75.684,-27.832,0
1553637272.375,8.789,41.992,21.973,-78.125,-39.551,0
1553637272.379,-3.906,39.062,29.297,-79.590,3.418,0
1553637272.383,-9.766,36.621,30.273,-80.566,62.988,0
1553637272.386,-7.324,38.086,25.391,-84.961,62.500,0
1553637272.390,-5.859,37.109,25.879,-83.008,54.199,0
1553637272.394,-8.789,32.715,24.902,-88.379,7.324,0
1553637272.398,-7.324,32.227,24.902,-83.496,-11.719,0
1553637272.402,-2.930,32.227,25.879,-87.891,29.785,0
1553637272.406,-3.418,34.180,23.438,-95.703,19.531,0
1553637272.410,0.488,34.668,21.484,-90.332,23.438,0
1553637272.414,7.324,37.109,20.996,-90.332,23.926,0
1553637272.418,3.418,40.039,21.973,-88.379,13.184,0
1553637272.422,1.465,35.156,20.508,-85.938,27.832,0
1553637272.426,6.348,32.715,21.484,-84.473,-17.090,0
1553637272.429,10.742,33.203,20.508,-83.496,-10.254,0
1553637272.433,9.277,31.250,19.531,-84.961,82.031,0
1553637272.437,3.418,35.156,17.578,-89.355,86.914,0
1553637272.441,6.836,36.133,15.137,-92.773,34.668,0
1553637272.445,14.160,34.668,21.973,-88.867,37.109,0
1553637272.449,4.883,37.109,24.414,-95.215,62.988,0
1553637272.453,-4.395,33.691,20.996,-97.168,108.887,0
1553637272.457,1.953,32.715,27.832,-87.891,58.105,0
1553637272.461,3.906,37.598,29.785,-91.797,40.039,0
1553637272.465,-1.953,30.762,27.832,-97.168,63.965,0
1553637272.469,-6.348,27.832,22.949,-109.863,72.754,0
1553637272.472,-6.836,30.762,18.066,-110.352,63.965,0
1553637272.476,-2.930,35.156,17.578,-93.262,20.996,0
1553637272.480,2.441,37.598,14.160,-92.285,18.555,0
1553637272.484,0.977,34.180,18.066,-101.562,34.180,0
1553637272.488,3.418,36.621,23.438,-103.027,87.891,0
1553637272.492,8.301,40.527,22.949,-102.051,64.941,0
1553637272.496,8.301,42.480,17.578,-102.539,-11.719,0
1553637272.500,28.320,47.852,4.883,-82.520,16.602,0
1553637272.504,38.086,42.480,18.066,-66.895,35.645,0
1553637272.508,11.719,34.180,43.945,-76.172,73.730,0
1553637272.511,-9.277,33.691,48.340,-91.309,46.387,0
1553637272.515,-16.602,30.762,47.852,-97.656,70.801,0
1553637272.519,-23.438,24.414,44.434,-104.004,115.234,0
1553637272.523,-24.414,21.484,43.945,-97.168,72.754,0
1553637272.527,-30.273,18.555,55.664,-90.332,14.160,0
1553637272.531,-40.527,13.672,64.941,-97.656,-7.324,0
1553637272.535,-42.969,9.277,72.754,-105.957,16.113,0
1553637272.539,-40.039,3.418,84.961,-105.957,28.320,0
1553637272.543,-39.551,-2.441,95.215,-103.027,68.848,0
1553637272.547,-42.480,-5.859,90.820,-102.539,133.789,0
1553637272.551,-41.016,-5.371,87.402,-85.938,104.492,0
1553637272.554,-41.504,-6.348,89.844,-94.727,70.312,0
1553637272.558,-37.109,-7.812,87.891,-91.309,36.621,0
1553637272.562,-36.621,-8.301,87.402,-89.844,-11.230,0
1553637272.566,-33.691,-6.348,84.961,-93.262,-8.301,0
1553637272.570,-26.367,-6.348,93.750,-76.172,17.578,0
1553637272.574,-25.879,-9.277,105.469,-74.707,48.340,0
1553637272.578,-16.602,-8.301,113.770,-60.547,50.781,0
1553637272.582,-17.090,-9.277,114.746,-54.688,51.758,0
1553637272.586,-15.625,-7.812,111.816,-57.129,21.973,0
1553637272.590,-17.578,-4.395,112.305,-53.711,25.391,0
1553637272.594,-20.020,-7.812,112.793,-51.758,73.242,0
1553637272.597,-13.184,-8.789,116.211,-45.410,48.828,0
1553637272.601,-14.160,-6.348,115.234,-50.781,23.926,0
1553637272.605,-10.742,-5.371,107.422,-52.734,15.137,0
1553637272.609,-3.906,-5.371,99.609,-38.574,26.367,0
1553637272.613,-2.441,-2.930,106.445,-34.668,-2.930,0
1553637272.617,-3.906,0.000,105.469,-45.898,19.043,0
1553637272.621,-7.812,2.930,93.262,-49.316,143.555,0
1553637272.625,-6.836,4.395,79.102,-59.570,80.566,0
1553637272.629,-3.418,4.395,70.801,-63.477,10.254,0
1553637272.633,-5.859,6.836,72.754,-58.594,63.965,0
1553637272.636,-5.859,10.742,77.637,-55.176,14.160,0
1553637272.640,-1.953,14.648,80.078,-53.223,20.996,0
1553637272.644,1.953,15.137,76.660,-55.664,66.406,0
1553637272.648,-1.953,15.137,67.871,-55.664,62.988,0
1553637272.652,-0.488,16.602,65.918,-47.363,62.012,0
1553637272.656,6.836,20.020,61.523,-41.504,43.457,0
1553637272.660,7.324,19.531,52.734,-47.363,31.738,0
1553637272.664,6.348,18.555,60.059,-50.781,51.758,0
1553637272.668,5.371,17.090,65.918,-48.340,-4.883,0
1553637272.672,4.395,18.555,58.105,-52.734,-9.766,0
1553637272.676,3.418,17.578,54.199,-49.805,17.578,0
1553637272.679,4.395,14.648,58.594,-39.551,16.602,0
1553637272.683,3.418,15.137,52.734,-45.898,30.273,0
1553637272.687,1.953,14.160,53.711,-54.199,10.742,0
1553637272.691,4.395,13.672,59.082,-50.293,0.000,0
1553637272.695,8.789,19.043,54.199,-54.199,9.766,0
1553637272.699,7.324,19.531,55.664,-60.059,43.945,0
1553637272.703,8.301,19.531,55.664,-58.105,22.461,0
1553637272.707,8.301,26.367,56.641,-58.594,-3.418,0
1553637272.711,2.930,25.879,53.223,-57.617,-2.930,0
1553637272.715,0.977,21.484,47.363,-64.453,-22.461,0
1553637272.719,3.418,21.484,45.898,-68.359,39.062,0
1553637272.722,-0.977,21.484,40.039,-66.406,69.336,0
1553637272.726,-3.906,18.555,34.668,-66.895,52.246,0
1553637272.730,-3.418,21.484,38.574,-73.242,13.672,0
1553637272.734,-2.930,25.391,42.480,-73.242,-6.836,0
1553637272.738,-2.441,24.414,39.551,-69.336,34.180,0
1553637272.742,-6.836,21.484,40.527,-72.266,35.156,0
1553637272.746,-7.324,16.113,45.410,-72.266,-0.488,0
1553637272.750,-7.812,15.625,41.504,-78.613,13.672,0
1553637272.754,-3.418,21.973,41.504,-73.730,21.484,0
1553637272.758,4.883,26.367,44.922,-65.430,25.879,0
1553637272.761,0.977,23.926,39.551,-78.613,14.648,0
1553637272.765,0.977,20.996,39.062,-83.008,39.551,0
1553637272.769,2.441,20.508,37.109,-75.195,58.594,0
1553637272.773,5.859,25.391,35.645,-75.195,45.898,0
1553637272.777,6.348,33.203,43.945,-79.590,70.312,0
1553637272.781,0.000,34.668,41.504,-85.449,52.734,0
1553637272.785,-4.883,32.227,40.039,-84.473,93.750,0
1553637272.789,-1.465,29.785,43.457,-84.473,69.336,0
1553637272.793,0.000,27.832,39.551,-89.355,9.277,0
1553637272.797,-2.441,34.668,37.598,-90.820,23.438,0
1553637272.801,2.930,35.156,33.691,-84.961,-10.254,0
1553637272.804,4.883,32.227,30.762,-84.961,1.465,0
1553637272.808,2.930,36.133,31.250,-86.426,22.949,0
1553637272.812,-3.906,31.250,25.879,-86.914,-15.137,0
1553637272.816,-13.184,26.855,29.785,-98.145,-25.391,0
1553637272.820,-11.719,30.273,32.715,-101.562,-7.324,0
1553637272.824,-4.395,26.855,30.273,-98.145,23.926,0
1553637272.828,-7.324,24.902,30.273,-97.168,33.691,0
1553637272.832,-3.906,27.344,28.809,-96.191,21.484,0
1553637272.836,-4.395,25.879,33.691,-91.309,42.969,0
1553637272.840,-7.812,25.879,35.645,-89.355,78.125,0
1553637272.844,-6.348,27.832,35.645,-82.031,65.430,0
1553637272.847,-7.324,29.297,40.527,-82.031,-5.859,0
1553637272.851,-9.766,25.391,38.574,-90.820,58.594,0
1553637272.855,-9.766,25.391,39.062,-86.426,73.730,0
1553637272.859,-5.859,28.809,37.598,-79.590,12.695,0
1553637272.863,-3.906,26.855,23.926,-80.078,16.113,0
1553637272.867,-5.371,31.738,20.508,-85.938,35.645,0
1553637272.871,-3.906,33.203,30.273,-85.449,45.410,0
1553637272.875,-5.371,28.809,42.969,-83.984,52.246,0
1553637272.879,-5.371,30.762,45.410,-88.379,16.113,0
1553637272.883,-2.930,32.227,39.062,-89.355,11.719,0
1553637272.886,-4.883,27.344,37.598,-88.867,58.105,0
1553637272.890,-8.301,23.926,31.738,-93.262,62.988,0
1553637272.894,-6.348,26.367,22.949,-93.262,-10.254,0
1553637272.898,-7.324,29.297,23.926,-93.262,-10.742,0
1553637272.902,-6.348,33.691,24.414,-95.215,18.066,0
1553637272.906,0.000,35.156,28.320,-92.285,-9.277,0
1553637272.910,1.465,32.715,32.715,-94.238,50.293,0
1553637272.914,0.000,33.203,33.203,-98.633,116.211,0
1553637272.918,6.348,31.738,30.762,-89.355,94.238,0
1553637272.922,3.418,30.273,20.508,-86.426,18.066,0
1553637272.926,-2.441,31.738,25.391,-88.379,25.391,0
1553637272.929,2.930,28.809,34.668,-83.984,64.941,0
1553637272.933,0.977,28.320,35.156,-88.379,37.109,0
1553637272.937,-2.930,28.320,38.086,-92.285,47.363,0
1553637272.941,-1.465,25.391,37.598,-89.844,15.625,0
1553637272.945,7.812,26.367,36.621,-84.961,24.414,0
1553637272.949,10.254,28.320,35.156,-84.961,60.547,0
1553637272.953,5.859,27.832,30.273,-83.496,78.125,0
1553637272.957,11.719,30.762,24.902,-83.984,66.406,0
1553637272.961,11.719,33.691,24.902,-79.102,38.086,0
1553637272.965,7.812,36.133,28.320,-82.031,102.539,0
1553637272.969,2.930,32.227,30.273,-90.332,124.512,0
1553637272.972,-3.906,27.344,30.762,-93.262,97.168,0
1553637272.976,-1.953,33.203,31.250,-90.820,61.523,0
1553637272.980,0.000,34.180,29.785,-93.750,11.230,0
1553637272.984,-3.906,34.180,23.926,-90.332,-9.766,0
1553637272.988,-7.812,32.227,23.926,-86.426,28.809,0
1553637272.992,-13.672,29.785,26.855,-91.797,57.617,0
1553637272.996,-6.836,32.715,30.762,-89.355,37.598,0
1553637273.000,-0.977,32.227,40.527,-85.938,1.465,0
1553637273.004,-6.348,29.297,39.062,-97.656,26.855,0
1553637273.008,-1.953,31.738,33.691,-96.680,37.598,0
1553637273.011,0.977,32.715,38.574,-91.309,8.301,0
1553637273.015,-5.859,30.273,38.574,-95.215,5.371,0
1553637273.019,-3.906,30.762,35.156,-90.332,28.809,0
1553637273.023,2.930,34.180,33.203,-87.402,47.852,0
1553637273.027,3.906,34.668,32.715,-83.984,-20.508,0
1553637273.031,0.488,31.250,30.762,-80.566,-34.668,0
1553637273.035,-1.465,26.855,28.809,-77.637,75.684,0
1553637273.039,0.000,23.438,28.320,-83.008,86.426,0
1553637273.043,-1.465,26.855,33.691,-87.402,32.715,0
1553637273.047,2.441,29.297,36.133,-81.055,23.926,0
1553637273.051,-3.418,28.320,36.621,-82.520,-22.461,0
1553637273.054,-9.766,28.320,37.598,-85.938,3.906,0
1553637273.058,-1.465,30.762,36.621,-86.914,22.461,0
1553637273.062,1.953,31.250,35.645,-85.938,32.715,0
1553637273.066,3.418,32.715,32.715,-80.566,-4.883,0
1553637273.070,-1.465,33.691,29.785,-83.008,-28.320,0
1553637273.074,0.977,31.738,27.832,-84.961,39.551,0
1553637273.078,0.488,34.668,28.320,-82.520,46.387,0
1553637273.082,-7.812,36.133,29.297,-85.938,-10.254,0
1553637273.086,-1.465,35.156,28.809,-86.914,-18.066,0
1553637273.090,0.977,35.645,26.367,-95.215,-11.230,0
1553637273.094,0.488,35.156,26.367,-95.703,19.043,0
1553637273.097,4.395,34.180,23.926,-84.961,29.297,0
1553637273.101,9.766,31.250,19.043,-83.008,1.465,0
1553637273.105,9.277,29.785,23.926,-79.102,82.031,0
1553637273.109,2.930,31.250,28.320,-75.195,62.012,0
1553637273.113,5.859,30.762,26.855,-75.684,24.414,0
1553637273.117,4.883,32.227,30.762,-72.754,98.145,0
1553637273.121,2.441,33.203,33.203,-69.336,78.125,0
1553637273.125,2.930,32.715,33.691,-70.312,-2.441,0
1553637273.129,2.930,34.668,35.156,-75.195,15.625,0
1553637273.133,9.277,34.180,39.062,-80.566,25.391,0
1553637273.136,14.160,28.809,43.945,-83.008,9.277,0
1553637273.140,12.207,26.855,44.922,-78.613,32.715,0
1553637273.144,14.160,23.926,49.805,-70.312,13.184,0
1553637273.148,9.766,21.484,44.922,-71.289,18.066,0
1553637273.152,2.441,24.414,38.574,-65.918,26.367,0
1553637273.156,0.488,25.879,48.828,-54.688,48.828,0
1553637273.160,-7.324,24.414,58.594,-54.199,63.477,0
1553637273.164,-9.277,27.832,53.711,-65.430,27.344,0
1553637273.168,-9.766,31.250,45.410,-70.801,75.195,0
1553637273.172,-17.578,29.785,40.527,-71.777,69.824,0
1553637273.176,-16.113,27.344,35.156,-76.172,4.395,0
1553637273.179,-16.113,23.438,38.574,-79.102,-14.160,0
1553637273.183,-17.090,22.949,32.715,-77.148,54.199,0
1553637273.187,-6.836,27.832,27.344,-73.242,76.660,0
1553637273.191,-0.977,27.344,29.297,-76.660,61.523,0
1553637273.195,-2.441,22.949,28.320,-79.102,84.961,0
1553637273.199,-1.953,23.926,30.273,-78.125,63.477,0
1553637273.203,-3.418,26.855,29.297,-76.660,8.789,0
1553637273.207,-7.324,25.879,35.645,-74.707,-5.859,0
1553637273.211,-7.812,23.438,38.086,-77.148,24.414,0
1553637273.215,-6.348,21.973,33.203,-78.125,17.090,0
1553637273.219,-4.883,21.484,35.645,-80.078,-5.371,0
1553637273.222,-3.906,22.461,41.016,-77.637,68.848,0
1553637273.226,-4.395,22.949,39.062,-71.289,41.016,0
1553637273.230,-2.930,24.902,36.133,-75.195,20.508,0
1553637273.234,2.441,27.832,34.180,-74.707,95.215,0
1553637273.238,0.488,27.832,25.879,-72.266,71.289,0
1553637273.242,-5.371,24.902,17.090,-79.102,40.039,0
1553637273.246,0.488,26.367,22.949,-76.172,66.895,0
1553637273.250,0.977,27.344,34.668,-70.312,44.434,0
1553637273.254,-6.836,27.344,41.016,-76.660,29.785,0
1553637273.258,-9.277,27.344,45.898,-77.148,60.059,0
1553637273.261,-6.348,22.461,48.828,-75.195,73.242,0
1553637273.265,-9.766,22.949,42.480,-81.055,41.016,0
1553637273.269,-11.230,23.926,39.551,-82.520,2.930,0
1553637273.273,-6.348,22.949,37.598,-80.566,57.617,0
1553637273.277,-2.441,24.414,32.715,-76.172,61.035,0
1553637273.281,-1.953,25.879,32.227,-73.730,-6.348,0
1553637273.285,-1.953,25.391,30.762,-75.195,-13.184,0
1553637273.289,-3.418,24.902,20.996,-78.125,20.020,0
1553637273.293,-4.395,25.879,20.020,-82.031,51.758,0
1553637273.297,-0.977,30.762,31.738,-78.613,78.613,0
1553637273.301,4.395,33.203,32.227,-71.289,75.684,0
1553637273.304,6.836,31.738,29.297,-73.242,18.555,0
1553637273.308,5.859,29.297,31.738,-78.613,42.480,0
1553637273.312,7.812,29.297,32.715,-75.195,60.547,0
1553637273.316,6.836,28.320,32.227,-77.148,13.184,0
1553637273.320,0.488,29.297,33.691,-80.566,33.691,0
1553637273.324,-2.441,31.738,28.320,-77.637,32.715,0
1553637273.328,-4.395,28.809,23.926,-81.543,11.230,0
1553637273.332,-3.418,28.809,25.879,-91.309,27.344,0
1553637273.336,-6.836,28.320,25.879,-92.285,-1.465,0
1553637273.340,-7.324,26.855,31.738,-86.426,10.254,0
1553637273.344,-4.395,29.785,33.203,-86.426,59.570,0
1553637273.347,-2.930,28.809,33.691,-82.031,36.621,0
1553637273.351,-3.906,21.973,40.527,-77.637,46.387,0
1553637273.355,-3.906,4.883,43.457,-69.336,36.621,0
1553637273.359,16.113,-0.488,45.898,-52.734,-4.883,0
1553637273.363,23.438,30.273,36.621,-62.012,41.016,0
1553637273.367,10.254,44.434,25.391,-78.125,104.492,0
1553637273.371,-0.977,36.621,20.996,-87.402,117.676,0
1553637273.375,-8.301,39.062,5.859,-98.145,86.426,0
1553637273.379,-9.277,42.969,0.000,-103.516,53.223,0
1553637273.383,-17.090,44.922,-1.953,-115.234,92.285,0
1553637273.386,-32.715,46.875,-5.371,-132.812,76.660,0
1553637273.390,-36.133,50.293,-8.789,-137.695,60.059,0
1553637273.394,-35.156,51.270,-15.625,-141.602,61.523,0
1553637273.398,-47.852,55.176,-20.996,-157.715,28.809,0
1553637273.402,-70.312,55.176,-23.926,-176.758,9.766,0
1553637273.406,-74.707,56.152,-31.250,-183.594,27.344,0
1553637273.410,-73.730,58.594,-36.621,-181.152,7.812,0
1553637273.414,-78.125,60.059,-34.668,-187.988,-40.527,0
1553637273.418,-69.824,65.430,-35.645,-185.547,-2.930,0
1553637273.422,-60.547,71.289,-36.621,-187.988,3.418,0
1553637273.426,-56.641,74.707,-42.480,-194.336,-23.926,0
1553637273.429,-54.688,77.637,-49.805,-187.012,-4.883,0
1553637273.433,-50.293,79.102,-56.152,-187.500,37.109,0
1553637273.437,-36.133,76.172,-56.641,-175.781,33.691,0
1553637273.441,-28.320,79.590,-52.246,-160.156,7.324,0
1553637273.445,-19.531,80.078,-52.246,-150.391,36.621,0
1553637273.449,-3.906,80.078,-50.781,-136.719,64.941,0
1553637273.453,1.465,81.543,-48.828,-127.930,104.980,0
1553637273.457,3.906,81.543,-45.898,-128.418,112.305,0
1553637273.461,17.090,83.496,-45.410,-113.281,26.855,0
1553637273.465,25.879,82.520,-47.363,-100.098,41.016,0
1553637273.469,21.484,82.031,-50.293,-107.422,112.793,0
1553637273.472,28.320,83.008,-49.805,-101.562,82.031,0
1553637273.476,34.668,77.637,-43.945,-87.402,47.852,0
1553637273.480,30.762,73.242,-40.039,-81.055,43.457,0
1553637273.484,25.879,70.312,-39.062,-86.914,58.105,0
1553637273.488,28.809,66.895,-37.109,-85.938,2.930,0
1553637273.492,26.367,68.359,-38.086,-78.125,-8.789,0
1553637273.496,21.973,62.500,-38.086,-74.219,17.578,0
1553637273.500,24.902,57.617,-32.227,-73.730,-5.371,0
1553637273.504,21.973,60.059,-25.391,-72.266,18.555,0
1553637273.508,27.344,57.617,-18.066,-65.430,33.691,0
1553637273.511,22.949,53.711,-20.508,-74.707,50.293,0
1553637273.515,17.090,53.223,-19.043,-74.707,15.625,0
1553637273.519,22.461,50.781,-15.625,-64.941,-26.855,0
1553637273.523,23.926,46.875,-19.531,-75.684,-17.578,0
1553637273.527,30.273,49.316,-13.184,-74.707,-6.348,0
1553637273.531,32.715,48.340,-4.883,-65.430,13.672,0
1553637273.535,33.691,45.410,-5.859,-66.895,23.438,0
1553637273.539,32.715,47.852,-8.301,-75.195,58.105,0
1553637273.543,31.250,50.293,-4.395,-72.754,69.824,0
1553637273.547,35.645,50.293,-2.930,-65.918,63.965,0
1553637273.551,36.133,51.758,-5.371,-61.523,55.176,0
1553637273.554,39.551,52.246,0.000,-53.711,31.738,0
1553637273.558,37.109,44.922,8.789,-53.711,72.754,0
1553637273.562,33.203,40.039,8.789,-58.594,86.914,0
1553637273.566,35.645,42.480,7.812,-60.059,96.680,0
1553637273.570,29.297,42.969,7.812,-59.082,49.805,0
1553637273.574,29.785,41.992,13.672,-58.594,-46.387,0
1553637273.578,30.273,43.457,14.648,-61.035,-6.836,0
1553637273.582,31.250,42.969,4.883,-62.500,40.039,0
1553637273.586,34.180,42.480,4.395,-61.035,25.879,0
1553637273.590,26.855,43.945,12.207,-67.871,-60.059,0
1553637273.594,37.109,48.828,4.883,-62.500,-50.781,0
1553637273.597,53.223,42.969,5.859,-41.504,45.410,0
1553637273.601,33.691,30.762,27.832,-51.270,44.434,0
1553637273.605,10.254,28.809,38.086,-66.895,4.883,0
1553637273.609,2.930,30.762,44.922,-64.941,12.207,0
1553637273.613,6.348,26.855,51.270,-63.965,29.785,0
1553637273.617,1.465,13.184,46.387,-69.336,20.020,0
1553637273.621,-4.395,8.789,52.246,-68.359,19.531,0
1553637273.625,-3.906,10.254,68.848,-62.988,60.547,0
1553637273.629,-13.184,2.930,78.125,-64.941,51.270,0
1553637273.633,-21.484,-2.930,82.031,-62.012,-9.277,0
1553637273.636,-17.578,-5.371,86.426,-54.688,18.555,0
1553637273.640,-22.461,-7.324,89.355,-63.965,-11.719,0
1553637273.644,-22.461,-5.859,91.797,-58.594,-12.695,0
1553637273.648,-20.020,-6.348,95.215,-48.828,25.391,0
1553637273.652,-10.742,-9.277,97.656,-42.480,15.137,0
1553637273.656,-6.836,-9.277,101.074,-36.621,27.344,0
1553637273.660,-8.301,-6.836,102.539,-39.062,49.805,0
1553637273.664,4.395,-4.883,103.027,-26.855,39.062,0
1553637273.668,2.930,-7.812,103.027,-25.391,52.246,0
1553637273.672,-4.883,-14.160,106.445,-25.391,39.551,0
1553637273.676,-3.906,-14.648,104.980,-23.926,35.645,0
1553637273.679,-4.395,-12.207,104.492,-27.344,27.344,0
1553637273.683,-7.324,-13.672,106.934,-29.297,-4.395,0
1553637273.687,-3.418,-11.719,93.262,-28.809,14.160,0
1553637273.691,2.441,-8.789,87.402,-23.438,61.523,0
1553637273.695,8.789,-7.324,86.914,-26.855,115.723,0
1553637273.699,6.836,-0.977,83.008,-33.203,57.129,0
1553637273.703,10.742,3.906,85.938,-34.180,11.230,0
1553637273.707,16.113,3.906,85.449,-34.180,49.805,0
1553637273.711,13.184,3.418,79.590,-36.133,66.406,0
1553637273.715,16.113,5.859,73.730,-35.156,34.668,0
1553637273.719,24.902,11.719,70.801,-25.879,-7.324,0
1553637273.722,23.926,12.695,68.359,-25.391,12.207,0
1553637273.726,19.531,11.230,66.895,-33.203,39.062,0
1553637273.730,21.973,14.648,64.453,-35.645,45.898,0
1553637273.734,17.578,18.066,59.082,-37.109,14.160,0
1553637273.738,8.789,17.578,60.059,-40.039,-0.977,0
1553637273.742,8.301,15.625,59.082,-44.922,18.066,0
1553637273.746,7.324,14.160,53.711,-44.922,49.805,0
1553637273.750,1.953,19.043,57.129,-52.734,66.406,0
1553637273.754,1.953,20.020,61.523,-60.547,4.883,0
1553637273.758,1.465,19.043,57.129,-58.594,13.672,0
1553637273.761,6.836,27.344,53.711,-45.410,52.734,0
1553637273.765,15.625,28.320,53.711,-42.480,62.500,0
1553637273.769,11.719,24.902,53.711,-52.734,38.574,0
1553637273.773,8.789,24.902,50.293,-49.316,-40.527,0
1553637273.777,12.207,25.879,43.457,-49.805,-35.156,0
1553637273.781,12.695,28.320,40.039,-52.246,58.105,0
1553637273.785,10.254,27.832,40.039,-44.434,47.852,0
1553637273.789,9.277,26.367,42.480,-50.781,-17.090,0
1553637273.793,8.301,23.438,48.340,-61.035,40.527,0
1553637273.797,6.836,22.461,48.340,-61.523,97.656,0
1553637273.801,5.859,20.020,44.434,-64.453,48.828,0
1553637273.804,7.324,22.949,46.387,-57.129,1.465,0
1553637273.808,15.625,26.367,43.457,-54.688,32.227,0
1553637273.812,16.113,23.926,39.551,-48.340,16.602,0
1553637273.816,10.742,24.414,41.504,-40.039,39.062,0
1553637273.820,9.277,22.949,36.133,-46.387,86.426,0
1553637273.824,8.301,24.902,34.668,-52.246,35.645,0
1553637273.828,2.441,27.832,40.527,-55.664,93.750,0
1553637273.832,0.977,23.926,41.992,-56.152,88.867,0
1553637273.836,-1.953,23.438,38.574,-53.223,-10.254,0
1553637273.840,-0.977,26.855,36.621,-58.105,-36.621,0
1553637273.844,1.465,25.391,37.109,-59.082,17.578,0
1553637273.847,0.000,26.855,40.039,-53.223,103.027,0
1553637273.851,5.371,30.762,35.645,-47.363,69.336,0
1553637273.855,9.277,31.738,34.668,-44.922,55.664,0
1553637273.859,8.789,29.785,36.621,-51.270,97.168,0
1553637273.863,1.465,25.879,38.574,-54.688,80.566,0
1553637273.867,-2.441,24.902,44.922,-56.641,31.250,0
1553637273.871,-1.465,25.879,42.480,-61.523,9.766,0
1553637273.875,0.488,28.809,40.039,-57.617,-4.395,0
1553637273.879,2.441,27.344,42.969,-54.199,17.090,0
1553637273.883,0.488,27.344,40.527,-61.523,37.598,0
1553637273.886,-5.371,31.250,35.156,-66.895,48.340,0
1553637273.890,-5.371,29.785,35.156,-67.383,62.012,0
1553637273.894,-7.324,30.762,31.738,-65.430,46.875,0
1553637273.898,-8.301,33.203,27.832,-63.477,45.898,0
1553637273.902,-5.859,31.250,32.227,-58.594,103.516,0
1553637273.906,-9.766,33.203,34.668,-66.406,99.121,0
1553637273.910,-4.395,33.691,39.551,-68.848,-4.395,0
1553637273.914,1.465,30.273,43.457,-58.594,-23.438,0
1553637273.918,-0.977,31.250,34.180,-63.477,24.902,0
1553637273.922,-5.859,32.715,34.180,-67.383,21.973,0
1553637273.926,0.488,29.785,40.527,-64.453,2.441,0
1553637273.929,13.184,27.832,23.926,-62.500,15.137,0
1553637273.933,12.695,28.320,5.859,-66.406,35.645,0
1553637273.937,3.906,29.785,20.996,-71.777,68.359,0
1553637273.941,7.324,25.879,42.480,-72.754,68.848,0
1553637273.945,17.090,20.996,50.781,-60.547,35.156,0
1553637273.949,20.508,17.578,57.129,-46.387,41.992,0
1553637273.953,12.695,18.555,64.941,-49.805,62.500,0
1553637273.957,16.113,21.484,67.383,-39.551,35.645,0
1553637273.961,17.090,20.508,70.312,-28.320,-14.648,0
1553637273.965,12.695,16.113,72.266,-29.785,13.672,0
1553637273.969,15.625,14.160,73.242,-25.879,37.598,0
1553637273.972,17.090,13.184,75.195,-23.926,22.949,0
1553637273.976,14.160,11.230,69.336,-24.902,-2.930,0
1553637273.980,15.625,13.672,67.871,-29.297,29.785,0
1553637273.984,19.043,17.578,73.730,-28.320,55.664,0
1553637273.988,15.137,18.066,70.312,-34.180,65.430,0
1553637273.992,11.230,18.066,64.941,-46.875,40.039,0
1553637273.996,14.648,15.625,67.383,-45.898,21.973,0
1553637274.000,16.602,13.672,66.895,-37.598,45.410,0
1553637274.004,19.043,15.137,61.523,-34.668,-19.043,0
1553637274.008,20.996,20.996,52.734,-31.250,-17.578,0
1553637274.011,18.555,21.973,44.922,-28.809,6.348,0
1553637274.015,22.461,22.949,48.340,-30.273,-4.395,0
1553637274.019,20.508,22.461,61.523,-31.738,6.348,0
1553637274.023,11.230,17.090,74.707,-32.227,24.414,0
1553637274.027,13.672,19.043,79.102,-30.273,96.680,0
1553637274.031,23.926,23.926,68.848,-31.250,91.797,0
1553637274.035,19.531,22.949,58.105,-40.527,61.523,0
1553637274.039,14.160,25.391,58.105,-44.922,104.004,0
1553637274.043,15.137,22.949,58.105,-45.898,64.453,0
1553637274.047,18.066,22.461,52.246,-47.852,11.719,0
1553637274.051,16.113,27.344,50.293,-53.223,-20.508,0
1553637274.054,8.301,23.926,52.246,-57.617,7.324,0
1553637274.058,12.207,25.391,42.480,-57.617,69.336,0
1553637274.062,13.184,27.832,36.133,-57.617,28.320,0
1553637274.066,14.648,29.297,49.805,-55.664,10.742,0
1553637274.070,14.648,28.320,54.199,-56.641,-1.953,0
1553637274.074,3.418,25.391,45.410,-62.012,-16.602,0
1553637274.078,2.930,25.391,48.340,-64.941,88.867,0
1553637274.082,4.883,28.320,51.758,-62.500,77.148,0
1553637274.086,2.930,28.809,45.898,-58.594,0.000,0
1553637274.090,6.836,27.344,37.109,-61.035,23.438,0
1553637274.094,11.230,28.320,36.621,-62.988,34.668,0
1553637274.097,16.113,27.832,44.922,-56.641,23.438,0
1553637274.101,14.648,26.855,44.922,-51.270,33.691,0
1553637274.105,15.625,28.320,40.527,-47.363,36.133,0
1553637274.109,18.066,30.762,33.691,-50.293,38.086,0
1553637274.113,20.020,31.250,37.109,-49.805,69.336,0
1553637274.117,21.973,29.297,44.922,-53.223,20.508,0
1553637274.121,16.602,28.809,40.527,-58.105,9.277,0
1553637274.125,12.695,25.391,40.039,-56.152,70.312,0
1553637274.129,12.207,17.090,43.945,-55.664,50.293,0
1553637274.133,27.832,19.043,46.387,-41.992,9.766,0
1553637274.136,33.203,31.738,43.457,-43.945,20.020,0
1553637274.140,15.137,37.598,24.902,-66.406,12.207,0
1553637274.144,18.555,31.250,20.996,-66.406,36.133,0
1553637274.148,34.668,25.391,34.180,-55.664,62.988,0
1553637274.152,29.297,30.273,35.156,-58.105,54.688,0
1553637274.156,21.484,33.691,20.508,-59.082,58.594,0
1553637274.160,24.414,29.297,18.066,-63.965,15.625,0
1553637274.164,20.996,30.762,27.344,-69.824,-21.484,0
1553637274.168,16.113,31.738,25.391,-69.336,2.930,0
1553637274.172,17.090,34.668,23.926,-67.383,20.508,0
1553637274.176,18.066,34.668,29.297,-68.848,43.945,0
1553637274.179,14.160,32.715,27.832,-64.453,45.898,0
1553637274.183,15.625,33.691,25.879,-63.965,53.711,0
1553637274.187,21.973,34.180,30.762,-63.965,79.102,0
1553637274.191,21.973,31.250,32.715,-55.664,29.297,0
1553637274.195,23.926,30.273,29.297,-53.223,28.320,0
1553637274.199,29.297,34.180,34.180,-46.875,-7.324,0
1553637274.203,31.250,32.227,40.527,-41.992,-32.227,0
1553637274.207,23.926,24.902,40.527,-49.805,-15.625,0
1553637274.211,24.414,24.414,41.016,-52.246,44.922,0
1553637274.215,29.785,29.785,33.691,-51.758,38.086,0
1553637274.219,28.320,29.297,27.832,-51.758,45.410,0
1553637274.222,25.879,29.785,36.133,-49.805,30.762,0
1553637274.226,22.461,30.273,34.668,-52.246,54.199,0
1553637274.230,19.531,29.785,24.902,-58.105,59.570,0
1553637274.234,18.066,29.785,32.227,-64.453,32.227,0
1553637274.238,18.066,28.809,41.504,-65.918,68.848,0
1553637274.242,21.484,29.785,43.457,-60.059,72.754,0
1553637274.246,20.508,28.809,42.969,-59.082,54.688,0
1553637274.250,23.438,31.250,40.527,-62.500,63.965,0
1553637274.254,26.855,36.133,37.109,-56.152,77.637,0
1553637274.258,26.367,35.156,29.785,-59.082,45.898,0
1553637274.261,24.902,31.738,27.344,-64.453,14.160,0
1553637274.265,22.461,30.762,26.855,-64.941,30.273,0
1553637274.269,22.461,29.785,23.926,-70.801,63.477,0
1553637274.273,21.484,29.785,22.949,-73.242,72.754,0
1553637274.277,19.531,29.785,24.902,-74.219,75.684,0
1553637274.281,18.066,33.691,22.461,-73.730,116.211,0
1553637274.285,17.090,32.227,23.438,-70.312,112.305,0
1553637274.289,13.672,29.785,31.738,-69.824,59.082,0
1553637274.293,7.324,27.344,28.320,-70.312,17.578,0
1553637274.297,10.254,25.391,24.414,-64.453,11.230,0
1553637274.301,14.160,25.879,32.227,-59.570,-4.883,0
1553637274.304,14.648,25.391,34.180,-62.988,26.855,0
1553637274.308,21.973,23.438,37.109,-59.570,29.297,0
1553637274.312,22.949,22.461,39.062,-58.105,-19.531,0
1553637274.316,20.020,22.461,35.645,-64.453,55.176,0
1553637274.320,27.832,26.855,41.504,-65.918,80.566,0
1553637274.324,35.156,29.785,39.551,-62.012,28.809,0
1553637274.328,32.715,26.855,26.855,-68.359,-13.184,0
1553637274.332,27.832,25.391,25.391,-80.078,18.555,0
1553637274.336,28.809,25.391,29.785,-79.590,51.758,0
1553637274.340,31.250,29.297,28.809,-77.148,9.766,0
1553637274.344,26.855,28.320,27.832,-77.637,19.043,0
1553637274.347,24.902,27.832,26.367,-77.148,38.574,0
1553637274.351,30.762,31.738,26.367,-72.266,37.109,0
1553637274.355,36.133,30.762,30.273,-62.012,21.973,0
1553637274.359,38.086,30.762,34.180,-61.035,40.039,0
1553637274.363,37.109,31.738,43.457,-64.453,76.660,0
1553637274.367,41.992,32.715,45.410,-68.848,61.035,0
1553637274.371,41.016,20.996,45.898,-69.824,18.555,0
1553637274.375,38.086,1.953,52.734,-55.176,63.965,0
1553637274.379,52.246,0.488,56.641,-38.086,44.434,0
1553637274.383,68.848,24.902,48.828,-36.621,5.859,0
1553637274.386,59.570,44.922,31.250,-56.641,20.996,0
1553637274.390,34.180,38.086,25.391,-82.520,42.480,0
1553637274.394,25.391,35.156,25.391,-91.797,26.855,0
1553637274.398,24.414,41.016,14.160,-103.027,65.918,0
1553637274.402,30.762,42.969,5.371,-111.816,88.379,0
1553637274.406,26.855,49.805,3.418,-118.164,55.176,0
1553637274.410,7.812,49.805,-0.977,-137.695,52.734,0
1553637274.414,6.348,50.781,-5.859,-149.902,11.230,0
1553637274.418,-3.418,60.059,-18.555,-168.457,5.859,0
1553637274.422,-16.602,60.547,-26.367,-178.223,35.645,0
1553637274.426,-22.949,64.941,-26.855,-179.199,42.480,0
1553637274.429,-20.508,68.848,-35.156,-185.059,37.109,0
1553637274.433,-12.695,75.684,-45.410,-185.059,-20.508,0
1553637274.437,-24.902,82.031,-52.246,-196.777,-53.711,0
1553637274.441,-20.508,81.055,-55.176,-201.172,0.977,0
1553637274.445,-16.113,85.938,-56.641,-200.195,50.781,0
1553637274.449,-16.602,89.355,-56.641,-197.754,4.395,0
1553637274.453,-16.113,93.262,-58.594,-194.336,-11.719,0
1553637274.457,-19.531,86.426,-62.012,-194.824,1.953,0
1553637274.461,-11.719,85.938,-65.918,-183.594,6.348,0
1553637274.465,-14.160,93.262,-78.125,-183.105,29.785,0
1553637274.469,4.883,92.285,-81.055,-168.945,38.574,0
1553637274.472,20.996,94.238,-76.660,-156.250,11.719,0
1553637274.476,31.738,93.750,-75.195,-144.043,12.695,0
1553637274.480,44.434,102.051,-78.125,-135.742,13.672,0
1553637274.484,44.434,100.586,-79.590,-136.230,18.066,0
1553637274.488,63.477,80.566,-69.824,-110.352,53.711,0
1553637274.492,65.430,85.449,-71.289,-112.793,55.176,0
1553637274.496,60.547,90.332,-73.730,-117.188,21.973,0
1553637274.500,74.707,80.078,-65.918,-99.609,-63.477,0
1553637274.504,65.918,80.078,-63.477,-104.004,-40.039,0
1553637274.508,60.547,78.613,-59.082,-100.098,39.062,0
1553637274.511,73.730,74.219,-55.664,-84.961,63.965,0
1553637274.515,68.359,74.219,-55.176,-82.520,31.250,0
1553637274.519,69.336,73.730,-50.293,-81.543,41.992,0
1553637274.523,70.312,66.406,-44.922,-84.961,31.738,0
1553637274.527,62.012,63.965,-44.434,-84.961,4.395,0
1553637274.531,63.965,64.453,-42.969,-81.055,22.461,0
1553637274.535,63.965,60.547,-39.062,-82.520,11.230,0
1553637274.539,60.059,57.129,-29.297,-74.219,33.691,0
1553637274.543,56.641,58.105,-20.020,-70.801,34.668,0
1553637274.547,59.082,61.035,-14.648,-66.895,14.160,0
1553637274.551,62.500,55.176,-10.742,-55.176,15.625,0
1553637274.554,66.895,54.688,-8.789,-45.898,27.832,0
1553637274.558,72.754,55.664,-6.836,-41.992,40.527,0
1553637274.562,63.965,52.734,-6.348,-46.875,12.207,0
1553637274.566,63.965,54.199,-6.836,-40.039,-15.625,0
1553637274.570,73.242,51.270,-2.930,-39.551,-19.043,0
1553637274.574,72.266,47.852,-2.930,-44.434,2.441,0
1553637274.578,69.824,43.457,-7.812,-39.062,41.016,0
1553637274.582,71.777,45.898,-3.418,-38.574,42.480,0
1553637274.586,64.941,49.316,-0.977,-45.410,32.227,0
1553637274.590,56.641,44.434,-3.906,-54.199,31.738,0
1553637274.594,53.223,36.133,-0.488,-55.664,31.738,0
1553637274.597,49.805,38.574,5.371,-49.805,77.637,0
1553637274.601,51.270,42.480,12.207,-46.875,72.266,0
1553637274.605,49.805,42.480,17.578,-53.223,25.391,0
1553637274.609,47.852,45.898,19.043,-56.641,8.789,0
1553637274.613,44.922,41.016,20.996,-51.758,45.410,0
1553637274.617,41.016,36.621,17.578,-47.852,102.539,0
1553637274.621,35.156,36.133,14.648,-51.270,70.312,0
1553637274.625,36.621,35.156,17.090,-49.316,56.152,0
1553637274.629,40.039,33.691,17.578,-43.457,10.742,0
1553637274.633,33.691,36.621,17.578,-48.340,-3.418,0
1553637274.636,29.785,39.551,17.090,-61.523,22.949,0
1553637274.640,27.832,38.086,19.531,-62.500,-7.324,0
1553637274.644,26.855,37.109,18.066,-50.781,-4.883,0
1553637274.648,20.996,30.273,16.602,-55.664,17.578,0
1553637274.652,18.066,24.414,19.531,-61.523,27.832,0
1553637274.656,20.996,28.320,19.531,-58.105,56.152,0
1553637274.660,22.461,32.715,21.484,-50.293,57.129,0
1553637274.664,22.949,28.320,19.531,-50.293,48.340,0
1553637274.668,22.949,27.344,18.066,-48.340,61.035,0
1553637274.672,30.762,34.668,25.879,-37.598,66.895,0
1553637274.676,33.203,35.645,24.414,-35.156,41.016,0
1553637274.679,31.250,34.668,23.438,-38.574,36.621,0
1553637274.683,32.715,37.109,18.555,-49.805,83.008,0
1553637274.687,41.504,38.086,13.672,-39.551,99.609,0
1553637274.691,37.109,28.809,26.855,-34.668,54.688,0
1553637274.695,17.090,22.461,39.062,-48.828,14.160,0
1553637274.699,14.160,26.367,39.551,-48.340,11.230,0
1553637274.703,13.672,29.297,40.527,-46.387,20.020,0
1553637274.707,8.789,28.809,41.016,-46.387,58.105,0
1553637274.711,5.371,27.344,38.574,-57.129,74.707,0
1553637274.715,0.488,30.762,37.598,-69.336,27.832,0
1553637274.719,-1.953,29.297,34.668,-65.430,-43.457,0
1553637274.722,-4.395,25.879,31.250,-65.918,-33.203,0
1553637274.726,-5.859,31.250,30.273,-69.336,41.016,0
1553637274.730,-4.883,32.715,26.855,-67.871,12.207,0
1553637274.734,-5.859,32.715,25.391,-66.406,-5.371,0
1553637274.738,-2.441,36.133,29.785,-62.012,75.195,0
1553637274.742,0.000,35.156,30.273,-54.199,92.285,0
1553637274.746,-3.906,32.715,31.250,-50.781,66.406,0
1553637274.750,-6.348,28.809,34.180,-48.828,63.965,0
1553637274.754,-1.953,28.320,41.504,-50.293,21.973,0
1553637274.758,6.348,32.715,41.504,-50.781,17.578,0
1553637274.761,11.230,34.668,36.621,-54.199,66.895,0
1553637274.765,18.555,36.621,40.527,-51.758,25.391,0
1553637274.769,27.832,33.691,39.551,-47.852,44.922,0
1553637274.773,24.414,29.297,34.668,-57.617,95.703,0
1553637274.777,10.742,28.320,35.645,-56.641,-20.020,0
1553637274.781,0.977,31.250,34.668,-55.176,10.254,0
1553637274.785,-5.371,35.156,35.645,-56.152,104.004,0
1553637274.789,-9.766,33.691,35.645,-59.082,40.039,0
1553637274.793,-11.230,33.691,31.250,-61.523,-1.953,0
1553637274.797,-15.625,31.738,25.391,-62.500,40.039,0
1553637274.801,-14.160,30.762,25.879,-61.523,57.617,0
1553637274.804,-12.207,31.738,27.344,-66.406,13.184,0
1553637274.808,-15.625,30.762,28.809,-73.242,21.973,0
1553637274.812,-17.090,30.762,29.297,-71.777,36.621,0
1553637274.816,-15.625,34.668,26.367,-70.801,30.273,0
1553637274.820,-12.695,33.691,26.367,-75.195,26.367,0
1553637274.824,-11.230,29.297,29.297,-77.148,49.316,0
1553637274.828,-8.301,30.273,25.879,-76.660,33.203,0
1553637274.832,-6.348,31.738,20.996,-71.777,51.758,0
1553637274.836,-2.441,34.668,23.926,-67.871,81.055,0
1553637274.840,2.930,34.180,28.809,-56.641,38.574,0
1553637274.844,8.789,34.180,30.273,-47.852,71.289,0
1553637274.847,14.648,37.598,25.879,-47.852,39.551,0
1553637274.851,18.066,39.062,28.809,-42.480,32.715,0
1553637274.855,18.555,39.551,31.250,-40.039,65.918,0
1553637274.859,15.625,35.645,29.297,-42.969,27.832,0
1553637274.863,12.695,34.180,33.203,-47.852,27.832,0
1553637274.867,11.230,33.203,28.809,-54.199,29.785,0
1553637274.871,6.836,30.762,23.926,-55.176,-6.836,0
1553637274.875,-3.906,33.691,25.391,-53.223,-0.488,0
1553637274.879,-9.277,34.668,27.832,-59.570,-5.859,0
1553637274.883,-7.812,32.227,26.855,-58.105,-48.828,0
1553637274.886,-12.695,32.715,30.273,-52.734,38.086,0
1553637274.890,-18.066,30.762,33.691,-58.594,120.605,0
1553637274.894,-18.066,27.832,35.156,-61.523,96.191,0
1553637274.898,-22.949,28.809,34.180,-62.500,23.438,0
1553637274.902,-27.832,29.297,31.250,-70.801,7.324,0
1553637274.906,-23.926,30.762,24.414,-73.242,-12.207,0
1553637274.910,-20.996,31.738,25.879,-71.289,-42.480,0
1553637274.914,-25.879,28.809,27.832,-74.219,16.602,0
1553637274.918,-28.320,32.227,23.438,-73.242,104.980,0
1553637274.922,-24.414,33.691,23.926,-75.684,61.523,0
1553637274.926,-22.949,33.203,23.926,-77.148,13.672,0
1553637274.929,-22.461,30.273,23.926,-74.707,55.664,0
1553637274.933,-22.461,29.297,24.902,-74.219,35.156,0
1553637274.937,-24.902,30.762,21.973,-75.684,1.465,0
1553637274.941,-23.438,29.785,25.391,-75.195,23.438,0
1553637274.945,-21.973,32.227,29.785,-68.848,28.320,0
1553637274.949,-17.090,34.180,27.344,-67.871,33.691,0
1553637274.953,-4.883,30.273,28.320,-61.035,50.293,0
1553637274.957,0.977,33.691,22.949,-57.617,43.945,0
1553637274.961,0.488,39.062,20.508,-61.035,54.199,0
1553637274.965,6.836,38.086,26.855,-55.176,50.293,0
1553637274.969,9.766,39.062,28.809,-52.734,104.004,0
1553637274.972,4.395,38.086,28.320,-56.152,102.539,0
1553637274.976,2.441,38.574,29.785,-55.176,90.820,0
1553637274.980,5.859,41.992,33.203,-53.223,74.219,0
1553637274.984,4.395,41.992,34.180,-50.293,25.879,0
1553637274.988,0.488,39.062,32.227,-48.828,36.133,0
1553637274.992,0.000,41.016,31.738,-51.758,-15.625,0
1553637274.996,-5.371,38.574,33.691,-56.152,11.719,0
1553637275.000,-10.254,34.180,35.156,-59.570,30.762,0
1553637275.004,-9.766,36.621,35.156,-58.594,-15.137,0
1553637275.008,-11.719,37.109,33.203,-55.176,-10.254,0
1553637275.011,-16.602,34.180,33.691,-64.453,61.035,0
1553637275.015,-17.578,33.203,34.180,-70.801,51.270,0
1553637275.019,-19.531,33.203,32.715,-66.406,-51.270,0
1553637275.023,-27.344,32.227,28.320,-73.242,-30.762,0
1553637275.027,-30.762,33.691,25.391,-78.125,46.387,0
1553637275.031,-33.203,31.250,24.414,-82.031,1.465,0
1553637275.035,-30.273,32.227,27.344,-82.031,24.902,0
1553637275.039,-26.855,31.250,31.738,-75.195,59.570,0
1553637275.043,-27.344,29.297,33.203,-72.754,2.441,0
1553637275.047,-26.367,29.297,34.180,-71.289,-30.273,0
1553637275.051,-27.832,32.227,30.762,-72.754,38.574,0
1553637275.054,-24.902,34.180,24.902,-73.242,38.086,0
1553637275.058,-20.020,29.297,24.902,-67.383,20.020,0
1553637275.062,-20.508,29.785,24.414,-64.453,45.898,0
1553637275.066,-14.648,34.668,28.320,-57.617,4.395,0
1553637275.070,-11.230,36.621,32.715,-58.594,12.695,0
1553637275.074,-7.324,37.109,27.344,-60.059,-29.297,0
1553637275.078,-3.418,37.598,20.996,-49.316,-16.602,0
1553637275.082,-4.395,38.086,28.320,-46.875,38.574,0
1553637275.086,-3.906,35.645,36.133,-47.852,-6.836,0
1553637275.090,-5.371,34.668,36.133,-49.805,18.555,0
1553637275.094,-5.859,34.180,33.691,-55.664,35.156,0
1553637275.097,-10.254,33.203,33.203,-57.617,28.809,0
1553637275.101,-15.625,36.621,35.156,-57.129,33.203,0
1553637275.105,-16.602,39.062,31.738,-59.570,20.508,0
1553637275.109,-17.578,35.645,31.250,-57.617,37.598,0
1553637275.113,-15.137,38.086,34.180,-53.711,43.457,0
1553637275.117,-13.672,40.527,35.156,-62.500,39.551,0
1553637275.121,-14.160,38.086,34.668,-60.547,105.469,0
1553637275.125,-9.277,37.109,27.344,-56.152,124.512,0
1553637275.129,-10.254,35.645,20.020,-60.547,106.445,0
1553637275.133,-11.230,33.203,26.855,-57.617,71.289,0
1553637275.136,-7.812,34.180,35.156,-55.176,76.172,0
1553637275.140,-5.859,35.645,36.621,-55.176,91.309,0
1553637275.144,-4.883,30.762,35.645,-55.664,71.777,0
1553637275.148,-11.230,30.762,33.203,-58.105,20.996,0
1553637275.152,-17.090,32.715,33.203,-62.500,-14.648,0
1553637275.156,-11.719,20.020,39.551,-47.852,-5.371,0
1553637275.160,-11.230,21.973,39.062,-50.293,-18.066,0
1553637275.164,-15.625,38.574,29.297,-65.918,15.625,0
1553637275.168,-16.602,40.527,22.949,-62.988,42.480,0
1553637275.172,-17.090,34.668,23.438,-59.570,20.020,0
1553637275.176,-13.184,35.645,23.926,-58.105,46.387,0
1553637275.179,-15.137,39.062,20.508,-63.477,31.738,0
1553637275.183,-17.090,39.062,17.090,-63.477,41.504,0
1553637275.187,-10.254,41.504,18.066,-62.500,33.203,0
1553637275.191,-6.348,45.410,16.602,-61.523,-44.434,0
1553637275.195,-4.395,45.410,12.207,-58.105,-29.785,0
1553637275.199,-4.883,43.457,14.160,-59.082,35.645,0
1553637275.203,-11.230,38.574,18.066,-67.383,17.578,0
1553637275.207,-9.766,38.574,20.020,-66.406,35.156,0
1553637275.211,-4.395,41.504,21.484,-60.547,95.703,0
1553637275.215,-6.836,39.062,17.578,-63.477,41.992,0
1553637275.219,-5.859,39.551,18.066,-65.430,0.977,0
1553637275.222,-1.953,40.527,22.461,-67.383,14.648,0
1553637275.226,-2.441,39.551,21.973,-69.336,28.809,0
1553637275.230,3.418,41.016,23.926,-62.988,9.277,0
1553637275.234,9.766,39.551,23.438,-57.617,-12.207,0
1553637275.238,13.184,39.551,21.484,-57.617,2.441,0
1553637275.242,15.137,39.551,26.367,-57.129,55.176,0
1553637275.246,14.648,38.574,28.809,-52.246,65.918,0
1553637275.250,12.695,41.016,25.391,-58.594,62.500,0
1553637275.254,10.742,42.969,26.367,-62.012,27.344,0
1553637275.258,12.207,39.062,30.273,-53.223,-8.789,0
1553637275.261,8.789,38.574,31.738,-52.734,49.316,0
1553637275.265,3.906,40.039,29.297,-57.129,93.750,0
1553637275.269,4.883,38.086,27.344,-57.617,56.152,0
1553637275.273,-0.977,39.062,26.367,-54.199,33.691,0
1553637275.277,-4.883,40.039,28.809,-59.082,3.418,0
1553637275.281,-3.418,39.062,29.785,-62.012,70.312,0
1553637275.285,-2.930,36.621,26.855,-58.594,49.805,0
1553637275.289,-8.301,30.762,25.879,-61.035,-8.301,0
1553637275.293,-14.160,32.715,22.461,-65.430,67.383,0
1553637275.297,-13.184,35.156,25.391,-64.941,38.574,0
1553637275.301,-8.789,33.203,32.715,-64.453,13.184,0
1553637275.304,-7.324,34.180,30.273,-62.012,8.789,0
1553637275.308,-3.418,33.203,29.785,-60.547,-3.418,0
1553637275.312,-3.906,31.738,33.203,-63.965,33.691,0
1553637275.316,-10.742,27.832,30.273,-65.430,24.902,0
1553637275.320,-12.207,27.832,32.227,-64.941,57.129,0
1553637275.324,-5.859,33.691,35.156,-65.430,19.531,0
1553637275.328,-6.836,29.785,32.715,-69.824,-13.672,0
1553637275.332,-4.883,27.344,35.645,-61.523,36.133,0
1553637275.336,0.977,31.250,36.621,-55.176,49.805,0
1553637275.340,3.418,27.832,27.832,-59.570,46.387,0
1553637275.344,5.859,27.832,27.344,-62.988,5.859,0
1553637275.347,5.371,32.227,30.273,-60.547,-40.527,0
1553637275.351,2.441,31.250,27.832,-59.082,-18.555,0
1553637275.355,-4.883,31.250,26.367,-63.965,39.551,0
1553637275.359,-5.859,30.762,27.344,-62.012,18.066,0
1553637275.363,-5.859,32.227,27.832,-60.547,-11.230,0
1553637275.367,-7.324,30.762,25.391,-61.035,11.719,0
1553637275.371,-6.348,23.926,27.344,-59.570,38.574,0
1553637275.375,-8.789,27.344,30.762,-59.082,31.250,0
1553637275.379,-2.441,33.203,24.414,-62.012,55.664,0
1553637275.383,17.578,39.062,16.113,-49.805,74.707,0
1553637275.386,5.371,35.645,22.949,-53.711,15.137,0
1553637275.390,-21.973,27.344,34.180,-73.242,12.207,0
1553637275.394,-17.090,26.855,40.039,-67.383,28.809,0
1553637275.398,-5.859,24.414,45.898,-53.711,61.035,0
1553637275.402,-1.953,19.531,51.270,-41.016,54.688,0
1553637275.406,-1.953,15.137,57.617,-34.180,64.941,0
1553637275.410,-0.488,12.695,63.965,-30.273,64.453,0
1553637275.414,1.465,8.789,68.848,-28.809,69.336,0
1553637275.418,8.301,10.254,70.801,-21.973,69.824,0
1553637275.422,8.789,8.789,73.242,-22.949,107.422,0
1553637275.426,8.789,4.883,80.078,-17.090,64.453,0
1553637275.429,18.066,8.301,81.543,-3.906,33.203,0
1553637275.433,19.043,5.859,81.543,-5.371,33.691,0
1553637275.437,22.949,-0.977,83.496,0.000,0.488,0
1553637275.441,29.297,2.441,87.891,7.812,30.273,0
1553637275.445,30.762,3.418,84.961,-0.977,35.156,0
1553637275.449,28.320,4.395,78.125,-10.742,25.879,0
1553637275.453,19.043,7.812,75.195,-7.812,29.297,0
1553637275.457,13.184,7.324,75.684,-11.719,45.898,0
1553637275.461,13.184,10.254,72.754,-21.973,23.926,0
1553637275.465,10.254,14.160,67.871,-29.785,-24.902,0
1553637275.469,11.230,14.160,65.918,-33.203,-2.441,0
1553637275.472,15.137,11.719,64.453,-28.809,40.527,0
1553637275.476,13.672,12.207,60.059,-26.367,37.598,0
1553637275.480,8.789,13.184,57.129,-29.785,96.680,0
1553637275.484,6.348,14.160,57.617,-31.250,128.418,0
1553637275.488,10.742,20.020,57.129,-30.762,70.312,0
1553637275.492,7.812,20.508,55.664,-39.551,66.895,0
1553637275.496,2.930,14.160,51.758,-42.480,48.340,0
1553637275.500,7.812,14.160,47.852,-37.109,-0.977,0
1553637275.504,12.207,20.996,48.340,-37.598,36.133,0
1553637275.508,17.090,24.902,52.246,-39.062,83.008,0
1553637275.511,14.160,21.973,53.223,-35.645,60.059,0
1553637275.515,3.418,22.461,51.758,-38.574,22.461,0
1553637275.519,4.395,25.391,51.758,-39.551,-33.691,0
1553637275.523,11.719,26.367,48.828,-40.527,1.953,0
1553637275.527,13.672,26.855,46.875,-44.922,101.562,0
1553637275.531,8.789,25.391,46.875,-45.410,105.957,0
1553637275.535,5.859,25.391,47.363,-42.480,76.660,0
1553637275.539,4.883,23.438,44.434,-44.434,32.227,0
1553637275.543,5.371,20.996,42.480,-45.898,-7.812,0
1553637275.547,7.812,23.438,44.434,-46.387,45.898,0
1553637275.551,9.277,29.785,44.922,-39.062,98.145,0
1553637275.554,5.371,32.227,37.109,-40.039,18.555,0
1553637275.558,1.953,28.809,33.691,-45.410,14.648,0
1553637275.562,4.395,30.273,41.016,-43.457,47.852,0
1553637275.566,-4.395,30.762,41.016,-51.758,86.914,0
1553637275.570,-13.184,30.273,39.551,-53.711,75.195,0
1553637275.574,-6.348,29.785,40.527,-48.340,22.461,0
1553637275.578,-1.465,27.344,42.480,-53.223,0.977,0
1553637275.582,0.488,26.855,41.504,-55.664,-11.230,0
1553637275.586,4.883,26.855,38.574,-51.758,1.465,0
1553637275.590,13.184,28.320,40.527,-53.223,29.297,0
1553637275.594,19.043,31.250,39.062,-58.105,-4.395,0
1553637275.597,18.555,33.691,34.180,-54.688,44.922,0
1553637275.601,14.160,27.832,34.668,-50.781,83.984,0
1553637275.605,14.160,26.367,38.574,-53.711,18.066,0
1553637275.609,13.672,29.785,39.062,-54.199,17.090,0
1553637275.613,4.395,29.297,41.504,-48.340,24.414,0
1553637275.617,-3.906,29.297,42.480,-50.293,-46.875,0
1553637275.621,-4.883,28.320,39.062,-56.152,-12.695,0
1553637275.625,-4.883,27.344,39.062,-55.176,69.336,0
1553637275.629,-5.859,29.785,40.039,-57.129,65.430,0
1553637275.633,-7.324,34.668,40.039,-58.594,58.105,0
1553637275.636,-0.977,34.180,37.598,-54.199,47.852,0
1553637275.640,15.625,33.691,34.180,-48.340,36.133,0
1553637275.644,11.719,34.180,36.133,-51.270,12.695,0
1553637275.648,-12.695,28.320,42.969,-64.453,61.523,0
1553637275.652,-14.160,20.508,47.363,-62.500,82.520,0
1553637275.656,-1.953,20.020,47.363,-53.711,21.484,0
1553637275.660,5.859,22.949,45.898,-46.387,19.531,0
1553637275.664,5.859,22.949,47.852,-39.551,-1.953,0
1553637275.668,0.488,19.043,51.270,-41.504,17.578,0
1553637275.672,3.418,18.555,49.316,-41.992,6.348,0
1553637275.676,3.418,21.484,44.922,-41.504,-11.230,0
1553637275.679,7.812,22.949,44.434,-36.133,-3.418,0
1553637275.683,13.672,25.879,43.457,-37.109,9.277,0
1553637275.687,18.066,25.391,48.340,-34.668,45.410,0
1553637275.691,17.578,22.461,50.781,-31.250,50.781,0
1553637275.695,12.207,20.996,44.922,-37.598,11.230,0
1553637275.699,8.301,19.043,41.992,-40.527,-18.066,0
1553637275.703,1.953,20.508,41.992,-47.363,1.953,0
1553637275.707,-3.906,20.996,41.992,-52.246,-14.648,0
1553637275.711,-5.371,22.461,41.992,-50.293,-6.348,0
1553637275.715,-7.324,24.414,39.551,-51.270,72.266,0
1553637275.719,-2.441,24.902,36.621,-53.711,55.664,0
1553637275.722,3.418,26.367,38.574,-52.734,17.578,0
1553637275.726,-1.953,24.414,41.016,-52.246,0.977,0
1553637275.730,-4.883,21.973,38.086,-55.176,3.906,0
1553637275.734,-3.418,23.926,34.180,-62.012,50.293,0
1553637275.738,-2.441,26.855,36.133,-59.570,19.043,0
1553637275.742,-1.953,25.879,38.574,-57.617,4.395,0
1553637275.746,-0.977,27.344,35.645,-65.430,-23.438,0
1553637275.750,-0.488,28.809,30.762,-65.430,-24.414,0
1553637275.754,-3.418,29.297,31.738,-63.477,42.969,0
1553637275.758,-0.488,32.715,37.598,-61.523,70.801,0
1553637275.761,1.953,33.691,38.086,-59.570,60.059,0
1553637275.765,-1.465,33.203,33.691,-58.105,41.016,0
1553637275.769,1.953,34.180,34.180,-54.199,20.020,0
1553637275.773,14.160,34.180,39.062,-47.363,4.883,0
1553637275.777,14.160,31.738,38.086,-43.945,3.418,0
1553637275.781,12.207,31.738,34.668,-41.504,21.973,0
1553637275.785,20.508,33.691,34.180,-33.203,30.273,0
1553637275.789,21.484,34.668,35.156,-32.227,-3.906,0
1553637275.793,19.531,33.203,36.133,-40.039,-23.438,0
1553637275.797,19.043,31.738,34.180,-44.434,-13.672,0
1553637275.801,18.555,32.715,39.062,-42.969,-5.859,0
1553637275.804,20.996,36.133,41.504,-43.945,-0.977,0
1553637275.808,21.973,33.691,38.574,-50.781,-1.465,0
1553637275.812,19.043,32.715,36.133,-59.082,28.320,0
1553637275.816,12.207,33.203,32.227,-64.453,44.434,0
1553637275.820,10.742,31.738,32.715,-63.477,51.270,0
1553637275.824,7.324,31.738,31.250,-64.453,68.359,0
1553637275.828,3.906,31.250,30.762,-67.383,43.945,0
1553637275.832,7.324,31.738,30.273,-69.336,12.695,0
1553637275.836,4.395,30.273,27.832,-69.336,58.594,0
1553637275.840,5.371,31.738,27.344,-64.453,106.934,0
1553637275.844,11.230,32.227,30.273,-62.500,102.051,0
1553637275.847,11.719,33.691,28.809,-58.105,85.938,0
1553637275.851,24.414,36.621,23.926,-39.551,41.016,0
1553637275.855,25.879,32.227,31.250,-32.715,11.719,0
1553637275.859,1.953,21.484,40.039,-53.223,-8.789,0
1553637275.863,-22.461,17.578,42.969,-67.871,47.852,0
1553637275.867,-25.879,28.809,44.434,-73.730,94.238,0
1553637275.871,-40.039,31.250,45.410,-88.867,47.852,0
1553637275.875,-64.453,22.949,47.363,-103.027,27.344,0
1553637275.879,-73.242,19.043,46.875,-112.305,39.551,0
1553637275.883,-81.055,18.066,44.922,-119.141,33.203,0
1553637275.886,-98.145,13.672,48.340,-133.301,49.316,0
1553637275.890,-102.051,7.812,53.223,-135.254,33.691,0
1553637275.894,-98.145,10.742,55.664,-131.348,17.578,0
1553637275.898,-97.168,13.184,56.641,-132.324,25.391,0
1553637275.902,-97.168,8.789,60.547,-131.836,-7.324,0
1553637275.906,-96.191,7.324,62.012,-131.348,34.180,0
1553637275.910,-87.891,6.348,62.012,-125.977,64.941,0
1553637275.914,-91.309,7.324,58.594,-126.465,29.785,0
1553637275.918,-80.566,6.836,53.223,-116.699,32.227,0
1553637275.922,-62.988,8.301,54.199,-102.539,19.531,0
1553637275.926,-62.012,13.184,55.664,-104.004,10.742,0
1553637275.929,-65.430,15.137,53.711,-112.305,88.867,0
1553637275.933,-62.012,17.578,54.199,-104.980,81.055,0
1553637275.937,-52.734,17.090,51.758,-97.656,20.020,0
1553637275.941,-46.875,17.578,48.828,-92.285,42.969,0
1553637275.945,-41.504,20.508,47.852,-85.449,0.977,0
1553637275.949,-39.062,15.625,46.387,-79.590,40.039,0
1553637275.953,-42.969,11.230,44.922,-77.148,108.887,0
1553637275.957,-37.109,16.602,42.969,-80.078,56.152,0
1553637275.961,-22.461,23.438,40.039,-72.754,20.996,0
1553637275.965,-21.973,24.902,40.527,-67.383,45.410,0
1553637275.969,-23.926,24.414,44.434,-66.406,90.820,0
1553637275.972,-15.137,29.785,45.410,-55.664,79.590,0
1553637275.976,-8.301,32.227,43.945,-47.363,5.371,0
1553637275.980,-7.324,28.809,44.922,-49.316,35.645,0
1553637275.984,-3.906,27.344,42.969,-54.199,42.969,0
1553637275.988,-0.977,26.855,42.480,-52.734,51.270,0
1553637275.992,-0.977,27.344,44.922,-48.828,96.191,0
1553637275.996,-5.371,27.344,41.992,-47.852,74.219,0
1553637276.000,-4.883,27.832,39.551,-49.805,18.555,0
1553637276.004,-0.977,25.879,39.062,-54.688,18.066,0
1553637276.008,-1.465,28.320,38.086,-52.246,74.219,0
1553637276.011,-2.441,31.738,34.668,-51.270,84.473,0
1553637276.015,-3.906,29.785,33.203,-54.688,73.242,0
1553637276.019,-3.418,29.785,33.691,-52.734,23.926,0
1553637276.023,-2.441,32.715,33.203,-55.176,7.812,0
1553637276.027,-8.789,28.320,36.133,-57.129,22.949,0
1553637276.031,-8.789,26.367,38.574,-51.758,11.230,0
1553637276.035,-7.812,29.785,38.086,-51.270,43.457,0
1553637276.039,-11.230,13.672,43.945,-44.922,28.320,0
1553637276.043,6.348,-1.465,52.246,-18.066,33.203,0
1553637276.047,22.461,21.973,42.969,-14.648,19.531,0
1553637276.051,9.766,44.434,21.973,-41.504,-50.781,0
1553637276.054,-4.883,38.086,17.578,-53.223,-42.480,0
1553637276.058,4.883,40.039,15.625,-56.641,-15.625,0
1553637276.062,13.672,50.293,8.301,-61.035,22.461,0
1553637276.066,6.836,52.246,3.418,-68.848,38.086,0
1553637276.070,12.207,51.758,-1.465,-70.312,-30.273,0
1553637276.074,22.461,57.617,-11.719,-63.477,-23.926,0
1553637276.078,21.973,62.500,-22.949,-71.289,10.742,0
1553637276.082,26.855,64.453,-27.832,-69.336,59.570,0
1553637276.086,31.250,66.895,-31.738,-67.383,75.684,0
1553637276.090,30.273,72.754,-36.621,-73.242,51.758,0
1553637276.094,34.668,77.637,-40.527,-72.266,91.797,0
1553637276.097,39.062,77.148,-43.457,-71.289,122.070,0
1553637276.101,38.574,78.613,-46.875,-72.754,62.500,0
1553637276.105,37.598,77.637,-50.293,-75.195,32.227,0
1553637276.109,42.969,77.637,-50.781,-67.871,41.504,0
1553637276.113,39.551,81.055,-45.898,-69.824,60.547,0
1553637276.117,38.086,77.637,-41.992,-70.312,61.035,0
1553637276.121,42.480,74.707,-39.551,-60.547,10.254,0
1553637276.125,35.645,73.730,-38.086,-68.848,31.738,0
1553637276.129,33.691,71.777,-37.598,-70.312,23.926,0
1553637276.133,36.133,65.918,-30.762,-64.453,3.418,0
1553637276.136,27.832,63.965,-23.926,-64.941,60.547,0
1553637276.140,27.344,62.500,-21.973,-59.570,62.012,0
1553637276.144,34.180,60.059,-18.066,-54.688,8.789,0
1553637276.148,31.738,60.059,-13.672,-51.270,5.371,0
1553637276.152,22.949,54.688,-11.719,-53.711,62.012,0
1553637276.156,21.973,50.781,-8.301,-56.152,41.504,0
1553637276.160,26.367,52.734,-9.277,-56.641,-10.254,0
1553637276.164,28.809,53.223,-6.836,-57.617,2.441,0
1553637276.168,27.344,49.805,-1.953,-53.711,50.781,0
1553637276.172,25.391,50.293,-2.441,-52.734,42.969,0
1553637276.176,29.785,52.734,1.465,-56.152,1.953,0
1553637276.179,27.344,50.293,2.441,-53.711,13.184,0
1553637276.183,22.949,49.805,-2.930,-56.152,3.418,0
1553637276.187,24.902,50.293,-0.977,-58.105,-5.859,0
1553637276.191,17.090,48.828,4.395,-60.547,6.836,0
1553637276.195,13.184,50.293,4.883,-63.965,62.012,0
1553637276.199,11.230,51.270,4.395,-67.871,55.176,0
1553637276.203,10.254,45.898,6.836,-68.848,40.527,0
1553637276.207,14.160,43.457,11.719,-61.523,32.715,0
1553637276.211,12.695,48.340,14.160,-59.082,24.902,0
1553637276.215,16.113,42.480,16.602,-51.270,-5.859,0
1553637276.219,23.926,34.180,18.555,-45.410,2.930,0
1553637276.222,20.020,42.969,10.742,-59.082,63.965,0
1553637276.226,10.742,51.758,5.371,-74.219,84.961,0
1553637276.230,11.230,53.223,4.883,-74.707,45.410,0
1553637276.234,20.996,53.711,1.465,-61.035,-27.832,0
1553637276.238,20.996,53.711,0.488,-63.965,17.578,0
1553637276.242,21.484,46.387,1.953,-70.312,70.312,0
1553637276.246,25.391,46.875,3.418,-61.035,39.551,0
1553637276.250,19.531,51.270,0.000,-63.965,27.344,0
1553637276.254,18.066,49.316,1.953,-62.500,72.266,0
1553637276.258,17.090,46.875,10.254,-54.688,84.473,0
1553637276.261,15.625,43.457,12.695,-54.199,23.926,0
1553637276.265,19.531,42.969,9.277,-55.664,-34.180,0
1553637276.269,19.043,44.434,8.301,-52.734,6.836,0
1553637276.273,17.578,45.898,10.742,-52.246,66.895,0
1553637276.277,18.555,44.434,12.207,-54.688,56.641,0
1553637276.281,20.508,45.898,13.672,-54.688,8.789,0
1553637276.285,14.648,46.875,13.672,-66.895,8.301,0
1553637276.289,9.766,45.898,18.066,-71.289,64.453,0
1553637276.293,3.418,44.434,19.531,-62.500,87.402,0
1553637276.297,2.930,41.992,21.973,-57.617,36.621,0
1553637276.301,7.812,39.062,23.438,-56.152,0.000,0
1553637276.304,4.883,37.109,21.484,-54.199,-10.254,0
1553637276.308,5.371,40.527,24.414,-50.293,11.719,0
1553637276.312,8.789,39.551,28.809,-49.805,20.508,0
1553637276.316,11.719,38.574,27.832,-44.434,-5.859,0
1553637276.320,15.625,39.551,27.344,-42.480,-5.371,0
1553637276.324,20.508,41.016,27.832,-47.852,29.785,0
1553637276.328,20.996,43.945,27.832,-47.852,38.574,0
1553637276.332,18.066,44.434,26.367,-51.758,57.617,0
1553637276.336,18.066,44.922,21.484,-54.199,95.215,0
1553637276.340,20.020,39.062,21.973,-52.246,49.316,0
1553637276.344,15.625,35.645,21.484,-55.664,39.551,0
1553637276.347,12.695,37.598,18.555,-55.176,101.562,0
1553637276.351,15.137,38.086,25.391,-48.828,100.098,0
1553637276.355,17.090,39.551,28.320,-41.992,58.105,0
1553637276.359,12.695,38.086,27.344,-47.363,45.410,0
1553637276.363,9.766,33.203,31.250,-56.641,17.578,0
1553637276.367,12.695,34.180,32.715,-54.199,45.410,0
1553637276.371,7.324,35.645,29.785,-54.688,37.598,0
1553637276.375,5.371,40.527,29.297,-57.129,20.996,0
1553637276.379,2.441,42.969,26.367,-62.988,35.156,0
1553637276.383,-1.465,40.039,24.414,-66.895,-8.789,0
1553637276.386,1.465,39.062,26.367,-64.941,-27.832,0
1553637276.390,-0.977,36.621,28.809,-63.477,8.301,0
1553637276.394,1.465,35.645,32.227,-60.059,46.875,0
1553637276.398,5.371,37.109,34.180,-55.664,2.441,0
1553637276.402,8.301,36.621,34.180,-50.293,-47.363,0
1553637276.406,8.301,35.645,36.133,-51.270,19.043,0
1553637276.410,5.859,37.598,33.691,-51.758,44.922,0
1553637276.414,5.371,35.156,30.273,-52.246,-4.395,0
1553637276.418,4.395,32.715,33.203,-53.711,48.828,0
1553637276.422,5.371,36.133,34.180,-53.711,17.090,0
1553637276.426,-0.488,35.156,32.227,-56.152,-28.320,0
1553637276.429,-0.977,30.762,30.762,-50.781,48.340,0
1553637276.433,3.418,34.180,29.785,-50.293,39.062,0
1553637276.437,6.348,37.109,30.762,-53.711,-17.578,0
1553637276.441,7.812,36.133,31.738,-50.781,-10.254,0
1553637276.445,1.953,36.621,29.297,-54.688,45.410,0
1553637276.449,3.418,35.645,27.832,-56.152,52.734,0
1553637276.453,5.371,38.574,28.320,-56.641,28.809,0
1553637276.457,2.930,42.480,27.344,-57.617,82.520,0
1553637276.461,13.184,41.504,27.832,-50.293,35.156,0
1553637276.465,14.648,43.457,24.414,-48.340,40.039,0
1553637276.469,7.324,43.457,25.391,-53.223,135.742,0
1553637276.472,12.695,40.039,30.273,-51.270,41.016,0
1553637276.476,8.789,39.551,27.344,-49.805,-21.973,0
1553637276.480,5.371,39.551,26.855,-49.805,72.754,0
1553637276.484,4.395,34.668,29.785,-49.316,48.828,0
1553637276.488,3.418,33.691,27.832,-49.316,6.348,0
1553637276.492,8.789,34.180,31.250,-43.945,25.879,0
1553637276.496,9.766,36.133,32.227,-44.922,14.160,0
1553637276.500,3.906,39.551,27.344,-48.340,12.207,0
1553637276.504,-2.441,34.668,29.297,-56.641,54.199,0
1553637276.508,-1.953,34.180,30.273,-62.988,79.102,0
1553637276.511,1.465,40.527,24.902,-68.359,69.336,0
1553637276.515,6.348,39.062,24.414,-75.195,63.477,0
1553637276.519,6.836,35.156,23.926,-69.824,9.277,0
1553637276.523,12.207,38.086,26.367,-66.895,32.715,0
1553637276.527,21.973,40.527,33.691,-57.129,83.008,0
1553637276.531,11.230,36.621,35.156,-53.223,43.945,0
1553637276.535,-3.418,30.273,36.621,-52.734,35.645,0
1553637276.539,-5.859,29.785,38.574,-46.875,71.289,0
1553637276.543,-3.418,35.645,32.715,-48.828,125.977,0
1553637276.547,-4.883,35.156,27.832,-47.852,139.160,0
1553637276.551,-7.812,31.738,31.250,-48.340,92.285,0
1553637276.554,-2.930,36.133,31.738,-53.223,26.367,0
1553637276.558,1.465,35.156,33.203,-53.711,-22.949,0
1553637276.562,5.859,37.598,33.691,-48.340,24.902,0
1553637276.566,11.230,40.527,32.715,-44.434,60.059,0
1553637276.570,6.348,35.156,30.762,-46.387,75.684,0
1553637276.574,4.395,35.156,28.320,-49.805,90.332,0
1553637276.578,10.742,41.504,24.902,-47.363,12.695,0
1553637276.582,17.578,41.992,25.879,-39.062,-17.578,0
1553637276.586,4.883,32.227,37.598,-47.363,48.340,0
1553637276.590,-13.184,27.832,50.293,-58.105,83.496,0
1553637276.594,-9.766,26.367,47.363,-50.293,67.383,0
1553637276.597,-9.277,24.902,42.480,-49.805,44.922,0
1553637276.601,-11.230,22.949,46.387,-48.828,19.531,0
1553637276.605,-4.395,22.949,51.270,-46.387,-4.395,0
1553637276.609,-5.371,25.391,50.781,-56.641,-5.859,0
1553637276.613,-13.672,26.367,46.875,-58.594,17.090,0
1553637276.617,-12.207,28.320,44.434,-55.176,54.199,0
1553637276.621,-8.301,26.855,44.434,-51.758,102.539,0
1553637276.625,-7.324,23.926,42.480,-45.898,43.945,0
1553637276.629,-3.906,25.391,39.062,-39.062,17.090,0
1553637276.633,-2.441,23.926,41.504,-41.016,17.090,0
1553637276.636,-0.488,22.461,42.480,-42.480,9.766,0
1553637276.640,-0.977,24.414,41.504,-41.992,71.289,0
1553637276.644,0.488,21.973,44.434,-41.016,33.691,0
1553637276.648,1.465,20.996,43.945,-43.457,46.387,0
1553637276.652,1.953,22.949,38.574,-47.852,92.285,0
1553637276.656,-0.977,23.438,40.527,-46.875,41.504,0
1553637276.660,1.465,26.855,41.016,-49.316,22.461,0
1553637276.664,3.906,29.785,38.574,-50.293,16.113,0
1553637276.668,3.906,27.832,36.621,-47.852,3.906,0
1553637276.672,4.395,27.832,36.133,-49.805,50.293,0
1553637276.676,0.000,33.691,32.715,-54.688,34.180,0
1553637276.679,-2.441,35.156,31.738,-54.199,33.203,0
1553637276.683,-3.418,28.320,34.668,-49.316,122.070,0
1553637276.687,-2.441,31.738,33.203,-49.805,122.559,0
1553637276.691,3.906,34.180,33.203,-50.293,71.289,0
1553637276.695,6.348,30.273,31.250,-47.852,22.461,0
1553637276.699,10.254,35.156,34.668,-43.457,31.738,0
1553637276.703,11.719,36.133,37.109,-46.875,35.156,0
1553637276.707,5.859,30.762,31.738,-58.105,20.020,0
1553637276.711,4.883,29.297,30.273,-57.129,-21.973,0
1553637276.715,3.418,28.809,30.273,-51.758,-24.902,0
1553637276.719,4.395,30.273,28.320,-49.805,55.176,0
1553637276.722,7.324,30.273,25.391,-48.828,59.570,0
1553637276.726,3.418,27.832,27.344,-48.828,-0.977,0
1553637276.730,5.371,28.320,30.762,-46.387,32.715,0
1553637276.734,8.789,27.344,33.691,-41.992,57.129,0
1553637276.738,8.301,30.762,34.668,-41.992,7.812,0
1553637276.742,9.766,38.086,36.621,-41.016,30.273,0
1553637276.746,10.742,34.668,36.621,-39.062,25.879,0
1553637276.750,11.719,33.203,33.691,-45.410,3.418,0
1553637276.754,9.766,36.133,32.715,-47.363,30.762,0
1553637276.758,10.742,33.691,33.203,-43.945,44.922,0
1553637276.761,9.277,32.227,31.250,-45.898,6.836,0
1553637276.765,3.418,31.738,28.809,-42.969,-1.953,0
1553637276.769,4.395,31.250,29.297,-40.527,15.625,0
1553637276.773,0.977,29.785,29.785,-44.922,31.250,0
1553637276.777,-3.418,27.832,30.273,-47.363,32.227,0
1553637276.781,0.000,28.320,31.250,-45.898,64.453,0
1553637276.785,0.488,31.738,33.203,-41.016,66.895,0
1553637276.789,-1.953,29.785,31.738,-42.480,95.703,0
1553637276.793,1.953,27.832,28.809,-43.457,102.539,0
1553637276.797,1.953,27.832,33.203,-41.992,82.031,0
1553637276.801,-0.488,27.344,35.645,-43.945,74.707,0
1553637276.804,-0.488,29.785,34.668,-45.410,3.906,0
1553637276.808,2.441,34.180,34.668,-44.434,42.480,0
1553637276.812,2.930,32.227,34.180,-41.016,94.727,0
1553637276.816,15.625,22.949,37.598,-23.438,16.602,0
1553637276.820,21.484,26.367,37.109,-20.996,0.000,0
1553637276.824,1.465,37.598,29.785,-51.758,-23.926,0
1553637276.828,-0.488,41.992,25.391,-58.594,-15.137,0
1553637276.832,4.883,45.410,24.902,-50.293,78.125,0
1553637276.836,8.301,45.898,23.926,-46.875,51.758,0
1553637276.840,8.301,43.945,20.020,-47.363,9.766,0
1553637276.844,5.371,42.480,15.625,-48.828,31.250,0
1553637276.847,7.324,41.016,13.184,-41.992,20.996,0
1553637276.851,9.766,39.551,14.160,-40.527,29.785,0
1553637276.855,8.789,39.551,13.184,-41.992,104.492,0
1553637276.859,8.301,41.992,14.160,-38.574,80.078,0
1553637276.863,12.695,42.969,17.578,-39.062,-18.066,0
