timestamps,TP9,AF7,AF8,TP10,Right AUX,Marker0
1553634446.127,-77.148,77.637,11.230,-83.008,52.734,0
1553634446.131,-58.105,74.707,15.137,-69.824,23.438,0
1553634446.135,-57.617,68.848,16.602,-66.895,66.895,0
1553634446.139,-37.598,68.848,15.625,-48.828,61.035,0
1553634446.143,-20.020,65.918,16.113,-30.273,-7.812,0
1553634446.147,-17.090,56.152,15.625,-32.715,-8.789,0
1553634446.151,6.348,57.129,14.160,-17.578,50.293,0
1553634446.155,24.414,57.617,15.625,-2.441,48.340,0
1553634446.158,20.020,43.945,16.602,-11.230,29.785,0
1553634446.162,26.367,39.062,17.578,-1.465,32.715,0
1553634446.166,22.949,49.316,17.090,6.836,60.059,0
1553634446.170,30.273,50.293,19.043,14.648,30.762,0
1553634446.174,41.992,44.922,21.973,23.438,-27.344,0
1553634446.178,52.246,37.109,22.949,35.645,3.906,0
1553634446.182,56.641,22.949,25.879,48.340,0.000,0
1553634446.186,51.270,26.367,27.832,58.594,11.719,0
1553634446.190,54.688,42.480,22.461,45.898,1.953,0
1553634446.194,60.059,42.969,18.066,44.922,-14.648,0
1553634446.197,69.824,37.109,21.973,56.152,-22.461,0
1553634446.201,80.078,36.133,25.879,52.246,-40.039,0
1553634446.205,84.961,34.180,25.391,52.734,-25.879,0
1553634446.209,93.750,29.297,26.367,53.711,-18.066,0
1553634446.213,89.355,30.273,27.832,63.477,1.953,0
1553634446.217,75.195,27.832,30.273,70.801,0.000,0
1553634446.221,61.035,24.902,30.762,72.754,37.109,0
1553634446.225,52.246,25.391,30.273,71.289,24.414,0
1553634446.229,62.012,21.484,29.297,60.547,-2.930,0
1553634446.233,57.129,20.508,31.250,62.988,36.621,0
1553634446.237,56.152,22.949,34.180,60.059,40.039,0
1553634446.240,67.871,23.926,36.133,52.246,36.133,0
1553634446.244,67.871,25.879,34.180,59.082,32.227,0
1553634446.248,58.594,23.438,32.227,59.082,33.691,0
1553634446.252,71.289,18.066,32.227,55.176,45.898,0
1553634446.256,90.332,18.066,33.203,66.406,25.879,0
1553634446.260,72.266,20.508,36.621,64.941,14.648,0
1553634446.264,77.148,21.484,38.574,61.523,42.969,0
1553634446.268,82.031,22.949,39.062,65.918,29.297,0
1553634446.272,72.266,22.949,39.062,70.312,-27.344,0
1553634446.276,78.125,20.996,39.551,60.059,-0.488,0
1553634446.280,69.824,19.043,41.016,54.688,20.996,0
1553634446.283,74.707,17.578,40.527,59.570,-11.719,0
1553634446.287,87.891,16.113,39.551,57.129,8.301,0
1553634446.291,78.613,13.184,37.598,65.918,54.199,0
1553634446.295,70.312,19.531,37.598,70.312,7.812,0
1553634446.299,78.613,22.949,40.527,64.453,-12.695,0
1553634446.303,91.309,22.461,39.062,62.988,24.902,0
1553634446.307,83.984,20.508,40.039,57.129,40.039,0
1553634446.311,88.867,17.090,41.992,51.270,46.387,0
1553634446.315,90.820,21.484,39.551,52.246,55.176,0
1553634446.319,75.195,19.531,38.574,57.617,38.086,0
1553634446.322,72.754,16.113,42.480,55.664,7.812,0
1553634446.326,72.266,16.602,43.457,52.734,-6.348,0
1553634446.330,77.637,16.113,41.992,57.617,48.340,0
1553634446.334,67.871,16.602,41.504,59.570,91.797,0
1553634446.338,55.176,15.137,42.969,41.016,84.473,0
1553634446.342,47.852,17.578,44.922,30.273,17.578,0
1553634446.346,62.500,21.484,41.016,38.086,16.602,0
1553634446.350,59.082,18.066,44.922,38.086,63.477,0
1553634446.354,53.711,18.555,54.199,49.805,38.574,0
1553634446.358,62.500,22.461,54.688,51.758,44.922,0
1553634446.362,62.012,19.531,54.199,47.363,-0.977,0
1553634446.365,47.852,18.555,44.922,25.879,-25.879,0
1553634446.369,51.758,26.855,48.828,16.113,51.758,0
1553634446.373,64.453,31.250,59.082,35.156,56.152,0
1553634446.377,16.602,31.250,48.828,12.695,43.945,0
1553634446.381,12.695,35.156,43.457,-5.859,6.836,0
1553634446.385,28.809,44.922,42.480,5.859,-14.160,0
1553634446.389,0.000,52.734,45.898,-9.766,42.480,0
1553634446.393,-58.105,48.340,48.340,-62.500,70.312,0
1553634446.397,-76.660,60.059,40.527,-80.566,54.688,0
1553634446.401,-80.078,65.918,42.480,-88.379,16.113,0
1553634446.405,-102.051,59.570,49.316,-104.492,-26.855,0
1553634446.408,-126.465,64.453,54.688,-124.023,19.531,0
1553634446.412,-160.645,64.941,59.082,-144.531,29.297,0
1553634446.416,-157.227,62.500,63.477,-151.855,-15.137,0
1553634446.420,-142.090,54.688,70.801,-145.020,37.109,0
1553634446.424,-130.859,51.758,70.312,-136.230,69.336,0
1553634446.428,-133.301,50.781,70.312,-135.254,63.477,0
1553634446.432,-127.930,50.293,72.266,-119.141,63.477,0
1553634446.436,-108.887,47.852,73.242,-112.793,8.789,0
1553634446.440,-109.375,43.457,72.754,-115.723,25.391,0
1553634446.444,-106.445,43.457,73.730,-92.773,43.945,0
1553634446.447,-102.051,35.645,73.730,-65.430,10.742,0
1553634446.451,-61.523,30.273,64.941,-51.270,16.602,0
1553634446.455,-41.016,27.832,61.523,-42.969,-0.488,0
1553634446.459,-44.922,26.367,57.129,-34.668,30.273,0
1553634446.463,-29.785,25.391,46.387,-19.531,51.758,0
1553634446.467,-20.508,24.414,39.551,-17.090,64.941,0
1553634446.471,-4.395,24.414,35.645,7.324,47.363,0
1553634446.475,12.207,28.809,27.832,24.902,7.324,0
1553634446.479,39.551,32.715,16.113,12.695,18.555,0
1553634446.483,43.945,30.762,15.137,25.391,76.172,0
1553634446.487,34.180,30.273,17.090,37.109,50.781,0
1553634446.490,39.551,28.320,16.113,43.945,20.020,0
1553634446.494,50.293,25.879,13.184,60.547,26.855,0
1553634446.498,67.383,22.949,9.277,62.012,-16.602,0
1553634446.502,69.824,17.090,13.184,72.754,-5.371,0
1553634446.506,52.734,13.184,12.695,78.613,101.074,0
1553634446.510,62.012,11.719,10.742,81.055,80.078,0
1553634446.514,88.867,14.648,17.578,77.148,65.918,0
1553634446.518,79.590,20.996,17.578,83.496,83.984,0
1553634446.522,87.402,12.695,17.578,84.473,20.996,0
1553634446.526,96.191,-0.488,20.996,82.031,35.156,0
1553634446.530,76.660,12.207,19.043,93.750,28.320,0
1553634446.533,83.008,23.438,20.508,91.309,17.090,0
1553634446.537,97.656,17.090,23.926,92.773,74.707,0
1553634446.541,106.445,12.207,22.461,104.980,57.129,0
1553634446.545,102.539,11.719,22.949,115.723,32.715,0
1553634446.549,98.633,9.766,24.414,104.004,15.137,0
1553634446.553,106.934,9.277,23.438,92.773,-11.230,0
1553634446.557,108.398,10.742,23.926,98.145,31.738,0
1553634446.561,91.309,7.324,24.414,97.656,56.152,0
1553634446.565,89.844,2.441,25.391,98.633,52.734,0
1553634446.569,90.332,4.395,26.855,103.516,7.812,0
1553634446.572,84.473,8.789,27.344,95.215,15.137,0
1553634446.576,95.703,6.836,27.832,87.891,58.594,0
1553634446.580,103.516,3.906,30.273,89.844,16.113,0
1553634446.584,88.379,4.395,32.227,97.168,9.277,0
1553634446.588,77.148,3.418,34.668,101.562,26.855,0
1553634446.592,96.680,3.418,33.691,95.703,62.988,0
1553634446.596,108.887,2.441,32.227,90.332,65.918,0
1553634446.600,78.125,-3.418,35.156,78.613,-20.020,0
1553634446.604,75.195,-5.859,38.086,88.867,-35.156,0
1553634446.608,97.656,-2.441,39.551,104.492,18.066,0
1553634446.612,85.449,-2.930,37.598,86.914,65.430,0
1553634446.615,94.727,-4.395,35.156,75.684,51.758,0
1553634446.619,103.027,-3.418,38.086,97.656,32.715,0
1553634446.623,83.008,0.488,41.504,99.121,10.742,0
1553634446.627,93.262,4.883,39.551,85.449,9.277,0
1553634446.631,112.793,5.371,39.551,82.520,-7.812,0
1553634446.635,91.309,4.395,43.945,78.125,18.555,0
1553634446.639,70.801,0.977,44.434,84.961,26.855,0
1553634446.643,75.684,-3.906,42.969,95.703,-29.785,0
1553634446.647,81.055,-1.953,44.434,105.957,20.996,0
1553634446.651,83.984,6.836,42.969,113.770,60.547,0
1553634446.655,94.727,11.230,40.527,94.238,12.695,0
1553634446.658,80.566,9.277,41.016,75.195,19.531,0
1553634446.662,67.383,8.789,36.133,81.055,23.926,0
1553634446.666,70.312,8.789,36.621,79.590,35.156,0
1553634446.670,71.289,8.301,41.016,71.289,52.246,0
1553634446.674,78.125,6.348,41.992,77.148,-12.207,0
1553634446.678,76.660,7.812,40.527,72.266,34.180,0
1553634446.682,64.941,6.348,41.504,79.590,70.801,0
1553634446.686,62.500,6.348,43.945,88.867,31.250,0
1553634446.690,65.430,10.254,42.969,76.660,25.879,0
1553634446.694,76.172,8.789,41.504,75.195,9.277,0
1553634446.697,65.430,7.812,41.992,90.820,9.766,0
1553634446.701,63.477,6.348,45.410,92.285,66.895,0
1553634446.705,75.684,7.812,45.898,74.707,13.184,0
1553634446.709,62.012,12.695,45.410,59.570,17.578,0
1553634446.713,69.336,9.277,44.922,67.383,65.918,0
1553634446.717,81.543,7.324,44.434,89.355,62.500,0
1553634446.721,68.848,17.578,43.945,84.473,22.461,0
1553634446.725,36.621,21.484,41.504,39.551,33.203,0
1553634446.729,40.039,20.020,36.133,23.438,69.824,0
1553634446.733,58.105,26.855,32.715,43.945,83.008,0
1553634446.737,49.805,30.762,31.738,23.926,77.148,0
1553634446.740,22.949,27.832,32.715,13.184,58.105,0
1553634446.744,21.973,33.691,33.691,21.484,69.336,0
1553634446.748,24.902,36.621,29.785,20.508,60.059,0
1553634446.752,34.668,31.250,28.320,37.109,36.621,0
1553634446.756,17.578,32.227,31.738,24.414,4.395,0
1553634446.760,-9.766,33.203,26.367,-6.836,26.367,0
1553634446.764,25.391,33.691,20.508,13.672,20.508,0
1553634446.768,17.578,36.133,21.973,12.207,-25.879,0
1553634446.772,0.000,35.645,26.855,3.418,79.590,0
1553634446.776,17.090,37.109,22.949,15.137,84.473,0
1553634446.780,35.645,35.645,20.996,23.926,-21.484,0
1553634446.783,37.598,33.203,25.391,23.926,12.207,0
1553634446.787,33.203,30.273,24.902,17.090,81.543,0
1553634446.791,32.227,27.832,28.809,30.273,60.059,0
1553634446.795,33.203,27.832,32.715,55.176,15.137,0
1553634446.799,44.434,28.320,33.691,51.758,1.465,0
1553634446.803,42.969,26.367,34.180,44.434,1.953,0
1553634446.807,50.293,23.926,31.738,47.363,45.898,0
1553634446.811,42.969,22.949,28.809,38.086,41.992,0
1553634446.815,37.598,23.926,29.785,37.598,23.926,0
1553634446.819,52.246,27.344,27.832,48.340,41.992,0
1553634446.822,59.570,24.414,27.832,30.762,18.555,0
1553634446.826,47.852,20.020,32.715,30.762,-11.719,0
1553634446.830,27.832,18.555,33.203,53.223,-42.969,0
1553634446.834,40.039,18.066,32.227,43.945,1.465,0
1553634446.838,32.715,20.508,33.203,41.504,45.898,0
1553634446.842,22.461,19.043,34.668,53.223,55.664,0
1553634446.846,38.574,20.508,34.668,48.340,71.289,0
1553634446.850,40.527,20.508,33.691,49.316,41.504,0
1553634446.854,44.922,16.602,34.180,53.711,-1.465,0
1553634446.858,48.340,16.113,34.180,47.852,18.066,0
1553634446.862,22.949,19.531,32.227,38.574,45.410,0
1553634446.865,35.645,23.438,32.227,35.156,19.531,0
1553634446.869,37.598,22.949,35.156,32.227,24.902,0
1553634446.873,22.461,22.949,33.691,36.621,64.941,0
1553634446.877,36.621,23.438,36.133,52.246,27.832,0
1553634446.881,35.156,23.438,38.086,48.828,12.207,0
1553634446.885,28.809,22.949,35.645,32.227,26.855,0
1553634446.889,18.066,20.996,34.180,31.738,21.973,0
1553634446.893,29.785,19.043,33.691,43.457,-0.488,0
1553634446.897,24.902,18.555,33.203,39.062,69.336,0
1553634446.901,10.254,22.461,35.645,43.457,44.434,0
1553634446.905,42.480,28.809,36.621,35.645,-2.930,0
1553634446.908,45.898,30.762,37.109,31.738,13.672,0
1553634446.912,23.926,26.855,36.133,30.273,-36.621,0
1553634446.916,29.297,26.855,35.645,20.996,-28.809,0
1553634446.920,32.227,23.438,33.203,18.066,9.277,0
1553634446.924,36.621,20.996,32.227,11.719,40.039,0
1553634446.928,24.414,23.438,34.180,11.719,-9.766,0
1553634446.932,26.367,25.391,32.227,16.602,-2.441,0
1553634446.936,42.480,25.879,33.203,18.555,31.250,0
1553634446.940,35.645,25.879,34.668,19.043,41.992,0
1553634446.944,28.809,27.344,35.156,26.367,22.949,0
1553634446.947,32.715,26.855,36.133,28.809,2.930,0
1553634446.951,47.363,27.344,37.598,33.203,60.547,0
1553634446.955,64.453,31.250,37.598,42.480,51.270,0
1553634446.959,46.875,28.809,37.598,21.484,13.672,0
1553634446.963,37.598,23.926,38.086,11.230,-17.090,0
1553634446.967,45.410,26.855,37.598,23.438,-24.414,0
1553634446.971,43.457,28.809,35.645,10.254,-11.230,0
1553634446.975,37.598,27.344,35.645,11.230,-27.344,0
1553634446.979,22.461,27.832,37.109,22.949,-1.465,0
1553634446.983,25.391,27.832,37.598,10.254,18.555,0
1553634446.987,31.250,25.879,37.598,4.883,12.207,0
1553634446.990,21.973,27.344,37.109,12.695,40.039,0
1553634446.994,32.715,24.902,39.062,27.344,5.371,0
1553634446.998,40.039,28.320,38.574,24.902,27.344,0
1553634447.002,32.227,32.227,36.621,20.508,111.816,0
1553634447.006,31.250,29.785,37.109,27.344,53.223,0
1553634447.010,42.480,31.250,36.133,22.949,11.230,0
1553634447.014,56.641,31.250,37.598,17.090,15.137,0
1553634447.018,52.246,26.367,40.039,18.555,9.766,0
1553634447.022,54.199,26.855,39.551,20.020,45.898,0
1553634447.026,50.781,29.297,39.551,21.973,36.133,0
1553634447.030,51.758,31.250,41.016,25.879,48.340,0
1553634447.033,53.223,33.691,39.551,24.902,57.617,0
1553634447.037,38.574,33.203,36.621,24.414,33.203,0
1553634447.041,39.062,31.738,38.574,16.602,24.414,0
1553634447.045,36.621,28.809,42.480,9.766,19.531,0
1553634447.049,31.250,28.320,41.504,23.438,18.555,0
1553634447.053,42.480,28.320,39.062,18.066,-14.648,0
1553634447.057,45.410,25.879,38.086,10.254,43.457,0
1553634447.061,35.645,24.414,34.668,23.438,116.699,0
1553634447.065,37.109,23.438,35.645,21.973,79.590,0
1553634447.069,39.551,26.367,39.551,22.461,38.086,0
1553634447.072,43.457,28.809,39.551,19.043,43.457,0
1553634447.076,46.875,26.855,39.062,18.066,68.848,0
1553634447.080,39.551,26.855,40.039,23.438,99.609,0
1553634447.084,52.734,22.949,41.016,42.969,51.270,0
1553634447.088,54.688,22.949,40.527,40.039,-6.348,0
1553634447.092,47.363,24.414,39.551,30.762,35.156,0
1553634447.096,48.828,12.695,44.434,36.133,51.270,0
1553634447.100,43.945,14.648,45.410,34.668,31.250,0
1553634447.104,47.852,27.832,42.480,37.598,45.898,0
1553634447.108,56.152,30.273,44.434,34.668,51.270,0
1553634447.112,56.641,27.344,43.457,36.621,47.852,0
1553634447.115,48.828,27.832,42.969,34.180,54.199,0
1553634447.119,40.039,26.367,40.527,35.645,27.344,0
1553634447.123,33.691,20.508,40.039,31.738,-21.484,0
1553634447.127,47.363,20.996,39.062,22.461,-10.742,0
1553634447.131,53.223,22.949,36.621,30.762,19.043,0
1553634447.135,41.992,21.484,39.062,31.738,18.066,0
1553634447.139,48.828,20.508,39.551,25.391,41.992,0
1553634447.143,53.711,19.043,39.062,27.832,86.426,0
1553634447.147,54.199,19.043,38.574,25.879,73.730,0
1553634447.151,55.664,16.113,38.086,24.414,28.320,0
1553634447.155,41.016,14.648,39.062,36.621,-18.555,0
1553634447.158,43.457,19.043,37.109,37.109,-1.465,0
1553634447.162,40.039,15.625,36.133,28.320,22.461,0
1553634447.166,32.227,12.695,34.668,30.762,31.250,0
1553634447.170,46.875,10.254,35.645,31.738,59.570,0
1553634447.174,49.316,7.812,39.551,32.227,45.898,0
1553634447.178,41.504,10.742,40.039,30.762,-13.184,0
1553634447.182,32.715,11.230,38.086,23.438,11.719,0
1553634447.186,42.969,8.301,38.086,31.250,90.332,0
1553634447.190,52.734,7.324,38.086,28.320,41.504,0
1553634447.194,46.875,10.254,37.598,34.180,-1.953,0
1553634447.197,45.410,12.207,36.621,43.945,18.555,0
1553634447.201,45.410,11.230,37.109,35.645,13.184,0
1553634447.205,50.293,3.906,37.109,39.062,39.062,0
1553634447.209,46.387,7.324,37.598,35.156,66.406,0
1553634447.213,36.133,17.090,37.109,30.273,-7.812,0
1553634447.217,48.340,17.090,37.598,39.062,-41.992,0
1553634447.221,41.016,15.137,39.062,38.574,13.184,0
1553634447.225,24.902,9.277,36.133,32.227,31.738,0
1553634447.229,31.738,9.277,36.621,26.367,27.832,0
1553634447.233,39.062,14.648,38.086,30.273,42.969,0
1553634447.237,41.504,16.113,38.086,34.668,6.348,0
1553634447.240,35.156,14.160,36.133,33.691,-33.691,0
1553634447.244,29.785,8.789,34.180,28.320,44.922,0
1553634447.248,41.992,11.230,34.180,28.809,89.844,0
1553634447.252,49.805,15.137,36.133,35.156,79.590,0
1553634447.256,46.387,17.578,35.156,36.621,67.871,0
1553634447.260,37.598,16.602,35.645,37.598,65.430,0
1553634447.264,31.250,15.137,37.109,36.621,79.102,0
1553634447.268,47.852,17.578,37.109,40.039,71.777,0
1553634447.272,31.738,16.113,38.086,33.203,49.805,0
1553634447.276,26.855,13.672,38.086,32.227,16.113,0
1553634447.280,37.598,11.719,38.574,46.387,26.367,0
1553634447.283,30.273,10.254,37.598,41.992,82.520,0
1553634447.287,36.621,17.090,37.598,30.762,82.031,0
1553634447.291,31.738,21.973,38.086,18.555,69.824,0
1553634447.295,32.227,21.973,35.645,25.879,41.504,0
1553634447.299,52.734,24.414,36.621,34.180,-3.418,0
1553634447.303,50.293,22.949,33.203,30.273,-29.297,0
1553634447.307,25.879,17.090,31.250,30.762,-1.953,0
1553634447.311,28.320,19.043,33.691,34.668,111.328,0
1553634447.315,33.203,22.461,34.180,31.738,120.117,0
1553634447.319,22.949,21.484,33.203,28.320,42.969,0
1553634447.322,39.551,19.043,34.180,33.203,53.711,0
1553634447.326,51.270,23.438,36.621,35.645,112.793,0
1553634447.330,35.645,29.297,38.574,28.809,112.305,0
1553634447.334,30.273,23.926,34.668,29.785,42.480,0
1553634447.338,23.926,16.602,31.250,32.715,40.039,0
1553634447.342,22.949,19.043,37.598,39.062,32.227,0
1553634447.346,30.762,22.461,41.504,37.598,20.020,0
1553634447.350,31.250,23.438,41.016,28.809,55.664,0
1553634447.354,42.969,27.832,39.062,26.855,41.504,0
1553634447.358,26.367,28.320,37.109,28.320,49.805,0
1553634447.362,24.414,21.484,39.551,25.879,6.348,0
1553634447.365,27.832,19.043,38.574,25.391,4.395,0
1553634447.369,24.902,23.438,34.668,19.531,8.789,0
1553634447.373,28.809,26.367,34.180,15.137,12.207,0
1553634447.377,23.926,26.367,35.156,17.578,46.875,0
1553634447.381,38.086,20.996,37.598,19.043,0.000,0
1553634447.385,44.922,18.555,37.109,23.926,-0.488,0
1553634447.389,30.273,21.973,34.180,27.344,22.949,0
1553634447.393,20.508,17.578,35.645,25.879,-10.742,0
1553634447.397,26.367,20.020,39.551,28.320,30.273,0
1553634447.401,27.344,25.391,38.574,37.598,14.648,0
1553634447.405,33.203,30.762,34.180,33.691,-41.504,0
1553634447.408,39.551,35.645,33.203,20.996,-25.391,0
1553634447.412,35.156,32.227,37.598,27.344,-6.836,0
1553634447.416,23.438,32.227,40.527,30.762,41.992,0
1553634447.420,24.414,30.273,41.016,24.902,23.438,0
1553634447.424,41.504,26.855,41.016,27.832,-7.324,0
1553634447.428,50.293,20.020,38.574,36.133,-18.066,0
1553634447.432,45.898,16.113,38.574,31.250,9.277,0
1553634447.436,34.180,29.785,37.109,23.926,39.062,0
1553634447.440,31.250,34.180,36.621,23.926,-2.441,0
1553634447.444,28.809,24.902,37.109,24.902,-9.766,0
1553634447.447,27.832,18.555,36.133,34.668,2.930,0
1553634447.451,34.668,13.672,38.574,30.762,-6.348,0
1553634447.455,38.574,14.160,42.480,25.879,-27.344,0
1553634447.459,27.832,26.367,41.016,28.809,33.203,0
1553634447.463,28.320,35.645,38.574,25.391,97.168,0
1553634447.467,28.809,33.203,41.016,17.090,34.180,0
1553634447.471,36.133,32.227,41.504,28.809,29.297,0
1553634447.475,46.387,34.668,41.016,40.527,71.777,0
1553634447.479,37.109,32.227,44.434,34.668,63.477,0
1553634447.483,41.504,24.414,44.922,31.738,36.133,0
1553634447.487,39.062,21.973,41.016,32.715,57.129,0
1553634447.490,32.715,21.973,40.039,35.156,96.680,0
1553634447.494,33.691,19.531,41.016,33.691,80.078,0
1553634447.498,38.086,16.113,39.062,28.809,0.977,0
1553634447.502,41.504,18.555,40.527,30.762,16.602,0
1553634447.506,41.992,20.020,45.410,30.762,104.980,0
1553634447.510,41.016,20.508,46.875,33.203,52.246,0
1553634447.514,49.805,21.973,45.410,41.016,-10.742,0
1553634447.518,40.527,21.484,43.945,37.109,-8.301,0
1553634447.522,39.551,21.973,45.410,33.203,-6.836,0
1553634447.526,46.387,21.973,44.922,41.992,-2.930,0
1553634447.530,44.922,21.484,43.945,45.898,24.902,0
1553634447.533,48.340,20.996,44.922,39.551,40.039,0
1553634447.537,39.062,23.926,41.016,33.691,97.656,0
1553634447.541,42.480,24.414,37.598,30.762,62.012,0
1553634447.545,40.039,20.508,41.504,33.203,-47.363,0
1553634447.549,23.438,20.020,41.016,37.109,22.949,0
1553634447.553,41.016,20.508,37.598,34.180,54.688,0
1553634447.557,47.852,22.461,38.574,31.738,40.527,0
1553634447.561,26.855,22.461,39.062,24.902,38.574,0
1553634447.565,28.809,17.578,38.086,20.996,40.527,0
1553634447.569,37.598,19.043,36.621,26.367,56.641,0
1553634447.572,40.039,18.066,41.016,30.273,43.945,0
1553634447.576,34.668,19.531,41.992,32.227,9.277,0
1553634447.580,41.504,22.461,37.598,26.367,0.488,0
1553634447.584,45.898,22.461,35.156,29.785,10.254,0
1553634447.588,41.016,23.926,34.180,29.785,-14.648,0
1553634447.592,31.738,22.461,35.645,24.902,1.465,0
1553634447.596,31.738,22.949,35.156,25.879,3.418,0
1553634447.600,32.715,20.020,39.551,28.320,10.254,0
1553634447.604,23.926,17.090,41.016,19.531,33.203,0
1553634447.608,36.133,20.996,37.598,13.672,62.988,0
1553634447.612,42.480,21.973,38.086,21.484,32.715,0
1553634447.615,24.414,21.973,36.621,25.391,6.348,0
1553634447.619,27.832,23.926,37.598,26.855,-40.527,0
1553634447.623,41.992,21.973,39.062,29.297,-53.711,0
1553634447.627,30.273,21.484,35.156,25.879,40.039,0
1553634447.631,19.531,24.414,32.715,25.391,48.340,0
1553634447.635,24.414,25.391,36.621,21.484,22.949,0
1553634447.639,41.504,25.879,36.133,26.367,-2.930,0
1553634447.643,36.133,24.902,36.133,25.879,-8.301,0
1553634447.647,28.809,22.949,34.668,20.508,88.379,0
1553634447.651,44.922,24.902,34.180,31.250,94.727,0
1553634447.655,34.180,26.855,37.598,23.926,64.941,0
1553634447.658,38.574,25.879,37.598,18.555,74.219,0
1553634447.662,38.086,20.996,40.039,23.926,56.641,0
1553634447.666,27.344,17.090,38.086,11.719,80.078,0
1553634447.670,37.109,19.531,37.598,26.855,58.105,0
1553634447.674,27.832,27.344,40.527,34.180,2.441,0
1553634447.678,41.992,27.832,38.086,21.484,-6.348,0
1553634447.682,57.129,22.949,39.551,20.020,47.852,0
1553634447.686,45.898,22.949,41.992,19.043,53.223,0
1553634447.690,42.480,24.414,41.992,22.461,28.320,0
1553634447.694,46.387,26.855,41.016,31.738,-1.953,0
1553634447.697,54.688,26.855,40.039,35.156,-20.508,0
1553634447.701,47.852,22.461,41.992,35.156,31.250,0
1553634447.705,39.551,20.996,42.480,37.598,48.340,0
1553634447.709,49.805,23.438,42.969,47.363,24.414,0
1553634447.713,52.246,27.344,40.527,43.457,24.414,0
1553634447.717,42.480,27.344,38.574,31.250,83.984,0
1553634447.721,38.086,19.531,41.016,30.762,36.621,0
1553634447.725,31.250,13.184,42.969,34.668,-9.766,0
1553634447.729,28.320,16.113,45.410,34.668,16.113,0
1553634447.733,28.809,22.461,41.504,31.738,72.266,0
1553634447.737,24.414,28.320,42.480,36.133,71.777,0
1553634447.740,29.297,32.227,45.410,33.203,5.371,0
1553634447.744,30.762,30.762,39.551,26.367,6.348,0
1553634447.748,22.461,24.902,37.598,28.809,23.926,0
1553634447.752,27.344,25.391,41.504,21.484,11.230,0
1553634447.756,42.480,26.855,39.062,19.531,-38.574,0
1553634447.760,48.828,27.832,36.621,29.785,-73.242,0
1553634447.764,26.855,27.344,37.598,26.367,24.414,0
1553634447.768,20.508,26.367,36.621,14.648,56.152,0
1553634447.772,36.621,24.902,38.574,19.043,16.602,0
1553634447.776,33.203,21.484,41.504,28.320,62.012,0
1553634447.780,29.785,19.531,40.039,20.508,20.996,0
1553634447.783,32.227,22.949,38.574,26.367,-18.555,0
1553634447.787,35.645,28.320,40.039,33.203,18.555,0
1553634447.791,33.203,26.855,39.551,20.020,-10.254,0
1553634447.795,35.156,28.320,36.133,21.973,27.832,0
1553634447.799,49.316,27.832,37.109,26.855,62.988,0
1553634447.803,39.062,25.879,40.527,24.414,31.250,0
1553634447.807,35.645,27.832,42.480,29.785,42.480,0
1553634447.811,36.621,30.273,41.504,32.715,89.355,0
1553634447.815,27.832,30.762,40.039,33.691,103.516,0
1553634447.819,29.785,28.320,40.039,35.156,38.574,0
1553634447.822,40.527,27.832,39.062,22.461,26.367,0
1553634447.826,36.133,25.391,40.039,16.113,27.832,0
1553634447.830,30.273,24.902,38.086,20.020,-52.734,0
1553634447.834,31.738,27.344,34.668,26.367,-23.438,0
1553634447.838,31.250,28.320,37.109,34.180,15.625,0
1553634447.842,32.715,27.832,41.016,30.273,19.043,0
1553634447.846,44.922,21.973,41.504,26.855,30.762,0
1553634447.850,52.246,20.996,36.133,31.250,20.020,0
1553634447.854,41.016,25.879,33.691,21.973,59.570,0
1553634447.858,36.621,22.461,37.598,22.949,61.523,0
1553634447.862,43.945,16.113,38.086,35.645,20.020,0
1553634447.865,43.945,21.484,40.039,38.574,36.621,0
1553634447.869,43.945,29.297,40.039,30.273,64.941,0
1553634447.873,46.875,29.297,37.109,22.949,12.695,0
1553634447.877,37.598,26.367,37.109,29.785,17.090,0
1553634447.881,37.109,22.461,38.574,37.598,50.293,0
1553634447.885,42.969,15.137,40.039,48.340,52.246,0
1553634447.889,37.109,17.578,39.062,35.645,17.578,0
1553634447.893,43.457,23.926,39.551,20.508,-0.488,0
1553634447.897,49.316,24.414,39.062,21.484,16.113,0
1553634447.901,38.086,26.367,37.109,31.738,41.016,0
1553634447.905,36.621,27.832,38.086,33.691,91.309,0
1553634447.908,44.434,22.949,37.109,32.227,79.590,0
1553634447.912,49.316,20.508,37.109,30.762,41.016,0
1553634447.916,47.363,24.414,41.504,36.133,52.246,0
1553634447.920,41.992,28.320,39.551,29.785,88.379,0
1553634447.924,52.734,25.391,38.574,24.414,52.734,0
1553634447.928,57.617,21.973,40.527,42.969,38.574,0
1553634447.932,60.547,23.438,39.062,46.387,51.270,0
1553634447.936,62.988,21.973,37.109,39.551,-2.441,0
1553634447.940,45.898,18.555,40.039,23.926,-7.812,0
1553634447.944,52.734,16.602,41.016,20.508,8.301,0
1553634447.947,55.664,16.113,40.527,33.691,13.184,0
1553634447.951,45.898,16.113,41.016,41.992,13.184,0
1553634447.955,51.758,14.160,37.598,41.992,33.203,0
1553634447.959,49.805,13.184,35.156,32.227,42.480,0
1553634447.963,48.828,18.555,36.133,35.645,54.199,0
1553634447.967,56.152,21.484,33.691,40.039,51.758,0
1553634447.971,50.293,19.043,35.156,44.922,19.531,0
1553634447.975,49.805,19.043,37.109,30.273,43.945,0
1553634447.979,63.477,16.113,35.156,28.320,47.363,0
1553634447.983,55.176,15.625,34.668,54.199,-9.277,0
1553634447.987,41.016,16.113,35.156,49.805,-23.926,0
1553634447.990,43.457,14.160,32.715,22.461,40.527,0
1553634447.994,34.668,15.137,32.227,21.484,48.828,0
1553634447.998,33.691,15.137,37.109,33.203,36.133,0
1553634448.002,46.387,18.555,37.598,30.762,55.176,0
1553634448.006,42.480,18.555,34.180,25.391,87.891,0
1553634448.010,33.203,16.602,34.668,33.691,62.988,0
1553634448.014,41.016,16.602,35.156,40.039,16.602,0
1553634448.018,44.922,19.043,32.227,40.039,35.645,0
1553634448.022,48.340,20.508,35.156,39.062,-2.441,0
1553634448.026,46.875,19.043,37.109,30.762,-24.414,0
1553634448.030,30.273,17.090,31.250,41.992,21.484,0
1553634448.033,33.203,16.113,31.738,59.570,6.836,0
1553634448.037,40.527,20.508,32.715,47.852,7.324,0
1553634448.041,37.109,20.508,33.203,34.668,4.395,0
1553634448.045,45.410,18.066,35.645,38.086,20.996,0
1553634448.049,47.852,20.996,37.109,42.969,42.480,0
1553634448.053,42.969,20.996,37.109,41.992,15.137,0
1553634448.057,40.039,18.066,33.691,37.109,31.738,0
1553634448.061,40.527,19.043,30.762,40.527,51.758,0
1553634448.065,40.527,18.555,31.250,42.969,23.926,0
1553634448.069,39.062,13.184,33.203,43.457,38.086,0
1553634448.072,39.062,13.184,32.715,43.457,18.555,0
1553634448.076,48.340,17.090,32.715,39.551,22.461,0
1553634448.080,50.781,19.531,32.227,33.203,60.059,0
1553634448.084,43.945,18.066,29.785,37.598,31.250,0
1553634448.088,41.504,17.578,29.785,41.504,-22.461,0
1553634448.092,38.574,14.648,27.344,37.109,-18.555,0
1553634448.096,41.016,14.160,25.879,37.109,20.996,0
1553634448.100,50.293,18.066,27.344,39.551,-16.602,0
1553634448.104,43.945,19.531,24.902,33.691,-0.977,0
1553634448.108,42.480,18.066,21.973,27.832,0.000,0
1553634448.112,26.855,17.578,23.438,21.973,-6.836,0
1553634448.115,33.203,20.020,23.438,19.531,-1.953,0
1553634448.119,55.176,19.043,23.438,28.809,-1.953,0
1553634448.123,28.320,18.555,20.996,27.344,-20.996,0
1553634448.127,17.578,19.531,20.996,17.090,1.465,0
1553634448.131,29.297,16.602,21.484,23.926,14.648,0
1553634448.135,40.527,20.996,21.484,17.090,-43.457,0
1553634448.139,47.852,23.926,27.832,11.230,8.301,0
1553634448.143,29.785,20.508,29.785,6.348,64.941,0
1553634448.147,18.066,23.926,26.367,3.906,43.945,0
1553634448.151,27.344,26.855,25.879,14.648,9.766,0
1553634448.155,37.598,25.879,27.344,12.207,2.930,0
1553634448.158,49.805,27.832,26.855,16.113,11.230,0
1553634448.162,41.504,24.414,27.344,23.926,40.039,0
1553634448.166,25.879,19.531,28.320,36.621,54.688,0
1553634448.170,24.902,22.949,30.762,8.301,26.367,0
1553634448.174,24.902,26.855,29.297,-29.785,-4.883,0
1553634448.178,30.273,20.508,30.273,-19.043,-13.184,0
1553634448.182,26.367,20.508,33.203,-13.672,-3.906,0
1553634448.186,23.438,27.832,32.227,-25.879,5.859,0
1553634448.190,18.066,28.809,29.785,-26.855,24.902,0
1553634448.194,27.832,28.809,28.320,-22.461,32.227,0
1553634448.197,36.621,26.367,26.855,-24.414,19.043,0
1553634448.201,42.969,26.855,23.926,-15.625,70.801,0
1553634448.205,52.734,31.250,25.391,-3.906,90.332,0
1553634448.209,35.156,30.273,26.855,-2.441,-1.953,0
1553634448.213,20.020,25.391,26.367,-7.324,-18.555,0
1553634448.217,21.973,27.344,27.344,-13.672,48.340,0
1553634448.221,31.738,28.320,27.344,-3.906,41.504,0
1553634448.225,29.297,24.414,24.414,20.996,-18.555,0
1553634448.229,23.926,26.367,24.414,25.879,-7.324,0
1553634448.233,33.691,29.297,25.391,29.297,45.898,0
1553634448.237,46.875,26.855,24.902,48.340,46.387,0
1553634448.240,38.086,27.344,28.320,44.434,28.809,0
1553634448.244,27.344,29.785,28.320,35.156,23.438,0
1553634448.248,35.645,25.391,28.809,30.273,46.387,0
1553634448.252,43.457,25.391,28.320,37.598,80.566,0
1553634448.256,46.387,28.809,26.367,48.340,33.691,0
1553634448.260,38.086,29.297,27.344,43.457,20.020,0
1553634448.264,35.156,30.273,29.297,43.457,6.836,0
1553634448.268,54.199,34.668,26.855,45.410,47.363,0
1553634448.272,46.875,32.715,25.391,37.109,58.105,0
1553634448.276,31.250,29.297,26.367,34.180,-5.371,0
1553634448.280,30.273,29.297,25.879,38.086,0.000,0
1553634448.283,30.762,28.809,27.344,23.438,-9.766,0
1553634448.287,31.250,27.344,26.367,20.508,-25.391,0
1553634448.291,34.668,22.949,25.391,40.039,20.996,0
1553634448.295,28.320,25.391,20.508,35.156,66.406,0
1553634448.299,28.809,27.344,20.996,30.273,81.055,0
1553634448.303,22.461,27.832,22.461,32.715,38.574,0
1553634448.307,10.254,29.297,22.949,38.574,15.625,0
1553634448.311,28.320,26.855,27.832,43.457,105.469,0
1553634448.315,52.246,26.367,25.391,53.223,108.887,0
1553634448.319,46.875,28.809,22.949,39.551,30.762,0
1553634448.322,23.438,27.344,25.391,26.855,47.852,0
1553634448.326,17.578,23.438,24.414,42.969,20.508,0
1553634448.330,23.926,24.414,24.902,46.875,-44.434,0
1553634448.334,10.742,26.367,25.879,36.133,22.949,0
1553634448.338,11.719,26.855,21.484,20.996,54.688,0
1553634448.342,31.738,24.414,23.438,26.367,40.527,0
1553634448.346,30.273,25.879,22.949,33.203,23.438,0
1553634448.350,34.668,25.879,20.508,32.715,-25.391,0
1553634448.354,36.621,26.367,22.461,39.551,13.672,0
1553634448.358,28.809,27.344,25.879,42.480,75.684,0
1553634448.362,33.691,24.902,27.344,35.645,88.379,0
1553634448.365,25.391,29.785,25.391,37.109,67.871,0
1553634448.369,23.438,32.227,23.926,41.992,50.293,0
1553634448.373,38.086,29.785,20.996,24.902,18.555,0
1553634448.377,36.133,24.902,19.531,28.320,-20.508,0
1553634448.381,35.645,21.973,21.973,40.527,8.301,0
1553634448.385,30.273,27.344,20.996,30.273,68.848,0
1553634448.389,22.461,31.738,19.531,31.738,59.570,0
1553634448.393,27.832,33.203,20.996,40.527,-11.230,0
1553634448.397,35.156,33.691,22.461,31.738,-38.574,0
1553634448.401,33.203,31.738,25.391,35.156,25.879,0
1553634448.405,33.691,28.320,25.391,42.480,1.953,0
1553634448.408,44.922,29.785,25.391,34.668,11.719,0
1553634448.412,38.086,31.738,25.391,33.203,58.105,0
1553634448.416,41.992,32.227,22.461,42.969,53.223,0
1553634448.420,44.434,32.227,18.555,43.945,-5.859,0
1553634448.424,38.086,32.715,22.461,41.504,-28.809,0
1553634448.428,43.457,33.203,24.902,42.969,63.965,0
1553634448.432,40.527,33.203,20.996,36.621,79.102,0
1553634448.436,33.691,28.809,22.461,40.527,47.363,0
1553634448.440,25.879,27.832,21.973,40.527,46.875,0
1553634448.444,19.531,31.250,19.531,32.715,84.961,0
1553634448.447,26.367,29.297,23.926,35.645,88.379,0
1553634448.451,32.227,31.250,25.391,43.457,56.152,0
1553634448.455,29.297,31.250,22.949,32.227,66.406,0
1553634448.459,34.668,28.809,23.926,16.113,63.965,0
1553634448.463,37.109,29.785,22.461,26.855,47.363,0
1553634448.467,34.668,28.809,20.020,27.832,79.102,0
1553634448.471,35.156,30.762,20.508,33.203,47.852,0
1553634448.475,32.715,31.738,19.531,32.227,-30.762,0
1553634448.479,34.668,33.203,19.531,23.926,4.883,0
1553634448.483,30.273,31.738,22.461,19.531,22.949,0
1553634448.487,25.391,29.297,21.973,26.367,26.855,0
1553634448.490,41.504,28.809,22.461,31.738,58.105,0
1553634448.494,31.250,30.762,20.996,25.391,36.621,0
1553634448.498,23.438,33.203,23.438,36.133,12.207,0
1553634448.502,29.785,31.250,24.902,44.434,25.391,0
1553634448.506,31.250,26.855,19.043,36.133,28.320,0
1553634448.510,33.203,28.320,18.066,29.785,11.719,0
1553634448.514,33.691,32.715,21.484,29.785,20.020,0
1553634448.518,36.133,33.691,21.973,35.156,39.062,0
1553634448.522,40.039,28.809,20.020,38.086,41.504,0
1553634448.526,46.387,22.461,22.461,37.109,10.742,0
1553634448.530,36.621,23.926,21.484,34.668,-37.109,0
1553634448.533,24.414,27.832,20.020,19.531,-36.621,0
1553634448.537,30.762,28.809,23.926,12.695,-16.113,0
1553634448.541,34.668,28.809,22.949,28.320,22.461,0
1553634448.545,31.738,29.297,23.926,36.133,8.301,0
1553634448.549,37.598,32.227,23.926,30.762,-11.230,0
1553634448.553,34.180,29.785,19.043,20.508,39.551,0
1553634448.557,31.250,29.785,21.484,21.484,53.223,0
1553634448.561,31.250,29.785,24.414,16.602,35.645,0
1553634448.565,26.855,26.367,20.508,10.742,15.625,0
1553634448.569,26.367,26.367,19.043,22.949,20.508,0
1553634448.572,29.297,25.879,20.508,20.996,64.453,0
1553634448.576,31.738,23.926,21.973,14.648,17.578,0
1553634448.580,40.527,24.414,20.508,22.461,-19.043,0
1553634448.584,44.434,23.926,21.484,31.738,60.059,0
1553634448.588,34.180,20.996,26.855,31.738,62.012,0
1553634448.592,31.738,22.461,24.414,24.902,26.855,0
1553634448.596,37.598,24.902,21.484,28.809,42.969,0
1553634448.600,35.156,28.809,22.461,31.250,49.316,0
1553634448.604,28.320,28.320,23.926,26.855,60.547,0
1553634448.608,29.785,26.855,23.926,24.414,43.945,0
1553634448.612,38.574,26.855,25.879,24.902,24.414,0
1553634448.615,40.039,20.996,27.344,30.762,16.113,0
1553634448.619,42.969,22.461,27.832,28.809,-10.254,0
1553634448.623,34.180,31.250,25.879,23.438,-0.488,0
1553634448.627,28.809,36.621,23.438,19.531,16.602,0
1553634448.631,39.551,30.273,22.949,20.508,-12.207,0
1553634448.635,41.504,27.344,21.484,25.391,18.066,0
1553634448.639,38.086,27.344,21.484,17.090,68.848,0
1553634448.643,45.410,25.879,20.508,18.555,59.570,0
1553634448.647,52.246,29.297,19.531,24.902,47.363,0
1553634448.651,37.109,24.902,22.461,23.438,85.938,0
1553634448.655,29.785,20.020,25.391,25.391,53.711,0
1553634448.658,28.809,25.391,24.414,27.832,2.930,0
1553634448.662,40.527,30.762,24.414,23.438,21.484,0
1553634448.666,51.758,32.715,24.414,22.461,51.270,0
1553634448.670,35.156,27.344,25.391,23.926,4.395,0
1553634448.674,25.879,22.949,27.344,24.902,3.418,0
1553634448.678,22.949,26.367,26.855,28.809,-5.371,0
1553634448.682,25.391,28.809,26.855,21.484,-45.410,0
1553634448.686,32.227,22.949,26.367,12.207,-8.789,0
1553634448.690,37.598,21.484,27.344,16.602,-12.207,0
1553634448.694,29.297,25.879,28.320,17.578,0.488,0
1553634448.697,15.625,22.949,26.855,17.090,10.742,0
1553634448.701,26.367,22.949,23.926,17.090,42.480,0
1553634448.705,32.227,27.344,23.438,9.766,42.480,0
1553634448.709,22.461,25.391,26.367,8.789,0.000,0
1553634448.713,18.066,26.855,27.344,9.766,11.230,0
1553634448.717,16.602,27.344,25.879,1.465,-19.531,0
1553634448.721,27.344,22.949,24.902,13.184,-13.672,0
1553634448.725,26.367,23.438,22.461,15.625,-16.113,0
1553634448.729,28.320,25.391,24.902,8.789,33.691,0
1553634448.733,40.527,31.738,25.879,17.090,35.645,0
1553634448.737,31.250,33.203,22.949,10.254,-19.531,0
1553634448.740,21.484,29.297,20.020,0.488,-16.113,0
1553634448.744,24.414,27.344,19.043,18.066,-2.441,0
1553634448.748,23.438,24.902,18.555,19.531,-18.555,0
1553634448.752,26.367,25.879,18.555,11.230,7.812,0
1553634448.756,32.715,29.785,22.461,20.020,7.324,0
1553634448.760,36.621,30.273,26.367,19.531,1.465,0
1553634448.764,56.641,31.738,22.949,19.043,70.312,0
1553634448.768,54.199,30.273,23.438,24.414,61.035,0
1553634448.772,37.598,29.297,23.438,21.973,31.250,0
1553634448.776,41.016,28.320,23.926,26.367,51.270,0
1553634448.780,31.738,28.320,26.855,27.832,26.855,0
1553634448.783,31.738,32.227,25.879,32.227,24.902,0
1553634448.787,44.434,31.738,22.461,27.344,50.781,0
1553634448.791,43.457,28.320,20.020,19.043,35.156,0
1553634448.795,45.410,29.785,22.949,34.668,2.930,0
1553634448.799,41.992,27.344,24.414,36.621,68.848,0
1553634448.803,38.574,18.555,24.414,29.297,66.895,0
1553634448.807,45.898,20.020,26.367,25.879,1.953,0
1553634448.811,40.039,26.367,26.855,33.203,15.137,0
1553634448.815,34.668,27.344,26.855,35.645,14.160,0
1553634448.819,40.039,27.832,25.879,29.785,96.680,0
1553634448.822,41.992,23.438,23.438,28.320,93.262,0
1553634448.826,41.992,20.020,24.414,25.879,-1.465,0
1553634448.830,42.480,22.461,25.879,28.809,25.879,0
1553634448.834,40.527,21.484,27.832,33.691,24.414,0
1553634448.838,30.762,21.484,27.832,24.902,13.184,0
1553634448.842,32.227,23.926,26.855,21.484,27.344,0
1553634448.846,38.574,24.414,22.949,26.855,10.742,0
1553634448.850,41.504,24.414,22.461,30.273,41.504,0
1553634448.854,43.945,22.461,23.926,32.715,35.156,0
1553634448.858,41.504,20.996,22.461,34.668,29.785,0
1553634448.862,39.551,20.020,25.391,36.133,32.715,0
1553634448.865,47.363,20.996,25.391,27.344,64.453,0
1553634448.869,61.523,24.414,21.484,27.832,84.961,0
1553634448.873,46.387,25.391,22.461,31.250,59.082,0
1553634448.877,30.762,25.879,24.414,20.020,58.105,0
1553634448.881,30.762,25.391,23.438,22.949,39.551,0
1553634448.885,31.738,21.973,23.926,34.180,31.738,0
1553634448.889,38.574,22.949,22.949,36.621,54.199,0
1553634448.893,33.203,20.996,21.973,30.762,37.109,0
1553634448.897,31.250,18.066,27.344,29.785,-25.391,0
1553634448.901,29.297,24.414,26.367,37.109,-32.715,0
1553634448.905,32.227,27.344,27.344,36.133,-38.086,0
1553634448.908,41.504,26.367,31.738,39.062,-34.180,0
1553634448.912,44.434,25.391,27.832,37.109,14.648,0
1553634448.916,40.039,24.902,26.855,32.715,24.414,0
1553634448.920,36.133,27.832,25.391,27.832,-2.930,0
1553634448.924,40.039,28.809,21.484,22.461,-12.695,0
1553634448.928,39.062,29.297,26.855,31.250,22.949,0
1553634448.932,37.109,30.762,28.809,30.762,56.641,0
1553634448.936,42.480,31.738,26.855,25.391,62.988,0
1553634448.940,47.363,32.227,28.320,41.504,58.105,0
1553634448.944,43.457,26.367,27.344,41.504,-15.137,0
1553634448.947,40.039,18.066,25.391,29.297,-3.906,0
1553634448.951,41.504,20.996,29.785,37.598,69.824,0
1553634448.955,48.340,31.250,31.250,39.062,18.555,0
1553634448.959,48.340,35.645,31.738,39.551,-19.531,0
1553634448.963,39.551,36.133,33.203,43.945,-26.855,0
1553634448.967,44.434,32.715,33.203,34.180,17.090,0
1553634448.971,55.664,30.273,31.738,33.203,43.945,0
1553634448.975,40.527,29.785,30.273,35.645,75.684,0
1553634448.979,32.227,30.273,32.715,43.945,68.848,0
1553634448.983,44.434,31.250,34.180,43.457,36.621,0
1553634448.987,48.340,25.391,34.668,38.574,40.527,0
1553634448.990,50.293,19.531,32.715,36.133,-21.973,0
1553634448.994,47.363,26.855,31.738,36.621,3.418,0
1553634448.998,51.758,34.668,32.227,38.086,43.457,0
1553634449.002,51.758,36.133,30.273,30.273,41.016,0
1553634449.006,36.621,34.180,30.273,29.785,-22.461,0
1553634449.010,27.344,31.738,32.227,33.203,-18.066,0
1553634449.014,31.250,29.785,30.762,34.668,62.988,0
1553634449.018,39.551,26.855,33.203,27.344,8.789,0
1553634449.022,37.598,30.762,32.715,18.066,-6.836,0
1553634449.026,35.645,30.273,31.250,22.461,19.531,0
1553634449.030,38.086,26.367,28.320,30.762,33.203,0
1553634449.033,36.133,27.832,24.902,26.855,37.598,0
1553634449.037,41.504,27.832,29.785,25.391,40.527,0
1553634449.041,41.992,27.832,30.762,35.645,76.660,0
1553634449.045,34.180,24.414,30.273,35.156,44.434,0
1553634449.049,35.645,23.438,28.320,30.273,37.598,0
1553634449.053,35.156,23.926,25.391,17.090,39.551,0
1553634449.057,37.598,23.926,24.414,18.066,24.902,0
1553634449.061,44.434,26.367,27.344,22.949,70.801,0
1553634449.065,39.551,27.344,32.227,24.902,101.074,0
1553634449.069,31.738,24.414,29.785,30.273,25.879,0
1553634449.072,34.668,22.949,28.320,24.902,1.953,0
1553634449.076,43.457,27.832,25.879,30.273,78.613,0
1553634449.080,48.340,29.785,23.438,31.738,48.340,0
1553634449.084,47.852,20.508,29.785,25.879,14.160,0
1553634449.088,52.734,17.578,28.320,30.273,75.684,0
1553634449.092,45.898,28.809,25.391,29.297,42.480,0
1553634449.096,38.086,35.156,29.297,33.203,13.672,0
1553634449.100,43.457,33.203,31.250,41.992,57.617,0
1553634449.104,45.410,31.250,28.320,33.203,75.195,0
1553634449.108,39.062,23.926,24.414,22.949,26.855,0
1553634449.112,35.645,15.625,23.438,17.090,1.953,0
1553634449.115,36.133,29.297,24.902,20.996,9.277,0
1553634449.119,34.180,39.062,23.438,27.344,17.578,0
1553634449.123,52.246,35.645,25.391,35.645,-22.949,0
1553634449.127,43.945,28.320,32.715,31.738,-22.949,0
1553634449.131,18.066,20.508,29.785,13.672,12.695,0
1553634449.135,30.762,23.926,24.414,13.672,22.461,0
1553634449.139,30.762,28.809,30.273,17.578,-5.859,0
1553634449.143,31.250,27.832,33.691,27.344,27.344,0
1553634449.147,38.086,23.926,26.855,28.809,77.148,0
1553634449.151,38.574,22.461,22.461,16.113,12.207,0
1553634449.155,42.480,20.996,24.414,15.137,31.250,0
1553634449.158,38.574,14.160,28.809,22.949,61.035,0
1553634449.162,40.039,12.695,26.855,29.785,19.043,0
1553634449.166,52.246,23.926,23.926,34.668,13.672,0
1553634449.170,49.805,35.156,24.902,25.391,8.789,0
1553634449.174,41.992,34.180,22.461,27.344,26.855,0
1553634449.178,42.969,30.273,26.855,39.062,17.090,0
1553634449.182,53.223,26.855,27.344,38.086,-27.832,0
1553634449.186,53.223,26.855,25.879,34.668,-24.414,0
1553634449.190,55.176,25.391,26.367,35.156,11.719,0
1553634449.194,59.082,22.949,24.902,32.227,41.016,0
1553634449.197,45.898,21.484,24.414,25.391,-1.953,0
1553634449.201,42.969,21.973,22.461,31.250,5.859,0
1553634449.205,43.457,22.461,22.949,37.109,23.438,0
1553634449.209,44.922,22.461,25.391,32.227,22.461,0
1553634449.213,57.129,22.461,25.879,38.086,38.574,0
1553634449.217,54.688,22.461,26.367,44.434,77.637,0
1553634449.221,40.527,21.973,25.391,42.480,70.801,0
1553634449.225,39.551,21.484,26.855,40.039,65.918,0
1553634449.229,46.875,20.020,26.367,37.109,45.898,0
1553634449.233,48.828,19.531,23.438,36.621,4.395,0
1553634449.237,44.434,17.578,25.879,37.109,-5.859,0
1553634449.240,48.340,18.555,22.949,37.598,-7.324,0
1553634449.244,52.734,22.949,20.996,35.645,16.602,0
1553634449.248,39.551,24.414,23.926,37.598,-23.438,0
1553634449.252,45.898,23.926,21.973,31.250,7.324,0
1553634449.256,58.105,23.438,21.973,31.250,43.457,0
1553634449.260,48.828,21.484,23.926,35.645,18.555,0
1553634449.264,42.480,20.996,23.438,36.621,32.227,0
1553634449.268,53.711,21.973,23.438,39.062,30.762,0
1553634449.272,60.059,20.508,25.391,41.016,9.766,0
1553634449.276,46.875,19.531,23.438,37.598,23.438,0
1553634449.280,46.387,20.996,20.996,31.738,28.320,0
1553634449.283,46.387,19.043,21.484,30.762,35.645,0
1553634449.287,34.668,16.602,21.484,24.902,8.789,0
1553634449.291,38.574,15.625,21.484,22.461,-2.930,0
1553634449.295,40.039,20.020,20.020,22.949,83.984,0
1553634449.299,38.574,22.949,18.555,24.414,77.637,0
1553634449.303,38.086,24.902,18.555,22.949,64.453,0
1553634449.307,28.809,23.438,19.531,18.066,86.914,0
1553634449.311,27.344,21.973,20.996,19.531,-1.465,0
1553634449.315,29.297,27.344,19.043,20.020,-4.883,0
1553634449.319,34.668,25.879,20.020,16.602,45.898,0
1553634449.322,39.062,26.367,20.508,20.508,-29.297,0
1553634449.326,37.109,26.367,17.578,17.578,24.902,0
1553634449.330,35.645,20.508,18.066,12.695,73.730,0
1553634449.334,27.832,19.531,20.996,12.695,33.691,0
1553634449.338,29.297,22.461,18.066,15.625,34.180,0
1553634449.342,38.086,21.484,16.602,17.090,53.223,0
1553634449.346,40.039,18.066,22.461,18.066,39.551,0
1553634449.350,30.762,19.043,20.996,13.672,18.066,0
1553634449.354,26.367,20.508,17.578,10.254,13.672,0
1553634449.358,20.508,24.414,17.578,12.695,37.109,0
1553634449.362,13.184,26.367,14.160,7.812,24.414,0
1553634449.365,26.855,23.926,16.602,16.113,0.488,0
1553634449.369,42.480,26.855,20.020,21.973,-33.203,0
1553634449.373,46.387,28.320,18.555,14.160,-39.062,0
1553634449.377,34.668,26.855,16.113,14.648,-23.926,0
1553634449.381,21.973,27.832,16.602,16.602,6.348,0
1553634449.385,25.391,25.391,20.996,8.789,37.109,0
1553634449.389,33.691,28.320,19.531,16.113,51.270,0
1553634449.393,30.762,27.832,18.066,25.879,-29.297,0
1553634449.397,25.879,23.926,17.090,22.461,-25.879,0
1553634449.401,32.227,27.344,15.625,31.250,42.969,0
1553634449.405,38.086,28.809,15.625,38.574,32.715,0
1553634449.408,39.551,29.785,17.578,32.227,-4.395,0
1553634449.412,48.340,28.320,20.020,34.668,-14.648,0
1553634449.416,48.828,25.879,19.531,29.785,88.867,0
1553634449.420,36.133,29.297,19.043,20.996,106.934,0
1553634449.424,32.227,30.762,18.555,26.367,87.891,0
1553634449.428,40.527,26.855,20.020,37.109,80.078,0
1553634449.432,45.410,25.391,19.531,36.133,23.438,0
1553634449.436,38.086,27.832,19.043,27.344,84.473,0
1553634449.440,31.250,30.762,22.461,27.832,68.848,0
1553634449.444,32.715,30.762,22.461,28.320,8.301,0
1553634449.447,36.133,30.762,18.066,28.320,59.082,0
1553634449.451,39.551,29.785,18.066,32.715,70.312,0
1553634449.455,41.016,30.273,21.484,38.086,39.062,0
1553634449.459,41.504,30.273,20.020,32.227,68.848,0
1553634449.463,42.480,30.273,21.484,32.715,81.543,0
1553634449.467,39.062,31.738,22.949,40.527,19.043,0
1553634449.471,31.250,30.762,21.973,27.832,13.184,0
1553634449.475,40.039,30.273,22.949,24.414,14.160,0
1553634449.479,38.574,33.203,21.973,32.715,-0.488,0
1553634449.483,36.133,33.691,21.973,30.273,-30.273,0
1553634449.487,46.387,34.180,19.043,22.461,-24.902,0
1553634449.490,33.691,36.621,17.090,22.949,0.977,0
1553634449.494,19.531,31.738,20.996,28.809,50.781,0
1553634449.498,27.832,28.809,21.973,23.926,82.031,0
1553634449.502,45.410,27.832,21.484,25.391,71.777,0
1553634449.506,44.922,27.832,24.902,30.762,74.219,0
1553634449.510,33.691,33.203,21.973,31.738,83.008,0
1553634449.514,34.668,33.691,19.531,29.785,26.855,0
1553634449.518,38.574,33.691,20.020,25.391,57.617,0
1553634449.522,35.645,33.203,20.020,25.391,69.824,0
1553634449.526,37.109,31.738,20.020,27.344,17.578,0
1553634449.530,45.410,29.297,20.996,26.855,29.297,0
1553634449.533,47.852,27.832,22.461,24.414,19.531,0
1553634449.537,35.645,27.832,20.996,30.273,12.695,0
1553634449.541,46.875,24.902,21.484,48.340,95.703,0
1553634449.545,62.012,30.762,18.555,44.922,107.910,0
1553634449.549,41.504,37.109,19.043,20.020,77.637,0
1553634449.553,32.227,37.109,21.973,23.438,72.266,0
1553634449.557,28.809,38.574,20.508,24.902,-44.434,0
1553634449.561,30.273,36.621,16.602,18.555,-23.438,0
1553634449.565,40.039,36.621,14.160,19.531,68.848,0
1553634449.569,41.016,39.062,12.695,12.207,56.152,0
1553634449.572,49.805,41.504,10.742,19.531,42.969,0
1553634449.576,57.129,43.457,10.254,27.344,48.828,0
1553634449.580,56.152,43.945,13.672,30.762,18.066,0
1553634449.584,55.664,41.016,20.020,29.297,11.719,0
1553634449.588,44.922,34.668,18.066,24.414,41.504,0
1553634449.592,41.016,36.133,15.625,28.809,7.812,0
1553634449.596,46.387,38.574,17.578,28.320,-51.270,0
1553634449.600,41.992,36.621,18.555,26.855,-11.719,0
1553634449.604,48.340,36.133,18.555,20.996,31.250,0
1553634449.608,53.223,40.039,18.555,13.184,57.617,0
1553634449.612,42.480,40.039,17.090,16.602,45.410,0
1553634449.615,41.016,38.574,18.555,24.414,12.207,0
1553634449.619,46.875,38.574,20.020,24.902,27.832,0
1553634449.623,41.992,37.598,21.484,20.996,36.133,0
1553634449.627,37.109,34.668,21.973,23.926,70.801,0
1553634449.631,46.387,31.250,18.555,25.391,83.008,0
1553634449.635,44.434,30.762,20.020,23.926,70.801,0
1553634449.639,41.992,35.156,21.484,28.809,26.855,0
1553634449.643,41.992,37.109,19.531,28.809,8.789,0
1553634449.647,49.805,31.738,18.555,27.344,20.996,0
1553634449.651,47.852,29.297,20.020,29.297,35.645,0
1553634449.655,42.480,34.668,17.090,20.996,0.000,0
1553634449.658,45.898,40.039,20.508,33.691,-26.367,0
1553634449.662,42.480,39.062,24.414,41.504,26.367,0
1553634449.666,45.410,37.109,22.949,28.809,46.387,0
1553634449.670,52.246,35.156,21.484,24.414,44.922,0
1553634449.674,46.387,32.227,22.949,26.855,15.625,0
1553634449.678,44.922,34.180,25.879,24.902,-9.277,0
1553634449.682,41.504,34.180,25.391,29.297,54.688,0
1553634449.686,30.273,31.738,22.461,29.297,27.344,0
1553634449.690,42.480,32.715,22.949,21.484,-32.227,0
1553634449.694,49.805,28.809,24.414,27.832,-34.180,0
1553634449.697,33.691,29.297,21.484,23.926,19.531,0
1553634449.701,47.363,34.668,24.414,25.879,45.410,0
1553634449.705,55.176,36.133,25.391,23.438,-29.785,0
1553634449.709,39.551,33.691,22.949,21.484,-31.250,0
1553634449.713,44.434,31.250,24.414,28.320,78.125,0
1553634449.717,49.805,35.645,25.879,18.066,61.523,0
1553634449.721,57.129,37.109,22.949,17.090,44.922,0
1553634449.725,63.477,38.086,22.461,36.621,57.129,0
1553634449.729,50.293,39.551,27.344,36.133,12.207,0
1553634449.733,37.109,36.133,27.832,27.344,9.766,0
1553634449.737,41.992,34.180,26.855,37.598,-12.207,0
1553634449.740,38.574,32.715,26.367,34.180,-16.113,0
1553634449.744,32.227,32.227,23.438,38.574,7.812,0
1553634449.748,40.527,31.738,23.926,40.039,-13.672,0
1553634449.752,41.016,27.832,26.367,31.250,-20.020,0
1553634449.756,30.762,30.273,25.391,30.762,20.996,0
1553634449.760,22.461,31.250,23.926,20.508,17.578,0
1553634449.764,19.531,28.809,26.855,10.254,-24.414,0
1553634449.768,31.250,32.715,23.926,12.695,7.812,0
1553634449.772,42.480,33.203,20.996,21.484,-8.301,0
1553634449.776,55.664,32.715,24.414,30.762,-2.441,0
1553634449.780,55.664,34.668,24.414,26.855,42.480,0
1553634449.783,29.297,32.715,26.855,12.207,59.082,0
1553634449.787,22.461,32.227,26.855,12.207,24.414,0
1553634449.791,34.668,30.762,25.879,22.461,-15.625,0
1553634449.795,35.156,27.832,25.879,26.367,36.621,0
1553634449.799,40.527,23.438,27.832,28.320,99.609,0
1553634449.803,50.293,22.949,29.785,29.297,61.523,0
1553634449.807,46.387,31.250,26.367,21.484,27.344,0
1553634449.811,54.688,36.621,25.391,16.602,31.250,0
1553634449.815,49.316,34.180,27.344,33.203,41.016,0
1553634449.819,44.922,30.762,29.785,35.645,44.922,0
1553634449.822,47.852,32.715,29.785,17.578,34.668,0
1553634449.826,46.875,29.297,26.855,23.926,-2.930,0
1553634449.830,42.969,23.926,27.832,37.109,32.227,0
1553634449.834,38.086,26.855,30.762,32.227,91.797,0
1553634449.838,53.711,29.785,33.203,26.855,79.590,0
1553634449.842,42.969,31.250,32.715,26.367,105.469,0
1553634449.846,28.809,30.762,27.344,28.320,48.828,0
1553634449.850,42.480,29.297,29.297,35.645,23.926,0
1553634449.854,45.898,27.832,31.738,32.227,4.395,0
1553634449.858,51.270,24.902,27.832,26.367,-23.926,0
1553634449.862,42.480,23.926,24.414,23.926,34.180,0
1553634449.865,31.250,26.855,25.391,24.414,48.340,0
1553634449.869,34.180,26.855,26.367,33.691,50.781,0
1553634449.873,39.062,25.879,23.438,25.879,28.320,0
1553634449.877,41.504,28.320,22.949,20.020,23.438,0
1553634449.881,35.156,26.367,27.344,28.809,30.762,0
1553634449.885,36.621,24.902,25.879,27.832,47.852,0
1553634449.889,48.340,29.785,22.461,22.949,71.777,0
1553634449.893,42.969,33.691,23.438,39.062,86.426,0
1553634449.897,33.203,33.203,21.973,36.621,51.758,0
1553634449.901,30.762,31.250,21.973,19.043,-0.977,0
1553634449.905,36.621,27.832,25.879,29.297,16.602,0
1553634449.908,36.621,25.879,23.926,33.691,13.184,0
1553634449.912,28.809,31.250,20.508,20.508,23.926,0
1553634449.916,37.598,32.715,22.949,18.555,57.129,0
1553634449.920,48.828,30.762,24.902,17.090,64.941,0
1553634449.924,44.922,33.203,23.926,21.484,45.410,0
1553634449.928,43.945,35.156,21.484,28.809,39.551,0
1553634449.932,44.922,35.645,22.461,20.020,36.621,0
1553634449.936,41.504,34.668,23.438,21.484,27.832,0
1553634449.940,43.457,35.156,24.414,21.484,61.035,0
1553634449.944,41.992,32.715,26.367,18.555,70.801,0
1553634449.947,42.969,29.785,25.879,18.555,32.715,0
1553634449.951,37.598,29.785,25.879,18.066,11.230,0
1553634449.955,35.156,27.832,27.344,24.414,-32.715,0
1553634449.959,41.992,27.344,28.809,36.621,-31.250,0
1553634449.963,48.828,27.344,27.344,29.297,-44.922,0
1553634449.967,33.691,26.367,29.297,28.320,-36.621,0
1553634449.971,24.902,23.926,28.320,31.738,1.953,0
1553634449.975,29.785,20.020,25.879,29.785,48.828,0
1553634449.979,34.668,20.996,25.391,26.367,40.039,0
1553634449.983,42.969,26.855,26.367,25.391,-27.832,0
1553634449.987,37.598,29.785,24.902,32.227,28.809,0
1553634449.990,30.762,27.832,23.926,21.484,17.090,0
1553634449.994,33.691,29.785,22.461,17.090,-4.883,0
1553634449.998,44.434,29.297,19.531,30.762,7.324,0
1553634450.002,52.246,24.414,24.902,46.875,-6.836,0
1553634450.006,26.855,22.949,28.809,29.297,-33.203,0
1553634450.010,11.719,21.973,27.344,8.301,7.324,0
1553634450.014,20.020,22.949,28.320,17.090,38.574,0
1553634450.018,22.949,23.926,28.320,20.508,-32.227,0
1553634450.022,14.648,22.949,30.273,10.254,-29.297,0
1553634450.026,12.207,21.973,31.250,12.695,-1.465,0
1553634450.030,15.137,19.043,29.785,21.484,-1.465,0
1553634450.033,0.488,20.020,26.855,11.230,49.316,0
1553634450.037,8.301,21.973,25.879,4.395,63.965,0
1553634450.041,24.414,23.438,28.320,8.789,68.359,0
1553634450.045,24.414,27.832,28.809,18.066,90.332,0
1553634450.049,17.578,24.414,24.902,8.789,61.035,0
1553634450.053,18.066,26.367,20.996,10.254,42.480,0
1553634450.057,28.809,33.203,25.391,14.648,44.434,0
1553634450.061,25.879,31.250,28.809,16.113,60.547,0
1553634450.065,25.391,25.879,31.250,14.648,16.113,0
1553634450.069,30.273,24.902,30.273,16.602,-12.695,0
1553634450.072,21.973,24.414,29.297,28.320,52.246,0
1553634450.076,28.809,23.926,29.785,21.484,91.309,0
1553634450.080,37.109,23.438,22.949,15.137,54.199,0
1553634450.084,34.668,23.926,20.996,12.207,42.969,0
1553634450.088,31.738,26.855,23.926,14.160,69.336,0
1553634450.092,32.227,26.855,26.855,22.461,54.199,0
1553634450.096,39.062,27.344,27.832,25.391,14.160,0
1553634450.100,34.668,28.320,27.344,21.484,23.926,0
1553634450.104,26.855,25.879,28.320,18.066,23.438,0
1553634450.108,31.250,20.996,26.367,19.043,75.195,0
1553634450.112,40.527,21.973,24.902,16.113,94.727,0
1553634450.115,31.738,26.855,26.855,20.996,45.898,0
1553634450.119,21.973,27.832,27.344,25.879,44.434,0
1553634450.123,34.180,27.344,27.832,25.391,43.945,0
1553634450.127,38.574,28.320,27.832,32.715,49.805,0
1553634450.131,35.645,24.414,29.785,33.203,10.254,0
1553634450.135,43.945,23.926,29.297,24.414,11.719,0
1553634450.139,42.480,21.973,29.785,22.949,10.742,0
1553634450.143,35.156,20.020,30.762,21.484,19.531,0
1553634450.147,38.086,23.926,31.250,24.902,10.254,0
1553634450.151,35.156,22.949,34.668,25.391,12.695,0
1553634450.155,31.738,23.438,30.273,20.996,47.852,0
1553634450.158,32.715,22.949,28.809,20.508,23.438,0
1553634450.162,34.668,25.391,29.785,14.160,25.391,0
1553634450.166,20.996,24.414,27.832,11.230,27.344,0
1553634450.170,18.555,22.949,30.762,19.531,8.789,0
1553634450.174,30.762,30.273,32.227,28.809,1.953,0
1553634450.178,19.531,31.250,28.320,17.578,0.977,0
1553634450.182,27.832,28.809,25.879,20.020,-11.719,0
1553634450.186,52.734,29.785,25.391,24.414,-17.090,0
1553634450.190,24.902,28.320,27.832,19.531,-19.043,0
1553634450.194,16.602,26.855,27.832,18.066,38.574,0
1553634450.197,35.156,28.809,24.902,16.602,-18.555,0
1553634450.201,42.480,27.344,25.879,20.996,-53.711,0
1553634450.205,41.504,22.461,30.762,29.297,20.996,0
1553634450.209,32.227,26.855,30.273,23.926,30.762,0
1553634450.213,22.949,32.715,25.391,17.090,96.680,0
1553634450.217,20.996,32.715,25.879,20.020,112.793,0
1553634450.221,32.227,31.250,24.902,20.020,48.828,0
1553634450.225,37.109,29.785,21.973,21.484,32.227,0
1553634450.229,42.480,27.832,21.973,19.531,49.316,0
1553634450.233,39.551,25.391,26.367,22.461,38.574,0
1553634450.237,31.738,24.902,28.320,23.438,48.828,0
1553634450.240,33.691,26.855,26.367,9.766,38.086,0
1553634450.244,32.715,29.297,27.344,13.672,-5.859,0
1553634450.248,32.227,29.297,25.879,26.367,16.113,0
1553634450.252,40.527,23.438,22.461,21.484,12.695,0
1553634450.256,34.668,18.066,24.902,19.043,1.953,0
1553634450.260,28.320,25.391,25.879,22.461,36.621,0
1553634450.264,41.016,30.762,24.414,20.508,-22.949,0
1553634450.268,43.945,29.297,24.902,20.508,-20.996,0
1553634450.272,36.621,27.344,20.996,30.273,42.480,0
1553634450.276,26.855,23.438,24.414,38.086,20.996,0
1553634450.280,24.414,26.855,27.344,31.738,45.898,0
1553634450.283,31.738,28.320,26.367,33.691,36.621,0
1553634450.287,31.250,25.391,26.855,39.062,-3.906,0
1553634450.291,25.391,18.555,29.297,31.738,-3.906,0
1553634450.295,29.785,17.090,31.250,23.926,50.293,0
1553634450.299,45.410,20.020,28.809,25.391,87.891,0
1553634450.303,35.645,21.973,28.320,22.949,39.551,0
1553634450.307,22.461,20.508,28.320,26.855,24.414,0
1553634450.311,28.320,18.555,28.809,34.180,9.766,0
1553634450.315,21.973,25.391,29.785,27.344,33.691,0
1553634450.319,21.973,27.832,27.344,14.160,48.828,0
1553634450.322,38.574,27.344,27.344,17.090,23.438,0
1553634450.326,45.898,23.926,27.832,27.832,34.668,0
1553634450.330,33.691,24.414,24.414,31.738,47.363,0
1553634450.334,28.320,24.902,28.809,36.133,29.785,0
1553634450.338,33.203,23.926,27.344,32.227,4.395,0
1553634450.342,37.598,23.438,24.414,27.344,-3.906,0
1553634450.346,40.527,22.461,29.785,25.391,28.809,0
1553634450.350,43.457,24.414,29.785,32.715,55.176,0
1553634450.354,45.410,25.879,27.344,36.133,59.082,0
1553634450.358,52.246,22.949,26.367,33.203,39.062,0
1553634450.362,45.410,22.461,24.902,42.480,54.688,0
1553634450.365,42.480,27.832,23.438,38.086,28.809,0
1553634450.369,53.223,33.203,22.949,18.555,26.367,0
1553634450.373,50.293,35.645,22.461,21.973,65.430,0
1553634450.377,51.270,31.738,23.926,24.902,49.805,0
1553634450.381,43.457,28.809,23.438,22.949,38.086,0
1553634450.385,44.922,30.273,21.973,28.809,15.625,0
1553634450.389,35.645,28.320,25.879,19.531,-5.859,0
1553634450.393,21.484,23.926,29.297,14.160,24.414,0
1553634450.397,30.762,19.531,30.762,21.973,12.207,0
1553634450.401,34.668,20.996,31.250,32.715,-15.137,0
1553634450.405,38.574,27.344,29.785,31.738,-12.207,0
1553634450.408,42.480,27.344,26.855,16.113,11.719,0
1553634450.412,35.156,27.344,27.344,10.254,36.621,0
1553634450.416,42.969,29.297,28.320,28.320,9.277,0
1553634450.420,57.617,28.809,29.785,40.527,7.324,0
1553634450.424,40.527,27.832,28.320,23.926,33.691,0
1553634450.428,21.484,19.531,32.227,13.672,16.602,0
1553634450.432,15.137,17.090,36.621,23.926,-4.395,0
1553634450.436,21.973,18.066,33.691,22.949,19.043,0
1553634450.440,30.273,17.090,32.227,18.066,5.371,0
1553634450.444,34.668,17.578,33.203,28.809,22.949,0
1553634450.447,29.297,19.043,34.180,29.785,-0.488,0
1553634450.451,20.020,20.020,33.203,25.879,-25.879,0
1553634450.455,37.598,18.066,29.297,27.344,38.574,0
1553634450.459,30.273,19.531,32.715,23.926,35.645,0
1553634450.463,31.250,23.438,37.598,28.809,80.566,0
1553634450.467,41.504,23.438,36.133,20.020,70.312,0
1553634450.471,18.066,20.996,31.738,8.301,41.992,0
1553634450.475,13.184,20.020,29.297,17.578,72.266,0
1553634450.479,31.250,21.973,26.367,30.762,82.031,0
1553634450.483,35.156,23.438,27.832,28.320,71.289,0
1553634450.487,42.480,19.043,33.203,27.832,24.414,0
1553634450.490,35.156,19.531,31.738,24.902,87.891,0
1553634450.494,24.414,26.367,30.762,23.438,126.465,0
1553634450.498,38.086,24.902,32.227,32.227,35.156,0
1553634450.502,42.969,22.949,27.832,33.203,-6.836,0
1553634450.506,35.156,23.926,28.320,26.367,41.016,0
1553634450.510,35.645,21.484,30.762,29.785,71.777,0
1553634450.514,24.414,20.996,31.250,28.809,6.348,0
1553634450.518,24.902,22.461,32.715,30.273,-21.973,0
1553634450.522,38.086,22.949,32.715,35.645,52.734,0
1553634450.526,39.551,26.367,32.715,38.086,42.480,0
1553634450.530,35.645,25.879,32.227,36.133,-0.977,0
1553634450.533,30.273,23.438,32.227,25.391,-12.695,0
1553634450.537,44.434,26.855,32.227,23.438,-0.488,0
1553634450.541,51.758,26.367,31.738,36.133,22.461,0
1553634450.545,30.273,23.438,31.738,29.785,24.902,0
1553634450.549,21.973,21.973,30.273,20.508,25.391,0
1553634450.553,27.344,21.484,29.785,27.344,52.734,0
1553634450.557,25.879,24.902,30.762,26.367,57.617,0
1553634450.561,26.855,28.320,32.715,22.949,52.246,0
1553634450.565,28.320,28.809,33.203,33.691,114.746,0
1553634450.569,22.949,26.855,30.273,34.180,85.449,0
1553634450.572,25.879,25.391,29.785,20.996,23.926,0
1553634450.576,35.645,25.391,33.203,35.156,23.926,0
1553634450.580,46.875,25.391,34.180,32.715,10.254,0
1553634450.584,50.293,23.926,33.203,16.602,22.949,0
1553634450.588,34.180,24.902,33.691,32.227,-9.277,0
1553634450.592,21.973,26.367,33.691,38.086,16.602,0
1553634450.596,27.832,24.902,32.227,29.785,73.730,0
1553634450.600,32.715,25.391,33.203,18.555,58.105,0
1553634450.604,38.086,23.926,29.785,19.043,52.246,0
1553634450.608,49.316,15.137,28.809,21.484,18.066,0
1553634450.612,30.762,14.160,29.297,17.090,78.125,0
1553634450.615,17.578,25.879,31.250,23.926,100.098,0
1553634450.619,19.043,32.715,31.250,29.297,54.199,0
1553634450.623,27.344,27.832,28.809,20.508,19.531,0
1553634450.627,36.133,25.879,29.297,22.461,-9.277,0
1553634450.631,27.832,24.902,30.273,27.344,29.785,0
1553634450.635,20.508,20.508,25.391,15.137,25.391,0
1553634450.639,38.574,17.578,25.879,19.043,4.883,0
1553634450.643,36.621,25.391,31.738,32.715,28.809,0
1553634450.647,29.785,27.344,29.785,20.996,29.785,0
1553634450.651,31.250,22.461,26.855,10.254,10.254,0
1553634450.655,25.879,24.414,27.344,19.531,36.621,0
1553634450.658,37.109,24.414,30.762,33.203,6.836,0
1553634450.662,36.621,23.438,30.762,38.086,29.785,0
1553634450.666,26.855,20.020,30.762,35.645,15.137,0
1553634450.670,27.344,20.508,32.715,42.969,-28.809,0
1553634450.674,41.016,26.855,29.785,38.574,15.625,0
1553634450.678,48.340,27.832,25.391,20.020,22.949,0
1553634450.682,30.762,32.715,21.973,9.766,-15.625,0
1553634450.686,26.367,34.180,24.414,23.926,-5.371,0
1553634450.690,42.969,33.691,27.832,29.785,4.395,0
1553634450.694,43.945,32.715,22.461,15.137,53.223,0
1553634450.697,44.434,35.156,19.043,29.785,94.238,0
1553634450.701,39.551,38.086,23.926,37.598,67.871,0
1553634450.705,36.621,37.598,25.879,40.527,49.316,0
1553634450.709,52.246,36.621,25.391,38.086,-7.324,0
1553634450.713,48.828,34.180,24.902,38.086,3.418,0
1553634450.717,52.734,31.738,26.855,49.805,4.395,0
1553634450.721,47.852,27.832,25.879,47.363,3.418,0
1553634450.725,26.367,27.344,23.926,25.391,2.930,0
1553634450.729,31.738,28.320,26.367,22.949,-1.953,0
1553634450.733,50.781,28.809,24.902,24.414,38.574,0
1553634450.737,50.781,29.297,24.902,38.086,2.930,0
1553634450.740,51.270,29.785,25.879,46.387,-21.484,0
1553634450.744,49.316,29.297,24.902,48.828,21.973,0
1553634450.748,54.199,26.855,26.367,54.688,45.410,0
1553634450.752,59.082,24.414,26.855,48.828,59.082,0
1553634450.756,39.062,26.855,25.391,47.852,85.938,0
1553634450.760,43.457,26.367,23.926,39.062,81.055,0
1553634450.764,50.781,24.902,23.926,35.645,-8.301,0
1553634450.768,51.270,27.832,22.949,41.016,-23.438,0
1553634450.772,56.641,29.785,23.926,38.086,8.789,0
1553634450.776,40.039,27.344,27.344,35.156,0.488,0
1553634450.780,32.227,24.902,25.391,36.133,62.500,0
1553634450.783,38.574,25.879,22.949,26.367,87.891,0
1553634450.787,32.715,27.344,20.508,37.598,115.723,0
1553634450.791,28.320,23.438,23.438,53.223,96.191,0
1553634450.795,39.551,20.508,28.320,49.316,5.371,0
1553634450.799,39.551,21.973,26.367,34.668,21.973,0
1553634450.803,45.410,26.855,24.902,31.250,39.551,0
1553634450.807,46.387,27.344,26.855,50.293,27.344,0
1553634450.811,36.133,27.344,24.902,40.527,64.941,0
1553634450.815,42.969,26.367,24.414,30.762,37.598,0
1553634450.819,48.828,24.902,23.438,33.691,17.090,0
1553634450.822,50.781,25.391,23.926,41.016,17.090,0
1553634450.826,41.992,25.391,28.809,43.945,-0.488,0
1553634450.830,43.945,26.367,28.320,38.086,-19.043,0
1553634450.834,53.223,25.391,24.414,42.480,-24.902,0
1553634450.838,36.133,25.391,24.902,42.480,-7.324,0
1553634450.842,27.344,25.879,25.879,40.039,31.738,0
1553634450.846,42.969,22.949,25.391,48.340,44.434,0
1553634450.850,38.086,20.020,26.855,53.711,36.133,0
1553634450.854,26.855,18.066,25.879,40.527,44.922,0
1553634450.858,33.691,18.066,25.879,39.551,41.504,0
1553634450.862,44.922,20.996,26.367,41.504,32.227,0
1553634450.865,35.645,21.484,24.414,23.438,19.043,0
1553634450.869,31.738,20.508,24.414,30.762,32.715,0
1553634450.873,39.062,20.020,25.879,35.156,64.453,0
1553634450.877,43.457,14.160,27.832,44.434,51.758,0
1553634450.881,32.227,10.742,30.273,45.410,-20.508,0
1553634450.885,20.508,18.066,28.320,28.809,33.203,0
1553634450.889,24.902,18.555,26.855,33.691,74.219,0
1553634450.893,19.043,14.648,28.809,39.551,49.805,0
1553634450.897,21.973,15.137,27.344,43.457,53.711,0
1553634450.901,65.430,16.602,26.367,70.801,53.223,0
1553634450.905,75.195,17.090,31.250,80.078,34.180,0
1553634450.908,37.598,15.625,33.691,55.664,3.906,0
1553634450.912,16.602,13.672,31.738,49.316,22.949,0
1553634450.916,36.621,9.766,33.203,47.363,45.410,0
1553634450.920,54.199,10.254,36.133,64.941,46.387,0
1553634450.924,40.039,5.371,37.598,73.242,20.508,0
1553634450.928,29.297,-1.465,40.039,58.594,12.207,0
1553634450.932,34.668,-1.953,41.016,59.570,73.242,0
1553634450.936,43.945,-4.395,43.457,59.570,48.340,0
1553634450.940,47.363,-4.395,47.363,69.824,20.996,0
1553634450.944,50.293,-2.441,48.828,69.336,39.062,0
1553634450.947,56.641,-2.930,47.363,70.801,17.578,0
1553634450.951,53.223,-6.836,46.875,80.078,17.578,0
1553634450.955,47.852,-4.395,49.316,78.125,-7.324,0
1553634450.959,44.434,6.348,47.363,68.359,4.883,0
1553634450.963,46.875,6.348,41.016,62.988,50.781,0
1553634450.967,51.758,4.883,38.574,55.664,22.461,0
1553634450.971,35.645,7.812,39.062,52.246,-22.461,0
1553634450.975,47.363,9.277,40.527,65.918,62.012,0
1553634450.979,59.082,9.766,40.039,47.363,87.891,0
1553634450.983,46.387,10.742,36.621,41.504,23.926,0
1553634450.987,43.945,10.254,34.668,59.570,91.309,0
1553634450.990,48.828,10.254,36.133,56.152,58.105,0
1553634450.994,44.434,14.160,37.598,59.570,31.738,0
1553634450.998,35.156,13.672,39.062,72.266,78.125,0
1553634451.002,39.062,11.230,38.574,70.312,71.289,0
1553634451.006,50.293,13.672,37.598,58.594,41.992,0
1553634451.010,56.641,15.625,36.133,56.641,63.965,0
1553634451.014,52.734,10.742,34.668,57.129,23.438,0
1553634451.018,47.852,10.742,35.645,56.152,-12.207,0
1553634451.022,49.805,20.020,32.715,57.129,-0.488,0
1553634451.026,48.340,21.484,33.203,54.199,15.625,0
1553634451.030,51.270,17.090,35.645,50.781,-2.930,0
1553634451.033,56.641,22.461,32.715,56.641,-17.578,0
1553634451.037,67.383,22.949,33.691,64.453,-7.324,0
1553634451.041,54.199,18.066,35.645,60.547,-28.320,0
1553634451.045,53.223,19.531,33.203,59.570,19.531,0
1553634451.049,54.199,18.555,34.668,61.523,72.754,0
1553634451.053,52.246,18.555,37.109,55.664,52.246,0
1553634451.057,56.641,22.461,35.156,55.664,25.879,0
1553634451.061,48.340,22.461,35.156,51.270,-12.207,0
1553634451.065,50.781,21.484,36.133,52.246,17.578,0
1553634451.069,46.875,25.879,36.133,54.688,41.016,0
1553634451.072,46.875,25.879,33.691,51.758,20.020,0
1553634451.076,53.223,21.484,35.156,68.359,59.570,0
1553634451.080,34.668,21.484,34.180,69.824,92.773,0
1553634451.084,37.109,19.531,30.273,46.875,105.957,0
1553634451.088,45.410,20.996,30.273,40.527,46.387,0
1553634451.092,43.457,26.367,30.762,49.316,21.973,0
1553634451.096,45.898,27.344,31.250,52.246,74.707,0
1553634451.100,38.086,28.320,30.762,47.363,83.984,0
1553634451.104,28.320,29.297,28.320,48.340,48.828,0
1553634451.108,34.668,25.391,29.297,55.664,65.430,0
1553634451.112,43.457,27.832,30.273,54.688,62.988,0
1553634451.115,35.156,32.227,31.738,45.898,36.621,0
1553634451.119,41.992,27.344,31.250,34.180,5.859,0
1553634451.123,48.828,27.344,29.297,44.434,52.246,0
1553634451.127,33.203,29.785,30.273,56.641,44.434,0
1553634451.131,30.762,23.926,31.738,39.062,32.227,0
1553634451.135,36.621,23.926,28.809,38.574,55.176,0
1553634451.139,31.250,26.855,28.809,50.781,24.414,0
1553634451.143,35.645,27.832,31.250,41.504,19.043,0
1553634451.147,38.574,28.809,30.762,36.621,22.461,0
1553634451.151,26.855,27.832,30.762,43.457,2.930,0
1553634451.155,24.414,27.344,28.809,48.340,58.105,0
1553634451.158,46.875,28.320,27.344,37.598,37.598,0
1553634451.162,43.945,27.832,25.879,41.504,-14.648,0
1553634451.166,49.316,27.344,24.902,43.945,26.855,0
1553634451.170,44.434,27.344,28.320,40.527,14.160,0
1553634451.174,18.066,27.344,30.273,44.434,36.621,0
1553634451.178,32.227,26.367,29.297,54.199,22.949,0
1553634451.182,22.461,26.855,32.227,54.199,53.711,0
1553634451.186,27.832,25.879,33.203,39.062,37.109,0
1553634451.190,20.996,25.391,26.855,35.156,22.461,0
1553634451.194,-1.953,25.879,27.344,37.598,36.621,0
1553634451.197,13.672,24.902,25.879,48.340,-7.812,0
1553634451.201,20.020,27.344,20.508,38.086,-17.090,0
1553634451.205,16.602,30.762,21.484,21.484,5.371,0
1553634451.209,26.855,30.273,21.484,36.621,49.316,0
1553634451.213,33.203,29.785,20.020,40.039,39.062,0
1553634451.217,27.832,31.250,22.949,37.598,8.789,0
1553634451.221,27.832,28.809,26.367,41.016,28.320,0
1553634451.225,13.184,26.367,31.738,39.551,95.703,0
1553634451.229,18.555,28.809,33.203,34.668,63.477,0
1553634451.233,33.691,32.715,32.227,33.691,17.578,0
1553634451.237,33.691,32.715,28.809,37.598,18.066,0
1553634451.240,35.156,32.227,25.391,42.480,23.438,0
1553634451.244,24.414,29.297,28.320,40.527,51.270,0
1553634451.248,19.531,26.367,27.832,39.062,-7.324,0
1553634451.252,24.902,25.879,29.297,48.340,-51.758,0
1553634451.256,32.227,26.855,29.297,40.527,-11.230,0
1553634451.260,42.969,29.785,29.785,44.922,17.090,0
1553634451.264,47.363,33.203,33.691,46.387,18.066,0
1553634451.268,38.086,35.645,31.738,39.062,16.602,0
1553634451.272,33.691,35.645,28.320,42.480,24.902,0
1553634451.276,29.785,33.691,28.809,36.133,15.625,0
1553634451.280,34.668,32.715,31.738,41.992,22.461,0
1553634451.283,31.738,30.762,35.156,39.062,38.574,0
1553634451.287,41.992,28.809,33.203,36.621,-29.785,0
1553634451.291,53.711,27.344,32.227,50.293,-30.273,0
1553634451.295,34.668,30.762,34.668,49.316,31.738,0
1553634451.299,40.039,35.156,31.250,44.922,70.801,0
1553634451.303,54.199,33.203,29.297,48.828,72.754,0
1553634451.307,52.246,29.785,33.203,57.617,13.184,0
1553634451.311,48.340,31.738,33.691,65.430,-19.531,0
1553634451.315,62.012,31.250,32.227,51.758,20.996,0
1553634451.319,51.758,31.738,29.297,35.645,48.340,0
1553634451.322,38.086,33.691,29.297,50.781,67.383,0
1553634451.326,54.199,36.621,28.809,59.570,57.129,0
1553634451.330,63.477,34.668,30.273,55.176,49.316,0
1553634451.334,52.734,30.273,32.715,62.500,46.387,0
1553634451.338,27.344,32.227,31.738,42.969,50.293,0
1553634451.342,35.645,29.785,30.762,32.227,39.062,0
1553634451.346,33.203,30.273,29.785,47.363,-19.043,0
1553634451.350,38.574,34.668,30.273,45.898,-5.371,0
1553634451.354,50.293,34.180,30.762,50.293,26.367,0
1553634451.358,30.762,31.250,30.762,54.688,27.344,0
1553634451.362,23.926,29.297,29.297,55.664,59.082,0
1553634451.365,32.227,30.273,29.785,51.270,43.945,0
1553634451.369,41.504,32.227,31.250,41.992,16.602,0
1553634451.373,40.039,31.738,32.715,46.387,17.090,0
1553634451.377,42.480,29.297,32.715,47.363,37.598,0
1553634451.381,46.875,30.762,31.250,47.852,-6.348,0
1553634451.385,43.457,32.227,30.762,53.223,-41.992,0
1553634451.389,41.992,30.273,34.180,53.711,17.090,0
1553634451.393,45.898,26.855,35.645,36.621,-14.160,0
1553634451.397,35.156,24.902,37.109,33.203,-25.879,0
1553634451.401,27.344,21.973,38.086,42.969,14.648,0
1553634451.405,22.461,22.461,37.109,55.176,-35.156,0
1553634451.408,44.922,26.367,37.109,51.758,-18.066,0
1553634451.412,47.363,28.809,36.133,44.922,3.906,0
1553634451.416,13.672,29.785,36.133,63.477,3.906,0
1553634451.420,29.785,28.809,36.133,64.453,0.000,0
1553634451.424,29.297,30.762,36.133,55.176,11.230,0
1553634451.428,18.555,33.203,35.156,58.105,56.641,0
1553634451.432,41.504,30.762,33.691,55.664,7.812,0
1553634451.436,38.574,29.785,34.668,56.152,0.488,0
1553634451.440,32.227,34.180,34.180,71.777,34.668,0
1553634451.444,44.922,35.645,32.227,64.941,-6.836,0
1553634451.447,34.180,32.715,35.156,51.758,36.133,0
1553634451.451,24.902,33.691,36.621,60.059,80.566,0
1553634451.455,36.133,37.598,34.668,62.500,83.984,0
1553634451.459,35.645,36.621,34.180,41.016,79.590,0
1553634451.463,49.316,35.645,33.203,55.176,-0.977,0
1553634451.467,48.828,36.133,30.273,83.984,17.090,0
1553634451.471,47.363,34.180,28.320,55.176,62.500,0
1553634451.475,40.527,26.855,28.320,45.898,2.930,0
1553634451.479,29.785,18.066,29.297,67.871,4.883,0
1553634451.483,42.969,11.230,29.297,63.965,53.711,0
1553634451.487,57.617,7.812,31.250,71.289,41.504,0
1553634451.490,50.293,1.953,32.227,68.848,-6.836,0
1553634451.494,41.504,-3.906,33.203,60.059,10.742,0
1553634451.498,57.129,-1.465,34.180,80.566,36.621,0
1553634451.502,46.875,-0.488,33.203,85.449,-27.832,0
1553634451.506,35.156,-4.395,33.203,66.406,-21.484,0
1553634451.510,43.945,-6.836,32.227,68.848,44.434,0
1553634451.514,41.504,-6.348,30.762,79.102,47.852,0
1553634451.518,40.527,-4.883,32.227,80.566,0.977,0
1553634451.522,55.664,-3.906,32.227,86.426,42.969,0
1553634451.526,56.641,-1.953,30.762,99.121,36.621,0
1553634451.530,42.480,-3.906,34.180,99.121,27.832,0
1553634451.533,38.086,-2.930,32.715,82.031,82.520,0
1553634451.537,47.363,-3.906,29.785,66.895,41.016,0
1553634451.541,49.316,-4.883,31.250,79.102,49.316,0
1553634451.545,34.668,-1.465,33.203,99.609,65.430,0
1553634451.549,47.363,-1.953,34.180,82.031,94.727,0
1553634451.553,57.617,0.000,32.715,69.336,31.250,0
1553634451.557,45.410,5.371,32.715,81.055,-87.402,0
1553634451.561,37.598,6.836,32.227,84.961,-10.254,0
1553634451.565,30.762,4.395,34.668,85.938,59.570,0
1553634451.569,32.715,4.883,35.645,84.961,-5.859,0
1553634451.572,41.992,4.395,33.691,65.918,6.348,0
1553634451.576,39.062,3.906,34.668,65.430,38.574,0
1553634451.580,39.062,6.348,35.156,74.707,7.324,0
1553634451.584,40.527,13.672,31.738,69.824,33.203,0
1553634451.588,42.969,16.113,32.227,75.195,68.359,0
1553634451.592,35.645,13.672,32.715,66.895,10.254,0
1553634451.596,25.879,13.184,28.320,62.500,-15.137,0
1553634451.600,40.039,14.648,30.762,75.684,8.301,0
1553634451.604,44.434,18.066,32.715,58.594,31.250,0
1553634451.608,45.410,17.090,30.273,56.152,27.832,0
1553634451.612,44.434,14.160,29.785,67.871,23.438,0
1553634451.615,29.297,14.160,25.391,60.059,49.316,0
1553634451.619,37.109,12.207,22.461,80.078,53.711,0
1553634451.623,42.969,13.672,26.367,75.195,41.992,0
1553634451.627,30.273,15.137,33.691,50.781,56.152,0
1553634451.631,24.414,16.602,34.180,55.176,85.938,0
1553634451.635,19.043,20.508,28.320,50.781,93.262,0
1553634451.639,22.461,20.508,29.785,56.152,79.102,0
1553634451.643,15.625,20.508,28.809,28.320,49.316,0
1553634451.647,3.906,17.578,26.367,27.344,35.156,0
1553634451.651,6.836,23.438,24.902,41.992,39.551,0
1553634451.655,-0.488,24.414,24.902,27.344,34.180,0
1553634451.658,0.977,24.414,23.926,26.367,29.297,0
1553634451.662,-0.488,29.785,24.414,25.879,20.508,0
1553634451.666,6.348,29.297,23.926,23.438,-4.395,0
1553634451.670,14.648,28.320,18.066,33.203,0.977,0
1553634451.674,9.277,26.855,18.555,37.598,-9.277,0
1553634451.678,18.066,27.832,21.973,47.852,-36.133,0
1553634451.682,10.742,28.320,21.973,52.246,16.602,0
1553634451.686,10.742,25.879,21.973,45.898,62.012,0
1553634451.690,29.297,28.320,21.973,50.293,-4.883,0
1553634451.694,24.902,28.809,20.996,37.598,-16.602,0
1553634451.697,19.531,25.879,20.508,46.875,6.348,0
1553634451.701,35.156,28.809,20.020,61.523,11.719,0
1553634451.705,27.832,28.320,24.414,49.316,17.090,0
1553634451.709,17.090,24.902,26.855,43.945,49.805,0
1553634451.713,17.090,27.832,24.902,63.965,71.289,0
1553634451.717,20.508,26.367,22.949,67.871,11.230,0
1553634451.721,30.762,20.996,21.973,55.176,36.133,0
1553634451.725,31.738,23.926,23.438,60.547,62.012,0
1553634451.729,25.879,29.297,24.902,57.617,52.734,0
1553634451.733,30.762,28.809,25.391,51.270,-9.766,0
1553634451.737,27.832,26.855,25.879,50.293,-48.340,0
1553634451.740,21.973,31.738,26.367,48.340,27.832,0
1553634451.744,29.785,34.668,27.832,61.035,36.133,0
1553634451.748,27.832,30.762,30.273,59.570,10.254,0
1553634451.752,42.480,32.715,28.809,61.035,34.180,0
1553634451.756,47.363,34.668,25.879,74.219,20.508,0
1553634451.760,25.879,31.738,27.344,70.312,35.156,0
1553634451.764,25.391,31.738,26.855,48.828,23.926,0
1553634451.768,25.391,31.250,28.320,44.434,9.766,0
1553634451.772,28.809,33.691,30.273,69.824,22.461,0
1553634451.776,40.039,36.133,31.250,67.871,22.461,0
1553634451.780,43.945,33.203,30.273,50.781,27.832,0
1553634451.783,32.227,33.203,28.320,62.988,-18.555,0
1553634451.787,42.480,37.109,31.250,60.547,-7.812,0
1553634451.791,49.805,38.086,32.715,58.594,39.062,0
1553634451.795,36.621,38.574,33.203,63.965,-41.016,0
1553634451.799,32.715,42.480,32.227,62.988,-7.812,0
1553634451.803,36.133,40.527,31.250,54.199,56.152,0
1553634451.807,36.133,37.598,32.227,44.434,-0.488,0
1553634451.811,20.508,41.016,33.691,43.457,-15.137,0
1553634451.815,25.391,41.992,34.668,53.223,-4.395,0
1553634451.819,50.781,45.410,30.273,61.523,17.090,0
1553634451.822,47.363,48.340,27.344,62.500,36.621,0
1553634451.826,33.203,42.969,30.762,56.641,36.133,0
1553634451.830,27.344,39.551,32.227,50.293,26.367,0
1553634451.834,28.320,37.598,33.691,56.641,49.805,0
1553634451.838,36.621,33.203,31.250,56.152,77.637,0
1553634451.842,38.574,37.109,33.691,45.898,55.176,0
1553634451.846,38.574,41.992,36.133,40.039,65.430,0
1553634451.850,42.480,45.410,31.250,44.434,48.828,0
1553634451.854,54.199,44.434,30.762,62.012,4.395,0
1553634451.858,32.227,42.480,29.297,61.523,23.438,0
1553634451.862,15.625,40.527,29.785,44.922,11.719,0
1553634451.865,31.250,37.109,34.180,47.852,9.277,0
1553634451.869,39.551,37.598,33.691,56.152,4.395,0
1553634451.873,40.039,40.039,31.738,43.457,-5.859,0
1553634451.877,28.320,46.387,30.762,31.738,46.875,0
1553634451.881,33.203,40.527,26.367,49.805,6.836,0
1553634451.885,58.594,35.156,24.902,73.730,-8.301,0
1553634451.889,35.645,42.480,29.785,52.246,64.941,0
1553634451.893,10.254,41.504,30.273,29.297,78.613,0
1553634451.897,21.484,40.527,28.809,34.180,53.223,0
1553634451.901,13.184,41.992,27.832,16.113,43.945,0
1553634451.905,1.953,38.086,26.855,17.090,62.988,0
1553634451.908,3.418,39.062,24.414,23.438,73.730,0
1553634451.912,-6.836,44.922,20.508,17.578,56.152,0
1553634451.916,-3.906,43.945,22.461,20.020,30.273,0
1553634451.920,-0.977,41.992,22.949,11.230,10.742,0
1553634451.924,-11.230,43.457,19.043,4.395,9.277,0
1553634451.928,6.836,39.551,17.578,16.602,18.555,0
1553634451.932,24.902,41.016,18.555,24.414,60.059,0
1553634451.936,8.789,45.898,20.508,28.809,67.871,0
1553634451.940,21.973,42.480,20.996,29.785,20.996,0
1553634451.944,38.086,39.062,20.996,24.902,14.648,0
1553634451.947,42.969,41.016,21.973,25.879,-18.555,0
1553634451.951,45.410,40.039,25.391,40.039,7.812,0
1553634451.955,27.832,37.109,28.809,57.129,47.852,0
1553634451.959,15.137,33.691,29.297,48.340,28.320,0
1553634451.963,22.461,36.621,28.320,42.969,22.949,0
1553634451.967,37.109,42.480,27.344,52.246,9.766,0
1553634451.971,30.762,39.551,24.902,54.688,-1.953,0
1553634451.975,29.785,37.109,21.484,51.270,8.789,0
1553634451.979,29.785,40.039,21.484,35.156,16.113,0
1553634451.983,29.297,40.039,24.414,26.367,15.137,0
1553634451.987,40.527,34.180,22.949,30.273,16.113,0
1553634451.990,30.273,30.762,22.461,39.062,2.930,0
1553634451.994,22.949,34.180,23.438,45.410,-6.836,0
1553634451.998,26.367,33.203,24.414,47.852,18.066,0
1553634452.002,40.527,28.809,25.391,46.387,22.461,0
1553634452.006,58.105,30.273,25.879,46.387,50.293,0
1553634452.010,50.293,29.785,27.344,53.223,90.332,0
1553634452.014,43.945,26.367,26.855,51.270,30.273,0
1553634452.018,41.016,27.832,28.320,47.852,43.945,0
1553634452.022,27.832,27.344,29.785,48.340,52.246,0
1553634452.026,27.344,24.414,27.344,50.781,14.160,0
1553634452.030,31.738,24.902,28.809,53.711,26.367,0
1553634452.033,52.734,25.879,28.809,50.781,66.895,0
1553634452.037,60.059,28.809,29.297,45.410,100.098,0
1553634452.041,34.668,29.785,30.273,48.340,32.715,0
1553634452.045,21.484,29.297,29.297,57.129,-9.277,0
1553634452.049,24.902,28.809,29.297,52.246,47.363,0
1553634452.053,33.203,27.344,27.344,40.527,65.918,0
1553634452.057,45.898,26.367,27.344,43.945,68.848,0
1553634452.061,39.062,25.391,30.762,52.734,48.828,0
1553634452.065,39.062,27.832,32.227,41.992,2.930,0
1553634452.069,47.363,30.762,31.250,44.922,61.523,0
1553634452.072,43.945,28.320,31.250,42.969,117.676,0
1553634452.076,40.527,24.902,31.250,39.062,103.027,0
1553634452.080,47.363,28.320,30.273,53.711,55.176,0
1553634452.084,48.340,31.738,33.691,42.480,33.691,0
1553634452.088,58.105,32.227,35.645,43.457,-27.344,0
1553634452.092,58.105,31.738,31.738,51.270,-17.578,0
1553634452.096,54.688,32.715,30.762,41.016,22.461,0
1553634452.100,54.199,36.621,29.297,33.203,-18.555,0
1553634452.104,41.992,36.133,27.344,43.945,-42.480,0
1553634452.108,42.480,36.133,26.367,39.551,-22.949,0
1553634452.112,38.574,37.109,25.879,35.645,23.926,0
1553634452.115,38.574,36.621,27.832,42.969,12.695,0
1553634452.119,41.504,37.109,27.832,43.945,-1.465,0
1553634452.123,45.410,36.133,26.855,48.340,-13.184,0
1553634452.127,41.504,34.668,29.297,41.504,-15.625,0
1553634452.131,36.621,35.645,29.785,35.156,32.715,0
1553634452.135,48.340,35.156,27.832,34.180,60.547,0
1553634452.139,53.223,30.273,29.785,28.320,56.641,0
1553634452.143,47.852,33.203,31.250,37.598,44.922,0
1553634452.147,26.367,38.086,30.762,40.527,20.996,0
1553634452.151,28.320,37.109,31.250,29.785,39.062,0
1553634452.155,48.340,35.156,28.809,20.508,72.754,0
1553634452.158,43.945,34.668,26.855,22.949,68.359,0
1553634452.162,39.062,31.738,29.785,38.086,22.461,0
1553634452.166,35.156,27.344,31.250,42.969,50.781,0
1553634452.170,32.227,33.203,28.320,40.527,48.340,0
1553634452.174,42.480,32.715,26.367,31.250,21.484,0
1553634452.178,56.641,32.227,25.391,16.113,37.109,0
1553634452.182,31.738,39.551,23.438,24.414,47.363,0
1553634452.186,8.789,37.109,24.902,32.715,20.508,0
1553634452.190,29.297,36.133,26.855,43.457,43.457,0
1553634452.194,25.879,38.086,26.855,38.086,25.879,0
1553634452.197,20.996,38.086,29.785,28.809,-38.574,0
1553634452.201,50.781,39.062,31.738,34.180,-48.340,0
1553634452.205,43.945,40.039,31.250,35.645,-33.691,0
1553634452.209,35.156,36.621,30.762,22.461,28.320,0
1553634452.213,39.062,35.156,28.809,17.090,39.062,0
1553634452.217,30.273,33.691,30.762,24.414,34.180,0
1553634452.221,44.922,31.738,30.762,26.367,39.551,0
1553634452.225,42.969,29.297,30.762,35.156,44.922,0
1553634452.229,40.527,30.762,32.227,43.945,49.805,0
1553634452.233,32.715,33.691,33.203,43.457,58.594,0
1553634452.237,20.508,35.156,31.738,35.156,82.520,0
1553634452.240,43.457,37.598,28.809,36.621,44.434,0
1553634452.244,44.922,33.691,29.297,45.898,-41.016,0
1553634452.248,27.832,31.738,27.344,33.203,-40.527,0
1553634452.252,20.508,34.180,28.320,30.762,28.809,0
1553634452.256,17.090,31.738,29.785,29.297,34.180,0
1553634452.260,24.902,30.273,28.320,34.180,60.547,0
1553634452.264,30.762,28.809,31.738,34.180,79.590,0
1553634452.268,24.414,27.832,33.203,30.273,61.523,0
1553634452.272,24.902,29.297,30.273,23.926,22.461,0
1553634452.276,38.086,29.785,25.391,20.996,0.000,0
1553634452.280,38.086,28.809,24.414,28.320,47.363,0
1553634452.283,20.996,29.297,22.949,37.109,36.621,0
1553634452.287,18.555,30.762,20.508,43.945,20.508,0
1553634452.291,35.156,27.344,22.949,48.828,33.691,0
1553634452.295,34.668,24.414,24.414,45.410,26.367,0
1553634452.299,30.762,29.297,24.414,39.551,29.785,0
1553634452.303,41.016,31.738,25.879,44.922,40.527,0
1553634452.307,43.945,29.297,28.320,35.645,-1.953,0
1553634452.311,22.949,29.297,28.809,29.785,-36.621,0
1553634452.315,30.762,27.344,28.320,40.527,-12.207,0
1553634452.319,37.598,22.949,31.250,49.316,3.906,0
1553634452.322,28.320,22.949,29.297,49.805,-4.395,0
1553634452.326,40.039,25.391,26.367,41.504,-12.695,0
1553634452.330,44.434,23.926,28.320,49.316,55.176,0
1553634452.334,36.621,28.809,28.809,45.898,46.387,0
1553634452.338,34.180,28.809,23.438,55.664,-13.672,0
1553634452.342,44.434,23.926,23.438,47.363,13.672,0
1553634452.346,41.992,23.438,25.391,32.715,20.020,0
1553634452.350,41.016,20.996,23.926,49.316,0.488,0
1553634452.354,45.410,21.973,25.391,38.574,0.977,0
1553634452.358,40.527,23.438,24.902,44.922,-1.953,0
1553634452.362,48.828,19.531,24.902,62.012,7.324,0
1553634452.365,64.453,20.020,24.414,51.758,6.348,0
1553634452.369,37.598,21.973,26.367,49.316,11.230,0
1553634452.373,18.066,20.508,26.855,33.691,7.324,0
1553634452.377,41.992,19.043,23.438,30.762,-23.438,0
1553634452.381,61.035,15.625,23.438,42.969,45.898,0
1553634452.385,44.434,16.113,25.391,49.805,57.617,0
1553634452.389,25.391,22.949,29.785,46.387,5.859,0
1553634452.393,30.273,25.391,27.344,36.621,1.465,0
1553634452.397,28.320,24.902,23.926,38.574,8.301,0
1553634452.401,33.203,22.949,23.926,34.668,6.348,0
1553634452.405,32.227,20.508,23.926,31.250,-24.902,0
1553634452.408,35.156,17.090,27.832,44.922,-54.199,0
1553634452.412,36.133,19.531,28.320,48.340,-6.836,0
1553634452.416,42.480,19.043,27.832,41.016,57.617,0
1553634452.420,51.270,17.090,28.809,38.086,24.902,0
1553634452.424,37.598,20.508,27.832,49.805,-13.672,0
1553634452.428,29.785,20.020,28.320,51.270,-38.086,0
1553634452.432,33.691,21.973,28.809,43.945,25.391,0
1553634452.436,30.762,24.902,28.320,52.734,52.246,0
1553634452.440,41.016,27.344,26.367,39.062,-50.781,0
1553634452.444,44.922,28.320,26.855,29.785,0.000,0
1553634452.447,30.762,24.902,28.809,41.016,55.664,0
1553634452.451,28.809,22.949,30.273,52.734,26.367,0
1553634452.455,38.086,20.508,31.250,55.176,35.645,0
1553634452.459,37.109,20.020,28.809,50.293,-3.906,0
1553634452.463,31.738,22.461,30.273,56.641,20.020,0
1553634452.467,37.109,27.832,32.715,55.176,66.895,0
1553634452.471,59.570,33.203,32.227,65.430,56.641,0
1553634452.475,61.035,34.180,32.715,70.801,73.730,0
1553634452.479,37.598,35.645,28.809,56.152,74.219,0
1553634452.483,38.574,36.133,28.320,50.781,36.133,0
1553634452.487,49.316,34.668,28.809,54.199,65.918,0
1553634452.490,55.664,37.598,26.855,61.035,82.031,0
1553634452.494,70.801,38.574,25.879,65.430,-25.879,0
1553634452.498,60.059,41.016,23.926,71.777,-9.277,0
1553634452.502,49.316,44.434,25.391,79.102,87.891,0
1553634452.506,53.711,41.016,28.320,79.102,42.969,0
1553634452.510,63.965,38.086,27.832,61.523,25.391,0
1553634452.514,59.570,39.062,27.344,56.641,44.922,0
1553634452.518,48.340,38.574,29.297,51.758,12.207,0
1553634452.522,48.340,36.621,32.715,56.152,-6.348,0
1553634452.526,47.852,37.598,31.250,76.172,7.324,0
1553634452.530,45.410,35.156,27.344,61.523,5.859,0
1553634452.533,56.152,32.227,30.762,59.570,-3.906,0
1553634452.537,60.059,34.180,35.156,67.871,45.410,0
1553634452.541,57.129,33.691,34.180,66.406,55.176,0
1553634452.545,37.598,29.785,36.133,60.059,55.664,0
1553634452.549,36.621,29.785,36.621,50.781,75.684,0
1553634452.553,46.387,35.156,33.203,48.828,73.730,0
1553634452.557,45.410,39.062,33.203,46.875,49.805,0
1553634452.561,57.129,36.621,34.180,48.828,18.555,0
1553634452.565,50.781,34.180,32.227,60.547,41.992,0
1553634452.569,31.738,32.715,29.785,56.641,15.137,0
1553634452.572,24.902,30.273,29.785,43.457,-4.395,0
1553634452.576,41.016,30.762,30.762,47.852,16.602,0
1553634452.580,49.805,31.738,33.203,57.129,29.785,0
1553634452.584,56.152,32.715,32.715,60.547,21.973,0
1553634452.588,61.035,34.180,31.250,58.594,-1.953,0
1553634452.592,50.781,33.691,30.273,62.500,47.852,0
1553634452.596,32.227,38.086,27.344,53.711,91.309,0
1553634452.600,37.598,39.062,28.809,53.711,54.688,0
1553634452.604,48.340,33.691,32.227,55.176,64.453,0
1553634452.608,45.410,30.762,31.738,46.875,70.312,0
1553634452.612,52.734,35.645,27.832,50.781,23.926,0
1553634452.615,48.340,42.969,25.879,55.664,-17.090,0
1553634452.619,48.828,37.598,28.320,62.012,22.949,0
1553634452.623,62.988,34.668,30.273,67.871,8.301,0
1553634452.627,58.594,36.133,27.832,59.082,40.039,0
1553634452.631,30.273,34.668,28.320,64.453,75.195,0
1553634452.635,25.391,33.691,28.320,68.848,4.883,0
1553634452.639,44.434,31.250,26.367,62.988,34.668,0
1553634452.643,41.016,28.320,30.273,60.547,35.156,0
1553634452.647,37.598,33.203,31.738,53.711,22.461,0
1553634452.651,45.410,37.109,30.273,56.152,51.270,0
1553634452.655,46.875,35.156,30.273,58.105,-35.156,0
1553634452.658,45.898,34.180,28.320,64.453,-1.465,0
1553634452.662,41.992,30.762,26.855,60.547,55.664,0
1553634452.666,31.738,31.738,25.391,56.641,25.391,0
1553634452.670,33.203,35.156,28.320,53.711,68.359,0
1553634452.674,43.945,34.180,32.715,60.547,57.129,0
1553634452.678,28.809,34.180,32.227,63.477,41.016,0
1553634452.682,26.367,33.691,27.832,55.664,88.867,0
1553634452.686,46.387,35.645,24.414,44.434,100.586,0
1553634452.690,41.504,35.645,27.832,52.246,24.414,0
1553634452.694,34.668,31.738,31.738,69.336,1.953,0
1553634452.697,40.039,30.273,31.738,57.129,27.832,0
1553634452.701,45.410,33.691,33.691,46.875,-34.668,0
1553634452.705,40.527,34.180,30.762,41.016,-41.504,0
1553634452.709,32.715,33.691,25.391,52.734,7.324,0
1553634452.713,26.367,30.762,29.297,59.570,27.832,0
1553634452.717,20.996,30.273,30.273,46.387,69.336,0
1553634452.721,49.805,30.273,24.414,39.551,72.754,0
1553634452.725,73.242,24.414,26.367,65.918,50.293,0
1553634452.729,41.016,28.320,29.785,66.406,45.898,0
1553634452.733,22.949,31.250,30.762,48.340,99.121,0
1553634452.737,22.949,24.902,35.156,54.688,80.566,0
1553634452.740,23.438,24.902,34.180,57.129,-12.207,0
1553634452.744,33.691,26.855,32.715,61.523,5.859,0
1553634452.748,23.926,21.484,34.668,59.570,13.184,0
1553634452.752,20.996,20.020,34.180,67.871,49.805,0
1553634452.756,43.457,22.949,34.668,64.453,50.781,0
1553634452.760,49.805,20.508,32.227,37.109,75.684,0
1553634452.764,44.434,17.578,33.203,38.574,55.176,0
1553634452.768,34.668,19.531,33.691,57.617,-14.160,0
1553634452.772,37.109,20.508,32.715,49.805,21.484,0
1553634452.776,47.852,22.949,33.691,53.223,25.879,0
1553634452.780,40.039,22.461,32.715,57.617,64.941,0
1553634452.783,40.039,19.531,35.156,62.012,59.570,0
1553634452.787,43.945,17.090,34.180,68.359,80.566,0
1553634452.791,46.875,20.020,34.668,60.547,74.707,0
1553634452.795,46.875,22.461,37.109,54.688,24.902,0
1553634452.799,44.434,21.973,34.668,51.758,62.500,0
1553634452.803,48.828,25.879,33.203,50.293,56.152,0
1553634452.807,33.203,25.879,37.109,54.688,17.578,0
1553634452.811,25.879,21.484,36.133,59.082,12.695,0
1553634452.815,37.598,21.973,30.762,60.059,-42.969,0
1553634452.819,50.781,24.414,32.715,66.895,-12.207,0
1553634452.822,51.270,26.367,34.668,60.059,75.195,0
1553634452.826,46.875,27.832,31.738,50.293,45.898,0
1553634452.830,60.059,26.367,32.715,58.105,-18.066,0
1553634452.834,53.223,27.832,30.273,51.758,0.000,0
1553634452.838,34.668,28.809,27.832,55.176,52.246,0
1553634452.842,33.203,27.832,28.320,61.035,23.438,0
1553634452.846,47.363,28.320,28.809,54.199,23.438,0
1553634452.850,53.223,30.762,26.855,59.570,17.578,0
1553634452.854,34.180,30.273,25.879,60.059,-24.902,0
1553634452.858,44.434,31.250,26.367,51.758,20.996,0
1553634452.862,54.688,34.180,26.855,62.012,51.270,0
1553634452.865,32.715,29.785,28.809,62.500,15.625,0
1553634452.869,32.227,28.320,28.320,42.480,12.695,0
1553634452.873,50.293,26.367,28.320,29.297,39.551,0
1553634452.877,44.434,24.902,28.320,39.551,41.504,0
1553634452.881,29.297,23.926,28.320,55.664,11.230,0
1553634452.885,37.598,20.996,28.320,42.969,-6.348,0
1553634452.889,44.434,21.973,30.273,27.832,14.648,0
1553634452.893,29.297,20.508,31.250,39.551,50.293,0
1553634452.897,27.832,23.926,28.320,50.293,73.242,0
1553634452.901,52.246,34.180,23.438,47.852,89.844,0
1553634452.905,60.547,34.668,28.809,74.219,70.801,0
1553634452.908,39.062,31.250,33.691,62.988,9.766,0
1553634452.912,22.949,30.762,32.715,37.109,41.016,0
1553634452.916,50.293,27.832,34.180,35.156,31.250,0
1553634452.920,42.480,26.367,33.691,18.555,0.488,0
1553634452.924,20.508,27.832,34.668,26.855,7.324,0
1553634452.928,18.555,26.367,37.598,33.691,-28.320,0
1553634452.932,21.484,22.949,36.621,41.504,13.672,0
1553634452.936,24.902,24.414,36.621,40.039,-6.836,0
1553634452.940,33.691,24.902,39.062,43.945,-16.113,0
1553634452.944,43.457,19.531,37.598,45.898,27.832,0
1553634452.947,39.551,19.043,35.645,37.598,-14.160,0
1553634452.951,34.668,20.996,35.645,37.109,-22.461,0
1553634452.955,30.762,26.367,34.180,30.762,33.691,0
1553634452.959,41.504,24.902,32.715,35.645,44.922,0
1553634452.963,47.852,9.766,36.133,47.363,14.648,0
1553634452.967,26.367,11.719,35.645,46.387,40.039,0
1553634452.971,28.809,29.785,34.668,49.805,24.902,0
1553634452.975,45.410,34.668,31.738,41.504,20.020,0
1553634452.979,42.480,30.762,32.715,43.457,12.207,0
1553634452.983,37.109,30.273,32.227,49.805,20.996,0
1553634452.987,34.668,29.785,28.320,30.273,23.438,0
1553634452.990,43.457,24.902,30.762,28.320,-5.371,0
1553634452.994,36.133,21.973,32.227,36.133,-16.602,0
1553634452.998,33.203,23.926,30.762,35.645,-20.020,0
1553634453.002,33.691,26.367,29.297,41.016,35.645,0
1553634453.006,35.645,22.949,30.762,28.320,58.594,0
1553634453.010,28.809,20.020,32.227,25.879,10.742,0
1553634453.014,23.926,22.949,32.227,34.180,13.184,0
1553634453.018,39.551,8.301,35.156,29.297,24.902,0
1553634453.022,39.062,11.719,35.645,31.738,-16.113,0
1553634453.026,37.598,34.180,31.250,43.457,24.902,0
1553634453.030,35.156,36.621,28.320,44.434,55.664,0
1553634453.033,20.020,33.691,27.832,49.316,46.875,0
1553634453.037,28.809,30.273,29.297,37.109,71.777,0
1553634453.041,30.273,29.785,30.273,28.809,48.340,0
1553634453.045,29.297,28.320,34.668,44.922,61.523,0
1553634453.049,42.969,21.973,36.621,44.922,84.473,0
1553634453.053,60.059,23.438,34.668,39.551,41.016,0
1553634453.057,62.012,29.785,34.180,42.969,6.836,0
1553634453.061,40.527,27.832,35.645,51.270,-13.184,0
1553634453.065,35.645,29.785,31.738,42.969,28.320,0
1553634453.069,41.504,33.203,29.785,47.852,52.734,0
1553634453.072,40.039,28.809,31.738,45.898,31.738,0
1553634453.076,40.039,26.367,30.273,24.414,59.082,0
1553634453.080,33.203,26.367,27.344,25.879,99.609,0
1553634453.084,25.391,29.785,27.344,32.227,68.359,0
1553634453.088,46.875,29.785,29.785,33.691,79.590,0
1553634453.092,47.852,27.832,28.809,27.344,104.980,0
1553634453.096,30.762,25.879,28.320,19.043,29.785,0
1553634453.100,28.809,17.090,28.809,22.949,25.879,0
1553634453.104,23.438,16.113,30.273,22.949,46.387,0
1553634453.108,21.973,24.414,33.691,26.855,-11.230,0
1553634453.112,22.461,23.438,34.180,33.691,-44.434,0
1553634453.115,34.180,20.020,32.715,34.180,14.160,0
1553634453.119,43.945,22.461,30.762,40.527,47.363,0
1553634453.123,46.387,27.832,26.367,44.434,45.410,0
1553634453.127,43.457,27.344,26.367,20.020,62.988,0
1553634453.131,30.273,24.902,26.367,15.625,80.078,0
1553634453.135,32.227,22.949,28.809,43.457,31.738,0
1553634453.139,41.504,22.949,32.227,42.480,-17.090,0
1553634453.143,39.551,23.926,29.785,23.438,23.926,0
1553634453.147,49.805,21.973,30.273,21.973,72.266,0
1553634453.151,56.152,17.090,34.668,40.527,74.219,0
1553634453.155,48.340,16.113,36.621,54.199,-2.441,0
1553634453.158,75.684,20.996,35.156,41.504,-28.320,0
1553634453.162,74.707,16.113,37.109,43.457,-2.930,0
1553634453.166,55.176,12.207,37.598,60.059,-8.789,0
1553634453.170,72.266,14.160,37.598,65.918,37.109,0
1553634453.174,80.566,13.184,41.504,77.637,49.805,0
1553634453.178,80.566,9.277,41.992,89.844,4.395,0
1553634453.182,88.379,2.441,39.551,93.262,-25.391,0
1553634453.186,75.684,4.395,44.434,90.820,-3.906,0
1553634453.190,67.383,12.695,44.434,82.031,30.762,0
1553634453.194,69.824,15.137,41.504,65.430,8.789,0
1553634453.197,78.613,13.184,41.504,66.895,39.062,0
1553634453.201,77.637,3.906,41.504,86.914,67.871,0
1553634453.205,69.824,1.465,43.457,88.379,20.508,0
1553634453.209,83.008,9.766,44.922,81.055,37.109,0
1553634453.213,83.496,17.090,46.875,83.496,77.148,0
1553634453.217,75.195,19.043,45.898,82.520,26.855,0
1553634453.221,83.496,14.160,42.480,79.102,49.805,0
1553634453.225,82.520,13.184,40.527,71.289,19.531,0
1553634453.229,74.219,17.090,41.992,69.824,-50.293,0
1553634453.233,71.289,17.578,41.992,75.684,22.461,0
1553634453.237,64.941,16.113,41.016,70.801,28.809,0
1553634453.240,72.266,18.066,42.480,68.848,25.879,0
1553634453.244,80.566,17.578,43.457,58.105,40.039,0
1553634453.248,88.379,16.602,41.992,52.734,20.020,0
1553634453.252,77.637,18.066,40.039,43.945,3.418,0
1553634453.256,66.406,17.578,38.574,53.223,57.129,0
1553634453.260,64.453,19.531,41.016,74.219,40.039,0
1553634453.264,52.246,19.043,41.992,77.148,0.000,0
1553634453.268,49.805,18.066,36.621,80.078,75.684,0
1553634453.272,50.781,20.996,35.645,68.359,84.961,0
1553634453.276,54.688,20.508,37.109,52.734,-14.160,0
1553634453.280,63.477,21.973,35.645,54.688,-32.227,0
1553634453.283,64.941,24.414,36.133,58.594,34.180,0
1553634453.287,57.617,24.414,36.621,56.152,19.531,0
1553634453.291,61.035,22.461,35.645,51.758,0.977,0
1553634453.295,56.641,20.996,35.645,55.176,-4.883,0
1553634453.299,55.176,26.367,34.180,39.062,38.574,0
1553634453.303,57.129,29.785,34.180,29.785,65.918,0
1553634453.307,38.574,29.785,36.133,56.641,-1.465,0
1553634453.311,26.855,26.367,37.109,56.152,30.273,0
1553634453.315,26.855,24.902,37.109,51.270,52.246,0
1553634453.319,38.086,26.855,36.133,52.246,27.344,0
1553634453.322,44.922,24.414,33.203,44.922,58.594,0
1553634453.326,48.340,21.973,31.250,61.523,64.941,0
1553634453.330,58.105,26.855,30.762,49.805,1.465,0
1553634453.334,51.270,30.762,30.762,37.109,-38.086,0
1553634453.338,40.039,25.391,34.668,51.758,5.859,0
1553634453.342,38.086,23.926,32.227,41.504,13.184,0
1553634453.346,36.621,22.949,28.809,41.504,45.898,0
1553634453.350,41.992,15.137,29.785,49.316,82.520,0
1553634453.354,55.176,15.137,29.297,51.270,13.672,0
1553634453.358,39.062,24.902,31.250,44.922,-0.488,0
1553634453.362,29.297,28.320,33.203,30.762,26.367,0
1553634453.365,40.527,25.391,30.273,34.180,45.898,0
1553634453.369,42.969,20.020,30.762,41.016,25.879,0
1553634453.373,51.270,15.137,34.180,48.340,-48.340,0
1553634453.377,45.410,20.020,34.668,44.922,-22.461,0
1553634453.381,48.340,26.367,27.344,42.480,42.480,0
1553634453.385,69.824,21.484,24.414,61.523,-8.789,0
1553634453.389,47.852,24.902,34.668,60.059,-25.879,0
1553634453.393,0.000,30.762,33.203,32.227,43.457,0
1553634453.397,17.578,25.391,29.297,30.762,68.359,0
1553634453.401,16.602,24.414,35.645,22.949,104.492,0
1553634453.405,-5.859,25.879,30.762,11.719,86.426,0
1553634453.408,-9.766,27.344,24.414,-3.906,61.523,0
1553634453.412,-27.344,26.855,23.926,-22.461,59.570,0
1553634453.416,-35.156,27.344,24.414,-35.645,-7.324,0
1553634453.420,-49.805,33.691,17.090,-53.223,2.441,0
1553634453.424,-42.969,33.203,14.160,-48.828,-8.301,0
1553634453.428,-47.852,33.203,11.719,-53.711,7.812,0
1553634453.432,-60.059,32.715,7.324,-63.965,42.969,0
1553634453.436,-65.430,30.762,11.719,-52.246,64.941,0
1553634453.440,-80.566,32.715,11.230,-62.500,87.402,0
1553634453.444,-61.035,32.715,8.789,-72.754,24.414,0
1553634453.447,-51.758,36.133,4.883,-65.918,10.742,0
1553634453.451,-70.312,32.227,2.930,-64.941,51.758,0
1553634453.455,-42.969,29.785,7.324,-51.758,45.410,0
1553634453.459,-22.949,31.738,8.301,-34.180,40.527,0
1553634453.463,-32.715,26.855,8.789,-21.484,53.223,0
1553634453.467,-13.184,22.949,10.254,-13.672,2.930,0
1553634453.471,-6.348,20.508,9.277,-8.301,-14.648,0
1553634453.475,-11.719,18.555,10.254,-2.441,19.531,0
1553634453.479,6.836,21.484,10.254,0.000,84.961,0
1553634453.483,5.371,17.090,12.207,9.277,54.688,0
1553634453.487,6.836,14.648,13.672,7.812,-47.852,0
1553634453.490,13.184,17.090,14.160,4.883,-44.922,0
1553634453.494,13.184,15.137,15.137,15.625,-33.691,0
1553634453.498,5.859,15.625,15.137,15.137,1.465,0
1553634453.502,6.836,16.602,16.113,15.625,31.738,0
1553634453.506,18.066,17.090,19.043,16.602,-14.160,0
1553634453.510,22.461,20.020,22.461,20.020,-22.949,0
1553634453.514,20.508,18.066,20.996,20.996,43.945,0
1553634453.518,12.695,14.160,21.484,24.414,31.250,0
1553634453.522,16.602,18.555,21.973,25.391,35.645,0
1553634453.526,22.461,19.531,18.066,21.973,100.098,0
1553634453.530,42.480,17.578,20.508,27.344,54.199,0
1553634453.533,39.551,17.090,25.391,22.949,36.133,0
1553634453.537,13.184,16.602,24.414,20.020,47.852,0
1553634453.541,24.902,11.719,22.949,20.020,62.988,0
1553634453.545,9.766,8.789,24.902,19.531,69.336,0
1553634453.549,14.648,15.625,24.902,29.785,7.812,0
1553634453.553,39.062,17.578,23.438,36.133,-44.434,0
1553634453.557,40.527,15.625,20.508,31.738,-11.230,0
1553634453.561,46.875,15.625,23.438,35.156,28.809,0
1553634453.565,35.156,15.137,27.832,36.133,13.672,0
1553634453.569,34.668,14.160,24.902,40.527,-43.945,0
1553634453.572,37.109,12.695,25.879,33.203,-29.785,0
1553634453.576,27.832,14.648,27.344,24.414,77.637,0
1553634453.580,26.367,16.113,26.855,38.574,89.844,0
1553634453.584,31.250,17.090,27.344,33.203,85.449,0
1553634453.588,26.855,17.090,29.297,22.949,67.383,0
1553634453.592,41.992,15.137,25.879,28.809,-18.066,0
1553634453.596,42.969,12.695,25.391,31.250,-1.953,0
1553634453.600,31.738,17.090,28.809,35.156,58.594,0
1553634453.604,42.969,20.996,27.344,46.875,55.664,0
1553634453.608,42.969,19.043,27.344,53.223,45.898,0
1553634453.612,41.992,21.484,27.344,45.898,81.055,0
1553634453.615,39.551,21.973,28.320,27.344,52.734,0
1553634453.619,41.504,19.043,26.367,32.227,26.367,0
1553634453.623,44.434,18.066,23.438,46.387,9.766,0
1553634453.627,44.922,17.090,31.738,41.992,-29.785,0
1553634453.631,29.785,15.137,36.621,36.133,-0.488,0
1553634453.635,21.973,12.695,33.203,31.250,48.828,0
1553634453.639,33.691,10.742,31.250,32.227,30.273,0
1553634453.643,27.832,11.230,27.344,36.621,-16.602,0
1553634453.647,30.273,8.789,29.785,45.898,15.625,0
1553634453.651,28.809,11.230,30.762,41.992,72.754,0
1553634453.655,31.738,12.695,29.297,37.109,16.602,0
1553634453.658,35.156,9.277,28.809,36.133,-67.383,0
1553634453.662,39.062,11.230,28.809,28.320,-19.531,0
1553634453.666,46.387,14.648,29.785,36.133,37.109,0
1553634453.670,32.715,16.602,27.344,44.434,-0.977,0
1553634453.674,37.598,19.043,27.832,49.316,-27.832,0
1553634453.678,38.574,20.996,30.273,44.922,32.227,0
1553634453.682,34.180,18.555,27.344,36.133,82.031,0
1553634453.686,48.828,18.066,23.926,27.344,55.664,0
1553634453.690,41.016,18.066,25.391,33.691,14.648,0
1553634453.694,32.227,17.090,25.391,34.668,36.133,0
1553634453.697,31.250,18.066,25.879,22.461,42.969,0
1553634453.701,32.227,20.508,26.367,15.625,17.090,0
1553634453.705,30.762,20.020,27.832,20.996,54.688,0
1553634453.709,24.902,20.996,29.785,26.367,69.336,0
1553634453.713,29.297,28.809,26.367,31.738,41.504,0
1553634453.717,35.645,29.785,23.926,32.227,92.773,0
1553634453.721,49.805,27.344,26.367,34.668,58.594,0
1553634453.725,42.480,28.809,26.855,37.109,-0.977,0
1553634453.729,34.668,25.879,29.297,25.391,55.176,0
1553634453.733,37.109,23.438,32.715,28.809,4.883,0
1553634453.737,31.250,26.367,28.809,30.762,20.508,0
1553634453.740,33.691,23.926,30.762,40.039,53.223,0
1553634453.744,37.598,25.879,34.180,36.133,30.273,0
1553634453.748,34.668,25.391,35.156,30.762,55.664,0
1553634453.752,36.133,22.949,35.645,35.156,-0.977,0
1553634453.756,26.367,23.926,32.227,35.645,-1.953,0
1553634453.760,26.367,21.973,34.180,49.805,18.066,0
1553634453.764,40.039,24.414,32.715,47.852,-2.930,0
1553634453.768,41.504,24.414,29.785,43.945,2.930,0
1553634453.772,26.855,22.461,32.715,49.805,-0.488,0
1553634453.776,26.367,25.391,31.250,34.180,10.254,0
1553634453.780,35.645,26.367,29.785,25.879,26.855,0
1553634453.783,37.598,26.855,28.809,37.598,-9.766,0
1553634453.787,59.570,24.902,28.809,38.574,10.254,0
1553634453.791,56.152,22.949,30.273,41.016,22.461,0
1553634453.795,54.688,27.832,31.250,49.805,-8.301,0
1553634453.799,23.926,29.785,33.691,32.227,48.340,0
1553634453.803,0.977,25.879,36.133,11.719,62.012,0
1553634453.807,28.809,21.973,35.645,36.133,11.230,0
1553634453.811,31.250,19.043,34.668,36.621,-11.719,0
1553634453.815,31.738,24.902,32.715,18.555,51.270,0
1553634453.819,23.438,25.391,32.227,23.926,17.578,0
1553634453.822,26.855,24.414,35.645,41.504,9.277,0
1553634453.826,25.879,23.926,34.668,39.062,64.941,0
1553634453.830,25.391,20.508,34.180,25.879,23.438,0
1553634453.834,36.621,22.949,35.645,42.480,-0.977,0
1553634453.838,33.203,24.902,33.691,53.223,22.461,0
1553634453.842,39.551,27.344,32.227,37.109,-23.926,0
1553634453.846,35.645,28.320,31.250,26.367,-36.133,0
1553634453.850,30.273,28.809,27.832,27.344,40.527,0
1553634453.854,48.340,31.250,27.832,33.691,64.941,0
1553634453.858,44.922,32.227,31.250,38.574,42.480,0
1553634453.862,37.598,28.809,33.203,51.270,19.043,0
1553634453.865,60.059,31.250,30.762,54.199,22.949,0
1553634453.869,55.176,27.344,30.762,47.363,31.250,0
1553634453.873,43.945,23.438,32.227,38.574,75.195,0
1553634453.877,38.574,28.320,29.785,40.039,46.875,0
1553634453.881,42.480,29.785,28.320,37.598,29.297,0
1553634453.885,41.504,27.832,27.344,30.273,57.129,0
1553634453.889,41.016,27.832,25.879,38.574,58.594,0
1553634453.893,32.227,27.344,27.344,50.781,65.918,0
1553634453.897,40.527,29.297,30.273,45.898,60.547,0
1553634453.901,49.805,29.297,29.785,38.574,45.410,0
1553634453.905,40.527,30.273,30.762,46.875,14.160,0
1553634453.908,34.180,27.832,34.180,33.691,24.414,0
1553634453.912,31.250,28.320,31.250,25.879,-11.230,0
1553634453.916,35.645,28.809,27.832,39.551,-33.203,0
1553634453.920,36.133,25.879,28.320,48.340,25.391,0
1553634453.924,39.062,28.320,30.762,52.246,17.090,0
1553634453.928,40.039,29.297,30.273,38.574,-16.602,0
1553634453.932,55.664,29.785,30.273,45.410,22.949,0
1553634453.936,55.664,31.738,35.156,62.988,65.430,0
1553634453.940,48.340,34.668,33.691,43.945,10.254,0
1553634453.944,41.016,29.785,30.273,36.621,15.137,0
1553634453.947,41.992,24.414,27.832,43.457,81.055,0
1553634453.951,34.180,27.344,27.344,39.551,42.480,0
1553634453.955,19.043,31.250,27.832,32.227,38.574,0
1553634453.959,17.578,32.715,27.344,32.227,16.602,0
1553634453.963,34.180,29.297,29.297,41.504,-15.625,0
1553634453.967,60.059,30.273,30.273,47.363,49.316,0
1553634453.971,45.898,32.227,27.344,50.293,54.199,0
1553634453.975,30.273,31.738,28.320,55.664,53.223,0
1553634453.979,47.852,30.273,30.762,48.340,88.867,0
1553634453.983,51.270,27.344,31.250,38.574,53.223,0
1553634453.987,44.922,26.855,33.203,43.945,-18.555,0
1553634453.990,44.434,27.832,32.227,55.176,-37.598,0
1553634453.994,50.781,29.297,31.250,51.270,38.086,0
1553634453.998,57.617,34.180,30.273,36.621,71.289,0
1553634454.002,55.664,29.785,30.273,47.852,20.508,0
1553634454.006,41.016,21.973,30.273,56.641,23.438,0
1553634454.010,35.156,27.344,29.297,48.340,11.719,0
1553634454.014,24.902,32.715,27.832,44.922,27.344,0
1553634454.018,27.344,32.227,28.809,45.410,79.102,0
1553634454.022,48.340,33.203,27.832,42.480,61.523,0
1553634454.026,38.574,35.156,26.855,36.133,39.062,0
1553634454.030,31.250,32.227,26.367,48.828,62.012,0
1553634454.033,52.734,29.297,22.949,60.059,54.199,0
1553634454.037,45.898,28.809,23.438,60.547,54.688,0
1553634454.041,24.414,32.227,22.949,55.664,23.926,0
1553634454.045,40.039,30.273,22.949,50.293,-1.953,0
1553634454.049,60.547,27.344,26.855,47.363,9.766,0
1553634454.053,54.688,34.668,28.809,33.203,52.734,0
1553634454.057,41.016,34.668,28.320,42.969,123.535,0
1553634454.061,42.480,28.809,30.762,48.340,87.402,0
1553634454.065,37.598,26.855,28.320,42.969,15.625,0
1553634454.069,38.086,32.715,29.297,57.617,37.598,0
1553634454.072,41.992,34.668,31.250,54.199,15.625,0
1553634454.076,37.109,32.715,29.297,46.387,13.672,0
1553634454.080,43.945,33.691,28.809,51.758,52.734,0
1553634454.084,53.223,31.738,28.809,41.016,45.410,0
1553634454.088,47.363,28.809,30.273,30.762,11.719,0
1553634454.092,39.062,28.809,27.344,44.922,30.762,0
1553634454.096,50.781,29.785,28.320,40.039,14.648,0
1553634454.100,44.922,30.273,33.691,47.852,0.488,0
1553634454.104,29.785,25.879,34.668,47.363,31.250,0
1553634454.108,29.297,24.902,32.227,35.156,31.738,0
1553634454.112,33.203,30.273,31.250,39.551,9.277,0
1553634454.115,31.250,31.738,34.180,37.598,49.316,0
1553634454.119,32.227,28.320,36.133,33.691,62.988,0
1553634454.123,40.039,29.785,35.156,37.598,42.480,0
1553634454.127,38.574,29.785,34.668,48.828,-3.906,0
1553634454.131,33.203,24.902,34.180,49.805,10.254,0
1553634454.135,24.414,25.391,33.203,44.434,52.246,0
1553634454.139,41.504,28.809,32.715,40.039,-29.297,0
1553634454.143,49.316,28.809,33.691,43.457,-28.320,0
1553634454.147,35.645,26.855,34.180,45.898,40.039,0
1553634454.151,30.273,27.344,34.180,44.434,31.250,0
1553634454.155,28.809,27.344,30.762,42.969,53.711,0
1553634454.158,44.434,26.855,30.762,31.738,15.137,0
1553634454.162,41.016,27.832,34.180,31.738,11.719,0
1553634454.166,41.992,30.762,34.180,48.340,34.668,0
1553634454.170,40.527,32.227,32.715,51.270,13.672,0
1553634454.174,38.086,28.320,32.715,45.410,4.883,0
1553634454.178,58.105,25.879,32.227,38.574,6.836,0
1553634454.182,54.688,31.250,30.273,41.504,28.809,0
1553634454.186,44.434,34.668,29.297,48.828,44.434,0
1553634454.190,34.180,34.668,28.320,34.668,48.340,0
1553634454.194,37.598,31.738,31.738,28.320,23.926,0
1553634454.197,40.039,31.738,33.203,45.410,25.879,0
1553634454.201,31.738,30.762,33.203,49.805,0.000,0
1553634454.205,42.969,26.367,32.227,48.828,-24.902,0
1553634454.209,50.293,31.250,29.785,52.246,-12.207,0
1553634454.213,48.828,37.598,27.832,42.480,22.461,0
1553634454.217,43.945,37.598,28.809,34.668,0.000,0
1553634454.221,47.852,37.109,27.832,41.992,47.852,0
1553634454.225,51.758,34.180,28.809,41.016,78.613,0
1553634454.229,42.480,28.320,29.297,28.809,18.066,0
1553634454.233,39.062,26.855,30.273,45.898,58.105,0
1553634454.237,41.016,30.762,34.180,53.223,39.551,0
1553634454.240,40.039,29.785,33.203,37.109,13.672,0
1553634454.244,57.129,27.832,32.227,54.688,47.852,0
1553634454.248,58.594,29.297,31.250,53.223,111.816,0
1553634454.252,34.180,25.879,30.273,32.227,140.625,0
1553634454.256,41.992,24.902,33.691,40.039,68.359,0
1553634454.260,53.223,27.344,36.133,51.270,0.000,0
1553634454.264,35.645,26.367,34.180,42.969,37.109,0
1553634454.268,44.434,25.879,30.762,44.434,67.383,0
1553634454.272,35.156,31.250,28.320,43.945,64.941,0
1553634454.276,28.809,29.297,29.785,41.504,29.785,0
1553634454.280,36.621,26.367,29.297,40.527,21.484,0
1553634454.283,30.762,30.762,27.832,39.551,47.363,0
1553634454.287,38.086,30.273,28.809,33.203,-3.906,0
1553634454.291,25.391,27.344,29.297,21.484,-20.508,0
1553634454.295,30.762,26.367,31.250,30.762,54.688,0
1553634454.299,40.039,25.391,33.203,55.664,63.965,0
1553634454.303,41.016,28.320,31.250,58.594,5.371,0
1553634454.307,45.410,28.320,29.785,48.828,50.293,0
1553634454.311,46.875,26.855,30.762,50.781,94.238,0
1553634454.315,47.852,25.879,30.273,47.852,53.711,0
1553634454.319,42.969,28.809,28.809,44.434,-8.789,0
1553634454.322,40.527,37.109,30.762,42.480,-28.809,0
1553634454.326,50.781,38.574,29.297,46.387,37.598,0
1553634454.330,55.664,35.156,29.297,44.434,2.441,0
1553634454.334,64.941,33.691,30.273,49.316,-33.691,0
1553634454.338,68.359,32.227,28.320,44.434,44.434,0
1553634454.342,59.082,32.715,28.320,36.133,59.082,0
1553634454.346,53.223,34.180,31.250,44.922,23.926,0
1553634454.350,35.156,34.180,30.273,52.246,41.992,0
1553634454.354,20.508,30.762,30.273,50.293,67.383,0
1553634454.358,36.621,31.738,29.297,39.062,28.809,0
1553634454.362,40.039,29.785,28.809,40.527,-16.602,0
1553634454.365,38.574,30.762,28.320,51.270,66.895,0
1553634454.369,48.828,35.156,25.391,48.828,83.496,0
1553634454.373,46.387,35.156,27.344,40.527,-53.711,0
1553634454.377,45.410,36.621,26.367,38.086,-40.039,0
1553634454.381,38.574,34.668,28.809,38.574,50.293,0
1553634454.385,33.691,31.250,30.762,43.457,-1.953,0
1553634454.389,42.969,32.227,27.344,41.992,-44.922,0
1553634454.393,37.109,32.227,29.297,33.691,40.039,0
1553634454.397,34.668,26.855,29.297,32.715,62.500,0
1553634454.401,40.527,29.297,24.414,27.344,23.926,0
1553634454.405,33.691,29.785,27.344,27.344,58.594,0
1553634454.408,26.855,24.414,30.273,33.691,87.402,0
1553634454.412,34.668,26.367,28.320,35.156,80.078,0
1553634454.416,34.668,27.344,28.809,35.645,16.113,0
1553634454.420,41.016,29.297,28.809,25.391,-14.648,0
1553634454.424,37.109,30.273,30.273,20.996,37.598,0
1553634454.428,29.297,27.344,31.250,42.480,22.461,0
1553634454.432,49.316,31.738,30.273,58.105,-20.020,0
1553634454.436,31.250,41.016,27.832,27.344,19.531,0
1553634454.440,19.043,43.457,24.902,9.277,55.176,0
1553634454.444,36.133,44.922,26.367,24.414,48.340,0
1553634454.447,31.250,46.875,25.879,27.344,39.551,0
1553634454.451,32.715,46.875,22.461,25.879,12.695,0
1553634454.455,50.781,50.781,18.555,23.438,18.555,0
1553634454.459,56.641,49.805,21.484,25.391,50.781,0
1553634454.463,59.082,50.781,21.484,21.484,58.594,0
1553634454.467,48.340,50.293,20.996,15.137,11.719,0
1553634454.471,45.898,44.434,23.926,23.438,-19.531,0
1553634454.475,44.922,47.852,20.020,23.438,-15.625,0
1553634454.479,50.781,49.805,20.508,32.715,0.488,0
1553634454.483,63.965,48.340,23.926,34.180,0.488,0
1553634454.487,44.922,44.434,23.438,31.250,-8.789,0
1553634454.490,38.574,43.457,23.438,41.504,-32.227,0
1553634454.494,56.152,43.945,22.461,39.551,25.391,0
1553634454.498,59.082,42.969,19.531,36.621,48.340,0
1553634454.502,61.523,43.457,21.484,39.551,39.551,0
1553634454.506,56.641,45.410,22.461,41.016,63.477,0
1553634454.510,43.945,42.969,24.414,38.574,21.973,0
1553634454.514,54.688,37.109,27.344,36.621,-17.090,0
1553634454.518,57.617,37.598,27.832,39.062,2.930,0
1553634454.522,48.340,39.062,25.391,33.203,16.113,0
1553634454.526,53.223,38.574,25.391,26.855,68.359,0
1553634454.530,54.199,34.668,25.879,36.621,68.848,0
1553634454.533,61.523,35.645,26.367,47.363,35.156,0
1553634454.537,47.852,40.527,28.809,42.480,22.461,0
1553634454.541,36.621,40.527,27.832,36.621,-9.766,0
1553634454.545,56.152,39.062,28.320,43.945,14.160,0
1553634454.549,46.387,40.039,27.344,34.180,32.227,0
1553634454.553,39.062,41.504,26.367,25.879,-10.742,0
1553634454.557,43.457,41.016,28.809,41.992,3.906,0
1553634454.561,39.062,41.504,28.809,34.180,20.996,0
1553634454.565,36.621,41.504,30.762,26.855,-2.930,0
1553634454.569,52.734,40.039,31.738,24.414,40.527,0
1553634454.572,45.898,38.086,28.320,32.715,69.824,0
1553634454.576,28.809,34.180,27.832,43.945,60.547,0
1553634454.580,47.363,33.691,31.250,35.156,41.504,0
1553634454.584,50.781,38.086,30.762,43.945,97.168,0
1553634454.588,43.457,40.527,30.762,40.039,25.879,0
1553634454.592,43.457,40.527,33.203,30.273,2.930,0
1553634454.596,38.086,36.133,32.227,32.227,34.668,0
1553634454.600,43.945,34.668,33.203,34.180,25.391,0
1553634454.604,39.551,38.574,31.250,32.227,29.297,0
1553634454.608,33.203,32.715,30.762,24.414,15.625,0
1553634454.612,41.016,31.250,32.715,28.809,30.762,0
1553634454.615,45.898,38.574,32.715,29.785,-13.184,0
1553634454.619,52.246,35.645,30.762,31.250,9.277,0
1553634454.623,40.527,30.273,28.320,41.016,34.180,0
1553634454.627,34.668,34.668,27.344,48.340,6.348,0
1553634454.631,40.039,41.504,25.879,45.410,40.527,0
1553634454.635,38.574,42.969,28.320,41.992,42.969,0
1553634454.639,49.316,42.480,30.273,43.945,35.156,0
1553634454.643,43.945,36.621,26.367,47.363,32.227,0
1553634454.647,43.457,36.133,26.855,45.898,24.902,0
1553634454.651,50.293,40.527,28.320,42.480,-1.465,0
1553634454.655,43.945,37.109,30.762,37.598,14.648,0
1553634454.658,40.039,37.109,32.715,43.945,-28.320,0
1553634454.662,24.902,39.551,32.715,43.945,-35.645,0
1553634454.666,23.438,36.621,31.250,29.785,41.992,0
1553634454.670,37.598,32.227,27.832,40.527,20.996,0
1553634454.674,38.574,33.203,29.785,47.852,32.227,0
1553634454.678,52.246,33.203,31.250,40.527,62.012,0
1553634454.682,51.758,35.156,30.762,28.320,58.594,0
1553634454.686,37.109,38.086,32.715,23.438,84.473,0
1553634454.690,38.086,36.133,34.180,40.039,74.219,0
1553634454.694,48.828,34.668,33.203,44.434,37.598,0
1553634454.697,38.574,32.715,30.273,46.875,-5.859,0
1553634454.701,32.227,30.273,32.227,47.852,28.809,0
1553634454.705,49.805,29.785,32.227,38.574,48.828,0
1553634454.709,49.316,36.133,28.320,36.133,43.457,0
1553634454.713,48.828,40.527,27.344,31.738,48.340,0
1553634454.717,46.875,41.016,27.344,20.996,61.035,0
1553634454.721,42.969,40.039,24.414,25.879,85.938,0
1553634454.725,48.340,37.109,25.879,31.738,85.449,0
1553634454.729,41.016,36.133,27.832,24.414,46.875,0
1553634454.733,50.781,35.156,26.855,34.668,-4.395,0
1553634454.737,54.688,34.180,27.832,37.109,29.785,0
1553634454.740,28.809,32.715,30.762,25.879,5.371,0
1553634454.744,26.367,33.203,29.297,35.645,-1.465,0
1553634454.748,41.016,36.621,26.855,44.434,42.969,0
1553634454.752,35.645,36.621,30.762,32.715,73.730,0
1553634454.756,32.715,36.621,31.250,32.227,71.777,0
1553634454.760,52.246,34.180,29.297,41.992,29.297,0
1553634454.764,58.594,35.156,29.297,49.316,81.055,0
1553634454.768,44.434,37.109,29.297,55.176,75.195,0
1553634454.772,39.062,33.691,26.855,44.922,-2.441,0
1553634454.776,36.133,34.180,29.297,40.527,67.871,0
1553634454.780,42.969,36.133,32.227,44.922,59.570,0
1553634454.783,46.387,34.668,32.715,37.598,-9.277,0
1553634454.787,38.574,32.715,34.180,38.086,20.508,0
1553634454.791,44.434,28.809,35.156,52.246,26.367,0
1553634454.795,38.574,28.809,35.645,52.246,-13.672,0
1553634454.799,38.086,31.738,35.645,36.621,-54.688,0
1553634454.803,41.016,29.297,36.133,42.480,-36.133,0
1553634454.807,31.250,30.762,33.691,49.316,-6.836,0
1553634454.811,40.527,33.203,32.715,49.316,10.254,0
1553634454.815,36.133,31.250,33.203,49.316,14.160,0
1553634454.819,28.320,32.715,29.785,38.086,-28.320,0
1553634454.822,29.785,34.668,30.273,31.250,-83.008,0
1553634454.826,42.480,27.344,35.156,23.926,-44.434,0
1553634454.830,50.781,26.855,35.156,33.203,36.621,0
1553634454.834,40.527,30.762,33.691,41.016,80.078,0
1553634454.838,41.504,32.715,30.273,31.250,67.383,0
1553634454.842,35.156,36.621,28.320,33.691,3.418,0
1553634454.846,38.086,38.086,31.738,41.992,29.785,0
1553634454.850,46.875,34.668,30.762,42.969,69.336,0
1553634454.854,41.016,32.227,29.785,39.062,41.504,0
1553634454.858,39.062,32.715,33.203,36.133,51.270,0
1553634454.862,50.781,32.715,35.645,43.945,40.039,0
1553634454.865,42.969,32.227,34.180,27.344,35.645,0
1553634454.869,52.734,32.227,29.297,31.250,56.641,0
1553634454.873,76.172,33.691,28.320,56.641,-7.324,0
1553634454.877,42.969,35.156,33.203,26.367,27.344,0
1553634454.881,23.438,34.668,31.738,18.066,49.316,0
1553634454.885,36.621,32.227,29.297,33.691,43.457,0
1553634454.889,22.461,31.250,32.715,19.043,40.527,0
1553634454.893,11.230,33.203,31.250,14.648,29.785,0
1553634454.897,12.207,30.762,30.273,20.508,11.719,0
1553634454.901,4.883,29.785,32.715,3.906,0.488,0
1553634454.905,1.953,34.668,31.250,-7.812,41.992,0
1553634454.908,2.441,34.180,29.785,-6.348,28.320,0
1553634454.912,-8.301,32.227,29.297,-2.930,9.766,0
1553634454.916,-14.160,29.785,29.297,-0.488,38.574,0
1553634454.920,1.953,26.855,29.297,6.348,16.602,0
1553634454.924,14.648,35.645,30.273,16.602,-38.086,0
1553634454.928,19.043,38.086,31.738,20.508,-65.430,0
1553634454.932,7.324,36.133,26.367,14.648,-59.570,0
1553634454.936,11.719,34.180,24.414,9.277,37.109,0
1553634454.940,21.484,31.738,26.855,13.672,84.473,0
1553634454.944,25.391,35.156,26.367,24.902,29.785,0
1553634454.947,30.762,35.645,27.832,24.414,34.668,0
1553634454.951,20.020,34.668,31.250,25.391,8.789,0
1553634454.955,8.789,33.203,33.691,26.367,3.418,0
1553634454.959,16.113,33.691,32.227,18.555,40.527,0
1553634454.963,38.574,36.621,29.785,13.184,60.059,0
1553634454.967,27.344,36.133,29.297,23.926,26.855,0
1553634454.971,17.090,35.156,32.715,23.926,-15.137,0
1553634454.975,20.996,37.109,31.250,15.137,-48.828,0
1553634454.979,16.602,32.715,30.273,25.879,-73.730,0
1553634454.983,22.461,29.785,29.297,34.668,-36.621,0
1553634454.987,23.438,37.598,25.391,27.344,-11.719,0
1553634454.990,24.902,41.504,25.879,24.902,9.766,0
1553634454.994,25.879,39.062,28.809,27.344,84.473,0
1553634454.998,32.227,39.551,29.785,28.320,83.008,0
1553634455.002,31.250,33.691,28.809,33.691,30.273,0
1553634455.006,16.602,28.809,29.785,35.156,44.922,0
1553634455.010,17.578,32.227,32.715,28.809,35.645,0
1553634455.014,26.367,33.691,34.668,32.227,42.969,0
1553634455.018,34.180,34.180,27.832,26.367,49.316,0
1553634455.022,28.320,34.180,24.902,17.090,56.641,0
1553634455.026,28.809,31.250,30.762,22.461,59.082,0
1553634455.030,33.691,32.715,29.785,24.902,49.805,0
1553634455.033,17.090,34.668,26.855,12.207,24.902,0
1553634455.037,19.531,35.645,27.344,11.230,86.426,0
1553634455.041,35.156,39.062,27.832,35.156,91.309,0
1553634455.045,36.621,38.086,30.762,33.203,49.316,0
1553634455.049,26.367,37.109,33.203,17.090,38.574,0
1553634455.053,34.180,39.551,33.203,28.320,-30.273,0
1553634455.057,38.086,37.598,30.273,27.832,11.230,0
1553634455.061,42.969,32.715,30.762,32.715,50.293,0
1553634455.065,43.457,31.738,29.297,37.598,62.988,0
1553634455.069,38.574,33.691,27.832,31.250,56.152,0
1553634455.072,36.621,39.551,31.250,32.227,18.555,0
1553634455.076,29.297,42.969,30.273,27.832,21.484,0
1553634455.080,35.156,37.598,25.391,24.902,72.754,0
1553634455.084,36.621,33.691,27.832,29.785,69.336,0
1553634455.088,29.785,34.180,28.320,31.250,55.176,0
1553634455.092,32.227,31.738,27.344,26.367,11.719,0
1553634455.096,46.387,31.738,30.762,23.926,32.227,0
1553634455.100,49.316,34.668,28.809,38.086,87.402,0
1553634455.104,41.504,33.203,29.297,45.410,47.363,0
1553634455.108,12.207,31.738,31.738,20.996,3.418,0
1553634455.112,23.438,29.297,29.297,25.391,18.066,0
1553634455.115,46.875,24.414,30.273,35.645,34.180,0
1553634455.119,36.133,24.414,30.273,31.250,18.555,0
1553634455.123,40.039,28.809,27.832,31.738,26.367,0
