timestamps,TP9,AF7,AF8,TP10,Right AUX,Marker0
1553805443.388,11.719,42.480,8.301,20.508,50.293,0
1553805443.392,18.555,34.668,11.230,29.297,53.223,0
1553805443.396,16.602,21.484,12.207,29.785,56.641,0
1553805443.399,29.785,18.066,6.348,28.809,89.844,0
1553805443.403,31.250,19.531,7.324,30.762,71.289,0
1553805443.407,20.996,24.902,1.465,23.438,2.930,0
1553805443.411,15.625,49.316,-0.488,24.902,69.824,0
1553805443.415,20.508,46.875,2.930,21.484,57.617,0
1553805443.419,51.270,25.391,0.488,41.992,48.340,0
1553805443.423,43.945,32.715,5.371,49.316,25.391,0
1553805443.427,22.949,37.109,11.230,20.996,10.742,0
1553805443.431,15.137,46.387,-1.465,-2.930,74.219,0
1553805443.435,4.883,64.453,1.465,9.766,46.875,0
1553805443.438,19.043,57.129,5.859,35.645,33.691,0
1553805443.442,18.066,45.410,2.441,13.184,72.266,0
1553805443.446,26.367,48.340,0.977,17.090,67.871,0
1553805443.450,25.879,47.363,-7.324,17.578,-16.113,0
1553805443.454,27.344,43.945,-7.324,21.484,-25.391,0
1553805443.458,30.762,48.340,-2.930,36.133,83.496,0
1553805443.462,21.973,46.387,1.953,24.902,62.988,0
1553805443.466,24.414,23.438,8.301,27.832,4.395,0
1553805443.470,21.484,25.879,10.742,31.738,-1.953,0
1553805443.474,23.438,48.340,5.859,20.508,-26.855,0
1553805443.478,30.762,35.645,3.418,14.648,32.715,0
1553805443.481,9.277,28.320,4.883,26.855,83.984,0
1553805443.485,10.742,18.066,4.395,29.785,65.918,0
1553805443.489,26.367,23.438,-3.418,25.391,54.688,0
1553805443.493,16.113,48.340,-6.348,27.832,76.172,0
1553805443.497,6.836,53.223,-2.441,30.273,-11.719,0
1553805443.501,4.395,47.852,0.977,21.973,-48.828,0
1553805443.505,6.836,37.598,9.766,12.695,63.965,0
1553805443.509,26.855,25.879,11.719,21.973,101.074,0
1553805443.513,27.344,35.645,1.953,31.738,84.961,0
1553805443.517,8.789,33.203,8.301,37.598,12.207,0
1553805443.521,9.277,33.691,11.719,20.508,-45.898,0
1553805443.524,5.371,39.062,4.395,-4.883,16.113,0
1553805443.528,1.953,33.203,6.348,-1.953,66.406,0
1553805443.532,24.414,25.391,11.230,17.090,46.387,0
1553805443.536,26.367,30.762,12.207,25.391,-22.949,0
1553805443.540,20.508,32.715,9.766,37.598,38.086,0
1553805443.544,26.367,29.785,4.883,35.156,64.453,0
1553805443.548,27.344,27.832,2.441,25.391,8.301,0
1553805443.552,27.344,14.648,1.953,23.926,27.832,0
1553805443.556,25.879,24.414,1.465,24.414,41.016,0
1553805443.560,25.391,43.945,0.977,35.156,-9.766,0
1553805443.563,27.344,41.992,3.906,45.898,-7.324,0
1553805443.567,25.391,36.621,1.465,35.156,52.734,0
1553805443.571,27.344,35.645,3.906,25.391,5.371,0
1553805443.575,25.391,36.621,7.324,24.902,23.438,0
1553805443.579,12.695,34.668,-4.395,15.137,41.016,0
1553805443.583,25.391,22.949,-5.859,32.227,-61.035,0
1553805443.587,24.414,25.879,1.465,27.832,-14.648,0
1553805443.591,7.812,27.832,7.324,20.508,13.184,0
1553805443.595,20.020,24.902,6.348,25.879,96.191,0
1553805443.599,26.855,35.645,2.441,21.973,106.934,0
1553805443.603,29.785,36.621,5.371,32.227,49.316,0
1553805443.606,34.180,37.109,4.395,29.297,104.980,0
1553805443.610,9.766,42.480,0.977,22.949,74.219,0
1553805443.614,5.859,40.039,0.000,33.203,30.273,0
1553805443.618,9.277,35.645,0.488,22.949,15.137,0
1553805443.622,-4.883,20.508,1.953,15.625,8.789,0
1553805443.626,-0.488,20.020,3.906,21.973,29.785,0
1553805443.630,5.371,28.320,4.883,32.715,63.477,0
1553805443.634,16.113,34.668,3.906,23.926,-5.371,0
1553805443.638,17.090,35.156,-6.836,13.184,-24.414,0
1553805443.642,44.434,30.762,-13.184,45.410,12.695,0
1553805443.646,31.738,38.086,5.859,43.945,45.410,0
1553805443.649,-25.391,32.715,16.113,0.488,61.523,0
1553805443.653,-32.227,21.973,16.113,-5.371,97.656,0
1553805443.657,-19.531,21.973,19.531,3.906,93.750,0
1553805443.661,-6.348,26.855,8.789,3.906,67.383,0
1553805443.665,1.465,19.531,3.418,13.672,90.332,0
1553805443.669,17.090,16.602,10.254,4.883,76.660,0
1553805443.673,11.230,31.738,10.742,11.230,31.250,0
1553805443.677,9.766,38.086,7.324,38.086,6.836,0
1553805443.681,19.531,40.527,5.859,41.504,20.508,0
1553805443.685,11.719,36.621,13.184,23.438,40.527,0
1553805443.688,8.301,18.066,17.578,21.484,62.988,0
1553805443.692,9.277,22.461,14.648,36.133,58.594,0
1553805443.696,17.090,31.738,4.883,39.062,27.832,0
1553805443.700,20.020,41.504,3.418,28.809,57.129,0
1553805443.704,10.742,54.199,3.906,27.344,78.125,0
1553805443.708,5.371,45.410,3.418,40.527,3.418,0
1553805443.712,14.160,42.969,5.371,35.156,-10.254,0
1553805443.716,13.672,48.340,5.859,6.836,35.156,0
1553805443.720,20.996,39.551,8.301,24.902,49.316,0
1553805443.724,38.086,40.039,4.395,42.480,45.410,0
1553805443.728,25.879,46.875,3.906,30.273,68.359,0
1553805443.731,17.578,43.945,5.371,19.531,74.219,0
1553805443.735,20.996,42.480,-0.488,24.902,88.867,0
1553805443.739,23.926,43.457,0.977,38.086,103.027,0
1553805443.743,31.250,37.109,3.418,40.039,81.055,0
1553805443.747,32.715,27.832,2.441,29.297,87.402,0
1553805443.751,33.203,31.250,2.441,35.645,52.246,0
1553805443.755,20.020,41.992,0.488,32.227,11.230,0
1553805443.759,15.625,35.645,-1.465,28.809,46.387,0
1553805443.763,29.297,35.645,3.906,44.922,43.945,0
1553805443.767,23.926,41.992,9.766,38.086,20.996,0
1553805443.771,29.297,37.598,5.859,43.457,27.344,0
1553805443.774,43.457,31.738,4.883,51.270,29.297,0
1553805443.778,35.645,26.367,2.930,46.387,40.039,0
1553805443.782,20.020,27.832,-3.906,28.320,67.383,0
1553805443.786,25.879,29.785,-5.371,25.879,64.453,0
1553805443.790,35.156,26.855,-3.906,41.016,31.250,0
1553805443.794,35.156,32.227,-15.137,41.504,91.309,0
1553805443.798,20.020,32.715,-18.066,35.156,64.453,0
1553805443.802,15.137,19.531,-11.230,31.738,28.320,0
1553805443.806,22.461,13.184,-3.418,66.406,73.242,0
1553805443.810,12.695,14.160,2.930,58.105,98.145,0
1553805443.813,16.602,17.578,-24.414,11.230,45.898,0
1553805443.817,34.668,13.184,-28.320,38.574,-3.906,0
1553805443.821,39.062,-18.066,-0.488,62.012,42.969,0
1553805443.825,35.645,-15.137,0.000,49.805,67.871,0
1553805443.829,23.926,23.926,-14.160,37.598,27.344,0
1553805443.833,15.137,28.320,-16.602,21.973,50.293,0
1553805443.837,10.742,10.742,-20.020,24.902,73.242,0
1553805443.841,16.602,6.348,-31.250,55.664,12.695,0
1553805443.845,30.762,5.859,-29.785,72.266,-46.875,0
1553805443.849,43.457,-7.324,-23.438,53.711,-53.711,0
1553805443.853,37.598,-21.973,-26.367,62.500,-40.039,0
1553805443.856,18.066,-25.879,-24.902,58.105,6.836,0
1553805443.860,37.598,-58.594,-20.508,56.152,40.039,0
1553805443.864,54.688,-122.070,-16.602,65.918,11.230,0
1553805443.868,48.340,-132.324,-20.508,64.941,15.137,0
1553805443.872,43.457,-125.000,-16.602,64.453,69.824,0
1553805443.876,53.223,-127.441,-17.090,73.730,86.914,0
1553805443.880,44.922,-117.676,-26.367,65.918,89.355,0
1553805443.884,46.875,-116.211,-26.855,62.988,104.980,0
1553805443.888,54.199,-120.605,-31.738,76.172,105.469,0
1553805443.892,59.082,-126.953,-38.574,80.078,79.590,0
1553805443.896,43.945,-128.906,-41.016,86.426,84.473,0
1553805443.899,33.203,-118.164,-40.527,86.426,45.898,0
1553805443.903,46.875,-120.117,-49.316,67.871,10.254,0
1553805443.907,39.062,-135.742,-51.758,73.242,74.219,0
1553805443.911,14.160,-162.598,-50.293,69.336,35.156,0
1553805443.915,17.578,-180.176,-58.594,65.430,20.996,0
1553805443.919,40.039,-184.570,-63.965,74.219,57.617,0
1553805443.923,23.926,-187.988,-67.383,56.152,61.523,0
1553805443.927,12.695,-183.594,-71.289,36.133,71.289,0
1553805443.931,23.926,-175.781,-73.730,26.367,87.891,0
1553805443.935,22.461,-163.086,-81.055,34.668,62.500,0
1553805443.938,18.066,-142.090,-88.867,43.457,30.273,0
1553805443.942,4.395,-138.672,-100.586,32.227,68.848,0
1553805443.946,-3.418,-140.625,-114.258,26.367,51.758,0
1553805443.950,12.207,-141.113,-117.676,49.805,29.297,0
1553805443.954,18.555,-129.395,-120.117,43.945,50.293,0
1553805443.958,9.766,-108.398,-131.348,33.691,29.785,0
1553805443.962,8.301,-109.863,-138.184,19.043,63.477,0
1553805443.966,20.020,-123.047,-138.184,12.207,34.180,0
1553805443.970,26.367,-120.605,-141.602,30.273,34.180,0
1553805443.974,39.551,-106.934,-145.508,36.133,43.945,0
1553805443.978,33.691,-107.422,-151.855,21.973,-5.859,0
1553805443.981,-6.348,-86.914,-155.762,16.602,35.156,0
1553805443.985,-7.324,-95.215,-148.438,11.230,53.711,0
1553805443.989,0.977,-130.859,-149.414,13.184,109.375,0
1553805443.993,0.000,-135.742,-151.367,25.391,84.961,0
1553805443.997,-15.137,-138.672,-146.973,25.391,1.953,0
1553805444.001,-16.113,-136.719,-147.949,20.020,42.480,0
1553805444.005,19.531,-142.578,-147.949,20.508,14.648,0
1553805444.009,10.254,-145.020,-145.996,11.230,1.465,0
1553805444.013,-11.230,-118.652,-141.113,3.906,46.875,0
1553805444.017,-3.418,-102.051,-137.207,4.883,34.668,0
1553805444.021,-4.883,-108.398,-143.555,-17.578,98.633,0
1553805444.024,-19.043,-110.840,-145.508,-21.973,83.496,0
1553805444.028,-26.367,-105.957,-138.672,-29.785,64.941,0
1553805444.032,-40.039,-104.492,-130.859,-22.461,41.016,0
1553805444.036,-20.996,-102.051,-126.465,-5.371,3.906,0
1553805444.040,-7.812,-95.703,-120.605,-7.812,9.766,0
1553805444.044,-30.273,-86.426,-116.211,-6.836,2.441,0
1553805444.048,-45.410,-83.984,-116.211,-15.137,21.484,0
1553805444.052,-33.691,-83.008,-109.375,-35.645,10.742,0
1553805444.056,-33.691,-86.426,-95.215,-39.062,42.969,0
1553805444.060,-47.363,-88.867,-94.238,-40.527,78.125,0
1553805444.063,0.977,-83.984,-102.051,-4.395,79.102,0
1553805444.067,38.574,-72.266,-75.684,22.949,59.570,0
1553805444.071,-11.230,-64.941,-51.758,-16.113,66.895,0
1553805444.075,-60.547,-80.566,-51.758,-51.758,54.688,0
1553805444.079,-42.480,-90.332,-47.363,-37.598,29.297,0
1553805444.083,-38.086,-78.125,-43.945,-36.133,67.383,0
1553805444.087,-52.246,-70.312,-36.133,-33.691,97.168,0
1553805444.091,-37.109,-78.613,-14.648,-16.113,112.793,0
1553805444.095,-42.480,-80.078,-5.859,-23.438,84.473,0
1553805444.099,-46.875,-68.848,-6.836,-11.230,37.109,0
1553805444.103,-33.691,-76.660,-0.488,-1.953,21.973,0
1553805444.106,-23.926,-71.777,4.883,-14.648,28.809,0
1553805444.110,-32.715,-42.969,8.789,2.441,17.090,0
1553805444.114,-51.270,-33.691,3.418,-1.465,21.973,0
1553805444.118,-30.762,-33.203,1.465,2.930,32.227,0
1553805444.122,-13.672,-9.766,3.418,-7.324,39.062,0
1553805444.126,-15.137,-25.879,11.230,-9.277,75.684,0
1553805444.130,10.742,-33.691,26.367,41.016,40.527,0
1553805444.134,2.930,16.113,22.949,30.273,42.969,0
1553805444.138,-9.277,2.930,27.344,9.766,-7.324,0
1553805444.142,-24.414,-11.230,32.715,-7.812,-28.809,0
1553805444.146,-24.902,13.184,33.691,3.418,26.367,0
1553805444.149,-4.395,24.902,41.504,11.719,21.484,0
1553805444.153,-13.672,23.926,50.293,-0.488,29.297,0
1553805444.157,-7.812,27.832,51.758,14.160,52.246,0
1553805444.161,8.789,31.738,54.199,19.531,78.125,0
1553805444.165,27.832,31.738,58.105,25.879,63.477,0
1553805444.169,30.273,33.203,54.688,31.738,92.285,0
1553805444.173,12.207,31.250,60.059,45.410,68.848,0
1553805444.177,23.926,27.832,66.406,38.574,51.758,0
1553805444.181,29.297,29.785,64.941,28.809,79.102,0
1553805444.185,15.625,31.738,65.918,50.293,37.109,0
1553805444.188,24.902,22.461,59.082,66.895,-7.812,0
1553805444.192,14.648,13.672,42.969,46.387,-0.488,0
1553805444.196,15.625,24.414,34.668,30.273,20.508,0
1553805444.200,28.320,23.438,34.180,41.016,65.430,0
1553805444.204,28.809,20.020,25.879,50.293,56.152,0
1553805444.208,24.902,17.578,20.020,46.875,33.691,0
1553805444.212,37.598,16.602,16.113,41.504,84.961,0
1553805444.216,41.504,19.531,12.695,41.504,56.641,0
1553805444.220,43.457,9.766,15.625,58.594,-20.508,0
1553805444.224,46.875,-3.418,10.742,66.406,12.695,0
1553805444.228,41.504,-1.465,1.465,63.965,29.297,0
1553805444.231,43.945,12.207,-5.371,70.801,8.789,0
1553805444.235,48.340,19.531,-15.137,53.711,-11.719,0
1553805444.239,51.758,21.484,-23.438,57.129,82.520,0
1553805444.243,65.430,20.996,-27.344,57.617,77.148,0
1553805444.247,54.199,16.602,-31.250,39.062,-0.488,0
1553805444.251,14.648,15.625,-36.133,42.969,48.340,0
1553805444.255,20.996,19.531,-36.621,42.969,81.055,0
1553805444.259,23.926,8.789,-39.551,40.527,110.352,0
1553805444.263,21.973,-2.441,-44.922,34.668,57.617,0
1553805444.267,19.531,2.441,-49.805,43.457,11.719,0
1553805444.271,35.645,-0.488,-50.293,28.320,44.434,0
1553805444.274,29.297,-8.301,-56.152,25.879,104.004,0
1553805444.278,0.977,-10.254,-56.641,41.504,114.746,0
1553805444.282,1.465,-6.348,-52.734,25.391,49.805,0
1553805444.286,-13.184,-7.324,-51.270,29.785,27.832,0
1553805444.290,-17.578,-10.254,-51.758,7.324,39.062,0
1553805444.294,-1.465,-3.906,-54.199,-4.883,57.129,0
1553805444.298,10.254,0.000,-57.617,30.762,84.961,0
1553805444.302,3.418,-9.277,-52.246,4.395,102.051,0
1553805444.306,0.977,-13.184,-50.293,-32.715,44.434,0
1553805444.310,-30.273,-11.230,-52.246,-8.301,56.152,0
1553805444.313,-40.527,-20.020,-43.945,-15.137,37.598,0
1553805444.317,-21.484,-16.602,-41.992,-20.020,3.906,0
1553805444.321,-6.836,-18.066,-39.551,9.766,8.301,0
1553805444.325,-7.812,-23.438,-38.574,17.578,54.199,0
1553805444.329,-38.086,-20.020,-30.762,-8.789,53.223,0
1553805444.333,-26.367,-13.672,-23.926,-3.418,29.297,0
1553805444.337,-4.395,-1.465,-26.855,-34.668,4.395,0
1553805444.341,-4.395,-23.926,-15.625,-32.715,89.844,0
1553805444.345,-27.344,-32.715,-2.441,5.859,81.543,0
1553805444.349,-29.785,-5.859,0.977,5.371,59.570,0
1553805444.353,-27.832,1.465,1.953,-19.043,43.945,0
1553805444.356,-19.531,-3.418,6.348,-32.715,-21.484,0
1553805444.360,9.277,-10.254,15.625,-2.441,35.156,0
1553805444.364,-10.254,-23.926,21.973,37.109,36.133,0
1553805444.368,-18.066,-12.207,23.438,17.090,20.996,0
1553805444.372,-4.883,8.789,24.414,1.465,1.465,0
1553805444.376,-10.254,11.719,27.344,10.742,36.133,0
1553805444.380,-12.695,11.719,37.598,12.695,11.230,0
1553805444.384,-10.742,16.113,43.945,27.832,8.789,0
1553805444.388,7.324,16.602,41.016,20.996,38.086,0
1553805444.392,11.719,17.578,44.922,21.484,20.508,0
1553805444.396,7.324,19.043,47.852,27.344,32.227,0
1553805444.399,7.812,19.043,44.922,28.320,51.270,0
1553805444.403,2.930,17.090,49.316,40.039,39.062,0
1553805444.407,-5.859,19.043,50.781,39.062,43.945,0
1553805444.411,0.000,23.926,46.387,35.156,104.004,0
1553805444.415,26.367,23.926,45.410,28.809,33.691,0
1553805444.419,23.438,24.902,43.457,18.555,13.672,0
1553805444.423,14.648,19.531,40.039,34.180,67.383,0
1553805444.427,42.969,11.230,35.645,56.152,57.129,0
1553805444.431,44.434,5.371,31.250,56.152,19.531,0
1553805444.435,39.551,0.488,31.250,56.152,32.715,0
1553805444.438,50.293,1.465,29.785,80.078,65.430,0
1553805444.442,25.391,-7.324,22.949,59.082,37.109,0
1553805444.446,23.926,-22.461,19.531,31.250,-24.902,0
1553805444.450,24.414,-34.180,18.555,33.203,-1.465,0
1553805444.454,25.391,-41.504,11.719,46.875,13.672,0
1553805444.458,30.273,-40.527,7.324,57.129,35.156,0
1553805444.462,29.297,-40.039,9.277,37.109,33.203,0
1553805444.466,38.086,-45.898,4.395,63.965,30.762,0
1553805444.470,24.414,-47.363,-2.441,47.852,37.598,0
1553805444.474,33.691,-38.574,-0.488,30.273,61.035,0
1553805444.478,35.156,-30.273,0.000,36.621,99.121,0
1553805444.481,35.156,-31.250,-8.789,17.090,91.797,0
1553805444.485,22.949,-38.574,-20.996,35.156,40.039,0
1553805444.489,21.484,-41.992,-26.855,28.809,51.270,0
1553805444.493,20.508,-47.363,-31.738,40.527,63.965,0
1553805444.497,9.766,-44.434,-33.691,26.855,64.453,0
1553805444.501,7.812,-44.922,-32.715,8.789,41.992,0
1553805444.505,2.930,-52.734,-37.109,30.273,1.953,0
1553805444.509,9.277,-43.945,-35.645,40.039,36.133,0
1553805444.513,12.695,-32.715,-31.738,24.902,13.184,0
1553805444.517,4.883,-36.621,-34.180,-7.324,0.000,0
1553805444.521,-21.484,-35.156,-33.691,-15.137,-13.672,0
1553805444.524,-4.395,-28.809,-30.762,1.465,19.531,0
1553805444.528,-17.090,-43.457,-26.855,12.207,67.871,0
1553805444.532,-33.691,-40.039,-19.531,20.020,30.273,0
1553805444.536,-4.395,-30.762,-18.555,20.020,86.426,0
1553805444.540,-4.395,-31.250,-19.043,-26.855,64.941,0
1553805444.544,-7.812,-28.320,-14.648,-19.043,71.289,0
1553805444.548,-6.348,-28.320,-3.906,21.484,86.426,0
1553805444.552,-10.742,-23.438,-2.441,11.230,30.762,0
1553805444.556,-25.391,-35.156,-8.789,7.324,72.754,0
1553805444.560,4.395,-32.227,-7.812,22.949,91.309,0
1553805444.563,29.785,-6.836,0.977,2.441,5.859,0
1553805444.567,-25.391,1.465,-11.719,-18.066,-3.906,0
1553805444.571,-34.668,0.977,-15.625,1.953,24.902,0
1553805444.575,-6.836,0.488,2.441,9.277,4.395,0
1553805444.579,-16.602,4.395,6.348,17.578,15.137,0
1553805444.583,-20.020,-2.930,13.672,7.812,46.875,0
1553805444.587,-21.484,-3.418,11.719,-25.391,39.062,0
1553805444.591,-8.301,4.395,4.883,-24.414,58.105,0
1553805444.595,-12.207,0.977,5.371,-5.371,26.855,0
1553805444.599,-14.648,-8.301,8.301,-11.230,4.395,0
1553805444.603,1.465,-18.555,4.395,-2.930,30.762,0
1553805444.606,6.836,-11.719,-7.812,23.926,64.941,0
1553805444.610,17.578,-0.977,-0.977,4.883,79.102,0
1553805444.614,17.090,4.395,10.254,10.254,73.730,0
1553805444.618,11.230,9.277,4.395,13.672,15.137,0
1553805444.622,10.254,8.789,3.418,-7.812,18.066,0
1553805444.626,1.953,1.953,8.789,-2.930,32.227,0
1553805444.630,-0.977,1.953,8.301,18.066,62.988,0
1553805444.634,14.160,8.789,2.930,16.602,73.730,0
1553805444.638,2.441,13.184,2.930,15.625,55.176,0
1553805444.642,-21.484,29.297,-0.488,27.832,13.672,0
1553805444.646,-19.531,36.133,1.953,25.391,37.598,0
1553805444.649,0.000,38.086,10.742,13.184,46.875,0
1553805444.653,-6.836,24.414,14.648,9.766,30.273,0
1553805444.657,-29.297,17.578,4.395,-5.859,21.973,0
1553805444.661,-39.551,20.508,5.859,-31.250,64.453,0
1553805444.665,-65.430,36.133,-6.348,-60.059,124.512,0
1553805444.669,-73.242,72.754,-16.602,-68.359,66.406,0
1553805444.673,-83.008,98.633,4.883,-69.336,45.410,0
1553805444.677,-146.484,100.098,8.301,-111.816,73.730,0
1553805444.681,-188.965,110.840,-0.488,-172.852,89.355,0
1553805444.685,-213.379,132.812,3.418,-183.594,72.266,0
1553805444.688,-271.973,139.648,18.555,-243.652,67.383,0
1553805444.692,-333.008,150.879,30.273,-318.848,50.293,0
1553805444.696,-337.402,157.715,30.762,-308.105,15.137,0
1553805444.700,-340.332,131.348,49.805,-326.172,29.297,0
1553805444.704,-368.652,139.648,51.758,-363.281,82.520,0
1553805444.708,-365.723,168.457,46.387,-349.609,33.203,0
1553805444.712,-359.375,152.832,43.457,-340.820,2.441,0
1553805444.716,-335.449,160.645,50.781,-329.590,88.867,0
1553805444.720,-334.961,166.016,74.707,-331.055,101.562,0
1553805444.724,-298.828,137.695,82.031,-298.828,18.066,0
1553805444.728,-291.016,138.672,64.941,-246.094,18.066,0
1553805444.731,-314.941,135.742,56.641,-273.926,72.754,0
1553805444.735,-269.531,109.863,66.895,-272.461,101.562,0
1553805444.739,-222.656,121.094,57.617,-207.031,112.793,0
1553805444.743,-202.637,137.207,46.875,-162.598,73.242,0
1553805444.747,-194.824,138.184,39.551,-156.738,21.484,0
1553805444.751,-141.602,117.188,18.066,-148.926,14.160,0
1553805444.755,-107.422,98.633,3.418,-115.723,28.809,0
1553805444.759,-126.953,94.238,-4.395,-95.703,19.531,0
1553805444.763,-80.078,74.707,-7.324,-71.777,60.059,0
1553805444.767,-37.598,60.059,-2.441,-41.016,74.707,0
1553805444.771,-32.715,41.016,-6.836,-15.137,35.156,0
1553805444.774,2.930,20.020,-11.719,4.395,50.293,0
1553805444.778,4.883,29.297,-16.113,19.531,42.969,0
1553805444.782,22.461,37.109,-18.555,42.480,56.641,0
1553805444.786,48.828,27.344,-26.367,37.109,68.359,0
1553805444.790,46.387,11.230,-30.273,46.387,25.879,0
1553805444.794,62.500,-1.465,-25.879,99.121,43.945,0
1553805444.798,82.031,2.930,-27.832,84.961,43.457,0
1553805444.802,78.613,12.695,-36.133,92.773,-23.438,0
1553805444.806,97.168,13.672,-31.738,136.230,28.809,0
1553805444.810,110.352,4.395,-20.996,117.676,37.109,0
1553805444.813,101.562,-2.930,-28.320,113.770,11.230,0
1553805444.817,124.023,-13.184,-30.273,146.484,96.680,0
1553805444.821,125.000,-11.230,-30.273,145.508,103.027,0
1553805444.825,109.375,-14.160,-32.227,125.488,30.762,0
1553805444.829,119.629,-21.484,-26.855,125.488,25.391,0
1553805444.833,127.441,-20.508,-24.414,123.047,48.828,0
1553805444.837,133.789,-13.672,-25.879,144.531,40.527,0
1553805444.841,134.277,-23.438,-29.297,167.969,36.133,0
1553805444.845,140.137,-39.062,-27.832,141.113,45.898,0
1553805444.849,140.137,-17.578,-24.902,143.066,31.250,0
1553805444.853,127.930,-3.906,-25.391,150.879,37.109,0
1553805444.856,146.973,-17.578,-24.414,142.578,11.230,0
1553805444.860,137.695,-26.855,-23.438,141.113,-3.418,0
1553805444.864,112.793,-15.625,-27.832,129.883,80.566,0
1553805444.868,121.582,-9.277,-29.785,108.398,70.312,0
1553805444.872,120.605,-9.277,-32.227,115.723,31.738,0
1553805444.876,115.234,-5.859,-26.855,122.559,59.570,0
1553805444.880,126.465,0.000,-22.461,121.582,87.402,0
1553805444.884,118.652,0.977,-22.461,114.258,78.125,0
1553805444.888,104.980,-3.906,-15.137,128.906,56.152,0
1553805444.892,117.188,-10.742,-13.672,145.996,58.105,0
1553805444.896,105.469,-9.766,-13.184,132.324,53.223,0
1553805444.899,117.188,-11.230,-10.254,132.812,60.547,0
1553805444.903,120.117,-16.113,-15.625,115.723,39.062,0
1553805444.907,79.102,-3.418,-18.066,103.027,56.641,0
1553805444.911,83.984,0.000,-18.066,105.469,68.359,0
1553805444.915,95.703,-1.465,-15.625,100.098,-49.805,0
1553805444.919,83.984,-1.465,-11.719,99.121,19.043,0
1553805444.923,87.891,3.906,-15.137,122.070,67.871,0
1553805444.927,97.656,10.254,-12.695,116.211,-14.160,0
1553805444.931,93.750,3.906,-5.371,69.336,29.785,0
1553805444.935,87.891,9.766,-1.465,107.910,40.527,0
1553805444.938,83.496,12.695,-1.953,122.070,10.254,0
1553805444.942,77.637,11.230,-7.324,80.078,17.578,0
1553805444.946,74.707,11.719,-7.812,88.867,5.371,0
1553805444.950,77.148,3.906,-3.906,83.008,57.617,0
1553805444.954,66.895,10.254,-8.301,70.801,128.418,0
1553805444.958,71.777,7.812,-4.395,81.543,93.750,0
1553805444.962,70.801,2.441,0.977,62.988,20.996,0
1553805444.966,69.824,9.277,-1.953,57.617,82.031,0
1553805444.970,66.406,0.488,2.441,69.336,139.160,0
1553805444.974,42.480,4.883,-3.418,54.688,96.191,0
1553805444.978,51.270,28.320,-7.812,62.988,63.965,0
1553805444.981,40.039,37.109,-4.395,63.965,77.637,0
1553805444.985,26.855,29.297,-4.395,76.172,101.074,0
1553805444.989,38.086,27.344,-4.883,87.402,61.035,0
1553805444.993,62.988,29.785,-3.906,49.316,75.195,0
1553805444.997,57.129,14.160,-5.859,39.062,92.285,0
1553805445.001,27.832,0.977,-4.395,47.363,91.309,0
1553805445.005,38.086,10.742,-5.371,35.156,72.754,0
1553805445.009,24.414,32.715,-12.695,10.742,27.832,0
1553805445.013,21.973,37.109,-2.441,31.250,8.789,0
1553805445.017,42.969,30.273,5.859,61.523,11.230,0
1553805445.021,24.902,24.414,0.488,51.270,41.016,0
1553805445.024,20.020,12.207,0.488,46.387,48.340,0
1553805445.028,26.855,16.602,-2.441,49.316,34.668,0
1553805445.032,24.414,32.715,1.465,37.598,35.156,0
1553805445.036,25.391,27.832,3.418,33.203,55.176,0
1553805445.040,23.926,31.738,1.953,41.504,46.875,0
1553805445.044,16.602,34.180,8.789,44.434,27.344,0
1553805445.048,21.484,24.902,3.906,38.086,60.547,0
1553805445.052,29.297,28.809,-3.906,24.902,83.984,0
1553805445.056,27.832,32.227,-5.371,12.695,46.875,0
1553805445.060,17.090,31.738,-1.953,24.902,32.715,0
1553805445.063,31.250,30.273,1.953,29.297,20.020,0
1553805445.067,42.480,20.996,-7.812,26.855,45.410,0
1553805445.071,30.762,14.648,-15.625,38.574,96.680,0
1553805445.075,29.297,31.250,-9.766,35.645,49.805,0
1553805445.079,13.672,40.527,-0.977,34.668,76.172,0
1553805445.083,18.066,34.180,1.953,35.156,142.090,0
1553805445.087,24.902,36.621,-0.488,43.457,71.777,0
1553805445.091,10.254,30.762,0.488,46.875,76.172,0
1553805445.095,4.395,15.137,-5.859,14.648,89.844,0
1553805445.099,7.324,18.555,-13.184,-1.953,0.488,0
1553805445.103,7.324,31.738,-3.418,23.438,9.766,0
1553805445.106,4.883,30.273,1.953,14.648,34.180,0
1553805445.110,15.625,26.855,1.465,1.953,44.922,0
1553805445.114,27.832,38.574,-4.395,10.742,87.891,0
1553805445.118,36.621,32.227,-5.371,17.090,75.195,0
1553805445.122,32.227,25.879,-8.789,21.973,50.781,0
1553805445.126,22.461,33.691,-3.906,36.133,37.109,0
1553805445.130,29.297,41.016,1.465,37.109,77.637,0
1553805445.134,16.602,44.434,-6.348,13.672,78.125,0
1553805445.138,17.090,42.969,-10.254,15.137,23.926,0
1553805445.142,20.508,35.156,-7.324,26.367,26.855,0
1553805445.146,6.348,30.273,1.953,37.598,55.176,0
1553805445.149,11.230,34.668,-0.977,29.785,85.449,0
1553805445.153,17.578,27.344,-3.418,22.461,42.969,0
1553805445.157,15.625,18.066,5.859,24.414,32.715,0
1553805445.161,15.625,24.902,7.812,18.555,45.410,0
1553805445.165,18.555,29.785,3.906,24.902,-1.465,0
1553805445.169,14.648,31.250,6.836,22.949,-22.949,0
1553805445.173,21.973,45.410,2.930,18.066,49.316,0
1553805445.177,17.578,46.875,-9.277,20.508,49.316,0
1553805445.181,15.137,28.320,-4.395,18.066,13.184,0
1553805445.185,15.625,28.320,4.395,20.508,83.008,0
1553805445.188,10.254,40.039,0.000,26.367,55.176,0
1553805445.192,22.461,36.621,-1.465,32.715,40.039,0
1553805445.196,20.508,33.203,-2.441,40.527,59.570,0
1553805445.200,23.438,31.738,-2.441,30.762,40.527,0
1553805445.204,26.855,29.297,0.977,21.973,77.637,0
1553805445.208,29.297,26.855,-0.488,22.949,67.383,0
1553805445.212,15.137,23.926,0.977,27.344,39.062,0
1553805445.216,-6.836,19.043,5.371,29.785,51.270,0
1553805445.220,8.301,25.879,5.371,31.738,21.484,0
1553805445.224,17.578,37.109,-8.301,32.715,-11.230,0
1553805445.228,50.781,37.109,-19.043,58.105,32.227,0
1553805445.231,41.016,32.715,4.395,55.664,54.199,0
1553805445.235,-7.324,32.227,15.137,2.441,51.270,0
1553805445.239,-6.348,36.133,5.859,-7.324,35.156,0
1553805445.243,0.488,31.250,6.836,19.043,-9.277,0
1553805445.247,6.348,25.879,12.695,27.344,29.785,0
1553805445.251,-3.418,29.297,13.184,24.414,30.762,0
1553805445.255,1.953,16.602,11.230,32.227,-66.406,0
1553805445.259,8.301,-4.883,6.836,21.973,-30.273,0
1553805445.263,6.348,9.766,2.930,8.301,41.504,0
1553805445.267,24.902,25.391,4.395,9.766,11.719,0
1553805445.271,20.996,30.762,3.906,22.461,-21.484,0
1553805445.274,9.277,33.203,0.977,30.273,29.297,0
1553805445.278,16.113,32.715,-5.859,19.531,46.387,0
1553805445.282,22.949,34.668,0.488,16.602,70.801,0
1553805445.286,41.016,28.809,14.160,33.691,67.871,0
1553805445.290,28.809,18.066,13.184,23.926,48.828,0
1553805445.294,20.996,20.508,5.859,13.184,62.500,0
1553805445.298,36.621,21.973,5.371,31.250,25.879,0
1553805445.302,28.320,25.391,-1.953,45.898,36.133,0
1553805445.306,15.137,28.809,-5.859,21.973,19.531,0
1553805445.310,9.766,25.391,2.441,21.973,-26.855,0
1553805445.313,4.883,25.391,6.348,33.691,36.133,0
1553805445.317,8.301,23.438,4.883,13.184,12.207,0
1553805445.321,24.902,17.578,3.906,33.203,15.625,0
1553805445.325,24.902,13.184,-1.465,61.523,79.590,0
1553805445.329,7.324,26.855,-0.977,24.902,86.914,0
1553805445.333,-16.602,44.922,3.418,-2.441,80.078,0
1553805445.337,-17.578,52.734,3.906,-0.488,48.340,0
1553805445.341,-3.418,47.363,11.719,-6.836,7.324,0
1553805445.345,-1.953,29.297,14.160,5.859,62.012,0
1553805445.349,-3.906,22.949,9.766,17.090,93.262,0
1553805445.353,4.883,32.715,8.789,20.020,33.691,0
1553805445.356,7.812,29.297,8.301,24.414,45.898,0
1553805445.360,11.719,20.996,9.766,35.156,75.684,0
1553805445.364,20.508,28.809,4.883,39.551,43.457,0
1553805445.368,37.109,34.180,-0.488,41.992,79.102,0
1553805445.372,37.598,38.574,4.883,36.621,15.625,0
1553805445.376,21.973,44.922,0.488,28.809,-33.203,0
1553805445.380,22.461,47.363,0.977,17.578,42.480,0
1553805445.384,20.020,44.922,0.977,20.508,15.137,0
1553805445.388,33.691,44.434,2.930,9.766,14.160,0
1553805445.392,41.504,41.992,9.766,2.930,14.160,0
1553805445.396,18.066,37.598,2.441,18.555,8.789,0
1553805445.399,2.441,31.738,2.441,17.578,38.086,0
1553805445.403,-2.930,28.809,9.766,33.203,46.387,0
1553805445.407,-4.883,33.203,7.324,42.480,45.410,0
1553805445.411,7.324,14.160,7.812,21.484,64.453,0
1553805445.415,-10.254,12.695,13.184,31.250,62.500,0
1553805445.419,-29.297,40.527,9.766,28.320,24.414,0
1553805445.423,-15.137,51.270,-0.977,4.883,48.340,0
1553805445.427,-4.883,51.270,3.906,4.395,28.320,0
1553805445.431,5.371,51.758,10.742,13.672,19.531,0
1553805445.435,24.902,30.762,12.207,40.039,23.926,0
1553805445.438,8.301,17.090,15.137,20.996,37.598,0
1553805445.442,-8.789,43.457,0.000,25.879,71.289,0
1553805445.446,10.254,37.109,-3.906,23.438,43.945,0
1553805445.450,19.043,31.250,10.742,-0.488,50.293,0
1553805445.454,2.441,50.781,5.371,10.254,59.082,0
1553805445.458,-0.977,44.434,2.930,7.324,66.406,0
1553805445.462,8.789,35.645,16.113,16.113,62.012,0
1553805445.466,1.465,37.109,10.742,14.160,25.391,0
1553805445.470,-15.137,41.992,0.977,11.230,77.148,0
1553805445.474,-9.277,29.785,11.719,13.672,134.766,0
1553805445.478,9.277,15.625,10.742,19.043,97.656,0
1553805445.481,-0.488,33.691,0.977,17.578,26.367,0
1553805445.485,-8.789,42.480,13.184,10.254,18.555,0
1553805445.489,-2.441,28.809,19.043,16.113,52.246,0
1553805445.493,-1.465,22.949,16.602,21.484,42.969,0
1553805445.497,0.000,33.691,15.137,18.066,-12.695,0
1553805445.501,-1.465,41.504,7.812,9.766,46.875,0
1553805445.505,0.977,44.434,-0.488,15.137,68.359,0
1553805445.509,-3.418,35.645,12.695,15.137,52.734,0
1553805445.513,4.883,22.461,16.602,11.230,35.156,0
1553805445.517,34.180,-0.488,12.207,47.363,11.230,0
1553805445.521,18.555,2.930,16.113,61.523,36.133,0
1553805445.524,-0.488,45.410,-3.906,53.711,44.922,0
1553805445.528,10.254,57.617,-13.184,50.781,-8.789,0
1553805445.532,32.715,50.781,-25.879,36.133,1.953,0
1553805445.536,54.688,47.852,-3.418,51.758,70.801,0
1553805445.540,-6.348,44.434,50.781,-7.324,0.488,0
1553805445.544,-47.363,50.293,40.039,-76.172,50.781,0
1553805445.548,-23.926,14.160,46.875,-50.781,101.562,0
1553805445.552,-57.617,-10.742,59.082,-80.078,37.598,0
1553805445.556,-135.254,31.738,23.438,-142.578,47.852,0
1553805445.560,-185.547,44.922,35.645,-167.969,64.453,0
1553805445.563,-223.145,46.875,82.031,-198.730,86.914,0
1553805445.567,-259.277,38.574,82.520,-238.770,85.449,0
1553805445.571,-297.852,46.875,60.059,-270.996,0.488,0
1553805445.575,-352.539,68.359,63.477,-319.824,5.859,0
1553805445.579,-403.809,56.152,86.426,-342.773,109.863,0
1553805445.583,-391.113,33.203,99.121,-325.684,81.055,0
1553805445.587,-405.762,62.012,95.703,-362.793,68.848,0
1553805445.591,-424.805,86.914,82.031,-393.066,106.934,0
1553805445.595,-389.160,42.969,73.730,-356.934,50.781,0
1553805445.599,-377.441,49.805,81.543,-333.984,49.805,0
1553805445.603,-370.605,62.500,82.031,-311.523,113.770,0
1553805445.606,-334.961,41.016,68.359,-269.531,143.555,0
1553805445.610,-299.316,30.762,76.660,-250.977,67.383,0
1553805445.614,-281.738,23.438,68.359,-228.027,64.453,0
1553805445.618,-253.906,9.766,41.992,-185.059,57.617,0
1553805445.622,-235.840,3.418,36.133,-193.359,41.016,0
1553805445.626,-205.078,4.395,30.273,-166.992,124.023,0
1553805445.630,-175.293,-20.020,15.137,-119.141,39.551,0
1553805445.634,-136.230,-42.969,1.953,-82.031,-26.367,0
1553805445.638,-106.445,-29.785,-18.555,-55.664,83.008,0
1553805445.642,-86.426,-19.531,-23.926,-46.387,71.289,0
1553805445.646,-60.547,-34.180,-29.785,-22.461,10.254,0
1553805445.649,-59.082,-30.273,-54.199,2.930,52.734,0
1553805445.653,-41.992,-31.738,-49.316,2.930,50.293,0
1553805445.657,-0.488,-41.992,-38.086,9.277,30.762,0
1553805445.661,23.438,-18.066,-71.289,42.480,52.734,0
1553805445.665,16.602,-15.137,-91.309,55.664,47.363,0
1553805445.669,-1.953,-30.762,-88.379,35.156,23.438,0
1553805445.673,17.090,-30.762,-107.910,59.570,21.973,0
1553805445.677,49.316,-34.668,-125.000,97.656,91.797,0
1553805445.681,41.504,-22.461,-139.160,82.031,48.340,0
1553805445.685,43.945,-19.043,-151.367,83.496,39.062,0
1553805445.688,56.152,-28.809,-173.340,94.238,-26.855,0
1553805445.692,53.223,-25.391,-196.289,91.309,-55.176,0
1553805445.696,49.805,-20.996,-208.984,93.262,1.465,0
1553805445.700,56.152,-29.785,-213.379,91.797,10.254,0
1553805445.704,64.941,-26.367,-220.215,92.285,17.578,0
1553805445.708,67.871,-23.926,-229.980,98.633,4.883,0
1553805445.712,70.801,-28.809,-250.488,108.887,54.688,0
1553805445.716,69.824,-29.297,-272.461,100.586,11.719,0
1553805445.720,64.941,-40.039,-273.438,83.984,-8.789,0
1553805445.724,58.105,-44.922,-273.438,83.496,20.996,0
1553805445.728,56.152,-57.129,-283.691,85.938,29.785,0
1553805445.731,64.453,-56.641,-300.293,96.680,45.410,0
1553805445.735,56.641,-38.574,-315.430,86.914,4.883,0
1553805445.739,60.547,-40.527,-308.594,70.312,38.574,0
1553805445.743,62.012,-61.035,-295.898,76.172,13.184,0
1553805445.747,54.199,-55.664,-311.035,77.637,2.930,0
1553805445.751,59.570,-62.988,-320.312,74.219,59.570,0
1553805445.755,50.781,-83.008,-327.637,80.078,64.453,0
1553805445.759,25.391,-60.059,-333.496,65.430,76.172,0
1553805445.763,12.207,-28.320,-353.027,51.270,55.664,0
1553805445.767,21.973,-27.344,-367.188,52.734,49.316,0
1553805445.771,22.461,-42.969,-347.656,49.805,57.617,0
1553805445.774,21.973,-75.684,-328.613,55.176,44.434,0
1553805445.778,41.504,-115.723,-308.594,70.312,12.695,0
1553805445.782,38.574,-124.023,-323.730,85.449,84.961,0
1553805445.786,24.414,-110.352,-358.887,70.312,110.840,0
1553805445.790,16.113,-98.633,-337.402,36.621,82.520,0
1553805445.794,2.441,-93.750,-308.594,25.391,70.312,0
1553805445.798,15.625,-89.844,-312.500,19.531,-10.742,0
1553805445.802,12.207,-83.008,-317.871,10.254,16.602,0
1553805445.806,-8.301,-96.680,-316.895,0.000,48.828,0
1553805445.810,-11.719,-99.609,-311.523,3.418,5.371,0
1553805445.813,3.906,-92.773,-308.105,23.438,43.457,0
1553805445.817,7.812,-94.727,-297.852,18.555,67.383,0
1553805445.821,-6.348,-92.773,-303.711,21.973,29.297,0
1553805445.825,-10.742,-80.078,-306.152,23.926,77.148,0
1553805445.829,-21.484,-68.359,-290.039,10.254,139.160,0
1553805445.833,-11.230,-83.984,-277.344,4.883,82.520,0
1553805445.837,-10.254,-104.492,-275.879,3.418,93.262,0
1553805445.841,-23.926,-92.285,-277.344,7.812,92.285,0
1553805445.845,-18.066,-78.613,-272.949,13.184,38.574,0
1553805445.849,-23.438,-73.242,-274.902,10.254,7.324,0
1553805445.853,-20.508,-76.660,-271.484,7.812,9.766,0
1553805445.856,-8.301,-97.656,-259.277,4.883,28.320,0
1553805445.860,-7.324,-125.000,-243.652,7.324,21.484,0
1553805445.864,-10.742,-145.996,-253.418,1.953,35.645,0
1553805445.868,-11.719,-155.273,-260.742,4.883,11.719,0
1553805445.872,-24.902,-156.738,-235.840,2.441,-14.648,0
1553805445.876,-29.297,-159.668,-229.980,-6.836,45.898,0
1553805445.880,-19.043,-164.551,-234.375,3.906,44.922,0
1553805445.884,-20.508,-155.273,-224.609,8.301,24.902,0
1553805445.888,-27.832,-147.949,-223.633,5.371,59.082,0
1553805445.892,-15.625,-167.480,-215.332,3.418,63.477,0
1553805445.896,-17.578,-182.617,-221.680,1.465,89.844,0
1553805445.899,-40.039,-176.270,-220.703,-1.465,81.055,0
1553805445.903,-44.922,-168.945,-201.172,-12.207,38.574,0
1553805445.907,-39.551,-164.062,-205.566,-18.066,49.805,0
1553805445.911,-38.086,-159.668,-212.402,-25.879,62.988,0
1553805445.915,-29.785,-169.434,-203.125,-21.484,37.598,0
1553805445.919,-15.625,-200.684,-208.008,-3.906,45.410,0
1553805445.923,-10.742,-237.793,-205.566,4.395,83.008,0
1553805445.927,-26.367,-246.582,-180.664,-3.418,47.852,0
1553805445.931,-42.480,-248.047,-176.758,-8.301,62.500,0
1553805445.935,-33.691,-268.555,-168.945,-4.395,107.910,0
1553805445.938,-33.691,-250.977,-158.203,-22.949,95.703,0
1553805445.942,-42.480,-231.445,-156.738,-44.922,85.938,0
1553805445.946,-43.457,-241.211,-166.016,-48.340,94.238,0
1553805445.950,-29.785,-242.188,-159.180,-36.133,105.957,0
1553805445.954,-21.484,-225.098,-154.785,-28.320,86.426,0
1553805445.958,-30.273,-208.008,-156.250,-27.344,14.648,0
1553805445.962,-26.367,-208.008,-147.949,-4.395,37.109,0
1553805445.966,-27.344,-210.938,-151.855,-1.953,33.203,0
1553805445.970,-23.926,-198.730,-140.625,-0.977,32.715,0
1553805445.974,-25.879,-190.430,-134.766,-9.277,2.441,0
1553805445.978,-29.785,-187.500,-139.648,-26.367,6.836,0
1553805445.981,-25.391,-187.988,-142.090,-15.625,89.844,0
1553805445.985,-30.762,-182.129,-146.973,-10.742,118.164,0
1553805445.989,-33.203,-179.199,-133.789,-13.184,31.250,0
1553805445.993,-21.484,-192.383,-128.418,-16.602,-5.859,0
1553805445.997,-12.207,-177.734,-132.324,-8.789,89.844,0
1553805446.001,-18.555,-161.621,-125.000,-12.695,80.078,0
1553805446.005,-28.320,-150.391,-117.676,-15.625,61.523,0
1553805446.009,-28.809,-131.836,-129.395,-10.254,75.195,0
1553805446.013,-23.926,-134.277,-131.348,-15.625,48.340,0
1553805446.017,-27.344,-153.320,-113.281,-19.043,5.859,0
1553805446.021,-22.461,-148.926,-105.469,-19.043,14.648,0
1553805446.024,-18.066,-125.000,-110.840,-18.555,61.523,0
1553805446.028,-26.855,-112.793,-118.652,-20.508,42.969,0
1553805446.032,-22.949,-115.723,-107.422,-22.461,48.340,0
1553805446.036,-22.949,-113.281,-110.352,-32.715,33.203,0
1553805446.040,-23.438,-114.258,-119.629,-22.461,-1.953,0
1553805446.044,-14.648,-127.930,-101.562,-8.789,53.711,0
1553805446.048,-9.766,-118.652,-113.770,-9.766,21.484,0
1553805446.052,-27.832,-150.879,-143.066,-13.672,43.457,0
1553805446.056,-29.785,-197.266,-150.391,-20.508,86.914,0
1553805446.060,-31.250,-193.848,-148.926,-6.348,28.809,0
1553805446.063,-34.668,-181.641,-143.555,-11.230,12.207,0
1553805446.067,-21.973,-179.199,-146.973,-13.184,19.043,0
1553805446.071,-23.438,-184.570,-142.090,-15.625,37.109,0
1553805446.075,-38.574,-179.199,-131.836,-9.277,104.980,0
1553805446.079,-49.316,-161.621,-129.883,-7.324,100.586,0
1553805446.083,-36.621,-164.551,-127.930,-26.367,75.195,0
1553805446.087,-22.949,-154.785,-128.906,-35.156,11.230,0
1553805446.091,-25.879,-119.629,-124.512,-39.062,-0.977,0
1553805446.095,-23.926,-126.465,-119.629,-25.879,-7.812,0
1553805446.099,-20.996,-152.832,-119.629,-17.090,-23.438,0
1553805446.103,-26.367,-136.719,-117.188,-24.414,41.504,0
1553805446.106,-19.043,-110.352,-120.605,-10.254,-6.836,0
1553805446.110,-21.484,-108.398,-111.816,-2.441,-10.254,0
1553805446.114,-24.902,-105.469,-93.262,-9.277,14.160,0
1553805446.118,-20.996,-106.934,-92.285,-4.883,50.293,0
1553805446.122,-20.996,-125.488,-95.703,-14.160,57.129,0
1553805446.126,-17.578,-118.164,-99.609,-22.461,67.871,0
1553805446.130,-9.766,-92.285,-106.445,-21.484,100.586,0
1553805446.134,-4.395,-87.402,-114.746,-24.414,35.645,0
1553805446.138,-13.184,-71.777,-117.676,-26.855,18.555,0
1553805446.142,-4.883,-67.871,-109.863,-14.160,7.324,0
1553805446.146,-0.488,-88.379,-102.539,-6.836,-26.367,0
1553805446.149,-1.953,-84.473,-95.703,4.883,6.836,0
1553805446.153,-11.230,-69.824,-103.027,8.789,26.855,0
1553805446.157,-20.996,-63.477,-94.727,-1.953,34.668,0
1553805446.161,-27.344,-67.871,-79.102,2.930,93.262,0
1553805446.165,-30.762,-63.965,-92.285,-5.371,83.496,0
1553805446.169,-24.902,-50.781,-98.145,-15.625,8.789,0
1553805446.173,-25.879,-48.340,-89.844,-7.324,-30.762,0
1553805446.177,-19.531,-58.594,-75.195,0.977,0.000,0
1553805446.181,-17.578,-62.988,-62.500,-15.625,41.504,0
1553805446.185,-25.391,-46.387,-66.406,-5.859,42.480,0
1553805446.188,-19.043,-37.109,-66.895,8.301,83.496,0
1553805446.192,-2.441,-53.223,-76.172,-0.977,72.754,0
1553805446.196,-8.301,-44.434,-75.195,3.418,78.125,0
1553805446.200,-19.531,-29.297,-60.059,-4.395,62.988,0
1553805446.204,-10.742,-37.598,-54.199,-9.277,13.672,0
1553805446.208,-7.324,-25.879,-58.594,4.883,-7.812,0
1553805446.212,-1.953,-25.391,-66.406,2.930,14.160,0
1553805446.216,-11.230,-30.273,-62.500,1.465,3.418,0
1553805446.220,-21.484,-21.484,-65.918,1.465,11.719,0
1553805446.224,-23.438,-21.484,-66.406,-8.789,41.016,0
1553805446.228,-16.113,-20.020,-45.410,-8.301,-20.996,0
1553805446.231,-10.742,-20.508,-42.969,-5.859,-7.324,0
1553805446.235,-6.836,-25.879,-49.805,-8.789,60.059,0
1553805446.239,4.883,-25.391,-45.410,6.348,36.133,0
1553805446.243,-9.277,-20.996,-47.852,16.113,55.664,0
1553805446.247,-12.207,-34.180,-53.223,20.020,-17.090,0
1553805446.251,-0.488,-52.734,-49.316,20.508,-13.184,0
1553805446.255,0.000,-20.508,-50.293,9.277,71.289,0
1553805446.259,-4.883,9.766,-39.551,8.301,58.594,0
1553805446.263,-19.531,-2.930,-39.551,-1.465,22.461,0
1553805446.267,-5.859,-12.207,-46.387,-7.324,0.977,0
1553805446.271,3.906,-11.719,-32.227,3.418,43.945,0
1553805446.274,-9.277,-16.113,-42.969,4.395,63.477,0
1553805446.278,-1.953,-12.207,-52.246,12.207,77.637,0
1553805446.282,-0.488,-5.371,-41.504,7.324,72.266,0
1553805446.286,-6.348,-12.207,-33.691,-0.977,55.176,0
1553805446.290,10.742,-17.090,-32.715,9.277,79.102,0
1553805446.294,11.230,-21.484,-45.898,5.371,26.367,0
1553805446.298,-1.953,-35.156,-39.551,12.207,-18.555,0
1553805446.302,-6.836,-40.039,-32.715,21.484,34.668,0
1553805446.306,29.785,-33.691,-35.645,37.109,125.488,0
1553805446.310,29.785,-25.391,-25.879,43.945,59.570,0
1553805446.313,-6.836,-28.809,-8.789,11.719,2.441,0
1553805446.317,-11.719,-34.180,-7.324,-7.812,14.160,0
1553805446.321,-18.066,-31.250,-14.160,0.000,12.695,0
1553805446.325,-16.113,-21.484,-18.066,7.324,69.336,0
1553805446.329,-7.324,-16.602,-22.461,-9.766,65.430,0
1553805446.333,-10.254,-30.273,-14.648,-0.488,-22.461,0
1553805446.337,-8.789,-39.551,-15.137,8.301,-9.277,0
1553805446.341,9.766,-43.457,-28.809,4.395,33.691,0
1553805446.345,8.789,-38.574,-26.855,3.418,67.383,0
1553805446.349,-0.977,-25.391,-18.555,4.395,75.684,0
1553805446.353,4.395,-13.672,-25.391,9.766,80.078,0
1553805446.356,4.395,-15.137,-15.137,17.578,54.688,0
1553805446.360,-7.812,-43.945,-16.113,22.461,34.180,0
1553805446.364,-6.348,-34.180,-23.926,28.809,48.828,0
1553805446.368,6.348,-2.930,-17.090,31.250,8.789,0
1553805446.372,0.977,-1.953,-19.531,21.973,81.055,0
1553805446.376,-13.672,-5.371,-19.043,11.230,88.867,0
1553805446.380,-16.602,-13.184,-8.301,15.137,14.648,0
1553805446.384,-2.930,-17.578,-6.348,16.602,48.828,0
1553805446.388,9.766,-14.160,-20.996,11.230,53.223,0
1553805446.392,4.395,-16.602,-17.578,15.137,37.598,0
1553805446.396,1.953,-14.648,-6.348,26.367,34.180,0
1553805446.399,0.000,-15.137,-5.859,21.484,75.684,0
1553805446.403,-4.395,-14.648,-12.207,18.066,99.609,0
1553805446.407,7.812,-12.207,-29.785,18.555,45.898,0
1553805446.411,9.766,-17.578,-32.715,18.555,-13.672,0
1553805446.415,-5.859,-20.508,-13.184,10.254,56.152,0
1553805446.419,-8.301,-14.160,0.977,7.812,108.398,0
1553805446.423,1.953,-7.812,1.465,11.230,35.645,0
1553805446.427,0.977,-10.742,-10.254,11.719,-45.898,0
1553805446.431,0.977,0.977,-19.531,28.320,-43.457,0
1553805446.435,9.277,2.441,-8.789,26.367,83.496,0
1553805446.438,3.906,-3.418,-2.441,9.277,113.281,0
1553805446.442,1.953,4.395,-6.836,12.207,77.148,0
1553805446.446,5.859,0.488,-5.371,28.320,44.922,0
1553805446.450,1.465,0.488,-13.184,22.461,62.988,0
1553805446.454,9.766,0.488,-15.625,22.949,51.270,0
1553805446.458,20.020,-8.789,-9.766,36.133,-38.086,0
1553805446.462,16.113,-23.438,-11.719,20.508,11.719,0
1553805446.466,16.113,-19.043,-16.602,15.625,93.262,0
1553805446.470,-2.441,-3.906,-10.254,23.926,74.219,0
1553805446.474,-4.883,-3.418,5.371,19.531,13.184,0
1553805446.478,1.465,-4.883,3.906,12.695,20.508,0
1553805446.481,0.977,1.953,-10.254,14.160,72.266,0
1553805446.485,7.324,5.859,-11.719,28.809,17.090,0
1553805446.489,10.742,5.859,-8.301,29.785,62.988,0
1553805446.493,20.508,-8.301,-8.789,5.859,98.633,0
1553805446.497,15.137,-10.742,-17.090,5.371,41.504,0
1553805446.501,1.953,6.836,-6.348,13.672,6.348,0
1553805446.505,1.953,5.859,2.441,10.254,68.359,0
1553805446.509,5.859,-6.348,0.000,8.301,46.387,0
1553805446.513,0.488,3.418,10.742,17.578,34.180,0
1553805446.517,2.441,13.672,5.859,13.184,22.461,0
1553805446.521,9.766,6.836,5.859,25.879,46.387,0
1553805446.524,1.953,6.836,9.277,31.250,109.863,0
1553805446.528,6.348,-0.488,11.230,29.785,20.508,0
1553805446.532,21.484,-10.742,7.812,29.785,26.855,0
1553805446.536,22.949,-4.883,-10.254,22.461,34.668,0
1553805446.540,15.625,-3.906,-10.254,25.879,13.184,0
1553805446.544,5.859,-5.859,7.324,23.926,19.531,0
1553805446.548,-1.953,-0.977,12.207,11.719,12.207,0
1553805446.552,5.371,-13.184,11.230,16.602,15.137,0
1553805446.556,11.230,-20.996,12.207,29.297,51.758,0
1553805446.560,8.301,-4.883,11.230,19.043,65.430,0
1553805446.563,7.324,9.277,11.719,19.043,39.062,0
1553805446.567,3.418,16.113,11.230,7.324,94.238,0
1553805446.571,10.742,4.395,8.301,-0.488,85.449,0
1553805446.575,13.672,2.441,16.602,7.812,30.273,0
1553805446.579,6.348,13.672,11.719,17.578,43.945,0
1553805446.583,10.254,18.066,11.230,25.391,42.480,0
1553805446.587,13.672,20.508,12.207,33.203,3.906,0
1553805446.591,3.906,14.160,-9.277,35.645,44.922,0
1553805446.595,-3.418,6.348,-21.973,23.438,70.312,0
1553805446.599,3.906,10.254,-34.668,19.043,67.383,0
1553805446.603,9.277,11.230,-31.250,16.113,44.434,0
1553805446.606,10.742,0.000,-21.973,13.184,39.062,0
1553805446.610,17.578,-6.836,-24.414,11.230,109.375,0
1553805446.614,22.461,-7.324,-19.043,28.320,73.242,0
1553805446.618,16.602,15.625,-24.902,23.438,-0.977,0
1553805446.622,7.812,33.691,-34.180,3.418,48.828,0
1553805446.626,14.648,18.555,-21.973,18.555,74.707,0
1553805446.630,13.672,6.348,-5.371,27.344,36.133,0
1553805446.634,0.000,11.719,-1.953,16.113,64.941,0
1553805446.638,-3.906,8.789,-17.090,14.160,63.965,0
1553805446.642,0.488,6.348,-17.090,10.254,55.664,0
1553805446.646,10.742,14.648,-10.254,19.043,71.289,0
1553805446.649,5.371,28.320,-10.254,20.996,38.574,0
1553805446.653,3.906,28.320,6.836,14.160,62.500,0
1553805446.657,8.789,20.996,3.906,14.160,102.539,0
1553805446.661,10.742,20.020,-9.766,5.371,113.281,0
1553805446.665,8.301,12.207,0.977,15.137,41.016,0
1553805446.669,2.441,17.578,-1.465,19.531,-20.996,0
1553805446.673,5.859,29.297,-7.812,32.715,64.941,0
1553805446.677,2.930,30.762,-0.488,33.203,85.449,0
1553805446.681,17.578,39.551,5.859,21.973,62.500,0
1553805446.685,14.648,27.344,6.348,19.043,51.270,0
1553805446.688,-1.953,23.438,11.230,15.137,-2.441,0
1553805446.692,-4.395,37.598,28.320,20.508,32.227,0
1553805446.696,-10.742,33.203,26.855,24.902,39.062,0
1553805446.700,-5.859,40.039,15.625,21.973,41.504,0
1553805446.704,0.488,30.762,1.953,14.160,30.762,0
1553805446.708,-3.418,26.367,-6.836,16.113,50.293,0
1553805446.712,2.930,45.410,0.977,17.090,27.344,0
1553805446.716,8.789,46.875,15.625,15.625,15.137,0
1553805446.720,-7.324,38.574,17.090,14.160,-19.043,0
1553805446.724,-7.324,38.086,10.254,8.301,6.836,0
1553805446.728,6.836,37.109,14.648,8.789,72.266,0
1553805446.731,6.836,41.016,22.949,22.461,17.578,0
1553805446.735,-5.371,40.039,18.066,13.184,3.418,0
1553805446.739,-3.906,26.367,14.648,20.508,47.363,0
1553805446.743,0.000,25.879,19.043,18.066,32.227,0
1553805446.747,9.277,26.855,14.160,0.977,45.898,0
1553805446.751,12.695,18.066,6.836,2.930,65.430,0
1553805446.755,-8.789,32.227,12.695,0.000,-9.277,0
1553805446.759,1.465,51.270,1.465,10.742,68.848,0
1553805446.763,20.020,46.875,-2.441,22.949,73.730,0
1553805446.767,17.090,42.969,3.418,21.484,25.879,0
1553805446.771,7.812,42.969,8.789,15.137,27.344,0
1553805446.774,11.230,41.504,19.043,25.391,22.949,0
1553805446.778,14.160,38.574,21.484,30.762,67.383,0
1553805446.782,11.719,32.227,19.531,18.555,84.473,0
1553805446.786,18.066,22.949,18.066,29.785,100.098,0
1553805446.790,14.160,24.902,7.324,29.785,68.848,0
1553805446.794,1.465,46.387,-3.418,8.789,62.500,0
1553805446.798,-3.906,38.574,8.789,3.906,2.930,0
1553805446.802,15.137,21.484,14.648,28.320,4.883,0
1553805446.806,35.156,42.969,8.789,44.434,66.895,0
1553805446.810,-2.930,47.852,-2.441,5.859,38.574,0
1553805446.813,-14.160,41.016,-7.812,0.000,59.082,0
1553805446.817,-4.883,56.641,-9.766,6.836,12.207,0
1553805446.821,-0.488,70.801,-5.371,-16.113,-3.906,0
1553805446.825,-14.160,69.336,-1.953,-28.320,81.543,0
1553805446.829,-40.527,61.523,-7.812,-15.137,85.938,0
1553805446.833,-38.086,54.199,-3.418,0.000,49.805,0
1553805446.837,-27.832,44.434,4.883,-8.301,33.203,0
1553805446.841,-1.953,39.551,5.371,-7.812,40.527,0
1553805446.845,10.742,44.922,3.906,-9.766,56.152,0
1553805446.849,0.000,48.340,6.836,-19.043,35.645,0
1553805446.853,10.742,54.688,-0.488,-11.719,88.379,0
1553805446.856,15.625,51.270,-1.953,-2.930,89.844,0
1553805446.860,18.555,36.133,-0.488,12.695,15.137,0
1553805446.864,32.227,46.387,5.859,25.879,23.926,0
1553805446.868,19.531,56.152,-2.441,19.531,19.531,0
1553805446.872,6.836,58.594,-0.977,10.254,-0.977,0
1553805446.876,12.207,53.711,21.484,22.949,23.438,0
1553805446.880,11.230,37.109,22.949,24.902,62.988,0
1553805446.884,1.953,39.551,11.230,11.230,7.812,0
1553805446.888,-5.859,49.316,3.418,18.555,-2.441,0
1553805446.892,-8.301,57.617,4.883,13.672,23.926,0
1553805446.896,-4.395,62.500,12.207,7.324,2.930,0
1553805446.899,1.953,61.035,22.461,23.438,51.270,0
1553805446.903,7.324,55.176,25.391,25.391,1.465,0
1553805446.907,9.766,49.316,23.926,26.367,-42.969,0
1553805446.911,15.137,48.340,17.090,25.879,53.711,0
1553805446.915,2.930,39.551,15.137,8.301,35.645,0
1553805446.919,-18.555,46.387,22.949,0.488,7.812,0
1553805446.923,-7.812,59.082,29.785,8.301,93.262,0
1553805446.927,0.488,63.477,23.438,16.602,177.734,0
1553805446.931,0.977,63.965,30.273,9.277,133.301,0
1553805446.935,0.000,51.270,42.480,8.789,-54.688,0
1553805446.938,4.883,52.246,41.504,28.320,-35.645,0
1553805446.942,13.184,50.781,37.109,23.926,8.789,0
1553805446.946,11.719,42.969,28.809,17.578,-5.859,0
1553805446.950,6.348,53.223,42.969,24.414,32.227,0
1553805446.954,6.836,50.781,47.852,21.973,50.781,0
1553805446.958,10.742,45.898,41.992,24.414,34.668,0
1553805446.962,5.371,56.152,46.387,15.137,4.395,0
1553805446.966,6.348,60.547,41.992,16.113,-13.672,0
1553805446.970,7.812,60.059,51.270,17.578,0.488,0
1553805446.974,20.020,62.500,65.430,12.695,20.996,0
1553805446.978,22.949,58.594,71.289,27.344,4.395,0
1553805446.981,15.625,47.363,69.824,30.273,14.648,0
1553805446.985,7.324,42.969,60.547,25.879,-4.883,0
1553805446.989,2.930,59.570,50.781,24.902,-8.789,0
1553805446.993,12.207,66.406,51.270,25.879,8.789,0
1553805446.997,8.301,52.246,62.012,28.809,37.109,0
1553805447.001,8.301,51.270,62.012,29.785,77.148,0
1553805447.005,11.719,48.828,55.176,26.367,-12.207,0
1553805447.009,25.391,34.668,52.246,31.250,25.879,0
1553805447.013,23.438,50.293,48.340,28.809,85.938,0
1553805447.017,25.879,57.617,42.969,27.344,77.637,0
1553805447.021,32.227,53.711,48.828,38.086,20.020,0
1553805447.024,27.832,49.316,64.453,36.621,-20.996,0
1553805447.028,29.297,41.504,54.688,40.527,38.086,0
1553805447.032,25.879,55.176,40.527,33.691,90.820,0
1553805447.036,26.855,55.664,41.992,24.414,67.871,0
1553805447.040,22.461,44.434,36.621,14.648,11.230,0
1553805447.044,25.879,46.875,36.621,19.531,-11.230,0
1553805447.048,27.344,50.293,37.598,28.809,53.711,0
1553805447.052,25.391,54.688,37.598,34.180,83.496,0
1553805447.056,24.902,59.082,32.227,38.086,70.801,0
1553805447.060,19.531,46.875,30.762,41.992,54.199,0
1553805447.063,13.184,41.016,30.762,40.527,-3.418,0
1553805447.067,19.531,54.688,21.973,31.250,-9.766,0
1553805447.071,25.391,66.895,20.020,31.250,35.156,0
1553805447.075,17.578,63.965,16.113,29.297,54.688,0
1553805447.079,17.090,51.270,13.672,28.809,86.914,0
1553805447.083,17.090,48.340,19.043,30.762,62.012,0
1553805447.087,22.949,61.523,20.020,35.156,24.414,0
1553805447.091,29.297,59.570,24.902,40.527,87.891,0
1553805447.095,28.320,49.805,16.113,35.156,120.117,0
1553805447.099,18.555,48.340,11.719,20.996,88.379,0
1553805447.103,26.367,49.805,11.719,18.555,41.504,0
1553805447.106,35.645,52.246,-0.488,33.203,53.223,0
1553805447.110,25.879,48.340,4.395,37.109,69.336,0
1553805447.114,16.602,52.734,0.000,25.879,44.922,0
1553805447.118,8.789,54.199,-11.230,21.973,30.762,0
1553805447.122,42.480,48.828,-6.348,40.039,1.465,0
1553805447.126,62.012,55.664,0.977,53.223,47.852,0
1553805447.130,13.672,61.035,12.207,24.414,95.703,0
1553805447.134,-19.531,51.758,17.578,6.348,78.613,0
1553805447.138,-10.254,37.109,15.625,16.113,126.465,0
1553805447.142,4.395,37.598,10.742,26.855,96.191,0
1553805447.146,2.441,43.945,11.719,23.438,15.137,0
1553805447.149,-14.160,41.992,23.926,0.488,53.711,0
1553805447.153,-6.348,35.156,20.020,14.160,38.574,0
1553805447.157,24.902,44.434,9.766,37.598,32.715,0
1553805447.161,21.973,50.293,4.395,39.551,-8.789,0
1553805447.165,-5.371,42.969,-2.930,24.414,8.789,0
1553805447.169,-0.488,48.340,2.441,17.090,113.770,0
1553805447.173,0.000,48.340,8.301,17.578,55.176,0
1553805447.177,1.953,55.176,11.719,27.832,10.254,0
1553805447.181,8.301,56.641,6.836,32.715,103.027,0
1553805447.185,15.625,46.387,4.395,31.250,125.000,0
1553805447.188,19.531,53.711,7.324,32.715,44.922,0
1553805447.192,30.762,63.477,11.719,38.086,47.852,0
1553805447.196,23.438,64.941,20.508,47.363,19.531,0
1553805447.200,10.742,67.383,22.461,29.297,46.387,0
1553805447.204,9.277,72.266,14.648,7.324,74.219,0
1553805447.208,3.418,76.660,2.930,4.883,44.434,0
1553805447.212,0.000,70.801,6.836,-0.488,61.035,0
1553805447.216,1.953,66.895,15.137,0.977,52.246,0
1553805447.220,11.230,68.848,7.812,21.973,31.250,0
1553805447.224,8.301,67.871,9.766,27.344,32.227,0
1553805447.228,5.859,68.359,12.207,21.973,27.344,0
1553805447.231,21.973,71.777,16.113,31.250,87.402,0
1553805447.235,17.578,64.453,16.113,28.320,81.543,0
1553805447.239,2.930,65.918,13.184,17.090,36.621,0
1553805447.243,8.301,72.754,23.926,27.344,19.043,0
1553805447.247,8.301,74.219,18.555,21.973,9.277,0
1553805447.251,5.371,73.242,8.301,19.531,40.039,0
1553805447.255,14.160,72.266,2.930,28.320,66.895,0
1553805447.259,13.184,74.707,8.301,25.391,45.898,0
1553805447.263,8.789,70.312,9.277,34.668,33.691,0
1553805447.267,7.812,73.242,7.324,35.156,38.086,0
1553805447.271,16.113,76.660,3.906,25.879,32.227,0
1553805447.274,14.160,74.219,-1.953,25.391,41.504,0
1553805447.278,2.930,74.219,7.324,30.762,-38.574,0
1553805447.282,11.719,82.520,15.137,24.902,-19.043,0
1553805447.286,4.883,84.473,7.812,10.254,83.984,0
1553805447.290,20.996,77.148,8.789,13.672,83.496,0
1553805447.294,37.109,81.543,9.766,25.879,-2.930,0
1553805447.298,16.602,85.938,7.324,19.531,30.762,0
1553805447.302,6.836,85.449,16.113,15.137,85.449,0
1553805447.306,9.766,96.191,21.973,27.344,74.219,0
1553805447.310,14.648,98.145,25.879,35.156,74.219,0
1553805447.313,24.902,96.680,22.949,37.109,37.109,0
1553805447.317,13.184,90.332,14.160,29.297,61.035,0
1553805447.321,-4.395,79.102,14.160,12.207,21.484,0
1553805447.325,-0.977,82.031,14.160,-2.441,15.625,0
1553805447.329,8.301,75.684,16.602,14.648,43.945,0
1553805447.333,2.930,72.754,15.137,14.160,31.738,0
1553805447.337,4.395,80.566,14.160,10.254,67.383,0
1553805447.341,10.254,76.172,24.414,3.906,35.645,0
1553805447.345,9.766,80.078,23.438,3.906,32.715,0
1553805447.349,8.789,88.867,20.020,18.555,77.637,0
1553805447.353,6.348,90.332,28.320,13.672,44.434,0
1553805447.356,8.301,85.938,30.273,18.066,-14.160,0
1553805447.360,4.883,79.590,21.973,18.555,-16.113,0
1553805447.364,8.789,76.172,18.066,17.578,63.965,0
1553805447.368,7.324,76.660,27.832,20.508,26.855,0
1553805447.372,5.371,80.078,37.109,18.555,0.000,0
1553805447.376,12.207,81.055,36.133,22.949,35.156,0
1553805447.380,19.531,81.055,37.598,39.062,48.828,0
1553805447.384,19.043,80.078,37.109,42.480,66.895,0
1553805447.388,21.484,74.219,36.621,49.316,73.242,0
1553805447.392,24.902,71.289,36.621,54.199,62.988,0
1553805447.396,17.578,71.289,39.062,37.109,-16.113,0
1553805447.399,5.371,71.777,35.645,21.973,-53.711,0
1553805447.403,13.672,77.148,29.785,13.184,25.391,0
1553805447.407,10.742,87.891,42.969,8.789,95.215,0
1553805447.411,-8.301,90.820,51.758,1.953,71.777,0
1553805447.415,-3.906,83.984,51.270,3.906,40.527,0
1553805447.419,7.812,94.727,47.852,14.160,63.965,0
1553805447.423,18.066,101.562,45.898,17.090,95.703,0
1553805447.427,12.695,85.938,41.992,23.926,87.891,0
1553805447.431,9.766,73.730,36.621,18.066,34.180,0
1553805447.435,19.531,77.148,35.645,27.344,14.160,0
1553805447.438,9.277,90.332,36.133,20.508,88.867,0
1553805447.442,0.000,83.008,18.066,-5.371,44.434,0
1553805447.446,7.812,76.660,8.301,22.949,43.945,0
1553805447.450,16.602,82.031,-1.953,43.945,110.840,0
1553805447.454,18.555,78.613,-6.836,32.227,87.402,0
1553805447.458,22.461,82.520,-5.859,32.715,60.547,0
1553805447.462,26.367,89.844,1.953,29.297,28.809,0
1553805447.466,22.949,86.914,3.906,30.273,34.668,0
1553805447.470,25.391,80.078,-1.953,37.109,94.238,0
1553805447.474,30.762,75.684,5.859,37.598,59.570,0
1553805447.478,24.902,80.078,11.230,39.062,44.434,0
1553805447.481,24.902,88.379,16.113,36.621,79.590,0
1553805447.485,35.645,89.355,21.484,31.250,32.227,0
1553805447.489,25.879,80.566,25.391,29.297,-2.930,0
1553805447.493,16.602,80.078,26.367,35.156,1.953,0
1553805447.497,14.648,93.750,25.879,28.809,90.820,0
1553805447.501,13.184,88.867,27.832,20.508,66.895,0
1553805447.505,16.602,79.102,28.809,23.926,-24.902,0
1553805447.509,12.207,81.543,19.531,26.855,-9.766,0
1553805447.513,10.742,88.379,26.855,31.738,55.664,0
1553805447.517,14.160,87.891,42.480,37.109,16.602,0
1553805447.521,17.578,81.543,42.969,29.785,-21.484,0
1553805447.524,11.719,87.402,41.504,21.484,16.602,0
1553805447.528,12.695,96.191,48.340,26.367,13.184,0
1553805447.532,19.043,89.355,51.758,39.062,36.621,0
1553805447.536,22.949,80.078,46.387,45.898,32.227,0
1553805447.540,18.555,78.613,45.898,28.809,39.062,0
1553805447.544,28.809,71.777,47.852,21.973,100.098,0
1553805447.548,33.203,71.289,48.828,42.969,104.980,0
1553805447.552,23.926,78.125,45.410,43.457,94.238,0
1553805447.556,26.367,83.008,40.039,42.969,83.496,0
1553805447.560,22.949,85.449,41.992,45.898,53.711,0
1553805447.563,18.555,74.219,46.387,40.039,9.277,0
1553805447.567,27.344,69.336,67.383,52.246,46.387,0
1553805447.571,20.996,65.918,83.496,44.434,68.359,0
1553805447.575,17.578,61.035,83.984,37.598,40.527,0
1553805447.579,26.367,69.824,89.844,41.504,31.738,0
1553805447.583,31.738,77.637,90.332,43.457,53.223,0
1553805447.587,24.902,81.543,84.473,36.621,93.750,0
1553805447.591,20.996,78.125,85.938,35.156,55.664,0
1553805447.595,27.344,67.871,89.844,38.086,0.000,0
1553805447.599,34.668,66.406,86.914,38.574,59.570,0
1553805447.603,38.086,75.684,79.102,38.086,84.961,0
1553805447.606,37.598,79.590,76.172,38.086,43.457,0
1553805447.610,37.598,71.777,83.984,37.598,34.180,0
1553805447.614,34.668,67.871,85.449,39.551,31.738,0
1553805447.618,35.645,66.895,77.637,45.898,46.387,0
1553805447.622,33.691,61.523,80.566,41.016,28.809,0
1553805447.626,27.344,53.223,88.379,43.457,31.738,0
1553805447.630,31.250,53.223,83.496,38.574,61.035,0
1553805447.634,25.879,67.383,72.754,27.344,77.637,0
1553805447.638,24.902,75.684,68.359,42.969,41.992,0
1553805447.642,43.457,76.660,69.824,55.176,1.953,0
1553805447.646,42.969,76.660,66.895,42.480,2.441,0
1553805447.649,28.809,70.312,66.895,38.086,17.090,0
1553805447.653,19.531,69.336,82.031,41.016,63.965,0
1553805447.657,22.949,61.523,83.496,52.246,5.371,0
1553805447.661,37.598,47.363,73.242,56.152,-69.824,0
1553805447.665,32.715,54.199,70.801,40.527,10.254,0
1553805447.669,38.574,69.336,68.848,42.480,63.477,0
1553805447.673,41.016,69.336,75.684,40.527,44.434,0
1553805447.677,33.691,66.895,74.707,45.410,27.832,0
1553805447.681,49.316,64.453,67.383,37.598,17.090,0
1553805447.685,50.781,57.617,64.453,37.109,71.289,0
1553805447.688,45.410,55.664,68.848,45.898,62.012,0
1553805447.692,38.086,56.641,63.477,39.062,106.445,0
1553805447.696,47.363,61.523,64.941,49.316,136.719,0
1553805447.700,44.922,63.477,65.430,59.082,65.430,0
1553805447.704,27.832,61.523,42.480,50.293,48.828,0
1553805447.708,25.391,62.500,23.438,43.945,73.242,0
1553805447.712,23.438,58.105,22.949,41.992,100.098,0
1553805447.716,21.484,55.176,28.320,42.480,54.688,0
1553805447.720,5.371,50.781,22.949,39.062,10.254,0
1553805447.724,14.648,43.457,24.902,36.621,20.996,0
1553805447.728,26.855,56.641,23.926,38.574,-18.066,0
1553805447.731,19.043,70.801,19.043,35.645,-31.250,0
1553805447.735,21.484,67.871,19.531,30.762,24.414,0
1553805447.739,24.414,64.941,23.438,32.227,51.270,0
1553805447.743,28.809,60.059,21.484,45.410,54.199,0
1553805447.747,24.902,59.082,16.113,46.387,86.426,0
1553805447.751,15.625,62.988,7.324,29.297,71.289,0
1553805447.755,26.855,64.453,4.883,32.227,22.949,0
1553805447.759,38.574,61.035,7.324,34.668,-16.113,0
1553805447.763,24.902,55.664,14.648,28.809,35.156,0
1553805447.767,4.395,61.523,25.391,25.391,98.145,0
1553805447.771,8.789,72.266,18.066,26.855,49.316,0
1553805447.774,22.461,75.195,10.742,20.020,60.547,0
1553805447.778,12.207,77.637,11.230,17.090,55.664,0
1553805447.782,-1.465,65.430,10.742,6.836,44.922,0
1553805447.786,6.348,59.570,12.695,-0.977,67.871,0
1553805447.790,14.648,63.477,0.977,21.973,72.754,0
1553805447.794,24.902,57.617,-23.926,27.832,12.695,0
1553805447.798,23.926,49.316,-38.574,30.762,73.242,0
1553805447.802,15.625,54.199,-39.551,31.738,127.441,0
1553805447.806,23.438,80.078,-36.621,22.461,45.410,0
1553805447.810,24.414,84.961,-39.062,21.973,-28.320,0
1553805447.813,18.555,71.289,-40.527,26.367,9.766,0
1553805447.817,11.230,76.172,-24.414,26.855,21.484,0
1553805447.821,15.137,87.891,-22.949,20.996,0.000,0
1553805447.825,15.625,84.473,-28.320,15.137,65.918,0
1553805447.829,4.883,75.195,-27.832,19.043,101.562,0
1553805447.833,3.906,73.242,-32.715,11.719,34.180,0
1553805447.837,-3.418,67.871,-28.320,10.254,62.012,0
1553805447.841,-2.930,67.383,-20.020,12.207,67.383,0
1553805447.845,4.395,76.172,-19.531,1.465,32.715,0
1553805447.849,8.301,82.520,-12.695,6.348,64.453,0
1553805447.853,9.277,75.195,-10.742,29.297,54.688,0
1553805447.856,11.230,71.777,-18.066,32.227,44.434,0
1553805447.860,9.766,75.195,-10.742,30.273,90.332,0
1553805447.864,12.207,72.754,-6.836,24.414,40.039,0
1553805447.868,14.648,75.195,-4.395,8.301,57.617,0
1553805447.872,13.184,83.984,-2.930,10.254,69.824,0
1553805447.876,3.418,88.379,-0.977,8.789,67.871,0
1553805447.880,3.418,79.102,-0.977,16.602,60.547,0
1553805447.884,9.766,72.266,-3.418,21.484,19.043,0
1553805447.888,0.488,82.031,-0.488,15.137,17.578,0
1553805447.892,-0.488,88.379,3.418,16.602,41.504,0
1553805447.896,9.277,86.426,0.488,17.578,26.855,0
1553805447.899,-1.953,86.426,2.930,13.672,58.594,0
1553805447.903,-9.277,91.309,7.812,18.066,94.727,0
1553805447.907,5.859,105.957,12.695,20.996,23.438,0
1553805447.911,-3.906,80.078,12.695,6.348,11.719,0
1553805447.915,-25.391,72.754,10.742,-14.648,54.688,0
1553805447.919,-19.043,82.031,29.785,-21.973,73.242,0
1553805447.923,-55.176,67.383,25.879,-49.805,40.527,0
1553805447.927,-75.684,58.105,16.602,-53.711,67.383,0
1553805447.931,-38.574,81.055,26.855,-22.949,49.805,0
1553805447.935,-82.520,124.512,31.738,-67.383,23.438,0
1553805447.938,-144.531,115.723,52.246,-131.836,97.168,0
1553805447.942,-177.734,113.770,37.598,-157.227,99.609,0
1553805447.946,-226.562,146.973,24.414,-196.289,14.648,0
1553805447.950,-267.578,172.363,40.039,-238.770,-18.555,0
1553805447.954,-311.035,176.758,43.457,-269.043,63.965,0
1553805447.958,-317.383,191.895,54.688,-303.223,96.680,0
1553805447.962,-308.105,205.078,55.176,-339.844,45.410,0
1553805447.966,-339.844,205.566,59.570,-367.676,50.781,0
1553805447.970,-355.957,199.219,80.078,-372.070,11.719,0
1553805447.974,-327.148,210.938,78.613,-347.168,-11.719,0
1553805447.978,-327.637,218.262,93.750,-345.215,58.594,0
1553805447.981,-319.336,216.797,108.398,-326.172,106.445,0
1553805447.985,-290.039,222.168,105.469,-303.223,54.199,0
1553805447.989,-259.766,221.191,106.934,-273.926,48.340,0
1553805447.993,-236.816,219.727,110.840,-267.578,46.387,0
1553805447.997,-217.285,234.863,113.281,-267.578,62.988,0
1553805448.001,-187.500,252.441,103.516,-217.773,60.059,0
1553805448.005,-146.484,266.113,87.891,-177.246,62.012,0
1553805448.009,-115.234,274.902,89.355,-158.691,75.195,0
1553805448.013,-94.238,285.645,85.449,-114.258,21.484,0
1553805448.017,-82.520,291.992,74.707,-87.402,42.969,0
1553805448.021,-44.922,296.875,65.918,-71.777,44.922,0
1553805448.024,-6.836,295.410,64.453,-44.434,27.344,0
1553805448.028,12.207,284.668,63.965,-41.992,13.184,0
1553805448.032,25.391,276.855,58.105,-17.090,-41.992,0
1553805448.036,59.082,263.672,48.828,33.203,-42.969,0
1553805448.040,109.863,262.207,52.246,92.773,51.270,0
1553805448.044,109.375,262.207,61.035,96.680,3.418,0
1553805448.048,127.930,246.094,58.105,115.723,20.508,0
1553805448.052,193.359,239.746,56.152,177.246,77.637,0
1553805448.056,190.430,234.863,66.406,161.621,-20.020,0
1553805448.060,186.523,222.168,76.172,151.367,-52.246,0
1553805448.063,218.262,210.938,73.730,184.082,12.695,0
1553805448.067,243.652,202.637,69.824,192.383,32.715,0
1553805448.071,266.113,188.477,82.520,229.980,0.488,0
1553805448.075,267.578,177.246,95.215,255.859,14.648,0
1553805448.079,274.902,178.223,98.633,250.000,39.062,0
1553805448.083,266.113,175.781,99.609,252.441,47.852,0
1553805448.087,249.512,165.527,100.098,242.188,-17.090,0
1553805448.091,275.879,155.273,110.352,260.254,-38.086,0
1553805448.095,288.574,153.320,113.281,264.648,-13.672,0
1553805448.099,270.020,144.043,116.699,242.188,36.133,0
1553805448.103,254.883,124.512,127.441,239.746,-37.109,0
1553805448.106,259.277,122.559,131.836,241.699,-81.543,0
1553805448.110,257.812,124.023,126.465,252.930,9.277,0
1553805448.114,260.742,111.328,123.535,247.559,10.742,0
1553805448.118,250.000,106.934,139.648,224.609,-29.297,0
1553805448.122,242.676,108.398,144.043,220.215,41.992,0
1553805448.126,229.492,117.676,140.625,200.195,110.840,0
1553805448.130,197.754,109.863,145.020,185.547,-7.812,0
1553805448.134,207.031,96.680,142.578,195.312,-16.602,0
1553805448.138,213.379,99.609,144.531,199.707,55.664,0
1553805448.142,195.312,103.027,144.043,184.570,93.750,0
1553805448.146,173.340,95.703,144.531,186.523,122.070,0
1553805448.149,173.828,88.867,147.461,191.406,63.965,0
1553805448.153,171.875,90.820,145.020,184.570,91.309,0
1553805448.157,171.875,85.449,142.090,169.434,92.285,0
1553805448.161,169.922,80.078,148.438,166.992,12.695,0
1553805448.165,176.270,81.055,151.367,175.781,5.371,0
1553805448.169,178.711,82.520,145.508,175.293,33.203,0
1553805448.173,163.574,81.055,145.020,164.062,44.922,0
1553805448.177,156.250,76.660,143.555,156.250,14.160,0
1553805448.181,158.691,73.242,143.555,161.621,21.973,0
1553805448.185,153.809,70.312,139.648,146.484,2.441,0
1553805448.188,145.996,68.359,135.742,127.441,45.898,0
1553805448.192,145.508,64.941,136.719,126.953,71.777,0
1553805448.196,126.953,66.895,134.766,129.395,47.852,0
1553805448.200,121.094,67.383,134.277,125.488,10.742,0
1553805448.204,110.840,61.523,140.625,125.977,89.844,0
1553805448.208,96.680,57.617,139.648,126.953,107.422,0
1553805448.212,93.750,59.082,130.859,116.211,23.926,0
1553805448.216,89.844,57.129,129.883,101.074,20.996,0
1553805448.220,95.703,59.082,127.930,103.516,70.312,0
1553805448.224,97.656,66.406,123.047,110.840,45.410,0
1553805448.228,95.215,63.965,128.418,97.656,49.316,0
1553805448.231,97.656,60.547,130.371,95.703,59.082,0
1553805448.235,76.172,62.012,128.418,100.586,30.273,0
1553805448.239,78.125,59.082,125.977,85.449,77.148,0
1553805448.243,83.496,58.594,117.188,83.008,73.242,0
1553805448.247,76.660,61.035,112.793,68.848,23.926,0
1553805448.251,76.172,61.523,112.793,51.270,20.020,0
1553805448.255,68.848,60.547,113.281,71.289,43.945,0
1553805448.259,75.195,58.594,111.816,76.172,59.570,0
1553805448.263,82.031,50.781,112.305,63.477,74.707,0
1553805448.267,51.270,55.664,110.840,59.570,78.125,0
1553805448.271,50.781,56.641,107.422,71.777,41.504,0
1553805448.274,56.152,41.992,107.422,61.523,32.715,0
1553805448.278,40.527,53.711,104.980,52.246,96.191,0
1553805448.282,42.480,66.406,102.051,77.637,128.418,0
1553805448.286,42.480,64.453,99.609,68.359,82.520,0
1553805448.290,51.270,60.059,99.609,45.410,69.336,0
1553805448.294,55.664,51.270,97.656,44.434,42.480,0
1553805448.298,72.266,50.781,91.309,60.059,16.113,0
1553805448.302,59.570,57.129,90.820,66.406,49.316,0
1553805448.306,46.875,62.988,94.238,48.340,113.770,0
1553805448.310,56.641,60.059,94.727,23.926,63.477,0
1553805448.313,42.969,53.223,97.168,31.738,41.504,0
1553805448.317,37.109,62.500,90.332,56.152,46.875,0
1553805448.321,54.688,69.336,82.031,52.246,28.809,0
1553805448.325,59.082,61.035,82.520,46.875,23.438,0
1553805448.329,47.363,55.664,83.496,63.477,77.148,0
1553805448.333,30.762,52.734,85.449,62.012,85.449,0
1553805448.337,25.391,51.758,83.984,35.156,42.480,0
1553805448.341,35.156,54.688,82.520,33.691,51.758,0
1553805448.345,35.156,51.270,86.426,41.504,32.227,0
1553805448.349,22.949,54.199,82.520,37.109,54.199,0
1553805448.353,30.273,56.641,79.102,41.016,50.781,0
1553805448.356,41.992,51.270,80.078,34.668,99.121,0
1553805448.360,21.973,46.875,79.102,36.133,59.570,0
1553805448.364,11.719,46.875,80.078,30.762,13.184,0
1553805448.368,22.949,47.852,79.590,16.602,78.613,0
1553805448.372,38.086,46.875,79.102,25.391,69.336,0
1553805448.376,35.156,51.270,83.008,39.551,55.176,0
1553805448.380,26.367,59.082,87.891,47.363,80.078,0
1553805448.384,18.555,56.152,86.914,38.574,59.570,0
1553805448.388,13.672,49.316,89.355,42.969,-0.488,0
1553805448.392,24.414,54.199,87.402,34.180,-8.789,0
1553805448.396,23.438,55.664,86.914,10.254,33.203,0
1553805448.399,10.742,52.734,94.238,-3.906,32.715,0
1553805448.403,13.672,60.547,98.145,11.230,-42.480,0
1553805448.407,23.438,74.219,95.703,27.344,-48.340,0
1553805448.411,32.715,74.707,95.215,17.578,102.539,0
1553805448.415,16.113,61.035,91.797,16.113,124.512,0
1553805448.419,-2.441,59.570,87.402,6.348,45.898,0
1553805448.423,-1.953,53.223,92.773,7.324,67.871,0
1553805448.427,8.301,36.621,103.027,9.277,107.422,0
1553805448.431,13.672,45.410,109.375,0.977,63.965,0
1553805448.435,-11.230,58.594,111.328,-3.418,7.324,0
1553805448.438,-28.320,55.664,111.816,-4.883,-10.742,0
1553805448.442,-14.160,53.223,110.352,9.277,27.832,0
1553805448.446,0.488,50.781,112.305,27.344,66.895,0
1553805448.450,14.648,53.223,117.676,38.086,70.801,0
1553805448.454,10.742,59.082,102.051,33.691,138.184,0
1553805448.458,-3.906,49.316,95.215,6.348,172.363,0
1553805448.462,2.441,43.945,105.469,-9.766,37.109,0
1553805448.466,-2.441,53.711,108.398,-9.277,13.672,0
1553805448.470,-3.418,56.152,113.770,2.930,63.477,0
1553805448.474,5.371,63.965,114.746,7.324,46.875,0
1553805448.478,2.930,72.266,106.445,-1.465,4.395,0
1553805448.481,7.812,65.430,106.445,0.000,-2.930,0
1553805448.485,3.418,58.105,116.211,-8.301,30.762,0
1553805448.489,1.465,56.152,111.816,19.531,53.223,0
1553805448.493,4.395,56.641,112.305,34.668,38.574,0
1553805448.497,-5.859,64.941,120.117,21.973,52.734,0
1553805448.501,-4.883,64.453,120.117,30.273,86.426,0
1553805448.505,1.465,59.570,121.094,31.738,62.012,0
1553805448.509,5.371,69.336,115.723,13.672,77.637,0
1553805448.513,-6.348,73.242,115.723,7.812,43.945,0
1553805448.517,7.812,65.918,119.629,16.113,-3.906,0
1553805448.521,15.625,66.406,115.723,16.113,62.500,0
1553805448.524,-12.695,69.824,112.793,19.531,88.379,0
1553805448.528,-1.953,70.312,110.352,28.809,22.949,0
1553805448.532,13.184,67.383,109.863,21.973,12.207,0
1553805448.536,8.789,70.312,105.957,18.555,84.961,0
1553805448.540,18.555,68.848,103.516,38.086,58.105,0
1553805448.544,24.902,64.453,99.609,43.457,-2.441,0
1553805448.548,18.555,66.406,97.656,37.598,30.273,0
1553805448.552,32.227,62.012,96.191,43.457,94.727,0
1553805448.556,41.992,57.617,87.402,34.180,54.688,0
1553805448.560,32.227,58.594,83.008,36.621,18.066,0
1553805448.563,23.926,59.570,81.055,38.086,62.012,0
1553805448.567,14.160,58.105,75.684,23.926,5.371,0
1553805448.571,25.879,57.617,71.289,32.227,38.086,0
1553805448.575,26.855,57.617,69.824,49.805,90.332,0
1553805448.579,22.949,51.758,66.406,39.551,27.832,0
1553805448.583,38.574,54.199,63.965,51.758,17.578,0
1553805448.587,29.785,54.688,65.430,61.523,88.867,0
1553805448.591,17.090,49.805,60.547,35.156,89.355,0
1553805448.595,27.832,47.363,54.199,22.461,34.668,0
1553805448.599,39.062,37.109,49.805,26.855,-4.395,0
1553805448.603,33.203,42.480,47.852,45.410,-0.488,0
1553805448.606,23.926,60.547,48.828,32.715,70.312,0
1553805448.610,20.996,66.895,46.387,36.133,78.125,0
1553805448.614,17.090,58.105,39.551,40.039,7.812,0
1553805448.618,11.719,45.898,39.062,31.250,46.387,0
1553805448.622,-3.418,44.434,47.363,12.695,58.594,0
1553805448.626,17.578,49.316,47.852,2.930,39.551,0
1553805448.630,14.160,52.246,48.340,13.672,87.402,0
1553805448.634,-7.324,50.781,43.457,15.137,51.270,0
1553805448.638,-2.930,56.152,37.598,16.602,68.359,0
1553805448.642,-18.066,46.387,45.410,9.766,57.617,0
1553805448.646,-11.230,32.715,39.062,7.812,-20.508,0
1553805448.649,0.000,52.734,34.180,5.859,45.898,0
1553805448.653,-5.859,64.453,46.387,2.441,75.684,0
1553805448.657,1.953,50.781,45.410,10.742,-0.977,0
1553805448.661,-9.277,43.945,43.945,15.137,30.762,0
1553805448.665,-17.578,53.223,42.969,12.695,55.176,0
1553805448.669,-17.090,57.129,39.551,2.930,62.500,0
1553805448.673,-19.531,53.711,45.898,0.000,8.301,0
1553805448.677,-16.113,56.152,44.434,-3.906,-62.012,0
1553805448.681,-15.625,49.805,45.410,-3.418,7.324,0
1553805448.685,-9.766,42.969,47.852,4.395,30.762,0
1553805448.688,-11.230,47.363,43.945,-12.695,7.324,0
1553805448.692,-22.949,53.711,44.922,-19.531,47.852,0
1553805448.696,-17.090,52.734,47.363,-3.906,31.738,0
1553805448.700,-3.418,45.410,53.711,11.719,17.090,0
1553805448.704,5.371,32.227,59.082,11.719,30.762,0
1553805448.708,3.906,39.551,47.363,20.996,58.105,0
1553805448.712,-16.602,77.148,43.457,-7.324,126.953,0
1553805448.716,-29.785,88.867,58.105,-39.551,73.730,0
1553805448.720,-16.602,76.172,71.777,-13.184,-23.926,0
1553805448.724,-3.906,67.871,75.195,16.113,20.996,0
1553805448.728,-18.555,62.012,70.801,23.926,71.777,0
1553805448.731,-10.742,61.035,68.359,-2.441,4.883,0
1553805448.735,0.000,69.336,69.824,6.348,-20.996,0
1553805448.739,12.695,71.289,72.266,28.320,-1.465,0
1553805448.743,18.555,63.477,66.895,25.391,-6.348,0
1553805448.747,16.602,48.828,62.988,33.203,-4.395,0
1553805448.751,5.371,66.406,60.059,30.273,43.945,0
1553805448.755,-19.043,90.820,56.152,1.953,106.934,0
1553805448.759,-9.277,89.844,53.711,-9.277,110.352,0
1553805448.763,12.207,85.449,57.129,-0.488,67.871,0
1553805448.767,22.949,90.332,64.941,34.180,61.523,0
1553805448.771,2.930,86.914,66.895,35.156,35.156,0
1553805448.774,2.441,68.848,68.359,12.695,15.625,0
1553805448.778,17.578,75.195,65.430,28.809,84.473,0
1553805448.782,33.203,80.078,62.012,34.668,76.660,0
1553805448.786,18.066,72.266,60.547,35.645,17.090,0
1553805448.790,12.695,83.008,56.641,40.039,19.043,0
1553805448.794,26.367,82.520,59.082,46.875,22.461,0
1553805448.798,20.996,76.660,59.570,45.898,66.895,0
1553805448.802,29.297,81.055,60.059,42.480,30.273,0
1553805448.806,20.020,65.918,55.664,31.250,32.227,0
1553805448.810,9.766,58.594,46.875,31.250,68.359,0
1553805448.813,29.785,70.312,45.410,50.781,14.160,0
1553805448.817,30.273,68.848,45.410,28.320,-36.133,0
1553805448.821,11.719,59.082,45.898,32.715,-6.836,0
1553805448.825,4.395,61.523,45.898,46.875,35.156,0
1553805448.829,9.277,67.871,39.062,27.832,26.367,0
1553805448.833,10.742,63.477,33.203,36.133,48.340,0
1553805448.837,11.230,56.641,33.203,35.645,41.504,0
1553805448.841,18.066,47.852,25.391,18.066,58.594,0
1553805448.845,24.902,32.715,24.414,24.414,128.418,0
1553805448.849,21.973,40.039,25.879,14.648,125.488,0
1553805448.853,10.742,47.852,21.484,12.207,67.383,0
1553805448.856,-3.418,48.828,20.996,19.043,66.895,0
1553805448.860,-9.277,59.570,20.020,25.391,-17.090,0
1553805448.864,-8.301,59.570,20.996,31.250,10.742,0
1553805448.868,-4.395,58.594,25.879,21.973,105.957,0
1553805448.872,2.930,57.129,24.902,22.461,51.758,0
1553805448.876,2.930,38.574,19.531,18.066,30.273,0
1553805448.880,0.977,34.668,20.508,15.625,50.293,0
1553805448.884,2.441,60.059,22.461,27.344,49.805,0
1553805448.888,1.953,64.453,22.949,22.949,55.176,0
1553805448.892,9.766,59.082,20.020,10.742,59.570,0
1553805448.896,21.484,52.734,23.926,5.859,88.379,0
1553805448.899,11.230,51.758,31.250,1.465,42.480,0
1553805448.903,1.465,51.758,27.344,19.531,18.066,0
1553805448.907,3.906,53.223,28.809,26.855,17.578,0
1553805448.911,-5.371,56.152,29.785,5.859,0.977,0
1553805448.915,-7.812,38.086,26.855,15.625,68.848,0
1553805448.919,6.836,39.551,24.414,37.109,38.086,0
1553805448.923,-6.348,53.711,21.973,22.461,17.090,0
1553805448.927,-22.461,58.594,10.254,7.812,53.223,0
1553805448.931,-19.531,55.176,9.277,7.324,57.617,0
1553805448.935,-1.953,50.293,24.414,0.488,41.992,0
1553805448.938,11.230,54.199,31.250,-3.906,52.246,0
1553805448.942,-7.324,50.293,30.762,-10.742,62.988,0
1553805448.946,-9.277,49.316,31.738,11.230,-1.953,0
1553805448.950,9.277,48.340,31.738,28.809,-1.953,0
1553805448.954,-7.812,53.711,25.391,19.043,96.680,0
1553805448.958,-12.695,58.594,22.461,14.648,97.168,0
1553805448.962,0.000,53.711,35.645,-15.137,60.547,0
1553805448.966,-1.465,54.199,28.809,-13.184,28.809,0
1553805448.970,5.371,59.570,11.230,-1.465,24.414,0
1553805448.974,6.836,58.594,28.320,6.836,63.965,0
1553805448.978,20.020,39.551,31.250,40.527,75.195,0
1553805448.981,30.762,40.039,27.344,41.016,69.336,0
1553805448.985,-15.625,53.711,34.668,0.977,49.805,0
1553805448.989,-33.691,70.801,24.902,-8.301,45.410,0
1553805448.993,3.418,82.031,16.602,10.254,13.672,0
1553805448.997,-3.906,79.102,23.438,7.812,8.301,0
1553805449.001,-35.645,77.637,28.809,-18.066,44.922,0
1553805449.005,-12.695,69.336,27.344,-9.277,71.289,0
1553805449.009,0.000,63.477,21.484,15.137,80.078,0
1553805449.013,0.000,59.082,13.184,13.672,81.543,0
1553805449.017,12.207,53.223,17.090,10.742,44.922,0
1553805449.021,6.836,57.129,19.531,18.555,78.125,0
1553805449.024,0.977,62.500,21.484,27.344,71.289,0
1553805449.028,1.465,59.082,22.461,19.043,32.227,0
1553805449.032,0.977,61.523,20.020,29.297,67.871,0
1553805449.036,-3.418,64.453,24.414,30.762,59.570,0
1553805449.040,1.953,60.059,20.508,1.953,63.477,0
1553805449.044,-5.371,62.012,15.625,6.348,73.730,0
1553805449.048,-1.953,64.941,12.207,17.090,69.824,0
1553805449.052,16.113,61.035,11.230,14.648,54.688,0
1553805449.056,11.230,57.129,13.672,20.996,0.488,0
1553805449.060,4.883,58.594,8.789,33.691,19.531,0
1553805449.063,14.648,57.129,-2.441,26.855,3.906,0
1553805449.067,15.137,54.688,1.953,17.090,7.812,0
1553805449.071,30.762,58.105,15.137,51.270,31.250,0
1553805449.075,35.645,61.035,21.973,46.875,15.137,0
1553805449.079,13.184,58.105,23.926,17.090,39.062,0
1553805449.083,0.000,46.875,17.578,28.320,90.332,0
1553805449.087,4.395,41.016,14.648,30.273,83.008,0
1553805449.091,18.555,51.270,13.184,20.508,41.992,0
1553805449.095,18.066,60.059,10.742,12.207,59.570,0
1553805449.099,26.855,61.035,12.207,34.668,43.945,0
1553805449.103,21.484,57.129,18.066,37.598,-15.137,0
1553805449.106,18.555,51.758,19.531,12.695,-38.086,0
1553805449.110,13.672,55.664,11.230,3.906,4.395,0
1553805449.114,9.277,62.012,6.348,31.250,-5.859,0
1553805449.118,17.578,63.477,12.695,50.293,30.273,0
1553805449.122,17.578,57.129,14.160,39.551,48.340,0
1553805449.126,18.066,53.223,15.137,38.086,-0.488,0
1553805449.130,14.160,63.965,18.555,61.035,1.465,0
1553805449.134,26.855,70.801,18.066,50.781,40.527,0
1553805449.138,21.973,66.406,14.648,4.883,34.180,0
1553805449.142,19.531,62.012,11.230,16.602,18.066,0
1553805449.146,23.438,55.176,10.742,30.762,34.180,0
1553805449.149,1.953,49.316,11.719,31.250,50.781,0
1553805449.153,7.324,49.316,13.184,21.973,79.590,0
1553805449.157,5.371,52.246,14.648,14.648,94.238,0
1553805449.161,13.672,53.223,19.531,21.484,118.652,0
1553805449.165,14.648,56.641,23.438,45.410,122.559,0
1553805449.169,-2.441,59.570,18.066,31.738,68.848,0
1553805449.173,10.254,58.594,12.207,21.973,76.172,0
1553805449.177,21.973,59.082,16.602,23.926,60.547,0
1553805449.181,17.578,58.594,16.602,30.762,75.684,0
1553805449.185,21.484,56.152,15.625,46.387,64.453,0
1553805449.188,21.484,50.293,17.578,18.555,8.301,0
1553805449.192,18.555,51.270,19.043,22.461,82.031,0
1553805449.196,21.973,52.246,19.043,50.781,103.027,0
1553805449.200,30.273,44.922,10.254,47.363,47.363,0
1553805449.204,40.039,50.781,6.348,41.504,36.621,0
1553805449.208,21.484,44.434,9.766,32.715,65.918,0
1553805449.212,24.902,37.598,17.090,33.203,57.617,0
1553805449.216,25.391,54.688,22.461,30.273,49.805,0
1553805449.220,9.766,65.430,16.602,14.648,47.363,0
1553805449.224,26.855,67.871,13.672,11.719,44.434,0
1553805449.228,34.180,65.918,24.414,23.926,105.469,0
1553805449.231,29.785,62.988,22.461,62.012,39.551,0
1553805449.235,17.090,61.035,14.160,25.879,-3.906,0
1553805449.239,24.902,50.781,20.020,7.324,-4.883,0
1553805449.243,24.902,47.852,24.902,40.039,-55.176,0
1553805449.247,5.371,57.617,25.879,60.547,0.977,0
1553805449.251,18.555,57.617,23.438,48.340,6.348,0
1553805449.255,14.648,55.176,21.973,51.758,5.371,0
1553805449.259,5.859,54.688,17.578,37.598,47.363,0
1553805449.263,11.719,53.711,18.555,5.371,89.844,0
1553805449.267,23.438,57.617,20.020,33.691,48.340,0
1553805449.271,33.203,50.781,18.555,55.176,-18.066,0
1553805449.274,16.602,30.273,22.461,29.785,10.742,0
1553805449.278,1.953,34.668,19.043,21.973,18.555,0
1553805449.282,16.602,62.500,15.625,31.250,78.125,0
1553805449.286,21.973,69.824,19.043,8.789,73.730,0
1553805449.290,27.344,65.918,11.230,1.953,20.020,0
1553805449.294,31.250,62.988,10.254,34.668,45.410,0
1553805449.298,36.621,69.336,14.160,45.410,75.195,0
1553805449.302,27.344,74.219,15.137,24.902,55.176,0
1553805449.306,0.977,60.547,22.949,47.363,53.223,0
1553805449.310,-11.719,53.711,31.250,34.180,113.770,0
1553805449.313,-20.508,58.105,33.203,-6.836,119.141,0
1553805449.317,10.254,63.477,27.344,9.766,95.215,0
1553805449.321,27.344,63.477,25.879,28.320,60.547,0
1553805449.325,7.812,60.547,27.344,22.949,62.500,0
1553805449.329,28.320,67.871,22.949,64.453,43.457,0
1553805449.333,46.875,65.918,18.555,69.824,9.277,0
1553805449.337,30.273,49.805,21.973,20.020,-2.441,0
1553805449.341,17.578,51.270,22.461,30.762,9.766,0
1553805449.345,28.809,69.336,8.789,11.230,63.477,0
1553805449.349,55.176,69.336,5.371,48.828,8.301,0
1553805449.353,23.926,58.594,22.461,59.082,1.953,0
1553805449.356,7.812,58.105,38.574,7.324,112.793,0
1553805449.360,3.418,58.105,35.645,-3.906,105.469,0
1553805449.364,-17.090,51.758,29.785,0.977,94.238,0
1553805449.368,17.578,49.316,29.297,2.441,69.336,0
1553805449.372,21.973,51.758,33.691,22.949,-8.789,0
1553805449.376,5.859,52.246,28.320,19.531,1.953,0
1553805449.380,5.859,47.852,22.461,16.113,69.824,0
1553805449.384,19.531,48.828,26.855,63.965,33.691,0
1553805449.388,42.480,54.199,22.949,49.805,20.020,0
1553805449.392,25.879,51.758,20.996,29.785,62.988,0
1553805449.396,-1.465,48.340,19.043,24.902,-10.742,0
1553805449.399,21.973,49.316,13.184,-2.930,21.973,0
1553805449.403,5.371,47.852,12.207,9.766,102.051,0
1553805449.407,-13.672,48.828,8.301,22.949,77.148,0
1553805449.411,-9.766,42.969,12.207,28.320,81.055,0
1553805449.415,-18.066,30.273,16.113,15.137,6.348,0
1553805449.419,-27.344,31.250,14.160,0.977,33.691,0
1553805449.423,35.156,49.316,14.160,25.879,76.172,0
1553805449.427,66.406,54.688,7.812,51.758,55.176,0
1553805449.431,20.996,41.016,6.348,35.156,102.539,0
1553805449.435,-35.645,38.574,3.906,17.090,27.344,0
1553805449.438,-31.250,48.828,-0.488,33.691,-19.043,0
1553805449.442,1.953,42.480,2.930,-5.371,32.227,0
1553805449.446,15.137,38.574,5.859,21.973,14.160,0
1553805449.450,20.508,35.645,6.348,16.602,-5.859,0
1553805449.454,-35.156,25.879,9.277,-21.973,55.664,0
1553805449.458,-3.418,49.805,-7.324,-7.812,54.688,0
1553805449.462,62.988,59.570,-12.695,-11.230,57.129,0
1553805449.466,-1.465,48.340,3.418,0.000,68.359,0
1553805449.470,-46.875,44.434,4.883,-21.484,40.527,0
1553805449.474,-1.465,34.668,6.836,-18.066,43.457,0
1553805449.478,15.137,40.039,12.207,22.949,26.855,0
1553805449.481,-1.465,39.062,11.719,-0.488,-17.578,0
1553805449.485,40.039,36.133,8.301,7.324,20.996,0
1553805449.489,41.992,43.945,11.719,30.762,58.105,0
1553805449.493,-27.344,36.133,23.926,-0.488,21.973,0
1553805449.497,-39.551,37.598,34.180,1.465,23.438,0
1553805449.501,-29.297,40.039,47.852,-17.090,48.828,0
1553805449.505,10.742,47.852,52.734,-22.461,90.332,0
1553805449.509,19.531,50.293,49.316,-40.039,48.340,0
1553805449.513,6.348,47.363,42.969,-2.441,43.945,0
1553805449.517,17.578,58.105,50.293,19.531,60.547,0
1553805449.521,3.418,42.480,69.336,-0.488,9.766,0
1553805449.524,1.465,26.855,64.453,4.395,29.297,0
1553805449.528,-0.977,38.574,59.570,-41.992,27.344,0
1553805449.532,29.297,62.988,50.293,-12.207,-24.414,0
1553805449.536,28.320,65.918,60.547,20.508,-1.465,0
1553805449.540,-13.184,40.527,86.426,-0.488,25.391,0
1553805449.544,-10.742,38.086,78.613,-28.809,14.160,0
1553805449.548,-4.395,35.645,69.336,0.488,53.223,0
1553805449.552,12.207,34.668,68.359,22.461,58.105,0
1553805449.556,29.297,49.316,71.777,9.277,12.695,0
1553805449.560,15.137,48.340,78.613,6.348,42.969,0
1553805449.563,3.906,43.457,69.336,-19.531,84.473,0
1553805449.567,-2.930,40.039,69.336,-8.789,104.492,0
1553805449.571,10.254,23.926,74.219,36.133,51.758,0
1553805449.575,13.184,40.039,56.641,23.438,-23.926,0
1553805449.579,13.184,56.641,64.453,-20.020,12.207,0
1553805449.583,9.766,37.109,88.379,-6.348,62.500,0
1553805449.587,-6.836,16.113,80.078,-10.742,9.277,0
1553805449.591,-4.395,2.441,78.125,1.953,-10.254,0
1553805449.595,-7.324,1.953,81.055,-9.766,74.707,0
1553805449.599,-0.488,-2.441,78.125,-43.945,103.027,0
1553805449.603,40.039,-4.883,86.914,-7.812,80.566,0
1553805449.606,-2.930,2.930,78.613,-4.883,95.215,0
1553805449.610,-41.504,6.348,77.637,-57.129,84.961,0
1553805449.614,-4.395,0.977,88.867,-26.855,40.527,0
1553805449.618,0.488,-2.441,81.543,13.184,-6.836,0
1553805449.622,-20.508,-15.137,82.520,13.184,-28.320,0
1553805449.626,-19.531,-12.695,86.426,-2.930,9.766,0
1553805449.630,9.766,10.254,73.730,-23.438,23.926,0
1553805449.634,-2.930,13.184,67.871,10.254,11.719,0
1553805449.638,-14.160,18.555,78.125,6.836,28.809,0
1553805449.642,-5.859,24.414,81.055,-4.883,49.316,0
1553805449.646,-3.906,15.625,74.219,12.695,72.266,0
1553805449.649,4.883,28.809,67.383,7.812,41.016,0
1553805449.653,9.277,39.062,71.777,-10.742,24.902,0
1553805449.657,15.625,40.039,74.707,-0.977,53.223,0
1553805449.661,-9.277,30.273,69.336,-5.371,48.340,0
1553805449.665,-33.691,40.527,63.477,-43.457,18.066,0
1553805449.669,-9.766,58.105,67.871,-1.465,18.555,0
1553805449.673,3.418,56.152,62.012,27.832,29.297,0
1553805449.677,0.488,65.430,52.246,-18.066,22.949,0
1553805449.681,-3.906,80.078,48.828,-54.688,60.547,0
1553805449.685,-9.766,83.008,52.246,-28.320,33.691,0
1553805449.688,5.859,103.516,55.664,7.324,6.348,0
1553805449.692,1.953,120.605,57.617,-13.184,46.387,0
1553805449.696,-4.883,117.676,62.500,0.000,78.613,0
1553805449.700,31.250,134.277,43.945,0.000,60.059,0
1553805449.704,22.949,139.648,38.086,-20.020,119.141,0
1553805449.708,-18.066,129.395,54.688,-8.301,133.789,0
1553805449.712,-17.090,135.254,47.363,-20.508,32.715,0
1553805449.716,-4.883,131.348,40.527,-46.875,54.688,0
1553805449.720,-13.672,129.395,43.945,-70.312,47.363,0
1553805449.724,-10.254,128.906,41.504,-43.457,15.625,0
1553805449.728,-11.719,126.465,39.062,-26.367,49.316,0
1553805449.731,-35.645,120.117,35.156,-69.336,2.930,0
1553805449.735,-31.250,108.887,41.992,-51.270,3.418,0
1553805449.739,-8.301,125.488,39.551,-37.598,32.227,0
1553805449.743,-5.859,134.766,42.480,-29.297,25.879,0
1553805449.747,-20.508,121.582,48.828,-17.578,-60.059,0
1553805449.751,-29.785,114.746,43.457,-45.898,-48.340,0
1553805449.755,-8.789,116.211,35.156,-41.992,20.508,0
1553805449.759,29.297,107.910,38.574,0.000,9.277,0
1553805449.763,21.484,106.934,37.598,2.441,36.621,0
1553805449.767,0.000,120.605,22.461,-42.480,29.297,0
1553805449.771,1.465,126.465,28.809,-30.273,78.613,0
1553805449.774,3.906,115.723,44.434,3.418,86.426,0
1553805449.778,2.441,101.074,42.480,-8.789,74.707,0
1553805449.782,10.254,91.797,44.434,4.883,30.273,0
1553805449.786,11.230,92.773,42.480,-8.789,13.184,0
1553805449.790,6.348,92.285,37.109,-37.109,64.941,0
1553805449.794,6.836,102.539,35.645,-18.066,47.852,0
1553805449.798,1.465,110.840,22.461,2.930,15.625,0
1553805449.802,7.324,98.145,27.344,5.859,-19.043,0
1553805449.806,2.441,94.727,37.109,-17.578,3.418,0
1553805449.810,2.930,98.145,38.574,-24.902,66.406,0
1553805449.813,7.324,99.121,46.387,8.301,26.855,0
1553805449.817,8.789,93.262,49.805,20.996,54.199,0
1553805449.821,-10.254,90.820,37.109,-19.531,94.727,0
1553805449.825,-4.395,95.215,36.621,-22.949,59.082,0
1553805449.829,9.766,96.680,48.340,-0.488,57.617,0
1553805449.833,8.301,91.797,52.246,-8.789,6.348,0
1553805449.837,54.688,71.777,56.641,54.199,-1.465,0
1553805449.841,26.367,74.219,57.617,52.246,95.215,0
1553805449.845,-32.715,102.051,67.383,-37.598,91.309,0
1553805449.849,-15.137,104.492,81.055,-50.293,14.160,0
1553805449.853,-9.277,89.844,82.520,-37.598,20.508,0
1553805449.856,20.508,92.285,79.590,15.625,3.906,0
1553805449.860,34.668,92.773,89.844,41.504,-35.156,0
1553805449.864,12.207,87.402,84.961,16.602,-5.859,0
1553805449.868,11.719,93.750,70.312,-4.395,30.762,0
1553805449.872,5.859,93.750,71.289,-29.785,-2.441,0
1553805449.876,14.648,87.402,71.289,-5.859,22.461,0
1553805449.880,31.738,83.008,77.148,10.742,103.027,0
1553805449.884,37.598,85.938,79.590,5.859,70.312,0
1553805449.888,26.855,87.891,78.125,35.645,12.695,0
1553805449.892,33.691,83.984,76.172,56.641,27.832,0
1553805449.896,42.969,83.496,67.383,19.531,35.156,0
1553805449.899,43.945,73.730,57.617,-26.855,70.312,0
1553805449.903,27.832,63.965,64.941,1.953,55.176,0
1553805449.907,0.000,70.801,76.172,16.602,-14.648,0
1553805449.911,23.438,80.566,74.219,15.625,-9.277,0
1553805449.915,40.039,75.195,67.383,31.250,-19.043,0
1553805449.919,15.625,62.988,59.570,5.371,22.949,0
1553805449.923,21.484,71.289,56.641,-8.789,48.340,0
1553805449.927,15.137,84.961,66.406,-16.602,40.039,0
1553805449.931,21.484,85.938,74.707,9.277,91.309,0
1553805449.935,56.152,75.195,62.012,39.551,58.105,0
1553805449.938,35.645,67.871,54.688,32.715,56.152,0
1553805449.942,-4.395,66.406,62.500,49.316,90.820,0
1553805449.946,-5.859,60.547,63.965,71.777,40.527,0
1553805449.950,4.883,61.035,60.547,20.996,19.043,0
1553805449.954,18.555,72.266,58.594,-19.531,13.184,0
1553805449.958,18.555,62.988,57.129,2.930,15.137,0
1553805449.962,-1.953,58.594,56.152,15.137,-2.930,0
1553805449.966,-6.836,55.176,52.734,-3.418,-16.602,0
1553805449.970,20.996,47.363,41.016,14.648,-0.977,0
1553805449.974,9.277,56.641,41.016,1.953,71.777,0
1553805449.978,-6.348,56.641,51.758,-12.207,125.977,0
1553805449.981,11.719,61.035,46.387,11.230,101.074,0
1553805449.985,26.367,73.730,41.016,7.324,116.211,0
1553805449.989,17.090,66.406,41.992,11.719,85.938,0
1553805449.993,-10.254,65.430,43.457,4.395,20.020,0
1553805449.997,11.230,66.406,40.039,-12.695,4.395,0
1553805450.001,8.301,59.570,36.621,22.949,56.641,0
1553805450.005,-1.465,54.688,36.133,31.738,92.285,0
1553805450.009,28.320,42.480,34.180,-4.395,79.590,0
1553805450.013,12.695,34.180,40.527,-2.441,17.090,0
1553805450.017,-18.066,47.363,38.086,-12.207,73.242,0
1553805450.021,-9.766,56.641,33.691,-26.855,84.473,0
1553805450.024,1.953,55.176,36.133,-21.973,35.645,0
1553805450.028,-6.348,45.898,29.297,8.789,80.566,0
1553805450.032,-5.859,35.645,16.602,4.883,34.668,0
1553805450.036,-15.625,42.969,13.184,-20.020,19.043,0
1553805450.040,-17.090,48.340,20.508,1.953,-9.766,0
1553805450.044,-11.719,51.758,24.414,3.906,-38.574,0
1553805450.048,-7.324,45.898,16.113,13.184,-7.324,0
1553805450.052,14.648,39.551,10.254,18.555,47.363,0
1553805450.056,10.742,47.363,10.742,-13.672,62.988,0
1553805450.060,-16.113,50.293,14.160,-10.742,-52.734,0
1553805450.063,-24.414,53.711,16.113,-17.090,-5.859,0
1553805450.067,-20.508,49.805,14.160,-10.254,90.820,0
1553805450.071,-11.230,46.875,18.066,3.418,76.660,0
1553805450.075,-18.555,39.062,22.949,-17.090,84.961,0
1553805450.079,-22.949,37.598,20.996,-12.207,107.910,0
1553805450.083,-1.953,36.621,18.555,-2.930,93.750,0
1553805450.087,4.883,29.785,26.855,-5.371,23.926,0
1553805450.091,-12.207,34.180,24.902,19.531,95.703,0
1553805450.095,-0.977,32.715,12.695,19.531,135.254,0
1553805450.099,11.230,39.551,9.277,-5.371,33.691,0
1553805450.103,5.371,54.199,8.789,-16.113,42.969,0
1553805450.106,5.371,62.988,9.766,6.836,97.168,0
1553805450.110,4.395,39.551,8.789,15.625,41.016,0
1553805450.114,12.207,19.043,1.953,11.719,19.531,0
1553805450.118,18.066,39.551,0.000,27.344,36.133,0
1553805450.122,18.555,57.129,4.883,29.785,45.898,0
1553805450.126,13.184,55.664,5.859,10.254,55.664,0
1553805450.130,-1.465,41.992,-1.465,-7.812,2.930,0
1553805450.134,-0.488,20.996,-5.371,16.113,13.672,0
1553805450.138,16.602,10.254,2.930,11.719,59.570,0
1553805450.142,0.977,35.156,0.977,16.602,58.105,0
1553805450.146,-5.859,50.293,-5.371,22.461,-21.484,0
1553805450.149,11.719,57.129,-6.348,24.414,-1.465,0
1553805450.153,13.672,39.551,-7.324,17.090,36.133,0
1553805450.157,0.000,18.066,1.465,5.371,17.578,0
1553805450.161,-12.695,42.480,-1.465,6.836,42.480,0
1553805450.165,-8.789,48.340,-2.930,20.996,10.742,0
1553805450.169,12.207,44.434,1.465,39.062,2.441,0
1553805450.173,18.555,45.898,-3.906,20.020,29.297,0
1553805450.177,-6.348,33.203,1.953,19.043,12.207,0
1553805450.181,-6.836,47.363,-2.441,28.809,-35.645,0
1553805450.185,9.766,61.035,-8.789,8.789,9.277,0
1553805450.188,-1.465,49.805,0.977,0.000,26.855,0
1553805450.192,9.277,47.363,2.441,15.625,21.484,0
1553805450.196,47.852,41.992,1.953,39.551,71.289,0
1553805450.200,17.578,42.969,3.906,29.785,90.820,0
1553805450.204,0.488,63.477,1.465,39.551,41.504,0
1553805450.208,24.902,56.641,0.000,25.879,52.734,0
1553805450.212,4.395,53.711,-6.348,1.465,49.805,0
1553805450.216,-12.207,63.965,6.836,-1.953,45.898,0
1553805450.220,3.906,67.871,10.742,-13.672,72.266,0
1553805450.224,-26.367,77.148,-3.906,-20.508,66.406,0
1553805450.228,-63.965,88.867,-2.930,-43.457,76.172,0
1553805450.231,-62.988,105.957,0.000,-37.598,42.480,0
1553805450.235,-92.285,110.352,1.953,-76.660,58.105,0
1553805450.239,-103.027,118.652,-9.766,-107.422,76.660,0
1553805450.243,-113.770,121.094,1.953,-107.422,40.527,0
1553805450.247,-158.203,118.652,30.762,-127.441,52.734,0
1553805450.251,-171.387,125.977,29.297,-146.973,80.078,0
1553805450.255,-239.258,138.184,18.066,-224.121,73.242,0
1553805450.259,-291.504,141.602,24.414,-259.766,52.246,0
1553805450.263,-299.316,125.488,39.062,-241.211,22.461,0
1553805450.267,-297.852,123.535,29.297,-253.906,71.289,0
1553805450.271,-255.859,101.562,39.551,-241.211,100.098,0
1553805450.274,-279.297,80.566,76.172,-237.793,86.914,0
1553805450.278,-326.660,90.820,78.125,-257.324,71.777,0
1553805450.282,-293.457,105.469,61.523,-236.816,50.781,0
1553805450.286,-267.578,96.680,74.219,-229.980,52.734,0
1553805450.290,-271.484,61.523,81.055,-223.633,57.129,0
1553805450.294,-208.008,52.734,61.523,-177.734,49.316,0
1553805450.298,-166.992,61.523,61.035,-156.250,26.367,0
1553805450.302,-169.922,43.457,62.500,-131.836,-36.621,0
1553805450.306,-161.133,44.922,54.688,-97.656,14.648,0
1553805450.310,-148.926,72.266,51.270,-90.820,15.137,0
1553805450.313,-113.770,62.500,35.156,-47.363,18.555,0
1553805450.317,-85.938,48.828,19.531,-34.668,129.395,0
1553805450.321,-33.691,51.758,8.301,-12.695,62.012,0
1553805450.325,-3.418,49.316,-7.812,33.691,48.828,0
1553805450.329,1.953,35.645,-3.418,39.062,63.965,0
1553805450.333,43.945,34.668,-0.977,65.430,11.719,0
1553805450.337,64.941,37.598,-20.996,84.473,59.570,0
1553805450.341,72.266,24.902,-25.879,110.840,34.180,0
1553805450.345,112.793,8.789,-15.625,110.840,48.340,0
1553805450.349,117.188,12.695,-17.090,109.863,15.137,0
1553805450.353,101.562,12.207,-21.484,143.066,-0.488,0
1553805450.356,121.094,-13.672,-17.090,162.598,121.582,0
1553805450.360,149.902,-2.930,-17.578,182.129,53.223,0
1553805450.364,148.438,5.859,-14.160,189.453,2.930,0
1553805450.368,146.484,-20.020,-6.348,146.973,-18.555,0
1553805450.372,160.156,-16.113,-5.371,169.922,-49.805,0
1553805450.376,147.461,6.348,-15.625,175.293,-4.883,0
1553805450.380,139.160,7.324,-21.484,168.457,7.324,0
1553805450.384,152.344,1.953,-16.602,176.758,48.828,0
1553805450.388,169.434,16.113,-7.812,202.148,35.645,0
1553805450.392,159.180,19.531,-1.465,195.801,28.320,0
1553805450.396,145.020,-0.488,-2.441,141.602,83.008,0
1553805450.399,160.156,-5.371,-6.348,153.809,56.152,0
1553805450.403,145.996,12.207,-17.090,149.902,-26.367,0
1553805450.407,132.812,18.555,-21.484,144.043,-22.949,0
1553805450.411,148.438,9.277,-16.602,166.016,22.949,0
1553805450.415,141.602,-2.930,-15.137,172.363,17.578,0
1553805450.419,142.090,1.465,-16.602,153.320,83.008,0
1553805450.423,160.156,12.207,-17.578,163.574,91.309,0
1553805450.427,149.414,15.625,-22.461,153.809,-12.695,0
1553805450.431,120.117,3.906,-32.715,141.113,46.387,0
1553805450.435,101.074,-2.441,-40.039,150.879,103.516,0
1553805450.438,114.746,21.484,-41.504,134.766,81.055,0
1553805450.442,113.770,30.273,-26.855,125.000,41.992,0
1553805450.446,109.375,20.020,-18.066,106.934,-29.297,0
1553805450.450,96.191,16.113,-19.531,105.957,19.531,0
1553805450.454,101.074,15.137,-25.879,110.352,93.750,0
1553805450.458,114.258,13.184,-29.297,126.953,86.914,0
1553805450.462,118.652,10.254,-25.879,149.902,35.645,0
1553805450.466,116.211,14.648,-39.062,143.555,44.922,0
1553805450.470,100.586,6.836,-39.551,110.840,71.777,0
1553805450.474,85.938,1.465,-33.691,73.730,50.293,0
1553805450.478,66.406,15.137,-42.969,69.336,-11.719,0
1553805450.481,68.848,19.043,-45.410,90.332,68.848,0
1553805450.485,77.637,14.648,-41.504,105.957,86.914,0
1553805450.489,73.730,17.578,-42.480,93.750,26.855,0
1553805450.493,62.988,10.742,-45.410,50.293,85.449,0
1553805450.497,36.621,7.324,-44.434,38.086,83.984,0
1553805450.501,59.570,17.578,-42.480,81.543,47.852,0
1553805450.505,69.824,6.836,-46.387,110.840,-2.930,0
1553805450.509,34.668,7.324,-45.410,73.730,52.246,0
1553805450.513,15.137,9.277,-40.039,40.527,77.148,0
1553805450.517,46.875,4.883,-41.016,52.734,-19.531,0
1553805450.521,53.223,11.719,-38.574,80.078,-12.207,0
1553805450.524,20.020,21.973,-36.621,65.918,45.898,0
1553805450.528,45.898,21.484,-27.832,57.617,14.648,0
1553805450.532,76.172,14.648,-21.973,38.086,18.066,0
1553805450.536,35.645,14.160,-25.391,31.738,55.176,0
1553805450.540,1.953,13.184,-20.996,42.480,30.273,0
1553805450.544,26.367,8.789,-19.531,55.176,9.766,0
1553805450.548,64.453,12.207,-23.926,69.824,80.566,0
1553805450.552,49.805,18.066,-25.879,43.945,68.848,0
1553805450.556,-1.465,6.348,-22.461,21.484,54.199,0
1553805450.560,4.395,-1.953,-17.090,35.645,79.590,0
1553805450.563,22.949,5.371,-17.578,47.363,32.715,0
1553805450.567,28.809,7.812,-14.648,34.668,73.242,0
1553805450.571,27.344,7.324,-12.695,21.484,79.102,0
1553805450.575,38.086,18.555,-16.113,23.926,62.012,0
1553805450.579,37.598,25.879,-16.602,59.082,115.723,0
1553805450.583,27.832,19.043,-7.324,36.133,102.539,0
1553805450.587,0.000,17.578,-7.812,7.324,53.223,0
1553805450.591,14.160,15.137,-16.113,42.480,-0.977,0
1553805450.595,46.387,1.953,-10.254,58.594,15.625,0
1553805450.599,16.113,-8.789,-2.441,9.277,83.984,0
1553805450.603,7.324,2.930,1.465,22.949,93.750,0
1553805450.606,27.344,27.344,-5.371,17.090,40.039,0
1553805450.610,7.812,34.180,-9.277,6.348,41.504,0
1553805450.614,-0.977,21.973,0.000,1.953,40.527,0
1553805450.618,12.207,12.695,2.441,20.996,34.668,0
1553805450.622,16.113,21.484,2.441,70.312,32.715,0
1553805450.626,32.227,27.832,-2.441,21.484,-2.441,0
1553805450.630,24.414,24.414,-9.277,-1.465,30.273,0
1553805450.634,-21.484,15.137,-7.812,12.695,42.969,0
1553805450.638,11.230,19.043,-4.395,71.289,16.113,0
1553805450.642,32.715,25.879,-0.488,32.715,-11.230,0
1553805450.646,37.109,28.320,-1.465,-23.438,27.832,0
1553805450.649,-1.953,29.785,-0.977,-0.977,49.316,0
1553805450.653,-6.836,28.320,4.883,9.766,61.035,0
1553805450.657,37.109,33.203,2.441,37.109,74.219,0
1553805450.661,36.621,27.832,1.465,26.855,44.434,0
1553805450.665,28.320,31.250,3.906,14.160,80.078,0
1553805450.669,26.367,44.922,1.953,11.230,83.008,0
1553805450.673,17.090,40.527,6.836,0.000,54.199,0
1553805450.677,32.715,26.855,12.207,39.551,71.777,0
1553805450.681,42.480,31.738,10.742,60.547,30.762,0
1553805450.685,16.113,37.598,12.695,-0.488,1.953,0
1553805450.688,1.953,31.738,14.648,-2.441,35.156,0
1553805450.692,16.602,34.668,18.066,53.711,30.273,0
1553805450.696,46.875,37.598,14.648,47.363,0.488,0
1553805450.700,50.293,36.621,13.672,43.457,15.625,0
1553805450.704,14.160,35.156,21.484,35.156,-9.277,0
1553805450.708,-15.137,32.227,18.066,2.930,-11.719,0
1553805450.712,-10.254,31.250,13.184,0.488,35.645,0
1553805450.716,9.766,34.180,12.695,38.086,36.621,0
1553805450.720,-6.348,28.809,17.578,14.648,28.809,0
1553805450.724,-2.930,22.949,20.996,-11.230,103.516,0
1553805450.728,31.738,33.691,19.531,0.977,93.750,0
1553805450.731,9.766,41.504,15.625,6.348,43.457,0
1553805450.735,-20.996,38.086,15.137,19.531,63.965,0
1553805450.739,22.461,27.832,21.484,27.344,20.996,0
1553805450.743,25.391,26.367,18.555,24.902,12.207,0
1553805450.747,21.973,43.457,11.230,39.062,72.266,0
1553805450.751,7.812,44.434,16.602,3.906,70.801,0
1553805450.755,5.371,45.410,17.090,-32.227,21.484,0
1553805450.759,49.805,46.387,17.090,24.902,44.922,0
1553805450.763,30.762,36.133,19.531,42.969,78.125,0
1553805450.767,7.812,41.016,15.137,17.090,26.855,0
1553805450.771,43.945,38.574,16.602,14.160,-12.695,0
1553805450.774,25.879,27.832,19.531,54.199,-12.207,0
1553805450.778,-5.371,34.668,20.508,37.598,16.602,0
1553805450.782,19.043,40.039,17.578,41.016,56.152,0
1553805450.786,27.832,49.316,14.160,44.922,6.348,0
1553805450.790,-19.043,51.758,18.066,-5.371,-41.504,0
1553805450.794,-41.504,39.551,15.625,-4.395,5.859,0
1553805450.798,-22.461,43.945,10.742,16.113,94.727,0
1553805450.802,-27.832,49.316,11.230,-20.020,46.875,0
1553805450.806,-37.109,46.387,16.602,-49.316,-13.184,0
1553805450.810,0.977,42.480,22.461,-31.250,47.363,0
1553805450.813,3.418,38.086,28.320,-20.996,77.148,0
1553805450.817,-37.598,46.875,17.578,-5.371,113.281,0
1553805450.821,-33.691,58.594,9.277,-2.930,62.012,0
1553805450.825,-21.484,53.223,11.230,-48.340,42.480,0
1553805450.829,-20.996,48.828,16.113,-46.387,70.801,0
1553805450.833,-26.367,43.457,18.555,-6.836,20.996,0
1553805450.837,-11.230,35.645,18.066,6.348,15.137,0
1553805450.841,-0.488,36.133,21.484,18.066,66.406,0
1553805450.845,-0.977,32.715,21.973,17.578,73.242,0
1553805450.849,0.000,35.645,8.789,-22.949,76.172,0
1553805450.853,20.020,45.410,4.883,4.395,104.980,0
1553805450.856,18.066,44.434,17.090,62.500,85.449,0
1553805450.860,-0.488,34.668,19.043,24.902,10.254,0
1553805450.864,14.160,38.574,17.090,-20.996,46.387,0
1553805450.868,-11.230,41.992,18.066,-22.949,47.363,0
1553805450.872,-3.906,34.180,17.578,-20.996,54.199,0
1553805450.876,18.066,37.598,14.648,6.348,127.930,0
1553805450.880,18.066,48.340,9.277,28.809,49.316,0
1553805450.884,39.551,45.410,9.277,26.367,13.672,0
1553805450.888,33.203,42.969,9.277,13.184,81.543,0
1553805450.892,13.184,50.781,11.230,3.906,70.312,0
1553805450.896,2.930,49.805,15.625,4.395,34.180,0
1553805450.899,15.625,47.852,15.137,9.277,51.758,0
1553805450.903,24.414,49.805,14.160,15.137,57.617,0
1553805450.907,26.855,48.340,11.719,58.105,31.738,0
1553805450.911,22.949,42.480,11.230,22.461,74.219,0
1553805450.915,26.367,42.969,15.625,-4.395,83.008,0
1553805450.919,30.273,49.805,16.602,2.441,57.617,0
1553805450.923,5.371,45.898,16.602,-7.812,34.668,0
1553805450.927,1.465,39.551,16.113,39.062,-14.648,0
1553805450.931,16.602,40.527,15.137,31.250,48.340,0
1553805450.935,3.906,32.227,8.789,8.301,68.848,0
1553805450.938,6.348,35.645,3.418,0.488,12.207,0
1553805450.942,1.953,38.574,5.371,-6.836,40.039,0
1553805450.946,3.906,35.156,8.789,23.438,82.520,0
1553805450.950,16.113,48.340,15.625,28.320,62.012,0
1553805450.954,16.113,49.805,11.230,22.461,59.570,0
1553805450.958,20.996,48.340,2.930,13.184,63.965,0
1553805450.962,3.906,45.410,9.277,7.324,114.258,0
1553805450.966,-1.953,44.922,14.160,0.977,84.473,0
1553805450.970,11.230,38.574,17.578,6.348,18.555,0
1553805450.974,18.555,31.738,15.137,25.391,14.648,0
1553805450.978,12.207,43.457,12.207,20.508,48.828,0
1553805450.981,20.996,52.246,14.648,36.621,29.785,0
1553805450.985,12.207,61.035,16.602,35.645,4.883,0
1553805450.989,-5.859,55.664,14.160,6.836,17.090,0
1553805450.993,-1.953,48.828,9.766,-16.113,83.008,0
1553805450.997,16.113,45.410,10.742,2.441,48.828,0
1553805451.001,23.926,27.344,14.160,19.531,-17.090,0
1553805451.005,4.395,29.785,13.672,14.648,12.207,0
1553805451.009,10.254,40.039,11.719,20.020,22.949,0
1553805451.013,3.906,36.133,10.742,9.277,40.527,0
1553805451.017,40.527,46.387,2.930,7.812,0.000,0
1553805451.021,33.691,54.688,-1.953,17.090,33.203,0
1553805451.024,-25.391,50.293,7.812,-16.602,62.988,0
1553805451.028,-19.531,46.875,14.648,-17.090,36.621,0
1553805451.032,-10.254,45.898,14.160,9.766,-9.277,0
1553805451.036,-0.977,45.410,12.207,11.230,-3.906,0
1553805451.040,2.441,45.410,7.812,8.789,61.523,0
1553805451.044,12.695,48.340,8.301,2.930,31.250,0
1553805451.048,11.230,48.340,11.230,-13.672,11.719,0
1553805451.052,11.230,44.434,16.113,-8.301,77.637,0
1553805451.056,-3.418,43.945,7.812,5.371,49.316,0
1553805451.060,25.391,41.992,-1.465,20.996,-48.340,0
1553805451.063,80.078,45.410,2.441,85.449,-64.941,0
1553805451.067,34.668,46.875,17.090,41.016,-10.742,0
1553805451.071,-25.391,41.992,21.484,-6.348,54.688,0
1553805451.075,14.160,44.922,14.160,54.199,30.762,0
1553805451.079,15.137,44.922,12.695,-5.859,3.418,0
1553805451.083,6.836,50.293,4.395,-12.695,41.992,0
1553805451.087,31.738,56.152,1.953,10.254,60.547,0
1553805451.091,56.641,55.176,9.277,43.945,103.027,0
1553805451.095,50.293,53.711,10.254,84.961,64.941,0
1553805451.099,48.828,46.875,8.301,61.523,-8.789,0
1553805451.103,59.570,45.410,2.441,46.875,10.742,0
1553805451.106,35.156,34.668,0.000,74.707,22.949,0
1553805451.110,8.789,35.645,3.906,45.410,56.152,0
1553805451.114,27.832,53.711,3.418,14.160,66.895,0
1553805451.118,31.250,57.617,10.254,49.316,18.066,0
1553805451.122,9.277,58.594,9.277,64.941,-4.395,0
1553805451.126,41.504,56.152,6.348,49.316,3.418,0
1553805451.130,41.992,52.246,10.254,17.578,34.180,0
1553805451.134,20.020,57.617,8.301,-0.488,24.414,0
1553805451.138,53.711,51.270,11.230,37.109,35.156,0
1553805451.142,48.340,40.527,13.672,33.203,62.500,0
1553805451.146,30.273,48.340,20.508,26.367,91.309,0
1553805451.149,36.133,43.457,21.484,74.219,67.871,0
1553805451.153,48.828,44.922,13.184,54.199,16.113,0
1553805451.157,43.457,61.523,8.789,11.230,76.172,0
1553805451.161,26.367,62.500,11.719,4.883,55.664,0
1553805451.165,65.918,65.918,13.672,29.297,34.668,0
1553805451.169,69.824,59.570,16.602,68.848,49.805,0
1553805451.173,6.348,44.434,21.484,49.805,53.711,0
1553805451.177,13.184,56.641,21.484,20.508,54.199,0
1553805451.181,20.996,68.359,20.508,29.297,24.902,0
1553805451.185,33.203,70.312,19.043,38.086,74.707,0
1553805451.188,31.738,65.918,15.137,75.684,88.867,0
1553805451.192,8.301,54.199,9.277,59.570,64.941,0
1553805451.196,15.137,57.617,12.207,2.930,54.688,0
1553805451.200,50.781,62.500,20.996,24.902,41.504,0
1553805451.204,34.180,60.059,20.996,7.812,71.777,0
1553805451.208,12.695,58.105,20.020,6.348,57.129,0
1553805451.212,20.996,58.105,21.973,35.156,22.949,0
1553805451.216,17.578,60.059,27.344,46.387,39.062,0
1553805451.220,43.457,64.941,26.855,39.062,48.828,0
1553805451.224,55.664,55.664,18.555,22.461,62.500,0
1553805451.228,43.457,46.875,17.578,55.176,50.293,0
1553805451.231,11.719,60.059,16.602,46.875,83.984,0
1553805451.235,10.742,60.059,20.020,13.184,74.707,0
1553805451.239,12.207,55.176,24.902,25.879,14.160,0
1553805451.243,26.367,60.547,23.438,31.250,9.277,0
1553805451.247,15.137,61.523,19.531,32.227,14.648,0
1553805451.251,10.742,56.152,10.254,22.949,47.363,0
1553805451.255,30.273,60.059,7.812,45.898,89.355,0
1553805451.259,31.250,62.012,17.090,34.180,83.008,0
1553805451.263,36.133,61.523,25.391,30.273,-25.879,0
1553805451.267,41.504,62.988,27.832,21.484,6.348,0
1553805451.271,19.531,57.129,31.250,7.324,8.301,0
1553805451.274,-1.953,57.617,28.320,25.879,-11.719,0
1553805451.278,11.230,60.059,25.391,14.160,15.625,0
1553805451.282,24.902,53.223,22.949,10.742,50.781,0
1553805451.286,29.297,48.340,24.414,29.297,90.820,0
1553805451.290,45.898,50.293,27.832,63.965,49.805,0
1553805451.294,58.594,53.711,9.766,56.152,-2.930,0
1553805451.298,33.203,50.293,18.555,37.598,15.625,0
1553805451.302,-17.090,48.340,33.691,-27.344,62.988,0
1553805451.306,-33.691,53.223,24.902,-48.828,29.297,0
1553805451.310,-18.066,40.527,30.762,-8.789,17.578,0
1553805451.313,-48.828,27.344,32.227,-33.691,83.984,0
1553805451.317,-60.547,36.621,27.832,-44.434,102.051,0
1553805451.321,-36.621,42.480,30.762,-37.598,24.414,0
1553805451.325,-61.523,44.922,37.598,-32.715,41.504,0
1553805451.329,-64.453,51.758,38.574,-31.738,129.395,0
1553805451.333,-30.762,52.246,27.832,-22.949,80.566,0
1553805451.337,-30.273,43.457,13.184,-23.438,58.105,0
1553805451.341,-26.855,36.621,14.648,-30.273,84.961,0
1553805451.345,-25.879,33.691,20.996,-2.441,11.719,0
1553805451.349,-18.555,35.156,21.973,-0.488,-2.930,0
1553805451.353,-14.648,39.062,24.414,-16.602,52.246,0
1553805451.356,-28.320,41.016,20.508,9.766,67.871,0
1553805451.360,-16.602,39.551,20.996,3.906,45.898,0
1553805451.364,-3.906,34.180,25.391,7.812,15.625,0
1553805451.368,-11.230,36.621,25.391,12.695,-3.418,0
1553805451.372,4.883,40.527,27.344,-11.719,51.270,0
1553805451.376,12.695,39.062,22.461,-9.766,30.273,0
1553805451.380,0.000,38.086,13.672,-2.441,24.414,0
1553805451.384,-24.414,36.621,12.207,-5.859,20.996,0
1553805451.388,-23.438,35.645,10.742,-3.418,15.625,0
1553805451.392,4.883,37.598,14.648,19.531,13.184,0
1553805451.396,16.602,44.922,19.043,26.855,-8.301,0
1553805451.399,19.531,50.781,14.648,21.973,14.160,0
1553805451.403,12.207,45.410,15.137,20.508,-23.438,0
1553805451.407,5.371,44.434,12.207,-0.488,-9.277,0
1553805451.411,11.719,39.062,7.812,3.906,117.676,0
1553805451.415,10.254,25.391,18.066,10.742,85.938,0
1553805451.419,1.953,33.203,20.996,-2.930,-4.883,0
1553805451.423,22.949,47.363,19.531,18.555,48.828,0
1553805451.427,12.695,46.387,20.020,18.555,106.934,0
1553805451.431,-8.301,45.898,17.090,-1.953,96.680,0
1553805451.435,18.066,47.363,14.160,0.000,42.480,0
1553805451.438,23.926,49.805,12.207,18.555,22.461,0
1553805451.442,6.348,46.875,12.695,36.133,33.203,0
1553805451.446,-5.371,37.109,14.160,6.348,23.926,0
1553805451.450,-5.371,41.992,9.766,3.418,-10.254,0
1553805451.454,4.883,39.551,10.254,10.254,50.293,0
1553805451.458,22.949,39.551,10.742,34.180,40.039,0
1553805451.462,29.785,42.480,7.812,51.270,-19.043,0
1553805451.466,11.230,33.203,9.277,25.391,32.227,0
1553805451.470,0.488,40.527,8.789,-10.742,45.898,0
1553805451.474,34.668,47.852,13.184,-10.254,-1.465,0
1553805451.478,44.434,44.922,14.160,30.273,42.969,0
1553805451.481,20.508,37.109,14.160,54.688,80.566,0
1553805451.485,32.715,31.250,15.137,1.953,43.457,0
1553805451.489,33.203,34.180,7.812,-21.973,97.168,0
1553805451.493,20.996,41.504,0.000,4.395,62.500,0
1553805451.497,9.277,44.434,2.441,13.184,-30.273,0
1553805451.501,4.883,48.340,6.836,17.578,-5.859,0
1553805451.505,-11.230,46.875,9.277,18.555,76.172,0
1553805451.509,17.090,41.504,11.230,18.066,115.234,0
1553805451.513,14.160,43.457,10.254,26.367,71.777,0
1553805451.517,-22.949,44.434,14.160,21.484,73.730,0
1553805451.521,-6.836,37.598,17.578,20.996,112.305,0
1553805451.524,15.137,39.551,18.555,21.973,41.992,0
1553805451.528,22.949,45.410,20.020,30.762,25.391,0
1553805451.532,20.996,41.016,20.996,22.949,28.809,0
1553805451.536,5.371,34.668,18.066,-13.672,-1.953,0
1553805451.540,3.418,36.133,15.625,-5.859,22.949,0
1553805451.544,15.137,41.992,14.648,17.578,64.941,0
1553805451.548,4.883,39.551,13.672,17.090,65.430,0
1553805451.552,14.160,37.598,14.160,19.531,8.789,0
1553805451.556,11.719,46.387,13.672,14.648,-3.418,0
1553805451.560,9.766,51.758,17.578,4.883,33.203,0
1553805451.563,20.508,50.293,20.020,18.555,12.695,0
1553805451.567,19.043,44.922,17.090,25.391,-4.395,0
1553805451.571,8.301,40.527,20.020,26.367,2.930,0
1553805451.575,3.906,44.922,20.996,18.555,32.227,0
1553805451.579,16.113,42.969,17.578,21.973,83.984,0
1553805451.583,21.484,32.227,21.973,23.438,79.102,0
1553805451.587,12.207,38.086,22.949,41.504,35.156,0
1553805451.591,8.789,40.527,23.926,37.109,24.902,0
1553805451.595,33.203,32.227,18.555,8.301,10.742,0
1553805451.599,30.273,31.738,11.719,11.719,-0.488,0
1553805451.603,12.207,31.738,11.230,20.996,28.320,0
1553805451.606,14.160,33.203,12.207,15.625,109.863,0
1553805451.610,38.574,26.367,21.484,41.504,110.840,0
1553805451.614,22.949,19.531,18.555,30.273,26.367,0
1553805451.618,17.578,27.344,10.742,-15.625,69.824,0
1553805451.622,30.762,36.621,7.324,0.977,123.047,0
1553805451.626,9.766,41.992,10.254,23.438,41.992,0
1553805451.630,2.441,41.504,15.137,23.438,10.254,0
1553805451.634,21.973,40.039,11.719,33.203,30.762,0
1553805451.638,45.898,34.668,13.672,25.391,38.574,0
1553805451.642,29.785,34.180,20.020,9.277,91.797,0
1553805451.646,9.277,39.062,15.625,28.320,118.652,0
1553805451.649,7.812,44.922,4.395,31.738,97.656,0
1553805451.653,13.672,57.129,8.301,3.418,60.547,0
1553805451.657,13.184,61.035,18.555,10.742,85.938,0
1553805451.661,-5.371,61.523,19.043,19.043,125.000,0
1553805451.665,31.738,59.570,17.578,26.855,105.469,0
1553805451.669,46.875,59.570,15.137,41.992,111.328,0
1553805451.673,9.277,67.871,14.160,19.043,121.094,0
1553805451.677,20.996,73.242,11.719,-4.395,63.477,0
1553805451.681,21.973,69.336,11.230,6.348,-11.230,0
1553805451.685,-2.930,73.242,11.719,15.137,19.531,0
1553805451.688,13.672,80.078,10.742,28.320,41.504,0
1553805451.692,22.461,73.242,4.883,24.902,7.812,0
1553805451.696,25.879,68.359,3.418,26.855,-14.160,0
1553805451.700,24.414,67.871,13.184,7.812,49.805,0
1553805451.704,12.695,72.754,14.160,14.648,29.297,0
1553805451.708,11.230,72.266,13.672,18.555,8.789,0
1553805451.712,5.371,62.988,22.949,14.648,30.762,0
1553805451.716,10.254,55.664,20.508,33.691,38.086,0
1553805451.720,33.691,62.500,10.742,35.156,20.996,0
1553805451.724,59.082,69.336,14.160,44.922,-15.625,0
1553805451.728,39.062,73.730,20.996,34.180,24.414,0
1553805451.731,9.766,66.895,20.996,12.695,57.617,0
1553805451.735,14.160,60.547,15.625,44.922,29.297,0
1553805451.739,25.391,68.848,9.277,35.156,31.738,0
1553805451.743,36.621,69.336,9.766,20.020,72.754,0
1553805451.747,32.715,73.242,0.000,34.180,32.227,0
1553805451.751,37.598,75.684,-3.906,37.598,23.926,0
1553805451.755,49.316,69.336,0.977,51.270,46.387,0
1553805451.759,38.086,61.523,-2.441,38.574,63.477,0
1553805451.763,48.828,64.453,1.953,36.133,76.172,0
1553805451.767,66.406,75.195,6.836,58.105,25.391,0
1553805451.771,76.660,78.613,-0.488,48.828,11.230,0
1553805451.774,54.688,68.359,4.395,47.363,-26.367,0
1553805451.778,32.227,58.105,12.695,60.059,-10.742,0
1553805451.782,36.621,63.477,8.789,37.109,94.238,0
1553805451.786,58.105,59.082,5.371,52.734,72.754,0
1553805451.790,49.805,58.105,5.371,78.613,25.391,0
1553805451.794,13.184,67.871,6.348,28.320,56.641,0
1553805451.798,29.785,59.082,9.766,26.367,73.730,0
1553805451.802,42.969,38.574,2.930,30.273,51.758,0
1553805451.806,56.641,34.668,0.488,36.133,31.250,0
1553805451.810,47.363,47.363,10.742,44.922,27.832,0
1553805451.813,34.668,56.641,10.742,36.133,24.902,0
1553805451.817,41.992,53.711,4.883,36.133,-5.371,0
1553805451.821,22.949,43.457,0.488,34.180,19.043,0
1553805451.825,22.461,43.457,-0.488,25.391,62.012,0
1553805451.829,34.668,41.992,-8.789,16.602,19.531,0
1553805451.833,36.133,35.156,-10.254,35.156,-12.695,0
1553805451.837,30.273,49.805,-0.977,48.828,78.125,0
1553805451.841,17.090,68.848,3.418,19.043,86.426,0
1553805451.845,16.602,69.824,2.930,22.461,32.715,0
1553805451.849,32.227,70.801,0.977,25.391,20.996,0
1553805451.853,46.875,66.895,-2.441,14.648,23.926,0
1553805451.856,35.156,57.129,-5.859,13.672,28.320,0
1553805451.860,16.113,51.270,-4.883,33.203,10.742,0
1553805451.864,21.973,47.363,6.836,21.973,22.949,0
1553805451.868,31.250,57.129,7.324,41.016,65.430,0
1553805451.872,16.602,57.129,-4.883,40.039,61.035,0
1553805451.876,27.344,58.594,-0.977,24.414,61.523,0
1553805451.880,44.922,69.824,3.906,42.480,65.918,0
1553805451.884,14.160,63.965,7.324,47.363,2.441,0
1553805451.888,10.742,52.734,8.301,50.293,21.973,0
1553805451.892,10.254,53.711,-0.488,11.719,75.684,0
1553805451.896,9.277,67.383,-3.418,2.441,136.719,0
1553805451.899,12.695,70.801,0.000,32.715,69.824,0
1553805451.903,11.230,54.199,0.488,24.902,-5.859,0
1553805451.907,18.555,53.711,-8.301,-0.488,84.961,0
1553805451.911,10.742,68.848,-14.160,17.578,106.934,0
1553805451.915,21.484,62.500,-1.953,23.926,25.879,0
1553805451.919,28.320,54.688,3.418,16.602,31.738,0
1553805451.923,8.789,55.176,-2.441,17.090,78.613,0
1553805451.927,22.461,54.199,-6.836,8.789,73.242,0
1553805451.931,36.621,64.453,-2.441,-2.930,64.941,0
1553805451.935,23.926,59.570,4.395,12.207,35.156,0
1553805451.938,23.438,39.062,0.000,20.020,14.648,0
1553805451.942,26.855,62.012,-3.906,25.879,46.387,0
1553805451.946,11.719,89.355,-0.977,55.176,63.477,0
1553805451.950,0.000,80.566,-7.812,34.180,47.852,0
1553805451.954,5.859,65.918,-18.555,1.953,28.320,0
1553805451.958,6.836,59.082,-8.301,7.324,42.480,0
1553805451.962,14.160,57.129,8.301,3.418,32.715,0
1553805451.966,37.598,52.734,7.324,17.578,20.508,0
1553805451.970,33.691,53.223,2.930,43.457,81.543,0
1553805451.974,15.137,70.312,-5.859,47.363,64.941,0
1553805451.978,30.273,69.336,-7.812,23.438,-19.043,0
1553805451.981,7.812,59.570,-2.930,9.277,34.180,0
1553805451.985,-4.395,74.219,-12.207,11.719,81.055,0
1553805451.989,9.277,82.031,-13.672,12.695,-2.930,0
1553805451.993,17.090,73.730,-2.441,26.855,14.648,0
1553805451.997,40.039,67.383,2.441,6.348,27.344,0
1553805452.001,24.414,65.430,-1.465,-7.812,50.293,0
1553805452.005,5.859,61.523,-4.883,41.016,66.895,0
1553805452.009,21.484,60.059,-2.930,15.137,41.016,0
1553805452.013,30.762,55.664,5.859,-11.719,52.734,0
1553805452.017,10.742,54.688,7.812,19.531,60.547,0
1553805452.021,-2.441,60.059,-0.488,15.137,34.668,0
1553805452.024,1.465,62.500,-1.465,24.414,-18.555,0
1553805452.028,6.836,56.152,-2.441,39.551,12.695,0
1553805452.032,19.043,48.340,-5.859,36.133,15.137,0
1553805452.036,20.508,61.523,-6.348,24.414,40.039,0
1553805452.040,5.371,68.848,-9.766,-22.461,74.707,0
1553805452.044,-8.301,63.965,-4.883,-15.137,68.359,0
1553805452.048,-2.930,61.035,-1.465,8.789,65.430,0
1553805452.052,21.973,58.594,-4.883,26.367,16.113,0
1553805452.056,31.250,51.270,1.953,20.020,53.711,0
1553805452.060,22.949,45.410,0.977,12.207,65.918,0
1553805452.063,7.324,53.711,-1.465,17.090,-2.930,0
1553805452.067,6.836,62.988,0.000,38.086,6.348,0
1553805452.071,27.832,67.383,0.000,33.203,77.148,0
1553805452.075,36.621,70.801,-15.137,22.461,85.938,0
1553805452.079,46.875,65.430,-22.949,56.152,102.539,0
1553805452.083,29.297,55.176,8.301,30.273,71.289,0
1553805452.087,-20.996,52.246,20.996,-18.555,96.191,0
1553805452.091,-10.742,49.805,9.277,-3.906,56.641,0
1553805452.095,33.691,44.922,8.789,43.457,33.691,0
1553805452.099,30.762,46.387,14.160,41.992,54.199,0
1553805452.103,13.672,42.480,10.742,14.648,12.695,0
1553805452.106,13.184,27.344,11.230,19.531,34.668,0
1553805452.110,12.695,23.438,13.672,43.945,29.297,0
1553805452.114,5.371,35.156,8.301,39.551,57.129,0
1553805452.118,26.367,38.086,6.836,25.391,89.844,0
1553805452.122,20.020,40.527,7.324,25.391,33.691,0
1553805452.126,1.953,42.480,5.859,25.879,7.324,0
1553805452.130,36.621,43.457,1.465,46.875,14.160,0
1553805452.134,44.434,43.457,-3.418,48.828,57.617,0
1553805452.138,18.555,35.156,6.836,72.754,85.938,0
1553805452.142,18.555,40.527,20.508,71.777,22.461,0
1553805452.146,26.855,43.945,14.160,21.973,22.949,0
1553805452.149,6.348,41.016,4.395,25.879,-0.977,0
1553805452.153,10.742,50.293,1.953,31.738,14.160,0
1553805452.157,15.625,51.270,1.465,21.484,49.316,0
1553805452.161,0.488,47.852,-1.465,1.465,-0.488,0
1553805452.165,6.836,49.805,-9.766,19.043,0.977,0
1553805452.169,10.254,54.199,-8.301,32.227,2.930,0
1553805452.173,20.996,59.082,4.883,36.133,26.855,0
1553805452.177,9.766,59.082,8.301,37.598,50.781,0
1553805452.181,-0.977,50.293,1.953,9.277,41.504,0
1553805452.185,25.391,50.293,2.441,9.766,20.508,0
1553805452.188,28.320,60.059,10.742,-0.977,-30.273,0
1553805452.192,9.766,45.898,6.348,3.906,68.359,0
1553805452.196,22.949,43.457,1.465,19.043,103.516,0
1553805452.200,27.832,70.312,0.977,18.066,63.477,0
1553805452.204,12.695,80.078,4.883,16.113,41.016,0
1553805452.208,7.324,61.523,8.789,16.113,16.113,0
1553805452.212,5.859,53.223,4.883,35.645,37.598,0
1553805452.216,13.672,57.129,4.883,31.250,28.809,0
1553805452.220,13.184,61.035,3.418,10.742,58.105,0
1553805452.224,6.348,71.777,1.953,8.301,63.965,0
1553805452.228,16.113,73.242,4.395,4.395,78.613,0
1553805452.231,20.996,69.824,6.348,19.531,102.051,0
1553805452.235,45.410,73.242,11.230,24.902,57.129,0
1553805452.239,42.480,73.242,9.277,28.320,45.410,0
1553805452.243,24.902,63.965,2.441,35.156,32.715,0
1553805452.247,19.531,53.223,8.789,25.391,19.531,0
1553805452.251,8.789,51.758,12.207,15.137,28.809,0
1553805452.255,22.461,58.594,6.836,51.758,21.973,0
1553805452.259,27.344,64.453,0.488,32.227,15.137,0
1553805452.263,6.348,72.266,2.930,-3.418,30.273,0
1553805452.267,-15.137,70.801,8.789,17.578,30.762,0
1553805452.271,-13.672,61.523,9.766,3.906,39.551,0
1553805452.274,6.348,77.148,9.766,15.137,-0.977,0
1553805452.278,0.977,104.492,11.719,5.859,-25.391,0
1553805452.282,11.719,118.164,0.977,12.695,23.438,0
1553805452.286,41.016,127.930,-9.766,35.645,30.762,0
1553805452.290,-5.859,123.535,11.230,6.836,31.738,0
1553805452.294,-34.668,105.469,23.926,-4.883,-20.020,0
