timestamps,TP9,AF7,AF8,TP10,Right AUX,Marker0
1553635088.596,29.785,30.273,28.809,124.023,22.461,0
1553635088.600,32.227,31.250,28.809,125.977,-8.789,0
1553635088.604,34.668,33.691,29.785,131.348,33.203,0
1553635088.608,27.344,32.715,29.297,125.488,56.641,0
1553635088.612,20.020,34.180,26.367,124.023,49.805,0
1553635088.615,15.625,36.621,25.391,124.512,19.531,0
1553635088.619,9.766,37.598,27.344,118.652,71.289,0
1553635088.623,15.625,37.109,27.344,113.770,140.137,0
1553635088.627,18.555,36.133,29.297,106.445,50.293,0
1553635088.631,17.090,39.551,27.344,102.539,9.277,0
1553635088.635,16.602,38.574,23.438,105.469,103.516,0
1553635088.639,22.461,36.133,26.855,116.699,69.824,0
1553635088.643,24.902,38.086,27.832,115.723,-11.230,0
1553635088.647,15.625,40.039,25.879,107.422,35.645,0
1553635088.651,25.391,36.621,27.344,112.305,71.289,0
1553635088.655,28.320,34.668,25.879,110.840,44.922,0
1553635088.658,23.438,33.203,24.902,106.934,42.969,0
1553635088.662,30.273,31.250,27.832,114.258,69.824,0
1553635088.666,28.320,35.156,29.785,115.234,100.586,0
1553635088.670,20.508,33.203,29.785,114.258,118.164,0
1553635088.674,25.391,32.715,29.297,110.840,75.684,0
1553635088.678,24.414,36.133,28.320,109.863,5.859,0
1553635088.682,24.902,34.180,29.785,110.352,-13.672,0
1553635088.686,24.902,34.180,29.785,102.051,-5.371,0
1553635088.690,20.508,35.645,27.832,93.262,57.129,0
1553635088.694,26.855,35.645,30.273,93.750,86.426,0
1553635088.697,17.578,34.180,30.273,90.332,61.035,0
1553635088.701,13.672,30.762,27.832,85.938,38.086,0
1553635088.705,18.066,32.227,29.297,93.262,58.105,0
1553635088.709,22.949,33.691,31.250,94.727,79.102,0
1553635088.713,20.996,31.738,33.203,87.402,38.086,0
1553635088.717,10.254,32.227,33.203,81.543,73.730,0
1553635088.721,17.090,35.156,32.715,89.844,50.293,0
1553635088.725,15.137,34.180,32.227,91.309,-5.371,0
1553635088.729,13.672,31.738,28.809,88.379,7.324,0
1553635088.733,20.020,31.250,29.297,97.168,36.621,0
1553635088.737,18.066,31.738,31.738,95.703,49.316,0
1553635088.740,28.809,34.180,31.250,91.797,16.602,0
1553635088.744,32.227,37.598,27.832,88.867,7.812,0
1553635088.748,25.391,38.574,26.855,91.797,25.879,0
1553635088.752,26.367,36.621,27.344,99.121,23.438,0
1553635088.756,28.320,35.645,26.855,100.586,2.930,0
1553635088.760,34.180,35.645,31.738,107.422,17.090,0
1553635088.764,35.156,35.645,35.156,102.051,4.883,0
1553635088.768,34.180,35.645,29.785,101.562,-22.949,0
1553635088.772,35.156,34.180,28.809,107.422,-30.762,0
1553635088.776,36.621,35.156,29.297,96.680,0.488,0
1553635088.780,36.133,37.598,28.809,93.750,39.551,0
1553635088.783,26.367,37.109,28.320,88.867,54.199,0
1553635088.787,32.227,36.621,26.367,87.402,41.992,0
1553635088.791,35.645,34.668,26.855,94.727,62.500,0
1553635088.795,24.902,35.156,27.344,86.426,65.430,0
1553635088.799,22.949,38.086,26.367,79.590,50.781,0
1553635088.803,22.949,36.621,25.879,83.496,56.641,0
1553635088.807,16.602,37.598,27.344,76.660,53.711,0
1553635088.811,14.160,37.598,28.320,74.219,67.383,0
1553635088.815,12.695,36.621,28.809,75.684,63.477,0
1553635088.819,15.625,35.645,28.809,73.242,49.805,0
1553635088.822,15.137,32.227,29.297,75.684,34.180,0
1553635088.826,17.090,36.133,25.391,74.707,55.664,0
1553635088.830,23.926,37.598,23.926,70.312,78.613,0
1553635088.834,20.996,36.133,25.391,70.312,28.320,0
1553635088.838,21.484,37.109,25.391,67.383,10.254,0
1553635088.842,27.344,37.109,25.879,67.871,-10.742,0
1553635088.846,20.996,36.133,24.414,68.848,58.105,0
1553635088.850,24.414,32.227,24.902,68.359,31.250,0
1553635088.854,28.320,33.691,26.855,79.102,-52.734,0
1553635088.858,21.484,36.133,27.832,74.707,-29.297,0
1553635088.862,21.973,35.156,27.344,68.848,41.504,0
1553635088.865,23.926,33.691,23.926,71.289,76.172,0
1553635088.869,27.832,34.668,25.879,70.312,66.406,0
1553635088.873,33.203,34.180,26.855,72.266,35.156,0
1553635088.877,25.879,33.691,25.879,72.266,-4.395,0
1553635088.881,15.625,33.691,25.879,65.918,30.273,0
1553635088.885,14.648,34.180,27.832,68.848,-17.578,0
1553635088.889,20.020,34.668,28.320,72.754,-0.488,0
1553635088.893,23.926,32.715,26.367,75.684,11.719,0
1553635088.897,18.555,32.715,27.832,75.684,-40.527,0
1553635088.901,28.809,31.250,28.809,64.941,36.133,0
1553635088.905,35.156,30.273,29.297,68.848,56.152,0
1553635088.908,22.461,34.180,28.809,71.777,7.324,0
1553635088.912,17.578,34.668,26.855,64.941,6.348,0
1553635088.916,22.461,37.598,27.832,64.453,-8.789,0
1553635088.920,24.902,38.086,31.250,70.312,39.551,0
1553635088.924,24.902,36.621,31.738,71.777,85.449,0
1553635088.928,21.973,36.621,27.832,75.195,17.578,0
1553635088.932,25.879,36.621,29.297,75.684,3.906,0
1553635088.936,28.809,38.574,29.297,67.871,64.453,0
1553635088.940,33.203,38.086,29.785,74.707,78.613,0
1553635088.944,35.645,35.156,28.809,79.102,23.438,0
1553635088.947,30.762,36.621,26.855,73.242,46.875,0
1553635088.951,24.902,34.180,28.320,76.660,88.379,0
1553635088.955,26.367,31.250,30.273,85.938,72.754,0
1553635088.959,39.062,35.645,28.809,83.496,26.367,0
1553635088.963,47.363,37.109,26.855,81.543,22.461,0
1553635088.967,47.363,35.156,28.320,83.496,26.855,0
1553635088.971,41.992,36.133,29.785,81.543,-12.695,0
1553635088.975,33.203,37.109,30.762,74.219,16.113,0
1553635088.979,21.484,34.180,29.785,72.266,40.039,0
1553635088.983,17.578,34.180,29.297,77.148,20.508,0
1553635088.987,21.484,34.180,31.738,80.566,39.062,0
1553635088.990,23.926,30.762,31.250,75.684,54.688,0
1553635088.994,23.926,31.738,28.320,70.801,35.645,0
1553635088.998,23.438,28.320,29.297,67.383,35.645,0
1553635089.002,20.996,27.344,30.762,61.523,46.387,0
1553635089.006,25.391,34.180,29.297,64.941,45.410,0
1553635089.010,32.715,35.645,25.391,64.941,0.000,0
1553635089.014,34.668,35.645,25.391,65.430,27.832,0
1553635089.018,29.297,34.668,26.367,64.453,34.180,0
1553635089.022,29.297,36.133,27.832,59.082,-3.418,0
1553635089.026,30.273,36.621,29.297,62.012,39.062,0
1553635089.030,34.668,35.156,27.344,58.594,44.922,0
1553635089.033,36.133,35.156,29.785,57.129,18.555,0
1553635089.037,25.391,32.715,29.297,52.734,62.012,0
1553635089.041,29.297,33.203,24.414,51.270,32.715,0
1553635089.045,29.297,32.715,25.879,53.711,-12.695,0
1553635089.049,13.184,30.273,26.367,45.898,-12.695,0
1553635089.053,7.324,30.273,23.926,47.363,13.184,0
1553635089.057,18.066,31.738,24.414,59.570,15.625,0
1553635089.061,26.367,30.273,25.879,55.176,21.973,0
1553635089.065,25.391,32.227,27.832,49.805,20.508,0
1553635089.069,28.320,37.109,29.297,55.176,-12.207,0
1553635089.072,41.992,37.598,29.297,57.617,-15.137,0
1553635089.076,33.203,37.109,29.785,55.176,18.066,0
1553635089.080,22.949,31.738,30.273,58.105,16.113,0
1553635089.084,51.270,29.785,30.273,73.242,12.695,0
1553635089.088,47.852,42.969,24.414,69.336,36.621,0
1553635089.092,30.273,52.734,15.625,48.340,29.297,0
1553635089.096,31.738,52.734,12.695,45.410,7.812,0
1553635089.100,28.320,55.664,10.254,43.457,27.832,0
1553635089.104,37.598,60.059,7.324,40.039,36.133,0
1553635089.108,42.969,59.082,7.324,44.434,23.926,0
1553635089.112,42.969,61.523,6.348,47.363,104.004,0
1553635089.115,37.109,60.059,7.812,51.758,108.887,0
1553635089.119,43.457,58.105,10.742,52.734,24.414,0
1553635089.123,48.828,60.059,10.254,57.129,40.039,0
1553635089.127,46.875,56.641,12.207,53.223,58.594,0
1553635089.131,41.992,56.152,10.742,65.430,69.336,0
1553635089.135,38.086,56.641,10.742,65.918,108.398,0
1553635089.139,43.945,57.617,10.742,45.898,65.918,0
1553635089.143,45.410,58.105,7.812,59.570,46.387,0
1553635089.147,58.105,56.152,9.277,65.918,44.922,0
1553635089.151,56.152,58.105,12.207,65.918,-0.488,0
1553635089.155,43.457,58.594,11.719,68.359,36.621,0
1553635089.158,49.316,55.664,12.207,68.359,21.973,0
1553635089.162,56.152,53.711,13.672,65.918,36.133,0
1553635089.166,52.734,50.781,14.160,64.941,67.871,0
1553635089.170,48.828,48.828,16.113,65.430,12.695,0
1553635089.174,41.016,49.805,12.695,70.312,17.090,0
1553635089.178,38.086,48.340,16.113,75.684,18.066,0
1553635089.182,50.293,50.293,18.555,65.918,12.695,0
1553635089.186,48.340,53.223,17.578,62.988,43.457,0
1553635089.190,44.922,47.852,22.461,77.148,14.160,0
1553635089.194,41.504,43.457,22.461,66.895,31.738,0
1553635089.197,25.391,42.480,20.020,51.758,47.363,0
1553635089.201,28.320,42.480,21.484,61.523,19.531,0
1553635089.205,45.898,44.434,20.020,61.035,19.043,0
1553635089.209,39.062,43.945,19.043,56.641,28.320,0
1553635089.213,34.668,41.016,20.996,59.570,36.621,0
1553635089.217,42.480,41.016,22.461,58.105,41.992,0
1553635089.221,30.762,41.504,25.391,63.477,53.223,0
1553635089.225,27.832,37.598,25.879,69.824,15.625,0
1553635089.229,30.273,37.109,25.391,55.664,-20.020,0
1553635089.233,20.020,38.574,23.926,45.410,-5.859,0
1553635089.237,22.461,35.156,24.414,62.988,41.504,0
1553635089.240,21.973,35.645,25.879,62.500,17.578,0
1553635089.244,15.625,36.133,24.414,49.316,11.719,0
1553635089.248,18.555,34.668,24.414,56.641,-25.879,0
1553635089.252,20.020,36.621,23.926,59.570,-12.207,0
1553635089.256,20.996,37.109,25.391,64.941,85.938,0
1553635089.260,17.578,36.133,25.391,68.848,37.598,0
1553635089.264,19.043,34.668,26.855,70.312,37.109,0
1553635089.268,18.066,35.156,27.344,61.523,57.617,0
1553635089.272,21.973,38.086,25.391,50.781,0.977,0
1553635089.276,18.555,40.527,25.879,55.664,51.270,0
1553635089.280,20.508,41.992,25.879,58.105,53.711,0
1553635089.283,12.207,41.504,23.926,47.852,8.301,0
1553635089.287,5.371,40.527,25.879,43.945,9.766,0
1553635089.291,25.391,44.434,34.668,53.711,-12.207,0
1553635089.295,8.789,44.434,30.762,44.434,-8.789,0
1553635089.299,-8.789,50.781,28.809,47.852,20.996,0
1553635089.303,-10.742,52.246,33.691,47.852,3.418,0
1553635089.307,-25.879,38.574,29.785,26.855,73.242,0
1553635089.311,-27.832,45.410,30.273,28.809,90.820,0
1553635089.315,-22.949,57.129,32.715,18.066,97.656,0
1553635089.319,-28.320,57.617,34.668,5.371,70.312,0
1553635089.322,-32.227,60.059,36.621,11.719,-28.809,0
1553635089.326,-41.992,67.871,36.621,0.488,1.465,0
1553635089.330,-40.527,67.871,34.180,0.488,-3.418,0
1553635089.334,-43.945,66.406,32.715,12.695,2.930,0
1553635089.338,-57.129,71.289,31.738,-5.859,74.219,0
1553635089.342,-62.988,66.406,33.203,-18.555,41.504,0
1553635089.346,-72.754,66.895,35.156,-25.391,38.574,0
1553635089.350,-75.684,66.406,34.668,-24.902,13.184,0
1553635089.354,-77.148,62.988,38.574,-17.578,-7.324,0
1553635089.358,-84.473,63.965,41.016,-33.691,30.273,0
1553635089.362,-71.289,61.523,39.551,-26.855,55.664,0
1553635089.365,-62.988,60.059,39.551,-6.348,40.527,0
1553635089.369,-65.430,60.059,34.668,-15.137,33.691,0
1553635089.373,-57.129,54.199,33.691,1.465,44.434,0
1553635089.377,-63.965,51.758,36.133,3.906,13.672,0
1553635089.381,-59.082,48.340,34.668,0.488,-10.742,0
1553635089.385,-32.715,43.457,35.156,9.766,16.602,0
1553635089.389,-24.414,42.480,32.715,12.695,19.043,0
1553635089.393,-28.320,41.992,28.809,27.344,21.484,0
1553635089.397,-18.555,41.504,29.297,31.738,26.855,0
1553635089.401,-9.277,40.527,31.738,23.926,1.953,0
1553635089.405,-11.230,37.598,34.180,38.086,32.227,0
1553635089.408,-14.160,33.691,36.621,48.828,79.102,0
1553635089.412,0.488,34.180,35.645,55.176,48.828,0
1553635089.416,14.160,35.645,32.227,62.012,-2.441,0
1553635089.420,4.395,28.809,34.668,56.641,61.523,0
1553635089.424,12.695,28.809,33.203,58.594,67.383,0
1553635089.428,27.344,34.180,30.273,72.266,52.246,0
1553635089.432,29.297,28.809,36.133,76.660,71.289,0
1553635089.436,28.320,27.832,33.691,72.754,-12.207,0
1553635089.440,21.484,30.273,28.320,73.730,-6.836,0
1553635089.444,18.555,27.832,32.715,70.801,8.789,0
1553635089.447,23.438,30.273,31.250,69.336,43.945,0
1553635089.451,27.832,30.762,28.320,71.777,57.129,0
1553635089.455,28.320,28.320,28.320,83.496,4.883,0
1553635089.459,30.762,30.273,29.297,86.426,61.035,0
1553635089.463,38.574,29.297,30.273,73.730,103.516,0
1553635089.467,39.551,27.344,31.738,68.359,114.258,0
1553635089.471,35.156,29.297,31.250,69.336,70.801,0
1553635089.475,38.574,30.273,28.809,74.219,30.273,0
1553635089.479,41.992,28.809,30.762,72.754,59.082,0
1553635089.483,34.180,26.367,30.273,66.406,31.738,0
1553635089.487,30.273,23.438,26.855,62.012,20.020,0
1553635089.490,30.273,23.926,31.250,76.660,32.227,0
1553635089.494,35.645,25.879,31.738,75.684,14.648,0
1553635089.498,34.180,26.367,28.320,62.500,18.066,0
1553635089.502,37.109,24.902,28.320,62.988,54.199,0
1553635089.506,48.340,25.391,27.832,59.082,28.320,0
1553635089.510,34.180,26.367,26.855,56.152,-23.926,0
1553635089.514,29.785,25.879,29.785,70.312,31.738,0
1553635089.518,40.039,27.832,28.809,71.777,75.684,0
1553635089.522,33.203,25.391,27.832,53.711,21.973,0
1553635089.526,26.855,24.414,29.785,47.852,22.949,0
1553635089.530,33.203,24.902,27.344,51.758,65.918,0
1553635089.533,29.785,26.855,25.879,42.969,31.738,0
1553635089.537,29.785,28.320,24.902,41.504,-18.066,0
1553635089.541,37.109,29.785,23.926,52.734,-20.996,0
1553635089.545,39.062,29.785,23.926,49.316,1.465,0
1553635089.549,36.133,30.273,20.996,36.133,-15.137,0
1553635089.553,27.344,30.273,22.461,37.598,-3.906,0
1553635089.557,30.273,27.344,27.832,44.922,12.695,0
1553635089.561,39.551,29.297,25.391,49.316,38.574,0
1553635089.565,40.039,29.785,24.902,45.898,45.410,0
1553635089.569,41.016,26.367,27.344,45.898,25.391,0
1553635089.572,35.645,25.879,27.344,56.152,11.719,0
1553635089.576,20.996,26.855,27.344,54.199,18.066,0
1553635089.580,46.387,25.879,26.855,51.758,52.246,0
1553635089.584,45.410,23.438,29.297,53.223,38.086,0
1553635089.588,25.879,22.461,30.762,54.199,-3.418,0
1553635089.592,41.016,22.949,29.297,62.988,-37.109,0
1553635089.596,38.086,24.414,27.344,68.359,-51.758,0
1553635089.600,30.273,24.902,28.809,79.102,-11.230,0
1553635089.604,27.344,26.855,31.738,78.613,30.273,0
1553635089.608,31.738,30.762,31.738,57.129,17.578,0
1553635089.612,45.898,30.273,29.297,70.801,33.203,0
1553635089.615,36.133,28.809,30.762,93.262,41.016,0
1553635089.619,20.020,28.809,32.227,69.824,21.973,0
1553635089.623,22.949,29.785,30.762,66.895,30.762,0
1553635089.627,23.926,29.297,26.855,78.613,26.367,0
1553635089.631,31.738,28.320,27.832,75.195,65.430,0
1553635089.635,37.109,26.855,27.344,74.707,94.727,0
1553635089.639,24.414,28.809,25.879,76.660,13.184,0
1553635089.643,27.344,33.203,26.367,73.730,-62.500,0
1553635089.647,33.691,28.809,28.320,66.895,-28.320,0
1553635089.651,34.668,26.367,30.273,66.406,40.527,0
1553635089.655,26.855,28.320,28.320,78.613,79.102,0
1553635089.658,21.484,27.344,27.344,74.707,58.105,0
1553635089.662,35.156,25.391,29.785,70.801,22.461,0
1553635089.666,25.879,25.391,28.809,75.684,51.270,0
1553635089.670,15.625,27.832,26.367,60.547,39.551,0
1553635089.674,23.926,29.785,29.297,57.129,44.922,0
1553635089.678,24.414,28.809,28.320,71.289,77.148,0
1553635089.682,29.785,34.180,24.902,76.660,22.949,0
1553635089.686,23.438,35.156,26.855,65.430,77.148,0
1553635089.690,26.367,28.809,28.809,66.406,86.426,0
1553635089.694,31.250,28.320,30.762,79.590,47.363,0
1553635089.697,22.949,33.203,26.367,73.730,101.074,0
1553635089.701,40.527,35.645,19.531,72.266,97.168,0
1553635089.705,61.035,32.227,24.414,82.031,44.434,0
1553635089.709,45.410,26.367,40.039,69.336,27.344,0
1553635089.713,14.160,20.508,43.945,50.293,2.930,0
1553635089.717,14.648,11.230,42.480,62.012,12.695,0
1553635089.721,23.926,7.324,44.434,76.172,60.547,0
1553635089.725,30.273,5.859,43.945,64.453,1.953,0
1553635089.729,25.391,0.000,48.828,60.059,-36.621,0
1553635089.733,12.695,-0.488,49.805,61.035,24.902,0
1553635089.737,21.484,3.418,44.922,67.871,40.527,0
1553635089.740,23.438,4.883,41.504,60.059,39.062,0
1553635089.744,25.879,6.836,41.504,66.406,45.898,0
1553635089.748,30.273,9.277,40.527,67.383,60.059,0
1553635089.752,36.621,11.230,39.062,58.594,40.039,0
1553635089.756,40.039,13.672,41.016,77.637,35.645,0
1553635089.760,29.297,14.160,38.086,73.242,34.180,0
1553635089.764,23.926,13.672,36.133,57.617,-14.648,0
1553635089.768,38.574,15.625,36.621,57.617,15.625,0
1553635089.772,36.133,18.555,38.574,69.336,41.504,0
1553635089.776,31.738,19.043,39.062,79.590,89.844,0
1553635089.780,39.062,20.508,36.133,58.105,67.383,0
1553635089.783,24.902,22.949,33.691,46.387,-17.090,0
1553635089.787,13.672,17.090,37.109,59.570,-18.555,0
1553635089.791,24.902,15.137,39.551,64.941,33.203,0
1553635089.795,21.973,21.484,36.621,62.012,61.035,0
1553635089.799,25.879,23.438,37.598,59.570,-13.184,0
1553635089.803,44.922,23.438,36.621,64.453,7.812,0
1553635089.807,43.945,22.461,33.203,58.105,40.527,0
1553635089.811,28.320,25.879,33.203,57.617,42.969,0
1553635089.815,27.344,26.367,34.180,51.758,70.312,0
1553635089.819,41.504,30.273,31.738,49.316,38.574,0
1553635089.822,41.992,31.738,31.250,56.641,-3.906,0
1553635089.826,41.992,27.344,32.227,61.035,33.691,0
1553635089.830,45.898,26.367,29.297,64.941,45.410,0
1553635089.834,39.551,26.855,31.250,54.688,-4.883,0
1553635089.838,28.809,26.855,30.762,52.246,6.348,0
1553635089.842,31.250,28.809,28.320,44.922,44.922,0
1553635089.846,31.250,32.715,30.762,49.316,17.090,0
1553635089.850,40.527,36.133,27.832,59.082,0.000,0
1553635089.854,45.898,34.180,26.367,50.781,46.387,0
1553635089.858,27.344,32.715,31.738,56.152,48.340,0
1553635089.862,30.273,35.156,32.227,71.289,39.551,0
1553635089.865,38.086,35.156,28.809,68.359,61.035,0
1553635089.869,19.531,35.156,30.762,56.641,83.008,0
1553635089.873,10.742,34.668,28.320,45.898,91.309,0
1553635089.877,25.391,30.762,25.391,43.457,75.195,0
1553635089.881,20.996,32.227,25.391,46.875,67.871,0
1553635089.885,20.996,32.227,24.902,49.316,90.820,0
1553635089.889,21.973,30.273,26.855,48.828,86.914,0
1553635089.893,11.230,30.273,27.344,48.340,69.824,0
1553635089.897,12.695,29.785,26.367,54.199,37.598,0
1553635089.901,26.367,34.668,22.461,49.805,-3.418,0
1553635089.905,16.113,35.156,19.531,42.480,20.508,0
1553635089.908,1.465,30.273,25.391,57.617,3.418,0
1553635089.912,18.066,31.738,26.855,62.012,17.090,0
1553635089.916,28.809,34.668,21.484,58.594,56.641,0
1553635089.920,34.668,30.273,30.273,69.824,28.809,0
1553635089.924,23.438,30.762,28.320,53.223,8.301,0
1553635089.928,26.367,31.738,21.973,51.758,21.973,0
1553635089.932,18.066,30.273,24.902,47.852,36.133,0
1553635089.936,13.672,33.203,24.902,39.062,36.133,0
1553635089.940,40.527,34.180,24.902,56.152,62.012,0
1553635089.944,13.184,30.762,20.996,38.086,-12.207,0
1553635089.947,11.719,23.438,23.438,50.293,-59.570,0
1553635089.951,25.879,26.367,26.367,79.102,38.574,0
1553635089.955,21.484,32.715,24.902,35.156,86.914,0
1553635089.959,20.996,31.738,26.367,41.016,54.199,0
1553635089.963,0.977,27.344,24.414,50.293,6.348,0
1553635089.967,15.137,28.809,29.297,39.551,4.883,0
1553635089.971,16.602,34.180,28.320,44.922,13.184,0
1553635089.975,9.277,36.133,24.414,36.621,-33.691,0
1553635089.979,32.227,35.156,26.855,54.199,20.508,0
1553635089.983,19.043,34.668,24.414,66.895,51.270,0
1553635089.987,15.137,36.621,24.414,34.668,-4.395,0
1553635089.990,35.156,37.109,24.902,37.598,3.906,0
1553635089.994,35.645,36.621,24.414,71.289,14.160,0
1553635089.998,28.809,32.227,31.738,71.289,45.410,0
1553635090.002,24.902,31.738,33.691,77.148,38.086,0
1553635090.006,40.527,36.133,30.762,60.547,6.348,0
1553635090.010,42.969,38.086,28.320,38.574,37.598,0
1553635090.014,22.461,39.062,25.879,60.059,57.129,0
1553635090.018,26.855,40.039,25.879,81.543,8.789,0
1553635090.022,48.340,38.086,27.832,71.777,8.301,0
1553635090.026,43.945,39.551,25.879,62.500,67.871,0
1553635090.030,23.438,47.363,22.461,57.129,28.320,0
1553635090.033,38.086,41.016,28.320,74.219,-10.254,0
1553635090.037,55.664,35.645,29.297,75.684,2.441,0
1553635090.041,34.180,42.969,21.973,62.988,-33.203,0
1553635090.045,25.879,41.992,24.414,80.078,-36.621,0
1553635090.049,61.035,42.480,27.832,71.777,19.043,0
1553635090.053,70.801,43.457,28.809,64.941,26.855,0
1553635090.057,39.551,37.598,31.250,83.008,-53.223,0
1553635090.061,34.668,36.621,26.855,69.824,-76.172,0
1553635090.065,23.438,36.133,21.484,60.059,25.391,0
1553635090.069,36.621,32.715,21.973,51.758,39.062,0
1553635090.072,47.363,36.133,20.996,44.922,26.367,0
1553635090.076,30.273,37.598,20.996,62.012,19.043,0
1553635090.080,31.738,34.180,17.090,57.617,35.645,0
1553635090.084,28.809,34.180,17.090,36.621,12.695,0
1553635090.088,29.297,37.598,15.625,32.715,6.348,0
1553635090.092,36.133,36.133,14.160,48.340,52.734,0
1553635090.096,30.762,33.691,24.414,55.176,29.785,0
1553635090.100,48.828,34.668,22.949,55.176,-29.297,0
1553635090.104,42.480,31.738,23.926,63.477,-34.668,0
1553635090.108,32.227,32.227,22.949,54.199,40.527,0
1553635090.112,39.062,37.109,18.066,49.316,64.453,0
1553635090.115,19.043,31.250,26.367,59.082,28.809,0
1553635090.119,24.902,32.715,22.461,49.316,36.133,0
1553635090.123,46.387,40.527,15.625,57.129,58.105,0
1553635090.127,30.273,33.203,23.438,66.406,15.137,0
1553635090.131,9.277,33.691,14.648,38.574,-27.344,0
1553635090.135,18.555,38.574,13.184,54.688,6.836,0
1553635090.139,14.160,37.109,20.996,62.500,12.207,0
1553635090.143,21.484,35.645,21.484,41.504,23.926,0
1553635090.147,59.570,38.574,23.926,48.828,45.410,0
1553635090.151,47.363,39.551,20.996,43.945,25.879,0
1553635090.155,17.090,35.156,24.414,36.621,33.203,0
1553635090.158,3.418,33.691,21.484,24.414,15.625,0
1553635090.162,-10.742,32.227,14.160,20.508,-44.434,0
1553635090.166,18.555,35.645,20.020,51.758,-28.320,0
1553635090.170,32.227,39.062,15.625,48.340,14.160,0
1553635090.174,10.742,32.715,18.066,35.645,-17.578,0
1553635090.178,7.324,28.320,34.180,51.270,-25.879,0
1553635090.182,16.602,29.785,30.273,51.758,20.996,0
1553635090.186,6.836,27.832,20.996,36.621,16.602,0
1553635090.190,14.648,38.574,14.160,15.625,15.625,0
1553635090.194,24.414,42.969,23.438,38.574,67.383,0
1553635090.197,15.625,33.203,26.367,44.922,67.871,0
1553635090.201,13.672,32.227,21.484,34.180,26.367,0
1553635090.205,28.809,38.086,22.949,48.828,0.000,0
1553635090.209,15.625,40.527,15.137,45.410,45.410,0
1553635090.213,4.395,40.039,14.160,48.340,43.945,0
1553635090.217,5.859,38.086,22.461,49.316,19.531,0
1553635090.221,-9.277,39.551,20.996,31.250,70.801,0
1553635090.225,14.648,41.504,20.508,50.781,80.078,0
1553635090.229,18.555,37.598,22.461,57.617,47.363,0
1553635090.233,-9.766,34.668,24.902,51.270,55.664,0
1553635090.237,7.812,38.574,25.879,53.223,52.246,0
1553635090.240,19.043,43.457,20.996,39.062,53.711,0
1553635090.244,3.418,42.969,21.973,37.109,55.664,0
1553635090.248,6.836,41.992,21.484,44.434,54.688,0
1553635090.252,-4.883,33.691,21.973,36.621,46.875,0
1553635090.256,-5.371,38.086,22.461,28.320,11.719,0
1553635090.260,24.902,51.270,16.113,26.855,61.523,0
1553635090.264,9.277,41.992,20.996,54.199,115.234,0
1553635090.268,-2.930,35.156,29.297,66.406,44.922,0
1553635090.272,11.230,40.039,22.461,31.738,44.922,0
1553635090.276,-12.207,35.645,24.414,34.180,53.223,0
1553635090.280,-28.320,35.645,25.879,41.992,-4.395,0
1553635090.283,-14.160,41.016,19.531,37.109,-1.465,0
1553635090.287,5.859,39.551,20.508,38.574,29.785,0
1553635090.291,6.348,42.969,25.391,41.016,57.129,0
1553635090.295,-12.207,44.922,26.367,43.945,46.387,0
1553635090.299,-19.043,43.945,25.391,30.273,33.691,0
1553635090.303,-11.230,48.828,23.438,42.480,53.223,0
1553635090.307,-11.719,41.992,22.461,34.180,79.102,0
1553635090.311,-24.414,47.363,23.926,0.977,85.449,0
1553635090.315,-31.250,56.641,20.020,13.672,15.625,0
1553635090.319,-34.180,46.875,24.902,16.113,-4.883,0
1553635090.322,-46.875,53.711,34.668,-5.371,30.273,0
1553635090.326,-43.457,62.012,25.391,-15.137,23.926,0
1553635090.330,-36.621,56.641,25.391,-4.395,38.574,0
1553635090.334,-36.621,60.059,33.203,10.254,29.785,0
1553635090.338,-59.570,66.406,34.668,-10.254,-15.137,0
1553635090.342,-59.570,70.312,33.691,-18.555,29.785,0
1553635090.346,-46.387,73.730,25.879,-9.766,89.844,0
1553635090.350,-60.059,74.219,26.367,-20.508,128.418,0
1553635090.354,-69.336,76.172,30.762,-20.996,117.676,0
1553635090.358,-72.754,78.125,29.785,-30.762,25.879,0
1553635090.362,-62.988,75.195,33.691,-15.625,36.621,0
1553635090.365,-77.637,79.102,32.227,-23.438,55.176,0
1553635090.369,-88.379,83.008,28.320,-41.016,67.871,0
1553635090.373,-56.641,73.242,31.250,-12.695,59.082,0
1553635090.377,-56.152,71.777,32.715,-4.395,11.719,0
1553635090.381,-54.688,73.242,28.320,-19.531,21.484,0
1553635090.385,-46.875,67.871,31.250,-5.859,54.199,0
1553635090.389,-55.176,64.941,34.180,10.742,53.711,0
1553635090.393,-34.180,63.477,29.297,2.930,54.688,0
1553635090.397,-10.742,60.059,32.227,13.672,59.570,0
1553635090.401,-19.043,61.035,32.715,29.297,-6.348,0
1553635090.405,3.418,61.035,30.273,48.340,-14.160,0
1553635090.408,19.043,51.270,33.691,56.152,32.715,0
1553635090.412,19.043,48.828,31.738,58.594,19.531,0
1553635090.416,11.719,49.805,29.297,69.336,18.066,0
1553635090.420,14.160,45.410,30.273,73.730,44.922,0
1553635090.424,22.461,43.945,28.320,67.871,45.410,0
1553635090.428,18.555,41.504,32.227,70.312,48.340,0
1553635090.432,37.598,41.992,33.691,85.449,-3.418,0
1553635090.436,55.176,41.992,29.297,88.379,5.371,0
1553635090.440,43.457,35.156,32.227,88.867,30.762,0
1553635090.444,35.156,34.668,31.738,106.445,-12.207,0
1553635090.447,45.898,37.598,29.297,103.516,36.133,0
1553635090.451,40.039,32.715,31.250,104.492,45.410,0
1553635090.455,37.598,31.250,31.738,108.887,50.293,0
1553635090.459,39.062,32.715,33.691,104.980,53.711,0
1553635090.463,36.621,30.762,34.668,93.750,-12.207,0
1553635090.467,35.645,32.715,29.297,82.520,32.227,0
1553635090.471,51.270,35.645,25.391,87.402,51.758,0
1553635090.475,47.852,32.715,29.297,95.703,-31.250,0
1553635090.479,46.875,28.809,31.250,105.469,9.277,0
1553635090.483,41.016,25.391,31.738,98.633,34.180,0
1553635090.487,33.691,26.367,28.320,100.098,-17.090,0
1553635090.490,45.410,28.320,29.297,101.074,2.441,0
1553635090.494,46.387,27.344,32.715,105.957,-3.906,0
1553635090.498,27.344,24.902,33.203,118.652,-19.043,0
1553635090.502,22.949,23.438,33.691,108.398,64.941,0
1553635090.506,29.297,24.414,29.297,93.750,64.941,0
1553635090.510,32.227,24.414,24.902,94.727,-2.930,0
1553635090.514,36.621,26.855,25.391,94.727,44.922,0
1553635090.518,46.387,26.855,28.320,100.586,85.449,0
1553635090.522,48.340,28.320,30.273,108.398,46.387,0
1553635090.526,30.273,29.785,27.832,107.422,16.602,0
1553635090.530,31.250,29.785,23.438,101.074,8.301,0
1553635090.533,30.273,28.809,25.879,85.449,30.273,0
1553635090.537,23.926,26.367,25.391,82.031,39.062,0
1553635090.541,28.809,26.855,24.902,91.309,20.996,0
1553635090.545,33.203,28.809,26.367,90.332,8.301,0
1553635090.549,36.621,30.762,21.973,93.262,40.527,0
1553635090.553,47.363,31.250,19.531,106.445,61.035,0
1553635090.557,54.688,31.738,22.461,108.887,20.996,0
1553635090.561,49.316,32.715,23.438,98.145,15.625,0
1553635090.565,47.852,36.133,17.090,96.680,53.223,0
1553635090.569,54.688,35.156,17.090,107.910,-4.395,0
1553635090.572,52.246,26.855,24.414,118.652,-6.836,0
1553635090.576,50.781,27.832,23.438,117.188,-18.066,0
1553635090.580,51.758,31.738,27.832,114.746,-14.160,0
1553635090.584,54.199,30.273,31.250,125.977,50.293,0
1553635090.588,52.734,33.203,22.949,116.211,69.824,0
1553635090.592,50.293,34.180,23.926,105.957,64.453,0
1553635090.596,49.805,33.691,28.809,115.234,37.598,0
1553635090.600,41.016,32.715,27.832,123.535,15.137,0
1553635090.604,37.109,33.691,28.320,132.324,-0.488,0
1553635090.608,41.504,35.156,26.855,113.281,-0.977,0
1553635090.612,48.340,37.109,23.926,98.145,26.367,0
1553635090.615,43.945,31.250,27.344,111.328,-6.348,0
1553635090.619,34.180,27.344,32.715,109.375,-2.441,0
1553635090.623,35.156,33.203,29.785,98.145,39.062,0
1553635090.627,42.480,34.180,29.785,111.816,27.344,0
1553635090.631,40.527,34.180,32.715,116.699,80.566,0
1553635090.635,32.227,32.227,32.715,125.000,32.715,0
1553635090.639,50.781,22.461,38.574,146.484,38.574,0
1553635090.643,53.711,26.367,40.039,134.277,99.609,0
1553635090.647,30.762,42.480,28.809,101.562,6.836,0
1553635090.651,10.742,51.270,19.043,84.961,-20.020,0
1553635090.655,22.949,49.805,20.508,99.609,61.035,0
1553635090.658,31.738,51.270,20.508,101.074,67.871,0
1553635090.662,14.648,55.664,18.066,97.168,-3.418,0
1553635090.666,9.766,56.152,16.113,91.309,24.902,0
1553635090.670,8.789,59.082,14.648,83.984,42.480,0
1553635090.674,4.883,54.688,16.602,77.637,13.672,0
1553635090.678,3.906,49.805,15.625,69.824,73.242,0
1553635090.682,-2.441,47.852,17.090,69.824,38.086,0
1553635090.686,10.742,49.805,16.602,84.473,-16.602,0
1553635090.690,15.625,48.828,16.113,95.703,35.645,0
1553635090.694,4.395,43.945,20.508,86.426,40.039,0
1553635090.697,11.719,46.875,19.043,75.195,9.766,0
1553635090.701,14.160,45.410,20.996,92.285,19.043,0
1553635090.705,13.184,41.992,23.438,100.586,46.875,0
1553635090.709,10.742,44.922,19.043,86.426,5.859,0
1553635090.713,13.184,44.922,17.578,82.031,-2.930,0
1553635090.717,16.113,40.039,20.996,86.426,18.066,0
1553635090.721,1.953,39.062,20.020,92.773,30.762,0
1553635090.725,-1.953,37.109,19.043,79.102,49.805,0
1553635090.729,7.812,34.180,20.996,78.613,32.227,0
1553635090.733,15.137,33.691,20.508,90.820,16.602,0
1553635090.737,2.441,31.250,22.949,80.078,44.434,0
1553635090.740,4.395,33.203,19.043,76.172,95.215,0
1553635090.744,19.531,34.668,17.578,85.938,82.520,0
1553635090.748,27.344,36.133,23.438,97.656,14.160,0
1553635090.752,32.227,41.016,21.973,95.703,39.551,0
1553635090.756,20.508,37.109,20.020,96.191,42.969,0
1553635090.760,4.883,33.203,25.391,91.797,15.137,0
1553635090.764,5.371,37.109,24.414,88.867,62.012,0
1553635090.768,16.602,37.598,25.391,97.656,100.586,0
1553635090.772,17.578,36.133,26.367,93.262,102.539,0
1553635090.776,11.719,38.086,21.973,70.312,35.645,0
1553635090.780,12.695,35.645,23.926,68.359,-11.719,0
1553635090.783,17.090,37.109,24.414,87.891,25.391,0
1553635090.787,15.625,35.156,27.344,89.844,95.703,0
1553635090.791,16.602,31.738,29.297,83.984,45.410,0
1553635090.795,23.926,32.715,25.391,90.332,17.090,0
1553635090.799,23.438,33.691,27.344,87.402,42.969,0
1553635090.803,20.020,34.180,28.809,82.031,24.902,0
1553635090.807,17.578,36.621,28.320,85.938,0.977,0
1553635090.811,25.391,40.039,25.879,80.566,23.926,0
1553635090.815,25.391,37.109,28.320,95.703,57.129,0
1553635090.819,14.160,33.203,25.879,93.262,53.223,0
1553635090.822,15.137,35.645,21.973,70.801,75.195,0
1553635090.826,27.832,35.645,27.832,72.266,19.043,0
1553635090.830,23.926,32.715,28.320,63.965,7.324,0
1553635090.834,30.273,36.133,26.367,72.266,36.133,0
1553635090.838,38.086,41.992,28.320,89.844,5.859,0
1553635090.842,35.156,37.109,31.738,86.426,53.711,0
1553635090.846,26.367,35.645,27.832,85.938,25.391,0
1553635090.850,14.648,37.109,26.367,88.867,37.109,0
1553635090.854,11.719,32.227,30.273,81.543,49.316,0
1553635090.858,15.137,30.762,26.367,71.777,50.293,0
1553635090.862,19.531,32.715,25.391,75.195,78.125,0
1553635090.865,31.738,35.645,28.320,83.984,19.043,0
1553635090.869,29.785,37.109,26.367,94.238,29.785,0
1553635090.873,30.762,36.621,26.367,85.449,27.832,0
1553635090.877,36.133,39.062,25.391,61.523,69.336,0
1553635090.881,24.902,39.062,27.832,69.336,115.723,0
1553635090.885,19.043,36.133,29.785,78.125,78.613,0
1553635090.889,20.020,34.668,26.855,78.613,54.199,0
1553635090.893,24.902,34.668,25.879,59.570,24.902,0
1553635090.897,25.879,38.086,23.438,47.363,-11.719,0
1553635090.901,25.391,38.574,25.879,61.523,16.602,0
1553635090.905,16.602,37.109,28.320,65.918,33.691,0
1553635090.908,16.113,38.574,29.297,71.289,-0.488,0
1553635090.912,18.555,38.574,27.344,69.824,-9.277,0
1553635090.916,19.531,37.109,25.879,58.594,4.883,0
1553635090.920,22.461,33.691,29.297,62.012,-0.488,0
1553635090.924,20.020,36.621,26.367,70.312,5.859,0
1553635090.928,31.738,37.109,28.320,66.895,22.949,0
1553635090.932,26.855,36.133,29.297,59.570,13.184,0
1553635090.936,13.672,36.133,28.320,65.430,12.207,0
1553635090.940,18.555,35.645,32.715,70.801,24.902,0
1553635090.944,15.137,41.016,32.227,65.430,42.480,0
1553635090.947,18.066,36.621,31.738,70.801,-0.488,0
1553635090.951,11.719,36.133,32.227,62.012,28.809,0
1553635090.955,-3.418,38.086,27.832,52.734,72.754,0
1553635090.959,10.742,33.691,29.785,68.359,36.133,0
1553635090.963,22.461,33.203,34.180,65.430,46.387,0
1553635090.967,19.531,34.668,30.762,49.316,32.715,0
1553635090.971,28.320,42.969,21.484,57.617,18.555,0
1553635090.975,39.551,39.551,23.438,73.730,45.898,0
1553635090.979,26.367,32.227,35.156,72.266,22.461,0
1553635090.983,3.418,28.320,40.039,61.035,16.602,0
1553635090.987,2.441,18.555,42.969,55.176,30.762,0
1553635090.990,10.742,14.648,44.434,64.941,45.898,0
1553635090.994,11.230,14.648,43.457,89.355,35.645,0
1553635090.998,6.836,7.324,45.898,91.797,-22.461,0
1553635091.002,8.789,4.395,47.852,72.754,10.254,0
1553635091.006,17.090,7.324,46.875,67.383,66.406,0
1553635091.010,27.832,5.859,47.852,60.547,48.340,0
1553635091.014,19.531,8.789,44.434,71.289,32.227,0
1553635091.018,2.441,11.719,41.992,72.754,17.090,0
1553635091.022,13.184,12.207,41.016,69.336,14.648,0
1553635091.026,18.066,15.625,42.480,88.379,39.551,0
1553635091.030,15.625,19.043,43.945,92.773,13.184,0
1553635091.033,14.648,20.020,42.969,73.730,-37.598,0
1553635091.037,19.043,19.531,41.016,79.590,1.953,0
1553635091.041,11.230,19.531,38.574,72.754,31.250,0
1553635091.045,1.953,22.461,38.574,54.199,65.430,0
1553635091.049,15.137,25.879,36.133,58.594,55.176,0
1553635091.053,12.695,25.879,36.133,72.266,-12.695,0
1553635091.057,18.066,24.414,40.527,73.730,17.090,0
1553635091.061,23.926,26.367,39.551,72.266,37.109,0
1553635091.065,20.508,28.809,35.645,62.012,55.664,0
1553635091.069,28.320,27.344,34.668,52.246,49.805,0
1553635091.072,24.902,26.855,37.109,62.500,15.137,0
1553635091.076,5.859,29.297,36.133,67.383,57.129,0
1553635091.080,-9.277,28.320,34.180,65.918,72.754,0
1553635091.084,2.441,25.879,38.086,74.219,22.461,0
1553635091.088,15.137,25.879,36.621,74.707,11.719,0
1553635091.092,20.020,30.762,32.715,63.965,3.906,0
1553635091.096,2.930,30.762,34.180,72.754,-32.227,0
1553635091.100,-6.348,25.879,35.156,74.219,4.395,0
1553635091.104,5.371,24.902,35.645,63.965,7.324,0
1553635091.108,1.953,29.785,31.250,58.594,-6.836,0
1553635091.112,-3.906,30.762,28.320,57.129,3.418,0
1553635091.115,-11.230,27.344,31.250,61.035,47.852,0
1553635091.119,-5.371,30.762,31.250,66.406,108.398,0
1553635091.123,-0.977,33.691,31.250,68.359,33.203,0
1553635091.127,-9.277,32.227,31.738,54.688,31.250,0
1553635091.131,0.977,33.203,28.809,54.688,39.551,0
1553635091.135,20.020,31.250,27.832,65.918,-11.230,0
1553635091.139,22.461,31.250,29.785,79.102,44.922,0
1553635091.143,35.645,35.645,23.926,89.844,57.617,0
1553635091.147,15.625,27.344,30.762,82.031,31.738,0
1553635091.151,-21.484,21.484,38.086,65.918,42.969,0
1553635091.155,-10.742,33.203,28.320,85.938,49.316,0
1553635091.158,24.902,30.762,26.855,88.379,46.875,0
1553635091.162,42.969,21.484,27.832,85.449,-19.043,0
1553635091.166,24.902,24.414,28.320,102.539,5.859,0
1553635091.170,32.227,20.508,29.297,101.562,37.109,0
1553635091.174,55.664,19.043,27.832,103.027,28.809,0
1553635091.178,49.316,21.484,28.809,124.512,54.688,0
1553635091.182,52.246,24.414,27.344,146.484,69.336,0
1553635091.186,64.453,25.879,24.902,142.578,79.102,0
1553635091.190,71.777,22.949,28.809,133.301,70.312,0
1553635091.194,78.613,24.414,31.250,138.184,101.562,0
1553635091.197,56.152,25.391,29.297,148.926,63.965,0
1553635091.201,40.527,26.855,29.785,159.668,8.789,0
1553635091.205,66.895,30.273,29.785,155.273,25.391,0
1553635091.209,80.078,32.227,26.367,133.789,23.438,0
1553635091.213,50.293,35.156,27.344,117.188,-15.137,0
1553635091.217,25.879,36.133,31.250,124.023,-35.156,0
1553635091.221,26.367,34.668,32.715,133.301,20.020,0
1553635091.225,27.832,33.203,30.762,121.094,69.824,0
1553635091.229,31.250,34.668,25.879,117.188,70.312,0
1553635091.233,24.414,43.945,24.414,112.793,32.227,0
1553635091.237,11.719,42.480,23.926,91.309,41.992,0
1553635091.240,9.766,31.250,26.367,93.262,51.758,0
1553635091.244,3.906,34.668,29.785,99.609,63.965,0
1553635091.248,-1.953,38.574,26.367,95.703,79.102,0
1553635091.252,-4.883,38.574,24.414,94.727,19.531,0
1553635091.256,-1.953,38.574,23.438,90.820,39.062,0
1553635091.260,-3.906,38.086,22.461,96.191,76.660,0
1553635091.264,-12.207,35.156,26.367,100.098,24.414,0
1553635091.268,-20.020,37.109,27.344,108.398,27.832,0
1553635091.272,-3.906,39.062,25.879,106.445,64.941,0
1553635091.276,7.324,39.062,24.414,97.168,49.805,0
1553635091.280,-15.137,39.062,24.902,104.004,41.016,0
1553635091.283,-27.344,38.574,27.344,104.004,35.645,0
1553635091.287,-19.531,40.527,28.809,106.445,16.113,0
1553635091.291,-18.066,41.504,26.367,100.586,48.828,0
1553635091.295,-7.324,41.016,24.902,95.703,101.074,0
1553635091.299,-3.418,43.457,25.879,88.867,80.078,0
1553635091.303,-30.762,41.504,27.344,85.449,12.695,0
1553635091.307,-43.457,37.109,29.297,86.914,-19.531,0
1553635091.311,-32.227,40.527,25.879,84.961,16.113,0
1553635091.315,-30.273,42.480,23.438,81.543,21.973,0
1553635091.319,-29.297,40.527,22.461,96.680,28.809,0
1553635091.322,-28.320,39.062,25.879,112.793,-15.625,0
1553635091.326,-38.574,37.109,28.809,99.121,-15.137,0
1553635091.330,-54.688,34.668,27.344,78.125,0.488,0
1553635091.334,-46.387,35.156,31.250,90.820,18.066,0
1553635091.338,-43.457,36.621,31.738,104.004,68.359,0
1553635091.342,-51.758,37.598,30.762,78.613,73.730,0
1553635091.346,-64.453,39.062,27.344,79.102,66.895,0
1553635091.350,-77.637,38.574,26.855,95.215,17.578,0
1553635091.354,-67.871,36.133,26.367,83.984,33.691,0
1553635091.358,-61.035,38.086,26.855,92.285,60.547,0
1553635091.362,-41.504,38.574,31.250,106.445,14.160,0
1553635091.365,-31.250,28.809,37.598,125.488,9.277,0
1553635091.369,-46.387,33.691,33.691,122.559,-19.043,0
1553635091.373,-58.594,52.246,21.973,93.262,-4.395,0
1553635091.377,-53.223,50.293,20.020,104.492,78.125,0
1553635091.381,-29.785,44.922,18.066,115.234,22.949,0
1553635091.385,-43.457,50.781,12.207,112.793,7.812,0
1553635091.389,-78.613,55.664,10.254,122.070,28.809,0
1553635091.393,-71.289,53.711,10.254,117.676,26.367,0
1553635091.397,-45.898,50.293,14.160,117.188,20.508,0
1553635091.401,-48.340,45.410,15.625,121.582,34.668,0
1553635091.405,-65.918,45.898,16.113,128.418,59.082,0
1553635091.408,-69.336,47.363,16.602,113.770,39.551,0
1553635091.412,-67.871,46.387,13.184,109.375,7.812,0
1553635091.416,-67.383,48.828,13.672,122.070,37.598,0
1553635091.420,-69.824,46.875,17.578,130.859,61.035,0
1553635091.424,-67.871,42.969,18.555,129.883,17.578,0
1553635091.428,-77.148,44.434,19.043,133.789,-33.203,0
1553635091.432,-92.285,47.363,18.066,131.836,-13.672,0
1553635091.436,-98.633,45.898,18.066,128.906,78.613,0
1553635091.440,-97.168,44.434,20.020,143.555,74.707,0
1553635091.444,-102.051,43.457,19.043,138.672,33.203,0
1553635091.447,-111.816,48.828,18.555,123.047,62.012,0
1553635091.451,-107.910,50.781,19.531,124.023,33.691,0
1553635091.455,-108.398,41.504,20.996,151.367,24.902,0
1553635091.459,-134.766,39.551,22.461,163.574,99.609,0
1553635091.463,-129.395,39.062,20.996,147.949,80.566,0
1553635091.467,-118.652,43.945,18.066,142.090,27.832,0
1553635091.471,-136.230,44.922,18.555,151.855,83.008,0
1553635091.475,-145.020,38.574,18.555,140.137,116.211,0
1553635091.479,-148.438,37.598,18.066,138.672,46.387,0
1553635091.483,-145.020,41.504,18.555,131.836,54.688,0
1553635091.487,-129.395,40.039,20.508,117.676,104.004,0
1553635091.490,-141.113,39.062,22.949,129.395,99.609,0
1553635091.494,-163.086,43.945,21.484,119.629,30.273,0
1553635091.498,-157.715,42.969,20.996,117.188,24.902,0
1553635091.502,-155.273,38.086,21.973,124.023,36.621,0
1553635091.506,-153.320,38.086,20.996,108.398,-12.695,0
1553635091.510,-150.391,40.039,22.949,124.512,34.180,0
1553635091.514,-159.180,42.480,26.855,148.438,84.961,0
1553635091.518,-166.504,37.598,25.879,132.324,70.801,0
1553635091.522,-160.645,34.668,25.391,115.723,33.203,0
1553635091.526,-147.949,39.551,24.414,110.352,2.930,0
1553635091.530,-133.789,44.922,24.902,113.770,-20.508,0
1553635091.533,-136.719,41.504,28.809,126.465,15.137,0
1553635091.537,-143.066,37.109,27.344,122.559,29.785,0
1553635091.541,-155.762,43.945,27.344,123.047,38.574,0
1553635091.545,-160.156,39.551,30.762,132.812,78.613,0
1553635091.549,-138.184,38.086,30.762,134.766,44.434,0
1553635091.553,-136.719,37.109,32.227,125.000,29.297,0
1553635091.557,-148.438,36.621,31.250,113.770,8.789,0
1553635091.561,-153.809,39.551,25.879,114.258,10.742,0
1553635091.565,-144.531,34.668,26.367,107.422,58.594,0
1553635091.569,-147.949,33.203,31.738,112.305,38.574,0
1553635091.572,-149.414,38.086,30.762,121.094,-21.973,0
1553635091.576,-145.020,35.645,27.832,120.117,22.949,0
1553635091.580,-138.184,32.227,30.762,121.094,45.410,0
1553635091.584,-124.023,33.203,29.297,123.047,42.969,0
1553635091.588,-122.070,36.621,28.320,121.094,95.215,0
1553635091.592,-113.770,37.109,27.832,123.047,37.598,0
1553635091.596,-112.793,38.086,26.367,112.305,16.113,0
1553635091.600,-129.395,36.133,27.344,100.586,30.762,0
1553635091.604,-147.461,26.855,29.297,122.070,57.129,0
1553635091.608,-145.508,27.832,32.227,121.094,60.059,0
1553635091.612,-136.719,33.691,29.785,101.074,39.062,0
1553635091.615,-136.719,30.762,28.809,115.723,65.918,0
1553635091.619,-121.582,33.203,26.367,109.375,64.941,0
1553635091.623,-128.418,31.738,24.414,101.074,-36.133,0
1553635091.627,-137.695,30.762,24.414,98.633,-61.523,0
1553635091.631,-125.977,38.086,22.461,96.191,40.527,0
1553635091.635,-118.652,39.062,27.344,103.027,77.637,0
1553635091.639,-131.348,30.762,32.227,106.934,36.133,0
1553635091.643,-147.461,29.297,32.227,112.305,35.645,0
1553635091.647,-132.324,31.738,32.227,110.352,31.250,0
1553635091.651,-132.812,29.297,29.297,103.027,-0.977,0
1553635091.655,-143.066,32.715,30.762,97.168,12.207,0
1553635091.658,-130.859,34.668,33.203,104.492,45.898,0
1553635091.662,-132.324,34.180,30.762,109.863,16.602,0
1553635091.666,-137.695,41.016,25.879,94.238,9.766,0
1553635091.670,-132.812,35.645,27.344,90.332,88.379,0
1553635091.674,-129.395,33.203,30.762,88.379,41.504,0
1553635091.678,-129.883,40.527,27.832,85.449,19.043,0
1553635091.682,-135.254,38.086,27.832,86.426,87.891,0
1553635091.686,-126.953,30.273,31.250,87.891,69.824,0
1553635091.690,-129.883,32.227,27.832,86.426,28.809,0
1553635091.694,-147.949,41.016,25.879,87.402,58.105,0
1553635091.697,-136.719,31.250,30.762,89.355,46.387,0
1553635091.701,-131.836,27.832,31.738,94.238,7.324,0
1553635091.705,-129.395,31.738,30.762,98.145,30.273,0
1553635091.709,-119.629,32.227,25.879,86.914,-17.090,0
1553635091.713,-129.395,33.691,26.855,72.266,-15.625,0
1553635091.717,-139.648,35.156,25.391,66.895,36.133,0
1553635091.721,-137.695,32.715,24.902,80.566,27.344,0
1553635091.725,-122.070,34.180,27.344,91.309,25.391,0
1553635091.729,-121.094,34.668,25.879,89.844,6.348,0
1553635091.733,-127.441,31.250,28.320,93.750,41.016,0
1553635091.737,-132.812,34.180,30.762,102.051,47.363,0
1553635091.740,-127.930,33.691,28.809,101.562,43.945,0
1553635091.744,-115.234,35.156,25.879,101.074,38.574,0
1553635091.748,-119.629,32.227,33.203,108.398,20.996,0
1553635091.752,-121.094,27.832,32.227,113.281,30.273,0
1553635091.756,-114.258,35.156,29.785,114.746,11.230,0
1553635091.760,-138.672,39.062,37.598,82.520,7.812,0
1553635091.764,-168.945,41.992,35.156,28.320,31.250,0
1553635091.768,-195.801,41.504,32.227,2.441,12.207,0
1553635091.772,-215.332,35.156,34.180,0.488,37.109,0
1553635091.776,-245.117,35.645,30.762,-39.062,34.668,0
1553635091.780,-256.836,39.062,28.320,-59.082,26.367,0
1553635091.783,-277.344,46.875,29.785,-72.266,8.789,0
1553635091.787,-307.617,43.457,21.973,-111.328,-11.230,0
1553635091.791,-304.688,39.551,18.555,-115.723,40.039,0
1553635091.795,-303.223,40.527,23.926,-106.934,62.012,0
1553635091.799,-298.340,40.039,23.926,-111.816,50.781,0
1553635091.803,-296.387,40.527,24.902,-116.211,95.703,0
1553635091.807,-306.641,39.551,24.414,-106.934,91.309,0
1553635091.811,-297.852,46.875,15.625,-104.980,10.254,0
1553635091.815,-264.648,48.828,11.719,-82.520,-27.832,0
1553635091.819,-250.977,36.133,20.020,-60.547,-5.859,0
1553635091.822,-246.094,31.738,25.391,-50.781,66.406,0
1553635091.826,-225.098,35.645,27.344,-31.738,112.305,0
1553635091.830,-208.496,35.156,22.949,-41.992,66.406,0
1553635091.834,-196.289,36.133,20.020,-39.551,12.207,0
1553635091.838,-187.012,35.645,21.973,-12.207,26.367,0
1553635091.842,-182.617,39.062,24.902,-2.441,36.133,0
1553635091.846,-184.082,41.992,22.949,1.465,57.129,0
1553635091.850,-177.734,36.133,17.578,-6.836,19.531,0
1553635091.854,-164.062,37.598,21.973,4.395,-4.883,0
1553635091.858,-145.020,39.551,23.926,39.062,44.922,0
1553635091.862,-130.859,38.574,20.508,44.434,48.828,0
1553635091.865,-142.578,39.062,20.996,28.809,52.246,0
1553635091.869,-145.996,37.109,16.602,29.785,88.379,0
1553635091.873,-135.742,38.086,9.766,36.133,65.430,0
1553635091.877,-134.766,37.109,17.578,40.527,28.809,0
1553635091.881,-126.465,29.785,20.020,37.109,35.156,0
1553635091.885,-115.723,31.738,16.113,43.945,25.879,0
1553635091.889,-111.816,36.133,13.672,51.758,34.668,0
1553635091.893,-96.191,35.645,15.625,62.500,33.691,0
1553635091.897,-88.867,32.715,20.508,64.941,5.859,0
1553635091.901,-93.262,34.180,15.137,53.711,13.672,0
1553635091.905,-105.469,37.598,16.602,57.129,55.176,0
1553635091.908,-108.398,37.598,19.043,56.152,16.113,0
1553635091.912,-99.609,39.551,16.602,51.758,-42.969,0
1553635091.916,-99.609,32.715,20.996,54.199,6.836,0
1553635091.920,-106.445,26.367,24.414,51.270,21.484,0
1553635091.924,-102.051,32.715,22.461,43.945,29.297,0
1553635091.928,-84.473,36.621,20.020,50.293,21.484,0
1553635091.932,-86.426,33.203,21.973,62.500,0.488,0
1553635091.936,-94.238,33.203,22.461,65.430,31.250,0
1553635091.940,-89.844,37.109,24.902,76.172,42.969,0
1553635091.944,-84.961,36.133,26.367,71.289,-8.789,0
1553635091.947,-78.125,32.715,24.414,47.852,-37.598,0
1553635091.951,-85.449,36.621,21.973,48.340,17.090,0
1553635091.955,-93.750,36.133,22.949,61.523,49.805,0
1553635091.959,-95.703,32.227,25.391,55.664,0.488,0
1553635091.963,-98.633,33.691,25.879,45.410,44.434,0
1553635091.967,-92.773,27.344,32.227,68.359,72.754,0
1553635091.971,-83.496,25.879,34.180,77.148,80.566,0
1553635091.975,-98.145,42.480,20.996,41.992,37.109,0
1553635091.979,-111.816,54.199,10.254,19.531,1.953,0
1553635091.983,-101.562,44.922,17.578,28.809,29.785,0
1553635091.987,-98.633,41.992,19.043,41.016,7.324,0
1553635091.990,-104.004,48.340,14.160,30.762,-36.133,0
1553635091.994,-111.816,49.805,15.137,28.320,-32.715,0
1553635091.998,-101.562,45.898,18.555,42.480,60.547,0
1553635092.002,-81.543,43.945,20.996,36.133,48.828,0
1553635092.006,-94.238,47.852,18.066,28.320,16.602,0
1553635092.010,-100.098,46.387,20.020,37.109,30.273,0
1553635092.014,-81.055,45.898,20.508,43.457,55.664,0
1553635092.018,-82.520,50.781,17.090,50.293,72.754,0
1553635092.022,-84.473,49.316,19.531,45.898,26.855,0
1553635092.026,-76.172,43.457,20.508,52.734,-12.695,0
1553635092.030,-63.965,47.363,20.020,64.941,37.598,0
1553635092.033,-68.359,49.805,20.508,57.129,102.539,0
1553635092.037,-79.102,45.898,20.508,60.059,49.805,0
1553635092.041,-77.637,43.945,22.461,54.199,-1.465,0
1553635092.045,-73.242,44.922,21.973,54.199,-25.391,0
1553635092.049,-70.801,45.410,21.484,56.641,10.254,0
1553635092.053,-60.059,47.363,19.531,56.641,16.113,0
1553635092.057,-53.223,46.387,20.508,74.219,-24.902,0
1553635092.061,-65.430,46.875,23.926,87.402,-5.371,0
1553635092.065,-66.406,45.410,21.484,70.801,-3.418,0
1553635092.069,-56.641,38.086,20.996,64.941,1.465,0
1553635092.072,-65.430,41.504,23.438,71.777,2.930,0
1553635092.076,-71.289,42.969,24.414,63.965,1.465,0
1553635092.080,-63.477,39.062,26.855,60.059,14.648,0
1553635092.084,-68.848,37.109,28.320,60.547,50.293,0
1553635092.088,-59.570,39.551,25.879,49.316,57.617,0
1553635092.092,-44.922,40.527,23.438,39.062,61.035,0
1553635092.096,-56.152,38.086,22.949,47.363,90.820,0
1553635092.100,-75.195,43.457,22.461,53.223,95.703,0
1553635092.104,-74.707,40.527,26.367,58.105,21.484,0
1553635092.108,-63.965,33.691,26.855,56.641,5.859,0
1553635092.112,-54.199,38.574,25.391,65.430,40.039,0
1553635092.115,-50.293,41.016,27.344,75.195,-18.555,0
1553635092.119,-48.828,41.504,26.855,73.242,-23.926,0
1553635092.123,-41.504,42.480,27.344,89.355,22.949,0
1553635092.127,-41.016,42.969,27.344,82.031,7.812,0
1553635092.131,-41.992,42.480,26.855,67.383,5.371,0
1553635092.135,-42.969,42.480,27.832,71.289,28.320,0
1553635092.139,-48.340,46.387,24.902,60.547,44.434,0
1553635092.143,-53.711,44.434,23.438,57.129,13.672,0
1553635092.147,-50.293,37.598,24.414,71.289,23.926,0
1553635092.151,-47.363,37.598,27.832,67.383,33.691,0
1553635092.155,-63.477,37.598,29.785,53.223,38.086,0
1553635092.158,-70.312,38.574,27.832,53.223,47.852,0
1553635092.162,-62.500,39.551,27.344,64.453,61.035,0
1553635092.166,-79.590,35.645,30.273,57.617,78.613,0
1553635092.170,-75.684,37.598,24.902,49.316,74.219,0
1553635092.174,-63.965,43.945,21.484,47.363,41.504,0
1553635092.178,-61.523,37.109,23.438,51.270,46.387,0
1553635092.182,-57.617,34.180,20.508,54.688,49.316,0
1553635092.186,-52.246,39.551,19.043,55.176,5.371,0
1553635092.190,-51.270,40.527,21.973,66.895,-14.648,0
1553635092.194,-51.270,41.016,23.438,72.266,-19.043,0
1553635092.197,-48.828,39.551,24.414,67.383,29.785,0
1553635092.201,-42.969,40.527,25.879,76.660,-11.719,0
1553635092.205,-47.363,47.852,22.461,77.148,-11.719,0
1553635092.209,-49.316,43.457,21.484,63.477,33.203,0
1553635092.213,-51.270,37.109,22.461,59.570,12.207,0
1553635092.217,-62.500,40.527,20.996,58.105,30.273,0
1553635092.221,-60.547,40.527,22.461,62.500,48.340,0
1553635092.225,-56.641,39.062,26.367,61.523,49.316,0
1553635092.229,-52.246,43.457,26.367,57.617,2.441,0
1553635092.233,-46.875,46.387,25.879,62.988,15.137,0
1553635092.237,-50.781,43.457,26.367,64.453,26.855,0
1553635092.240,-52.734,42.969,24.902,65.918,5.371,0
1553635092.244,-35.645,49.805,22.949,82.520,15.137,0
1553635092.248,-54.199,46.875,26.367,59.082,62.500,0
1553635092.252,-87.891,35.156,28.320,21.484,100.098,0
1553635092.256,-82.031,31.738,28.809,20.508,2.441,0
1553635092.260,-90.332,33.203,26.855,18.555,-24.414,0
1553635092.264,-100.098,34.180,25.391,19.043,11.230,0
1553635092.268,-113.281,27.832,27.344,27.344,15.137,0
1553635092.272,-121.094,27.344,24.902,23.438,6.836,0
1553635092.276,-109.863,32.715,23.438,8.301,-0.488,0
1553635092.280,-84.961,34.180,27.344,9.766,-1.953,0
1553635092.283,-70.801,37.598,28.809,22.949,16.113,0
1553635092.287,-82.031,36.621,25.879,29.785,79.590,0
1553635092.291,-70.801,34.668,23.438,24.902,25.879,0
1553635092.295,-61.035,36.621,22.949,20.508,18.066,0
1553635092.299,-65.918,39.062,21.484,29.785,83.496,0
1553635092.303,-66.895,39.551,21.973,44.922,77.148,0
1553635092.307,-59.570,37.598,28.809,44.434,65.918,0
1553635092.311,-64.941,40.039,31.738,38.574,-4.395,0
1553635092.315,-70.801,39.551,28.320,33.691,35.645,0
1553635092.319,-58.594,41.504,24.414,28.809,53.223,0
1553635092.322,-48.340,41.504,22.461,32.227,39.551,0
1553635092.326,-41.504,45.410,19.531,29.297,86.914,0
1553635092.330,-52.246,47.363,18.066,31.250,76.660,0
1553635092.334,-46.875,41.504,20.996,47.363,26.367,0
1553635092.338,-40.039,44.922,23.438,47.852,18.555,0
1553635092.342,-42.969,48.828,24.414,36.621,27.832,0
1553635092.346,-44.434,43.945,22.461,44.922,68.848,0
1553635092.350,-43.945,41.504,24.414,48.340,53.711,0
1553635092.354,-38.086,42.480,24.414,44.922,8.789,0
1553635092.358,-46.387,42.480,22.461,44.434,46.875,0
1553635092.362,-47.363,41.992,23.926,39.551,12.207,0
1553635092.365,-42.969,36.621,24.902,44.922,-23.926,0
1553635092.369,-33.203,35.156,22.461,45.410,0.488,0
1553635092.373,-40.039,35.645,21.973,49.805,23.926,0
1553635092.377,-48.828,36.133,22.461,55.664,49.316,0
1553635092.381,-37.109,41.504,25.391,54.199,39.062,0
1553635092.385,-40.527,41.992,25.879,57.129,-4.883,0
1553635092.389,-30.762,40.527,26.367,64.941,-19.531,0
1553635092.393,-20.020,40.527,28.809,67.383,13.672,0
1553635092.397,-23.926,38.086,27.344,65.918,2.930,0
1553635092.401,-20.020,41.992,30.762,66.406,29.297,0
1553635092.405,-16.113,41.992,27.832,69.336,31.250,0
1553635092.408,-16.602,41.016,25.879,68.359,-28.320,0
1553635092.412,-24.902,43.457,29.297,53.223,2.930,0
1553635092.416,-34.180,44.922,22.949,43.945,35.645,0
1553635092.420,-26.855,48.340,12.207,54.688,34.180,0
1553635092.424,-7.812,47.852,17.090,67.871,10.254,0
1553635092.428,-23.438,42.480,29.297,53.711,0.000,0
1553635092.432,-37.109,35.156,31.250,59.082,-1.953,0
1553635092.436,-33.203,32.227,33.691,65.430,1.953,0
1553635092.440,-37.109,31.250,30.273,57.617,18.066,0
1553635092.444,-32.227,23.926,26.367,63.965,3.906,0
1553635092.447,-25.879,23.926,30.762,59.570,8.789,0
1553635092.451,-32.227,25.879,32.715,61.523,25.879,0
1553635092.455,-33.203,24.414,32.715,60.547,-4.395,0
1553635092.459,-26.367,23.926,30.762,59.570,-56.641,0
1553635092.463,-39.551,24.414,29.297,62.500,1.465,0
1553635092.467,-35.156,24.414,31.738,62.012,71.289,0
1553635092.471,-26.855,33.691,25.391,57.129,3.418,0
1553635092.475,-30.273,33.203,21.973,59.570,-2.441,0
1553635092.479,-24.902,25.391,25.391,58.594,19.043,0
1553635092.483,-28.809,31.250,25.391,52.246,28.320,0
1553635092.487,-25.391,31.250,23.438,51.758,35.156,0
1553635092.490,-30.273,28.809,22.949,52.246,22.461,0
1553635092.494,-41.992,27.344,24.414,55.664,52.246,0
1553635092.498,-23.926,27.832,21.484,56.641,-2.930,0
1553635092.502,-33.691,27.832,18.066,45.410,39.062,0
1553635092.506,-45.410,28.320,20.508,57.129,97.168,0
1553635092.510,-33.691,29.785,20.996,75.195,79.590,0
1553635092.514,-25.391,32.715,21.973,68.848,69.336,0
1553635092.518,-21.973,38.574,23.926,68.359,59.570,0
1553635092.522,-20.020,32.227,24.902,74.219,34.180,0
1553635092.526,-20.020,29.297,28.320,71.777,5.371,0
1553635092.530,-16.602,32.227,28.809,67.383,9.766,0
1553635092.533,-17.090,32.227,26.855,69.336,45.898,0
1553635092.537,-16.602,33.203,25.391,75.195,36.133,0
1553635092.541,-8.301,33.203,24.414,76.660,-8.789,0
1553635092.545,-13.672,33.691,25.879,78.125,17.090,0
1553635092.549,-23.438,34.180,26.367,71.289,-13.184,0
1553635092.553,-20.996,34.668,28.320,62.500,-23.438,0
1553635092.557,-17.578,36.621,27.832,64.941,49.316,0
1553635092.561,-7.812,41.504,23.926,73.242,75.195,0
1553635092.565,-0.977,47.363,24.414,67.871,88.867,0
1553635092.569,-8.301,41.504,27.832,66.895,46.875,0
1553635092.572,0.488,35.645,27.344,70.801,20.996,0
1553635092.576,2.930,39.062,25.879,61.035,44.922,0
1553635092.580,-3.906,38.574,26.855,62.500,39.551,0
1553635092.584,0.488,35.156,28.320,59.570,19.043,0
1553635092.588,-3.906,34.668,25.879,59.570,12.695,0
1553635092.592,-11.719,36.621,22.949,65.430,30.273,0
1553635092.596,-11.719,36.621,24.902,59.082,51.270,0
1553635092.600,-6.836,34.668,25.391,57.617,48.828,0
1553635092.604,-13.672,36.621,23.926,53.711,22.949,0
1553635092.608,-15.625,41.016,20.996,42.480,40.527,0
1553635092.612,-7.324,37.109,19.531,43.457,8.301,0
1553635092.615,7.812,36.133,20.020,56.641,25.391,0
1553635092.619,-7.324,31.738,30.762,47.852,51.758,0
1553635092.623,-33.203,23.926,38.086,33.691,46.387,0
1553635092.627,-28.809,24.414,34.180,45.898,93.262,0
1553635092.631,-24.902,20.508,33.203,48.828,101.074,0
1553635092.635,-19.043,18.066,35.156,46.387,52.734,0
1553635092.639,-21.973,20.996,32.227,43.457,20.508,0
1553635092.643,-34.668,21.484,28.809,40.527,32.715,0
1553635092.647,-31.250,20.020,30.762,44.922,62.988,0
1553635092.651,-25.879,21.484,30.762,41.016,22.461,0
1553635092.655,-13.184,30.762,29.785,46.875,50.293,0
1553635092.658,-10.742,28.320,27.344,51.270,55.664,0
1553635092.662,-19.043,21.973,27.832,44.434,37.109,0
1553635092.666,-5.371,24.902,28.320,49.316,34.180,0
1553635092.670,-13.184,23.926,29.785,58.594,47.363,0
1553635092.674,-28.809,20.996,29.785,57.617,75.195,0
1553635092.678,-15.625,21.973,28.809,58.594,53.711,0
1553635092.682,-14.160,26.367,29.297,57.617,67.383,0
1553635092.686,-11.719,26.367,28.320,52.246,-1.465,0
1553635092.690,-12.695,26.367,29.785,66.406,-38.086,0
1553635092.694,-8.789,28.809,29.297,68.848,-3.906,0
1553635092.697,-8.789,27.832,27.832,53.711,-11.230,0
1553635092.701,-4.883,34.668,25.391,53.223,-1.953,0
1553635092.705,-5.371,32.715,26.367,52.734,51.270,0
1553635092.709,-12.695,27.344,28.320,52.246,130.859,0
1553635092.713,-5.371,32.715,24.902,60.547,83.008,0
1553635092.717,-11.230,32.227,26.855,47.363,18.555,0
1553635092.721,-9.277,33.203,28.320,44.922,25.391,0
1553635092.725,4.883,33.203,29.297,61.523,19.043,0
1553635092.729,9.766,30.762,27.832,64.941,-11.230,0
1553635092.733,3.906,28.809,28.320,63.965,-0.488,0
1553635092.737,0.000,34.668,28.809,61.523,-9.766,0
1553635092.740,-2.441,37.109,26.367,58.105,3.906,0
1553635092.744,0.488,33.203,27.832,55.176,41.504,0
1553635092.748,0.000,35.156,25.879,65.918,30.273,0
1553635092.752,2.930,37.598,25.391,63.965,35.645,0
1553635092.756,1.465,39.062,23.438,50.781,29.785,0
1553635092.760,-6.348,37.598,21.484,50.293,39.062,0
1553635092.764,2.441,34.180,22.949,47.363,61.035,0
1553635092.768,0.488,33.203,20.508,51.270,35.645,0
1553635092.772,0.977,36.133,24.902,50.781,8.301,0
1553635092.776,1.953,36.133,28.320,54.688,45.898,0
1553635092.780,-8.301,37.109,28.320,55.664,80.078,0
1553635092.783,-12.207,33.691,30.273,50.781,72.754,0
1553635092.787,3.418,30.762,30.273,64.941,71.777,0
1553635092.791,3.418,36.621,29.297,65.918,118.164,0
1553635092.795,13.672,27.832,31.738,75.684,102.051,0
1553635092.799,22.949,24.414,32.715,84.473,20.020,0
1553635092.803,-10.254,43.457,25.879,44.922,36.621,0
1553635092.807,-10.742,43.457,21.973,37.109,48.340,0
1553635092.811,-7.324,40.039,22.461,52.734,17.578,0
1553635092.815,-6.348,41.504,19.043,62.500,43.457,0
1553635092.819,-0.488,41.504,16.602,55.664,10.254,0
1553635092.822,12.207,40.527,18.555,45.898,67.871,0
1553635092.826,19.531,39.062,18.066,63.477,66.406,0
1553635092.830,2.930,41.504,22.461,69.336,30.273,0
1553635092.834,7.324,41.016,21.973,70.801,41.992,0
1553635092.838,7.812,34.180,23.438,75.195,27.344,0
1553635092.842,11.719,33.691,25.879,62.500,64.941,0
1553635092.846,15.137,38.086,20.508,54.199,87.891,0
1553635092.850,-1.953,39.062,18.555,61.523,50.781,0
1553635092.854,11.230,38.086,18.066,56.641,-33.203,0
1553635092.858,13.672,38.086,21.484,60.059,-35.156,0
1553635092.862,7.812,37.598,24.902,59.082,47.363,0
1553635092.865,27.344,37.598,20.996,70.801,80.566,0
1553635092.869,16.113,41.504,19.531,83.984,23.438,0
1553635092.873,9.277,39.062,20.996,75.195,-17.578,0
1553635092.877,20.996,36.621,21.484,66.406,-54.688,0
1553635092.881,0.977,37.598,21.484,63.477,-21.484,0
1553635092.885,1.465,39.551,22.461,66.406,31.250,0
1553635092.889,15.137,41.992,22.949,72.266,4.883,0
1553635092.893,15.137,41.016,20.996,68.359,16.113,0
1553635092.897,15.625,39.062,20.020,66.406,15.137,0
1553635092.901,24.414,38.574,19.043,71.289,19.531,0
1553635092.905,22.461,40.527,20.020,72.754,-5.371,0
1553635092.908,14.648,42.969,22.949,79.590,-10.254,0
1553635092.912,14.160,37.598,23.926,84.473,52.246,0
1553635092.916,15.137,37.109,27.344,77.637,46.387,0
1553635092.920,12.695,40.039,28.809,77.148,-1.465,0
1553635092.924,7.812,32.227,28.809,83.008,-20.020,0
1553635092.928,17.578,33.691,26.367,79.590,-0.488,0
1553635092.932,18.066,40.527,23.438,83.496,37.598,0
1553635092.936,17.578,40.527,25.391,83.008,-0.488,0
1553635092.940,27.344,41.504,22.949,70.801,-10.254,0
1553635092.944,6.348,41.016,21.484,68.359,-7.812,0
1553635092.947,8.789,39.062,27.344,78.125,13.184,0
1553635092.951,21.484,38.574,26.855,84.961,20.508,0
1553635092.955,13.184,39.551,24.902,83.496,24.902,0
1553635092.959,18.066,42.480,24.902,80.566,3.906,0
1553635092.963,22.949,37.598,26.367,78.613,-8.789,0
1553635092.967,27.344,34.180,29.297,89.844,31.738,0
1553635092.971,21.484,34.180,27.832,86.426,64.453,0
1553635092.975,-0.977,31.738,29.785,72.754,95.215,0
1553635092.979,0.488,33.203,31.250,80.566,49.805,0
1553635092.983,20.996,36.133,27.832,90.820,10.254,0
1553635092.987,18.555,32.715,25.879,81.543,37.109,0
1553635092.990,8.301,32.715,25.391,64.941,40.527,0
1553635092.994,11.230,35.645,25.879,67.383,-41.992,0
1553635092.998,1.465,41.016,25.391,73.730,-26.855,0
1553635093.002,4.883,35.156,25.879,72.754,43.457,0
1553635093.006,17.090,29.785,24.902,73.242,27.344,0
1553635093.010,12.207,32.715,23.926,85.449,7.812,0
1553635093.014,4.883,31.738,24.414,89.844,-4.395,0
1553635093.018,17.090,31.738,22.949,81.055,17.090,0
1553635093.022,13.672,29.785,21.973,86.426,-8.789,0
1553635093.026,-5.371,32.227,21.484,77.148,-19.043,0
1553635093.030,3.906,34.180,19.531,66.406,52.246,0
1553635093.033,2.930,27.832,23.438,71.289,44.922,0
1553635093.037,4.883,26.855,26.855,69.824,6.348,0
1553635093.041,15.137,32.227,24.902,72.754,14.160,0
1553635093.045,4.395,36.133,24.902,73.730,9.277,0
1553635093.049,3.418,34.180,24.902,74.219,52.246,0
1553635093.053,3.418,31.738,25.391,75.684,52.734,0
1553635093.057,-4.395,35.645,24.414,69.336,5.371,0
1553635093.061,0.000,33.691,23.438,68.848,44.434,0
1553635093.065,6.836,31.738,20.996,60.547,49.316,0
1553635093.069,9.277,35.156,22.949,67.871,-20.508,0
1553635093.072,8.301,35.156,27.344,79.102,2.441,0
1553635093.076,0.000,33.691,26.855,81.055,9.766,0
1553635093.080,1.465,32.715,26.367,76.172,-20.020,0
1553635093.084,6.348,34.668,25.391,71.777,-5.859,0
1553635093.088,6.836,34.668,25.879,71.777,-7.812,0
1553635093.092,-2.441,31.738,27.832,73.242,26.367,0
1553635093.096,-1.465,33.691,25.879,79.102,26.367,0
1553635093.100,6.836,35.645,24.902,76.660,38.086,0
1553635093.104,1.953,34.668,24.414,74.219,71.289,0
1553635093.108,2.441,36.621,22.461,75.684,76.172,0
1553635093.112,7.812,34.668,24.414,82.520,56.641,0
1553635093.115,19.531,28.809,25.879,93.262,15.137,0
1553635093.119,23.926,38.574,26.367,78.125,75.684,0
1553635093.123,-5.859,43.945,25.879,49.805,74.219,0
1553635093.127,-29.785,35.645,25.879,46.387,17.578,0
1553635093.131,-29.297,37.598,26.367,41.016,52.734,0
1553635093.135,-38.574,37.109,26.855,30.762,53.711,0
1553635093.139,-35.156,37.598,23.926,31.250,39.062,0
1553635093.143,-43.945,35.156,24.414,31.250,65.918,0
1553635093.147,-55.176,35.645,25.879,16.113,58.594,0
1553635093.151,-35.156,37.598,23.926,15.137,35.645,0
1553635093.155,-30.273,33.203,23.926,33.203,22.949,0
1553635093.158,-24.902,36.133,23.926,42.969,82.520,0
1553635093.162,-23.438,38.086,26.855,45.898,85.938,0
1553635093.166,-37.109,36.621,25.879,43.457,27.832,0
1553635093.170,-27.832,37.598,27.832,47.852,60.547,0
1553635093.174,-26.367,36.621,30.273,62.988,72.266,0
1553635093.178,-27.344,41.504,26.367,61.035,51.270,0
1553635093.182,-37.109,40.039,25.391,52.246,64.941,0
1553635093.186,-50.781,33.203,24.902,48.828,76.172,0
1553635093.190,-26.855,33.691,24.414,58.594,108.887,0
1553635093.194,-5.859,36.133,23.926,68.848,111.816,0
1553635093.197,-4.883,35.156,26.855,67.383,52.246,0
1553635093.201,-10.254,32.715,27.344,57.617,5.371,0
1553635093.205,-16.602,36.133,26.855,57.617,40.527,0
1553635093.209,-27.344,34.668,29.297,63.477,29.785,0
1553635093.213,-22.461,37.109,27.344,62.012,-20.508,0
1553635093.217,-10.742,38.086,25.391,66.406,41.992,0
1553635093.221,-5.859,38.086,25.879,68.848,47.363,0
1553635093.225,-10.742,37.109,28.320,76.660,20.020,0
1553635093.229,-17.090,36.133,27.832,76.172,-3.418,0
1553635093.233,-8.301,38.574,23.438,78.125,10.742,0
1553635093.237,-9.277,43.945,23.926,76.660,35.645,0
1553635093.240,-18.555,43.945,22.949,71.289,-15.625,0
1553635093.244,-23.926,38.086,24.414,62.500,-59.570,0
1553635093.248,-20.996,38.086,26.367,62.012,36.621,0
1553635093.252,-11.230,37.598,23.926,67.383,18.555,0
1553635093.256,-19.531,38.574,25.879,68.359,-31.250,0
1553635093.260,-37.109,37.109,25.391,65.430,34.668,0
1553635093.264,-24.414,37.109,24.902,59.570,29.297,0
1553635093.268,-19.043,39.062,25.391,60.547,21.973,0
1553635093.272,-30.273,39.062,25.391,55.664,4.395,0
1553635093.276,-21.484,41.016,25.879,60.059,-7.812,0
1553635093.280,-20.996,41.016,25.879,72.266,5.371,0
1553635093.283,-27.344,41.504,26.855,72.754,-13.184,0
1553635093.287,-24.414,41.992,28.320,64.453,29.297,0
1553635093.291,-34.668,42.969,28.809,51.758,27.344,0
1553635093.295,-26.855,40.039,29.785,57.129,-10.742,0
1553635093.299,-35.645,32.715,30.273,66.895,7.324,0
1553635093.303,-49.805,33.203,28.809,63.965,22.461,0
1553635093.307,-43.945,33.691,29.785,62.500,41.016,0
1553635093.311,-36.133,38.086,26.367,62.988,50.293,0
1553635093.315,-21.484,37.598,24.902,70.312,36.133,0
1553635093.319,-20.508,33.691,27.832,81.543,31.250,0
1553635093.322,-29.297,31.250,31.738,83.984,14.160,0
1553635093.326,-34.180,30.762,30.273,72.266,55.176,0
1553635093.330,-45.898,40.039,24.414,54.199,80.566,0
1553635093.334,-56.152,45.898,19.043,37.598,41.992,0
1553635093.338,-49.316,43.945,17.090,47.363,40.527,0
1553635093.342,-33.691,42.969,17.578,58.105,43.945,0
1553635093.346,-30.762,50.293,14.648,57.617,47.852,0
1553635093.350,-49.316,50.781,15.137,54.688,24.414,0
1553635093.354,-44.434,45.410,17.578,63.477,14.160,0
1553635093.358,-39.062,47.852,18.555,65.430,32.715,0
1553635093.362,-41.016,46.875,18.066,66.406,44.922,0
1553635093.365,-32.227,46.387,17.578,75.195,55.664,0
1553635093.369,-30.273,45.410,20.508,75.195,58.594,0
1553635093.373,-41.504,45.410,19.531,74.219,81.055,0
1553635093.377,-31.738,42.969,20.020,73.730,96.191,0
1553635093.381,-28.809,41.992,20.508,64.453,50.293,0
1553635093.385,-42.480,43.457,18.555,59.082,45.898,0
1553635093.389,-49.316,44.434,18.066,57.129,51.270,0
1553635093.393,-33.691,41.504,19.531,64.453,-5.859,0
1553635093.397,-33.691,36.621,20.996,83.496,-29.785,0
1553635093.401,-58.594,45.898,20.020,73.730,8.301,0
1553635093.405,-46.875,42.969,24.902,76.172,36.621,0
1553635093.408,-26.855,32.715,26.855,93.262,66.406,0
1553635093.412,-25.879,37.109,23.926,91.797,45.410,0
1553635093.416,-43.945,39.062,23.926,80.566,43.945,0
1553635093.420,-40.039,36.621,23.926,68.359,51.270,0
1553635093.424,-43.945,36.621,23.438,63.477,25.879,0
1553635093.428,-70.801,37.598,22.461,63.965,18.066,0
1553635093.432,-62.012,37.598,23.438,75.684,46.387,0
1553635093.436,-36.133,35.156,23.438,77.637,43.945,0
1553635093.440,-32.715,34.180,21.484,77.148,6.348,0
1553635093.444,-56.641,35.645,22.949,79.590,8.789,0
1553635093.447,-59.082,34.180,22.949,79.102,28.809,0
1553635093.451,-59.570,36.133,21.484,76.660,0.977,0
1553635093.455,-36.621,37.598,23.926,83.008,63.965,0
1553635093.459,-24.902,35.156,24.414,71.777,45.898,0
1553635093.463,-49.805,36.621,24.902,57.129,0.000,0
1553635093.467,-47.363,39.062,25.391,64.941,17.578,0
1553635093.471,-30.273,36.133,25.879,78.125,-3.418,0
1553635093.475,-33.691,33.691,24.902,80.078,-1.953,0
1553635093.479,-40.039,34.668,22.949,72.754,12.695,0
1553635093.483,-41.992,33.691,22.949,73.242,-14.648,0
1553635093.487,-48.828,35.156,24.902,72.754,-52.246,0
1553635093.490,-50.293,35.156,24.414,82.520,5.859,0
1553635093.494,-53.711,35.645,22.949,72.266,38.574,0
1553635093.498,-60.547,33.691,23.926,58.594,0.977,0
1553635093.502,-56.152,34.668,23.926,68.359,62.012,0
1553635093.506,-42.969,37.598,23.438,71.289,76.660,0
1553635093.510,-51.270,37.598,22.949,62.500,17.090,0
1553635093.514,-51.758,41.504,24.902,66.895,48.340,0
1553635093.518,-41.016,35.156,28.320,73.730,47.852,0
1553635093.522,-64.453,32.715,25.391,64.453,20.508,0
1553635093.526,-69.336,39.551,18.555,76.172,-7.324,0
1553635093.530,-50.781,41.992,20.508,84.473,-13.184,0
1553635093.533,-47.363,38.086,24.902,79.102,23.438,0
1553635093.537,-64.453,35.156,24.414,84.473,18.066,0
1553635093.541,-62.500,37.109,23.438,82.031,28.320,0
1553635093.545,-56.641,35.156,24.902,59.570,31.250,0
1553635093.549,-69.824,37.109,26.855,46.875,37.109,0
1553635093.553,-86.914,39.062,26.367,64.941,98.145,0
1553635093.557,-72.754,36.133,27.832,87.891,49.805,0
1553635093.561,-68.848,36.133,25.879,83.008,-4.883,0
1553635093.565,-72.754,35.645,23.438,69.336,31.738,0
1553635093.569,-86.914,35.645,25.391,71.289,59.082,0
1553635093.572,-81.055,36.133,26.855,69.336,21.973,0
1553635093.576,-62.012,36.621,27.832,72.266,40.527,0
1553635093.580,-73.242,36.133,24.902,83.496,27.344,0
1553635093.584,-90.820,38.574,22.949,83.008,12.207,0
1553635093.588,-88.867,34.668,25.879,76.660,44.922,0
1553635093.592,-93.262,31.738,27.344,68.359,56.641,0
1553635093.596,-106.934,36.621,25.879,62.988,58.594,0
1553635093.600,-94.238,38.574,26.367,64.941,1.465,0
1553635093.604,-97.168,40.039,27.344,60.547,44.922,0
1553635093.608,-101.074,41.016,26.855,58.594,81.055,0
1553635093.612,-104.004,41.992,26.367,66.406,48.828,0
1553635093.615,-94.238,46.387,30.273,76.660,22.949,0
1553635093.619,-91.309,47.852,30.273,66.895,9.277,0
1553635093.623,-107.422,48.340,22.461,50.781,30.762,0
1553635093.627,-112.305,54.199,24.414,61.523,27.832,0
1553635093.631,-122.559,60.059,28.809,60.059,64.941,0
1553635093.635,-117.188,63.965,27.832,22.461,78.613,0
1553635093.639,-138.184,61.523,25.879,9.766,56.641,0
1553635093.643,-143.555,68.359,26.855,21.973,86.426,0
1553635093.647,-141.113,73.730,25.879,16.113,90.820,0
1553635093.651,-162.109,76.660,28.320,23.438,57.129,0
1553635093.655,-179.199,75.684,36.621,21.484,0.000,0
1553635093.658,-186.523,73.242,38.574,0.488,1.953,0
1553635093.662,-173.828,72.754,38.086,3.418,52.246,0
1553635093.666,-171.875,73.730,38.574,0.977,44.434,0
1553635093.670,-193.848,75.684,39.062,-12.207,48.340,0
1553635093.674,-196.777,71.777,32.227,2.930,68.848,0
1553635093.678,-190.918,70.312,30.762,3.906,23.926,0
1553635093.682,-188.477,70.312,35.156,-8.789,58.594,0
1553635093.686,-163.574,69.336,33.203,9.766,72.266,0
1553635093.690,-154.785,69.336,33.203,23.926,23.438,0
1553635093.694,-164.062,70.801,31.738,28.320,75.684,0
1553635093.697,-153.809,62.012,31.250,41.504,89.844,0
1553635093.701,-153.809,56.641,31.738,52.734,56.152,0
1553635093.705,-147.461,60.547,31.250,64.453,61.523,0
1553635093.709,-120.117,62.012,34.668,74.707,42.969,0
1553635093.713,-122.070,63.965,32.227,68.848,46.875,0
1553635093.717,-122.070,59.570,30.762,72.754,24.414,0
1553635093.721,-116.211,57.617,31.738,84.473,-22.949,0
1553635093.725,-112.305,55.176,30.273,87.891,18.066,0
1553635093.729,-83.496,55.176,29.785,89.844,20.996,0
1553635093.733,-65.430,58.594,28.809,101.562,35.156,0
1553635093.737,-94.727,52.734,30.273,104.004,19.531,0
1553635093.740,-110.352,49.316,32.227,106.445,14.648,0
1553635093.744,-98.145,49.805,32.715,112.793,68.359,0
1553635093.748,-104.004,46.875,33.203,107.422,40.039,0
1553635093.752,-114.258,45.898,32.715,103.027,27.344,0
1553635093.756,-92.773,44.922,33.203,106.445,26.367,0
1553635093.760,-88.379,46.387,32.715,102.539,-0.488,0
1553635093.764,-106.445,42.969,31.738,97.656,14.160,0
1553635093.768,-105.957,44.922,30.273,103.516,3.906,0
1553635093.772,-88.867,49.316,24.414,95.703,51.270,0
1553635093.776,-91.797,36.621,23.438,120.117,55.664,0
1553635093.780,-112.793,37.109,29.785,125.977,-31.738,0
1553635093.783,-119.141,38.574,37.598,99.121,-45.898,0
1553635093.787,-105.957,32.715,36.133,124.512,-13.184,0
1553635093.791,-80.566,33.691,33.203,145.508,51.270,0
1553635093.795,-83.984,23.926,37.598,152.344,42.969,0
1553635093.799,-82.520,18.066,37.598,165.039,-11.230,0
1553635093.803,-60.059,23.438,35.645,181.152,-47.363,0
1553635093.807,-49.316,24.902,36.621,175.781,10.254,0
1553635093.811,-58.105,31.738,33.691,174.805,82.520,0
1553635093.815,-42.969,28.320,34.180,186.035,51.758,0
1553635093.819,-16.113,22.461,34.668,189.453,20.996,0
1553635093.822,-8.301,25.879,36.621,211.426,37.598,0
1553635093.826,-17.578,26.855,39.062,222.656,44.922,0
1553635093.830,-11.230,29.297,36.621,208.496,18.555,0
1553635093.834,8.301,33.691,35.645,217.285,66.406,0
1553635093.838,0.000,37.598,38.086,223.633,99.609,0
1553635093.842,-6.836,37.109,37.598,218.750,7.324,0
1553635093.846,-1.465,36.133,39.062,229.492,-21.973,0
1553635093.850,-12.695,38.574,39.551,224.609,20.996,0
1553635093.854,-11.230,42.969,37.109,214.844,56.641,0
1553635093.858,-15.137,44.434,38.574,208.496,25.879,0
1553635093.862,-15.137,41.992,40.527,196.289,21.973,0
1553635093.865,-22.949,41.016,37.598,181.641,56.152,0
1553635093.869,-48.340,43.457,37.598,181.641,40.527,0
1553635093.873,-54.199,45.410,39.062,177.246,31.250,0
1553635093.877,-58.105,44.434,37.598,155.762,7.812,0
1553635093.881,-60.059,50.293,35.645,162.598,58.105,0
1553635093.885,-52.246,52.246,34.668,170.898,62.012,0
1553635093.889,-41.992,50.781,31.738,157.715,51.758,0
1553635093.893,-62.012,50.293,32.227,151.367,92.285,0
1553635093.897,-68.848,52.246,32.227,150.391,39.551,0
1553635093.901,-65.918,51.758,31.250,137.695,64.941,0
1553635093.905,-83.008,55.664,29.297,118.652,67.871,0
1553635093.908,-74.219,55.664,29.297,122.559,74.707,0
1553635093.912,-64.941,50.293,30.273,133.301,124.512,0
1553635093.916,-69.824,55.176,31.250,143.555,110.840,0
1553635093.920,-68.359,55.664,32.715,138.184,70.312,0
1553635093.924,-70.312,56.152,32.227,128.418,11.719,0
1553635093.928,-61.035,59.082,32.715,124.023,20.996,0
1553635093.932,-62.500,57.129,30.273,117.676,83.496,0
1553635093.936,-77.637,57.129,29.785,119.629,59.570,0
1553635093.940,-83.008,60.059,30.273,107.422,35.156,0
1553635093.944,-82.520,59.082,28.320,98.633,71.289,0
1553635093.947,-80.566,58.594,26.367,99.121,89.355,0
1553635093.951,-85.449,60.547,25.879,109.863,35.645,0
1553635093.955,-98.633,65.430,24.414,115.723,8.789,0
1553635093.959,-101.562,59.570,24.902,87.402,6.836,0
1553635093.963,-103.027,55.176,24.414,82.520,-46.387,0
1553635093.967,-107.422,57.617,22.949,89.844,-55.176,0
1553635093.971,-101.562,55.176,23.926,86.426,12.695,0
1553635093.975,-100.586,52.246,25.391,92.773,40.039,0
1553635093.979,-97.656,50.781,25.391,96.191,63.477,0
1553635093.983,-99.609,48.340,29.297,95.703,98.145,0
1553635093.987,-103.516,50.293,33.203,95.703,80.566,0
1553635093.990,-99.121,52.734,33.691,80.078,58.105,0
1553635093.994,-105.957,52.734,31.250,82.031,32.227,0
1553635093.998,-109.863,53.223,31.250,79.590,43.945,0
1553635094.002,-111.328,51.270,33.203,82.520,30.273,0
1553635094.006,-111.328,49.316,36.133,101.074,43.945,0
1553635094.010,-108.398,51.270,32.715,90.820,55.176,0
1553635094.014,-124.512,50.293,30.273,81.543,65.918,0
1553635094.018,-120.605,47.852,35.645,98.145,59.082,0
1553635094.022,-124.512,48.340,35.156,96.191,-0.488,0
1553635094.026,-123.047,42.969,33.691,86.426,39.062,0
1553635094.030,-107.422,44.434,33.203,77.148,125.977,0
1553635094.033,-107.422,43.457,36.621,94.727,86.426,0
1553635094.037,-115.723,43.945,35.645,94.727,12.695,0
1553635094.041,-118.164,45.410,32.715,74.219,30.273,0
1553635094.045,-110.352,44.434,31.738,81.055,17.578,0
1553635094.049,-108.398,48.340,29.785,77.148,12.207,0
1553635094.053,-119.141,45.410,28.809,79.590,34.668,0
1553635094.057,-127.441,44.922,26.367,87.402,38.574,0
1553635094.061,-122.070,47.363,23.926,76.172,-5.371,0
1553635094.065,-123.535,46.875,21.484,67.871,-0.488,0
1553635094.069,-124.023,44.922,22.461,75.195,5.859,0
1553635094.072,-113.770,41.504,23.926,80.078,51.758,0
1553635094.076,-112.305,41.504,20.996,80.566,71.777,0
1553635094.080,-122.559,41.992,21.484,76.172,38.574,0
1553635094.084,-126.465,42.969,24.414,66.406,60.059,0
1553635094.088,-128.418,42.480,23.438,73.242,41.504,0
1553635094.092,-114.258,42.480,21.973,81.055,-23.926,0
1553635094.096,-102.051,43.457,26.367,91.797,-24.902,0
1553635094.100,-106.934,41.504,28.809,95.703,21.484,0
1553635094.104,-110.840,40.039,27.344,78.125,21.484,0
1553635094.108,-119.141,41.016,28.320,72.266,40.527,0
1553635094.112,-116.211,39.551,29.297,73.242,64.453,0
1553635094.115,-104.980,40.039,28.809,89.844,53.223,0
1553635094.119,-109.375,39.062,28.809,94.238,35.645,0
1553635094.123,-114.258,45.410,24.414,80.078,-7.324,0
1553635094.127,-107.910,45.410,23.438,86.426,70.801,0
1553635094.131,-111.816,35.645,27.344,90.820,98.633,0
1553635094.135,-110.840,37.598,28.809,82.031,40.039,0
1553635094.139,-113.281,40.039,30.273,70.801,109.863,0
1553635094.143,-112.305,40.039,27.832,74.707,101.074,0
1553635094.147,-91.309,38.574,29.297,80.078,51.758,0
1553635094.151,-108.398,39.062,28.809,76.660,79.590,0
1553635094.155,-133.301,40.039,27.344,80.078,34.668,0
1553635094.158,-114.258,39.062,27.344,78.613,42.480,0
1553635094.162,-99.609,40.039,28.320,68.848,66.406,0
1553635094.166,-88.379,41.992,29.785,81.543,12.207,0
1553635094.170,-90.332,46.387,26.367,90.820,28.809,0
1553635094.174,-101.562,42.480,23.926,88.379,30.273,0
1553635094.178,-96.680,36.621,27.344,94.727,-21.484,0
1553635094.182,-81.543,40.527,30.762,89.844,-19.531,0
1553635094.186,-79.102,42.969,29.785,86.426,48.828,0
1553635094.190,-79.102,43.945,29.785,99.121,49.316,0
1553635094.194,-76.660,41.992,32.227,99.609,1.465,0
1553635094.197,-96.680,47.363,29.785,89.844,-17.090,0
1553635094.201,-99.609,49.805,27.832,98.145,-5.371,0
1553635094.205,-88.379,40.039,26.367,100.098,38.086,0
1553635094.209,-85.938,41.016,23.438,86.914,20.020,0
1553635094.213,-82.520,46.875,25.391,87.891,33.203,0
1553635094.217,-81.055,48.340,24.902,86.426,16.602,0
1553635094.221,-77.148,47.852,21.973,74.219,-30.273,0
1553635094.225,-83.496,48.828,23.438,65.430,7.324,0
1553635094.229,-89.844,47.363,23.926,64.941,16.602,0
1553635094.233,-90.820,48.828,20.996,67.871,29.785,0
1553635094.237,-90.820,51.270,19.531,69.336,28.809,0
1553635094.240,-73.730,43.945,19.043,62.012,1.953,0
1553635094.244,-76.172,41.992,20.508,66.895,17.578,0
1553635094.248,-81.543,43.457,20.996,83.984,16.113,0
1553635094.252,-87.402,43.457,20.020,66.895,-12.695,0
1553635094.256,-94.727,44.434,24.414,63.965,67.871,0
1553635094.260,-84.473,43.457,25.879,76.660,85.938,0
1553635094.264,-86.914,42.969,23.438,78.125,66.895,0
1553635094.268,-91.309,41.992,23.438,73.730,88.379,0
1553635094.272,-83.008,46.387,23.438,70.801,51.270,0
1553635094.276,-83.984,47.363,25.879,77.148,27.832,0
1553635094.280,-84.473,41.992,24.414,81.543,61.035,0
1553635094.283,-79.102,41.992,23.926,95.215,99.609,0
1553635094.287,-76.172,44.434,24.902,103.516,101.074,0
1553635094.291,-76.660,45.410,24.414,93.262,51.270,0
1553635094.295,-83.008,43.457,24.902,90.332,31.738,0
1553635094.299,-68.359,45.410,21.973,78.613,65.430,0
1553635094.303,-67.383,44.922,22.949,78.613,77.637,0
1553635094.307,-80.078,41.992,22.461,75.684,67.871,0
1553635094.311,-80.078,39.062,21.973,71.289,42.480,0
1553635094.315,-86.426,43.945,20.996,75.684,45.898,0
1553635094.319,-82.031,44.922,21.484,73.730,38.086,0
1553635094.322,-69.824,39.551,24.414,80.078,47.852,0
1553635094.326,-69.824,41.016,23.438,77.148,0.000,0
1553635094.330,-74.219,41.016,22.461,65.430,-13.184,0
1553635094.334,-80.566,37.598,23.438,72.266,59.082,0
1553635094.338,-75.684,37.598,20.996,74.707,30.762,0
1553635094.342,-58.105,38.574,18.066,66.406,-24.902,0
1553635094.346,-64.453,39.551,21.484,79.590,-6.836,0
1553635094.350,-75.684,41.016,20.020,91.797,28.320,0
1553635094.354,-69.336,34.668,21.484,88.867,34.668,0
1553635094.358,-58.105,35.156,23.438,94.727,1.465,0
1553635094.362,-58.105,38.574,22.949,87.402,-30.273,0
1553635094.365,-60.059,36.621,22.461,91.797,30.762,0
1553635094.369,-61.523,35.156,25.391,101.074,57.617,0
1553635094.373,-62.012,39.062,25.879,98.145,45.410,0
1553635094.377,-72.266,37.109,20.020,103.516,65.918,0
1553635094.381,-72.266,38.086,18.066,99.121,21.973,0
1553635094.385,-55.664,36.621,18.555,92.285,56.641,0
1553635094.389,-54.199,35.645,20.020,86.914,41.992,0
1553635094.393,-49.805,40.527,20.508,86.426,-2.930,0
1553635094.397,-50.781,39.551,18.066,99.609,46.875,0
1553635094.401,-64.941,39.062,20.020,103.027,74.707,0
1553635094.405,-60.059,41.504,23.926,88.867,33.691,0
1553635094.408,-52.246,40.527,22.461,81.055,1.953,0
1553635094.412,-47.363,35.156,20.996,101.074,16.113,0
1553635094.416,-46.875,42.969,22.461,96.680,11.719,0
1553635094.420,-70.801,51.270,23.926,72.266,-0.977,0
1553635094.424,-90.332,44.434,25.879,63.477,49.316,0
1553635094.428,-99.121,40.527,24.414,34.668,68.848,0
1553635094.432,-101.562,45.898,20.020,19.043,20.020,0
1553635094.436,-119.629,48.828,19.531,13.672,-0.488,0
1553635094.440,-128.906,50.293,17.578,14.648,-25.391,0
1553635094.444,-124.512,47.363,17.090,13.672,-13.672,0
1553635094.447,-149.414,40.527,18.555,7.324,9.766,0
1553635094.451,-141.602,42.480,20.020,18.555,35.645,0
1553635094.455,-118.652,47.363,20.020,43.457,23.438,0
1553635094.459,-115.234,46.387,17.578,54.199,-22.461,0
1553635094.463,-109.375,50.781,17.578,42.969,-14.160,0
1553635094.467,-112.305,54.199,15.625,44.922,-31.250,0
1553635094.471,-117.188,46.875,17.578,53.711,-42.480,0
1553635094.475,-97.656,44.922,16.113,48.340,38.086,0
1553635094.479,-66.895,47.363,16.113,51.270,68.848,0
1553635094.483,-104.492,48.828,23.438,41.504,44.922,0
1553635094.487,-152.832,46.387,21.484,9.277,31.738,0
1553635094.490,-163.086,44.922,16.602,-21.973,48.340,0
1553635094.494,-166.992,48.828,16.602,-40.039,56.641,0
1553635094.498,-185.059,54.199,16.602,-54.688,35.156,0
1553635094.502,-210.449,52.246,13.672,-84.473,53.711,0
1553635094.506,-221.191,52.734,17.090,-85.449,39.551,0
1553635094.510,-233.398,57.129,18.555,-101.562,29.785,0
1553635094.514,-237.793,50.781,20.996,-122.559,44.434,0
1553635094.518,-235.840,45.898,24.902,-114.258,16.113,0
1553635094.522,-227.539,46.387,25.879,-109.863,49.316,0
1553635094.526,-226.074,49.316,23.926,-98.633,78.125,0
1553635094.530,-208.008,50.781,20.020,-76.172,50.781,0
1553635094.533,-175.293,42.969,21.484,-48.340,-3.906,0
1553635094.537,-166.992,42.480,23.926,-36.133,-37.109,0
1553635094.541,-151.855,49.805,22.461,-30.762,-32.715,0
1553635094.545,-145.996,53.223,20.508,-12.207,9.277,0
1553635094.549,-147.461,45.898,22.461,-4.395,36.621,0
1553635094.553,-149.902,38.574,23.926,7.324,-22.461,0
1553635094.557,-139.648,41.504,23.926,17.090,-3.906,0
1553635094.561,-124.023,40.527,24.902,12.207,17.578,0
1553635094.565,-110.840,41.504,27.344,17.090,49.805,0
1553635094.569,-105.469,40.527,25.879,21.973,95.703,0
1553635094.572,-120.117,37.598,24.414,33.691,28.320,0
1553635094.576,-114.258,37.109,24.414,34.668,5.371,0
1553635094.580,-89.355,34.180,24.414,32.715,41.016,0
1553635094.584,-88.867,33.691,24.902,32.715,81.543,0
1553635094.588,-93.262,39.551,20.508,33.203,61.523,0
1553635094.592,-86.426,37.109,17.090,38.086,8.301,0
1553635094.596,-82.520,35.156,19.043,42.480,43.945,0
1553635094.600,-75.195,37.109,21.484,54.199,65.918,0
1553635094.604,-67.383,33.691,23.438,64.941,70.312,0
1553635094.608,-72.266,37.109,25.879,60.059,98.145,0
1553635094.612,-85.449,42.969,26.367,35.645,34.180,0
1553635094.615,-100.098,39.062,26.367,22.461,35.156,0
1553635094.619,-107.910,39.062,27.344,30.762,6.836,0
1553635094.623,-114.746,45.898,25.391,12.695,14.160,0
1553635094.627,-123.047,39.062,22.461,-1.953,82.520,0
1553635094.631,-119.629,31.738,24.414,9.277,59.570,0
1553635094.635,-123.047,31.250,26.367,16.602,21.973,0
1553635094.639,-104.004,32.227,24.902,25.879,19.043,0
1553635094.643,-78.125,35.156,24.902,44.434,56.641,0
1553635094.647,-83.008,34.180,24.902,51.270,41.992,0
1553635094.651,-78.613,34.180,25.391,46.875,27.832,0
1553635094.655,-78.613,35.645,27.832,61.523,40.039,0
1553635094.658,-88.867,36.621,30.762,67.871,41.992,0
1553635094.662,-68.848,38.574,26.367,62.012,65.430,0
1553635094.666,-67.383,33.691,25.391,69.336,21.484,0
1553635094.670,-82.520,31.250,24.902,75.195,12.695,0
1553635094.674,-70.801,35.156,20.996,74.219,72.266,0
1553635094.678,-52.246,36.621,20.508,69.336,67.383,0
1553635094.682,-53.223,35.645,22.461,66.895,80.566,0
1553635094.686,-56.641,34.668,24.902,68.359,37.109,0
1553635094.690,-56.152,39.062,23.438,76.172,43.945,0
1553635094.694,-60.059,36.621,20.996,81.055,38.086,0
1553635094.697,-53.223,35.156,21.484,76.660,-10.254,0
1553635094.701,-44.434,35.645,23.438,86.426,12.695,0
1553635094.705,-38.086,34.180,25.879,96.191,-8.301,0
1553635094.709,-38.574,35.156,26.367,90.820,48.340,0
1553635094.713,-43.457,35.156,24.902,87.891,62.012,0
1553635094.717,-52.246,38.086,23.926,87.891,34.180,0
1553635094.721,-57.617,41.016,21.973,88.379,95.215,0
1553635094.725,-46.387,34.668,23.438,91.309,37.109,0
1553635094.729,-49.316,33.203,24.902,92.773,-33.691,0
1553635094.733,-56.152,33.203,24.414,84.961,-38.086,0
1553635094.737,-47.852,32.715,21.484,77.637,9.277,0
1553635094.740,-53.223,30.273,19.043,75.684,53.711,0
1553635094.744,-54.199,29.297,18.555,71.777,65.430,0
1553635094.748,-58.105,31.250,22.949,76.660,41.504,0
1553635094.752,-65.430,33.691,20.508,82.031,77.148,0
1553635094.756,-59.082,32.715,17.578,86.426,67.871,0
1553635094.760,-47.852,26.855,23.438,79.590,9.766,0
1553635094.764,-36.621,32.227,21.484,68.848,41.992,0
1553635094.768,-26.367,35.645,17.090,75.195,38.086,0
1553635094.772,-20.508,35.156,20.508,75.684,40.039,0
1553635094.776,-31.738,35.156,20.996,74.707,37.109,0
1553635094.780,-56.152,34.668,20.508,90.820,20.020,0
1553635094.783,-53.711,36.621,21.484,87.402,30.273,0
1553635094.787,-49.805,32.715,20.996,72.266,41.016,0
1553635094.791,-46.875,34.668,21.484,77.148,24.414,0
1553635094.795,-50.293,37.598,20.996,80.078,66.895,0
1553635094.799,-54.688,32.227,22.461,77.637,109.863,0
1553635094.803,-48.828,32.715,25.391,86.426,5.371,0
1553635094.807,-40.039,34.668,26.855,91.797,-40.527,0
1553635094.811,-35.645,38.086,26.367,84.473,-21.973,0
1553635094.815,-40.039,39.551,24.414,83.496,-40.039,0
1553635094.819,-27.344,34.180,23.438,94.238,22.461,0
1553635094.822,-21.484,33.203,27.344,96.191,75.684,0
1553635094.826,-23.438,31.250,29.785,105.957,56.152,0
1553635094.830,-26.367,40.527,23.438,103.027,85.449,0
1553635094.834,-47.852,51.758,19.531,75.195,90.332,0
1553635094.838,-57.129,48.828,18.555,64.941,32.227,0
1553635094.842,-42.480,45.898,15.625,67.383,18.066,0
1553635094.846,-45.410,50.781,12.695,66.895,60.059,0
1553635094.850,-50.781,48.340,12.207,67.871,57.129,0
1553635094.854,-55.176,44.922,16.113,59.570,29.785,0
1553635094.858,-57.129,46.875,16.113,64.941,-15.625,0
1553635094.862,-41.016,47.363,15.137,72.754,-5.371,0
1553635094.865,-25.391,48.340,15.137,66.406,31.738,0
1553635094.869,-26.855,50.293,16.113,73.730,4.395,0
1553635094.873,-48.340,48.828,16.602,72.266,-39.551,0
1553635094.877,-39.062,53.711,14.160,66.895,10.742,0
1553635094.881,-33.691,54.199,9.766,71.289,34.668,0
1553635094.885,-47.363,42.969,8.789,56.152,12.207,0
1553635094.889,-35.645,43.457,11.230,52.246,-13.184,0
1553635094.893,-38.086,44.922,11.719,60.059,0.488,0
1553635094.897,-51.270,44.922,8.789,62.988,36.621,0
1553635094.901,-48.828,44.434,9.766,60.059,44.922,0
1553635094.905,-49.805,42.969,12.695,55.664,72.266,0
1553635094.908,-32.227,41.992,13.672,58.594,53.711,0
1553635094.912,-33.203,44.434,16.113,49.805,5.859,0
1553635094.916,-61.035,46.387,15.625,45.898,-1.465,0
1553635094.920,-63.477,39.551,14.160,62.500,20.020,0
1553635094.924,-61.035,37.109,14.160,67.383,21.484,0
1553635094.928,-55.664,39.062,14.160,53.711,1.953,0
1553635094.932,-56.152,39.062,15.137,56.641,-3.906,0
1553635094.936,-50.293,41.016,17.090,64.941,-11.719,0
1553635094.940,-48.828,42.480,18.066,46.387,36.133,0
1553635094.944,-59.570,36.621,16.602,38.574,20.996,0
1553635094.947,-58.594,41.992,11.230,45.410,0.000,0
1553635094.951,-45.898,43.457,11.230,45.410,51.758,0
1553635094.955,-49.805,32.715,18.555,59.570,51.270,0
1553635094.959,-54.688,35.645,18.066,62.988,43.945,0
1553635094.963,-46.387,39.551,15.137,51.270,21.484,0
1553635094.967,-49.805,39.062,18.066,54.199,6.836,0
1553635094.971,-46.387,38.574,19.043,53.711,22.461,0
1553635094.975,-43.945,39.551,20.996,62.988,14.160,0
1553635094.979,-49.316,41.992,22.949,70.801,34.668,0
1553635094.983,-40.527,42.969,21.973,71.289,71.777,0
1553635094.987,-38.086,41.016,23.926,76.660,13.672,0
1553635094.990,-41.992,45.898,22.461,76.172,6.348,0
1553635094.994,-38.086,45.410,18.066,70.312,-3.906,0
1553635094.998,-25.879,39.062,17.578,69.336,-3.418,0
1553635095.002,-20.996,40.527,17.578,70.312,50.293,0
1553635095.006,-36.621,41.504,18.555,73.242,18.555,0
1553635095.010,-35.156,43.457,20.020,73.730,19.043,0
1553635095.014,-27.832,45.898,22.461,71.777,59.570,0
1553635095.018,-44.434,42.969,21.973,72.754,75.684,0
1553635095.022,-43.945,42.480,20.508,80.078,45.898,0
1553635095.026,-45.410,40.527,24.902,77.148,21.484,0
1553635095.030,-46.387,37.598,25.879,68.359,15.625,0
1553635095.033,-37.598,42.969,24.414,76.660,43.945,0
1553635095.037,-34.668,41.504,24.902,76.172,51.270,0
1553635095.041,-47.363,39.062,26.367,64.941,1.465,0
1553635095.045,-52.734,41.504,26.367,62.988,-29.297,0
1553635095.049,-46.875,40.039,24.902,63.477,20.508,0
1553635095.053,-48.828,36.621,23.438,70.801,40.039,0
1553635095.057,-49.316,33.691,21.484,80.078,-11.719,0
1553635095.061,-35.156,37.598,19.531,72.754,22.949,0
1553635095.065,-27.832,38.086,22.949,64.453,25.879,0
1553635095.069,-47.363,35.156,24.902,71.777,13.184,0
1553635095.072,-49.805,33.203,22.949,69.824,26.367,0
1553635095.076,-44.922,37.109,25.879,73.242,45.410,0
1553635095.080,-40.039,37.598,29.785,75.195,49.316,0
1553635095.084,-40.527,31.250,27.344,71.289,48.340,0
1553635095.088,-42.480,30.273,26.367,71.777,20.020,0
1553635095.092,-24.902,32.715,27.344,68.359,13.672,0
1553635095.096,-13.184,36.621,20.020,80.078,16.113,0
1553635095.100,-30.273,32.715,23.926,82.031,28.809,0
1553635095.104,-49.805,26.855,33.691,73.242,50.781,0
1553635095.108,-64.453,25.391,32.227,69.336,47.852,0
1553635095.112,-63.965,20.020,38.574,70.801,61.035,0
1553635095.115,-46.875,20.020,41.016,81.055,43.945,0
1553635095.119,-44.922,19.043,39.062,71.289,20.508,0
1553635095.123,-52.734,17.090,38.574,59.082,71.777,0
1553635095.127,-55.664,18.066,37.598,62.012,35.156,0
1553635095.131,-41.504,19.531,34.180,75.195,-14.648,0
1553635095.135,-45.898,22.949,30.273,68.359,43.945,0
1553635095.139,-52.734,22.949,31.738,74.707,43.945,0
1553635095.143,-38.574,24.902,29.297,84.961,0.488,0
1553635095.147,-42.969,25.391,25.391,71.777,16.602,0
1553635095.151,-53.223,26.367,24.902,78.613,26.855,0
1553635095.155,-44.922,29.785,28.809,82.520,9.766,0
1553635095.158,-36.133,29.785,31.738,83.008,46.387,0
1553635095.162,-31.250,26.367,31.250,89.355,52.734,0
1553635095.166,-30.762,26.367,32.715,88.379,3.906,0
1553635095.170,-32.715,32.227,34.180,84.961,51.270,0
1553635095.174,-27.832,26.855,33.203,74.707,71.777,0
1553635095.178,-28.320,23.926,32.715,71.289,53.711,0
1553635095.182,-31.250,29.785,29.297,74.707,11.230,0
1553635095.186,-35.156,29.785,30.762,70.312,-14.648,0
1553635095.190,-29.297,25.879,32.715,66.895,-14.160,0
1553635095.194,-30.273,30.762,31.250,64.941,68.359,0
1553635095.197,-44.922,29.297,30.273,59.082,93.750,0
1553635095.201,-44.434,23.438,27.344,59.570,45.898,0
1553635095.205,-41.504,27.832,24.902,58.594,29.297,0
1553635095.209,-43.457,28.809,22.949,62.988,16.113,0
1553635095.213,-37.598,28.809,20.508,64.453,64.941,0
1553635095.217,-35.156,28.809,21.484,66.406,47.852,0
1553635095.221,-40.527,27.832,21.973,71.777,-0.977,0
1553635095.225,-41.992,20.996,22.461,79.102,29.297,0
1553635095.229,-29.297,26.855,21.484,82.031,57.617,0
1553635095.233,-22.461,32.227,22.461,81.055,30.762,0
1553635095.237,-37.109,24.414,25.879,85.449,-2.930,0
1553635095.240,-32.715,26.367,24.902,84.961,12.207,0
1553635095.244,-13.672,31.250,22.949,82.520,26.855,0
1553635095.248,-15.625,34.180,22.461,85.449,16.602,0
1553635095.252,-35.645,33.203,23.438,87.402,56.641,0
1553635095.256,-30.762,32.227,21.973,71.777,74.707,0
1553635095.260,-15.137,31.250,22.949,70.312,35.645,0
1553635095.264,-27.344,37.598,23.438,79.102,83.008,0
1553635095.268,-45.410,35.645,21.484,67.383,70.801,0
1553635095.272,-42.480,26.367,24.414,66.895,22.949,0
1553635095.276,-28.320,32.227,22.461,65.918,70.801,0
1553635095.280,-37.598,36.621,18.555,56.152,69.336,0
1553635095.283,-50.781,30.762,20.508,56.152,1.465,0
1553635095.287,-37.598,28.809,20.508,57.617,22.949,0
1553635095.291,-37.598,29.785,23.926,71.777,50.781,0
1553635095.295,-44.434,31.250,22.949,74.707,16.602,0
1553635095.299,-20.020,38.574,14.648,63.965,30.273,0
1553635095.303,-1.465,37.598,15.137,66.895,60.059,0
1553635095.307,-34.180,29.297,25.391,67.871,67.383,0
1553635095.311,-62.012,23.926,34.180,60.547,59.082,0
1553635095.315,-51.270,19.531,33.203,69.336,60.059,0
1553635095.319,-43.457,17.090,32.715,67.383,2.930,0
1553635095.322,-36.621,15.137,34.668,62.988,33.691,0
1553635095.326,-36.133,12.207,36.621,73.242,25.879,0
1553635095.330,-45.898,13.184,35.645,67.383,-27.832,0
1553635095.334,-49.316,23.438,28.320,60.547,24.414,0
1553635095.338,-39.062,21.484,25.879,64.941,31.250,0
1553635095.342,-29.785,16.602,24.902,79.590,-53.711,0
1553635095.346,-29.785,23.926,24.414,83.984,-45.410,0
1553635095.350,-34.180,26.367,27.832,76.660,7.324,0
1553635095.354,-42.969,25.391,30.273,82.031,1.465,0
1553635095.358,-37.109,26.367,31.250,91.309,-1.953,0
1553635095.362,-29.297,24.414,33.203,76.660,30.762,0
1553635095.365,-22.949,23.438,31.250,81.055,16.113,0
1553635095.369,-28.809,30.762,31.250,76.172,-37.109,0
1553635095.373,-41.504,30.762,31.250,59.082,6.348,0
1553635095.377,-36.133,23.438,30.762,71.289,12.207,0
1553635095.381,-19.043,27.832,30.273,77.637,-3.906,0
1553635095.385,-25.879,25.391,28.809,74.219,7.812,0
1553635095.389,-33.203,21.484,29.297,69.824,9.766,0
1553635095.393,-26.367,23.926,29.297,82.031,25.391,0
1553635095.397,-22.949,27.832,26.855,87.402,92.773,0
1553635095.401,-20.508,25.391,27.832,80.566,72.266,0
1553635095.405,-23.438,26.855,26.367,86.426,40.527,0
1553635095.408,-19.531,29.785,28.320,92.285,61.523,0
1553635095.412,-20.508,24.902,29.785,91.309,18.555,0
1553635095.416,-20.996,29.785,26.367,81.543,48.340,0
1553635095.420,-15.625,31.250,28.320,86.914,84.961,0
1553635095.424,-24.414,27.832,27.832,84.961,86.426,0
1553635095.428,-32.227,30.273,25.391,84.473,88.379,0
1553635095.432,-33.203,31.250,26.855,93.750,64.941,0
1553635095.436,-19.043,29.785,30.273,83.984,78.613,0
1553635095.440,-18.555,29.297,28.809,66.406,38.574,0
1553635095.444,-39.551,33.691,27.832,72.754,2.930,0
1553635095.447,-33.691,36.133,30.273,82.520,1.465,0
1553635095.451,-13.672,33.203,32.227,79.590,45.898,0
1553635095.455,-20.020,32.227,32.715,79.590,65.918,0
1553635095.459,-27.344,30.273,30.762,85.938,13.672,0
1553635095.463,-22.949,32.715,29.785,87.402,40.527,0
1553635095.467,-21.484,33.691,32.715,87.402,109.863,0
1553635095.471,-13.184,36.133,35.156,95.703,79.102,0
1553635095.475,-14.648,36.621,31.738,93.750,24.902,0
1553635095.479,-12.207,34.180,29.297,83.984,13.672,0
1553635095.483,-21.973,33.203,30.273,79.590,93.750,0
1553635095.487,-41.992,38.574,31.250,79.102,83.984,0
1553635095.490,-32.227,37.598,30.762,84.473,-9.277,0
1553635095.494,-30.762,29.297,32.227,83.496,15.625,0
1553635095.498,-32.227,30.762,33.203,89.355,37.109,0
1553635095.502,-21.484,33.203,28.320,85.938,-6.348,0
1553635095.506,-16.113,31.250,29.785,72.754,-39.062,0
1553635095.510,-15.625,30.273,30.273,74.219,-11.230,0
1553635095.514,-32.227,30.762,26.855,78.125,44.922,0
1553635095.518,-28.809,33.691,25.879,74.707,78.613,0
1553635095.522,-20.996,36.133,23.926,78.613,96.680,0
1553635095.526,-31.250,33.691,26.367,85.449,90.820,0
1553635095.530,-16.602,34.180,26.855,90.820,88.867,0
1553635095.533,-22.461,31.738,27.832,100.098,26.855,0
1553635095.537,-17.578,25.879,30.762,106.934,-9.277,0
1553635095.541,-12.207,32.715,22.949,93.262,-9.277,0
1553635095.545,-34.668,47.852,13.672,69.824,-20.020,0
1553635095.549,-27.832,53.223,11.230,62.012,-0.977,0
1553635095.553,-28.320,52.734,9.766,61.523,51.270,0
1553635095.557,-34.180,52.734,7.812,62.500,76.172,0
1553635095.561,-33.691,61.035,2.441,63.477,49.805,0
1553635095.565,-37.109,66.406,-0.488,57.129,48.340,0
1553635095.569,-40.039,62.012,0.977,63.477,43.457,0
1553635095.572,-34.668,62.988,3.906,62.500,48.828,0
1553635095.576,-19.531,64.453,3.418,61.523,124.512,0
1553635095.580,-19.531,58.594,5.371,79.102,52.734,0
1553635095.584,-18.555,63.477,4.395,73.730,8.301,0
1553635095.588,-20.996,61.523,5.371,58.105,20.508,0
1553635095.592,-24.902,55.664,7.324,56.641,-4.883,0
1553635095.596,-22.461,54.688,7.812,65.430,-7.324,0
1553635095.600,-22.461,52.246,9.766,81.543,-22.461,0
1553635095.604,-2.441,55.176,11.230,78.125,18.066,0
1553635095.608,-4.395,55.664,11.230,78.613,89.844,0
1553635095.612,-8.789,52.734,10.254,89.355,120.117,0
1553635095.615,-7.812,50.293,12.695,82.520,90.332,0
1553635095.619,-20.020,49.805,13.672,84.473,57.617,0
1553635095.623,-22.949,46.875,16.113,100.098,-11.230,0
1553635095.627,-29.297,48.340,15.137,91.797,-37.109,0
1553635095.631,-28.320,50.293,14.160,77.637,48.340,0
1553635095.635,-24.414,44.922,19.043,79.590,46.875,0
1553635095.639,-22.461,46.387,18.555,86.914,12.207,0
1553635095.643,-12.695,48.828,17.578,86.914,15.137,0
1553635095.647,-10.742,51.270,19.043,81.543,8.301,0
1553635095.651,-4.883,51.270,19.043,90.820,-44.922,0
1553635095.655,-14.160,49.316,20.020,89.355,-25.879,0
1553635095.658,-12.695,48.828,21.484,90.820,2.441,0
1553635095.662,-3.418,47.852,23.926,92.773,-17.578,0
1553635095.666,-13.672,50.781,20.996,79.590,-0.488,0
1553635095.670,-14.648,49.316,21.973,93.262,-13.672,0
1553635095.674,-3.418,45.898,24.414,109.375,-30.273,0
1553635095.678,-4.883,47.363,20.996,95.703,0.000,0
1553635095.682,1.953,45.898,21.484,86.914,0.488,0
1553635095.686,6.836,45.410,21.973,89.355,-8.789,0
1553635095.690,-7.812,47.852,21.973,88.379,48.340,0
1553635095.694,-10.254,47.852,21.484,90.332,60.059,0
1553635095.697,-12.207,45.410,22.461,89.355,25.391,0
1553635095.701,-18.066,49.316,21.973,93.262,40.527,0
1553635095.705,-20.508,49.805,20.020,85.938,65.430,0
1553635095.709,-9.766,42.969,21.973,70.801,81.055,0
1553635095.713,0.977,45.898,21.484,74.707,78.613,0
1553635095.717,-16.113,45.410,19.043,81.055,25.879,0
1553635095.721,-18.555,43.945,21.973,88.867,-13.184,0
1553635095.725,-7.812,44.922,22.949,95.215,-24.414,0
1553635095.729,-9.277,44.922,23.926,99.121,4.395,0
1553635095.733,-11.230,43.457,27.344,102.051,68.359,0
1553635095.737,-3.906,43.945,25.879,102.539,31.250,0
1553635095.740,-2.441,44.434,24.414,92.773,-18.555,0
1553635095.744,-5.371,44.922,24.902,91.797,4.883,0
1553635095.748,-13.672,44.434,22.949,91.309,89.844,0
1553635095.752,-24.902,40.527,22.949,85.449,45.410,0
1553635095.756,-30.273,44.434,22.461,87.402,-50.781,0
1553635095.760,-33.691,45.410,22.461,87.891,-2.441,0
1553635095.764,-20.508,42.969,22.949,93.262,17.090,0
1553635095.768,-7.324,41.016,24.414,97.656,23.438,0
1553635095.772,4.883,39.551,26.367,97.656,-9.277,0
1553635095.776,9.766,41.016,26.367,110.352,-21.484,0
1553635095.780,-9.277,40.527,28.809,102.539,3.906,0
1553635095.783,-23.438,37.598,28.809,80.078,22.461,0
1553635095.787,-31.738,35.645,27.344,59.570,42.480,0
1553635095.791,-36.133,37.598,24.902,60.059,63.965,0
1553635095.795,-25.391,39.062,25.391,74.219,41.504,0
1553635095.799,-15.137,39.062,27.344,72.266,26.367,0
1553635095.803,-22.949,38.574,26.367,81.055,33.691,0
1553635095.807,-27.832,37.109,27.832,91.797,42.480,0
1553635095.811,-21.973,38.574,25.879,88.379,57.617,0
1553635095.815,-20.020,37.598,23.926,83.008,85.938,0
1553635095.819,-26.367,36.621,20.996,86.426,99.121,0
1553635095.822,-29.785,33.691,24.902,85.938,33.691,0
1553635095.826,-23.926,27.832,30.762,86.426,10.742,0
1553635095.830,-31.250,33.203,25.391,82.520,56.641,0
1553635095.834,-39.551,32.227,25.391,82.031,81.055,0
1553635095.838,-36.133,29.785,25.391,82.031,91.309,0
1553635095.842,-21.973,33.691,22.949,74.219,72.266,0
1553635095.846,-21.973,35.156,25.879,62.012,-6.836,0
1553635095.850,-35.156,33.691,27.832,67.383,4.883,0
1553635095.854,-39.551,31.738,29.297,77.637,87.402,0
1553635095.858,-33.203,35.645,27.832,75.684,74.219,0
1553635095.862,-32.715,37.109,24.902,77.148,20.508,0
1553635095.865,-32.227,33.691,25.391,75.195,60.059,0
1553635095.869,-41.504,32.715,25.879,83.008,89.355,0
1553635095.873,-37.598,34.668,27.832,82.520,71.777,0
1553635095.877,-24.414,37.109,26.367,73.242,-24.902,0
1553635095.881,-33.203,34.668,25.879,69.824,20.020,0
1553635095.885,-46.387,31.738,27.832,57.617,85.938,0
1553635095.889,-42.480,36.133,27.344,61.523,73.242,0
1553635095.893,-36.621,35.645,27.344,68.848,39.062,0
1553635095.897,-28.809,33.691,27.832,76.660,-2.930,0
1553635095.901,-28.809,37.109,28.320,74.219,51.758,0
1553635095.905,-33.203,37.598,27.832,73.730,82.520,0
1553635095.908,-35.156,34.668,26.855,79.102,26.855,0
1553635095.912,-43.945,35.645,24.414,68.848,21.484,0
1553635095.916,-41.016,33.691,25.879,79.590,7.324,0
1553635095.920,-28.809,32.715,28.320,88.379,-41.992,0
1553635095.924,-23.926,36.621,27.832,72.266,-3.906,0
1553635095.928,-26.855,34.668,28.809,69.824,49.805,0
1553635095.932,-26.367,32.227,30.762,72.266,-21.484,0
1553635095.936,-25.391,34.668,31.738,71.777,-25.391,0
1553635095.940,-35.645,31.738,31.250,79.590,83.496,0
1553635095.944,-36.621,31.738,26.855,80.566,82.520,0
1553635095.947,-31.738,35.156,23.438,74.219,30.273,0
1553635095.951,-27.832,35.645,27.344,78.613,45.410,0
1553635095.955,-37.109,35.156,31.738,78.125,51.758,0
1553635095.959,-48.828,32.715,32.715,79.590,36.621,0
1553635095.963,-41.992,39.551,26.367,77.148,-19.043,0
1553635095.967,-38.086,39.062,27.832,71.777,-10.254,0
1553635095.971,-40.039,32.227,28.320,80.566,-2.441,0
1553635095.975,-33.691,34.668,26.367,83.008,36.133,0
1553635095.979,-24.902,34.180,26.855,83.008,51.758,0
1553635095.983,-20.020,35.156,26.367,88.867,21.973,0
1553635095.987,-23.926,36.133,27.832,82.031,12.207,0
1553635095.990,-34.180,34.668,28.320,80.078,32.227,0
1553635095.994,-20.020,34.180,28.320,93.262,45.410,0
1553635095.998,-7.812,35.645,27.344,95.703,16.602,0
1553635096.002,-35.645,39.551,25.879,66.406,21.973,0
1553635096.006,-43.945,38.574,24.902,46.875,85.449,0
1553635096.010,-46.875,36.621,23.926,58.594,40.527,0
1553635096.014,-57.617,36.621,21.973,60.059,-71.777,0
1553635096.018,-56.641,36.133,22.461,63.477,7.812,0
1553635096.022,-60.547,33.203,20.996,66.895,112.305,0
1553635096.026,-62.988,34.668,19.531,58.594,83.008,0
1553635096.030,-46.387,38.574,19.043,54.688,93.750,0
1553635096.033,-38.086,32.715,21.973,66.895,80.078,0
1553635096.037,-31.738,29.785,24.902,62.988,43.945,0
1553635096.041,-32.227,36.621,22.949,55.176,39.062,0
1553635096.045,-47.363,34.668,23.438,58.594,65.430,0
1553635096.049,-38.086,32.715,26.367,62.500,79.590,0
1553635096.053,-41.016,40.039,24.414,65.918,22.949,0
1553635096.057,-36.133,41.992,19.531,60.547,-0.977,0
1553635096.061,-19.531,37.109,22.949,69.824,44.434,0
1553635096.065,-26.855,39.062,32.227,78.125,21.973,0
1553635096.069,-25.879,39.062,31.738,72.754,-47.852,0
1553635096.072,-34.180,40.039,29.785,71.289,12.207,0
1553635096.076,-31.738,40.527,29.785,76.172,59.570,0
1553635096.080,-26.367,41.504,25.391,83.008,-20.508,0
1553635096.084,-31.738,41.504,25.391,80.566,-25.391,0
1553635096.088,-25.879,38.574,29.297,92.773,21.973,0
1553635096.092,-16.113,37.598,27.832,85.449,37.109,0
1553635096.096,-19.043,37.109,27.832,67.383,41.504,0
1553635096.100,-34.180,36.621,30.273,79.102,-0.488,0
1553635096.104,-35.156,36.621,29.785,87.402,23.438,0
1553635096.108,-34.668,38.086,25.879,79.590,20.020,0
1553635096.112,-30.273,36.133,24.902,72.266,-9.277,0
1553635096.115,-20.508,35.156,27.832,74.707,34.668,0
1553635096.119,-20.508,37.109,32.227,78.613,45.410,0
1553635096.123,-31.250,33.203,32.715,76.660,71.777,0
1553635096.127,-33.691,32.715,28.320,72.266,107.910,0
1553635096.131,-16.602,38.574,24.414,63.477,70.801,0
1553635096.135,-24.902,40.527,25.391,61.035,45.410,0
1553635096.139,-37.109,34.668,26.855,81.543,29.297,0
1553635096.143,-30.273,36.621,25.879,78.125,7.812,0
1553635096.147,-24.902,37.598,28.320,62.500,-0.488,0
1553635096.151,-32.715,37.109,27.832,66.406,50.781,0
1553635096.155,-30.762,38.086,27.344,72.754,50.781,0
1553635096.158,-24.902,38.086,27.832,77.637,60.547,0
1553635096.162,-33.691,37.598,25.879,74.219,71.777,0
1553635096.166,-32.227,34.668,28.320,82.031,49.805,0
1553635096.170,-35.156,32.715,30.762,88.379,14.160,0
1553635096.174,-39.062,36.621,26.367,76.660,-8.789,0
1553635096.178,-25.391,36.133,25.879,77.148,24.414,0
1553635096.182,-24.414,32.715,31.738,84.961,56.152,0
1553635096.186,-41.016,33.691,27.832,80.566,90.332,0
1553635096.190,-29.297,37.109,26.367,71.777,33.203,0
1553635096.194,-19.531,42.969,27.344,77.637,7.812,0
1553635096.197,-28.809,39.062,22.949,76.172,59.082,0
1553635096.201,-19.043,39.551,24.902,82.031,100.098,0
1553635096.205,-12.207,40.527,27.344,89.355,58.594,0
1553635096.209,-11.230,39.551,26.367,82.520,40.527,0
1553635096.213,-7.324,41.504,28.320,85.938,76.660,0
1553635096.217,-28.320,39.551,28.809,88.867,21.484,0
1553635096.221,-43.457,39.551,28.809,76.172,2.930,0
1553635096.225,-26.855,40.527,27.344,69.824,25.879,0
1553635096.229,-21.973,41.504,21.973,62.988,20.020,0
1553635096.233,-7.324,44.434,20.020,74.707,42.480,0
1553635096.237,-15.625,40.039,30.273,80.566,17.578,0
1553635096.240,-41.504,30.273,36.621,67.871,-20.020,0
1553635096.244,-48.340,25.391,36.133,70.801,51.758,0
1553635096.248,-42.969,25.879,39.551,68.359,47.363,0
1553635096.252,-46.875,22.949,40.527,65.918,15.625,0
1553635096.256,-41.016,21.484,37.109,66.406,-8.301,0
1553635096.260,-35.156,27.832,32.227,55.664,19.043,0
1553635096.264,-42.480,25.391,34.180,52.246,23.926,0
1553635096.268,-29.297,23.926,31.738,71.289,9.277,0
1553635096.272,-35.645,27.832,24.902,68.848,51.758,0
1553635096.276,-44.434,30.273,31.738,65.918,48.828,0
1553635096.280,-44.922,27.832,35.156,69.824,8.301,0
1553635096.283,-35.645,25.879,35.156,73.242,29.297,0
1553635096.287,-29.785,29.785,36.621,67.383,52.246,0
1553635096.291,-38.574,30.273,33.691,63.965,58.105,0
1553635096.295,-29.297,32.227,30.273,66.895,20.508,0
1553635096.299,-21.973,32.227,27.832,67.871,-8.789,0
1553635096.303,-38.086,38.574,25.391,74.219,-52.734,0
1553635096.307,-38.086,40.527,28.320,64.453,-40.039,0
1553635096.311,-21.484,31.738,34.180,75.195,26.855,0
1553635096.315,-1.953,35.156,33.691,87.891,65.430,0
1553635096.319,-14.648,37.598,33.691,69.824,64.941,0
1553635096.322,-36.133,36.621,33.203,67.871,-43.457,0
1553635096.326,-32.715,36.621,32.715,69.824,-42.480,0
1553635096.330,-41.992,35.156,33.203,53.223,36.621,0
1553635096.334,-50.781,34.180,32.227,63.477,47.363,0
1553635096.338,-26.855,37.109,33.203,66.406,70.801,0
1553635096.342,-13.184,36.133,31.738,64.941,101.562,0
1553635096.346,-30.273,35.645,30.762,78.125,33.691,0
1553635096.350,-27.832,36.621,31.738,72.754,16.602,0
1553635096.354,-26.855,37.598,29.785,66.406,19.043,0
1553635096.358,-26.855,39.062,28.809,70.801,-5.859,0
1553635096.362,-32.227,37.109,29.785,70.801,8.789,0
1553635096.365,-31.738,43.945,26.367,65.918,-1.465,0
1553635096.369,-15.137,41.992,26.367,71.289,-7.324,0
1553635096.373,-28.320,33.203,28.809,72.266,60.547,0
1553635096.377,-44.434,36.133,26.855,64.453,90.332,0
1553635096.381,-34.668,34.180,28.320,71.289,72.266,0
1553635096.385,-40.527,34.180,27.832,65.918,0.488,0
1553635096.389,-48.340,38.086,21.973,66.406,-25.879,0
1553635096.393,-33.203,36.621,23.926,69.336,49.805,0
1553635096.397,-42.969,29.297,35.156,62.012,50.293,0
1553635096.401,-56.641,23.438,40.039,61.035,21.973,0
1553635096.405,-51.270,22.949,36.133,57.617,58.105,0
1553635096.408,-55.176,19.043,37.598,61.523,18.066,0
1553635096.412,-50.293,17.578,36.621,56.641,-18.066,0
1553635096.416,-44.922,21.484,30.273,52.246,39.551,0
1553635096.420,-62.988,19.531,34.180,51.758,58.594,0
1553635096.424,-60.059,23.438,35.156,54.199,72.754,0
1553635096.428,-58.105,23.926,31.250,59.570,27.344,0
1553635096.432,-63.965,17.578,30.273,62.988,27.344,0
1553635096.436,-45.898,17.578,33.691,70.801,10.254,0
1553635096.440,-36.621,17.578,35.156,69.336,-47.852,0
1553635096.444,-54.199,20.508,33.203,64.941,22.949,0
1553635096.447,-60.059,20.508,33.203,65.918,-8.301,0
1553635096.451,-51.758,23.926,33.203,61.035,-68.848,0
1553635096.455,-57.617,27.344,33.203,58.594,13.672,0
1553635096.459,-52.246,25.879,32.227,50.781,30.273,0
1553635096.463,-42.480,32.715,30.762,54.199,11.719,0
1553635096.467,-51.758,32.227,27.832,59.570,61.523,0
1553635096.471,-49.805,27.832,29.297,59.082,75.684,0
1553635096.475,-52.246,29.785,30.273,51.270,72.266,0
1553635096.479,-66.406,25.391,27.832,41.504,29.297,0
1553635096.483,-65.430,23.438,28.320,46.387,58.594,0
1553635096.487,-64.941,22.461,30.762,55.664,97.656,0
1553635096.490,-67.383,22.949,29.785,60.059,40.527,0
1553635096.494,-60.547,23.438,27.344,55.176,20.508,0
1553635096.498,-56.152,22.949,27.344,58.594,-16.602,0
1553635096.502,-64.941,25.879,25.879,58.105,-20.996,0
1553635096.506,-64.941,28.320,24.414,54.688,55.176,0
1553635096.510,-62.988,27.832,27.344,56.152,60.059,0
1553635096.514,-62.500,27.832,27.832,60.547,59.082,0
1553635096.518,-52.246,29.785,25.879,63.477,57.129,0
1553635096.522,-57.129,31.738,27.832,72.266,19.043,0
1553635096.526,-62.012,35.156,30.273,69.824,41.992,0
1553635096.530,-55.176,34.180,30.273,55.176,43.457,0
1553635096.533,-65.918,30.762,28.809,53.711,30.762,0
1553635096.537,-68.359,33.691,26.855,47.852,9.277,0
1553635096.541,-61.035,34.180,29.785,58.594,-44.434,0
1553635096.545,-62.500,28.809,29.785,65.918,-60.059,0
1553635096.549,-63.965,31.250,28.320,55.664,-5.371,0
1553635096.553,-59.082,33.691,28.320,53.711,-11.719,0
1553635096.557,-60.547,29.297,30.762,62.988,-13.184,0
1553635096.561,-54.688,24.414,34.180,78.125,38.574,0
1553635096.565,-39.062,34.180,27.344,82.520,61.035,0
1553635096.569,-49.805,48.340,19.043,58.594,58.105,0
1553635096.572,-73.730,50.781,14.160,42.969,14.648,0
1553635096.576,-65.918,53.711,13.184,42.480,-13.184,0
1553635096.580,-49.316,58.105,15.625,45.898,35.156,0
1553635096.584,-51.758,62.500,10.254,52.246,78.613,0
1553635096.588,-56.152,62.500,4.883,55.664,8.301,0
1553635096.592,-51.270,62.988,4.883,45.898,5.859,0
1553635096.596,-55.176,67.383,0.488,37.109,46.875,0
1553635096.600,-60.059,62.500,4.395,45.410,54.688,0
1553635096.604,-60.059,56.641,13.672,49.805,80.078,0
1553635096.608,-54.688,55.664,20.508,58.594,74.219,0
1553635096.612,-39.062,51.758,24.902,56.152,78.613,0
1553635096.615,-52.246,54.199,19.531,57.129,71.289,0
1553635096.619,-56.641,63.477,16.602,64.453,90.332,0
1553635096.623,-46.387,58.105,20.020,65.918,86.426,0
1553635096.627,-45.898,55.664,19.531,69.824,62.988,0
1553635096.631,-44.922,57.129,18.066,72.266,64.941,0
1553635096.635,-37.109,55.664,16.602,68.359,61.035,0
1553635096.639,-38.086,56.152,13.184,60.547,31.738,0
1553635096.643,-36.621,54.199,14.160,58.594,7.324,0
1553635096.647,-34.180,51.758,21.484,58.105,-39.062,0
1553635096.651,-35.156,53.711,24.902,73.242,-20.020,0
1553635096.655,-40.039,51.758,21.973,82.520,-0.977,0
1553635096.658,-42.969,46.875,22.461,80.078,-14.648,0
1553635096.662,-38.086,47.852,24.414,88.867,-11.230,0
1553635096.666,-42.480,49.316,23.438,85.449,-2.930,0
1553635096.670,-43.457,46.875,21.973,85.449,-4.883,0
1553635096.674,-53.711,43.945,23.926,88.867,-18.555,0
1553635096.678,-45.898,42.969,24.414,78.613,-25.391,0
1553635096.682,-39.551,43.457,22.461,83.496,24.902,0
1553635096.686,-42.969,45.410,24.902,94.727,97.656,0
1553635096.690,-36.621,46.387,27.832,94.238,95.215,0
1553635096.694,-37.109,41.504,26.367,90.820,83.496,0
1553635096.697,-41.992,41.992,22.461,91.309,31.250,0
1553635096.701,-47.852,42.969,25.391,82.031,46.387,0
1553635096.705,-48.828,42.480,22.461,74.219,83.008,0
1553635096.709,-41.504,40.527,17.578,79.102,20.020,0
1553635096.713,-38.086,42.969,25.391,83.008,-32.715,0
1553635096.717,-52.246,44.434,29.297,81.543,44.434,0
1553635096.721,-62.988,34.668,28.809,76.660,73.242,0
1553635096.725,-51.758,31.738,27.344,81.055,-2.441,0
1553635096.729,-53.223,35.645,24.414,86.426,2.441,0
1553635096.733,-54.199,39.551,21.973,85.449,21.973,0
1553635096.737,-53.711,36.133,23.926,81.543,41.016,0
1553635096.740,-47.363,38.086,25.879,79.102,29.785,0
1553635096.744,-42.480,41.016,25.879,83.008,46.875,0
1553635096.748,-52.734,37.598,24.902,90.820,47.852,0
1553635096.752,-58.594,38.086,24.414,94.727,34.668,0
1553635096.756,-44.922,38.574,26.367,95.215,52.246,0
1553635096.760,-41.016,37.598,24.414,85.938,75.684,0
1553635096.764,-38.574,40.527,20.996,81.055,89.355,0
1553635096.768,-36.133,38.574,28.809,90.332,69.824,0
1553635096.772,-41.504,38.086,29.785,93.262,43.457,0
1553635096.776,-41.992,40.039,26.855,96.191,7.812,0
1553635096.780,-25.879,41.016,27.344,97.168,1.953,0
1553635096.783,-32.227,36.621,22.949,94.727,52.246,0
1553635096.787,-53.711,40.039,24.902,94.238,72.266,0
1553635096.791,-44.434,44.922,31.250,94.727,106.445,0
1553635096.795,-41.016,35.645,33.203,108.398,97.168,0
1553635096.799,-37.598,31.250,28.809,103.027,64.941,0
1553635096.803,-30.273,34.668,26.855,95.703,108.398,0
1553635096.807,-43.457,39.062,28.320,97.656,83.984,0
1553635096.811,-54.688,36.133,25.879,90.332,-2.930,0
1553635096.815,-52.734,38.574,23.438,93.750,-20.020,0
1553635096.819,-40.039,38.574,25.879,101.074,44.434,0
1553635096.822,-30.273,39.551,26.367,90.820,41.016,0
1553635096.826,-32.715,44.434,25.391,101.074,69.824,0
1553635096.830,-36.621,39.551,29.785,97.168,65.918,0
1553635096.834,-34.180,39.062,31.250,92.773,36.133,0
1553635096.838,-31.250,39.551,26.855,105.957,91.797,0
1553635096.842,-36.621,36.621,24.414,103.516,84.473,0
1553635096.846,-39.551,38.086,24.414,101.562,86.914,0
1553635096.850,-38.086,37.598,22.949,107.422,102.051,0
1553635096.854,-38.574,34.180,23.438,103.027,49.805,0
1553635096.858,-28.320,32.227,28.809,94.727,19.531,0
1553635096.862,-25.879,35.156,24.902,96.191,44.434,0
1553635096.865,-42.969,32.715,23.438,97.168,7.324,0
1553635096.869,-44.434,37.109,23.926,91.797,-48.340,0
1553635096.873,-41.992,37.109,22.461,96.191,42.969,0
1553635096.877,-37.598,28.320,28.809,90.820,109.863,0
1553635096.881,-24.414,32.715,31.738,93.262,54.688,0
1553635096.885,-31.250,35.156,31.250,101.562,-11.230,0
1553635096.889,-41.016,34.180,28.320,92.773,28.320,0
1553635096.893,-42.480,33.691,27.832,87.891,111.328,0
1553635096.897,-44.922,29.785,31.250,97.168,84.961,0
1553635096.901,-33.203,33.691,29.297,89.355,61.035,0
1553635096.905,-22.949,36.621,18.555,83.008,43.945,0
1553635096.908,-23.438,33.691,15.137,97.168,-1.465,0
1553635096.912,-39.062,27.832,25.879,93.750,-22.461,0
1553635096.916,-50.781,25.391,32.715,93.262,-6.348,0
1553635096.920,-44.922,19.531,37.109,92.773,54.199,0
1553635096.924,-50.781,12.207,41.992,88.379,56.152,0
1553635096.928,-42.480,16.602,40.527,93.262,7.324,0
1553635096.932,-45.410,16.113,42.969,83.008,16.113,0
1553635096.936,-54.688,11.719,41.504,71.777,39.062,0
1553635096.940,-44.434,17.578,32.715,83.496,-29.297,0
1553635096.944,-37.598,20.508,32.715,90.820,-11.230,0
1553635096.947,-35.156,18.555,32.227,83.984,64.941,0
1553635096.951,-37.109,21.484,31.250,90.332,48.340,0
1553635096.955,-38.574,23.438,30.762,96.191,42.969,0
1553635096.959,-31.250,22.461,28.809,99.121,58.594,0
1553635096.963,-27.832,22.949,28.320,97.656,89.355,0
1553635096.967,-21.484,23.438,28.320,91.797,30.762,0
1553635096.971,-16.602,25.391,27.344,86.426,-42.969,0
1553635096.975,-28.809,26.367,28.320,79.590,-30.273,0
1553635096.979,-30.273,23.926,33.203,96.191,9.766,0
1553635096.983,-22.949,22.949,34.668,100.586,11.230,0
1553635096.987,-19.043,26.367,32.715,90.332,13.184,0
1553635096.990,-21.973,28.320,28.320,84.961,46.875,0
1553635096.994,-22.461,29.785,29.297,86.426,64.453,0
1553635096.998,-22.461,28.809,33.691,86.426,47.363,0
1553635097.002,-21.484,28.809,35.645,86.914,-7.812,0
1553635097.006,-17.090,29.785,34.668,94.238,-36.133,0
1553635097.010,-20.996,24.902,36.133,98.633,-0.977,0
1553635097.014,-13.672,24.902,33.691,100.586,7.324,0
1553635097.018,-12.695,29.785,32.227,105.957,47.852,0
1553635097.022,-20.020,31.738,32.227,102.539,68.848,0
1553635097.026,-16.602,34.180,28.320,102.539,38.574,0
1553635097.030,-19.531,30.273,28.320,95.703,-4.395,0
1553635097.033,-23.438,28.809,30.762,91.309,-1.465,0
1553635097.037,-19.531,31.738,32.227,101.562,81.055,0
1553635097.041,-14.648,29.785,33.203,111.816,56.152,0
1553635097.045,-16.602,32.227,28.809,111.328,-7.812,0
1553635097.049,-7.812,32.715,30.273,106.445,56.641,0
1553635097.053,-6.836,29.785,35.645,102.539,69.336,0
1553635097.057,-17.090,29.297,28.809,97.656,-3.906,0
1553635097.061,-20.996,31.250,27.832,95.215,-32.227,0
1553635097.065,-15.137,33.691,31.738,99.609,7.324,0
1553635097.069,-12.695,29.785,32.715,99.609,30.762,0
1553635097.072,-15.625,30.273,35.645,99.609,64.941,0
1553635097.076,-2.930,34.180,36.133,102.539,42.480,0
1553635097.080,-2.441,30.273,33.691,98.633,8.301,0
1553635097.084,-9.766,28.320,30.762,102.539,-11.230,0
1553635097.088,-17.578,31.250,31.250,104.004,-0.977,0
1553635097.092,-16.113,33.203,31.250,99.121,34.180,0
1553635097.096,-9.766,32.715,27.832,101.562,55.664,0
1553635097.100,-16.602,30.273,27.344,92.773,59.570,0
1553635097.104,-17.090,30.273,27.344,82.031,11.719,0
1553635097.108,-16.602,31.250,27.344,89.355,13.672,0
1553635097.112,-25.391,30.273,26.855,96.191,46.387,0
1553635097.115,-24.902,29.785,28.320,83.496,13.672,0
1553635097.119,-12.695,29.785,29.785,87.402,5.859,0
1553635097.123,-19.043,28.320,28.809,100.586,27.832,0
1553635097.127,-19.043,26.855,23.438,95.703,-7.324,0
1553635097.131,-13.184,26.367,22.949,94.238,-24.414,0
1553635097.135,-17.090,28.320,24.414,111.328,52.734,0
1553635097.139,-12.695,29.785,23.438,101.074,34.180,0
1553635097.143,-16.602,30.762,22.949,87.891,-10.254,0
1553635097.147,-11.719,30.273,17.578,93.262,0.977,0
1553635097.151,-18.066,30.762,19.531,88.379,-5.371,0
1553635097.155,-28.320,35.645,22.949,80.078,20.508,0
1553635097.158,-17.578,29.785,25.391,87.402,51.270,0
1553635097.162,-8.301,23.926,27.832,95.703,66.406,0
1553635097.166,-10.742,35.156,19.531,84.473,54.688,0
1553635097.170,-25.391,41.504,15.137,72.266,8.301,0
1553635097.174,-26.855,39.062,16.602,70.312,29.785,0
1553635097.178,-22.461,41.504,16.113,77.637,62.500,0
1553635097.182,-19.043,44.434,16.602,85.938,19.043,0
1553635097.186,-23.926,45.410,10.742,79.102,13.184,0
1553635097.190,-26.367,43.457,8.301,75.195,22.949,0
1553635097.194,-20.996,43.457,11.719,76.172,14.648,0
1553635097.197,-24.902,42.969,13.672,87.891,64.453,0
1553635097.201,-11.719,40.039,15.137,103.516,53.223,0
1553635097.205,-0.488,37.598,14.648,101.074,29.297,0
1553635097.209,-10.742,36.621,13.672,89.355,46.387,0
1553635097.213,0.000,40.527,15.137,94.727,37.598,0
1553635097.217,5.859,41.504,15.137,101.562,65.430,0
1553635097.221,-10.742,39.062,13.672,99.121,38.574,0
1553635097.225,-13.184,38.086,11.719,94.727,47.363,0
1553635097.229,-7.324,36.621,15.137,89.844,67.383,0
1553635097.233,-13.672,36.621,21.973,83.984,18.066,0
1553635097.237,-15.625,37.109,23.438,88.379,35.156,0
1553635097.240,-4.395,38.574,20.996,89.844,20.508,0
1553635097.244,4.883,43.457,20.020,90.820,32.227,0
1553635097.248,3.906,42.480,20.020,98.633,31.250,0
1553635097.252,5.371,39.551,19.531,99.609,4.883,0
1553635097.256,9.766,40.039,20.020,101.074,16.602,0
1553635097.260,1.953,40.527,20.508,99.609,42.480,0
1553635097.264,-6.836,36.133,23.926,107.910,43.945,0
1553635097.268,-6.348,36.621,24.414,105.957,26.855,0
1553635097.272,4.395,39.551,23.926,92.285,16.602,0
1553635097.276,1.953,36.621,26.367,98.145,18.066,0
1553635097.280,-3.906,38.086,22.461,92.773,23.926,0
1553635097.283,-6.348,36.621,24.414,90.332,23.438,0
1553635097.287,-8.301,36.621,27.832,92.773,41.016,0
1553635097.291,-2.441,40.039,27.344,97.656,36.621,0
1553635097.295,0.977,39.062,26.367,102.539,43.457,0
1553635097.299,8.789,41.504,25.391,97.656,31.738,0
1553635097.303,6.348,44.922,22.461,104.492,36.133,0
1553635097.307,-6.348,41.992,21.484,106.934,35.156,0
1553635097.311,-3.418,40.527,23.438,96.191,48.340,0
1553635097.315,0.488,39.551,21.973,96.680,42.969,0
1553635097.319,1.953,38.086,22.949,96.680,-4.395,0
1553635097.322,11.719,38.086,28.320,93.750,-19.043,0
1553635097.326,26.367,40.527,29.785,98.145,19.531,0
1553635097.330,18.066,40.527,29.785,98.633,19.531,0
1553635097.334,10.742,39.551,29.785,102.051,30.273,0
1553635097.338,13.672,40.039,27.832,110.840,35.156,0
1553635097.342,1.953,38.086,28.320,106.934,25.391,0
1553635097.346,2.930,38.086,29.297,96.680,23.438,0
1553635097.350,14.160,40.039,28.809,90.332,7.324,0
1553635097.354,21.484,39.062,26.367,86.914,41.504,0
1553635097.358,8.789,38.086,22.461,94.238,7.324,0
1553635097.362,-4.883,37.598,23.438,96.191,-28.320,0
1553635097.365,4.883,39.062,25.391,93.750,0.000,0
1553635097.369,14.160,39.062,23.926,94.238,49.316,0
1553635097.373,7.812,39.551,26.367,104.492,51.758,0
1553635097.377,10.254,43.457,29.297,112.793,26.855,0
1553635097.381,26.367,41.504,22.461,111.816,19.531,0
1553635097.385,33.203,40.527,18.066,113.770,20.996,0
1553635097.389,12.695,40.039,27.344,103.027,50.781,0
1553635097.393,8.789,33.203,35.645,102.539,58.105,0
1553635097.397,15.625,31.250,31.738,105.469,37.598,0
1553635097.401,22.461,31.250,28.809,113.770,3.906,0
1553635097.405,23.438,27.832,34.180,121.582,18.555,0
1553635097.408,9.277,28.320,31.738,105.957,26.367,0
1553635097.412,7.324,28.320,30.762,105.469,38.086,0
1553635097.416,-2.441,27.832,30.762,101.074,62.988,0
1553635097.420,-4.883,26.367,31.738,97.168,30.762,0
1553635097.424,3.418,28.320,33.203,101.562,82.031,0
1553635097.428,11.719,27.344,32.715,106.934,76.172,0
1553635097.432,14.648,24.414,32.227,96.680,61.035,0
1553635097.436,5.859,26.367,32.227,89.844,69.824,0
1553635097.440,4.395,26.855,32.227,98.145,18.555,0
1553635097.444,6.836,25.879,32.227,91.797,37.109,0
1553635097.447,2.441,26.367,33.691,91.309,54.688,0
1553635097.451,-1.465,28.320,31.250,91.797,46.875,0
1553635097.455,6.836,30.762,31.738,89.844,20.508,0
