timestamps,TP9,AF7,AF8,TP10,Right AUX,Marker0
1542908491.442,30.273,41.992,33.691,0.977,5.371,0
1542908491.446,16.602,37.598,24.902,-10.742,63.477,0
1542908491.450,25.879,35.645,29.297,-1.953,16.113,0
1542908491.454,33.691,34.668,34.180,3.418,62.012,0
1542908491.458,19.531,29.297,35.156,23.438,41.992,0
1542908491.462,28.809,31.738,39.551,28.320,-12.207,0
1542908491.466,29.297,31.250,36.621,-22.461,75.195,0
1542908491.470,16.602,27.344,31.738,-35.645,89.844,0
1542908491.474,24.902,33.203,34.180,-14.648,24.414,0
1542908491.477,39.062,30.273,36.621,-15.137,26.855,0
1542908491.481,35.156,36.133,41.504,10.254,78.125,0
1542908491.485,31.738,52.734,40.527,27.832,73.730,0
1542908491.489,35.645,41.992,32.715,5.371,-5.371,0
1542908491.493,20.020,26.367,34.180,-2.441,4.395,0
1542908491.497,15.625,25.391,37.598,15.625,45.898,0
1542908491.501,18.555,37.598,39.062,38.086,37.109,0
1542908491.505,22.949,40.039,36.621,48.828,69.336,0
1542908491.509,35.156,28.809,38.086,38.574,78.125,0
1542908491.513,33.691,25.391,40.527,3.906,7.812,0
1542908491.517,26.855,31.738,39.551,1.953,0.488,0
1542908491.520,19.043,42.480,41.504,20.996,26.367,0
1542908491.524,22.461,15.137,43.945,18.555,38.574,0
1542908491.528,29.297,0.977,43.945,15.625,31.738,0
1542908491.532,30.762,31.738,42.480,52.246,16.602,0
1542908491.536,24.902,38.574,41.992,62.988,20.996,0
1542908491.540,18.066,26.855,44.434,30.273,77.148,0
1542908491.544,22.949,20.996,40.527,37.109,138.672,0
1542908491.548,19.531,24.902,39.062,35.156,100.586,0
1542908491.552,4.395,37.598,36.621,6.348,5.859,0
1542908491.556,0.977,41.992,33.203,12.207,2.930,0
1542908491.559,-0.488,29.297,32.715,20.508,66.895,0
1542908491.563,-9.766,26.367,29.785,2.930,104.980,0
1542908491.567,6.348,37.598,20.508,-10.254,104.980,0
1542908491.571,13.184,41.016,13.184,-4.883,71.289,0
1542908491.575,6.836,47.363,12.695,-8.301,64.453,0
1542908491.579,22.949,54.688,27.344,-1.953,37.109,0
1542908491.583,25.391,41.016,41.504,18.555,59.570,0
1542908491.587,6.836,26.367,34.180,20.508,96.680,0
1542908491.591,-1.465,34.668,20.996,15.137,131.836,0
1542908491.595,18.066,38.086,25.879,15.625,74.707,0
1542908491.599,23.926,41.016,38.574,24.414,26.855,0
1542908491.602,15.137,41.016,28.809,18.555,103.516,0
1542908491.606,21.973,34.180,15.137,0.977,30.273,0
1542908491.610,37.109,38.574,22.461,-0.977,10.254,0
1542908491.614,29.297,43.457,26.855,-8.301,63.477,0
1542908491.618,28.320,39.062,24.414,1.953,19.531,0
1542908491.622,49.316,38.086,31.250,31.738,33.203,0
1542908491.626,49.316,35.645,30.762,15.625,62.988,0
1542908491.630,39.551,30.273,29.297,5.859,66.895,0
1542908491.634,25.391,32.227,31.250,5.371,19.531,0
1542908491.638,15.137,47.363,27.832,-5.859,-1.953,0
1542908491.642,22.949,63.477,30.273,0.977,66.895,0
1542908491.645,20.508,70.801,36.133,8.301,46.875,0
1542908491.649,21.973,53.223,33.691,27.344,3.906,0
1542908491.653,28.320,28.809,30.273,39.062,1.465,0
1542908491.657,23.438,30.273,27.344,17.090,38.086,0
1542908491.661,24.414,43.457,30.762,-0.977,52.734,0
1542908491.665,23.926,45.898,33.691,-0.977,57.617,0
1542908491.669,18.555,42.969,33.691,14.648,54.199,0
1542908491.673,29.297,32.715,36.133,20.996,80.078,0
1542908491.677,36.621,24.414,41.504,-8.301,108.398,0
1542908491.681,18.555,29.297,39.062,-20.020,32.715,0
1542908491.684,6.348,35.156,41.016,-16.113,7.324,0
1542908491.688,-1.465,48.340,40.039,-20.508,7.812,0
1542908491.692,-10.742,54.688,34.668,-28.809,32.715,0
1542908491.696,-29.297,40.527,41.992,-45.898,80.566,0
1542908491.700,-28.320,41.016,48.340,-54.688,42.969,0
1542908491.704,-26.367,52.246,54.199,-42.480,1.953,0
1542908491.708,-46.875,50.781,51.270,-55.664,-15.625,0
1542908491.712,-54.199,41.992,53.711,-75.684,-59.570,0
1542908491.716,-64.453,35.645,64.453,-79.590,13.672,0
1542908491.720,-94.727,38.574,67.383,-104.492,34.180,0
1542908491.724,-114.746,51.758,69.824,-119.629,3.906,0
1542908491.727,-104.980,50.781,72.266,-131.836,54.688,0
1542908491.731,-116.211,44.922,73.730,-131.836,59.570,0
1542908491.735,-130.371,51.270,76.660,-125.488,-7.324,0
1542908491.739,-121.094,52.734,74.219,-172.363,-6.836,0
1542908491.743,-137.207,41.504,70.801,-202.148,27.344,0
1542908491.747,-171.387,29.785,73.730,-181.641,27.344,0
1542908491.751,-165.527,32.227,75.195,-172.852,16.113,0
1542908491.755,-147.461,47.852,74.219,-160.645,33.203,0
1542908491.759,-150.391,62.012,76.660,-148.438,62.012,0
1542908491.763,-149.902,48.828,79.590,-158.203,25.879,0
1542908491.767,-134.766,53.711,76.660,-150.879,-3.418,0
1542908491.770,-138.184,71.289,71.777,-142.090,17.578,0
1542908491.774,-112.305,63.477,68.848,-127.930,42.480,0
1542908491.778,-83.984,44.922,66.895,-95.215,39.062,0
1542908491.782,-65.918,35.645,62.500,-59.082,-16.602,0
1542908491.786,-45.898,44.434,57.129,-68.848,-5.371,0
1542908491.790,-70.801,45.898,46.875,-90.332,6.348,0
1542908491.794,-82.520,35.645,34.668,-83.496,16.113,0
1542908491.798,-64.941,21.484,31.738,-83.984,14.648,0
1542908491.802,-32.715,5.859,33.691,-56.152,30.273,0
1542908491.806,-11.230,15.625,35.645,-37.598,70.801,0
1542908491.809,-8.789,45.898,30.273,-25.879,41.992,0
1542908491.813,2.930,54.688,21.484,3.906,50.293,0
1542908491.817,21.973,43.457,20.996,21.973,81.055,0
1542908491.821,35.156,32.227,20.996,27.832,83.008,0
1542908491.825,42.969,21.973,20.508,28.809,67.383,0
1542908491.829,70.801,34.668,20.508,30.273,-12.695,0
1542908491.833,79.102,34.180,10.742,41.016,9.277,0
1542908491.837,58.105,13.672,2.930,57.129,52.246,0
1542908491.841,66.406,15.625,3.418,57.617,20.508,0
1542908491.845,76.172,12.207,4.883,43.945,7.324,0
1542908491.849,75.684,2.930,9.277,46.875,8.301,0
1542908491.852,73.242,11.719,17.578,67.871,58.594,0
1542908491.856,67.383,30.273,15.137,69.336,51.758,0
1542908491.860,78.613,38.086,8.789,53.711,69.336,0
1542908491.864,93.750,17.578,8.789,59.570,37.598,0
1542908491.868,82.520,3.418,8.301,68.359,20.996,0
1542908491.872,73.242,21.973,5.859,62.012,61.523,0
1542908491.876,71.777,44.434,7.812,62.500,-0.488,0
1542908491.880,78.125,39.062,12.207,87.402,-25.879,0
1542908491.884,110.352,24.414,3.418,104.492,8.301,0
1542908491.888,99.609,18.066,0.000,79.102,31.250,0
1542908491.892,78.125,12.695,6.348,50.781,26.367,0
1542908491.895,86.426,12.207,10.254,62.500,68.848,0
1542908491.899,86.426,19.043,10.254,82.520,97.656,0
1542908491.903,89.355,35.156,7.324,75.684,42.969,0
1542908491.907,96.680,37.109,10.254,72.266,41.016,0
1542908491.911,85.938,31.738,12.695,86.914,43.945,0
1542908491.915,82.031,29.785,16.602,93.750,57.129,0
1542908491.919,84.473,16.602,17.578,84.961,57.617,0
1542908491.923,69.336,-5.371,0.977,58.594,10.742,0
1542908491.927,71.289,-4.395,-5.371,62.012,12.207,0
1542908491.931,78.613,21.484,3.418,74.707,49.805,0
1542908491.934,66.406,36.621,1.953,62.012,77.148,0
1542908491.938,64.453,36.133,-0.488,60.547,0.000,0
1542908491.942,78.613,15.625,3.906,54.199,-8.301,0
1542908491.946,76.172,-0.488,5.371,66.406,79.102,0
1542908491.950,59.570,11.230,3.906,80.566,49.316,0
1542908491.954,58.594,29.785,7.324,61.035,32.715,0
1542908491.958,53.711,34.668,11.230,58.594,48.828,0
1542908491.962,58.105,26.367,12.207,55.176,3.418,0
1542908491.966,64.941,29.297,8.789,28.809,39.551,0
1542908491.970,52.246,21.973,10.254,36.621,79.102,0
1542908491.974,48.828,12.695,16.113,56.641,48.340,0
1542908491.977,53.223,22.949,11.719,42.969,87.891,0
1542908491.981,28.809,25.879,-0.488,22.949,117.188,0
1542908491.985,20.996,24.414,3.906,19.531,60.059,0
1542908491.989,45.410,21.973,11.230,35.645,25.391,0
1542908491.993,57.617,3.906,10.254,46.875,15.137,0
1542908491.997,38.574,9.277,10.742,39.551,53.711,0
1542908492.001,36.621,35.156,11.719,33.691,100.586,0
1542908492.005,33.691,34.668,16.602,36.621,28.320,0
1542908492.009,33.691,35.156,16.113,29.785,-6.836,0
1542908492.013,32.227,33.691,12.695,30.273,-12.695,0
1542908492.017,29.297,20.508,17.578,30.273,9.277,0
1542908492.020,50.293,21.973,24.414,21.973,57.617,0
1542908492.024,59.570,34.180,20.020,33.691,31.738,0
1542908492.028,52.246,31.250,19.531,33.203,25.879,0
1542908492.032,50.781,23.438,25.879,31.250,18.555,0
1542908492.036,41.504,32.715,27.832,47.363,41.504,0
1542908492.040,41.992,33.203,27.832,53.223,60.547,0
1542908492.044,64.453,24.902,24.902,57.129,39.551,0
1542908492.048,55.664,25.391,24.414,42.969,-8.301,0
1542908492.052,41.504,30.273,21.484,3.418,39.551,0
1542908492.056,47.852,46.387,26.855,17.090,76.172,0
1542908492.059,44.434,47.852,32.715,49.316,46.875,0
1542908492.063,42.480,21.973,31.738,38.574,48.828,0
1542908492.067,52.246,15.625,40.527,46.875,35.156,0
1542908492.071,46.875,37.109,46.875,70.312,79.102,0
1542908492.075,42.480,56.641,38.086,65.918,73.730,0
1542908492.079,47.363,46.875,24.902,40.039,9.766,0
1542908492.083,39.551,20.996,21.973,22.461,17.578,0
1542908492.087,38.086,18.066,26.855,18.555,22.949,0
1542908492.091,48.340,20.996,25.391,20.020,-15.137,0
1542908492.095,37.598,28.809,22.949,20.508,-0.977,0
1542908492.099,20.508,40.527,20.508,18.555,10.254,0
1542908492.102,15.137,29.297,18.555,15.625,48.340,0
1542908492.106,17.578,16.113,20.508,26.367,86.426,0
1542908492.110,34.668,19.043,28.320,30.273,41.504,0
1542908492.114,54.688,27.344,30.273,41.016,22.461,0
1542908492.118,47.363,29.297,28.809,63.965,23.438,0
1542908492.122,46.875,19.531,21.973,33.203,1.465,0
1542908492.126,38.086,19.043,16.113,-3.906,31.738,0
1542908492.130,16.113,14.160,21.484,11.719,60.059,0
1542908492.134,30.273,9.277,22.949,34.668,13.184,0
1542908492.138,43.945,33.203,25.391,31.250,19.531,0
1542908492.142,39.551,35.645,22.949,33.203,29.297,0
1542908492.145,42.480,11.719,20.508,37.109,51.270,0
1542908492.149,42.969,19.043,25.391,25.879,101.562,0
1542908492.153,31.250,49.316,27.832,18.555,81.543,0
1542908492.157,39.062,62.500,26.855,31.738,55.176,0
1542908492.161,37.109,57.617,29.297,44.434,33.691,0
1542908492.165,20.508,45.410,29.297,27.832,75.195,0
1542908492.169,28.320,37.109,22.461,28.809,63.965,0
1542908492.173,45.410,27.344,19.043,39.551,44.922,0
1542908492.177,50.293,12.695,29.785,26.855,75.684,0
1542908492.181,38.086,13.184,40.039,20.020,94.238,0
1542908492.184,28.809,22.461,30.273,22.461,103.516,0
1542908492.188,27.344,15.625,22.949,29.297,62.012,0
1542908492.192,29.297,17.090,28.809,55.664,77.148,0
1542908492.196,47.852,18.555,34.668,63.965,98.633,0
1542908492.200,63.477,16.113,33.691,32.715,38.574,0
1542908492.204,32.715,20.020,30.273,29.785,57.129,0
1542908492.208,29.785,19.531,28.320,77.637,11.230,0
1542908492.212,44.922,31.738,30.273,58.105,6.836,0
1542908492.216,24.414,50.293,33.203,19.531,88.379,0
1542908492.220,18.555,50.781,28.809,32.227,90.332,0
1542908492.224,35.645,33.691,25.391,51.270,63.477,0
1542908492.227,54.688,12.207,28.809,63.477,47.363,0
1542908492.231,41.992,13.184,33.203,62.500,10.742,0
1542908492.235,33.691,37.598,25.391,52.246,-6.348,0
1542908492.239,50.293,43.457,23.926,50.293,-32.227,0
1542908492.243,37.598,37.109,28.809,61.523,-37.109,0
1542908492.247,29.297,23.438,30.762,55.176,-5.859,0
1542908492.251,43.945,-1.953,35.645,69.336,60.059,0
1542908492.255,30.762,-0.488,38.574,80.078,91.797,0
1542908492.259,9.277,13.672,40.039,61.523,103.027,0
1542908492.263,9.766,27.344,40.039,70.312,77.637,0
1542908492.267,41.992,39.062,35.645,56.641,-5.859,0
1542908492.270,48.828,32.227,34.180,42.969,14.160,0
1542908492.274,40.039,20.996,34.668,41.016,17.578,0
1542908492.278,33.691,9.766,33.691,49.805,-1.953,0
1542908492.282,21.973,14.648,28.809,55.176,-21.484,0
1542908492.286,25.391,29.785,21.973,38.086,-23.438,0
1542908492.290,20.996,40.039,16.113,35.156,-2.930,0
1542908492.294,13.184,41.992,14.160,41.504,41.016,0
1542908492.298,25.879,42.480,15.137,50.293,53.223,0
1542908492.302,35.156,31.738,17.578,62.988,1.953,0
1542908492.306,36.133,20.996,23.438,59.570,5.371,0
1542908492.309,50.293,40.527,24.902,56.152,17.090,0
1542908492.313,41.992,46.387,23.926,77.148,47.852,0
1542908492.317,18.066,37.598,26.367,58.105,41.992,0
1542908492.321,20.996,40.039,27.344,25.391,47.363,0
1542908492.325,21.484,38.574,29.785,27.832,77.148,0
1542908492.329,20.020,25.391,31.738,27.344,62.012,0
1542908492.333,33.203,18.555,28.809,34.180,43.945,0
1542908492.337,21.484,24.902,26.855,29.785,41.992,0
1542908492.341,17.578,35.156,32.715,31.250,75.195,0
1542908492.345,26.855,42.969,39.062,46.387,51.270,0
1542908492.349,31.250,36.133,35.156,43.945,59.082,0
1542908492.352,37.109,22.461,25.391,53.223,35.645,0
1542908492.356,41.992,13.672,32.227,73.242,14.160,0
1542908492.360,31.738,25.879,41.016,43.457,72.266,0
1542908492.364,11.719,49.316,27.344,-0.488,75.195,0
1542908492.368,14.648,57.129,15.137,6.348,-3.906,0
1542908492.372,22.461,59.082,15.137,19.531,-4.395,0
1542908492.376,22.949,51.758,22.949,30.273,14.160,0
1542908492.380,22.461,47.852,24.902,23.926,19.531,0
1542908492.384,15.625,55.664,23.926,-1.953,54.688,0
1542908492.388,11.230,53.223,26.855,-3.418,58.105,0
1542908492.392,7.324,47.852,28.809,10.742,27.832,0
1542908492.395,19.531,33.203,28.320,20.508,13.184,0
1542908492.399,38.574,20.020,30.273,46.387,28.809,0
1542908492.403,40.527,28.809,31.738,53.711,53.223,0
1542908492.407,38.574,43.457,35.645,33.203,60.547,0
1542908492.411,36.621,44.922,40.039,30.762,61.035,0
1542908492.415,24.902,39.062,30.273,24.414,44.922,0
1542908492.419,13.184,39.551,22.949,10.254,-11.230,0
1542908492.423,15.137,48.340,24.414,19.043,12.695,0
1542908492.427,19.043,57.617,24.902,32.715,54.199,0
1542908492.431,13.672,51.270,27.344,33.691,52.246,0
1542908492.434,23.926,47.363,28.320,19.531,65.430,0
1542908492.438,34.668,34.180,31.738,22.949,21.973,0
1542908492.442,18.066,8.789,38.086,40.039,-6.836,0
1542908492.446,6.836,14.160,27.832,27.832,41.992,0
1542908492.450,9.766,34.668,24.902,17.578,62.012,0
1542908492.454,12.695,43.457,33.203,33.203,93.262,0
1542908492.458,21.973,38.574,33.203,31.738,49.316,0
1542908492.462,31.738,28.320,33.203,19.043,19.531,0
1542908492.466,28.320,24.414,33.691,29.785,88.867,0
1542908492.470,20.508,35.645,30.273,42.480,58.594,0
1542908492.474,20.508,54.199,31.738,36.133,25.391,0
1542908492.477,10.742,40.039,29.297,29.297,45.898,0
1542908492.481,5.859,30.762,24.902,30.273,23.438,0
1542908492.485,17.578,42.480,28.809,24.902,28.809,0
1542908492.489,8.301,39.062,28.809,34.180,43.945,0
1542908492.493,18.555,36.621,34.180,68.359,67.871,0
1542908492.497,41.016,41.016,41.504,49.805,103.027,0
1542908492.501,23.438,36.621,37.598,14.648,46.875,0
1542908492.505,13.672,27.344,43.945,24.902,14.648,0
1542908492.509,2.441,29.785,43.457,18.066,67.871,0
1542908492.513,4.883,39.062,34.180,12.207,46.875,0
1542908492.517,1.953,37.109,34.668,21.484,50.293,0
1542908492.520,1.465,27.344,40.527,28.809,58.105,0
1542908492.524,22.461,30.273,43.457,30.273,17.578,0
1542908492.528,20.508,36.133,35.156,30.762,51.758,0
1542908492.532,9.766,26.855,33.691,29.297,48.340,0
1542908492.536,11.719,31.250,37.598,26.855,23.438,0
1542908492.540,33.691,40.527,36.133,24.902,57.617,0
1542908492.544,39.551,39.551,29.785,38.086,104.492,0
1542908492.548,20.020,25.391,31.250,42.480,69.824,0
1542908492.552,8.789,18.066,32.227,28.320,22.949,0
1542908492.556,-0.977,29.785,28.809,16.602,-14.160,0
1542908492.559,-7.812,34.668,28.809,6.348,-42.480,0
1542908492.563,1.465,41.504,25.879,12.695,-3.906,0
1542908492.567,-5.371,43.945,22.949,15.625,-33.691,0
1542908492.571,0.488,39.062,26.367,23.926,-26.855,0
1542908492.575,17.578,34.180,31.250,39.551,21.973,0
1542908492.579,20.996,21.973,28.809,37.109,55.664,0
1542908492.583,16.113,14.648,25.391,28.809,28.320,0
1542908492.587,2.441,27.344,20.508,21.484,-20.020,0
1542908492.591,13.184,34.180,14.648,23.438,26.855,0
1542908492.595,4.395,23.438,18.555,25.391,72.754,0
1542908492.599,-7.324,30.762,24.902,25.879,69.824,0
1542908492.602,-3.418,57.129,28.809,41.992,53.223,0
1542908492.606,-0.977,60.059,28.320,36.133,49.316,0
1542908492.610,-10.254,48.340,27.832,15.137,86.426,0
1542908492.614,-5.859,31.738,31.738,28.809,72.754,0
1542908492.618,9.277,4.883,27.344,34.180,31.250,0
1542908492.622,8.789,7.812,22.461,46.875,89.844,0
1542908492.626,0.488,15.625,25.879,53.223,86.914,0
1542908492.630,0.000,21.484,24.414,26.367,35.645,0
1542908492.634,0.488,29.785,18.555,5.371,98.633,0
1542908492.638,-18.555,27.344,24.414,8.789,64.941,0
1542908492.642,-30.762,22.461,36.621,33.203,7.324,0
1542908492.645,-9.766,30.273,36.133,30.762,33.203,0
1542908492.649,2.930,26.855,29.297,-0.488,21.484,0
1542908492.653,-2.930,0.488,28.320,12.207,33.203,0
1542908492.657,-0.488,-1.465,35.156,29.785,68.359,0
1542908492.661,-1.465,23.438,29.297,36.621,50.293,0
1542908492.665,-7.324,34.668,15.137,37.598,61.523,0
1542908492.669,4.395,29.785,20.020,40.039,87.891,0
1542908492.673,2.441,28.809,25.879,10.742,90.820,0
1542908492.677,-14.648,37.598,21.973,-9.766,43.945,0
1542908492.681,-12.207,41.016,25.391,41.504,13.672,0
1542908492.684,-5.371,38.574,30.762,50.781,39.062,0
1542908492.688,-9.277,33.203,30.273,11.719,19.043,0
1542908492.692,7.812,30.273,26.367,8.301,18.555,0
1542908492.696,27.832,29.785,25.391,27.832,11.230,0
1542908492.700,20.996,10.742,27.344,33.691,32.715,0
1542908492.704,14.160,1.953,20.996,15.137,91.309,0
1542908492.708,5.859,20.020,17.578,10.742,117.188,0
1542908492.712,5.371,31.250,22.949,26.855,103.516,0
1542908492.716,8.301,45.410,28.320,40.039,102.051,0
1542908492.720,8.789,60.059,28.320,28.320,41.504,0
1542908492.724,12.695,52.246,25.879,16.602,33.203,0
1542908492.727,12.695,43.457,21.973,21.484,46.387,0
1542908492.731,18.555,36.133,23.438,38.086,40.039,0
1542908492.735,23.926,25.879,25.391,46.387,13.672,0
1542908492.739,10.742,21.973,24.414,22.949,2.930,0
1542908492.743,8.789,5.859,26.367,0.488,57.617,0
1542908492.747,16.602,4.395,31.250,3.418,82.031,0
1542908492.751,16.602,22.949,29.297,14.648,52.246,0
1542908492.755,24.902,21.973,26.855,16.113,31.250,0
1542908492.759,33.691,13.184,31.250,17.578,56.641,0
1542908492.763,37.109,6.836,37.598,40.039,22.949,0
1542908492.767,48.828,22.461,40.039,53.711,24.414,0
1542908492.770,34.668,41.504,34.668,41.504,17.090,0
1542908492.774,8.789,33.691,21.973,13.184,29.297,0
1542908492.778,23.926,29.785,21.484,-6.348,71.289,0
1542908492.782,37.109,38.086,38.574,17.090,25.391,0
1542908492.786,21.484,32.715,39.551,29.297,-0.488,0
1542908492.790,27.344,20.996,37.109,30.762,14.160,0
1542908492.794,41.992,17.578,40.039,32.715,6.348,0
1542908492.798,35.156,23.926,34.180,23.438,-0.488,0
1542908492.802,35.156,23.926,30.762,16.602,60.059,0
1542908492.806,31.738,16.602,34.180,14.648,78.613,0
1542908492.809,34.180,20.020,31.738,9.277,58.105,0
1542908492.813,43.945,27.832,27.344,10.254,90.820,0
1542908492.817,48.340,28.809,28.320,25.879,15.625,0
1542908492.821,44.922,30.762,32.227,50.781,-42.969,0
1542908492.825,42.480,38.086,42.480,48.828,41.016,0
1542908492.829,44.434,48.340,45.898,25.879,79.102,0
1542908492.833,27.832,40.527,33.691,20.020,42.480,0
1542908492.837,37.598,30.273,31.738,11.719,-21.973,0
1542908492.841,45.898,28.809,32.715,3.906,11.230,0
1542908492.845,17.578,18.066,29.785,-7.324,90.332,0
1542908492.849,15.625,18.555,32.715,-3.418,78.125,0
1542908492.852,22.461,35.156,39.062,7.324,36.621,0
1542908492.856,16.602,46.387,42.480,2.441,27.832,0
1542908492.860,31.738,28.320,37.598,17.090,76.660,0
1542908492.864,43.945,8.301,33.691,32.227,59.082,0
1542908492.868,45.898,26.855,40.527,26.367,6.348,0
1542908492.872,46.875,45.410,42.969,28.809,30.273,0
1542908492.876,55.664,43.457,39.551,21.484,42.480,0
1542908492.880,54.199,32.715,38.574,19.043,58.105,0
1542908492.884,41.016,35.645,35.645,36.621,58.594,0
1542908492.888,37.109,37.109,35.156,24.414,39.062,0
1542908492.892,23.926,42.969,38.086,7.324,65.918,0
1542908492.895,46.875,44.434,38.086,19.043,57.617,0
1542908492.899,70.312,32.227,43.945,42.480,21.973,0
1542908492.903,54.199,32.227,42.969,19.043,9.766,0
1542908492.907,36.621,32.715,32.715,4.395,19.531,0
1542908492.911,41.016,11.230,33.203,24.414,67.871,0
1542908492.915,52.734,12.695,35.156,28.320,29.297,0
1542908492.919,42.480,46.875,40.039,6.836,-12.207,0
1542908492.923,47.363,59.570,41.016,7.324,-12.207,0
1542908492.927,53.223,50.781,28.809,7.812,36.133,0
1542908492.931,39.062,42.969,17.090,-12.207,53.223,0
1542908492.934,33.203,40.527,20.996,-13.672,15.625,0
1542908492.938,51.270,46.875,30.762,4.395,35.645,0
1542908492.942,47.363,46.875,33.691,21.973,5.859,0
1542908492.946,23.438,41.504,39.551,18.066,15.625,0
1542908492.950,36.621,29.297,42.969,26.855,31.738,0
1542908492.954,46.387,19.043,43.457,52.734,20.996,0
1542908492.958,47.852,25.879,40.039,41.016,3.418,0
1542908492.962,59.570,38.574,36.133,9.766,20.508,0
1542908492.966,52.246,33.691,32.715,8.789,67.383,0
1542908492.970,34.180,32.715,29.785,9.277,60.547,0
1542908492.974,38.574,40.039,37.598,3.418,78.613,0
1542908492.977,39.062,39.062,38.086,11.230,62.500,0
1542908492.981,24.902,45.898,32.227,6.836,16.113,0
1542908492.985,15.625,45.410,30.273,15.137,17.578,0
1542908492.989,20.996,37.109,32.227,16.113,27.832,0
1542908492.993,54.688,27.832,36.621,12.695,77.637,0
1542908492.997,69.824,31.738,42.480,37.109,31.250,0
1542908493.001,45.410,38.574,40.527,7.324,54.199,0
1542908493.005,23.438,30.273,36.621,-12.695,133.789,0
1542908493.009,27.832,29.785,40.039,3.906,37.598,0
1542908493.013,53.223,45.898,41.016,20.996,53.711,0
1542908493.017,46.387,46.875,35.645,-1.465,98.633,0
1542908493.020,39.551,29.785,32.715,-21.973,36.133,0
1542908493.024,33.203,18.555,31.250,-10.742,19.043,0
1542908493.028,16.602,22.949,31.738,-3.418,51.758,0
1542908493.032,22.949,18.066,32.715,-5.859,12.695,0
1542908493.036,35.645,33.691,33.691,-1.465,6.836,0
1542908493.040,29.297,56.152,36.133,4.883,34.668,0
1542908493.044,21.484,48.340,29.297,8.789,28.320,0
1542908493.048,20.508,31.250,26.367,22.949,41.016,0
1542908493.052,14.160,21.973,31.738,17.090,21.973,0
1542908493.056,18.066,32.715,33.691,7.324,22.949,0
1542908493.059,37.598,25.879,39.062,14.160,31.738,0
1542908493.063,41.504,23.926,40.039,12.695,25.391,0
1542908493.067,57.129,50.293,28.809,10.254,-8.301,0
1542908493.071,44.434,57.617,25.879,17.578,7.812,0
1542908493.075,20.996,52.246,31.250,3.418,36.621,0
1542908493.079,41.016,43.457,26.367,0.977,32.227,0
1542908493.083,57.129,27.344,23.438,31.738,0.000,0
1542908493.087,37.598,40.527,28.320,9.277,19.043,0
1542908493.091,14.648,55.176,27.344,-28.320,62.500,0
1542908493.095,14.160,50.781,21.484,-26.367,84.961,0
1542908493.099,12.207,50.293,20.996,-25.391,26.367,0
1542908493.102,23.438,52.734,19.043,-7.812,19.043,0
1542908493.106,20.996,40.039,14.648,-10.742,43.457,0
1542908493.110,24.414,31.738,25.879,-26.367,45.898,0
1542908493.114,36.133,36.133,31.250,-21.973,66.895,0
1542908493.118,20.508,33.691,23.438,-19.531,29.297,0
1542908493.122,19.531,34.668,26.367,-20.996,8.789,0
1542908493.126,28.809,45.410,36.133,6.348,20.508,0
1542908493.130,35.645,40.039,41.992,28.320,26.855,0
1542908493.134,43.945,30.762,36.621,8.301,26.367,0
1542908493.138,36.133,48.340,35.156,0.977,-24.414,0
1542908493.142,29.297,49.805,37.109,21.484,-5.859,0
1542908493.145,43.945,33.691,36.621,39.551,72.754,0
1542908493.149,50.293,29.297,30.273,18.066,-5.859,0
1542908493.153,38.574,29.785,21.484,0.000,-5.371,0
1542908493.157,29.785,34.668,26.855,-2.441,63.477,0
1542908493.161,15.137,41.016,30.273,5.371,24.902,0
1542908493.165,15.137,40.039,31.738,8.301,31.738,0
1542908493.169,26.855,43.945,31.738,0.000,26.367,0
1542908493.173,27.344,52.246,29.297,8.301,7.812,0
1542908493.177,19.043,34.180,31.250,9.277,74.219,0
1542908493.181,46.387,15.625,34.668,35.156,43.945,0
1542908493.184,65.430,21.484,40.039,48.340,24.414,0
1542908493.188,34.180,32.227,33.691,2.441,106.934,0
1542908493.192,14.648,29.785,30.273,-13.184,117.676,0
1542908493.196,1.465,12.695,34.180,-3.418,76.172,0
1542908493.200,-3.418,19.531,29.785,10.742,28.320,0
1542908493.204,13.672,56.152,29.297,3.418,-10.254,0
1542908493.208,16.113,73.242,23.926,-2.441,31.738,0
1542908493.212,5.371,62.988,20.508,11.719,44.434,0
1542908493.216,10.742,48.828,24.414,11.719,-4.883,0
1542908493.220,20.996,24.902,31.250,9.766,28.320,0
1542908493.224,28.809,11.230,31.738,-0.977,65.430,0
1542908493.227,34.668,27.344,32.715,8.789,45.410,0
1542908493.231,27.832,29.785,35.645,20.996,54.199,0
1542908493.235,18.555,37.598,28.320,3.906,37.109,0
1542908493.239,17.578,40.039,23.926,5.859,4.395,0
1542908493.243,32.715,26.367,33.203,39.062,16.602,0
1542908493.247,28.320,41.016,38.086,46.875,46.387,0
1542908493.251,23.438,48.828,28.809,22.461,50.293,0
1542908493.255,21.484,37.598,21.484,1.953,1.465,0
1542908493.259,14.160,34.668,12.207,-10.742,32.227,0
1542908493.263,21.484,24.902,16.602,2.930,106.445,0
1542908493.267,26.367,18.066,30.273,25.391,93.750,0
1542908493.270,17.090,25.879,33.203,21.973,55.664,0
1542908493.274,19.043,31.250,31.250,8.789,41.016,0
1542908493.278,36.621,31.738,28.320,14.160,72.266,0
1542908493.282,36.621,31.250,31.250,22.949,75.195,0
1542908493.286,28.809,28.320,30.762,20.996,95.703,0
1542908493.290,35.645,30.273,29.297,29.785,113.281,0
1542908493.294,45.410,37.109,27.832,25.391,55.664,0
1542908493.298,38.574,41.992,26.367,26.367,28.809,0
1542908493.302,32.715,42.480,29.785,32.227,94.238,0
1542908493.306,38.574,44.922,31.250,33.203,94.727,0
1542908493.309,34.668,33.691,30.273,31.738,11.719,0
1542908493.313,33.203,21.973,36.621,18.066,22.461,0
1542908493.317,30.273,8.301,43.457,13.672,72.266,0
1542908493.321,12.695,-3.418,39.551,11.230,54.199,0
1542908493.325,8.301,24.414,34.668,15.137,35.156,0
1542908493.329,18.555,44.434,36.133,10.742,65.918,0
1542908493.333,41.504,36.621,35.156,9.277,52.734,0
1542908493.337,49.805,34.668,33.203,-0.977,41.504,0
1542908493.341,27.344,31.250,29.785,-0.488,88.379,0
1542908493.345,14.160,16.113,32.227,19.531,94.727,0
1542908493.349,12.695,5.859,39.551,38.574,40.527,0
1542908493.352,32.715,26.367,35.156,21.484,12.207,0
1542908493.356,38.086,42.969,28.809,-5.371,58.105,0
1542908493.360,22.949,41.992,30.762,-1.465,54.199,0
1542908493.364,28.809,35.156,36.621,18.066,34.668,0
1542908493.368,28.809,10.254,39.062,23.438,45.410,0
1542908493.372,24.414,5.859,34.668,2.930,60.059,0
1542908493.376,22.461,25.879,32.715,-4.395,71.289,0
1542908493.380,26.367,37.109,36.133,30.273,58.105,0
1542908493.384,19.043,30.273,36.621,63.477,21.484,0
1542908493.388,18.066,20.508,35.156,34.668,58.105,0
1542908493.392,29.785,21.973,31.738,15.625,63.965,0
1542908493.395,39.062,22.461,32.227,26.855,-11.230,0
1542908493.399,24.414,27.832,34.180,24.902,23.926,0
1542908493.403,16.113,36.621,35.156,11.230,50.293,0
1542908493.407,31.250,21.484,39.551,-4.395,13.184,0
1542908493.411,24.902,9.766,38.574,19.043,30.273,0
1542908493.415,19.531,28.809,33.691,40.039,43.945,0
1542908493.419,21.973,35.645,27.832,20.508,14.648,0
1542908493.423,21.973,21.484,21.973,-18.555,43.457,0
1542908493.427,22.461,19.531,25.879,-9.766,62.500,0
1542908493.431,25.391,31.250,26.367,15.137,101.074,0
1542908493.434,26.855,32.715,25.391,14.160,69.336,0
1542908493.438,30.762,30.273,30.762,3.906,11.230,0
1542908493.442,35.645,32.715,30.273,3.418,57.617,0
1542908493.446,27.344,23.438,28.809,18.555,62.988,0
1542908493.450,24.414,15.137,31.250,23.438,9.766,0
1542908493.454,18.555,32.227,34.668,54.199,26.855,0
1542908493.458,40.039,29.785,34.180,75.195,8.301,0
1542908493.462,67.871,13.672,29.297,30.762,35.645,0
1542908493.466,48.340,8.789,24.902,-2.930,87.891,0
1542908493.470,43.945,15.137,26.855,-9.277,69.824,0
1542908493.474,41.992,43.945,28.320,6.836,52.246,0
1542908493.477,15.625,52.246,30.273,-0.488,-10.254,0
1542908493.481,15.137,34.668,32.227,-1.953,12.695,0
1542908493.485,31.250,32.227,30.273,2.930,52.246,0
1542908493.489,43.457,41.504,36.621,11.719,15.625,0
1542908493.493,41.992,32.227,38.086,33.203,32.227,0
1542908493.497,43.945,19.043,30.762,33.691,10.254,0
1542908493.501,32.227,22.949,33.203,27.344,16.602,0
1542908493.505,18.066,32.227,34.180,19.043,62.988,0
1542908493.509,25.879,33.203,40.527,19.531,-38.574,0
1542908493.513,26.367,16.113,41.992,25.391,-12.207,0
1542908493.517,24.902,4.883,31.738,17.578,-5.859,0
1542908493.520,36.621,6.348,32.715,22.949,-29.297,0
1542908493.524,41.016,17.090,39.551,56.152,47.852,0
1542908493.528,61.523,30.273,40.527,38.574,52.246,0
1542908493.532,69.336,31.250,36.133,-1.953,-11.230,0
1542908493.536,36.621,31.738,35.645,0.488,-30.273,0
1542908493.540,12.695,30.762,36.133,3.906,2.930,0
1542908493.544,21.484,25.879,32.227,49.316,66.895,0
1542908493.548,15.137,11.719,21.973,30.273,48.828,0
1542908493.552,20.020,2.441,25.879,-13.184,-1.953,0
1542908493.556,29.297,18.555,35.156,8.789,26.367,0
1542908493.559,24.902,31.250,35.156,28.809,63.477,0
1542908493.563,26.367,13.184,38.574,20.020,68.848,0
1542908493.567,43.457,10.742,34.180,17.578,72.754,0
1542908493.571,59.570,33.691,30.762,40.039,83.008,0
1542908493.575,48.828,35.645,28.320,32.227,28.320,0
1542908493.579,45.410,28.809,28.809,22.461,6.836,0
1542908493.583,46.875,29.785,41.504,26.367,58.594,0
1542908493.587,37.109,36.621,44.922,8.789,75.195,0
1542908493.591,20.996,35.156,35.645,-5.371,40.039,0
1542908493.595,22.949,33.203,37.598,5.371,3.418,0
1542908493.599,39.062,17.090,45.410,23.438,-34.668,0
1542908493.602,43.457,6.836,48.828,38.574,37.598,0
1542908493.606,44.434,27.832,52.734,42.969,87.402,0
1542908493.610,55.664,39.062,46.387,8.301,-34.180,0
1542908493.614,50.293,38.086,38.574,-3.418,-26.855,0
1542908493.618,34.668,38.574,36.621,18.555,-3.418,0
1542908493.622,36.133,44.434,38.574,24.902,6.836,0
1542908493.626,39.062,42.969,40.039,12.695,4.883,0
1542908493.630,32.227,33.691,37.598,12.695,57.129,0
1542908493.634,41.992,27.832,39.062,34.668,32.715,0
1542908493.638,59.570,25.879,37.598,37.109,-36.621,0
1542908493.642,67.871,15.137,36.621,36.621,44.922,0
1542908493.645,74.707,13.184,39.551,26.367,29.785,0
1542908493.649,66.895,16.113,40.039,28.809,-37.598,0
1542908493.653,30.762,10.742,42.969,17.578,-32.715,0
1542908493.657,23.438,35.645,49.805,2.930,32.227,0
1542908493.661,52.734,52.734,48.340,6.348,69.336,0
1542908493.665,47.852,41.504,41.504,10.742,39.551,0
1542908493.669,35.645,30.762,37.598,13.672,38.086,0
1542908493.673,39.062,27.832,32.715,8.301,20.996,0
1542908493.677,58.105,39.062,39.062,25.879,43.457,0
1542908493.681,58.594,41.016,42.969,51.758,47.363,0
1542908493.684,48.340,36.133,38.086,44.922,54.688,0
1542908493.688,42.969,34.180,32.715,10.254,87.891,0
1542908493.692,37.109,35.645,29.785,-8.789,46.875,0
1542908493.696,43.457,32.715,31.738,-11.719,51.758,0
1542908493.700,41.504,16.602,34.668,7.324,56.152,0
1542908493.704,33.691,10.742,36.621,19.043,47.852,0
1542908493.708,52.734,7.324,34.668,13.672,101.562,0
1542908493.712,46.387,17.578,30.762,9.766,48.828,0
1542908493.716,25.391,48.340,25.879,4.395,12.695,0
1542908493.720,31.738,56.641,33.203,6.836,33.691,0
1542908493.724,37.598,41.992,40.039,11.230,44.434,0
1542908493.727,36.621,33.203,33.203,12.207,63.477,0
1542908493.731,41.992,44.922,33.203,10.742,30.762,0
1542908493.735,41.504,44.922,36.133,14.648,28.809,0
1542908493.739,28.320,34.668,37.598,28.320,65.430,0
1542908493.743,43.945,19.043,42.969,28.320,71.289,0
1542908493.747,56.152,12.695,42.480,24.902,31.738,0
1542908493.751,76.172,22.949,34.180,39.062,77.148,0
1542908493.755,60.059,23.438,27.832,28.809,77.148,0
1542908493.759,14.648,35.156,22.949,-8.789,53.223,0
1542908493.763,13.184,44.434,24.902,-26.367,30.762,0
1542908493.767,27.344,40.527,26.367,-29.785,-38.086,0
1542908493.770,40.039,46.875,20.996,-17.578,-10.254,0
1542908493.774,34.180,50.293,22.949,-9.277,7.324,0
1542908493.778,17.090,45.898,29.785,-20.996,37.598,0
1542908493.782,30.273,39.062,41.016,-6.348,26.367,0
1542908493.786,32.227,38.574,35.645,13.184,68.848,0
1542908493.790,36.621,50.293,27.344,19.043,85.449,0
1542908493.794,53.711,50.293,26.855,11.719,31.250,0
1542908493.798,44.434,36.133,23.926,0.977,38.574,0
1542908493.802,36.621,38.086,21.484,-4.883,21.484,0
1542908493.806,33.691,38.086,26.855,8.301,8.301,0
1542908493.809,50.293,37.109,35.645,21.973,11.230,0
1542908493.813,63.477,37.598,29.785,23.438,30.273,0
1542908493.817,40.039,22.949,27.832,20.508,26.367,0
1542908493.821,25.391,19.531,28.320,16.602,61.523,0
1542908493.825,35.645,32.715,23.438,4.395,57.617,0
1542908493.829,51.270,48.828,23.438,13.672,64.941,0
1542908493.833,54.199,40.039,31.250,45.898,22.461,0
1542908493.837,48.828,22.461,36.133,24.902,-78.613,0
1542908493.841,46.387,39.062,27.344,-17.578,-7.812,0
1542908493.845,55.664,57.129,27.344,-7.812,97.656,0
1542908493.849,59.082,56.641,30.273,4.395,82.031,0
1542908493.852,42.480,52.246,30.273,9.766,52.246,0
1542908493.856,50.781,49.805,40.527,27.832,38.086,0
1542908493.860,69.824,37.109,41.992,33.203,33.203,0
1542908493.864,61.523,31.250,42.480,23.438,26.367,0
1542908493.868,47.363,31.250,38.086,0.488,9.277,0
1542908493.872,52.246,26.367,37.109,16.602,42.480,0
1542908493.876,61.035,26.367,42.969,59.082,63.477,0
1542908493.880,56.641,29.785,38.574,27.344,95.703,0
1542908493.884,54.199,40.039,31.250,4.395,73.242,0
1542908493.888,52.246,41.504,32.227,14.648,40.527,0
1542908493.892,48.828,34.668,35.645,21.484,38.086,0
1542908493.895,55.176,38.574,36.133,26.855,29.785,0
1542908493.899,56.152,40.527,39.062,35.645,51.270,0
1542908493.903,64.453,41.504,41.016,33.203,74.707,0
1542908493.907,47.852,42.480,38.574,7.812,92.773,0
1542908493.911,40.527,38.574,34.180,22.949,73.242,0
1542908493.915,71.777,46.875,31.738,46.387,49.316,0
1542908493.919,69.336,46.875,36.133,27.344,73.242,0
1542908493.923,45.898,35.645,43.457,15.625,75.195,0
1542908493.927,34.180,30.273,46.875,26.367,54.199,0
1542908493.931,40.527,23.926,47.852,29.297,75.684,0
1542908493.934,46.387,18.555,51.270,14.648,103.027,0
1542908493.938,47.363,19.531,50.293,12.207,60.547,0
1542908493.942,67.871,28.809,46.875,40.039,39.551,0
1542908493.946,56.641,35.156,45.898,49.805,69.824,0
1542908493.950,30.762,40.527,48.828,19.043,60.547,0
1542908493.954,28.809,35.156,51.758,0.000,28.320,0
1542908493.958,37.109,23.438,43.457,8.301,19.043,0
1542908493.962,37.598,18.555,36.621,-1.465,20.996,0
1542908493.966,40.039,11.230,35.645,1.953,6.348,0
1542908493.970,44.434,4.395,33.203,6.348,-5.371,0
1542908493.974,45.898,5.859,33.203,-0.488,9.766,0
1542908493.977,44.922,14.160,41.016,14.648,35.156,0
1542908493.981,49.805,4.883,42.969,9.277,28.320,0
1542908493.985,52.734,6.836,34.668,-6.836,32.715,0
1542908493.989,41.504,26.855,33.203,-10.742,58.594,0
1542908493.993,35.645,35.645,35.645,-12.695,74.219,0
1542908493.997,29.785,30.273,35.156,-8.301,1.465,0
1542908494.001,24.902,32.715,40.039,-7.812,-31.250,0
1542908494.005,23.438,34.668,39.551,-8.789,21.973,0
1542908494.009,31.738,26.367,34.668,-7.324,61.523,0
1542908494.013,41.016,32.227,34.180,-9.277,92.285,0
1542908494.017,58.594,35.156,29.785,-21.484,46.387,0
1542908494.020,53.223,13.184,27.832,-15.625,11.230,0
1542908494.024,35.645,6.348,33.691,18.066,18.066,0
1542908494.028,50.293,25.391,33.691,3.906,21.973,0
1542908494.032,41.992,30.762,32.227,-16.113,35.645,0
1542908494.036,23.926,18.066,32.715,-11.719,1.465,0
1542908494.040,25.391,14.648,35.645,10.254,-27.344,0
1542908494.044,29.297,19.531,41.016,18.555,16.113,0
1542908494.048,35.645,15.625,34.180,-11.719,20.508,0
1542908494.052,41.016,28.809,27.832,-10.742,0.488,0
1542908494.056,40.039,48.828,30.762,-12.207,19.043,0
1542908494.059,39.551,47.363,32.715,-22.461,36.133,0
1542908494.063,41.992,43.945,30.762,-4.883,48.340,0
1542908494.067,32.715,44.434,31.250,17.090,15.137,0
1542908494.071,31.738,39.551,33.203,7.324,-12.207,0
1542908494.075,44.434,32.715,34.668,-15.625,20.020,0
1542908494.079,32.227,20.508,31.738,-9.766,-3.906,0
1542908494.083,18.066,5.859,21.484,-19.531,-20.996,0
1542908494.087,30.762,-4.883,20.996,-22.949,71.289,0
1542908494.091,43.457,3.906,26.855,-23.926,100.098,0
1542908494.095,24.902,29.297,32.715,-19.043,83.008,0
1542908494.099,30.273,50.293,35.645,11.230,71.289,0
1542908494.102,31.250,55.664,27.344,18.066,59.082,0
1542908494.106,17.090,53.223,22.461,16.113,69.824,0
1542908494.110,22.461,43.945,30.273,16.602,105.957,0
1542908494.114,22.949,37.598,32.227,-9.766,111.328,0
1542908494.118,29.297,38.574,28.809,-20.020,79.590,0
1542908494.122,38.574,28.809,30.762,-11.230,100.586,0
1542908494.126,58.105,20.508,31.250,-10.742,66.895,0
1542908494.130,57.129,13.672,21.484,-8.789,89.844,0
1542908494.134,40.527,8.301,18.555,7.324,69.824,0
1542908494.138,30.762,22.461,31.738,15.625,-16.113,0
1542908494.142,29.297,32.715,36.621,26.367,-5.859,0
1542908494.145,23.926,15.625,31.250,28.320,39.062,0
1542908494.149,6.836,20.508,35.645,-4.395,29.785,0
1542908494.153,14.160,42.480,36.621,-6.348,24.414,0
1542908494.157,33.203,43.945,33.203,16.113,19.531,0
1542908494.161,20.508,44.922,34.668,8.789,42.969,0
1542908494.165,11.719,31.250,34.180,10.254,26.855,0
1542908494.169,20.996,19.531,32.227,9.277,12.207,0
1542908494.173,26.855,27.344,34.180,1.953,20.020,0
1542908494.177,38.086,31.250,34.180,16.113,0.977,0
1542908494.181,38.574,27.344,26.367,9.766,10.742,0
1542908494.184,35.645,16.113,23.926,16.113,19.531,0
1542908494.188,36.621,3.418,30.762,20.508,29.297,0
1542908494.192,26.367,20.508,33.203,20.508,45.410,0
1542908494.196,40.527,30.273,31.738,38.086,76.660,0
1542908494.200,63.965,23.926,27.832,20.020,33.203,0
1542908494.204,41.504,28.809,20.996,7.324,8.301,0
1542908494.208,40.527,26.855,31.250,34.180,0.488,0
1542908494.212,52.734,33.691,39.062,43.457,10.742,0
1542908494.216,50.293,36.133,33.203,34.180,98.145,0
1542908494.220,47.852,38.086,31.250,36.621,107.910,0
1542908494.224,34.668,51.758,32.715,17.090,-5.371,0
1542908494.227,38.086,47.363,37.598,14.648,22.461,0
1542908494.231,47.852,31.738,39.062,31.250,76.172,0
1542908494.235,45.410,30.762,38.574,28.809,24.414,0
1542908494.239,49.316,38.574,39.551,35.156,35.645,0
1542908494.243,39.551,34.668,32.715,33.691,8.789,0
1542908494.247,36.133,26.367,31.250,38.086,5.371,0
1542908494.251,42.969,24.414,36.133,40.039,90.332,0
1542908494.255,46.875,28.809,32.715,39.551,140.137,0
1542908494.259,41.504,29.785,31.738,37.598,54.199,0
1542908494.263,40.527,27.344,40.039,35.156,25.391,0
1542908494.267,56.152,23.926,38.574,28.320,24.414,0
1542908494.270,66.895,24.902,33.203,48.340,57.617,0
1542908494.274,74.219,20.996,34.668,55.176,84.473,0
1542908494.278,63.477,24.902,37.598,19.531,15.137,0
1542908494.282,43.457,48.828,35.156,9.766,52.734,0
1542908494.286,28.809,54.199,24.414,5.859,87.891,0
1542908494.290,29.785,51.758,17.090,5.371,28.809,0
1542908494.294,41.504,45.898,26.367,15.625,37.109,0
1542908494.298,46.875,22.949,29.785,29.785,45.410,0
1542908494.302,47.852,23.926,24.902,39.062,37.109,0
1542908494.306,30.762,41.992,24.902,32.715,36.133,0
1542908494.309,25.391,48.828,30.762,41.504,33.691,0
1542908494.313,37.598,48.340,37.109,31.250,50.781,0
1542908494.317,43.457,49.805,28.809,9.766,43.945,0
1542908494.321,38.574,50.293,20.508,19.043,-5.371,0
1542908494.325,36.621,42.480,24.902,19.043,46.387,0
1542908494.329,49.316,21.973,26.367,15.625,102.539,0
1542908494.333,46.875,14.648,28.320,12.207,35.156,0
1542908494.337,46.875,22.461,32.715,34.180,63.477,0
1542908494.341,55.176,23.438,30.762,62.988,72.266,0
1542908494.345,31.250,23.926,25.879,39.551,33.691,0
1542908494.349,18.066,19.043,27.832,29.297,39.062,0
1542908494.352,24.414,31.738,30.762,54.199,62.500,0
1542908494.356,30.762,47.852,32.227,85.449,49.805,0
1542908494.360,40.527,44.922,31.250,76.172,30.762,0
1542908494.364,39.551,45.410,24.414,35.156,5.371,0
1542908494.368,36.133,35.645,25.879,25.879,11.230,0
1542908494.372,31.250,29.297,31.738,38.086,63.477,0
1542908494.376,33.203,33.203,31.250,35.156,12.695,0
1542908494.380,41.016,30.273,34.180,39.551,36.133,0
1542908494.384,32.715,22.949,32.227,37.598,26.855,0
1542908494.388,29.785,13.184,28.320,20.020,-26.367,0
1542908494.392,29.785,14.648,29.785,-2.441,13.672,0
1542908494.395,38.574,25.391,30.273,-11.230,38.086,0
1542908494.399,45.898,31.250,25.879,3.906,48.828,0
1542908494.403,46.875,38.574,23.926,14.648,6.836,0
1542908494.407,37.109,41.992,30.273,49.316,15.625,0
1542908494.411,44.922,30.273,33.203,48.828,66.895,0
1542908494.415,56.152,35.156,30.762,7.812,41.992,0
1542908494.419,58.594,45.410,32.715,20.996,48.340,0
1542908494.423,54.199,38.086,33.203,38.086,48.340,0
1542908494.427,35.156,25.879,28.809,41.016,34.668,0
1542908494.431,31.250,27.344,26.367,33.203,35.645,0
1542908494.434,33.203,33.203,30.762,31.250,22.949,0
1542908494.438,13.672,14.648,33.203,29.297,47.852,0
1542908494.442,29.785,15.625,33.691,38.086,41.504,0
1542908494.446,38.086,35.156,35.645,35.645,12.695,0
1542908494.450,19.531,32.227,36.621,15.625,45.898,0
1542908494.454,25.391,29.785,36.621,28.320,67.383,0
1542908494.458,28.809,28.809,37.598,47.852,71.777,0
1542908494.462,26.855,34.668,36.621,32.715,93.262,0
1542908494.466,14.648,40.527,31.250,38.086,20.508,0
1542908494.470,19.043,24.414,28.320,53.711,-0.977,0
1542908494.474,32.227,20.020,27.344,30.273,27.832,0
1542908494.477,21.484,37.598,27.832,-8.301,31.738,0
1542908494.481,25.391,45.410,27.832,-4.883,31.738,0
1542908494.485,32.715,36.621,22.949,17.578,29.785,0
1542908494.489,51.270,31.250,23.926,15.625,16.113,0
1542908494.493,59.082,37.109,29.297,13.672,21.484,0
1542908494.497,43.945,37.598,38.574,10.254,59.570,0
1542908494.501,20.508,21.973,42.969,24.902,68.359,0
1542908494.505,12.207,2.441,41.992,33.203,36.133,0
1542908494.509,9.277,11.719,40.527,10.254,-9.277,0
1542908494.513,0.977,30.273,39.062,-1.953,22.461,0
1542908494.517,4.883,39.551,39.062,-1.953,34.668,0
1542908494.520,8.301,30.762,31.738,-0.977,10.742,0
1542908494.524,13.184,19.531,25.391,13.672,-3.906,0
1542908494.528,34.668,15.625,30.762,25.879,22.461,0
1542908494.532,52.734,22.461,36.133,8.789,55.664,0
1542908494.536,25.879,27.344,30.273,-15.137,17.578,0
1542908494.540,17.090,25.391,31.738,-1.953,58.105,0
1542908494.544,29.785,24.902,39.551,21.973,56.641,0
1542908494.548,9.277,20.996,31.738,3.418,26.367,0
1542908494.552,-4.883,19.531,28.320,-7.324,84.961,0
1542908494.556,2.930,24.414,35.645,6.348,62.500,0
1542908494.559,5.859,37.598,28.809,18.555,7.812,0
1542908494.563,9.277,44.922,25.391,30.273,27.832,0
1542908494.567,26.855,27.344,35.156,34.180,27.832,0
1542908494.571,30.762,20.508,39.062,39.062,26.855,0
1542908494.575,16.113,26.367,35.156,11.230,65.430,0
1542908494.579,-5.859,18.066,36.621,3.418,66.406,0
1542908494.583,-1.465,17.578,38.086,12.207,62.500,0
1542908494.587,0.977,24.902,34.180,5.371,41.992,0
1542908494.591,-11.230,23.926,33.691,22.461,-2.441,0
1542908494.595,-1.465,22.461,37.109,20.020,0.977,0
1542908494.599,16.602,22.461,43.457,4.395,-0.488,0
1542908494.602,26.367,25.879,43.945,12.695,44.922,0
1542908494.606,7.812,30.762,42.969,7.324,106.934,0
1542908494.610,13.672,26.855,43.457,6.348,83.008,0
1542908494.614,7.812,25.391,40.039,5.859,36.133,0
1542908494.618,6.836,36.133,33.691,12.695,25.391,0
1542908494.622,40.527,35.645,27.832,18.555,64.453,0
1542908494.626,32.715,31.738,29.297,12.207,47.852,0
1542908494.630,10.254,31.738,33.203,23.438,32.227,0
1542908494.634,15.625,24.902,28.320,34.668,75.195,0
1542908494.638,28.320,20.508,22.461,12.207,81.543,0
1542908494.642,25.879,28.809,18.066,13.672,42.969,0
1542908494.645,28.809,33.203,26.855,30.762,4.883,0
1542908494.649,3.418,28.320,34.668,17.090,45.410,0
1542908494.653,-11.719,24.414,32.227,-9.277,90.820,0
1542908494.657,16.113,25.879,36.133,5.859,-5.859,0
1542908494.661,7.812,21.973,39.551,16.602,26.367,0
1542908494.665,0.488,10.742,31.738,1.953,92.773,0
1542908494.669,25.879,7.324,27.344,4.883,91.797,0
1542908494.673,53.223,16.602,34.668,29.785,72.266,0
1542908494.677,56.641,35.645,35.645,45.898,27.832,0
1542908494.681,46.387,33.691,37.598,33.691,42.969,0
1542908494.684,42.969,37.109,37.109,16.602,62.012,0
1542908494.688,41.504,51.758,30.762,34.668,119.141,0
1542908494.692,35.645,54.199,33.203,49.316,65.918,0
1542908494.696,34.180,46.875,30.762,31.250,50.781,0
1542908494.700,41.992,26.855,31.250,41.992,4.883,0
1542908494.704,41.992,21.973,35.156,49.316,-37.109,0
1542908494.708,33.203,32.227,32.715,35.645,46.387,0
1542908494.712,22.949,30.762,33.691,26.855,71.777,0
1542908494.716,33.691,33.203,35.156,17.090,101.562,0
1542908494.720,41.016,34.180,33.691,11.230,88.867,0
1542908494.724,42.969,31.250,31.738,11.230,47.363,0
1542908494.727,49.805,34.668,35.645,20.020,52.246,0
1542908494.731,58.594,34.668,35.156,20.020,57.129,0
1542908494.735,56.152,31.250,27.832,7.324,14.648,0
1542908494.739,41.016,24.414,29.297,26.367,41.016,0
1542908494.743,29.785,20.996,32.715,28.320,69.336,0
1542908494.747,33.203,39.551,29.785,15.625,31.738,0
1542908494.751,52.734,42.480,28.320,9.766,20.996,0
1542908494.755,41.016,35.156,33.203,3.418,21.484,0
1542908494.759,27.344,33.691,34.180,9.277,72.266,0
1542908494.763,43.457,30.762,36.621,39.551,23.438,0
1542908494.767,62.988,27.344,41.992,57.129,-20.508,0
1542908494.770,57.129,25.391,35.645,25.391,40.039,0
1542908494.774,59.570,38.574,33.691,10.742,42.969,0
1542908494.778,44.922,47.852,32.715,23.438,36.133,0
1542908494.782,18.066,32.715,31.250,20.508,24.414,0
1542908494.786,19.531,28.320,33.203,8.789,35.156,0
1542908494.790,35.645,40.039,31.250,8.789,82.520,0
1542908494.794,43.945,35.156,34.180,17.578,77.637,0
1542908494.798,39.551,37.109,36.621,38.086,28.320,0
1542908494.802,55.176,34.668,40.527,36.621,27.344,0
1542908494.806,64.941,17.578,41.504,21.484,45.898,0
1542908494.809,59.082,28.809,37.598,21.484,88.379,0
1542908494.813,64.453,33.203,41.992,34.668,108.398,0
1542908494.817,42.480,22.461,36.621,21.484,57.617,0
1542908494.821,40.039,30.273,34.180,16.113,-4.883,0
1542908494.825,57.617,38.086,44.922,37.598,12.207,0
1542908494.829,45.898,26.367,47.852,45.898,112.793,0
1542908494.833,25.391,15.137,47.363,12.695,61.523,0
1542908494.837,11.719,16.113,44.922,-12.207,-20.996,0
1542908494.841,25.879,18.066,44.434,3.418,10.254,0
1542908494.845,37.109,10.254,44.434,25.391,53.711,0
1542908494.849,38.574,4.395,45.898,36.621,35.156,0
1542908494.852,47.852,24.414,48.828,24.414,20.996,0
1542908494.856,46.875,53.223,46.387,4.395,22.461,0
1542908494.860,31.738,56.641,38.574,-5.859,36.133,0
1542908494.864,24.414,45.898,26.367,5.859,75.684,0
1542908494.868,30.762,44.434,30.762,2.441,37.109,0
1542908494.872,41.992,41.016,46.875,-8.789,62.988,0
1542908494.876,50.781,18.555,43.457,0.488,95.703,0
1542908494.880,42.969,19.043,38.086,8.789,67.383,0
1542908494.884,21.484,26.855,35.156,18.555,30.273,0
1542908494.888,24.414,24.414,36.621,23.926,37.598,0
1542908494.892,41.992,41.016,38.574,19.043,64.453,0
1542908494.895,46.875,37.598,32.227,9.277,32.715,0
1542908494.899,38.574,28.320,31.738,11.719,-3.418,0
1542908494.903,46.875,25.879,33.691,12.695,14.648,0
1542908494.907,49.316,31.250,34.668,0.000,48.828,0
1542908494.911,44.922,55.664,38.574,7.324,69.336,0
1542908494.915,55.664,53.711,41.992,35.156,89.844,0
1542908494.919,43.945,29.297,36.133,13.184,86.426,0
1542908494.923,36.621,24.902,29.785,-30.762,59.570,0
1542908494.927,33.203,27.832,32.715,-4.883,-6.348,0
1542908494.931,30.762,21.484,38.086,20.020,27.832,0
1542908494.934,36.133,20.508,42.480,-9.766,49.805,0
1542908494.938,35.156,26.367,41.992,-20.508,49.316,0
1542908494.942,46.387,39.062,39.062,-11.719,83.984,0
1542908494.946,54.688,27.832,41.992,-10.254,86.426,0
1542908494.950,52.246,3.906,43.457,-2.441,82.520,0
1542908494.954,35.645,21.973,36.133,16.113,12.207,0
1542908494.958,27.832,41.016,30.273,10.254,4.883,0
1542908494.962,35.645,52.246,32.715,0.000,12.695,0
1542908494.966,36.133,58.105,38.086,19.043,22.461,0
1542908494.970,28.809,45.898,40.039,3.906,22.949,0
1542908494.974,23.926,37.109,36.133,-2.930,-40.039,0
1542908494.977,28.320,27.832,30.762,2.930,10.254,0
1542908494.981,30.762,15.625,33.691,4.883,43.945,0
1542908494.985,33.691,12.695,38.574,3.418,15.137,0
1542908494.989,31.738,16.113,36.133,-2.930,-7.324,0
1542908494.993,37.598,27.344,30.762,-0.488,36.621,0
1542908494.997,35.156,30.762,33.203,6.348,105.469,0
1542908495.001,14.160,28.320,34.180,15.625,83.496,0
1542908495.005,0.000,38.574,34.180,16.602,30.273,0
1542908495.009,8.301,46.875,36.133,26.855,27.832,0
1542908495.013,18.066,47.852,34.180,21.973,22.461,0
1542908495.017,25.391,59.570,32.715,26.367,22.949,0
1542908495.020,49.316,57.617,30.273,44.922,58.105,0
1542908495.024,39.062,41.016,30.762,18.555,54.199,0
1542908495.028,34.180,31.250,34.668,17.578,57.617,0
1542908495.032,55.664,27.344,35.645,22.949,49.805,0
1542908495.036,43.945,24.414,37.598,25.391,32.227,0
1542908495.040,42.480,14.648,41.016,35.156,18.555,0
1542908495.044,61.523,14.160,44.434,34.180,3.418,0
1542908495.048,66.406,45.410,46.875,44.922,31.738,0
1542908495.052,53.223,61.035,43.945,50.781,-14.648,0
1542908495.056,40.039,41.016,34.668,34.180,-8.789,0
1542908495.059,44.922,29.297,30.762,32.227,25.879,0
1542908495.063,58.105,36.133,34.180,34.668,-20.996,0
1542908495.067,57.617,39.062,35.156,34.180,35.156,0
1542908495.071,39.062,27.832,35.156,32.227,78.613,0
1542908495.075,35.645,21.484,31.738,26.855,55.664,0
1542908495.079,39.551,27.832,33.203,30.762,13.672,0
1542908495.083,38.574,36.621,34.668,25.879,-24.902,0
1542908495.087,39.551,34.668,35.156,21.484,10.254,0
1542908495.091,40.039,18.555,34.668,34.668,45.410,0
1542908495.095,52.246,13.184,31.738,27.832,-14.160,0
1542908495.099,57.129,20.996,40.039,25.879,-39.551,0
1542908495.102,41.016,24.414,41.504,22.949,8.789,0
1542908495.106,44.922,22.949,41.992,17.578,62.012,0
1542908495.110,33.203,18.066,42.480,18.555,55.664,0
1542908495.114,13.672,17.090,39.062,24.902,25.391,0
1542908495.118,26.367,15.625,41.016,35.156,-0.488,0
1542908495.122,24.414,13.672,36.621,18.066,6.348,0
1542908495.126,22.461,17.578,34.180,19.043,81.543,0
1542908495.130,35.645,19.531,33.691,15.137,85.449,0
1542908495.134,35.156,20.996,34.180,5.859,40.527,0
1542908495.138,28.809,18.555,33.203,16.113,73.730,0
1542908495.142,11.230,13.184,33.691,17.090,109.375,0
1542908495.145,9.766,21.973,34.668,13.184,72.754,0
1542908495.149,26.367,39.062,35.645,17.578,30.273,0
1542908495.153,30.273,39.062,39.551,24.414,53.711,0
1542908495.157,54.199,14.648,45.410,56.152,88.379,0
1542908495.161,77.148,1.953,50.781,78.125,51.270,0
1542908495.165,44.434,20.020,38.086,26.855,16.602,0
1542908495.169,32.227,38.574,22.949,-7.812,29.785,0
1542908495.173,27.344,47.363,18.555,-11.230,8.301,0
1542908495.177,11.719,52.246,17.090,-0.488,0.000,0
1542908495.181,29.785,57.129,16.113,33.203,25.391,0
1542908495.184,39.551,45.898,20.020,41.016,32.227,0
1542908495.188,29.297,32.227,22.949,42.480,29.297,0
1542908495.192,19.531,30.762,20.020,36.133,8.789,0
1542908495.196,29.297,17.090,21.484,10.254,4.395,0
1542908495.200,25.879,5.371,17.578,11.719,33.691,0
1542908495.204,28.809,30.273,14.648,23.438,49.316,0
1542908495.208,47.852,51.758,15.625,38.574,32.227,0
1542908495.212,39.551,42.480,12.695,45.898,32.227,0
1542908495.216,43.457,34.180,13.672,27.832,44.434,0
1542908495.220,60.059,29.785,21.484,25.879,39.551,0
1542908495.224,48.828,24.414,26.855,39.062,60.547,0
1542908495.227,43.457,22.461,27.344,46.875,70.801,0
1542908495.231,45.410,18.555,21.484,45.898,-7.324,0
1542908495.235,42.480,21.484,19.043,47.852,-3.418,0
1542908495.239,58.594,27.344,20.020,51.270,-13.672,0
1542908495.243,53.223,27.832,19.043,47.852,-34.180,0
1542908495.247,48.828,35.645,21.484,42.480,33.691,0
1542908495.251,53.711,41.016,23.438,35.156,39.551,0
1542908495.255,60.059,32.715,25.879,29.297,32.715,0
1542908495.259,69.336,26.367,24.414,33.691,78.125,0
1542908495.263,50.781,25.391,22.949,40.527,81.055,0
1542908495.267,23.926,35.156,23.926,46.875,82.520,0
1542908495.270,41.992,48.340,24.902,47.363,53.711,0
1542908495.274,59.082,49.316,26.855,47.363,18.066,0
1542908495.278,51.270,29.297,29.297,50.781,86.914,0
1542908495.282,53.223,9.766,30.762,60.547,81.055,0
1542908495.286,41.504,16.602,29.297,51.758,57.617,0
1542908495.290,37.598,35.645,25.879,28.320,68.848,0
1542908495.294,51.270,37.109,20.996,32.227,52.246,0
1542908495.298,43.457,35.645,24.414,34.180,68.359,0
1542908495.302,39.062,41.016,33.691,30.762,84.961,0
1542908495.306,53.223,37.109,38.574,36.133,108.398,0
1542908495.309,50.781,25.879,36.621,34.180,93.750,0
1542908495.313,37.109,19.531,31.250,38.086,49.805,0
1542908495.317,37.109,29.297,30.273,48.340,72.266,0
1542908495.321,41.016,41.992,26.367,49.805,70.801,0
1542908495.325,42.480,37.598,23.926,38.574,37.598,0
1542908495.329,42.480,27.832,27.832,42.969,53.223,0
1542908495.333,50.781,27.832,34.180,56.641,58.105,0
1542908495.337,37.109,17.090,36.133,42.480,24.902,0
1542908495.341,23.438,-5.371,30.762,25.391,56.641,0
1542908495.345,19.531,9.277,28.320,34.668,67.871,0
1542908495.349,25.391,31.250,30.273,43.945,36.133,0
1542908495.352,43.945,29.785,28.320,47.363,30.762,0
1542908495.356,51.758,41.504,34.668,65.430,-15.625,0
1542908495.360,56.641,42.969,37.109,62.500,-12.207,0
1542908495.364,47.852,25.391,31.250,51.270,-20.020,0
1542908495.368,50.293,16.113,32.227,47.363,-36.621,0
1542908495.372,57.617,15.137,30.273,58.105,-11.230,0
1542908495.376,56.641,18.066,31.250,67.871,-14.648,0
1542908495.380,56.152,34.180,33.203,28.320,-6.348,0
1542908495.384,49.805,37.109,34.668,23.438,12.207,0
1542908495.388,50.781,30.762,37.598,49.805,21.484,0
1542908495.392,54.199,32.715,37.598,47.363,24.902,0
1542908495.395,52.246,35.645,28.320,38.086,57.617,0
1542908495.399,57.617,29.297,32.227,48.340,53.223,0
1542908495.403,46.387,11.230,41.504,62.500,47.363,0
1542908495.407,37.598,25.879,40.527,51.270,71.777,0
1542908495.411,40.527,41.992,40.527,24.414,38.086,0
1542908495.415,34.668,36.621,36.621,19.043,39.062,0
1542908495.419,39.062,33.203,32.227,20.020,39.551,0
1542908495.423,45.898,27.344,39.062,28.320,59.570,0
1542908495.427,41.504,26.855,40.527,38.086,60.059,0
1542908495.431,44.434,31.738,32.227,40.039,36.133,0
1542908495.434,49.316,33.203,31.738,30.273,66.406,0
1542908495.438,50.781,36.133,38.574,47.363,62.012,0
1542908495.442,57.617,32.715,36.621,55.664,48.340,0
1542908495.446,52.246,23.438,29.297,28.809,35.645,0
1542908495.450,47.363,22.949,26.367,18.066,0.977,0
1542908495.454,45.898,23.438,20.020,19.531,52.246,0
1542908495.458,38.086,30.273,20.508,19.043,53.711,0
1542908495.462,31.738,32.715,29.785,16.602,-20.508,0
1542908495.466,32.227,25.391,34.180,16.113,-7.812,0
1542908495.470,39.062,25.391,29.785,25.879,48.828,0
1542908495.474,59.082,26.855,29.785,53.223,22.461,0
1542908495.477,72.754,22.461,34.180,80.078,34.180,0
1542908495.481,64.941,11.230,31.250,71.777,44.922,0
1542908495.485,79.590,4.395,24.414,72.754,25.391,0
1542908495.489,97.656,12.207,30.273,99.121,25.391,0
1542908495.493,95.703,16.602,34.180,118.652,12.695,0
1542908495.497,99.609,9.766,30.273,101.562,50.781,0
1542908495.501,109.375,8.301,31.250,104.492,125.977,0
1542908495.505,116.699,10.742,34.668,142.090,112.793,0
1542908495.509,139.648,12.695,34.668,124.023,83.496,0
1542908495.513,146.484,11.719,35.156,111.328,41.992,0
1542908495.517,123.047,12.695,40.039,120.605,20.508,0
1542908495.520,115.234,16.113,34.668,133.789,48.340,0
1542908495.524,128.418,3.906,30.273,128.906,62.988,0
1542908495.528,105.957,0.977,30.273,84.961,0.000,0
1542908495.532,91.797,20.020,29.297,87.891,3.418,0
1542908495.536,104.980,31.250,30.273,103.516,16.602,0
1542908495.540,92.773,23.926,34.180,104.004,6.836,0
1542908495.544,82.520,18.066,34.668,108.887,49.805,0
1542908495.548,93.262,20.020,36.133,109.863,33.691,0
1542908495.552,104.980,16.602,33.203,91.797,-20.996,0
1542908495.556,96.191,12.695,35.156,99.121,39.062,0
1542908495.559,89.844,18.066,41.504,105.469,61.035,0
1542908495.563,96.680,25.391,37.598,75.684,14.160,0
1542908495.567,87.402,23.438,35.645,58.594,12.207,0
1542908495.571,66.895,16.113,36.621,67.383,12.207,0
1542908495.575,65.430,15.137,32.715,76.172,83.496,0
1542908495.579,65.918,19.531,34.180,86.426,83.984,0
1542908495.583,66.406,29.785,37.598,89.355,24.414,0
1542908495.587,80.078,28.809,37.598,82.520,52.734,0
1542908495.591,84.961,18.066,38.086,78.613,39.551,0
1542908495.595,78.125,22.461,36.133,65.918,64.453,0
1542908495.599,73.730,26.855,34.180,60.059,68.848,0
1542908495.602,60.059,21.973,31.738,70.801,49.316,0
1542908495.606,58.594,21.973,29.297,73.730,115.723,0
1542908495.610,57.617,32.227,30.762,57.129,85.449,0
1542908495.614,60.547,38.086,31.738,50.781,-5.371,0
1542908495.618,63.965,27.344,35.645,76.172,16.602,0
1542908495.622,62.500,21.973,42.480,84.473,27.344,0
1542908495.626,66.406,38.086,42.969,63.477,-9.277,0
1542908495.630,79.102,48.340,40.039,70.801,28.320,0
1542908495.634,64.453,37.109,34.668,69.824,72.754,0
1542908495.638,47.363,21.973,31.250,28.809,53.223,0
1542908495.642,50.293,12.207,29.297,23.926,57.129,0
1542908495.645,45.410,9.277,28.320,47.852,31.250,0
1542908495.649,56.641,8.789,33.691,57.617,14.648,0
1542908495.653,52.246,6.836,37.109,60.547,25.879,0
1542908495.657,24.414,17.090,32.227,68.848,17.090,0
1542908495.661,31.738,31.738,31.250,59.082,43.945,0
1542908495.665,52.246,23.438,36.133,44.922,96.191,0
1542908495.669,50.781,15.625,36.133,29.785,30.762,0
1542908495.673,45.898,31.738,34.668,31.738,-10.742,0
1542908495.677,55.664,43.457,35.156,30.762,22.461,0
1542908495.681,53.711,44.434,37.598,30.273,-5.859,0
1542908495.684,41.992,35.645,41.016,35.156,13.184,0
1542908495.688,39.551,29.785,40.527,40.527,51.270,0
1542908495.692,45.898,32.227,39.551,36.621,2.930,0
1542908495.696,32.715,28.320,34.180,11.719,24.902,0
1542908495.700,12.695,20.020,32.715,-1.953,83.496,0
1542908495.704,26.367,25.879,34.180,14.160,76.172,0
1542908495.708,30.273,34.668,32.715,27.344,70.801,0
1542908495.712,20.508,34.180,33.203,24.414,59.570,0
1542908495.716,21.484,27.344,32.715,29.785,52.246,0
1542908495.720,38.574,19.043,32.715,41.016,45.410,0
1542908495.724,50.293,19.043,36.621,41.992,43.945,0
1542908495.727,38.574,32.715,35.645,31.738,15.625,0
1542908495.731,30.273,44.434,24.414,10.254,17.578,0
1542908495.735,29.297,38.086,22.461,-1.953,86.426,0
1542908495.739,14.648,30.762,21.973,7.812,84.961,0
1542908495.743,27.344,36.621,16.113,29.785,74.707,0
1542908495.747,53.711,45.898,17.578,35.156,33.203,0
1542908495.751,34.668,45.410,20.020,26.367,38.574,0
1542908495.755,16.113,39.062,20.996,20.996,67.383,0
1542908495.759,11.230,38.574,20.996,17.090,103.516,0
1542908495.763,9.766,39.062,20.996,13.184,62.988,0
1542908495.767,29.297,39.551,26.855,30.762,9.277,0
1542908495.770,45.410,36.621,29.297,39.551,10.254,0
1542908495.774,44.922,32.227,26.855,24.902,22.949,0
1542908495.778,45.410,35.645,28.320,19.531,77.637,0
1542908495.782,53.711,36.621,26.367,25.391,75.195,0
1542908495.786,32.715,30.762,21.484,13.672,22.949,0
1542908495.790,29.785,19.531,21.973,4.395,3.906,0
1542908495.794,41.504,14.160,26.855,24.414,54.199,0
1542908495.798,41.992,37.598,29.297,28.320,74.707,0
1542908495.802,48.340,47.852,28.320,16.113,78.125,0
1542908495.806,46.875,33.203,27.344,22.949,62.988,0
1542908495.809,30.762,39.062,32.227,37.109,28.320,0
1542908495.813,29.785,44.434,35.645,34.180,31.250,0
1542908495.817,37.598,34.180,30.762,4.395,65.918,0
1542908495.821,41.504,37.109,30.273,-4.395,8.301,0
1542908495.825,43.945,41.504,28.809,19.043,-3.906,0
1542908495.829,30.762,36.133,28.320,34.180,70.801,0
1542908495.833,23.438,37.109,30.273,37.109,19.531,0
1542908495.837,26.855,36.621,28.320,29.785,18.066,0
1542908495.841,37.109,36.133,31.250,19.043,63.477,0
1542908495.845,43.457,41.504,35.156,27.344,-3.906,0
1542908495.849,52.246,41.504,33.691,29.297,-34.668,0
1542908495.852,58.105,33.691,31.250,36.621,49.805,0
1542908495.856,53.711,35.156,22.949,31.738,39.551,0
1542908495.860,55.176,35.156,20.996,28.320,17.090,0
1542908495.864,47.363,31.250,24.414,30.273,12.207,0
1542908495.868,41.016,34.180,21.973,32.715,5.371,0
1542908495.872,62.012,36.133,25.391,35.156,28.320,0
1542908495.876,62.012,37.109,28.809,20.996,74.219,0
1542908495.880,46.875,38.574,21.484,12.695,49.316,0
1542908495.884,56.641,36.621,21.484,10.254,3.906,0
1542908495.888,47.852,35.645,26.367,14.648,16.113,0
1542908495.892,33.691,32.715,27.344,19.531,49.316,0
1542908495.895,46.387,32.227,28.809,15.625,76.172,0
1542908495.899,50.781,35.156,28.320,10.742,40.039,0
1542908495.903,48.340,36.133,28.809,16.602,-19.531,0
1542908495.907,48.828,34.180,31.250,20.508,47.363,0
1542908495.911,56.641,32.227,29.297,19.043,73.242,0
1542908495.915,57.617,32.227,29.297,14.648,69.824,0
1542908495.919,51.270,23.438,32.227,26.855,38.574,0
1542908495.923,60.059,20.508,33.203,53.223,64.453,0
1542908495.927,62.988,26.367,37.598,30.273,109.863,0
1542908495.931,54.688,33.691,39.062,11.230,30.762,0
1542908495.934,48.340,32.715,37.109,6.836,35.645,0
1542908495.938,52.246,30.762,33.203,5.371,83.008,0
1542908495.942,66.406,33.203,35.156,27.832,51.270,0
1542908495.946,65.918,33.691,35.645,19.531,3.906,0
1542908495.950,57.129,29.785,31.250,10.742,3.418,0
1542908495.954,62.500,27.832,31.738,18.066,42.969,0
1542908495.958,58.105,37.109,35.156,21.973,70.801,0
1542908495.962,47.363,36.621,39.062,28.320,52.734,0
1542908495.966,42.480,38.086,44.922,10.742,74.707,0
1542908495.970,40.039,42.969,42.969,-18.555,54.199,0
1542908495.974,46.875,28.809,35.645,-11.230,73.730,0
1542908495.977,47.363,28.320,39.551,-8.789,88.379,0
1542908495.981,6.348,46.387,46.875,-40.039,18.555,0
1542908495.985,-51.758,48.828,49.316,-92.285,51.758,0
1542908495.989,-82.031,47.852,53.223,-131.348,45.410,0
1542908495.993,-111.816,40.039,64.941,-141.113,5.371,0
1542908495.997,-145.508,41.992,70.801,-166.504,-48.340,0
1542908496.001,-160.645,52.734,79.590,-200.195,-52.246,0
1542908496.005,-179.688,48.340,85.449,-247.070,-17.090,0
1542908496.009,-209.961,43.457,81.055,-270.020,-2.930,0
1542908496.013,-215.820,41.992,83.008,-290.527,25.391,0
1542908496.017,-209.473,35.156,93.262,-301.270,5.859,0
1542908496.020,-223.633,32.227,94.238,-283.203,-18.066,0
1542908496.024,-240.234,36.621,80.566,-267.578,18.066,0
1542908496.028,-229.004,44.434,74.707,-261.719,4.395,0
1542908496.032,-215.820,37.109,81.055,-260.742,-29.297,0
1542908496.036,-214.844,18.555,78.125,-258.789,14.648,0
1542908496.040,-179.199,30.762,74.707,-224.609,29.785,0
1542908496.044,-152.832,60.547,71.289,-212.891,57.617,0
1542908496.048,-145.996,59.570,58.594,-220.215,20.996,0
1542908496.052,-123.535,51.758,53.223,-190.430,45.410,0
1542908496.056,-102.051,42.969,47.363,-162.109,80.566,0
1542908496.059,-83.496,32.227,39.551,-142.578,59.082,0
1542908496.063,-73.730,27.344,42.480,-119.141,29.785,0
1542908496.067,-70.801,23.438,42.480,-101.074,65.918,0
1542908496.071,-53.223,23.926,27.344,-101.562,54.688,0
1542908496.075,-24.414,19.043,18.066,-87.891,16.602,0
1542908496.079,-19.531,19.043,25.391,-55.664,59.570,0
1542908496.083,-20.020,25.391,26.367,-34.668,53.223,0
1542908496.087,5.859,24.414,27.344,0.000,28.320,0
1542908496.091,16.602,25.879,29.297,25.391,7.812,0
1542908496.095,19.531,33.203,17.578,0.000,37.109,0
1542908496.099,32.227,30.762,10.254,-23.438,99.121,0
1542908496.102,28.320,15.137,15.137,-0.488,86.426,0
1542908496.106,23.926,8.789,14.648,33.691,76.660,0
1542908496.110,43.945,21.973,15.137,33.203,97.656,0
1542908496.114,53.711,26.855,14.648,10.254,88.867,0
1542908496.118,55.176,22.461,14.160,18.555,87.402,0
1542908496.122,61.523,16.602,16.113,38.086,45.898,0
1542908496.126,63.965,5.859,13.672,53.223,29.785,0
1542908496.130,62.500,4.395,12.695,73.730,65.918,0
1542908496.134,70.801,12.207,13.672,74.219,80.566,0
1542908496.138,70.801,15.137,14.160,63.965,85.938,0
1542908496.142,65.918,8.789,17.090,74.219,50.781,0
1542908496.145,86.426,8.301,19.531,85.449,21.973,0
1542908496.149,91.797,22.461,20.996,95.703,26.367,0
1542908496.153,82.031,29.297,19.043,92.285,0.977,0
1542908496.157,67.871,23.438,9.766,60.059,6.836,0
1542908496.161,59.082,24.902,8.301,52.734,109.863,0
1542908496.165,66.406,26.855,17.578,56.641,98.633,0
1542908496.169,77.148,22.461,22.949,82.031,38.574,0
1542908496.173,82.520,20.020,20.996,98.145,47.363,0
1542908496.177,76.172,20.020,13.184,71.777,56.641,0
1542908496.181,65.430,15.137,10.742,62.988,13.184,0
1542908496.184,66.406,4.883,12.207,82.520,35.156,0
1542908496.188,81.543,9.277,14.648,69.824,50.293,0
1542908496.192,89.355,20.508,10.742,47.363,39.551,0
1542908496.196,80.078,21.973,8.301,49.316,29.785,0
1542908496.200,69.336,13.672,15.625,51.270,39.551,0
1542908496.204,61.035,16.113,24.902,52.734,62.012,0
1542908496.208,62.500,33.691,26.367,60.547,23.438,0
1542908496.212,76.660,39.551,22.461,62.500,-28.320,0
1542908496.216,83.496,26.367,20.020,71.289,0.488,0
1542908496.220,72.754,4.883,23.438,67.383,42.480,0
1542908496.224,63.965,4.883,25.879,48.340,34.668,0
1542908496.227,62.988,20.508,21.484,57.129,36.621,0
1542908496.231,65.430,26.367,21.484,43.457,36.133,0
1542908496.235,58.594,24.414,21.484,36.133,55.664,0
1542908496.239,77.148,33.203,21.973,48.828,48.340,0
1542908496.243,89.844,34.180,25.391,48.340,-4.883,0
1542908496.247,62.012,25.391,27.832,57.617,-3.418,0
1542908496.251,56.641,30.273,28.809,54.688,0.488,0
1542908496.255,71.289,22.461,24.902,44.434,-28.809,0
1542908496.259,80.566,14.160,25.391,40.039,-2.441,0
1542908496.263,67.871,21.484,23.926,36.621,3.418,0
1542908496.267,54.688,25.879,18.555,47.363,-4.395,0
1542908496.270,60.547,32.227,26.367,66.406,46.387,0
1542908496.274,73.242,25.879,33.691,64.453,108.398,0
1542908496.278,66.895,26.855,31.250,46.387,106.934,0
1542908496.282,55.176,40.039,23.438,22.949,95.215,0
1542908496.286,55.664,42.969,21.484,37.109,93.262,0
1542908496.290,48.828,38.086,24.414,52.734,96.680,0
1542908496.294,47.363,20.996,23.438,30.762,148.438,0
1542908496.298,57.617,12.695,25.879,33.691,99.121,0
1542908496.302,54.688,22.949,31.250,42.480,48.828,0
1542908496.306,51.270,24.414,26.855,13.184,44.434,0
1542908496.309,50.781,20.996,24.414,14.648,49.316,0
1542908496.313,59.082,35.645,23.438,37.598,82.031,0
1542908496.317,61.035,46.387,22.461,26.367,29.785,0
1542908496.321,65.918,38.574,29.785,37.109,6.836,0
1542908496.325,70.312,36.621,32.227,43.457,-6.836,0
1542908496.329,57.617,31.250,23.926,16.602,6.836,0
1542908496.333,43.945,25.391,16.113,12.695,34.180,0
1542908496.337,29.785,33.203,17.090,23.438,32.227,0
1542908496.341,37.598,23.926,21.484,35.645,47.852,0
1542908496.345,46.387,12.695,27.344,33.203,8.789,0
1542908496.349,36.133,15.625,30.273,26.855,11.719,0
1542908496.352,37.109,11.230,24.902,28.809,47.363,0
1542908496.356,50.293,6.836,27.832,30.762,9.766,0
1542908496.360,46.875,14.648,32.715,28.809,-7.812,0
1542908496.364,39.551,34.180,32.715,28.809,20.508,0
1542908496.368,41.992,39.551,33.203,16.113,13.672,0
1542908496.372,36.133,36.621,32.715,10.742,44.434,0
1542908496.376,40.039,37.598,30.762,31.250,62.012,0
1542908496.380,41.016,38.574,31.738,56.152,14.648,0
1542908496.384,34.180,35.645,35.645,34.180,19.531,0
1542908496.388,36.621,18.066,34.180,20.996,28.320,0
1542908496.392,37.598,13.672,29.297,19.043,50.293,0
1542908496.395,34.180,34.668,27.832,19.043,83.496,0
1542908496.399,30.273,38.574,29.297,34.668,77.148,0
1542908496.403,42.969,28.320,35.156,47.852,33.203,0
1542908496.407,61.035,16.602,35.645,62.988,17.090,0
1542908496.411,62.988,19.043,36.621,59.570,-10.254,0
1542908496.415,47.363,29.297,33.691,31.250,13.184,0
1542908496.419,45.898,28.320,25.879,24.902,43.945,0
1542908496.423,48.340,23.926,23.926,33.691,50.293,0
1542908496.427,42.969,26.855,23.926,21.973,37.109,0
1542908496.431,37.598,34.180,21.484,25.879,8.789,0
1542908496.434,19.531,41.504,20.996,25.879,27.832,0
1542908496.438,16.113,42.969,27.832,35.156,47.852,0
1542908496.442,28.320,39.551,31.250,29.297,29.297,0
1542908496.446,28.320,36.133,29.785,19.043,32.227,0
1542908496.450,40.039,30.273,34.180,47.852,71.289,0
1542908496.454,48.828,23.926,31.738,42.480,76.660,0
1542908496.458,56.152,26.855,27.832,41.504,48.828,0
1542908496.462,66.895,31.250,28.809,47.852,46.875,0
1542908496.466,38.086,25.879,21.484,23.926,76.660,0
1542908496.470,27.832,29.785,20.508,16.602,71.777,0
1542908496.474,41.504,31.250,22.461,33.691,90.820,0
1542908496.477,41.016,23.926,23.438,52.246,78.125,0
1542908496.481,46.875,18.066,26.855,51.270,7.324,0
1542908496.485,39.551,25.391,27.832,44.434,37.598,0
1542908496.489,32.715,35.156,30.273,36.621,86.914,0
1542908496.493,36.621,33.691,32.227,28.809,51.270,0
1542908496.497,43.945,35.645,31.250,38.086,53.711,0
1542908496.501,53.223,44.922,27.344,40.527,44.922,0
1542908496.505,56.641,51.270,26.367,38.574,64.453,0
1542908496.509,50.293,42.969,23.438,26.367,119.629,0
1542908496.513,32.227,21.484,25.879,11.719,11.230,0
1542908496.517,26.855,13.184,37.109,33.203,-12.207,0
1542908496.520,36.133,21.484,34.668,29.297,2.930,0
1542908496.524,36.621,37.598,28.809,35.156,8.789,0
1542908496.528,39.062,38.086,25.879,45.898,55.664,0
1542908496.532,39.551,32.227,28.320,15.137,57.617,0
1542908496.536,31.250,39.062,32.227,3.906,2.930,0
1542908496.540,37.598,36.133,32.227,22.461,-1.465,0
1542908496.544,42.969,29.785,34.180,29.785,22.949,0
1542908496.548,52.734,22.461,35.156,11.719,-4.395,0
1542908496.552,50.293,27.344,32.715,9.277,-1.465,0
1542908496.556,22.461,40.527,23.926,14.648,17.578,0
1542908496.559,12.695,41.016,24.902,14.160,14.160,0
1542908496.563,30.762,29.785,30.273,29.785,-47.852,0
1542908496.567,47.363,29.785,33.691,42.969,-0.488,0
1542908496.571,35.156,37.598,33.203,30.273,91.309,0
1542908496.575,30.762,27.344,26.855,19.043,51.270,0
1542908496.579,51.270,28.320,30.273,32.227,31.250,0
1542908496.583,52.734,37.598,34.180,42.480,17.090,0
1542908496.587,47.363,34.180,27.344,18.555,22.461,0
1542908496.591,54.199,34.668,22.949,9.277,24.414,0
1542908496.595,45.410,39.551,28.320,6.348,53.711,0
1542908496.599,34.180,34.180,27.344,14.160,95.703,0
1542908496.602,34.668,26.367,23.438,28.320,33.691,0
1542908496.606,41.504,30.273,23.926,6.348,51.758,0
1542908496.610,37.598,41.992,28.320,-5.371,100.586,0
1542908496.614,36.133,44.922,33.691,21.484,67.383,0
1542908496.618,47.363,31.250,34.668,33.691,12.695,0
1542908496.622,31.250,7.324,30.762,22.949,23.926,0
1542908496.626,15.137,15.137,32.227,16.602,29.297,0
1542908496.630,24.414,32.715,36.133,27.832,31.738,0
1542908496.634,35.645,25.391,33.691,18.555,44.434,0
1542908496.638,43.457,22.949,31.250,7.812,25.879,0
1542908496.642,39.551,33.691,31.738,24.414,41.016,0
1542908496.645,25.879,42.480,30.762,23.438,88.379,0
1542908496.649,30.273,38.086,30.273,12.207,37.598,0
1542908496.653,36.133,30.762,29.297,12.207,30.762,0
1542908496.657,28.320,30.273,27.344,14.648,101.074,0
1542908496.661,18.555,27.344,26.855,19.043,72.754,0
1542908496.665,20.996,26.367,26.367,26.367,23.926,0
1542908496.669,33.691,28.320,26.367,20.508,11.719,0
1542908496.673,41.992,24.414,30.273,16.113,11.230,0
1542908496.677,42.969,16.602,29.297,18.555,24.414,0
1542908496.681,56.641,23.926,26.367,20.020,8.301,0
1542908496.684,44.434,25.391,31.250,11.719,44.922,0
1542908496.688,24.414,20.020,31.738,11.230,59.570,0
1542908496.692,24.902,29.297,26.855,13.672,30.762,0
1542908496.696,19.531,24.414,25.391,-4.395,70.312,0
1542908496.700,23.926,24.902,27.344,2.930,60.059,0
1542908496.704,18.555,37.109,30.762,20.996,32.715,0
1542908496.708,18.555,33.691,32.227,28.320,39.551,0
1542908496.712,30.762,26.855,31.738,32.715,81.055,0
1542908496.716,28.809,14.160,28.809,28.320,59.082,0
1542908496.720,30.762,17.578,25.879,18.066,35.156,0
1542908496.724,35.156,28.809,29.785,2.441,71.289,0
1542908496.727,35.156,28.809,29.297,16.113,42.969,0
1542908496.731,36.621,32.227,27.832,31.738,23.926,0
1542908496.735,46.875,29.785,26.367,28.320,50.781,0
1542908496.739,52.734,30.273,22.461,30.273,67.383,0
1542908496.743,47.852,33.203,23.926,32.227,22.949,0
1542908496.747,41.016,34.668,27.344,27.344,85.938,0
1542908496.751,36.621,41.016,28.320,21.484,68.848,0
1542908496.755,44.922,37.109,35.156,36.133,31.738,0
1542908496.759,59.082,21.973,42.969,48.340,26.855,0
1542908496.763,62.012,21.484,37.109,39.062,27.344,0
1542908496.767,50.781,21.484,26.367,23.926,69.824,0
1542908496.770,49.316,25.391,22.949,10.254,21.973,0
1542908496.774,44.922,31.250,23.438,-1.465,43.457,0
1542908496.778,43.945,27.344,21.973,11.719,45.898,0
1542908496.782,48.340,30.273,24.414,30.762,28.320,0
1542908496.786,25.391,31.738,32.227,23.926,55.176,0
1542908496.790,7.812,24.414,32.227,26.855,97.168,0
1542908496.794,7.812,27.832,32.227,3.418,39.062,0
1542908496.798,15.137,29.297,33.691,-30.273,-7.812,0
1542908496.802,9.766,18.555,35.645,-8.789,33.691,0
1542908496.806,-17.578,15.137,37.109,-12.207,14.160,0
1542908496.809,-19.043,20.508,33.203,-44.922,18.066,0
1542908496.813,-13.184,25.879,31.250,-30.762,66.895,0
1542908496.817,-10.254,22.461,25.879,-19.531,23.438,0
1542908496.821,0.000,30.273,23.926,-18.555,-8.301,0
1542908496.825,-4.395,34.180,27.832,-11.719,65.430,0
1542908496.829,0.000,28.809,27.344,-0.488,82.031,0
1542908496.833,-2.441,26.855,21.973,15.625,7.812,0
1542908496.837,-5.859,30.273,24.414,7.812,-27.832,0
1542908496.841,2.441,30.273,28.320,-11.230,9.277,0
1542908496.845,0.000,14.648,25.879,-7.324,30.762,0
1542908496.849,2.930,15.625,27.344,5.859,48.828,0
1542908496.852,10.254,27.344,30.273,4.395,29.785,0
1542908496.856,5.371,24.414,30.762,-5.371,-23.438,0
1542908496.860,15.625,23.926,33.691,1.953,17.578,0
1542908496.864,21.973,24.414,33.203,18.555,60.059,0
1542908496.868,7.324,21.973,29.785,16.113,61.523,0
1542908496.872,11.230,20.020,29.785,17.578,47.363,0
1542908496.876,6.348,21.484,36.133,28.320,20.508,0
1542908496.880,18.066,31.738,33.691,26.855,-0.977,0
1542908496.884,41.992,36.621,26.855,15.625,-19.531,0
1542908496.888,43.457,34.668,36.133,0.977,-17.090,0
1542908496.892,30.273,12.695,37.109,23.438,26.367,0
1542908496.895,32.715,2.441,31.738,51.270,82.031,0
1542908496.899,23.438,25.391,32.715,40.527,29.297,0
1542908496.903,0.977,41.504,23.438,21.484,30.762,0
1542908496.907,23.438,36.621,14.648,19.043,18.555,0
1542908496.911,32.227,20.996,19.043,3.418,-55.664,0
1542908496.915,25.879,18.066,25.391,-7.812,-38.574,0
1542908496.919,32.227,36.621,25.879,-8.301,23.926,0
1542908496.923,12.695,47.852,26.855,-4.395,75.684,0
1542908496.927,11.230,36.133,27.344,-0.488,80.078,0
1542908496.931,30.762,24.902,28.320,5.859,54.688,0
1542908496.934,32.227,34.180,28.809,31.250,23.438,0
1542908496.938,28.809,28.809,28.809,27.344,1.953,0
1542908496.942,29.785,8.301,29.297,4.883,23.438,0
1542908496.946,29.785,21.973,26.855,5.859,59.570,0
1542908496.950,42.480,39.062,24.414,12.695,55.176,0
1542908496.954,45.410,29.785,27.344,17.578,24.902,0
1542908496.958,25.879,12.695,30.273,10.742,0.000,0
1542908496.962,22.949,1.953,29.297,3.418,-1.465,0
1542908496.966,38.574,19.043,24.902,13.184,12.207,0
1542908496.970,30.273,40.527,19.531,18.555,82.520,0
1542908496.974,22.461,39.062,21.973,42.480,53.223,0
1542908496.977,19.531,31.738,25.391,35.156,39.062,0
1542908496.981,10.742,24.414,16.602,-11.719,50.781,0
1542908496.985,23.926,11.230,4.395,-10.742,60.547,0
1542908496.989,13.672,3.906,-1.465,5.371,101.562,0
1542908496.993,22.461,5.371,5.859,25.879,85.449,0
1542908496.997,43.945,-2.930,15.137,28.320,44.434,0
1542908497.001,32.227,-5.859,19.531,3.906,47.852,0
1542908497.005,24.902,10.742,22.949,10.254,63.477,0
1542908497.009,31.250,34.668,25.879,27.832,40.039,0
1542908497.013,28.809,41.016,27.344,18.555,-14.648,0
1542908497.017,24.414,40.527,26.855,23.926,-2.930,0
1542908497.020,28.320,43.457,36.133,44.922,18.066,0
1542908497.024,27.344,32.715,36.621,35.156,9.277,0
1542908497.028,21.973,23.926,31.250,27.832,-6.836,0
1542908497.032,22.949,22.949,28.320,29.297,-4.395,0
1542908497.036,32.227,17.578,28.320,28.809,19.043,0
1542908497.040,33.691,20.508,32.715,29.297,39.062,0
1542908497.044,23.438,27.344,35.156,34.180,50.293,0
1542908497.048,37.598,25.391,34.180,27.344,66.895,0
1542908497.052,46.387,25.391,32.227,22.461,61.035,0
1542908497.056,36.621,38.086,32.715,25.879,43.945,0
1542908497.059,33.691,46.875,29.297,19.531,22.461,0
1542908497.063,43.457,47.363,33.203,12.207,46.387,0
1542908497.067,47.852,42.480,38.574,25.391,38.086,0
1542908497.071,47.852,29.297,33.203,46.387,14.648,0
1542908497.075,35.156,25.391,29.785,27.344,31.250,0
1542908497.079,24.414,20.020,39.062,30.762,71.777,0
1542908497.083,35.645,21.973,43.457,47.852,97.168,0
1542908497.087,39.551,21.973,34.668,22.949,81.543,0
1542908497.091,35.645,4.883,32.227,5.371,74.219,0
1542908497.095,26.855,3.418,32.715,11.719,31.250,0
1542908497.099,20.508,17.090,31.250,22.949,30.273,0
1542908497.102,36.133,34.180,31.738,29.785,37.598,0
1542908497.106,31.738,45.410,37.598,23.926,12.695,0
1542908497.110,12.695,42.480,37.109,11.230,36.133,0
1542908497.114,17.090,37.109,37.598,23.926,68.359,0
1542908497.118,27.832,21.973,40.527,44.922,42.969,0
1542908497.122,48.828,18.066,39.062,31.250,18.555,0
1542908497.126,33.691,34.668,37.598,12.695,65.430,0
1542908497.130,18.066,37.598,33.691,19.043,37.598,0
1542908497.134,16.602,13.672,30.762,17.090,41.504,0
1542908497.138,15.137,9.277,31.738,20.996,17.578,0
1542908497.142,21.484,16.602,31.250,11.230,-18.066,0
1542908497.145,33.203,7.812,30.273,7.812,11.719,0
1542908497.149,44.434,26.367,33.203,25.879,-35.156,0
1542908497.153,24.902,50.293,30.762,26.855,-13.672,0
1542908497.157,20.020,43.945,26.367,25.391,55.176,0
1542908497.161,29.785,39.551,26.855,21.484,75.195,0
1542908497.165,36.133,41.504,26.367,17.578,46.387,0
1542908497.169,30.762,34.668,24.902,14.160,10.254,0
1542908497.173,20.508,34.668,33.691,8.301,49.805,0
1542908497.177,26.855,30.273,39.062,10.742,77.148,0
1542908497.181,25.391,22.461,32.715,10.254,63.477,0
1542908497.184,38.086,25.879,31.250,18.066,68.848,0
1542908497.188,47.852,29.785,33.203,33.203,60.059,0
1542908497.192,24.902,38.574,37.598,33.691,18.066,0
1542908497.196,27.832,50.781,40.039,31.250,-20.508,0
1542908497.200,35.645,45.898,39.551,40.039,22.949,0
1542908497.204,19.531,39.062,36.133,37.109,44.922,0
1542908497.208,18.066,34.668,30.273,10.742,62.988,0
1542908497.212,18.555,31.738,30.762,21.973,52.734,0
1542908497.216,31.250,23.926,35.645,41.016,46.387,0
1542908497.220,31.250,17.090,34.180,26.367,82.520,0
1542908497.224,26.855,14.160,38.086,15.137,49.316,0
1542908497.227,35.645,10.742,45.410,15.137,22.949,0
1542908497.231,38.574,16.602,40.039,20.508,17.578,0
1542908497.235,37.109,16.113,37.109,36.133,12.695,0
1542908497.239,19.043,24.902,29.785,31.250,20.996,0
1542908497.243,26.855,42.969,21.484,11.719,47.852,0
1542908497.247,42.969,51.270,26.855,37.598,61.035,0
1542908497.251,30.762,53.223,26.367,32.715,12.695,0
1542908497.255,33.691,49.805,25.391,15.137,22.949,0
1542908497.259,26.855,23.926,32.715,20.996,66.895,0
1542908497.263,22.461,8.301,31.738,12.207,84.473,0
1542908497.267,32.715,25.391,30.762,11.719,78.125,0
1542908497.270,43.457,39.062,24.414,26.367,19.043,0
1542908497.274,50.293,36.621,21.484,42.480,12.695,0
1542908497.278,41.504,22.461,32.227,34.180,34.668,0
1542908497.282,44.922,14.160,33.203,37.598,37.598,0
1542908497.286,38.086,25.879,27.832,42.969,27.344,0
1542908497.290,29.785,35.156,34.668,22.461,60.059,0
1542908497.294,33.203,32.715,29.785,13.184,67.383,0
1542908497.298,26.855,38.086,18.555,16.113,44.922,0
1542908497.302,28.809,41.992,21.973,27.344,30.273,0
1542908497.306,45.898,34.668,31.738,41.504,-12.695,0
1542908497.309,55.664,26.855,37.598,44.434,-4.395,0
1542908497.313,36.621,23.926,39.062,24.414,68.359,0
1542908497.317,25.879,15.625,36.621,4.395,68.848,0
1542908497.321,35.645,17.578,28.809,3.906,69.824,0
1542908497.325,27.344,33.203,20.508,12.695,82.031,0
1542908497.329,20.508,44.434,21.484,23.926,63.477,0
1542908497.333,29.297,49.805,25.879,19.043,74.707,0
1542908497.337,41.504,42.480,29.297,6.348,34.668,0
1542908497.341,32.227,30.273,27.832,12.695,-26.855,0
1542908497.345,16.602,22.949,26.855,17.090,-17.090,0
1542908497.349,38.086,15.137,32.227,25.879,46.875,0
1542908497.352,48.340,16.602,33.203,29.785,26.855,0
1542908497.356,38.086,17.090,28.809,33.203,-2.441,0
1542908497.360,34.180,-1.953,30.273,40.039,35.645,0
1542908497.364,22.461,-9.766,30.273,23.926,61.523,0
1542908497.368,2.930,13.672,26.367,18.555,75.684,0
1542908497.372,2.930,41.016,23.926,28.809,55.176,0
1542908497.376,16.113,49.316,25.391,47.363,50.293,0
1542908497.380,23.438,32.715,33.691,38.574,55.664,0
1542908497.384,23.926,16.602,31.738,16.602,0.977,0
1542908497.388,29.297,33.691,33.203,27.344,51.270,0
1542908497.392,34.180,35.645,34.180,38.086,40.527,0
1542908497.395,37.598,18.066,31.738,38.086,-28.809,0
1542908497.399,22.461,20.020,30.762,26.855,22.461,0
1542908497.403,15.625,16.113,29.297,20.996,49.316,0
1542908497.407,31.250,7.812,31.250,29.785,47.852,0
1542908497.411,31.738,14.648,29.785,42.480,90.332,0
1542908497.415,49.805,32.715,33.691,51.758,80.566,0
1542908497.419,60.059,54.199,34.668,35.156,74.219,0
1542908497.423,22.461,54.688,30.762,12.207,41.992,0
1542908497.427,9.277,42.480,26.367,15.625,12.695,0
1542908497.431,22.949,34.668,18.066,9.766,29.785,0
1542908497.434,23.438,27.344,17.578,6.836,15.137,0
1542908497.438,16.113,21.484,12.695,7.812,24.902,0
1542908497.442,16.602,17.578,16.113,0.000,43.945,0
1542908497.446,21.484,4.883,22.461,5.859,54.199,0
1542908497.450,18.555,11.230,20.508,8.301,12.695,0
1542908497.454,17.090,30.762,19.043,4.883,15.625,0
1542908497.458,24.902,28.809,16.113,4.395,48.340,0
1542908497.462,33.203,26.855,19.531,0.000,58.105,0
1542908497.466,39.551,44.922,31.250,28.320,33.691,0
1542908497.470,35.645,39.551,30.273,33.203,0.488,0
1542908497.474,48.340,21.973,20.508,13.672,-9.766,0
1542908497.477,49.805,23.926,18.555,2.441,30.762,0
1542908497.481,26.855,22.949,25.391,4.883,75.195,0
1542908497.485,15.137,15.137,33.203,30.273,13.184,0
1542908497.489,16.113,28.809,29.785,16.602,6.348,0
1542908497.493,14.648,34.668,15.137,10.742,59.082,0
1542908497.497,18.066,27.344,9.766,16.113,11.230,0
1542908497.501,30.273,39.062,17.090,-0.977,-6.348,0
1542908497.505,29.297,41.992,20.996,1.465,41.992,0
1542908497.509,21.973,39.551,20.508,10.742,20.020,0
1542908497.513,26.855,46.875,19.531,18.066,9.277,0
1542908497.517,28.809,36.621,22.949,23.926,23.438,0
1542908497.520,22.461,19.043,28.320,9.277,51.270,0
1542908497.524,14.648,18.066,22.949,3.418,65.430,0
1542908497.528,30.762,20.020,22.461,14.648,48.828,0
1542908497.532,28.809,23.926,26.855,15.137,64.941,0
1542908497.536,7.324,31.738,25.391,12.695,42.480,0
1542908497.540,10.742,39.062,26.855,6.348,25.879,0
1542908497.544,13.672,32.227,29.785,9.766,34.180,0
1542908497.548,17.578,26.367,27.832,15.625,56.641,0
1542908497.552,21.973,41.504,33.203,12.695,36.133,0
1542908497.556,9.766,49.805,36.133,8.301,33.691,0
1542908497.559,11.719,41.016,32.227,17.578,73.242,0
1542908497.563,31.250,35.645,30.273,32.227,21.973,0
1542908497.567,24.902,40.527,28.809,31.250,5.371,0
1542908497.571,16.113,30.273,35.645,20.020,26.367,0
1542908497.575,14.160,8.789,35.645,-1.465,23.926,0
1542908497.579,4.883,6.836,29.297,-3.906,27.832,0
1542908497.583,12.207,27.832,29.785,20.996,-9.766,0
1542908497.587,31.250,37.109,22.949,20.508,22.461,0
1542908497.591,24.902,34.668,24.902,8.789,46.387,0
1542908497.595,-2.441,30.762,37.598,-6.836,42.969,0
1542908497.599,-6.348,30.762,34.668,-9.766,102.051,0
1542908497.602,3.418,34.668,30.273,6.348,56.152,0
1542908497.606,6.836,25.391,35.156,10.742,-8.301,0
1542908497.610,17.090,26.855,34.668,11.719,64.453,0
1542908497.614,18.066,32.715,32.715,16.113,43.945,0
1542908497.618,22.461,20.508,37.109,40.527,15.625,0
1542908497.622,30.762,24.902,41.016,32.227,55.664,0
1542908497.626,27.344,27.832,38.574,6.836,24.902,0
1542908497.630,21.973,32.227,41.992,23.438,2.441,0
1542908497.634,16.113,35.645,38.574,20.996,63.965,0
1542908497.638,10.742,29.785,28.320,-1.465,89.355,0
1542908497.642,6.836,30.762,21.484,9.277,13.184,0
1542908497.645,2.441,33.203,26.367,9.766,38.086,0
1542908497.649,15.625,34.668,32.227,1.465,27.832,0
1542908497.653,25.879,33.203,27.344,9.277,-4.883,0
1542908497.657,17.578,32.227,28.809,11.719,12.207,0
1542908497.661,23.438,25.879,37.598,23.926,32.227,0
1542908497.665,20.508,15.137,41.992,49.805,54.688,0
1542908497.669,11.719,14.648,41.016,38.574,62.988,0
1542908497.673,20.996,20.996,38.574,17.578,58.594,0
1542908497.677,19.531,23.926,36.621,36.133,43.945,0
1542908497.681,24.902,22.461,38.086,18.555,33.203,0
1542908497.684,34.180,20.996,34.180,9.766,29.785,0
1542908497.688,25.879,30.762,34.668,13.672,23.438,0
1542908497.692,28.320,30.273,39.551,9.277,-60.059,0
1542908497.696,32.227,12.695,39.062,13.672,2.930,0
1542908497.700,21.484,19.043,45.898,11.719,98.633,0
1542908497.704,21.973,18.066,48.340,15.625,134.277,0
1542908497.708,29.785,11.719,44.922,20.508,89.844,0
1542908497.712,25.879,34.668,40.039,20.020,49.805,0
1542908497.716,23.438,53.223,30.273,25.879,30.762,0
1542908497.720,18.555,40.527,27.832,26.367,-13.184,0
1542908497.724,24.902,34.180,29.785,9.766,41.992,0
1542908497.727,25.879,43.457,26.367,0.977,51.270,0
1542908497.731,25.391,41.992,21.973,2.441,-9.766,0
1542908497.735,39.062,31.250,27.832,7.324,-4.395,0
1542908497.739,47.852,39.062,33.691,10.742,49.805,0
1542908497.743,38.574,44.922,33.691,10.742,40.527,0
1542908497.747,22.949,40.039,39.551,9.766,32.715,0
1542908497.751,15.137,39.062,41.504,6.836,15.137,0
1542908497.755,15.137,23.926,33.691,0.977,-46.875,0
1542908497.759,16.113,14.648,30.273,8.301,7.812,0
1542908497.763,14.160,21.484,33.203,9.277,54.688,0
1542908497.767,26.367,22.949,41.016,1.465,42.480,0
1542908497.770,36.133,27.832,42.969,5.371,49.316,0
1542908497.774,27.344,40.527,40.039,14.160,37.598,0
1542908497.778,23.926,34.668,36.621,17.578,69.336,0
1542908497.782,27.344,29.785,36.133,20.020,25.391,0
1542908497.786,31.250,27.832,33.203,11.719,6.836,0
1542908497.790,36.621,20.996,30.273,11.719,58.594,0
1542908497.794,32.227,23.926,26.855,10.254,29.297,0
1542908497.798,21.973,30.762,26.855,6.836,45.898,0
1542908497.802,14.648,23.438,29.785,10.742,78.125,0
1542908497.806,14.648,7.324,29.297,8.789,67.871,0
1542908497.809,26.367,13.184,32.715,22.949,23.926,0
1542908497.813,24.902,29.297,40.039,34.180,59.082,0
1542908497.817,14.648,26.855,35.645,3.418,88.867,0
1542908497.821,18.555,22.461,33.203,-8.301,33.203,0
1542908497.825,26.367,22.949,40.527,3.906,54.199,0
1542908497.829,26.855,17.578,36.621,3.906,48.828,0
1542908497.833,36.621,16.113,28.320,10.254,52.734,0
1542908497.837,43.945,23.926,30.762,8.301,63.477,0
1542908497.841,26.367,28.809,33.691,13.672,24.902,0
1542908497.845,30.273,26.855,34.668,28.809,-8.789,0
1542908497.849,23.926,14.648,32.227,34.668,5.859,0
1542908497.852,20.996,21.484,35.645,28.320,48.340,0
1542908497.856,41.992,32.715,43.457,23.926,35.645,0
1542908497.860,36.133,25.391,41.504,25.879,12.207,0
1542908497.864,17.090,29.785,38.086,9.766,65.918,0
1542908497.868,26.367,40.039,38.086,13.672,92.285,0
1542908497.872,37.109,43.945,41.016,21.484,46.387,0
1542908497.876,24.902,23.438,36.133,16.602,23.926,0
1542908497.880,26.367,6.836,26.367,18.066,45.898,0
1542908497.884,39.551,24.414,23.926,29.297,8.301,0
1542908497.888,32.715,31.250,29.297,37.109,37.598,0
1542908497.892,29.785,26.367,30.762,21.973,62.012,0
1542908497.895,42.969,40.039,33.203,23.926,97.168,0
1542908497.899,38.574,49.805,36.621,39.062,84.473,0
1542908497.903,35.156,37.598,32.227,36.133,8.301,0
1542908497.907,41.504,30.762,23.438,31.250,22.461,0
1542908497.911,44.434,27.832,26.855,27.344,51.758,0
1542908497.915,55.176,20.508,29.785,13.672,84.961,0
1542908497.919,44.922,15.625,22.949,11.230,94.238,0
1542908497.923,34.180,25.879,27.344,27.832,31.250,0
1542908497.927,34.180,33.691,27.832,31.738,9.277,0
1542908497.931,32.715,36.133,29.785,35.645,-19.531,0
1542908497.934,39.062,36.133,38.086,27.832,11.719,0
1542908497.938,42.969,26.367,32.715,14.160,67.871,0
1542908497.942,36.133,18.555,32.227,28.320,24.414,0
1542908497.946,40.039,26.367,42.480,44.434,46.387,0
1542908497.950,38.086,37.598,36.621,38.574,53.223,0
1542908497.954,29.785,36.133,27.344,22.461,16.113,0
1542908497.958,51.758,26.367,34.180,33.203,-17.090,0
1542908497.962,55.664,20.020,38.574,36.133,-45.410,0
1542908497.966,36.133,20.996,35.156,32.715,-0.977,0
1542908497.970,19.043,25.879,27.344,34.668,-7.324,0
1542908497.974,28.809,14.648,28.320,19.531,8.789,0
1542908497.977,36.621,10.742,26.855,17.578,46.387,0
1542908497.981,30.762,26.367,25.391,19.531,34.668,0
1542908497.985,33.203,36.133,28.809,21.973,23.438,0
1542908497.989,28.809,39.062,23.438,19.531,-0.977,0
1542908497.993,26.855,35.156,24.414,1.953,45.898,0
1542908497.997,28.809,34.668,30.273,6.348,50.293,0
1542908498.001,22.949,26.367,26.367,15.625,10.254,0
1542908498.005,32.227,10.254,26.367,17.578,-7.324,0
1542908498.009,51.270,6.836,36.133,33.203,25.879,0
1542908498.013,45.898,17.090,37.598,41.992,88.379,0
1542908498.017,38.086,15.625,29.785,28.320,48.828,0
1542908498.020,44.922,11.719,31.738,34.180,11.230,0
1542908498.024,41.992,28.320,33.203,39.062,38.574,0
1542908498.028,36.133,45.410,27.832,12.695,58.594,0
1542908498.032,40.527,46.875,26.855,10.742,30.273,0
1542908498.036,30.273,36.621,29.297,9.277,-34.180,0
1542908498.040,24.902,26.855,32.715,14.160,3.906,0
1542908498.044,24.414,22.949,32.715,26.855,58.105,0
1542908498.048,26.855,21.973,33.691,28.809,70.312,0
1542908498.052,59.570,16.113,37.109,40.039,111.816,0
1542908498.056,74.707,19.531,33.691,31.250,67.383,0
1542908498.059,42.969,18.066,32.227,23.438,45.410,0
1542908498.063,25.879,16.602,29.297,20.508,31.250,0
1542908498.067,30.762,30.273,26.855,12.207,-2.441,0
1542908498.071,34.668,33.691,32.227,23.438,74.707,0
1542908498.075,40.527,31.250,36.133,21.484,82.031,0
1542908498.079,39.551,37.598,35.156,26.367,16.602,0
1542908498.083,44.922,36.621,34.180,29.297,5.859,0
1542908498.087,57.129,33.691,40.527,31.738,20.996,0
1542908498.091,50.781,34.180,47.852,51.270,5.371,0
1542908498.095,37.109,31.250,38.086,30.762,-1.953,0
1542908498.099,30.273,16.602,31.738,22.949,45.410,0
1542908498.102,35.156,5.371,46.875,52.246,16.113,0
1542908498.106,42.969,1.465,44.434,56.152,6.348,0
1542908498.110,38.086,19.531,29.297,26.367,30.273,0
1542908498.114,25.879,39.062,31.738,-5.859,32.227,0
1542908498.118,31.738,27.832,34.668,3.906,17.578,0
1542908498.122,44.434,27.832,33.691,17.090,0.000,0
1542908498.126,30.762,30.273,35.156,27.344,-11.719,0
1542908498.130,16.602,28.320,37.598,47.852,-22.461,0
1542908498.134,30.762,31.250,46.387,35.645,40.039,0
1542908498.138,34.180,19.043,46.875,18.555,56.641,0
1542908498.142,31.250,5.371,33.691,39.551,54.199,0
1542908498.145,43.457,2.441,31.250,46.387,29.785,0
1542908498.149,33.691,22.949,34.180,29.785,11.719,0
1542908498.153,23.926,42.480,30.273,25.391,25.391,0
1542908498.157,20.996,42.480,30.273,32.227,64.941,0
1542908498.161,15.137,37.598,32.227,41.016,81.055,0
1542908498.165,29.785,30.273,31.738,28.320,54.688,0
1542908498.169,30.273,24.414,31.738,26.367,67.383,0
1542908498.173,21.973,28.320,29.785,12.207,82.031,0
1542908498.177,33.691,26.855,29.785,23.926,48.340,0
1542908498.181,30.273,17.090,34.180,36.133,78.613,0
1542908498.184,15.625,1.953,38.574,21.973,84.961,0
1542908498.188,24.414,-5.859,36.621,18.066,75.684,0
1542908498.192,24.902,15.625,26.855,31.250,98.145,0
1542908498.196,31.250,40.527,28.809,50.293,37.598,0
1542908498.200,36.133,41.504,34.668,36.133,4.883,0
1542908498.204,34.180,42.969,35.156,30.273,30.273,0
1542908498.208,51.270,44.434,41.016,32.227,36.621,0
1542908498.212,45.898,22.461,40.039,35.645,46.387,0
1542908498.216,42.480,12.207,36.621,39.062,13.672,0
1542908498.220,45.410,35.156,36.621,31.250,44.922,0
1542908498.224,34.668,17.578,34.180,26.855,52.734,0
1542908498.227,27.344,-8.301,31.738,29.785,18.066,0
1542908498.231,37.598,13.184,37.109,23.926,89.355,0
1542908498.235,50.781,39.062,48.340,34.180,116.211,0
1542908498.239,55.664,48.340,38.574,46.875,64.941,0
1542908498.243,47.852,51.758,29.297,28.809,91.797,0
1542908498.247,37.109,55.176,34.180,20.508,80.078,0
1542908498.251,34.180,46.387,35.645,8.301,56.641,0
1542908498.255,26.367,22.949,30.762,5.371,44.922,0
1542908498.259,20.020,18.555,27.344,28.320,-8.789,0
1542908498.263,20.508,26.367,29.785,18.066,5.371,0
1542908498.267,36.133,3.906,37.109,5.371,40.039,0
1542908498.270,37.598,-8.789,37.109,23.438,0.488,0
1542908498.274,20.508,16.602,33.203,15.137,-10.742,0
1542908498.278,15.625,43.945,35.645,15.625,-4.883,0
1542908498.282,33.691,54.199,38.086,24.414,-13.672,0
1542908498.286,52.246,54.688,38.086,29.785,62.500,0
1542908498.290,31.738,44.922,34.180,32.715,53.711,0
1542908498.294,6.836,27.344,39.062,11.230,18.066,0
1542908498.298,2.930,29.297,43.945,-18.066,29.297,0
1542908498.302,20.020,34.668,38.086,-3.906,8.301,0
1542908498.306,28.320,24.902,39.062,14.160,23.926,0
1542908498.309,1.465,9.277,37.109,-9.277,48.340,0
1542908498.313,1.465,-10.254,40.527,-11.719,22.461,0
1542908498.317,10.742,-8.789,42.480,-6.836,-7.812,0
1542908498.321,8.301,20.996,38.574,-7.324,-10.254,0
1542908498.325,19.531,44.922,37.598,4.395,6.836,0
1542908498.329,17.090,47.363,35.645,16.113,52.734,0
1542908498.333,17.090,40.039,38.574,8.789,49.316,0
1542908498.337,33.203,26.367,39.062,2.441,36.133,0
1542908498.341,35.645,25.391,39.551,13.184,41.992,0
1542908498.345,33.203,37.109,41.504,18.555,15.137,0
1542908498.349,38.574,13.184,37.598,22.949,9.766,0
1542908498.352,22.461,-6.836,34.180,27.832,1.465,0
1542908498.356,15.625,22.949,34.180,25.391,72.754,0
1542908498.360,30.273,47.363,36.621,11.719,80.566,0
1542908498.364,36.133,39.062,37.598,7.324,24.414,0
1542908498.368,39.062,28.320,39.551,28.320,67.383,0
1542908498.372,40.039,24.414,40.527,31.738,67.383,0
1542908498.376,35.645,19.531,38.574,12.695,-24.414,0
1542908498.380,27.344,23.926,40.039,10.254,-23.926,0
1542908498.384,23.926,33.203,44.434,16.602,47.363,0
1542908498.388,25.879,35.645,43.457,25.391,62.988,0
1542908498.392,48.828,26.855,45.410,35.156,71.777,0
1542908498.395,56.641,13.672,44.922,48.828,61.035,0
1542908498.399,33.203,5.371,36.133,41.992,99.121,0
1542908498.403,26.855,19.043,32.227,9.277,121.094,0
1542908498.407,31.738,30.273,32.715,24.414,60.059,0
1542908498.411,35.645,32.227,34.668,37.109,2.930,0
1542908498.415,40.039,46.387,37.109,15.625,-3.906,0
1542908498.419,31.738,44.922,38.574,28.809,85.449,0
1542908498.423,33.691,30.762,35.156,37.598,79.102,0
1542908498.427,52.246,29.785,38.574,36.133,24.902,0
1542908498.431,43.457,44.922,42.969,22.461,73.242,0
1542908498.434,23.438,49.316,35.645,-4.883,87.891,0
1542908498.438,28.809,29.785,30.762,5.371,94.727,0
1542908498.442,31.250,19.043,25.391,20.020,38.086,0
1542908498.446,42.969,36.133,27.832,23.438,-12.695,0
1542908498.450,42.969,52.246,34.668,23.438,40.527,0
1542908498.454,23.926,41.992,25.879,5.859,69.336,0
1542908498.458,18.066,38.574,18.555,-3.906,46.387,0
1542908498.462,15.137,34.668,20.020,-8.789,11.719,0
1542908498.466,29.297,35.156,18.555,-4.395,34.668,0
1542908498.470,37.598,36.621,18.066,11.230,56.152,0
1542908498.474,39.551,37.109,27.832,35.156,33.203,0
1542908498.477,46.875,31.738,33.691,44.922,-12.207,0
1542908498.481,45.898,32.227,35.645,40.039,24.902,0
1542908498.485,37.598,41.992,34.180,26.367,56.152,0
1542908498.489,36.621,40.527,28.809,7.324,48.340,0
1542908498.493,47.852,24.414,27.344,19.531,69.824,0
1542908498.497,48.340,9.766,24.902,29.785,19.531,0
1542908498.501,42.969,4.395,26.855,26.855,-12.695,0
1542908498.505,49.316,17.578,26.855,25.879,-13.672,0
1542908498.509,49.805,27.832,26.367,27.832,7.324,0
1542908498.513,50.781,26.855,29.785,40.039,67.383,0
1542908498.517,44.434,37.598,30.273,41.016,47.852,0
1542908498.520,52.246,40.039,34.668,40.039,38.574,0
1542908498.524,48.828,45.410,31.738,36.621,61.523,0
1542908498.528,34.668,40.039,25.391,28.320,35.156,0
1542908498.532,45.898,21.973,32.227,14.648,84.961,0
1542908498.536,44.434,23.438,32.715,8.301,106.934,0
1542908498.540,38.086,38.086,26.855,11.230,38.574,0
1542908498.544,44.434,38.574,31.250,26.855,29.785,0
1542908498.548,41.992,30.762,33.691,32.227,23.926,0
1542908498.552,39.551,34.180,29.785,19.043,82.520,0
1542908498.556,49.316,45.410,32.227,27.832,63.477,0
1542908498.559,56.152,52.246,35.156,35.156,10.742,0
1542908498.563,60.547,45.898,35.156,29.297,93.750,0
1542908498.567,58.105,30.273,38.086,21.973,100.098,0
1542908498.571,53.711,24.902,41.992,33.203,51.270,0
1542908498.575,45.410,37.109,39.551,27.344,56.152,0
1542908498.579,41.504,43.457,39.551,8.301,60.547,0
1542908498.583,35.645,32.227,38.574,16.113,28.809,0
1542908498.587,32.227,25.879,33.691,19.043,19.531,0
1542908498.591,31.738,26.367,36.133,32.715,72.266,0
1542908498.595,46.387,16.602,40.039,57.617,77.148,0
1542908498.599,44.922,1.465,39.551,48.828,50.293,0
1542908498.602,35.645,20.020,34.180,31.738,42.969,0
1542908498.606,41.504,51.758,37.109,29.297,59.570,0
1542908498.610,44.922,50.781,43.457,11.719,61.523,0
1542908498.614,50.781,42.969,41.504,28.320,56.152,0
1542908498.618,30.273,35.156,40.039,35.645,21.973,0
1542908498.622,16.602,25.879,30.273,-2.930,-8.789,0
1542908498.626,21.973,31.250,20.020,-18.555,29.297,0
1542908498.630,7.812,37.109,22.461,-0.488,-10.742,0
1542908498.634,-3.418,24.902,27.344,1.953,-8.301,0
1542908498.638,4.395,6.836,35.156,-5.859,0.000,0
1542908498.642,15.137,14.648,39.551,-2.441,13.672,0
1542908498.645,17.578,28.320,42.480,10.254,22.949,0
1542908498.649,23.926,16.602,42.969,17.090,-11.719,0
1542908498.653,26.855,17.578,35.156,16.113,7.812,0
1542908498.657,29.785,34.180,35.156,20.996,9.766,0
1542908498.661,34.668,40.039,39.062,28.809,11.719,0
1542908498.665,25.879,42.969,35.156,15.137,39.551,0
1542908498.669,31.250,41.016,33.203,12.207,37.109,0
1542908498.673,40.039,38.574,40.039,25.879,69.824,0
1542908498.677,24.414,42.480,39.551,28.320,63.965,0
1542908498.681,19.531,45.898,28.809,36.621,46.875,0
1542908498.684,35.156,39.551,27.832,36.621,40.039,0
1542908498.688,44.434,33.203,31.738,9.277,-25.879,0
1542908498.692,35.645,21.973,36.621,0.977,-27.832,0
1542908498.696,30.762,8.789,38.086,15.625,-4.883,0
1542908498.700,37.109,23.926,37.598,20.996,-0.977,0
1542908498.704,35.156,51.270,36.133,20.508,56.641,0
1542908498.708,41.016,40.527,33.203,19.531,42.969,0
1542908498.712,54.199,33.203,37.109,11.719,-9.277,0
1542908498.716,49.805,39.062,34.668,8.301,9.766,0
1542908498.720,61.035,30.273,36.621,22.949,55.176,0
1542908498.724,67.871,27.344,40.527,28.809,67.871,0
1542908498.727,49.316,27.344,31.738,16.602,56.152,0
1542908498.731,35.645,31.250,27.832,15.625,38.574,0
1542908498.735,37.109,36.133,31.738,19.043,-24.414,0
1542908498.739,37.598,20.508,35.645,36.133,-31.250,0
1542908498.743,40.039,24.414,36.133,23.438,69.824,0
1542908498.747,41.992,47.363,35.645,0.000,96.680,0
1542908498.751,40.527,47.363,40.039,8.789,57.617,0
1542908498.755,56.152,35.156,32.715,1.465,72.266,0
1542908498.759,53.711,34.668,29.297,7.324,62.012,0
1542908498.763,45.410,38.086,41.992,26.367,0.000,0
1542908498.767,44.434,26.367,43.945,25.879,15.625,0
1542908498.770,35.645,19.531,43.457,19.043,38.574,0
1542908498.774,31.738,29.297,43.457,2.441,33.203,0
1542908498.778,34.180,31.250,34.180,-2.441,21.973,0
1542908498.782,39.062,24.414,31.250,6.348,28.809,0
1542908498.786,42.969,29.785,34.668,15.625,81.543,0
1542908498.790,41.992,31.738,41.016,19.531,55.664,0
1542908498.794,38.574,25.391,38.086,19.531,40.039,0
1542908498.798,40.039,28.320,30.273,23.438,84.961,0
1542908498.802,33.203,30.273,36.133,29.297,88.867,0
1542908498.806,24.902,44.434,37.109,17.578,103.516,0
1542908498.809,23.926,51.270,31.738,-5.859,80.566,0
1542908498.813,28.809,46.875,36.621,-3.418,62.012,0
1542908498.817,31.250,40.039,34.180,3.418,29.785,0
1542908498.821,26.367,26.367,31.250,11.719,-5.371,0
1542908498.825,38.574,28.320,34.668,25.879,18.555,0
1542908498.829,48.828,47.363,38.574,24.414,45.410,0
1542908498.833,49.805,55.176,41.504,20.996,45.410,0
1542908498.837,40.039,44.434,38.574,18.066,29.785,0
1542908498.841,20.020,36.621,38.086,15.625,-3.906,0
1542908498.845,22.949,32.227,40.039,23.926,12.695,0
1542908498.849,40.527,28.809,41.992,20.996,38.086,0
1542908498.852,41.504,48.340,38.086,18.066,12.695,0
1542908498.856,35.645,62.988,36.133,20.996,-25.879,0
1542908498.860,37.598,54.688,38.574,30.762,10.254,0
1542908498.864,47.363,45.410,43.945,38.574,107.910,0
1542908498.868,39.551,37.598,40.039,22.461,99.121,0
1542908498.872,28.809,47.363,31.738,10.742,47.363,0
1542908498.876,49.316,66.406,33.203,18.555,45.898,0
1542908498.880,50.781,62.500,33.691,8.789,83.984,0
1542908498.884,36.621,50.293,32.715,3.906,140.625,0
1542908498.888,37.109,41.016,38.574,18.555,87.891,0
1542908498.892,44.922,26.855,42.480,3.906,23.926,0
1542908498.895,46.875,17.578,38.086,-4.883,58.105,0
1542908498.899,41.992,24.414,32.715,11.230,62.500,0
1542908498.903,29.785,33.203,36.133,17.090,6.348,0
1542908498.907,31.738,44.434,41.504,16.602,7.812,0
1542908498.911,47.363,52.734,38.574,20.996,35.156,0
1542908498.915,37.109,50.293,32.715,14.160,60.059,0
1542908498.919,27.832,46.387,33.203,11.230,39.062,0
1542908498.923,32.227,36.621,37.109,13.672,2.930,0
1542908498.927,27.832,34.668,38.086,-0.488,11.230,0
1542908498.931,31.738,40.527,36.621,16.113,6.836,0
1542908498.934,22.461,34.180,35.156,28.320,9.277,0
1542908498.938,16.113,29.785,32.227,-2.441,46.387,0
1542908498.942,19.043,18.555,31.738,0.977,38.574,0
1542908498.946,31.738,9.766,34.668,26.855,-40.039,0
1542908498.950,39.551,23.438,31.738,31.250,-24.414,0
1542908498.954,23.926,37.109,22.461,17.578,32.715,0
1542908498.958,25.879,44.434,20.020,22.949,31.738,0
1542908498.962,23.438,47.363,23.438,26.855,27.832,0
1542908498.966,31.738,50.293,28.809,27.344,2.930,0
1542908498.970,47.363,26.855,30.273,29.785,-17.090,0
1542908498.974,33.203,9.277,20.508,23.926,-37.109,0
1542908498.977,16.602,24.902,17.090,18.555,-20.020,0
1542908498.981,15.137,20.020,23.438,23.438,42.969,0
1542908498.985,22.461,17.578,27.832,21.484,50.781,0
1542908498.989,32.715,28.809,31.250,23.926,68.848,0
1542908498.993,39.551,33.203,36.621,45.410,85.449,0
1542908498.997,38.574,35.645,37.598,36.621,72.754,0
1542908499.001,48.340,28.809,32.715,17.578,34.668,0
1542908499.005,56.152,35.645,28.809,46.387,27.832,0
1542908499.009,38.086,43.945,27.832,44.922,18.555,0
1542908499.013,14.648,37.598,26.367,3.418,0.000,0
1542908499.017,8.789,29.297,27.344,-3.418,21.973,0
1542908499.020,27.344,29.297,31.250,3.906,14.648,0
1542908499.024,32.227,34.180,29.297,5.859,26.855,0
1542908499.028,27.344,24.902,24.902,6.836,37.598,0
1542908499.032,38.086,14.648,27.832,26.367,36.621,0
1542908499.036,35.645,16.113,28.809,24.902,-17.578,0
1542908499.040,23.438,27.832,32.227,5.859,6.348,0
1542908499.044,27.832,41.504,31.738,8.301,71.289,0
1542908499.048,44.922,23.926,23.438,7.812,40.039,0
1542908499.052,45.410,26.855,21.484,5.371,40.039,0
1542908499.056,20.020,56.641,21.973,16.113,19.531,0
1542908499.059,23.926,58.105,19.531,18.066,-16.602,0
1542908499.063,29.297,48.340,20.020,7.812,9.277,0
1542908499.067,41.016,42.969,25.879,27.344,2.441,0
1542908499.071,56.152,32.227,29.297,25.879,58.594,0
1542908499.075,41.504,15.137,27.832,13.184,57.617,0
1542908499.079,36.133,24.414,30.273,37.598,1.953,0
1542908499.083,35.156,27.344,32.715,25.879,55.664,0
1542908499.087,37.598,24.414,34.668,20.508,88.379,0
1542908499.091,48.340,39.551,32.715,17.090,51.270,0
1542908499.095,35.156,34.180,23.926,-3.418,-21.973,0
1542908499.099,10.742,21.973,19.043,-5.859,20.020,0
1542908499.102,7.324,18.555,20.020,-2.930,98.145,0
1542908499.106,14.160,8.789,23.438,-3.418,91.309,0
1542908499.110,30.273,15.137,24.414,11.230,68.359,0
1542908499.114,37.598,28.320,28.320,35.156,55.176,0
1542908499.118,28.320,24.414,28.320,27.832,50.781,0
1542908499.122,7.812,9.277,19.043,1.465,44.434,0
1542908499.126,0.977,12.207,17.090,14.160,38.574,0
1542908499.130,14.160,31.738,22.461,23.438,-0.977,0
1542908499.134,18.555,37.598,21.973,15.625,32.227,0
1542908499.138,16.113,40.039,17.578,31.250,66.895,0
1542908499.142,15.137,37.598,22.461,30.273,48.340,0
1542908499.145,12.695,24.902,29.297,20.996,52.734,0
1542908499.149,30.273,11.230,33.691,31.738,20.996,0
1542908499.153,36.133,4.395,33.203,24.902,36.621,0
1542908499.157,34.180,18.555,27.832,21.484,66.406,0
1542908499.161,35.156,35.645,21.973,30.273,90.820,0
1542908499.165,37.598,43.457,26.855,19.531,41.992,0
1542908499.169,49.805,38.574,34.180,21.973,-20.996,0
1542908499.173,51.758,34.668,27.832,20.508,-35.645,0
1542908499.177,45.898,29.297,23.926,10.742,-33.203,0
1542908499.181,27.344,19.531,23.438,25.879,40.527,0
1542908499.184,29.785,23.926,20.996,35.156,57.617,0
1542908499.188,32.227,32.715,25.879,19.531,-3.418,0
1542908499.192,25.879,31.250,24.414,11.719,-24.414,0
1542908499.196,28.320,26.367,25.879,9.277,63.965,0
1542908499.200,30.762,28.809,30.273,11.230,47.852,0
1542908499.204,40.039,25.879,27.344,40.527,20.020,0
1542908499.208,35.645,27.344,29.297,37.598,67.383,0
1542908499.212,38.086,29.785,30.762,15.625,33.203,0
1542908499.216,49.316,21.973,34.668,28.320,27.832,0
1542908499.220,44.434,22.949,34.180,20.020,49.805,0
1542908499.224,36.133,30.762,33.691,1.953,38.574,0
1542908499.227,34.668,32.715,34.180,15.625,35.156,0
1542908499.231,31.738,24.414,25.879,15.137,25.879,0
1542908499.235,32.715,23.438,24.414,9.766,70.312,0
1542908499.239,33.691,31.738,29.297,18.555,83.984,0
1542908499.243,24.414,23.438,24.414,33.691,102.051,0
1542908499.247,39.062,20.020,28.320,45.898,102.051,0
1542908499.251,51.758,16.602,34.180,25.391,81.055,0
1542908499.255,44.922,14.648,29.297,12.695,75.195,0
1542908499.259,44.434,20.020,34.180,19.043,73.242,0
1542908499.263,43.945,28.320,35.156,18.555,55.664,0
1542908499.267,27.832,34.180,25.391,5.859,22.461,0
1542908499.270,20.020,18.066,24.902,24.902,22.949,0
1542908499.274,33.203,23.438,30.273,32.715,19.531,0
1542908499.278,42.480,43.945,31.250,12.695,63.965,0
1542908499.282,33.203,40.527,28.320,17.578,62.012,0
1542908499.286,25.879,26.367,23.438,13.184,32.227,0
1542908499.290,44.922,23.926,26.855,6.836,17.090,0
1542908499.294,44.922,25.879,35.156,17.090,51.270,0
1542908499.298,30.273,27.832,35.156,23.438,36.133,0
1542908499.302,41.504,32.227,38.086,33.203,31.738,0
1542908499.306,34.180,25.879,36.621,37.598,-4.395,0
1542908499.309,29.297,18.555,29.297,19.531,-53.711,0
1542908499.313,35.156,18.066,25.391,24.902,-38.574,0
1542908499.317,33.203,16.113,29.297,34.180,24.414,0
1542908499.321,37.598,20.020,33.203,17.090,43.457,0
1542908499.325,37.109,26.855,27.832,4.395,10.742,0
1542908499.329,36.133,24.414,26.855,6.836,58.105,0
1542908499.333,26.855,20.508,29.785,17.578,67.871,0
1542908499.337,17.578,24.902,31.250,26.855,59.082,0
1542908499.341,20.020,35.156,32.227,10.742,74.219,0
1542908499.345,15.625,36.133,25.391,7.324,53.223,0
1542908499.349,20.508,31.250,21.973,22.949,24.902,0
1542908499.352,33.203,27.832,27.832,20.508,45.410,0
1542908499.356,31.738,27.832,28.809,25.391,63.477,0
1542908499.360,36.133,25.879,22.949,27.832,37.598,0
1542908499.364,51.758,17.090,21.484,36.133,28.809,0
1542908499.368,29.297,17.578,32.715,26.855,38.086,0
1542908499.372,-3.418,29.785,38.574,0.000,66.406,0
1542908499.376,4.883,31.250,33.691,-2.441,78.125,0
1542908499.380,16.602,27.832,30.273,9.766,48.340,0
1542908499.384,16.113,27.344,33.203,33.203,80.566,0
1542908499.388,26.367,19.531,39.551,48.828,101.074,0
1542908499.392,19.531,15.625,40.527,12.695,39.062,0
1542908499.395,27.832,20.996,39.062,-8.301,51.270,0
1542908499.399,30.273,26.367,35.156,-1.953,89.355,0
1542908499.403,3.418,21.484,33.203,11.230,63.477,0
1542908499.407,18.066,6.836,41.992,23.926,67.383,0
1542908499.411,34.180,17.090,46.875,26.367,53.711,0
1542908499.415,27.344,34.180,41.992,36.621,1.953,0
1542908499.419,20.020,31.250,35.156,25.391,-1.953,0
1542908499.423,19.531,31.738,33.691,22.461,-3.418,0
1542908499.427,22.949,30.273,32.227,31.250,15.625,0
1542908499.431,20.996,19.531,26.855,23.926,31.250,0
1542908499.434,23.926,14.160,30.273,22.461,-29.785,0
1542908499.438,25.879,18.555,30.273,23.438,-1.953,0
1542908499.442,12.207,21.973,28.320,11.230,78.125,0
1542908499.446,15.137,20.996,32.227,-6.836,5.371,0
1542908499.450,41.992,22.461,32.715,13.184,39.062,0
1542908499.454,48.340,0.488,31.738,21.973,42.969,0
1542908499.458,31.250,-6.348,35.645,8.789,32.715,0
1542908499.462,34.180,27.832,41.016,24.414,19.531,0
1542908499.466,29.297,36.621,37.598,31.738,-31.738,0
1542908499.470,26.367,38.574,34.668,21.484,-9.766,0
1542908499.474,42.480,33.203,37.109,27.344,12.695,0
1542908499.477,47.852,20.996,35.645,23.438,35.645,0
1542908499.481,31.250,16.602,32.715,11.719,28.320,0
1542908499.485,17.578,14.648,27.832,7.812,7.324,0
1542908499.489,30.273,24.414,28.320,9.277,28.320,0
1542908499.493,32.715,27.832,32.227,19.531,31.738,0
1542908499.497,43.945,29.785,34.180,20.020,8.789,0
1542908499.501,50.781,23.926,40.039,14.648,20.020,0
1542908499.505,32.715,13.184,38.574,25.879,38.574,0
1542908499.509,37.598,19.043,37.109,32.715,36.621,0
1542908499.513,46.387,37.109,37.598,13.184,46.387,0
1542908499.517,56.152,43.457,30.273,16.113,55.176,0
1542908499.520,61.523,36.133,26.367,24.902,51.758,0
1542908499.524,49.805,25.391,29.297,24.414,-0.488,0
1542908499.528,39.062,17.578,33.203,22.461,-26.855,0
1542908499.532,41.504,21.973,30.762,20.996,32.227,0
1542908499.536,49.805,31.738,31.250,33.691,83.008,0
1542908499.540,50.293,41.504,30.273,31.738,28.320,0
1542908499.544,39.062,41.992,31.738,14.648,1.465,0
1542908499.548,23.438,33.691,39.062,-1.953,58.594,0
1542908499.552,23.926,9.766,38.086,-0.977,40.039,0
1542908499.556,47.363,12.695,42.480,17.578,80.566,0
1542908499.559,46.387,22.949,42.969,28.809,43.945,0
1542908499.563,33.203,6.836,36.621,21.484,-3.418,0
1542908499.567,31.738,20.020,32.227,7.324,29.785,0
1542908499.571,32.227,42.969,33.691,12.207,62.988,0
1542908499.575,39.062,38.086,38.086,30.762,49.805,0
1542908499.579,37.598,19.531,36.621,35.645,41.992,0
1542908499.583,50.293,17.578,35.645,26.855,54.199,0
1542908499.587,55.176,22.949,40.527,16.602,37.109,0
1542908499.591,41.504,26.367,43.945,26.855,15.137,0
1542908499.595,30.762,21.973,40.527,36.133,41.016,0
1542908499.599,28.320,18.066,38.086,22.949,55.664,0
1542908499.602,32.227,25.391,33.691,10.254,44.434,0
1542908499.606,37.109,27.832,30.273,12.695,25.879,0
1542908499.610,46.387,27.344,28.809,25.391,-12.695,0
1542908499.614,58.105,37.109,34.180,31.250,55.176,0
1542908499.618,62.012,41.016,36.133,27.344,-8.301,0
1542908499.622,53.711,30.762,34.180,41.992,-58.105,0
1542908499.626,47.852,27.832,41.016,39.062,62.500,0
1542908499.630,45.410,25.879,42.969,23.438,15.137,0
1542908499.634,45.898,15.625,40.039,15.137,2.930,0
1542908499.638,42.969,5.371,41.016,14.648,76.172,0
1542908499.642,39.551,13.672,42.969,18.066,53.223,0
1542908499.645,40.527,32.715,46.387,30.273,38.574,0
1542908499.649,54.688,26.367,45.898,36.133,17.578,0
1542908499.653,61.523,15.625,41.992,20.508,21.973,0
1542908499.657,49.316,27.832,47.852,24.902,67.871,0
1542908499.661,47.852,35.156,49.316,26.367,32.715,0
1542908499.665,40.039,38.086,32.715,18.066,21.484,0
1542908499.669,25.879,36.133,25.879,6.836,88.867,0
1542908499.673,37.109,33.203,27.344,-1.465,65.918,0
1542908499.677,52.734,35.645,26.367,5.371,35.156,0
1542908499.681,35.156,29.785,28.809,7.324,54.688,0
1542908499.684,20.996,20.020,32.715,-3.906,-4.883,0
1542908499.688,39.551,27.344,37.598,5.371,-14.648,0
1542908499.692,43.457,34.180,43.945,15.625,44.922,0
1542908499.696,32.227,31.250,40.527,16.602,59.082,0
1542908499.700,26.367,26.855,31.738,10.254,8.301,0
1542908499.704,27.344,32.715,34.668,-5.371,-21.973,0
1542908499.708,27.832,40.039,37.598,3.418,56.152,0
1542908499.712,25.879,36.133,38.086,31.738,77.637,0
1542908499.716,41.016,43.945,41.016,38.086,32.227,0
1542908499.720,35.645,46.875,34.668,15.137,70.312,0
1542908499.724,18.555,35.645,31.738,-7.324,83.984,0
1542908499.727,20.996,20.508,31.250,7.324,41.504,0
1542908499.731,24.902,11.719,27.832,15.625,58.594,0
1542908499.735,25.879,17.090,29.297,-0.488,102.051,0
1542908499.739,15.137,9.277,32.715,6.836,86.426,0
1542908499.743,17.578,9.277,38.086,13.672,39.062,0
1542908499.747,26.855,21.484,35.156,6.836,35.645,0
1542908499.751,26.367,23.926,32.227,11.230,40.527,0
1542908499.755,30.273,32.715,34.180,18.066,7.812,0
1542908499.759,30.273,32.715,30.273,13.672,19.531,0
1542908499.763,31.250,32.715,31.250,10.742,71.777,0
1542908499.767,37.109,40.527,38.574,18.555,37.598,0
1542908499.770,27.832,29.785,37.598,14.160,12.207,0
1542908499.774,26.367,28.320,32.227,16.602,70.801,0
1542908499.778,23.438,34.668,34.180,20.508,69.824,0
1542908499.782,17.090,31.738,32.715,4.883,44.922,0
1542908499.786,28.320,16.602,28.320,2.441,43.945,0
1542908499.790,32.715,2.930,33.691,28.320,64.941,0
1542908499.794,34.668,11.719,33.691,28.320,114.746,0
1542908499.798,36.133,20.020,24.902,-3.418,110.352,0
1542908499.802,17.578,18.066,27.832,-9.766,8.301,0
1542908499.806,16.113,25.391,34.180,13.184,-26.367,0
1542908499.809,29.297,30.762,29.785,14.160,28.809,0
1542908499.813,28.320,25.391,29.297,-2.441,54.688,0
1542908499.817,20.020,32.227,33.691,1.953,32.227,0
1542908499.821,34.180,39.551,33.203,11.230,7.324,0
1542908499.825,48.340,32.227,32.227,19.531,28.809,0
1542908499.829,36.621,19.043,35.156,35.645,46.875,0
1542908499.833,28.809,7.812,40.039,36.133,53.711,0
1542908499.837,33.203,13.184,39.551,30.273,48.828,0
1542908499.841,41.504,30.762,35.645,24.902,-11.230,0
1542908499.845,40.527,33.691,38.574,22.949,48.340,0
1542908499.849,40.527,24.902,41.504,21.484,37.109,0
1542908499.852,41.504,17.578,41.504,15.625,3.906,0
1542908499.856,41.992,18.555,40.527,9.277,61.523,0
1542908499.860,36.133,14.648,40.039,11.719,78.125,0
1542908499.864,38.574,21.484,31.738,21.484,28.320,0
1542908499.868,48.828,30.273,27.344,27.832,43.457,0
1542908499.872,35.645,24.414,34.180,27.832,86.426,0
1542908499.876,21.484,21.973,28.809,3.418,15.137,0
1542908499.880,26.855,20.508,27.344,-4.883,-7.812,0
1542908499.884,37.598,32.715,28.809,10.254,67.871,0
1542908499.888,38.086,39.551,27.344,8.301,82.031,0
1542908499.892,42.480,29.785,30.273,20.020,31.738,0
1542908499.895,38.574,33.203,32.715,18.555,9.766,0
1542908499.899,35.156,31.738,34.180,12.207,-7.812,0
1542908499.903,52.246,20.020,38.574,16.602,14.160,0
1542908499.907,54.688,19.531,39.062,5.859,40.039,0
1542908499.911,43.945,30.273,29.297,-1.953,42.480,0
1542908499.915,43.945,36.133,20.020,-4.883,37.598,0
1542908499.919,37.109,24.902,23.926,-3.906,-14.160,0
1542908499.923,26.367,15.625,30.273,-4.395,-24.902,0
1542908499.927,30.762,30.273,26.367,-1.953,53.223,0
1542908499.931,31.250,47.852,25.391,4.883,120.605,0
1542908499.934,26.367,50.293,25.391,18.555,63.965,0
1542908499.938,38.574,41.016,31.738,24.902,39.551,0
1542908499.942,42.480,11.719,39.062,41.992,62.988,0
1542908499.946,48.828,2.930,35.645,47.852,57.129,0
1542908499.950,51.758,27.344,32.227,20.996,35.156,0
1542908499.954,34.668,38.086,36.621,22.949,66.406,0
1542908499.958,29.785,38.574,41.504,35.156,46.875,0
1542908499.962,38.574,40.527,35.645,29.297,25.879,0
1542908499.966,63.477,38.086,37.109,28.320,52.734,0
1542908499.970,47.363,28.809,42.969,17.090,24.414,0
1542908499.974,22.461,20.020,39.551,10.742,40.527,0
1542908499.977,34.668,30.273,41.992,20.508,-10.742,0
1542908499.981,38.086,46.387,44.434,23.926,-39.551,0
1542908499.985,33.203,44.434,40.039,22.461,18.066,0
1542908499.989,27.832,32.227,37.109,16.113,25.391,0
1542908499.993,26.367,27.344,33.691,22.461,-8.789,0
1542908499.997,37.598,41.992,32.715,30.762,1.465,0
1542908500.001,53.223,44.434,38.086,43.945,51.270,0
1542908500.005,54.688,31.250,39.551,37.598,23.438,0
1542908500.009,45.898,32.227,37.109,11.230,0.000,0
1542908500.013,42.969,24.414,33.203,14.648,88.379,0
1542908500.017,37.109,16.113,28.809,8.301,93.750,0
1542908500.020,34.668,20.020,22.461,-8.789,32.227,0
1542908500.024,38.574,30.273,26.367,0.000,35.156,0
1542908500.028,35.156,38.086,34.668,10.742,87.402,0
1542908500.032,34.668,29.785,35.156,14.648,57.617,0
1542908500.036,31.250,23.926,34.180,24.414,45.410,0
1542908500.040,34.668,29.297,31.250,16.113,60.059,0
1542908500.044,39.062,28.809,30.273,7.812,24.902,0
1542908500.048,39.551,35.645,29.785,14.648,46.387,0
1542908500.052,45.410,45.898,35.645,14.160,89.844,0
1542908500.056,36.621,29.297,33.203,9.277,20.020,0
1542908500.059,37.109,6.836,26.367,1.953,-32.715,0
1542908500.063,42.969,15.625,29.785,10.254,35.156,0
1542908500.067,39.551,24.902,28.320,21.973,51.270,0
1542908500.071,39.551,32.715,33.203,16.113,33.691,0
1542908500.075,41.992,42.480,37.109,3.418,28.809,0
1542908500.079,47.363,38.574,22.949,-13.184,45.410,0
1542908500.083,48.828,45.410,20.508,-18.555,24.902,0
1542908500.087,55.176,44.434,31.738,0.488,21.484,0
1542908500.091,55.664,26.367,35.645,12.695,68.359,0
1542908500.095,47.363,19.043,30.762,7.812,41.016,0
1542908500.099,56.152,30.273,34.180,28.809,-17.090,0
1542908500.102,62.500,29.297,33.203,15.137,10.742,0
1542908500.106,56.641,6.348,29.785,-4.883,3.906,0
1542908500.110,48.828,19.043,35.156,3.906,8.301,0
1542908500.114,54.199,45.410,31.738,-0.488,26.367,0
1542908500.118,58.105,45.410,30.762,4.395,41.992,0
1542908500.122,52.246,52.246,33.691,15.625,77.637,0
1542908500.126,56.641,46.875,34.180,10.742,25.879,0
1542908500.130,58.105,38.574,34.180,3.906,16.113,0
1542908500.134,51.270,45.410,34.668,12.207,41.504,0
1542908500.138,46.875,41.016,40.039,23.926,55.176,0
1542908500.142,39.551,36.621,32.227,19.043,51.758,0
1542908500.145,46.387,19.043,33.691,9.766,31.738,0
1542908500.149,62.988,6.836,40.039,13.672,-14.648,0
1542908500.153,50.781,23.438,24.902,4.883,-6.836,0
1542908500.157,35.645,43.457,25.391,5.859,46.875,0
1542908500.161,44.922,51.758,31.738,16.602,10.254,0
1542908500.165,52.246,42.480,33.203,15.137,25.391,0
1542908500.169,40.527,33.203,31.738,21.973,71.289,0
1542908500.173,45.410,38.086,29.297,26.367,54.199,0
1542908500.177,53.223,36.133,33.203,16.602,35.645,0
1542908500.181,38.086,26.855,34.668,27.344,70.312,0
1542908500.184,39.062,20.508,34.180,46.875,65.918,0
1542908500.188,43.945,4.395,34.668,30.762,-8.789,0
1542908500.192,53.223,7.324,30.762,20.996,7.812,0
1542908500.196,53.223,39.551,31.250,21.973,22.949,0
1542908500.200,44.434,53.223,33.203,16.602,-2.930,0
1542908500.204,39.062,43.457,26.367,12.207,75.195,0
1542908500.208,26.367,28.320,25.391,26.855,131.836,0
1542908500.212,38.574,14.160,30.273,50.293,54.199,0
1542908500.216,49.316,10.254,36.621,56.641,21.973,0
1542908500.220,43.945,23.926,29.785,32.715,40.039,0
1542908500.224,37.109,44.434,23.926,13.184,52.246,0
1542908500.227,49.805,39.062,30.762,17.090,87.891,0
1542908500.231,49.805,24.414,28.320,26.367,118.164,0
1542908500.235,35.645,26.367,24.902,31.250,78.125,0
1542908500.239,37.109,20.508,27.344,37.598,13.672,0
1542908500.243,40.527,30.762,32.227,37.109,-1.953,0
1542908500.247,33.203,43.457,33.203,35.156,34.180,0
1542908500.251,37.598,41.016,27.344,17.578,31.250,0
1542908500.255,60.547,31.738,27.344,15.625,57.617,0
1542908500.259,47.363,19.531,33.203,29.785,44.922,0
1542908500.263,31.250,31.250,35.645,39.062,33.691,0
1542908500.267,34.668,30.762,30.762,33.691,56.152,0
1542908500.270,38.086,16.602,26.855,32.715,-3.418,0
1542908500.274,43.457,31.250,35.156,32.715,14.648,0
1542908500.278,50.781,42.480,39.062,28.809,67.383,0
1542908500.282,60.059,22.461,34.668,20.508,91.309,0
1542908500.286,48.828,20.020,31.738,14.160,35.645,0
1542908500.290,39.551,36.621,34.668,15.137,43.945,0
1542908500.294,51.758,32.715,41.016,26.855,68.848,0
1542908500.298,45.410,26.367,36.133,32.715,-25.879,0
1542908500.302,37.598,43.945,27.344,29.297,-21.484,0
1542908500.306,40.039,48.340,22.949,20.020,70.801,0
1542908500.309,47.363,41.016,25.391,12.695,87.402,0
1542908500.313,57.129,50.293,38.086,15.625,73.242,0
1542908500.317,62.988,44.434,40.527,8.789,45.898,0
1542908500.321,46.387,15.137,28.809,4.395,41.016,0
1542908500.325,34.180,-3.418,20.508,-1.465,22.949,0
1542908500.329,36.621,3.418,27.344,11.230,41.504,0
1542908500.333,24.902,16.113,37.109,17.578,50.781,0
1542908500.337,31.738,28.809,35.645,7.812,17.090,0
1542908500.341,40.527,37.598,29.785,-4.395,35.156,0
1542908500.345,43.945,38.574,32.715,5.859,41.016,0
1542908500.349,54.688,41.504,34.668,24.902,34.668,0
1542908500.352,68.359,40.527,25.879,19.531,43.457,0
1542908500.356,69.824,34.180,22.461,32.715,2.930,0
1542908500.360,54.688,33.691,23.926,31.738,-35.156,0
1542908500.364,51.270,27.832,28.809,5.859,8.789,0
1542908500.368,45.898,21.973,32.715,5.859,52.734,0
1542908500.372,44.922,17.578,29.297,6.836,60.059,0
1542908500.376,58.594,10.254,28.809,23.438,68.848,0
1542908500.380,56.152,15.625,36.621,35.156,74.707,0
1542908500.384,58.105,29.785,35.156,24.414,73.730,0
1542908500.388,56.641,26.855,32.227,27.344,44.922,0
1542908500.392,58.594,29.297,31.738,29.297,37.598,0
1542908500.395,61.523,43.945,26.855,27.832,32.227,0
1542908500.399,40.527,34.668,23.926,11.719,38.086,0
1542908500.403,41.992,28.809,31.738,8.789,83.496,0
1542908500.407,56.641,39.062,35.645,35.645,41.016,0
1542908500.411,37.598,33.203,33.203,24.902,51.758,0
1542908500.415,41.992,14.160,28.320,16.602,90.820,0
1542908500.419,51.270,15.137,30.273,29.297,61.035,0
1542908500.423,23.438,23.438,38.086,14.160,55.176,0
1542908500.427,16.113,30.273,39.551,-0.977,116.211,0
1542908500.431,29.785,33.691,40.039,3.906,91.309,0
1542908500.434,33.691,25.391,35.645,-0.977,56.152,0
1542908500.438,26.367,21.973,37.598,-5.859,5.371,0
1542908500.442,31.250,16.113,39.551,0.977,-21.973,0
1542908500.446,37.598,13.184,35.645,11.230,1.465,0
1542908500.450,47.852,28.809,35.156,14.160,-6.836,0
1542908500.454,49.316,30.762,38.086,4.395,22.949,0
1542908500.458,29.785,20.996,39.551,6.836,12.695,0
1542908500.462,26.367,8.301,38.086,16.602,-22.461,0
