timestamps,TP9,AF7,AF8,TP10,Right AUX,Marker0
1542908574.769,109.863,44.922,34.668,23.926,108.887,0
1542908574.773,127.930,43.457,31.250,35.645,74.219,0
1542908574.777,144.043,41.016,34.180,45.410,55.664,0
1542908574.781,164.551,46.875,35.156,66.406,66.895,0
1542908574.785,176.270,46.875,41.016,85.449,133.789,0
1542908574.789,187.500,45.410,51.270,102.539,98.145,0
1542908574.792,217.285,49.805,48.828,119.629,60.059,0
1542908574.796,232.910,51.270,46.875,136.230,81.543,0
1542908574.800,226.562,46.875,50.293,154.297,22.949,0
1542908574.804,243.652,46.875,48.828,162.109,18.066,0
1542908574.808,259.277,52.246,47.363,169.434,63.965,0
1542908574.812,253.418,51.270,44.922,180.664,-17.090,0
1542908574.816,255.859,50.293,50.293,182.129,-27.832,0
1542908574.820,260.742,49.805,57.617,179.199,9.277,0
1542908574.824,261.719,50.781,55.176,175.293,13.184,0
1542908574.828,257.324,49.805,48.828,168.945,34.668,0
1542908574.831,241.211,46.387,44.922,151.855,56.152,0
1542908574.835,220.703,47.852,41.504,136.230,38.574,0
1542908574.839,205.566,38.574,38.574,135.254,24.414,0
1542908574.843,201.660,33.691,37.598,115.723,6.348,0
1542908574.847,202.148,42.969,41.504,105.957,47.852,0
1542908574.851,180.176,48.828,44.922,98.633,92.773,0
1542908574.855,164.062,47.852,41.504,79.102,47.363,0
1542908574.859,157.227,45.410,40.527,80.566,-10.742,0
1542908574.863,148.926,47.852,44.922,83.984,-12.207,0
1542908574.867,153.320,47.852,45.410,70.312,20.020,0
1542908574.871,146.484,42.480,39.062,61.035,9.766,0
1542908574.874,145.508,41.016,38.574,56.152,76.172,0
1542908574.878,149.902,36.621,39.551,61.523,125.977,0
1542908574.882,141.113,31.738,37.598,47.852,77.637,0
1542908574.886,130.859,36.621,36.133,33.691,57.129,0
1542908574.890,119.141,38.574,38.574,42.480,54.199,0
1542908574.894,117.676,35.645,41.016,49.316,43.945,0
1542908574.898,115.723,33.691,37.109,48.340,40.527,0
1542908574.902,123.535,30.273,34.668,28.320,37.598,0
1542908574.906,131.348,33.691,35.156,28.320,54.688,0
1542908574.910,105.957,38.574,37.598,32.715,34.668,0
1542908574.914,96.680,36.133,37.598,28.809,26.855,0
1542908574.917,113.770,37.598,33.691,22.461,29.297,0
1542908574.921,115.234,38.574,35.156,17.578,31.738,0
1542908574.925,107.910,39.551,35.156,19.043,19.043,0
1542908574.929,112.305,47.852,38.086,24.414,-44.922,0
1542908574.933,106.445,50.781,40.039,17.578,-6.348,0
1542908574.937,96.191,41.992,36.133,7.324,3.418,0
1542908574.941,87.402,46.875,31.738,-0.488,3.906,0
1542908574.945,87.402,54.688,32.227,3.418,47.363,0
1542908574.949,81.055,51.758,30.273,9.277,42.969,0
1542908574.953,68.359,50.293,28.809,11.230,55.664,0
1542908574.956,64.941,44.434,32.227,2.441,71.777,0
1542908574.960,62.988,31.738,36.621,-1.465,60.059,0
1542908574.964,67.871,41.016,38.574,4.395,19.531,0
1542908574.968,77.148,56.641,36.621,-4.883,48.340,0
1542908574.972,68.848,55.664,33.691,-14.648,90.332,0
1542908574.976,60.059,49.805,28.809,-15.137,35.645,0
1542908574.980,65.918,46.387,25.391,-16.113,-26.367,0
1542908574.984,62.988,41.992,26.855,-25.391,8.301,0
1542908574.988,48.828,40.527,30.273,-28.320,65.918,0
1542908574.992,44.434,39.062,29.785,-27.344,62.500,0
1542908574.996,47.852,38.574,23.926,-30.273,43.457,0
1542908574.999,53.711,40.039,21.484,-35.645,18.555,0
1542908575.003,59.082,37.598,24.902,-38.574,-8.789,0
1542908575.007,55.664,36.133,26.367,-28.809,83.008,0
1542908575.011,50.293,34.180,25.879,-20.020,99.121,0
1542908575.015,61.523,31.250,26.367,-22.949,17.578,0
1542908575.019,67.871,36.133,26.367,-24.414,57.617,0
1542908575.023,66.406,36.133,26.855,-24.414,91.309,0
1542908575.027,73.730,31.250,25.391,-28.809,54.199,0
1542908575.031,62.988,39.551,20.996,-34.668,31.250,0
1542908575.035,59.082,46.875,23.926,-32.227,0.000,0
1542908575.039,71.777,43.457,28.809,-26.855,-18.066,0
1542908575.042,63.965,45.410,27.832,-30.762,-5.859,0
1542908575.046,68.359,49.316,28.809,-28.809,-6.348,0
1542908575.050,85.449,38.574,27.344,-31.738,6.836,0
1542908575.054,72.754,33.691,26.855,-32.715,12.695,0
1542908575.058,48.340,37.598,31.738,-24.414,-6.348,0
1542908575.062,43.945,33.691,35.156,-24.902,14.648,0
1542908575.066,59.570,26.367,38.574,-4.395,13.184,0
1542908575.070,73.242,31.738,34.668,9.277,39.551,0
1542908575.074,50.293,39.551,24.902,-30.762,60.059,0
1542908575.078,11.230,38.574,19.043,-83.496,52.246,0
1542908575.081,-15.625,39.062,17.578,-112.793,82.031,0
1542908575.085,-45.410,37.598,14.648,-141.602,87.891,0
1542908575.089,-95.703,30.273,8.301,-179.199,53.223,0
1542908575.093,-132.324,28.320,6.836,-218.262,2.441,0
1542908575.097,-156.250,24.902,6.836,-259.277,23.926,0
1542908575.101,-186.523,17.090,4.395,-286.133,61.035,0
1542908575.105,-216.309,20.508,-4.395,-309.082,65.918,0
1542908575.109,-224.121,32.227,-7.812,-323.730,76.660,0
1542908575.113,-230.957,30.762,-5.859,-342.285,37.598,0
1542908575.117,-238.770,24.902,-4.395,-343.750,45.898,0
1542908575.121,-238.281,25.879,-3.906,-332.031,65.918,0
1542908575.124,-233.887,23.438,-7.324,-328.125,66.895,0
1542908575.128,-211.914,25.391,-6.348,-307.129,76.172,0
1542908575.132,-179.688,28.809,-0.977,-270.996,79.102,0
1542908575.136,-166.016,19.043,-4.883,-249.512,57.129,0
1542908575.140,-145.996,19.043,-14.648,-252.441,25.879,0
1542908575.144,-112.305,21.973,-6.836,-232.422,40.527,0
1542908575.148,-110.352,15.137,1.465,-210.449,62.012,0
1542908575.152,-115.234,24.902,0.000,-204.102,57.617,0
1542908575.156,-91.797,30.762,3.418,-187.500,73.242,0
1542908575.160,-76.660,33.203,2.441,-171.387,79.590,0
1542908575.164,-67.383,35.645,1.465,-156.738,48.340,0
1542908575.167,-57.129,32.227,0.977,-156.738,23.926,0
1542908575.171,-62.500,31.250,-4.883,-159.180,50.293,0
1542908575.175,-59.570,32.715,-2.930,-150.391,50.293,0
1542908575.179,-52.734,32.227,-1.953,-153.320,30.762,0
1542908575.183,-47.363,31.738,-1.953,-147.949,54.688,0
1542908575.187,-41.992,33.691,2.441,-133.301,81.055,0
1542908575.191,-33.691,37.598,8.301,-128.906,14.648,0
1542908575.195,-26.855,39.551,8.301,-119.629,21.484,0
1542908575.199,-19.043,32.715,3.906,-116.211,37.109,0
1542908575.203,-6.348,28.809,8.301,-115.234,25.391,0
1542908575.206,-7.812,40.039,13.672,-101.074,35.156,0
1542908575.210,-15.625,45.898,15.137,-95.215,23.438,0
1542908575.214,-1.953,44.434,15.625,-102.051,4.883,0
1542908575.218,2.441,38.086,17.090,-95.703,-5.859,0
1542908575.222,-11.230,36.621,16.113,-77.148,1.465,0
1542908575.226,-5.859,38.574,12.695,-79.590,38.574,0
1542908575.230,16.113,40.039,14.648,-90.332,57.617,0
1542908575.234,19.531,48.828,18.066,-82.031,59.570,0
1542908575.238,4.883,43.945,18.555,-82.031,91.797,0
1542908575.242,2.441,29.297,13.672,-83.984,68.848,0
1542908575.246,2.441,28.809,13.184,-76.172,42.480,0
1542908575.249,5.859,39.551,16.602,-77.148,48.340,0
1542908575.253,9.766,37.109,17.578,-80.078,25.879,0
1542908575.257,7.812,33.691,17.090,-84.961,-7.324,0
1542908575.261,9.766,43.457,12.695,-87.402,-27.344,0
1542908575.265,5.859,39.551,13.184,-79.102,-6.836,0
1542908575.269,7.324,37.598,17.090,-72.266,43.457,0
1542908575.273,18.066,44.922,12.207,-79.102,82.031,0
1542908575.277,19.043,41.504,5.859,-70.801,76.172,0
1542908575.281,19.043,37.598,11.719,-61.035,94.238,0
1542908575.285,10.742,38.574,13.672,-65.430,102.539,0
1542908575.289,14.648,44.434,6.836,-66.406,10.742,0
1542908575.292,23.438,41.016,11.719,-63.477,-2.930,0
1542908575.296,19.531,31.738,21.973,-57.129,67.871,0
1542908575.300,15.137,44.922,12.695,-60.547,102.051,0
1542908575.304,9.766,45.410,0.488,-74.707,91.309,0
1542908575.308,13.184,34.180,0.977,-71.777,87.402,0
1542908575.312,15.137,35.156,7.812,-62.500,49.316,0
1542908575.316,44.922,32.715,12.695,-45.410,11.230,0
1542908575.320,52.734,35.645,12.695,-40.039,42.969,0
1542908575.324,20.020,46.387,12.207,-62.988,33.691,0
1542908575.328,17.578,51.270,8.301,-64.941,12.207,0
1542908575.331,22.461,42.480,6.348,-57.129,44.922,0
1542908575.335,16.602,41.992,12.695,-57.617,9.766,0
1542908575.339,20.996,55.664,8.301,-62.988,-5.371,0
1542908575.343,20.020,57.129,0.000,-62.988,46.387,0
1542908575.347,21.484,45.898,-0.488,-58.105,46.875,0
1542908575.351,37.109,44.434,3.906,-53.223,75.195,0
1542908575.355,37.598,47.852,8.789,-47.363,54.199,0
1542908575.359,29.785,43.945,8.789,-48.340,-21.973,0
1542908575.363,20.020,43.457,6.348,-66.406,-19.043,0
1542908575.367,30.762,33.203,6.836,-70.801,31.250,0
1542908575.371,50.293,28.320,4.883,-61.035,61.523,0
1542908575.374,31.738,38.086,3.418,-58.105,55.176,0
1542908575.378,30.273,40.039,7.324,-54.688,62.012,0
1542908575.382,40.039,39.062,9.766,-58.594,51.758,0
1542908575.386,30.762,39.551,17.090,-54.688,50.781,0
1542908575.390,34.668,43.457,21.484,-38.086,62.500,0
1542908575.394,39.551,40.039,14.160,-37.109,19.531,0
1542908575.398,44.434,38.086,12.695,-44.922,-7.324,0
1542908575.402,52.246,44.434,15.625,-41.016,40.527,0
1542908575.406,46.875,42.969,13.672,-41.504,50.293,0
1542908575.410,42.480,46.875,14.648,-42.969,32.715,0
1542908575.414,50.781,50.293,19.531,-31.250,48.340,0
1542908575.417,48.828,35.156,15.625,-43.945,40.527,0
1542908575.421,47.363,39.062,13.672,-52.734,12.207,0
1542908575.425,43.945,49.316,15.625,-47.363,50.293,0
1542908575.429,27.344,41.992,16.113,-44.434,64.453,0
1542908575.433,31.738,46.875,13.184,-38.574,17.578,0
1542908575.437,35.645,47.852,8.789,-43.457,60.547,0
1542908575.441,31.250,41.504,17.578,-39.062,83.008,0
1542908575.445,37.109,44.922,22.949,-29.785,22.461,0
1542908575.449,42.480,50.781,21.484,-40.039,75.195,0
1542908575.453,43.457,46.875,12.695,-44.922,38.086,0
1542908575.456,41.992,41.016,7.812,-50.781,21.484,0
1542908575.460,37.598,26.855,11.230,-53.711,79.590,0
1542908575.464,38.086,14.160,15.137,-46.387,72.266,0
1542908575.468,40.039,42.480,16.113,-45.410,77.637,0
1542908575.472,47.363,60.059,13.672,-46.387,48.828,0
1542908575.476,55.176,48.340,16.602,-46.387,83.008,0
1542908575.480,45.410,42.480,16.602,-39.062,44.922,0
1542908575.484,45.410,44.434,17.578,-31.250,-6.836,0
1542908575.488,46.387,44.434,25.391,-38.574,47.363,0
1542908575.492,38.086,41.992,15.625,-52.246,70.312,0
1542908575.496,58.594,38.086,2.441,-30.762,71.777,0
1542908575.499,65.918,33.691,17.090,-21.484,29.785,0
1542908575.503,21.484,32.227,34.668,-61.523,18.555,0
1542908575.507,-10.742,34.180,32.715,-94.727,94.238,0
1542908575.511,-17.578,29.785,29.785,-101.074,51.758,0
1542908575.515,-31.738,26.855,39.551,-109.375,21.973,0
1542908575.519,-57.617,20.996,51.270,-129.883,81.055,0
1542908575.523,-57.617,1.953,54.688,-124.512,87.402,0
1542908575.527,-61.035,5.371,56.152,-117.188,59.570,0
1542908575.531,-74.219,13.184,58.105,-128.906,22.461,0
1542908575.535,-64.453,4.395,55.176,-123.535,24.414,0
1542908575.539,-54.199,7.812,54.199,-107.910,81.055,0
1542908575.542,-42.969,14.648,56.641,-100.098,75.684,0
1542908575.546,-30.273,11.230,48.828,-99.609,14.160,0
1542908575.550,-24.902,15.625,41.992,-98.145,24.902,0
1542908575.554,-23.926,24.902,39.551,-93.750,67.871,0
1542908575.558,-25.879,25.879,38.574,-84.961,89.844,0
1542908575.562,-18.066,23.438,40.527,-78.613,4.883,0
1542908575.566,-0.977,26.367,38.574,-72.266,2.441,0
1542908575.570,-1.465,28.320,36.133,-61.035,40.039,0
1542908575.574,1.953,20.020,38.086,-53.711,19.531,0
1542908575.578,4.883,15.625,32.227,-61.523,42.969,0
1542908575.581,7.812,23.926,25.879,-60.547,4.883,0
1542908575.585,20.020,31.738,26.367,-54.688,4.883,0
1542908575.589,26.367,37.109,24.902,-54.688,21.484,0
1542908575.593,25.879,35.645,20.996,-46.875,-24.902,0
1542908575.597,32.715,32.715,19.043,-41.504,-26.367,0
1542908575.601,41.504,35.645,21.484,-39.062,41.016,0
1542908575.605,33.691,38.086,20.508,-46.875,100.586,0
1542908575.609,20.996,38.086,16.113,-51.270,86.914,0
1542908575.613,25.879,41.992,20.508,-49.805,31.738,0
1542908575.617,31.250,41.992,23.438,-44.922,-10.254,0
1542908575.621,30.273,35.645,20.508,-41.992,-20.020,0
1542908575.624,32.227,33.691,17.090,-45.898,12.695,0
1542908575.628,29.785,36.133,7.324,-45.410,30.762,0
1542908575.632,29.297,28.320,7.812,-45.898,-21.973,0
1542908575.636,39.062,26.367,12.695,-48.340,-1.465,0
1542908575.640,38.086,37.598,13.184,-44.922,-18.066,0
1542908575.644,37.598,37.598,19.043,-40.527,-8.789,0
1542908575.648,35.156,37.109,23.438,-41.992,78.125,0
1542908575.652,34.180,38.086,26.367,-38.574,72.266,0
1542908575.656,37.598,35.645,21.484,-37.109,28.809,0
1542908575.660,40.039,35.156,8.789,-39.551,58.105,0
1542908575.664,53.711,34.668,5.371,-43.457,76.660,0
1542908575.667,54.688,29.785,14.648,-38.086,-8.301,0
1542908575.671,36.133,31.738,21.973,-42.969,-9.277,0
1542908575.675,37.109,37.598,18.066,-53.223,0.977,0
1542908575.679,41.992,40.039,14.648,-45.898,-25.879,0
1542908575.683,38.086,31.250,16.602,-41.504,47.852,0
1542908575.687,34.180,28.809,19.531,-38.574,66.406,0
1542908575.691,41.504,40.527,20.020,-42.969,-6.348,0
1542908575.695,46.387,42.480,18.555,-40.039,-25.391,0
1542908575.699,42.480,35.156,14.648,-43.457,-24.902,0
1542908575.703,38.574,29.297,16.113,-43.457,-13.672,0
1542908575.706,41.016,29.297,17.578,-41.504,50.293,0
1542908575.710,38.086,30.762,13.184,-46.875,40.527,0
1542908575.714,30.762,29.785,10.254,-41.504,51.270,0
1542908575.718,30.762,27.832,7.812,-29.785,62.988,0
1542908575.722,40.527,27.344,9.277,-30.273,-14.648,0
1542908575.726,50.781,28.809,12.695,-33.203,33.203,0
1542908575.730,47.852,34.668,16.113,-27.832,72.754,0
1542908575.734,40.527,36.621,19.043,-29.785,48.828,0
1542908575.738,36.133,23.438,21.973,-23.926,32.715,0
1542908575.742,34.180,18.066,26.367,-29.297,10.742,0
1542908575.746,32.227,30.762,23.926,-32.227,47.852,0
1542908575.749,35.645,32.227,19.531,-33.203,41.016,0
1542908575.753,41.016,28.809,16.602,-38.574,1.465,0
1542908575.757,44.434,34.180,15.625,-35.645,-21.484,0
1542908575.761,39.551,38.086,24.902,-32.227,21.973,0
1542908575.765,33.691,38.574,30.762,-29.785,40.527,0
1542908575.769,43.457,36.133,31.250,-33.691,60.059,0
1542908575.773,41.992,39.551,30.273,-34.668,47.363,0
1542908575.777,33.691,41.016,26.367,-32.227,16.113,0
1542908575.781,37.598,29.297,23.438,-37.109,22.949,0
1542908575.785,34.668,24.414,26.855,-37.109,-3.906,0
1542908575.789,33.691,27.344,27.344,-38.574,-13.672,0
1542908575.792,31.738,29.297,24.414,-45.898,20.996,0
1542908575.796,31.250,30.273,26.367,-41.504,18.555,0
1542908575.800,36.133,30.762,29.785,-40.527,39.062,0
1542908575.804,32.715,23.926,35.156,-37.109,47.852,0
1542908575.808,33.203,29.297,35.156,-33.203,-1.953,0
1542908575.812,31.250,41.504,29.785,-39.062,10.742,0
1542908575.816,30.273,40.039,27.344,-36.621,72.266,0
1542908575.820,35.645,38.086,31.250,-37.109,74.707,0
1542908575.824,31.250,30.762,29.785,-42.480,103.516,0
1542908575.828,21.484,33.203,24.414,-47.363,118.652,0
1542908575.831,22.461,43.945,29.785,-51.758,33.691,0
1542908575.835,22.461,36.621,27.344,-50.293,29.785,0
1542908575.839,19.531,27.832,22.461,-56.152,78.125,0
1542908575.843,27.344,30.762,21.484,-66.895,49.805,0
1542908575.847,26.367,33.691,22.949,-66.406,18.066,0
1542908575.851,24.414,38.574,27.344,-56.641,17.578,0
1542908575.855,20.508,40.527,27.832,-59.082,44.922,0
1542908575.859,25.879,36.133,31.250,-62.500,52.246,0
1542908575.863,32.227,28.320,31.250,-56.641,45.898,0
1542908575.867,27.344,29.297,23.438,-52.246,61.035,0
1542908575.871,28.320,40.527,24.902,-50.293,63.965,0
1542908575.874,30.762,43.945,33.203,-44.434,62.988,0
1542908575.878,33.203,43.945,30.762,-41.504,21.973,0
1542908575.882,38.086,41.992,28.320,-44.922,15.625,0
1542908575.886,41.504,34.668,30.273,-42.480,21.973,0
1542908575.890,38.574,31.250,32.227,-41.504,24.902,0
1542908575.894,35.645,35.645,34.180,-37.598,62.012,0
1542908575.898,35.645,38.086,33.691,-38.086,94.727,0
1542908575.902,30.273,35.645,30.762,-45.410,36.133,0
1542908575.906,34.180,37.109,26.367,-44.434,43.945,0
1542908575.910,41.504,39.551,22.949,-45.898,84.961,0
1542908575.914,47.852,41.504,21.973,-42.480,63.477,0
1542908575.917,44.922,37.109,24.902,-39.551,65.430,0
1542908575.921,38.086,36.621,26.855,-45.898,83.496,0
1542908575.925,37.109,33.691,27.832,-49.316,49.316,0
1542908575.929,44.434,33.691,28.809,-45.898,37.109,0
1542908575.933,44.434,41.504,27.344,-44.922,63.965,0
1542908575.937,40.527,45.410,22.949,-51.270,31.738,0
1542908575.941,47.852,45.410,20.020,-53.223,46.387,0
1542908575.945,41.016,39.062,24.414,-53.223,57.129,0
1542908575.949,26.367,32.715,28.320,-46.875,59.082,0
1542908575.953,27.832,37.109,27.344,-54.688,43.945,0
1542908575.956,27.832,37.598,26.855,-52.734,18.555,0
1542908575.960,26.367,34.180,28.809,-53.223,21.973,0
1542908575.964,20.508,35.156,28.809,-65.918,48.340,0
1542908575.968,15.137,37.109,26.855,-67.871,43.945,0
1542908575.972,12.695,37.598,29.297,-71.289,10.742,0
1542908575.976,10.254,28.809,30.273,-74.707,-34.180,0
1542908575.980,8.789,31.250,23.438,-69.336,-11.719,0
1542908575.984,13.184,43.945,24.414,-61.523,8.301,0
1542908575.988,18.066,46.387,26.855,-54.688,31.738,0
1542908575.992,17.090,38.086,27.344,-62.012,51.270,0
1542908575.996,12.207,41.504,29.785,-68.359,8.789,0
1542908575.999,12.207,51.758,22.461,-70.801,13.672,0
1542908576.003,16.113,48.340,20.020,-67.383,66.406,0
1542908576.007,22.949,45.898,24.902,-65.430,53.711,0
1542908576.011,25.879,45.898,25.391,-73.730,48.340,0
1542908576.015,8.301,44.434,25.879,-67.383,52.734,0
1542908576.019,5.371,46.387,24.414,-63.477,2.441,0
1542908576.023,12.207,47.363,20.508,-66.895,5.371,0
1542908576.027,11.230,44.434,20.996,-64.453,65.430,0
1542908576.031,15.625,40.039,22.461,-64.453,65.918,0
1542908576.035,13.184,44.922,21.973,-68.848,30.273,0
1542908576.039,10.254,52.246,28.809,-75.195,62.500,0
1542908576.042,21.973,54.688,31.738,-74.707,79.590,0
1542908576.046,24.414,48.828,29.297,-74.707,34.668,0
1542908576.050,20.020,34.668,28.320,-78.125,9.277,0
1542908576.054,14.648,28.320,23.926,-74.707,6.836,0
1542908576.058,6.348,39.062,19.043,-69.824,-5.371,0
1542908576.062,12.695,52.246,24.902,-65.918,26.367,0
1542908576.066,6.836,43.457,23.926,-63.477,69.336,0
1542908576.070,9.277,36.621,21.484,-59.082,40.527,0
1542908576.074,29.297,42.969,26.367,-60.059,4.883,0
1542908576.078,26.855,34.668,30.762,-58.105,59.082,0
1542908576.081,15.137,33.203,36.133,-54.688,98.145,0
1542908576.085,19.043,48.340,35.645,-62.012,90.332,0
1542908576.089,14.648,46.875,24.414,-69.824,60.059,0
1542908576.093,7.812,30.273,18.066,-73.242,53.223,0
1542908576.097,9.277,26.855,19.531,-74.707,83.008,0
1542908576.101,3.418,35.645,20.996,-78.125,55.664,0
1542908576.105,24.902,38.574,12.207,-63.965,34.668,0
1542908576.109,38.574,39.551,11.230,-47.852,89.355,0
1542908576.113,18.066,50.293,30.762,-62.988,102.051,0
1542908576.117,11.230,48.828,44.922,-73.242,36.133,0
1542908576.121,5.371,32.227,58.594,-66.895,28.809,0
1542908576.124,3.906,22.461,70.312,-70.801,111.816,0
1542908576.128,3.906,20.508,74.707,-62.012,120.605,0
1542908576.132,-12.207,21.973,83.008,-58.594,64.453,0
1542908576.136,-16.113,13.184,92.285,-73.730,57.617,0
1542908576.140,-6.836,0.488,96.680,-67.871,16.602,0
1542908576.144,3.906,1.465,98.145,-46.387,28.320,0
1542908576.148,7.812,10.254,99.121,-44.434,73.242,0
1542908576.152,11.719,24.414,89.355,-50.293,69.336,0
1542908576.156,20.996,27.344,74.219,-52.246,46.387,0
1542908576.160,19.531,12.207,77.148,-55.176,64.453,0
1542908576.164,8.301,16.113,61.523,-45.898,20.996,0
1542908576.167,6.836,27.832,48.828,-45.898,39.551,0
1542908576.171,14.160,24.902,64.941,-48.340,115.723,0
1542908576.175,24.902,23.438,72.266,-26.367,40.527,0
1542908576.179,28.320,23.926,64.941,-19.531,0.488,0
1542908576.183,21.973,25.879,56.641,-31.250,12.207,0
1542908576.187,26.367,29.297,50.781,-37.598,17.578,0
1542908576.191,34.180,27.344,47.852,-40.527,1.953,0
1542908576.195,32.715,20.508,46.875,-40.527,-21.973,0
1542908576.199,37.598,22.949,50.781,-31.250,-21.973,0
1542908576.203,41.992,28.809,47.363,-31.738,27.832,0
1542908576.206,42.480,29.785,39.551,-30.762,27.344,0
1542908576.210,36.621,22.461,32.227,-28.809,6.836,0
1542908576.214,45.898,20.996,24.902,-31.250,14.160,0
1542908576.218,52.246,26.855,26.367,-26.367,17.578,0
1542908576.222,38.574,36.133,28.809,-23.438,62.988,0
1542908576.226,34.668,40.527,28.809,-24.414,61.523,0
1542908576.230,36.621,38.086,25.879,-26.367,52.734,0
1542908576.234,37.109,37.598,22.949,-27.344,56.641,0
1542908576.238,38.574,33.691,26.855,-26.855,41.016,0
1542908576.242,39.062,23.926,28.320,-26.855,73.242,0
1542908576.246,38.574,22.461,23.926,-19.531,66.406,0
1542908576.249,48.828,32.227,20.020,-29.785,51.758,0
1542908576.253,50.293,33.691,27.832,-31.738,68.359,0
1542908576.257,39.551,28.809,36.133,-29.297,41.504,0
1542908576.261,43.945,38.086,34.668,-34.180,31.738,0
1542908576.265,38.086,35.645,27.344,-30.762,45.898,0
1542908576.269,26.367,24.414,22.461,-36.621,77.637,0
1542908576.273,31.250,32.227,21.484,-35.645,87.402,0
1542908576.277,47.852,37.109,25.879,-31.738,36.133,0
1542908576.281,42.969,37.598,22.949,-37.598,74.707,0
1542908576.285,30.273,37.109,14.648,-41.504,38.574,0
1542908576.289,21.973,35.156,10.742,-42.969,16.113,0
1542908576.292,17.090,42.969,10.254,-45.898,33.203,0
1542908576.296,25.391,44.434,13.184,-51.758,1.465,0
1542908576.300,30.762,42.480,13.672,-46.387,41.992,0
1542908576.304,42.969,46.387,11.230,-41.992,30.273,0
1542908576.308,43.457,48.340,7.812,-41.992,23.438,0
1542908576.312,41.016,42.969,18.066,-37.109,37.109,0
1542908576.316,44.434,40.527,21.484,-37.598,-12.207,0
1542908576.320,52.246,40.039,11.230,-34.668,-2.930,0
1542908576.324,53.711,41.504,9.766,-28.809,14.160,0
1542908576.328,43.457,43.945,12.695,-31.250,20.996,0
1542908576.331,42.969,47.852,14.160,-34.668,1.465,0
1542908576.335,46.875,38.574,14.160,-39.062,-14.648,0
1542908576.339,44.922,32.227,15.137,-41.992,-18.066,0
1542908576.343,39.551,46.875,17.578,-38.086,3.418,0
1542908576.347,33.691,44.434,15.137,-35.645,61.035,0
1542908576.351,37.109,36.621,15.625,-34.668,48.340,0
1542908576.355,47.363,40.039,19.043,-33.691,8.301,0
1542908576.359,39.551,39.062,20.996,-40.039,26.367,0
1542908576.363,28.320,41.504,22.949,-34.668,6.836,0
1542908576.367,39.551,47.852,27.344,-24.414,1.953,0
1542908576.371,49.316,43.457,28.809,-28.320,34.668,0
1542908576.374,42.969,30.762,20.996,-34.180,14.648,0
1542908576.378,46.875,26.367,14.160,-34.668,9.766,0
1542908576.382,49.805,37.598,19.043,-36.621,46.875,0
1542908576.386,49.805,42.969,23.926,-37.109,41.992,0
1542908576.390,60.059,38.574,21.973,-28.320,-7.324,0
1542908576.394,54.199,36.621,15.625,-22.949,0.000,0
1542908576.398,49.805,41.016,17.090,-26.367,19.531,0
1542908576.402,50.781,42.480,23.438,-24.414,35.645,0
1542908576.406,41.504,40.527,23.926,-22.461,46.387,0
1542908576.410,40.039,44.434,26.855,-29.785,-1.465,0
1542908576.414,43.457,49.316,29.297,-32.227,12.207,0
1542908576.417,41.016,44.922,22.949,-28.809,62.012,0
1542908576.421,36.133,37.109,23.438,-34.180,49.316,0
1542908576.425,41.504,35.645,30.762,-33.203,38.086,0
1542908576.429,40.527,30.762,18.066,-29.297,21.484,0
1542908576.433,28.320,27.832,13.184,-30.762,0.977,0
1542908576.437,37.598,37.598,24.414,-23.438,19.043,0
1542908576.441,52.246,36.133,25.879,-20.020,74.219,0
1542908576.445,44.434,37.109,20.996,-29.785,67.383,0
1542908576.449,25.391,44.434,14.160,-46.875,-3.906,0
1542908576.453,23.926,42.480,7.812,-65.918,0.977,0
1542908576.456,17.090,41.504,13.672,-64.941,19.531,0
1542908576.460,11.230,42.969,22.461,-49.805,57.617,0
1542908576.464,20.508,37.109,20.508,-45.410,44.434,0
1542908576.468,22.949,28.320,13.672,-46.387,4.883,0
1542908576.472,23.438,26.855,8.789,-56.641,3.418,0
1542908576.476,25.879,37.598,11.230,-61.035,12.207,0
1542908576.480,26.367,41.504,12.207,-62.012,44.434,0
1542908576.484,24.902,25.391,9.277,-64.453,80.078,0
1542908576.488,35.156,24.414,9.766,-59.082,46.387,0
1542908576.492,46.387,42.480,12.207,-60.547,1.953,0
1542908576.496,49.316,48.340,15.137,-57.129,2.441,0
1542908576.499,39.062,41.992,13.672,-50.781,32.715,0
1542908576.503,34.668,36.133,10.254,-53.223,18.555,0
1542908576.507,35.156,30.762,6.836,-57.129,-48.340,0
1542908576.511,20.020,27.344,9.766,-50.781,-59.570,0
1542908576.515,19.531,31.738,18.066,-40.527,-66.406,0
1542908576.519,30.273,39.551,15.137,-42.480,7.324,0
1542908576.523,32.715,46.875,10.254,-48.340,86.914,0
1542908576.527,28.320,37.598,13.184,-49.316,92.285,0
1542908576.531,21.484,25.391,11.719,-45.898,-16.113,0
1542908576.535,22.949,25.879,11.719,-47.852,-23.438,0
1542908576.539,28.320,19.043,20.020,-46.875,73.242,0
1542908576.542,34.180,24.902,22.949,-41.992,47.852,0
1542908576.546,33.691,48.340,22.949,-42.969,63.965,0
1542908576.550,30.762,48.340,21.484,-46.875,58.105,0
1542908576.554,41.992,31.250,18.555,-49.805,49.805,0
1542908576.558,36.133,27.344,15.625,-42.480,73.242,0
1542908576.562,28.809,32.227,13.184,-41.992,64.941,0
1542908576.566,36.133,30.762,12.207,-42.969,56.641,0
1542908576.570,40.527,37.598,13.184,-31.250,26.855,0
1542908576.574,36.133,38.574,20.996,-32.715,58.594,0
1542908576.578,29.297,31.738,19.531,-41.992,10.254,0
1542908576.581,30.762,35.156,18.066,-42.480,17.578,0
1542908576.585,35.156,40.527,11.719,-37.598,111.816,0
1542908576.589,36.133,35.645,12.207,-37.109,117.676,0
1542908576.593,34.668,34.180,23.926,-37.598,66.406,0
1542908576.597,34.668,29.785,17.090,-39.551,34.668,0
1542908576.601,36.133,22.461,13.672,-42.969,33.203,0
1542908576.605,38.086,33.203,17.090,-39.551,11.719,0
1542908576.609,42.969,43.945,13.184,-43.945,33.691,0
1542908576.613,38.574,41.504,17.090,-40.039,26.855,0
1542908576.617,34.180,35.645,23.438,-35.156,-0.488,0
1542908576.621,34.180,33.691,24.414,-44.922,54.688,0
1542908576.624,36.621,35.645,25.879,-46.387,104.004,0
1542908576.628,40.039,38.574,26.367,-36.621,79.590,0
1542908576.632,39.062,38.574,29.297,-32.715,29.297,0
1542908576.636,34.668,36.133,28.809,-38.574,18.066,0
1542908576.640,31.250,37.598,23.926,-39.551,20.996,0
1542908576.644,31.738,43.945,23.926,-35.156,44.922,0
1542908576.648,35.156,41.016,24.902,-31.250,29.297,0
1542908576.652,36.621,31.738,23.926,-37.109,51.270,0
1542908576.656,40.039,26.855,28.320,-51.270,90.820,0
1542908576.660,36.133,25.879,33.203,-43.457,41.016,0
1542908576.664,30.762,32.227,31.250,-34.180,69.824,0
1542908576.667,28.809,41.504,28.809,-39.062,89.355,0
1542908576.671,29.785,38.086,25.391,-40.039,46.875,0
1542908576.675,33.691,36.133,24.902,-42.969,105.957,0
1542908576.679,42.480,43.945,28.320,-40.527,93.262,0
1542908576.683,47.363,42.480,22.949,-43.945,22.949,0
1542908576.687,36.133,37.598,16.113,-47.852,27.832,0
1542908576.691,34.180,36.621,17.090,-45.410,20.508,0
1542908576.695,41.504,37.598,24.414,-41.992,30.273,0
1542908576.699,48.340,46.875,22.949,-42.480,39.551,0
1542908576.703,39.062,43.457,19.531,-55.664,24.414,0
1542908576.706,35.645,29.297,19.043,-51.758,29.785,0
1542908576.710,44.434,28.809,16.113,-46.387,72.754,0
1542908576.714,36.133,39.062,21.484,-42.480,67.871,0
1542908576.718,42.969,41.504,24.902,-36.621,-11.719,0
1542908576.722,45.410,29.785,28.320,-40.527,-35.156,0
1542908576.726,36.133,34.180,31.250,-44.434,-15.625,0
1542908576.730,34.668,36.133,23.438,-41.992,-10.254,0
1542908576.734,22.949,33.203,16.113,-42.480,6.348,0
1542908576.738,22.461,41.016,22.461,-51.758,40.039,0
1542908576.742,25.391,38.574,34.180,-43.457,13.672,0
1542908576.746,27.344,40.527,35.156,-41.016,26.855,0
1542908576.749,26.855,45.410,29.785,-50.293,58.594,0
1542908576.753,17.090,39.062,24.414,-52.734,-8.789,0
1542908576.757,18.066,37.598,26.855,-55.176,35.156,0
1542908576.761,26.855,44.434,26.367,-58.594,91.797,0
1542908576.765,29.785,46.387,26.367,-60.547,88.867,0
1542908576.769,26.855,35.645,25.879,-54.199,93.750,0
1542908576.773,23.438,26.367,22.949,-54.199,47.852,0
1542908576.777,24.414,41.016,22.949,-54.199,45.410,0
1542908576.781,30.762,48.828,25.879,-48.828,88.379,0
1542908576.785,23.438,32.715,14.160,-61.035,106.445,0
1542908576.789,2.930,20.996,9.766,-69.336,51.270,0
1542908576.792,4.395,20.020,32.227,-63.477,0.488,0
1542908576.796,17.090,28.320,37.598,-53.223,3.906,0
1542908576.800,16.113,36.621,33.691,-52.246,42.969,0
1542908576.804,16.602,20.996,28.809,-56.152,45.898,0
1542908576.808,15.625,28.320,26.367,-50.293,22.949,0
1542908576.812,8.789,40.527,27.832,-51.270,46.875,0
1542908576.816,16.602,40.039,24.902,-52.246,12.695,0
1542908576.820,23.438,44.922,25.879,-49.316,32.715,0
1542908576.824,21.484,38.574,26.855,-50.781,96.680,0
1542908576.828,20.508,34.668,22.949,-51.270,58.594,0
1542908576.831,22.949,37.598,23.926,-53.711,50.293,0
1542908576.835,35.645,39.551,26.367,-57.129,111.328,0
1542908576.839,38.574,35.645,29.297,-57.129,57.129,0
1542908576.843,33.203,28.320,28.320,-54.199,44.922,0
1542908576.847,21.973,31.250,25.391,-52.246,53.223,0
1542908576.851,20.020,38.574,23.926,-57.129,44.922,0
1542908576.855,34.668,32.715,25.879,-61.523,54.688,0
1542908576.859,30.762,22.949,28.320,-57.129,71.777,0
1542908576.863,14.160,34.180,24.414,-44.434,75.195,0
1542908576.867,15.625,36.133,18.555,-43.457,18.066,0
1542908576.871,20.020,27.832,26.367,-45.410,-10.254,0
1542908576.874,21.484,37.109,37.598,-43.457,33.203,0
1542908576.878,17.578,33.203,19.531,-51.758,18.555,0
1542908576.882,14.160,31.250,17.578,-54.688,57.617,0
1542908576.886,24.414,42.480,33.691,-50.293,105.957,0
1542908576.890,31.738,40.039,27.832,-46.875,72.266,0
1542908576.894,33.203,31.250,26.855,-45.898,20.020,0
1542908576.898,40.527,23.926,28.809,-46.875,16.113,0
1542908576.902,40.039,22.949,27.832,-42.480,52.734,0
1542908576.906,32.715,23.438,28.320,-44.922,24.902,0
1542908576.910,38.086,25.879,22.461,-53.223,30.273,0
1542908576.914,33.691,33.203,18.066,-46.875,9.766,0
1542908576.917,34.668,41.504,24.414,-41.504,28.809,0
1542908576.921,39.551,42.969,23.438,-53.711,57.129,0
1542908576.925,20.020,41.016,22.461,-44.922,84.473,0
1542908576.929,8.301,29.297,18.555,-46.875,109.863,0
1542908576.933,15.137,24.414,18.066,-65.918,78.125,0
1542908576.937,24.414,35.156,25.391,-55.664,67.871,0
1542908576.941,20.996,35.156,14.160,-52.246,102.051,0
1542908576.945,26.367,31.250,8.789,-63.477,122.070,0
1542908576.949,33.203,32.227,22.461,-55.176,156.738,0
1542908576.953,38.086,34.668,28.320,-50.293,166.016,0
1542908576.956,44.922,30.273,26.855,-66.406,148.438,0
1542908576.960,36.621,33.203,23.438,-70.312,207.031,0
1542908576.964,33.203,39.551,24.414,-52.734,230.957,0
1542908576.968,30.762,40.039,31.250,-43.457,236.816,0
1542908576.972,31.738,37.598,29.297,-52.246,282.227,0
1542908576.976,17.578,34.180,21.973,-48.828,303.711,0
1542908576.980,15.137,39.062,28.320,-36.621,302.246,0
1542908576.984,30.273,40.527,36.621,-40.039,314.453,0
1542908576.988,25.391,32.715,33.203,-36.621,348.633,0
1542908576.992,38.086,25.879,27.344,-37.109,372.559,0
1542908576.996,46.875,29.297,29.297,-41.016,363.281,0
1542908576.999,39.551,38.574,24.902,-38.086,383.789,0
1542908577.003,35.156,39.062,25.391,-50.293,413.086,0
1542908577.007,32.227,34.180,27.832,-46.387,428.223,0
1542908577.011,30.273,34.668,26.855,-46.387,447.754,0
1542908577.015,27.344,43.457,26.855,-58.594,461.426,0
1542908577.019,24.902,45.410,28.320,-56.152,479.492,0
1542908577.023,28.320,33.203,30.273,-49.805,471.191,0
1542908577.027,30.273,34.668,29.785,-45.410,430.176,0
1542908577.031,33.203,50.781,30.762,-49.805,377.441,0
1542908577.035,32.227,49.316,27.832,-56.152,369.629,0
1542908577.039,32.227,43.457,26.367,-55.664,343.262,0
1542908577.042,28.809,43.457,29.297,-57.129,256.836,0
1542908577.046,27.832,27.832,26.855,-59.082,214.844,0
1542908577.050,28.320,33.203,31.250,-62.012,198.730,0
1542908577.054,39.062,44.922,41.504,-49.316,134.766,0
1542908577.058,43.457,37.109,37.109,-29.297,73.730,0
1542908577.062,18.066,47.363,19.043,-48.340,43.457,0
1542908577.066,9.277,59.082,2.930,-72.266,38.574,0
1542908577.070,22.949,64.453,-1.953,-61.035,20.020,0
1542908577.074,42.969,70.312,-1.953,-42.480,-9.766,0
1542908577.078,70.312,79.590,-6.836,-38.086,-29.785,0
1542908577.081,62.988,76.172,-17.578,-44.922,-50.781,0
1542908577.085,59.082,70.312,-24.902,-39.062,-68.359,0
1542908577.089,72.266,83.496,-35.156,-42.480,-93.262,0
1542908577.093,76.660,85.938,-34.668,-36.133,-110.352,0
1542908577.097,86.426,86.914,-29.785,-18.066,-119.629,0
1542908577.101,82.031,95.703,-31.250,-18.555,-118.652,0
1542908577.105,82.520,83.984,-29.297,-20.996,-131.836,0
1542908577.109,99.121,79.590,-24.414,-26.367,-137.695,0
1542908577.113,87.891,86.426,-16.113,-18.555,-140.625,0
1542908577.117,71.777,80.078,-15.625,-15.625,-151.367,0
1542908577.121,81.055,72.754,-19.043,-28.809,-159.668,0
1542908577.124,83.496,75.684,-13.184,-20.508,-180.664,0
1542908577.128,82.031,84.961,-9.766,-14.160,-164.551,0
1542908577.132,81.543,76.172,-17.090,-27.832,-149.902,0
1542908577.136,72.754,69.824,-19.043,-30.273,-157.715,0
1542908577.140,67.871,81.055,-11.719,-25.391,-138.184,0
1542908577.144,73.242,70.801,-14.160,-21.973,-150.879,0
1542908577.148,66.406,61.523,-14.160,-21.484,-159.180,0
1542908577.152,54.199,65.430,-3.418,-25.879,-156.250,0
1542908577.156,64.941,69.336,4.395,-22.949,-171.387,0
1542908577.160,69.336,68.359,5.371,-20.996,-165.039,0
1542908577.164,54.688,53.711,4.395,-19.531,-150.879,0
1542908577.167,53.711,55.664,5.371,-14.648,-134.766,0
1542908577.171,50.781,64.453,4.883,-22.461,-123.535,0
1542908577.175,44.922,54.199,0.000,-31.250,-120.117,0
1542908577.179,44.922,53.711,0.488,-21.973,-117.676,0
1542908577.183,42.480,59.082,4.883,-24.902,-106.934,0
1542908577.187,43.945,55.176,2.930,-32.715,-73.242,0
1542908577.191,42.480,57.129,0.977,-32.715,-75.684,0
1542908577.195,43.457,61.523,3.418,-32.715,-60.059,0
1542908577.199,42.480,62.500,4.395,-35.645,-63.965,0
1542908577.203,47.852,51.270,2.441,-30.762,-98.633,0
1542908577.206,53.711,48.828,10.254,-30.273,-129.395,0
1542908577.210,40.039,50.293,18.066,-44.922,-105.469,0
1542908577.214,27.344,50.293,16.602,-43.457,-62.500,0
1542908577.218,32.715,54.199,7.812,-45.410,-52.246,0
1542908577.222,32.227,49.805,6.836,-50.781,-62.988,0
1542908577.226,31.250,45.410,10.742,-36.133,-63.965,0
1542908577.230,38.086,54.688,12.695,-37.109,-55.664,0
1542908577.234,35.645,52.734,9.277,-56.641,-91.309,0
1542908577.238,37.598,31.250,9.277,-54.688,-130.371,0
1542908577.242,39.062,29.297,13.184,-61.523,-42.480,0
1542908577.246,15.625,46.387,13.184,-57.129,19.043,0
1542908577.249,5.371,54.688,14.160,-51.270,-39.551,0
1542908577.253,20.996,51.758,19.043,-56.641,-66.895,0
1542908577.257,25.391,43.945,17.090,-51.758,-15.137,0
1542908577.261,20.020,44.922,16.113,-37.598,2.441,0
1542908577.265,18.555,49.805,23.438,-37.598,-19.531,0
1542908577.269,13.672,44.434,21.973,-47.852,20.508,0
1542908577.273,11.719,33.203,15.625,-47.363,66.406,0
1542908577.277,12.695,31.738,20.020,-45.898,61.035,0
1542908577.281,8.301,36.621,22.949,-49.316,26.367,0
1542908577.285,14.648,43.457,23.438,-58.105,30.273,0
1542908577.289,20.020,49.805,25.879,-58.594,84.473,0
1542908577.292,17.090,47.852,20.508,-53.223,62.988,0
1542908577.296,29.785,36.621,15.137,-56.152,33.691,0
1542908577.300,36.621,28.809,22.461,-54.688,26.367,0
1542908577.304,14.160,38.574,25.879,-50.781,13.672,0
1542908577.308,7.812,46.875,22.949,-58.105,22.461,0
1542908577.312,11.719,42.480,27.344,-62.500,15.137,0
1542908577.316,6.836,41.504,25.879,-58.594,-14.648,0
1542908577.320,4.883,39.062,20.508,-60.059,25.879,0
1542908577.324,10.254,40.527,19.043,-64.453,-20.020,0
1542908577.328,22.949,41.016,24.902,-56.641,-61.523,0
1542908577.331,6.836,33.691,23.926,-54.199,-32.715,0
1542908577.335,-9.277,36.621,18.555,-67.383,-52.734,0
1542908577.339,-1.465,36.133,22.461,-69.824,-13.184,0
1542908577.343,3.906,34.668,23.438,-69.336,52.246,0
1542908577.347,3.906,37.598,19.043,-68.848,65.918,0
1542908577.351,19.531,41.504,22.949,-56.641,23.438,0
1542908577.355,40.039,42.480,18.555,-35.645,-35.645,0
1542908577.359,39.062,31.250,14.648,-31.738,7.812,0
1542908577.363,15.625,24.902,31.250,-42.969,40.527,0
1542908577.367,31.738,33.691,47.852,-18.555,50.293,0
1542908577.371,75.195,29.785,52.246,20.020,28.320,0
1542908577.374,79.590,13.672,56.641,41.016,-3.906,0
1542908577.378,78.613,12.695,67.383,47.852,32.227,0
1542908577.382,94.238,11.719,75.684,69.336,80.078,0
1542908577.386,116.211,7.324,84.961,86.426,28.809,0
1542908577.390,139.648,5.859,91.309,100.586,30.273,0
1542908577.394,142.578,8.301,93.750,112.305,72.266,0
1542908577.398,145.508,18.555,97.656,123.047,31.250,0
1542908577.402,172.852,29.297,96.191,131.836,33.203,0
1542908577.406,179.688,23.926,94.238,135.254,79.590,0
1542908577.410,170.410,18.066,89.355,142.578,70.312,0
1542908577.414,173.340,23.926,77.148,126.953,54.199,0
1542908577.417,159.180,29.785,66.406,100.586,73.242,0
1542908577.421,143.066,28.809,68.359,92.773,24.414,0
1542908577.425,136.230,17.090,71.777,89.355,-12.695,0
1542908577.429,131.348,20.996,67.383,83.008,7.812,0
1542908577.433,129.395,30.762,64.453,84.473,45.898,0
1542908577.437,129.395,27.832,61.523,79.102,41.992,0
1542908577.441,122.559,27.832,57.129,72.754,23.438,0
1542908577.445,119.141,35.156,58.105,69.336,47.363,0
1542908577.449,119.629,38.574,53.711,59.570,34.668,0
1542908577.453,114.258,35.645,46.875,41.504,29.785,0
1542908577.456,118.652,34.180,45.410,37.598,33.691,0
1542908577.460,122.559,30.762,40.039,38.574,44.922,0
1542908577.464,102.539,36.133,38.574,24.414,60.547,0
1542908577.468,85.449,43.457,43.457,27.832,40.039,0
1542908577.472,89.844,39.551,42.480,31.738,39.551,0
1542908577.476,86.914,41.016,41.016,26.855,51.758,0
1542908577.480,81.055,41.504,40.527,23.438,-4.883,0
1542908577.484,78.125,43.457,39.062,17.578,-0.488,0
1542908577.488,71.777,41.016,36.133,17.578,27.832,0
1542908577.492,70.312,27.344,33.203,22.949,-5.371,0
1542908577.496,70.801,25.879,34.180,22.461,-6.348,0
1542908577.499,69.336,45.898,29.785,21.973,19.531,0
1542908577.503,66.895,55.176,24.414,17.090,55.176,0
1542908577.507,67.871,47.363,27.832,27.832,60.059,0
1542908577.511,76.172,48.828,25.391,32.227,0.977,0
1542908577.515,82.031,54.688,15.625,14.160,-23.926,0
1542908577.519,76.172,57.617,21.973,15.137,-31.738,0
1542908577.523,62.500,52.246,22.461,13.184,-0.488,0
1542908577.527,55.664,37.598,14.160,8.301,24.414,0
1542908577.531,57.617,41.992,12.695,2.930,27.344,0
1542908577.535,61.035,51.270,16.602,-3.906,57.617,0
1542908577.539,54.688,48.340,17.090,-7.324,75.195,0
1542908577.542,51.758,45.898,13.672,-3.906,62.012,0
1542908577.546,46.875,48.340,16.602,1.465,41.016,0
1542908577.550,48.340,52.246,15.137,-0.977,14.648,0
1542908577.554,56.152,57.129,11.719,-3.418,16.113,0
1542908577.558,59.082,50.781,17.090,-3.418,50.293,0
1542908577.562,59.570,38.086,17.578,-5.371,71.777,0
1542908577.566,60.059,48.340,14.648,1.953,47.363,0
1542908577.570,63.965,62.988,12.695,-8.789,6.348,0
1542908577.574,57.129,59.570,12.695,-20.020,5.859,0
1542908577.578,48.828,49.316,15.625,-16.113,92.285,0
1542908577.581,57.129,55.176,20.996,-15.625,64.453,0
1542908577.585,58.594,55.176,18.555,-21.484,48.340,0
1542908577.589,45.898,45.410,12.207,-24.414,82.520,0
1542908577.593,36.133,43.945,10.742,-21.973,56.152,0
1542908577.597,39.551,46.387,12.695,-22.461,20.996,0
1542908577.601,46.387,49.805,19.043,-19.531,23.926,0
1542908577.605,50.781,45.898,20.020,-12.207,45.410,0
1542908577.609,47.852,43.945,18.066,-13.184,17.578,0
1542908577.613,40.039,42.969,16.602,-15.625,32.715,0
1542908577.617,45.410,46.387,16.113,-18.066,34.668,0
1542908577.621,47.852,52.734,21.484,-22.949,10.742,0
1542908577.624,43.945,49.316,24.414,-19.043,19.043,0
1542908577.628,41.504,39.551,22.949,-18.066,49.316,0
1542908577.632,33.691,40.527,23.926,-26.367,52.246,0
1542908577.636,38.574,49.316,20.996,-30.762,-6.348,0
1542908577.640,48.340,43.457,18.555,-22.461,-12.695,0
1542908577.644,51.758,39.062,18.066,-20.508,-15.625,0
1542908577.648,54.688,47.852,23.438,-19.531,0.977,0
1542908577.652,65.430,40.527,32.227,0.488,-2.930,0
1542908577.656,84.961,24.902,28.320,18.066,-30.762,0
1542908577.660,86.426,36.133,12.207,-0.977,56.152,0
1542908577.664,59.570,52.246,0.000,-34.668,43.945,0
1542908577.667,6.348,55.176,-7.812,-75.195,-3.906,0
1542908577.671,-39.551,61.523,-15.137,-111.816,60.059,0
1542908577.675,-68.848,67.383,-25.391,-145.996,98.145,0
1542908577.679,-103.516,69.336,-41.504,-188.965,85.938,0
1542908577.683,-137.695,74.707,-54.199,-229.980,103.516,0
1542908577.687,-148.438,77.637,-58.594,-255.859,57.129,0
1542908577.691,-162.598,76.660,-69.824,-280.273,32.715,0
1542908577.695,-185.059,71.289,-79.590,-305.176,58.105,0
1542908577.699,-178.711,80.078,-81.055,-296.875,91.797,0
1542908577.703,-167.480,81.543,-75.195,-278.320,88.867,0
1542908577.706,-157.227,72.754,-63.477,-259.277,55.664,0
1542908577.710,-135.742,70.312,-60.547,-239.258,7.324,0
1542908577.714,-112.305,72.754,-57.617,-224.121,77.637,0
1542908577.718,-88.867,78.613,-54.688,-203.125,99.121,0
1542908577.722,-72.754,74.219,-49.316,-184.570,57.129,0
1542908577.726,-60.547,54.688,-40.527,-168.945,105.957,0
1542908577.730,-44.434,52.246,-37.598,-150.879,112.793,0
1542908577.734,-33.203,73.242,-38.574,-141.113,81.055,0
1542908577.738,-23.926,79.590,-34.180,-129.395,57.129,0
1542908577.742,-21.484,64.941,-30.273,-125.488,79.590,0
1542908577.746,-28.809,52.246,-27.832,-113.281,128.418,0
1542908577.749,-14.160,62.012,-24.902,-103.027,110.840,0
1542908577.753,-13.672,75.684,-30.762,-105.957,109.863,0
1542908577.757,-28.320,62.988,-31.250,-100.098,144.043,0
1542908577.761,-25.879,49.316,-24.902,-97.168,158.691,0
1542908577.765,-20.020,75.195,-16.602,-83.496,158.691,0
1542908577.769,-8.789,111.328,-11.230,-74.707,152.832,0
1542908577.773,-10.742,84.961,-10.254,-79.102,190.918,0
1542908577.777,-8.789,36.133,-5.371,-76.660,210.449,0
1542908577.781,1.953,63.965,-3.418,-69.336,182.617,0
1542908577.785,9.766,94.238,-7.812,-62.988,153.809,0
1542908577.789,4.395,47.363,-5.859,-70.312,130.371,0
1542908577.792,3.418,-99.121,-2.930,-74.219,59.082,0
1542908577.796,4.395,-88.867,-3.418,-72.754,-36.133,0
1542908577.800,8.301,18.066,4.883,-67.871,-37.598,0
1542908577.804,1.953,-94.238,9.766,-67.383,-3.418,0
1542908577.808,-5.371,-222.168,6.348,-70.801,-33.691,0
1542908577.812,-5.859,-317.383,6.836,-76.172,-49.805,0
1542908577.816,-0.977,-344.727,8.789,-63.965,-61.035,0
1542908577.820,1.465,-365.723,7.812,-51.270,-81.055,0
1542908577.824,1.953,-411.133,7.324,-59.570,-54.688,0
1542908577.828,12.207,-625.000,6.348,-68.848,-46.875,0
1542908577.831,9.277,-960.938,7.812,-65.918,-20.020,0
1542908577.835,3.906,-978.516,11.719,-54.688,-34.668,0
1542908577.839,8.789,-965.820,15.625,-57.129,-23.438,0
1542908577.843,13.184,-956.055,15.625,-53.711,-45.410,0
1542908577.847,22.949,-958.984,13.672,-48.828,-55.176,0
1542908577.851,34.180,-952.148,10.254,-67.871,15.625,0
1542908577.855,19.043,137.695,11.719,-52.246,40.527,0
1542908577.859,12.695,-923.828,20.508,-28.320,99.121,0
1542908577.863,22.461,966.309,23.926,-28.320,168.945,0
1542908577.867,25.879,986.328,23.438,-21.484,220.703,0
1542908577.871,8.789,-997.070,15.137,-54.199,256.836,0
1542908577.874,-12.207,999.512,7.324,-82.031,306.641,0
1542908577.878,-15.137,999.512,10.742,-62.988,316.895,0
1542908577.882,0.000,999.512,16.602,-68.848,324.219,0
1542908577.886,-0.488,999.512,7.324,-66.406,332.520,0
1542908577.890,-13.672,999.512,-2.441,-61.035,327.148,0
1542908577.894,10.742,999.512,2.441,-64.453,349.609,0
1542908577.898,30.273,999.512,9.277,-67.383,308.105,0
1542908577.902,29.785,999.512,12.207,-77.148,243.164,0
1542908577.906,32.715,999.512,12.207,-76.660,212.402,0
1542908577.910,20.508,999.512,12.207,-80.078,213.379,0
1542908577.914,20.020,999.512,10.742,-62.012,196.777,0
1542908577.917,15.137,999.512,12.695,-41.504,187.988,0
1542908577.921,0.977,999.512,13.672,-59.082,199.707,0
1542908577.925,9.766,-998.047,11.719,-55.176,176.758,0
1542908577.929,19.043,994.141,16.113,-36.133,171.875,0
1542908577.933,29.785,955.078,17.090,-34.668,187.988,0
1542908577.937,29.297,-923.828,14.160,-40.039,177.246,0
1542908577.941,25.391,186.035,9.766,-41.992,167.969,0
1542908577.945,21.973,-993.652,9.766,-43.945,126.465,0
1542908577.949,23.438,-968.262,12.695,-40.039,62.988,0
1542908577.953,20.508,-944.336,11.230,-40.527,-9.766,0
1542908577.956,17.578,-980.957,8.301,-48.340,-73.242,0
1542908577.960,33.203,-973.145,6.348,-26.855,-94.238,0
1542908577.964,18.555,-973.145,11.230,-24.414,-145.020,0
1542908577.968,18.555,-973.145,15.137,-41.992,-188.965,0
1542908577.972,54.688,-972.656,8.301,-43.457,-216.309,0
1542908577.976,47.852,-972.656,7.812,-47.852,-244.629,0
1542908577.980,28.320,-973.145,10.254,-42.480,-209.961,0
1542908577.984,28.320,-973.145,12.207,-40.039,-211.426,0
1542908577.988,23.926,-973.145,12.207,-44.434,-236.328,0
1542908577.992,34.180,-973.145,14.160,-40.039,-215.332,0
1542908577.996,39.551,-973.145,13.672,-42.480,-162.109,0
1542908577.999,28.320,-973.145,8.301,-55.176,-116.699,0
1542908578.003,31.250,-973.145,11.719,-51.758,-147.949,0
1542908578.007,34.668,-973.145,19.531,-31.738,-146.973,0
1542908578.011,28.320,-973.145,23.926,-32.715,-134.277,0
1542908578.015,27.344,-973.145,20.996,-43.945,-125.977,0
1542908578.019,36.621,-973.145,19.043,-46.387,-73.242,0
1542908578.023,40.527,-973.145,23.438,-45.898,-73.730,0
1542908578.027,29.785,-973.145,22.949,-52.734,-88.379,0
1542908578.031,34.668,-973.145,17.090,-48.828,-100.586,0
1542908578.035,30.273,-973.145,18.555,-45.898,-91.309,0
1542908578.039,32.227,-973.145,23.926,-46.387,-50.293,0
1542908578.042,47.852,-973.145,25.879,-25.879,-34.668,0
1542908578.046,45.410,-972.656,34.180,-14.160,-11.719,0
1542908578.050,37.598,-973.145,30.273,-42.969,-7.324,0
1542908578.054,36.133,-973.145,26.367,-50.781,-27.832,0
1542908578.058,25.879,-973.145,35.645,-39.551,-39.551,0
1542908578.062,28.320,-973.145,34.668,-37.109,-49.805,0
1542908578.066,38.574,-973.145,33.203,-27.344,-43.945,0
1542908578.070,34.668,-973.145,35.156,-26.367,-23.926,0
1542908578.074,25.879,-973.145,39.062,-32.227,-0.488,0
1542908578.078,37.598,-973.145,37.598,-24.902,-50.293,0
1542908578.081,57.129,-973.145,28.320,-27.832,-76.660,0
1542908578.085,60.059,-973.145,21.973,-40.039,-37.109,0
1542908578.089,44.922,-977.051,23.438,-38.574,4.883,0
1542908578.093,51.758,-942.383,30.762,-29.785,75.195,0
1542908578.097,60.059,-994.629,31.738,-26.855,101.562,0
1542908578.101,36.133,-791.016,33.691,-31.738,96.680,0
1542908578.105,37.109,338.867,36.621,-28.809,127.930,0
1542908578.109,36.133,-947.754,32.715,-29.785,132.812,0
1542908578.113,40.527,968.750,26.855,-24.902,163.574,0
1542908578.117,62.500,990.723,24.414,-2.441,278.320,0
1542908578.121,42.969,-997.559,35.645,-20.508,363.770,0
1542908578.124,16.113,999.512,41.992,-57.129,444.336,0
1542908578.128,27.832,999.512,44.922,-45.410,555.664,0
1542908578.132,26.855,999.512,49.316,-27.832,688.965,0
1542908578.136,21.973,999.512,47.363,-35.645,795.898,0
1542908578.140,18.066,999.512,45.898,-48.828,849.609,0
1542908578.144,24.902,999.512,50.293,-51.758,917.969,0
1542908578.148,28.809,999.512,43.945,-42.969,970.215,0
1542908578.152,15.137,999.512,35.156,-43.945,-999.023,0
1542908578.156,23.438,999.512,39.551,-43.457,998.047,0
1542908578.160,24.902,999.512,34.668,-39.062,999.023,0
1542908578.164,9.277,999.512,31.250,-40.039,999.512,0
1542908578.167,6.836,999.512,32.715,-47.363,999.512,0
1542908578.171,13.184,999.512,34.668,-58.594,999.512,0
1542908578.175,18.066,999.512,36.621,-45.410,999.512,0
1542908578.179,20.020,999.512,34.668,-37.598,999.512,0
1542908578.183,24.902,999.512,32.227,-34.668,999.512,0
1542908578.187,14.160,999.512,25.879,-37.109,999.512,0
1542908578.191,9.766,999.512,26.367,-36.133,999.512,0
1542908578.195,18.066,999.512,26.855,-31.250,999.512,0
1542908578.199,20.508,999.512,23.926,-35.156,999.512,0
1542908578.203,22.949,999.512,21.973,-36.621,999.512,0
1542908578.206,31.250,999.512,20.996,-41.016,999.512,0
1542908578.210,28.320,999.512,20.020,-43.945,999.512,0
1542908578.214,14.160,999.512,19.531,-50.293,999.512,0
1542908578.218,2.930,999.512,21.973,-52.246,996.094,0
1542908578.222,11.719,999.512,24.414,-47.852,-995.605,0
1542908578.226,8.789,999.512,20.508,-48.828,963.867,0
1542908578.230,0.000,999.512,20.020,-50.293,872.070,0
1542908578.234,11.230,999.512,28.809,-48.340,833.984,0
1542908578.238,12.207,999.512,29.297,-46.387,772.461,0
1542908578.242,11.719,999.512,22.949,-45.898,700.684,0
1542908578.246,14.160,999.512,19.043,-41.016,681.152,0
1542908578.249,13.184,999.512,21.973,-36.133,657.715,0
1542908578.253,23.438,999.512,19.043,-47.363,579.590,0
1542908578.257,40.527,999.512,17.090,-49.805,514.648,0
1542908578.261,30.762,999.512,24.414,-42.969,474.121,0
1542908578.265,27.344,999.512,28.809,-50.781,432.129,0
1542908578.269,33.203,999.512,25.879,-51.270,417.969,0
1542908578.273,17.578,999.512,24.414,-42.969,382.324,0
1542908578.277,14.648,999.512,23.926,-50.293,329.590,0
1542908578.281,22.949,999.512,21.973,-63.477,263.672,0
1542908578.285,23.926,999.512,21.484,-49.805,200.195,0
1542908578.289,21.484,999.512,28.320,-33.691,123.047,0
1542908578.292,22.461,999.512,28.320,-38.574,68.848,0
1542908578.296,36.133,999.512,24.902,-35.645,25.391,0
1542908578.300,45.898,999.512,25.391,-36.133,-42.480,0
1542908578.304,38.086,999.512,23.438,-39.062,-133.789,0
1542908578.308,31.738,999.512,20.020,-36.621,-197.754,0
1542908578.312,25.391,999.512,22.949,-31.738,-227.051,0
1542908578.316,27.344,-999.023,27.832,-30.273,-273.438,0
1542908578.320,29.785,993.652,34.180,-37.598,-303.223,0
1542908578.324,35.156,987.793,32.715,-34.180,-316.406,0
1542908578.328,40.527,-957.520,30.273,-27.832,-315.918,0
1542908578.331,37.109,540.039,27.832,-20.508,-301.758,0
1542908578.335,31.250,420.898,25.391,-27.344,-291.992,0
1542908578.339,34.180,537.598,23.926,-30.762,-281.738,0
1542908578.343,36.621,-523.926,20.996,-37.598,-293.457,0
1542908578.347,36.133,-1000.000,19.531,-40.527,-315.430,0
1542908578.351,38.574,-936.035,20.020,-29.297,-301.758,0
1542908578.355,32.715,-972.168,19.531,-42.480,-293.945,0
1542908578.359,37.109,-974.121,20.996,-41.504,-292.480,0
1542908578.363,47.363,-973.145,25.879,-37.598,-290.527,0
1542908578.367,39.062,-973.145,30.762,-46.387,-290.527,0
1542908578.371,18.555,-973.145,33.203,-47.363,-247.070,0
1542908578.374,20.020,-973.145,31.250,-39.062,-237.793,0
1542908578.378,31.738,-973.145,32.715,-30.762,-222.656,0
1542908578.382,37.598,-973.145,40.039,-20.020,-211.914,0
1542908578.386,40.039,-973.145,35.645,-27.344,-236.816,0
1542908578.390,28.809,-973.145,19.531,-49.805,-252.930,0
1542908578.394,20.996,-973.145,12.695,-52.246,-267.090,0
1542908578.398,35.156,-973.145,7.812,-41.992,-231.445,0
1542908578.402,44.922,-973.145,12.207,-35.645,-215.820,0
1542908578.406,39.062,-973.145,13.672,-47.363,-249.023,0
1542908578.410,42.969,-973.145,5.371,-54.688,-247.559,0
1542908578.414,37.598,-973.145,2.930,-54.688,-210.938,0
1542908578.417,26.367,-973.145,3.906,-54.199,-172.852,0
1542908578.421,23.926,-973.145,5.859,-43.457,-201.660,0
1542908578.425,29.785,-973.145,6.348,-37.598,-210.449,0
1542908578.429,40.527,-973.145,-0.488,-49.316,-174.805,0
1542908578.433,41.016,-973.145,3.418,-50.781,-141.602,0
1542908578.437,23.438,-973.145,12.207,-37.598,-135.742,0
1542908578.441,25.879,-973.145,8.789,-49.316,-136.719,0
1542908578.445,50.781,-973.145,1.953,-50.781,-106.445,0
1542908578.449,47.852,-973.145,-1.465,-36.133,-76.172,0
1542908578.453,36.621,-973.145,10.254,-29.785,-88.867,0
1542908578.456,32.715,-973.145,12.207,-58.594,-91.309,0
1542908578.460,38.574,-973.145,0.977,-54.199,-66.406,0
1542908578.464,39.062,-973.145,8.789,-29.297,-66.895,0
1542908578.468,42.480,-973.145,9.766,-37.109,-70.312,0
1542908578.472,48.828,-973.145,3.906,-41.504,-75.195,0
1542908578.476,41.504,-973.145,6.836,-44.434,-101.074,0
1542908578.480,32.715,-973.145,12.207,-45.898,-122.070,0
1542908578.484,35.156,-973.145,17.578,-41.504,-95.215,0
1542908578.488,23.438,-973.145,19.531,-48.340,-134.766,0
1542908578.492,22.949,-973.145,17.578,-37.109,-187.988,0
1542908578.496,41.016,-973.145,17.578,-30.762,-178.711,0
1542908578.499,36.133,-973.145,23.438,-42.480,-191.406,0
1542908578.503,31.250,-973.145,25.391,-43.945,-200.195,0
1542908578.507,40.527,-973.145,23.438,-33.203,-209.961,0
1542908578.511,39.062,-973.145,15.625,-30.273,-235.840,0
1542908578.515,33.691,-973.145,9.277,-37.109,-252.930,0
1542908578.519,39.551,-973.145,11.719,-41.016,-255.859,0
1542908578.523,30.762,-973.145,11.230,-33.691,-247.559,0
1542908578.527,37.598,-973.145,12.207,-30.273,-276.367,0
1542908578.531,48.828,-973.145,22.461,-30.762,-312.500,0
1542908578.535,46.875,-973.145,24.902,-30.273,-319.336,0
1542908578.539,41.992,-973.145,17.578,-35.156,-321.289,0
1542908578.542,29.785,-973.145,19.531,-37.598,-333.496,0
1542908578.546,46.387,-973.145,20.020,-35.156,-354.492,0
1542908578.550,61.523,-973.145,15.625,-36.133,-342.773,0
1542908578.554,47.363,-973.145,12.207,-42.969,-332.520,0
1542908578.558,40.527,-973.145,16.602,-34.180,-371.582,0
1542908578.562,45.898,-973.145,18.555,-33.203,-379.395,0
1542908578.566,33.203,-973.145,12.207,-39.062,-382.812,0
1542908578.570,34.668,-973.145,10.742,-38.574,-433.105,0
1542908578.574,53.711,-973.145,13.184,-41.016,-455.078,0
1542908578.578,63.477,-973.145,18.555,-24.902,-464.355,0
1542908578.581,46.875,-973.145,24.902,-21.484,-491.699,0
1542908578.585,36.133,-973.145,20.020,-26.367,-513.672,0
1542908578.589,43.945,-973.145,15.137,-34.180,-579.590,0
1542908578.593,42.480,-973.145,15.137,-38.574,-574.219,0
1542908578.597,29.297,-973.145,19.531,-40.527,-546.387,0
1542908578.601,27.832,-973.145,29.785,-38.574,-596.680,0
1542908578.605,32.715,-973.145,29.297,-36.133,-604.980,0
1542908578.609,23.926,-973.145,26.367,-57.129,-620.605,0
1542908578.613,39.551,-973.145,29.297,-37.598,-645.508,0
1542908578.617,33.203,-973.145,22.949,-30.273,-583.496,0
1542908578.621,9.766,-973.145,19.531,-47.363,-570.312,0
1542908578.624,24.902,-973.145,26.367,-32.715,-595.215,0
1542908578.628,43.457,-973.145,22.461,-20.996,-573.730,0
1542908578.632,42.480,-973.145,14.160,-27.832,-519.531,0
1542908578.636,41.992,-973.145,14.648,-25.879,-469.727,0
1542908578.640,40.527,-973.145,13.184,-19.043,-420.410,0
1542908578.644,34.180,-973.145,18.555,-35.156,-374.023,0
1542908578.648,34.180,-973.145,24.414,-50.293,-378.418,0
1542908578.652,37.109,-973.145,16.602,-38.086,-390.625,0
1542908578.656,38.086,-973.145,18.066,-30.273,-350.098,0
1542908578.660,47.363,-973.145,13.672,-31.738,-332.031,0
1542908578.664,56.152,-973.145,14.648,-29.297,-294.922,0
1542908578.667,43.945,-973.145,18.555,-31.738,-244.141,0
1542908578.671,27.832,-973.145,14.648,-35.645,-223.145,0
1542908578.675,17.090,-973.145,17.578,-39.551,-205.566,0
1542908578.679,55.176,-973.145,17.090,-12.695,-185.059,0
1542908578.683,72.266,-973.145,11.230,-4.883,-166.992,0
1542908578.687,55.664,-973.145,24.902,-24.414,-243.164,0
1542908578.691,49.316,-973.145,37.598,-41.992,-228.516,0
1542908578.695,34.668,-973.145,36.621,-39.551,-144.043,0
1542908578.699,24.902,-973.145,48.828,-35.645,-128.418,0
1542908578.703,19.531,-973.145,52.246,-36.621,-120.605,0
1542908578.706,30.762,-973.145,47.852,-34.180,-135.254,0
1542908578.710,36.621,-973.145,47.363,-36.133,-121.094,0
1542908578.714,59.082,-973.145,43.457,-41.504,-54.199,0
1542908578.718,48.828,-973.145,39.551,-46.387,-29.785,0
1542908578.722,23.926,-973.145,37.598,-41.016,-9.766,0
1542908578.726,25.879,-973.145,36.621,-44.922,-30.762,0
1542908578.730,40.039,-973.145,36.621,-29.785,-58.594,0
1542908578.734,32.227,-973.145,41.016,-22.461,-6.836,0
1542908578.738,34.180,-973.145,38.086,-34.180,4.395,0
1542908578.742,28.809,-972.656,32.227,-25.879,-37.109,0
1542908578.746,27.832,-973.145,33.203,-20.996,-45.410,0
1542908578.749,43.457,-973.145,27.832,-23.926,-33.691,0
1542908578.753,41.992,-973.145,36.133,-19.531,-37.109,0
1542908578.757,53.223,-973.145,41.992,-22.461,5.371,0
1542908578.761,49.805,-973.145,44.434,-24.902,26.367,0
1542908578.765,57.129,-973.145,44.434,-17.090,-44.434,0
1542908578.769,68.359,-973.145,32.227,-23.926,-44.434,0
1542908578.773,43.457,-973.145,19.043,-31.250,-13.184,0
1542908578.777,24.414,-973.145,21.973,-36.621,8.789,0
1542908578.781,40.527,-973.145,35.156,-29.785,-0.977,0
1542908578.785,45.898,-973.145,40.039,-31.738,-3.906,0
1542908578.789,47.852,-973.145,31.738,-42.480,-2.441,0
1542908578.792,60.547,-973.145,25.879,-31.738,27.832,0
1542908578.796,53.711,-973.145,24.902,-31.738,96.680,0
1542908578.800,43.457,-973.145,31.250,-27.832,50.293,0
1542908578.804,51.758,-972.656,34.668,-11.719,17.090,0
1542908578.808,44.434,-973.145,33.691,-21.484,-30.273,0
1542908578.812,47.852,-973.145,33.691,-36.621,7.324,0
1542908578.816,73.242,-973.145,33.691,-27.832,37.598,0
1542908578.820,57.617,-973.145,35.156,-34.180,-30.273,0
1542908578.824,29.785,-973.145,30.762,-40.039,-48.340,0
1542908578.828,38.574,-973.145,29.785,-27.344,-22.461,0
1542908578.831,65.430,-972.656,28.809,-31.738,-15.625,0
1542908578.835,62.012,-973.145,31.738,-32.715,-37.598,0
1542908578.839,31.738,-973.145,32.227,-36.621,-12.207,0
1542908578.843,37.109,-973.145,25.391,-29.785,-7.812,0
1542908578.847,35.156,-973.145,19.531,-37.109,5.371,0
1542908578.851,28.320,-972.656,24.414,-43.945,39.062,0
1542908578.855,28.320,-973.145,22.461,-33.203,-18.066,0
1542908578.859,24.414,-973.145,18.555,-48.828,-115.234,0
1542908578.863,36.133,-973.145,20.020,-70.801,-67.871,0
1542908578.867,38.574,-973.145,14.160,-62.500,3.906,0
1542908578.871,36.133,-973.145,19.531,-39.062,-3.906,0
1542908578.874,39.062,-973.145,16.602,-49.316,-35.645,0
1542908578.878,45.410,-973.145,7.324,-42.480,-67.871,0
1542908578.882,32.715,-973.145,13.672,-22.949,-37.109,0
1542908578.886,47.852,-973.145,13.672,-33.203,0.977,0
1542908578.890,51.270,-973.145,10.742,-29.297,-19.531,0
1542908578.894,41.992,-973.145,10.742,-13.672,-62.500,0
1542908578.898,41.504,-973.145,14.648,-34.180,-37.598,0
1542908578.902,53.711,-973.145,17.090,-52.734,-23.438,0
1542908578.906,62.500,-973.145,13.672,-37.598,10.254,0
1542908578.910,40.039,-973.145,15.137,-47.852,46.875,0
1542908578.914,42.480,-973.145,20.996,-47.363,17.090,0
1542908578.917,46.875,-973.145,26.367,-32.227,-10.742,0
1542908578.921,27.344,-973.145,24.414,-38.086,-14.648,0
1542908578.925,8.301,-973.145,9.766,-58.594,9.766,0
1542908578.929,7.324,-973.145,5.859,-73.730,41.016,0
1542908578.933,25.391,-973.145,15.625,-59.570,39.551,0
1542908578.937,20.020,-973.145,9.766,-63.477,-27.832,0
1542908578.941,26.855,-972.656,4.883,-78.125,-53.711,0
1542908578.945,26.855,-973.145,11.719,-65.918,-22.461,0
1542908578.949,18.555,-973.145,8.789,-69.824,10.742,0
1542908578.953,31.250,-973.145,6.348,-60.059,25.391,0
1542908578.956,35.156,-973.145,4.395,-52.734,2.441,0
1542908578.960,18.555,-973.145,7.324,-63.965,-26.367,0
1542908578.964,20.996,-973.145,10.254,-47.852,-19.043,0
1542908578.968,32.227,-973.145,10.742,-46.387,21.973,0
1542908578.972,27.832,-973.145,8.789,-62.988,59.082,0
1542908578.976,27.344,-973.145,8.789,-64.453,7.324,0
1542908578.980,16.113,-973.145,15.625,-61.523,-23.926,0
1542908578.984,20.996,-973.145,13.184,-57.129,73.730,0
1542908578.988,32.227,-973.145,9.277,-59.082,39.551,0
1542908578.992,30.762,-973.145,8.789,-59.570,11.230,0
1542908578.996,28.809,-973.145,5.371,-58.594,37.598,0
1542908578.999,20.508,-973.145,8.301,-63.965,48.340,0
1542908579.003,17.578,-973.145,11.230,-53.711,39.062,0
1542908579.007,27.832,-973.145,7.812,-53.711,5.371,0
1542908579.011,34.180,-973.145,7.324,-67.383,-1.953,0
1542908579.015,29.785,-973.145,6.836,-63.477,46.875,0
1542908579.019,9.766,-973.145,11.230,-61.523,133.789,0
1542908579.023,-6.836,-973.145,15.137,-64.941,155.273,0
1542908579.027,7.324,-973.145,20.020,-58.594,71.289,0
1542908579.031,21.973,-973.145,16.113,-56.152,25.391,0
1542908579.035,20.996,-973.145,11.230,-53.711,87.891,0
1542908579.039,17.090,-973.145,10.742,-65.430,101.562,0
1542908579.042,13.672,-973.145,10.742,-70.312,53.223,0
1542908579.046,16.602,-973.145,13.672,-62.012,9.766,0
1542908579.050,23.438,-973.145,20.508,-52.734,33.203,0
1542908579.054,2.930,-973.145,22.949,-59.570,10.742,0
1542908579.058,-0.977,-973.145,19.531,-77.637,-19.531,0
1542908579.062,21.484,-973.145,19.043,-69.336,29.297,0
1542908579.066,8.301,-973.145,21.973,-60.547,51.758,0
1542908579.070,29.297,-975.098,13.672,-62.988,21.973,0
1542908579.074,57.617,-967.773,0.000,-46.387,20.996,0
1542908579.078,25.879,-936.035,8.301,-51.758,72.754,0
1542908579.081,5.371,-1000.000,24.902,-78.125,89.355,0
1542908579.085,18.555,-333.008,35.645,-62.988,121.582,0
1542908579.089,40.527,764.160,47.363,-19.043,79.102,0
1542908579.093,57.617,748.047,55.176,3.418,81.543,0
1542908579.097,63.965,413.574,63.477,20.996,147.949,0
1542908579.101,87.891,717.285,71.777,48.340,116.699,0
1542908579.105,106.934,-959.961,75.195,56.152,90.820,0
1542908579.109,107.910,985.352,79.590,59.570,67.383,0
1542908579.113,122.070,994.141,85.449,66.406,59.570,0
1542908579.117,134.766,998.535,91.309,68.848,80.566,0
1542908579.121,118.652,-1000.000,87.402,66.406,62.500,0
1542908579.124,121.582,999.023,79.102,69.336,34.668,0
1542908579.128,115.723,999.512,71.777,64.453,52.734,0
1542908579.132,106.445,999.512,71.777,49.316,67.871,0
1542908579.136,109.863,999.512,73.730,41.016,39.062,0
1542908579.140,103.027,999.512,71.777,41.504,57.617,0
1542908579.144,108.887,999.512,67.871,44.922,75.195,0
1542908579.148,109.375,999.512,63.477,42.969,10.254,0
1542908579.152,96.191,999.512,60.547,32.715,-7.812,0
1542908579.156,80.078,999.512,60.547,22.949,62.012,0
1542908579.160,72.266,999.512,61.523,24.414,51.758,0
1542908579.164,69.336,999.512,57.617,21.973,26.855,0
1542908579.167,73.242,999.512,53.711,16.113,62.988,0
1542908579.171,78.613,999.512,55.176,10.254,-1.465,0
1542908579.175,69.824,999.512,55.664,1.953,23.438,0
1542908579.179,86.914,999.512,55.176,4.883,80.078,0
1542908579.183,71.289,999.512,49.316,-12.695,4.883,0
1542908579.187,40.039,999.512,42.480,-28.809,41.504,0
1542908579.191,56.152,999.512,39.062,-22.461,47.363,0
1542908579.195,63.965,999.512,42.480,-19.531,26.855,0
1542908579.199,62.500,999.512,43.945,-22.949,48.828,0
1542908579.203,66.895,999.512,43.457,-19.531,74.707,0
1542908579.206,69.336,999.512,42.969,-20.508,57.129,0
1542908579.210,41.992,999.512,40.039,-34.180,10.254,0
1542908579.214,43.945,999.512,41.992,-27.832,17.578,0
1542908579.218,66.895,999.512,40.527,-17.578,-18.555,0
1542908579.222,48.340,999.512,39.062,-23.438,22.461,0
1542908579.226,62.988,999.512,37.109,-27.344,78.613,0
1542908579.230,33.203,999.512,25.879,-44.434,25.391,0
1542908579.234,39.062,999.512,23.438,-48.828,9.277,0
1542908579.238,68.359,999.512,32.227,-35.156,60.059,0
1542908579.242,52.734,999.512,33.203,-20.020,111.816,0
1542908579.246,81.055,999.512,33.691,-13.184,62.988,0
1542908579.249,77.148,999.512,34.180,-21.484,-8.789,0
1542908579.253,56.641,999.023,36.621,-33.691,32.227,0
1542908579.257,6.836,-1000.000,23.438,-41.016,62.988,0
1542908579.261,-24.902,997.070,22.461,-33.691,2.930,0
1542908579.265,55.176,996.094,39.551,-17.090,24.414,0
1542908579.269,133.789,998.047,33.203,-1.953,55.664,0
1542908579.273,122.070,-993.652,30.273,5.859,98.633,0
1542908579.277,68.848,963.379,26.367,-12.207,119.629,0
1542908579.281,7.812,958.496,17.578,-40.039,28.809,0
1542908579.285,20.996,993.652,21.484,-28.320,13.672,0
1542908579.289,74.707,-981.445,21.973,-1.465,27.344,0
1542908579.292,63.965,882.324,20.996,-16.602,74.219,0
1542908579.296,67.871,538.574,10.254,-30.273,75.195,0
1542908579.300,69.824,665.039,14.160,-13.672,34.668,0
1542908579.304,107.422,-907.227,20.508,-3.906,46.875,0
1542908579.308,64.941,751.465,10.254,-25.879,54.688,0
1542908579.312,81.543,279.785,16.602,-30.762,50.781,0
1542908579.316,108.398,752.441,28.809,-2.930,71.777,0
1542908579.320,-2.930,-958.984,15.137,-34.668,36.133,0
1542908579.324,59.570,985.840,1.465,-48.340,-10.254,0
1542908579.328,56.641,977.051,20.996,-11.230,-7.812,0
1542908579.331,44.434,954.102,22.949,-9.277,55.664,0
1542908579.335,139.648,999.023,16.113,-28.320,76.660,0
1542908579.339,99.121,974.121,20.020,-18.555,44.434,0
1542908579.343,56.152,951.660,16.602,-37.109,56.641,0
1542908579.347,43.457,925.781,12.695,-41.992,74.707,0
1542908579.351,77.637,973.145,18.555,-20.508,74.707,0
1542908579.355,94.238,-991.211,13.184,-27.832,39.551,0
1542908579.359,115.234,981.934,11.719,-18.555,55.176,0
1542908579.363,106.934,860.840,18.555,-16.113,71.289,0
1542908579.367,14.648,872.070,24.414,-29.785,14.648,0
1542908579.371,139.160,990.234,28.320,-26.367,-1.465,0
1542908579.374,249.512,-973.145,21.484,-35.645,82.520,0
1542908579.378,139.160,872.070,16.113,-43.457,10.742,0
1542908579.382,85.938,416.504,22.461,-17.090,-60.059,0
1542908579.386,141.602,614.258,25.879,-0.488,35.645,0
1542908579.390,139.160,-936.523,11.230,-19.531,20.996,0
1542908579.394,86.426,924.316,7.812,-29.297,21.484,0
1542908579.398,91.309,584.473,18.555,-17.578,52.734,0
1542908579.402,147.949,781.738,19.531,-11.719,49.316,0
1542908579.406,153.809,-928.223,14.160,-20.996,36.133,0
1542908579.410,157.227,883.789,22.461,-23.926,67.871,0
1542908579.414,153.320,141.113,33.691,6.348,15.137,0
1542908579.417,127.930,56.152,28.320,13.184,-49.805,0
1542908579.421,82.031,746.582,9.766,-35.645,-33.203,0
1542908579.425,49.805,591.309,-3.906,-85.449,6.836,0
1542908579.429,21.973,-574.707,-5.859,-122.070,27.344,0
1542908579.433,-2.930,-958.984,-18.555,-160.645,22.461,0
1542908579.437,-1.953,-64.941,-29.297,-189.941,54.688,0
1542908579.441,-59.082,-124.023,-34.668,-224.609,25.879,0
1542908579.445,-136.230,-946.777,-53.223,-271.484,27.832,0
1542908579.449,-118.164,-1000.000,-58.594,-284.668,7.324,0
1542908579.453,-112.305,-692.871,-60.547,-292.480,2.930,0
1542908579.456,-155.273,-615.723,-70.801,-300.781,41.504,0
1542908579.460,-120.605,-978.516,-68.359,-288.574,44.434,0
1542908579.464,-67.871,-998.535,-59.570,-270.508,77.637,0
1542908579.468,-84.473,-902.832,-57.617,-255.371,44.434,0
1542908579.472,-56.152,-862.793,-60.059,-231.934,14.160,0
1542908579.476,-22.949,-967.285,-58.105,-208.984,29.785,0
1542908579.480,-47.363,-990.234,-50.781,-194.824,-2.441,0
1542908579.484,-62.500,-937.988,-55.176,-197.266,3.906,0
1542908579.488,-57.129,-894.043,-53.711,-180.664,29.785,0
1542908579.492,-6.836,-970.703,-44.434,-159.668,34.668,0
1542908579.496,20.508,-969.727,-46.875,-163.574,52.734,0
1542908579.499,16.113,-990.234,-37.598,-156.250,-3.906,0
1542908579.503,28.809,-898.926,-32.227,-149.902,-15.625,0
1542908579.507,16.602,-834.961,-33.203,-142.578,34.668,0
1542908579.511,10.254,-957.031,-26.855,-135.742,19.531,0
1542908579.515,33.691,-1000.000,-19.531,-129.395,7.812,0
1542908579.519,32.227,-807.129,-15.137,-117.188,10.742,0
1542908579.523,3.418,-610.352,-15.137,-110.352,26.367,0
1542908579.527,10.254,-846.680,-14.648,-104.980,58.105,0
1542908579.531,32.227,-1000.000,-15.625,-94.238,54.199,0
1542908579.535,30.273,-824.219,-19.043,-102.539,75.195,0
1542908579.539,13.672,378.906,-10.254,-105.957,69.824,0
1542908579.542,2.441,-923.828,-4.395,-96.191,34.668,0
1542908579.546,6.836,956.055,-12.207,-100.586,46.387,0
1542908579.550,33.203,996.582,-10.254,-97.656,32.227,0
1542908579.554,47.363,-998.535,-5.371,-91.797,43.945,0
1542908579.558,35.156,999.512,-2.441,-86.914,86.914,0
1542908579.562,31.250,999.512,-0.488,-81.055,45.410,0
1542908579.566,44.922,999.512,-4.395,-74.707,-1.465,0
1542908579.570,49.316,999.512,-3.906,-73.242,34.668,0
1542908579.574,41.992,999.512,2.930,-79.102,45.898,0
1542908579.578,54.199,999.512,9.766,-72.266,31.738,0
1542908579.581,52.246,999.512,6.836,-71.777,59.082,0
1542908579.585,51.758,999.512,4.883,-63.965,67.871,0
1542908579.589,49.805,999.512,4.395,-63.965,53.223,0
1542908579.593,41.016,999.512,5.371,-74.219,9.766,0
1542908579.597,41.016,999.512,9.277,-72.754,9.277,0
1542908579.601,42.480,999.512,9.766,-70.801,33.203,0
1542908579.605,44.434,999.512,6.836,-70.801,9.277,0
1542908579.609,54.199,999.512,3.906,-61.035,1.953,0
1542908579.613,56.641,999.512,9.766,-59.082,38.574,0
1542908579.617,54.199,999.512,8.789,-67.383,58.105,0
1542908579.621,54.688,999.512,7.812,-66.406,48.340,0
1542908579.624,41.504,999.512,15.625,-72.266,33.691,0
1542908579.628,40.039,999.512,16.113,-74.707,51.758,0
1542908579.632,59.082,999.512,14.648,-62.500,91.797,0
1542908579.636,47.363,999.512,15.137,-62.012,80.566,0
1542908579.640,30.762,999.512,20.508,-58.105,57.129,0
1542908579.644,53.711,999.512,28.809,-38.086,49.805,0
1542908579.648,67.383,999.512,16.602,-45.410,81.543,0
1542908579.652,30.273,999.512,0.000,-82.031,80.566,0
1542908579.656,34.668,999.512,-4.883,-83.496,81.055,0
1542908579.660,51.270,999.512,1.465,-61.035,86.914,0
1542908579.664,42.969,999.512,0.000,-56.152,63.965,0
1542908579.667,38.086,999.512,-1.465,-74.219,37.109,0
1542908579.671,39.062,999.512,3.418,-79.102,55.664,0
1542908579.675,42.480,999.512,8.301,-73.730,84.473,0
1542908579.679,58.594,999.512,8.301,-63.477,64.453,0
1542908579.683,59.082,999.512,10.742,-58.105,46.875,0
1542908579.687,43.945,999.512,22.461,-57.129,-3.906,0
1542908579.691,44.434,999.512,20.508,-59.570,-11.230,0
1542908579.695,53.223,999.512,19.531,-53.711,-8.789,0
1542908579.699,54.199,999.512,21.484,-39.062,-13.672,0
1542908579.703,42.969,999.512,17.090,-45.898,32.715,0
1542908579.706,41.016,999.512,21.973,-42.969,38.086,0
1542908579.710,59.082,999.512,21.973,-35.156,48.340,0
1542908579.714,44.922,999.512,19.043,-55.176,8.789,0
1542908579.718,27.344,999.512,16.113,-61.523,32.227,0
1542908579.722,44.922,999.512,20.020,-56.152,81.543,0
1542908579.726,50.781,999.512,19.531,-51.758,51.270,0
1542908579.730,53.223,999.512,12.207,-43.457,93.262,0
1542908579.734,48.828,999.512,18.066,-41.504,89.844,0
1542908579.738,48.828,999.512,19.043,-32.227,65.430,0
1542908579.742,60.547,999.512,7.812,-43.457,78.125,0
1542908579.746,40.039,999.512,9.766,-48.828,106.934,0
1542908579.749,33.691,999.512,13.672,-36.621,177.734,0
1542908579.753,37.109,999.512,17.090,-42.480,229.492,0
1542908579.757,49.805,999.512,20.508,-48.828,234.375,0
1542908579.761,58.594,999.512,20.508,-40.527,253.418,0
1542908579.765,47.363,999.512,18.066,-45.898,329.102,0
1542908579.769,43.945,999.512,17.578,-45.898,373.047,0
1542908579.773,38.086,999.512,24.902,-53.223,411.621,0
1542908579.777,33.203,999.512,28.809,-66.406,447.266,0
1542908579.781,46.387,999.512,21.484,-44.922,465.820,0
1542908579.785,47.363,999.512,22.461,-23.438,474.609,0
1542908579.789,45.410,999.512,23.438,-24.414,448.730,0
1542908579.792,45.410,999.512,28.320,-39.062,460.938,0
1542908579.796,44.434,999.512,21.973,-43.457,506.348,0
1542908579.800,44.922,999.512,15.625,-38.086,508.789,0
1542908579.804,40.039,999.512,25.879,-40.039,479.492,0
1542908579.808,33.203,999.512,24.414,-34.668,510.742,0
1542908579.812,33.203,999.512,19.043,-31.738,549.316,0
1542908579.816,23.438,999.512,14.648,-34.180,512.207,0
1542908579.820,30.273,999.512,12.207,-37.598,449.707,0
1542908579.824,64.453,999.512,3.906,-20.508,427.734,0
1542908579.828,51.270,999.512,10.254,-20.996,428.223,0
1542908579.831,40.039,999.512,28.809,-39.062,406.738,0
1542908579.835,74.707,999.512,42.480,-12.695,380.371,0
1542908579.839,100.586,999.512,42.969,20.020,379.883,0
1542908579.843,123.047,999.512,41.016,35.156,402.832,0
1542908579.847,153.809,999.512,41.992,49.805,407.715,0
1542908579.851,164.062,999.512,43.945,59.082,402.832,0
1542908579.855,172.363,999.512,49.805,76.660,399.414,0
1542908579.859,160.156,999.512,53.223,94.238,419.922,0
1542908579.863,145.020,999.512,55.176,98.145,394.043,0
1542908579.867,165.039,999.512,48.828,99.609,332.520,0
1542908579.871,177.734,999.512,54.199,109.863,310.547,0
1542908579.874,176.270,999.512,52.734,117.188,276.367,0
1542908579.878,172.852,999.512,49.805,119.629,234.375,0
1542908579.882,176.270,999.512,56.641,117.676,175.293,0
1542908579.886,178.711,999.512,51.270,114.746,98.145,0
1542908579.890,157.715,999.512,48.340,105.469,45.410,0
1542908579.894,131.836,-999.023,51.270,91.309,-11.230,0
1542908579.898,129.395,995.117,49.316,80.566,-106.934,0
1542908579.902,135.742,953.125,48.828,74.219,-166.504,0
1542908579.906,127.930,-906.250,45.898,73.242,-217.285,0
1542908579.910,117.188,263.184,44.434,63.965,-295.410,0
1542908579.914,115.723,-919.434,42.969,57.617,-348.633,0
1542908579.917,117.188,-971.191,43.457,49.805,-373.535,0
1542908579.921,112.305,-946.289,44.434,43.457,-432.129,0
1542908579.925,104.004,-977.539,43.945,44.434,-455.078,0
1542908579.929,97.168,-973.145,44.922,40.039,-433.105,0
1542908579.933,96.191,-973.145,38.574,38.086,-453.125,0
1542908579.937,106.934,-973.145,35.156,33.203,-494.629,0
1542908579.941,97.656,-973.145,35.156,31.250,-470.215,0
1542908579.945,81.543,-973.145,37.109,31.250,-397.949,0
1542908579.949,80.566,-973.145,43.457,29.785,-392.090,0
1542908579.953,85.449,-973.145,39.551,30.273,-396.484,0
1542908579.956,88.867,-973.145,39.551,30.273,-354.004,0
1542908579.960,88.867,-973.145,38.574,25.391,-308.105,0
1542908579.964,92.285,-973.145,34.668,20.508,-297.363,0
1542908579.968,85.938,-973.145,34.180,21.484,-279.297,0
1542908579.972,91.309,-973.145,37.109,27.344,-302.246,0
1542908579.976,88.379,-973.145,39.062,25.391,-267.578,0
1542908579.980,78.125,-973.145,40.527,26.855,-208.496,0
1542908579.984,95.215,-973.145,39.551,19.531,-219.727,0
1542908579.988,88.867,-973.145,35.645,7.324,-195.801,0
1542908579.992,63.477,-973.145,32.715,3.906,-180.176,0
1542908579.996,58.105,-973.145,30.762,-7.812,-142.090,0
1542908579.999,56.641,-973.145,29.785,-18.066,-112.305,0
1542908580.003,55.176,-973.145,33.203,-17.090,-152.344,0
1542908580.007,62.988,-973.145,36.133,-3.418,-126.465,0
1542908580.011,60.547,-973.145,34.668,-1.953,-118.652,0
1542908580.015,49.316,-973.145,34.668,-16.113,-130.859,0
1542908580.019,52.734,-973.145,34.180,-20.996,-90.332,0
1542908580.023,64.453,-973.145,30.273,-15.625,-32.227,0
1542908580.027,66.895,-973.145,25.879,-14.160,-28.320,0
1542908580.031,56.641,-973.145,34.180,-13.184,-11.230,0
1542908580.035,54.199,-973.145,38.086,-5.859,-36.133,0
1542908580.039,47.852,-973.145,30.762,-7.812,-78.613,0
1542908580.042,41.992,-973.145,30.762,-16.602,-59.082,0
1542908580.046,46.875,-973.145,27.832,-19.531,-46.875,0
1542908580.050,48.828,-973.145,25.879,-28.320,-2.441,0
1542908580.054,44.922,-973.145,24.414,-34.668,35.156,0
1542908580.058,45.410,-973.145,22.949,-33.203,-8.301,0
1542908580.062,49.805,-973.145,27.344,-32.227,-14.160,0
1542908580.066,54.688,-973.145,28.809,-32.715,15.137,0
1542908580.070,51.270,-973.145,21.973,-33.203,13.672,0
1542908580.074,51.270,-973.145,22.949,-38.574,-11.719,0
1542908580.078,50.781,-973.145,23.438,-38.086,-8.301,0
1542908580.081,37.109,-973.145,18.555,-32.715,9.277,0
1542908580.085,36.621,-973.145,22.461,-33.203,0.488,0
1542908580.089,34.180,-973.145,23.926,-43.945,-11.230,0
1542908580.093,31.250,-973.145,22.949,-47.852,-4.395,0
1542908580.097,53.711,-973.145,25.879,-26.367,0.000,0
1542908580.101,84.961,-973.145,34.668,3.418,0.488,0
1542908580.105,66.406,-973.145,31.250,-16.602,-21.973,0
1542908580.109,-4.395,-973.145,12.207,-79.590,-25.879,0
1542908580.113,-56.152,-973.145,12.207,-124.512,-12.695,0
1542908580.117,-70.801,-973.145,14.648,-153.320,-4.883,0
1542908580.121,-110.840,-973.145,7.324,-192.871,22.461,0
1542908580.124,-158.691,-973.145,2.441,-232.422,-8.789,0
1542908580.128,-181.641,-973.145,1.953,-260.742,-35.156,0
1542908580.132,-197.754,-973.145,2.930,-277.832,10.742,0
1542908580.136,-206.055,-973.145,1.465,-293.945,-15.625,0
1542908580.140,-218.750,-973.145,-3.906,-308.594,-33.691,0
1542908580.144,-206.055,-973.145,-6.348,-299.805,7.812,0
1542908580.148,-181.152,-973.145,-0.977,-275.879,25.391,0
1542908580.152,-173.828,-973.145,-9.277,-259.277,16.113,0
1542908580.156,-158.203,-973.145,-14.648,-242.676,40.039,0
1542908580.160,-142.578,-973.145,-8.301,-230.469,34.180,0
1542908580.164,-133.789,-973.145,-6.348,-215.332,8.789,0
1542908580.167,-123.535,-973.145,-7.812,-197.266,-33.691,0
1542908580.171,-106.445,-973.145,-3.418,-187.500,-42.969,0
1542908580.175,-86.914,-973.145,-3.418,-176.270,5.859,0
1542908580.179,-76.660,-973.145,-1.465,-163.574,25.391,0
1542908580.183,-77.637,-973.145,-2.930,-151.855,60.059,0
1542908580.187,-75.684,-973.145,-6.836,-145.020,69.824,0
1542908580.191,-66.895,-973.145,-1.953,-144.531,51.758,0
1542908580.195,-67.871,-973.145,-4.395,-147.461,70.312,0
1542908580.199,-51.270,-973.145,-2.930,-126.465,53.223,0
1542908580.203,-42.969,-973.145,0.977,-122.070,-1.953,0
1542908580.206,-40.039,-973.145,5.859,-116.699,9.766,0
1542908580.210,-34.668,-973.145,6.836,-105.469,48.340,0
1542908580.214,-37.598,-973.145,3.418,-118.652,33.691,0
1542908580.218,-36.133,-973.145,0.977,-110.352,-0.977,0
1542908580.222,-17.578,-973.145,12.207,-91.797,-23.438,0
1542908580.226,-4.883,-973.145,24.414,-101.562,-8.301,0
1542908580.230,-27.344,-973.145,16.602,-100.098,14.160,0
1542908580.234,-30.762,-973.145,8.301,-94.727,31.250,0
1542908580.238,-13.672,-973.145,11.230,-93.262,13.184,0
1542908580.242,-5.859,-973.145,12.695,-84.961,4.395,0
1542908580.246,-15.625,-973.145,7.324,-78.125,-6.836,0
1542908580.249,-17.578,-973.145,7.812,-72.266,18.555,0
1542908580.253,-2.930,-973.145,8.789,-75.195,8.789,0
1542908580.257,9.277,-973.145,2.930,-95.703,-7.812,0
1542908580.261,-42.969,-972.656,0.977,-97.168,37.109,0
1542908580.265,-41.016,-974.609,4.395,-89.844,61.035,0
1542908580.269,38.574,-964.844,12.207,-81.543,12.207,0
1542908580.273,5.371,-965.332,14.160,-84.961,19.043,0
1542908580.277,-24.414,-974.609,10.254,-69.824,37.109,0
1542908580.281,-10.742,-972.656,12.695,-73.730,40.527,0
1542908580.285,-2.930,-973.145,15.137,-83.008,60.059,0
1542908580.289,6.836,-973.145,11.230,-67.871,83.984,0
1542908580.292,9.766,-973.145,12.695,-77.637,122.559,0
1542908580.296,-0.488,-973.145,11.230,-77.637,65.430,0
1542908580.300,-3.906,-973.145,10.742,-65.918,19.531,0
1542908580.304,15.137,-973.145,4.395,-80.566,37.598,0
1542908580.308,36.621,-973.145,1.953,-71.777,107.910,0
1542908580.312,31.738,-973.145,13.184,-41.504,89.844,0
1542908580.316,13.672,-973.145,17.090,-39.551,30.762,0
1542908580.320,-11.230,-973.145,22.949,-63.965,73.242,0
1542908580.324,21.973,-973.145,7.812,-69.824,119.141,0
1542908580.328,47.852,-973.145,15.625,-55.176,50.293,0
1542908580.331,35.645,-973.145,28.320,-49.805,11.719,0
1542908580.335,22.949,-973.145,17.090,-66.406,73.730,0
1542908580.339,12.207,-973.145,20.996,-62.012,68.848,0
1542908580.343,22.461,-973.145,29.785,-47.363,21.484,0
1542908580.347,44.922,-973.145,24.902,-53.711,38.086,0
1542908580.351,49.316,-973.145,14.648,-67.383,92.285,0
1542908580.355,24.902,-973.145,13.672,-64.453,95.703,0
1542908580.359,-2.930,-973.145,15.625,-47.363,60.547,0
1542908580.363,38.086,-973.145,14.648,-59.082,100.586,0
1542908580.367,46.387,-973.145,13.672,-58.105,79.102,0
1542908580.371,26.367,-973.145,18.555,-51.758,35.645,0
1542908580.374,23.438,-973.145,12.695,-54.199,21.484,0
1542908580.378,14.648,-973.145,12.695,-53.711,-51.270,0
1542908580.382,39.551,-973.145,23.926,-47.363,20.996,0
1542908580.386,41.504,-973.145,19.531,-37.109,45.410,0
1542908580.390,53.223,-973.145,13.672,-49.805,41.992,0
1542908580.394,40.039,-973.145,21.484,-58.594,60.547,0
1542908580.398,18.066,-973.145,28.809,-29.785,0.977,0
1542908580.402,45.898,-973.145,25.879,-45.898,36.621,0
1542908580.406,49.316,-973.145,20.508,-53.711,58.594,0
1542908580.410,46.875,-973.145,21.484,-38.574,58.105,0
1542908580.414,55.176,-973.145,24.902,-34.180,51.758,0
1542908580.417,47.363,-973.145,20.508,-36.133,43.457,0
1542908580.421,42.969,-973.145,17.578,-56.152,-22.461,0
1542908580.425,39.062,-973.145,20.996,-44.434,-46.875,0
1542908580.429,39.062,-973.145,20.508,-20.508,-3.418,0
1542908580.433,41.992,-973.145,19.531,-39.551,39.062,0
1542908580.437,57.129,-973.145,26.367,-27.344,47.852,0
1542908580.441,90.820,-973.145,36.133,-8.789,2.441,0
1542908580.445,65.918,-973.145,29.297,-35.645,2.441,0
1542908580.449,11.719,-973.145,15.625,-75.684,30.762,0
1542908580.453,5.371,-973.145,17.578,-89.355,38.574,0
1542908580.456,-11.230,-973.145,11.230,-102.539,4.883,0
1542908580.460,-28.809,-973.145,8.301,-109.863,-48.828,0
1542908580.464,-19.531,-973.145,9.277,-92.773,-35.156,0
1542908580.468,-28.809,-973.145,1.465,-100.586,13.184,0
1542908580.472,-25.879,-973.145,2.441,-102.539,-2.930,0
1542908580.476,-3.906,-973.145,0.000,-107.422,50.293,0
1542908580.480,4.395,-973.145,-0.488,-101.562,45.898,0
1542908580.484,12.695,-973.145,6.348,-87.891,7.324,0
1542908580.488,25.391,-973.145,7.324,-57.617,19.043,0
1542908580.492,34.180,-973.145,6.348,-45.898,44.922,0
1542908580.496,36.133,-973.145,6.836,-62.012,58.594,0
1542908580.499,34.180,-973.145,7.812,-54.199,21.973,0
1542908580.503,36.621,-973.145,11.230,-42.969,20.020,0
1542908580.507,32.227,-973.145,12.207,-42.480,33.691,0
1542908580.511,22.461,-973.145,12.695,-47.363,54.688,0
1542908580.515,27.832,-973.145,18.066,-43.945,64.453,0
1542908580.519,33.203,-973.145,17.090,-49.316,26.367,0
1542908580.523,33.691,-973.145,11.719,-49.316,2.930,0
1542908580.527,33.691,-972.656,10.742,-47.363,21.973,0
1542908580.531,34.668,-974.609,11.230,-45.410,3.418,0
1542908580.535,33.691,-965.820,15.137,-39.062,50.293,0
1542908580.539,37.109,-964.844,16.602,-35.156,51.758,0
1542908580.542,41.504,-974.609,13.672,-39.551,7.812,0
1542908580.546,39.551,-972.656,16.113,-37.598,1.953,0
1542908580.550,35.645,-973.145,18.555,-35.156,73.730,0
1542908580.554,39.062,-973.145,15.625,-46.875,88.379,0
1542908580.558,50.781,-973.145,13.672,-48.828,65.430,0
1542908580.562,50.293,-971.680,10.742,-37.598,89.355,0
1542908580.566,31.738,-975.098,10.742,-31.250,70.801,0
1542908580.570,27.832,-969.727,19.531,-37.598,60.547,0
1542908580.574,31.738,-956.055,20.020,-38.086,-15.625,0
1542908580.578,36.621,-952.148,18.555,-36.133,-55.176,0
1542908580.581,40.527,-1000.000,19.043,-37.598,-7.812,0
1542908580.585,36.621,-823.242,18.555,-38.574,-33.691,0
1542908580.589,34.668,-456.543,18.066,-34.668,9.277,0
1542908580.593,38.086,-724.609,15.137,-29.785,85.449,0
1542908580.597,39.551,-1000.000,12.695,-29.297,54.688,0
1542908580.601,42.480,-928.711,17.090,-36.621,22.949,0
1542908580.605,32.227,-654.785,16.602,-46.387,48.340,0
1542908580.609,29.297,-736.328,11.230,-42.480,53.223,0
1542908580.613,29.785,-1000.000,15.625,-39.062,11.719,0
1542908580.617,22.949,-896.973,18.555,-45.410,32.715,0
1542908580.621,35.645,-246.094,14.648,-40.527,89.844,0
1542908580.624,40.039,-161.621,8.789,-36.133,83.008,0
1542908580.628,32.715,-855.957,9.277,-39.551,30.273,0
1542908580.632,34.668,-1000.000,16.113,-35.645,27.344,0
1542908580.636,35.645,-386.230,21.973,-29.297,40.527,0
1542908580.640,32.715,-84.961,22.949,-32.715,48.828,0
1542908580.644,33.691,-745.117,18.555,-28.809,59.570,0
1542908580.648,37.598,-1000.000,16.602,-29.785,85.938,0
1542908580.652,35.156,-759.766,14.160,-38.086,50.781,0
1542908580.656,34.668,-297.363,11.230,-41.992,38.574,0
1542908580.660,35.645,-687.500,17.090,-46.387,46.875,0
1542908580.664,27.344,-1000.000,24.902,-42.480,39.551,0
1542908580.667,20.020,-632.812,28.320,-40.039,93.262,0
1542908580.671,36.133,-119.629,28.320,-24.902,72.754,0
1542908580.675,36.621,-488.281,23.926,-29.785,28.809,0
1542908580.679,13.672,-946.289,15.625,-57.129,10.254,0
1542908580.683,16.113,-828.125,10.742,-62.012,-16.113,0
1542908580.687,30.273,-232.422,10.742,-52.734,7.812,0
1542908580.691,27.344,-89.844,9.277,-51.270,95.215,0
1542908580.695,32.227,-745.117,6.348,-53.711,49.316,0
1542908580.699,38.574,-932.129,12.207,-49.316,-28.809,0
1542908580.703,22.949,-664.551,16.113,-49.805,43.457,0
1542908580.706,20.508,-660.156,12.695,-52.246,66.406,0
1542908580.710,28.320,-715.820,9.277,-48.340,100.586,0
1542908580.714,37.598,-1000.000,13.184,-38.086,96.680,0
1542908580.718,49.805,-822.266,17.578,-31.250,23.438,0
1542908580.722,47.363,-159.668,13.184,-39.062,24.902,0
1542908580.726,40.527,-316.406,6.836,-34.180,63.965,0
1542908580.730,35.156,-979.980,13.672,-28.809,54.199,0
1542908580.734,37.598,-859.863,16.602,-30.762,41.992,0
1542908580.738,47.363,-176.758,13.184,-27.832,-8.789,0
1542908580.742,43.457,-347.656,14.648,-33.691,-0.977,0
1542908580.746,34.668,-948.242,15.137,-36.621,89.355,0
1542908580.749,35.645,-1000.000,14.160,-37.109,20.996,0
1542908580.753,48.340,-333.496,13.672,-33.691,-14.648,0
1542908580.757,59.570,372.559,18.066,-29.297,32.715,0
1542908580.761,42.969,-324.707,22.949,-29.785,62.988,0
1542908580.765,28.809,-744.629,20.508,-28.809,85.938,0
1542908580.769,28.320,233.398,16.113,-27.832,66.895,0
1542908580.773,32.715,935.059,14.160,-25.879,41.016,0
1542908580.777,37.598,282.715,12.207,-28.809,17.090,0
1542908580.781,39.551,-344.238,12.695,-29.297,33.203,0
1542908580.785,40.527,261.719,16.113,-29.297,48.340,0
1542908580.789,36.133,898.926,17.090,-31.738,40.527,0
1542908580.792,33.203,196.289,14.160,-32.715,61.523,0
1542908580.796,38.086,-812.988,17.578,-31.250,60.059,0
1542908580.800,54.199,-148.438,23.926,-25.879,50.293,0
1542908580.804,49.805,929.199,19.043,-25.879,86.914,0
1542908580.808,39.551,732.910,18.555,-26.855,71.777,0
1542908580.812,44.922,-17.578,18.066,-29.297,76.172,0
1542908580.816,41.504,-48.340,14.160,-35.645,41.504,0
1542908580.820,34.668,683.594,18.555,-32.227,26.367,0
1542908580.824,35.645,848.633,21.973,-32.715,55.176,0
1542908580.828,49.805,213.867,19.043,-35.645,29.297,0
1542908580.831,50.293,-27.832,16.113,-36.621,42.969,0
1542908580.835,36.133,388.672,16.602,-33.691,78.125,0
1542908580.839,34.668,769.043,15.625,-37.109,19.043,0
1542908580.843,37.598,641.602,12.695,-44.922,38.086,0
1542908580.847,33.203,288.574,14.160,-38.086,101.562,0
1542908580.851,28.320,466.309,13.184,-38.086,24.414,0
1542908580.855,37.598,617.188,14.160,-37.109,2.441,0
1542908580.859,35.645,585.938,16.602,-38.574,46.387,0
1542908580.863,20.508,304.199,15.137,-43.457,33.203,0
1542908580.867,21.484,135.742,19.043,-35.156,60.547,0
1542908580.871,24.414,708.984,17.578,-37.109,67.871,0
1542908580.874,27.344,896.484,14.160,-45.410,75.684,0
1542908580.878,29.785,134.277,8.789,-41.992,65.918,0
1542908580.882,44.922,-720.703,2.930,-32.227,36.621,0
1542908580.886,49.805,-354.980,13.184,-24.414,66.895,0
1542908580.890,32.227,390.625,22.949,-32.715,34.180,0
1542908580.894,28.320,-194.824,30.273,-30.762,-10.742,0
1542908580.898,26.855,-959.473,33.691,-33.691,26.855,0
1542908580.902,39.062,-521.484,31.738,-31.250,100.586,0
1542908580.906,33.203,267.578,46.875,-22.949,70.312,0
1542908580.910,20.020,-170.898,55.664,-27.832,34.180,0
1542908580.914,36.133,-940.918,58.594,-23.438,90.332,0
1542908580.917,37.598,-633.301,62.988,-20.508,95.703,0
1542908580.921,22.949,237.793,61.523,-22.949,42.480,0
1542908580.925,18.066,-5.859,48.828,-32.227,45.410,0
1542908580.929,18.555,-909.668,40.039,-36.621,60.059,0
1542908580.933,22.949,-874.512,41.016,-40.527,61.035,0
1542908580.937,27.344,154.785,41.016,-45.898,94.727,0
1542908580.941,35.156,301.270,48.828,-29.785,44.922,0
1542908580.945,32.715,-794.922,50.781,-25.391,-51.270,0
1542908580.949,28.320,-894.531,42.480,-37.598,-25.879,0
1542908580.953,33.203,62.012,37.109,-36.133,-1.953,0
1542908580.956,24.414,414.062,32.715,-35.645,22.461,0
1542908580.960,19.043,-170.898,26.367,-35.645,84.961,0
1542908580.964,32.227,-595.703,20.996,-36.621,40.527,0
1542908580.968,33.203,-61.035,26.855,-38.086,30.273,0
1542908580.972,19.531,479.492,28.809,-33.203,50.293,0
1542908580.976,23.438,-187.012,22.949,-28.809,-16.113,0
1542908580.980,28.320,-965.820,24.414,-30.273,-38.574,0
1542908580.984,21.973,-378.906,21.973,-37.598,6.836,0
1542908580.988,22.949,221.680,19.043,-42.969,46.875,0
1542908580.992,21.973,-260.254,22.949,-45.410,12.207,0
1542908580.996,15.625,-468.750,28.809,-37.598,20.996,0
1542908580.999,14.160,-282.715,33.203,-30.273,40.527,0
1542908581.003,24.902,306.152,34.180,-28.320,28.320,0
1542908581.007,41.992,540.527,33.691,-28.320,6.348,0
1542908581.011,20.996,-15.137,31.738,-38.574,-11.719,0
1542908581.015,14.648,-397.461,30.273,-42.480,15.137,0
1542908581.019,25.879,113.281,25.391,-37.109,3.906,0
1542908581.023,19.043,486.816,22.949,-30.273,20.020,0
1542908581.027,30.762,16.113,22.461,-21.973,33.691,0
1542908581.031,49.316,-433.105,19.531,-28.809,56.641,0
1542908581.035,53.223,-513.672,16.602,-36.133,41.016,0
1542908581.039,47.852,352.539,15.137,-32.715,52.246,0
1542908581.042,39.551,742.676,15.625,-29.785,69.336,0
1542908581.046,42.480,-157.227,18.066,-29.297,50.293,0
1542908581.050,57.617,-133.301,19.043,-37.109,52.734,0
1542908581.054,51.758,857.422,19.531,-38.086,60.547,0
1542908581.058,33.203,964.844,23.926,-27.344,51.758,0
1542908581.062,34.668,126.465,23.438,-21.484,37.598,0
1542908581.066,35.156,-96.680,16.113,-27.344,38.086,0
1542908581.070,26.367,566.895,14.648,-26.367,46.387,0
1542908581.074,30.762,916.016,12.695,-23.926,6.348,0
1542908581.078,42.480,111.328,15.625,-19.043,19.043,0
1542908581.081,35.156,-617.188,27.344,-22.949,53.223,0
1542908581.085,25.391,442.871,31.738,-36.133,51.758,0
1542908581.089,38.086,-865.723,30.273,-29.297,46.875,0
1542908581.093,43.945,527.344,27.344,-27.344,-8.301,0
1542908581.097,40.527,11.230,34.668,-22.949,19.531,0
1542908581.101,37.598,548.828,35.645,-20.020,40.039,0
1542908581.105,27.344,-941.895,24.414,-39.062,38.086,0
1542908581.109,30.762,749.512,25.879,-41.992,52.734,0
1542908581.113,39.551,148.438,28.809,-31.250,18.555,0
1542908581.117,39.062,116.699,25.879,-35.156,13.184,0
1542908581.121,41.504,775.391,22.949,-38.574,30.762,0
1542908581.124,39.062,430.664,22.949,-34.668,18.066,0
1542908581.128,38.086,-225.586,26.367,-31.250,36.621,0
1542908581.132,40.039,128.906,25.391,-28.320,56.152,0
1542908581.136,47.363,648.926,23.438,-32.227,15.137,0
1542908581.140,60.059,837.891,19.043,-36.621,-10.742,0
1542908581.144,55.176,485.352,15.625,-31.738,52.246,0
1542908581.148,35.156,66.895,22.949,-29.297,79.590,0
1542908581.152,35.645,360.840,26.855,-29.297,79.102,0
1542908581.156,48.828,767.090,22.461,-32.715,27.344,0
1542908581.160,43.945,492.188,23.438,-39.551,-20.996,0
1542908581.164,31.738,-185.547,23.926,-40.527,89.355,0
1542908581.167,36.621,-336.914,19.043,-40.527,118.652,0
1542908581.171,45.898,290.527,20.508,-40.527,39.062,0
1542908581.175,46.387,606.934,25.879,-27.832,-4.395,0
1542908581.179,34.180,0.977,21.973,-33.203,8.301,0
1542908581.183,31.250,-359.375,15.625,-46.387,42.969,0
1542908581.187,39.062,356.445,19.043,-38.574,63.965,0
1542908581.191,30.273,883.789,18.066,-41.504,62.988,0
1542908581.195,21.484,166.504,19.531,-47.363,48.340,0
1542908581.199,35.645,-471.191,23.438,-39.062,27.344,0
1542908581.203,42.480,218.262,23.926,-35.645,-3.906,0
1542908581.206,34.668,-952.148,25.879,-39.551,49.316,0
1542908581.210,38.574,316.406,22.949,-41.016,80.078,0
1542908581.214,42.969,-632.812,21.973,-44.922,98.145,0
1542908581.218,41.504,105.469,23.438,-42.969,74.707,0
1542908581.222,37.109,-873.047,16.113,-40.527,44.922,0
1542908581.226,39.551,723.633,14.648,-41.016,55.664,0
1542908581.230,43.457,-145.020,16.602,-43.945,74.707,0
1542908581.234,57.617,380.859,16.113,-36.133,94.238,0
1542908581.238,52.246,-899.902,15.137,-35.645,6.348,0
1542908581.242,23.926,873.047,20.508,-49.316,20.996,0
1542908581.246,23.438,520.020,30.762,-53.223,41.016,0
1542908581.249,31.250,681.641,36.621,-47.852,33.203,0
1542908581.253,33.203,-932.617,34.668,-40.527,48.340,0
1542908581.257,24.414,879.883,29.297,-50.781,16.602,0
1542908581.261,33.691,464.355,34.180,-49.805,53.711,0
1542908581.265,30.273,755.859,31.738,-50.293,52.246,0
1542908581.269,17.090,-957.520,25.879,-61.523,67.383,0
1542908581.273,25.391,982.422,25.879,-56.152,104.980,0
1542908581.277,26.855,997.559,18.066,-55.176,55.664,0
1542908581.281,27.832,-1000.000,20.508,-53.711,59.082,0
1542908581.285,38.086,999.512,28.320,-41.992,77.637,0
1542908581.289,40.039,999.512,29.785,-38.574,5.859,0
1542908581.292,29.297,999.512,28.320,-43.945,-42.480,0
1542908581.296,33.203,999.512,23.438,-41.016,-4.395,0
1542908581.300,41.016,999.512,20.996,-33.691,35.645,0
1542908581.304,43.945,999.512,23.926,-30.762,45.410,0
1542908581.308,49.805,999.512,29.785,-31.738,71.289,0
1542908581.312,52.734,999.512,26.855,-32.715,106.445,0
1542908581.316,40.527,999.512,21.973,-35.645,44.922,0
1542908581.320,31.738,999.512,28.320,-40.527,9.766,0
1542908581.324,34.668,999.512,30.273,-36.621,10.254,0
1542908581.328,40.039,999.512,29.785,-32.227,31.738,0
1542908581.331,41.992,999.512,31.250,-35.156,45.410,0
1542908581.335,38.574,999.512,25.879,-35.156,41.504,0
1542908581.339,35.156,999.512,24.414,-37.109,43.457,0
1542908581.343,26.855,999.512,26.855,-34.668,48.828,0
1542908581.347,31.250,999.512,28.320,-30.273,64.453,0
1542908581.351,37.109,999.512,27.344,-32.227,63.477,0
1542908581.355,33.203,999.512,27.832,-38.086,59.082,0
1542908581.359,34.180,999.512,26.855,-44.434,93.262,0
1542908581.363,37.598,999.512,31.250,-41.992,112.793,0
1542908581.367,35.645,999.512,30.273,-41.016,102.051,0
1542908581.371,35.156,999.512,21.484,-42.969,97.656,0
1542908581.374,43.945,999.512,22.949,-41.016,117.676,0
1542908581.378,31.250,999.512,22.949,-42.480,154.297,0
1542908581.382,23.926,999.512,22.461,-41.992,176.270,0
1542908581.386,34.180,999.512,27.832,-43.457,176.758,0
1542908581.390,33.691,999.512,27.832,-43.457,169.434,0
1542908581.394,25.391,999.512,24.902,-35.645,156.738,0
1542908581.398,20.020,999.512,22.949,-42.969,152.344,0
1542908581.402,31.738,999.512,22.461,-48.828,174.316,0
1542908581.406,40.527,999.512,26.367,-38.574,189.453,0
1542908581.410,45.410,999.512,32.227,-21.973,147.461,0
1542908581.414,47.852,999.512,34.180,-18.555,149.902,0
1542908581.417,23.926,999.512,23.438,-55.176,171.387,0
1542908581.421,2.930,999.512,12.207,-82.520,162.109,0
1542908581.425,16.602,999.512,10.254,-66.895,153.809,0
1542908581.429,31.250,999.512,7.812,-58.594,162.598,0
1542908581.433,19.531,999.512,-2.441,-74.707,176.270,0
1542908581.437,13.184,999.512,-10.742,-78.613,171.387,0
1542908581.441,22.461,999.512,-11.230,-65.430,160.645,0
1542908581.445,31.738,999.512,-10.742,-53.711,135.742,0
1542908581.449,30.273,999.512,-11.719,-54.199,133.301,0
1542908581.453,29.785,999.512,-7.324,-59.570,86.914,0
1542908581.456,33.203,999.512,3.418,-56.641,47.363,0
1542908581.460,39.551,999.512,9.277,-47.363,49.316,0
1542908581.464,39.551,-998.535,6.836,-45.410,-12.207,0
1542908581.468,37.598,993.652,3.418,-50.293,-29.297,0
1542908581.472,42.480,971.191,4.395,-40.039,-33.691,0
1542908581.476,44.434,-960.938,4.883,-32.715,-70.801,0
1542908581.480,36.621,406.738,4.883,-42.969,-60.547,0
1542908581.484,37.109,-494.141,10.254,-39.551,-81.543,0
1542908581.488,41.992,-731.934,18.066,-31.250,-93.750,0
1542908581.492,39.551,-942.871,18.066,-36.133,-51.758,0
1542908581.496,33.203,-981.445,13.184,-39.551,-56.641,0
1542908581.499,47.363,-964.844,17.090,-41.016,-103.516,0
1542908581.503,54.688,-975.098,15.137,-41.992,-81.543,0
1542908581.507,36.621,-973.145,8.301,-41.504,-79.102,0
1542908581.511,30.273,-973.145,10.742,-37.598,-69.336,0
1542908581.515,28.320,-973.145,12.207,-36.621,-47.363,0
1542908581.519,33.691,-973.145,12.695,-37.598,-75.195,0
1542908581.523,34.668,-973.145,14.160,-29.785,-66.895,0
1542908581.527,33.691,-973.145,11.719,-27.344,7.812,0
1542908581.531,40.527,-973.145,10.742,-27.832,14.160,0
1542908581.535,45.410,-973.145,13.672,-25.879,-45.410,0
1542908581.539,43.457,-973.145,17.578,-25.879,-41.992,0
1542908581.542,38.574,-973.145,18.066,-36.133,-18.066,0
1542908581.546,36.133,-973.145,14.160,-46.387,-39.062,0
1542908581.550,49.316,-973.145,12.695,-40.039,-45.898,0
1542908581.554,49.805,-973.145,14.160,-33.691,-29.297,0
1542908581.558,28.809,-973.145,10.254,-35.645,38.574,0
1542908581.562,30.762,-973.145,8.301,-34.180,57.129,0
1542908581.566,49.805,-973.145,15.625,-29.785,-9.766,0
1542908581.570,41.016,-973.145,16.113,-35.645,-59.082,0
1542908581.574,27.344,-973.145,20.020,-41.504,-15.625,0
1542908581.578,29.785,-973.145,22.949,-36.133,-39.062,0
1542908581.581,32.227,-973.145,18.555,-36.133,-45.898,0
1542908581.585,35.645,-974.121,17.090,-35.156,21.484,0
1542908581.589,36.621,-969.727,17.090,-28.320,31.738,0
1542908581.593,47.852,-948.242,14.160,-27.832,-14.648,0
1542908581.597,59.570,-999.512,14.648,-26.855,-17.090,0
1542908581.601,44.922,-604.492,14.648,-26.855,58.105,0
1542908581.605,34.668,460.938,14.160,-27.832,93.750,0
1542908581.609,45.410,890.137,15.137,-25.391,56.152,0
1542908581.613,47.363,634.766,13.184,-25.391,47.363,0
1542908581.617,46.387,841.797,17.578,-24.902,49.316,0
1542908581.621,47.852,-971.680,20.020,-21.973,83.008,0
1542908581.624,49.805,988.770,19.531,-21.484,101.562,0
1542908581.628,48.340,998.535,20.508,-20.020,20.020,0
1542908581.632,46.875,999.512,19.531,-22.949,5.371,0
1542908581.636,47.852,999.512,21.973,-34.180,-2.441,0
1542908581.640,57.617,999.512,24.414,-31.250,29.785,0
1542908581.644,54.199,999.512,24.414,-29.785,89.844,0
1542908581.648,30.762,999.512,24.414,-32.715,48.828,0
1542908581.652,28.320,999.512,24.414,-31.738,31.738,0
1542908581.656,34.668,999.512,19.531,-31.250,29.785,0
1542908581.660,28.320,999.512,20.996,-31.250,-21.973,0
1542908581.664,22.949,-1000.000,21.973,-33.691,25.391,0
1542908581.667,20.996,997.070,18.066,-35.156,94.727,0
1542908581.671,22.461,983.887,14.160,-35.645,59.570,0
1542908581.675,25.391,-950.684,12.207,-35.156,35.645,0
1542908581.679,23.438,724.121,15.137,-31.250,15.137,0
1542908581.683,29.297,523.438,16.602,-31.250,28.809,0
1542908581.687,37.598,-940.430,12.695,-32.227,83.496,0
1542908581.691,31.250,557.129,17.090,-30.273,61.523,0
1542908581.695,32.715,-754.395,22.461,-33.203,16.602,0
1542908581.699,32.227,-1000.000,23.926,-36.133,-11.719,0
1542908581.703,26.855,-929.199,20.020,-35.645,-21.973,0
1542908581.706,40.039,-979.980,17.578,-38.574,16.113,0
1542908581.710,45.410,-973.145,18.066,-40.039,15.137,0
1542908581.714,35.645,-973.145,18.555,-35.156,40.039,0
1542908581.718,37.109,-973.145,20.020,-37.109,78.125,0
1542908581.722,36.133,-973.145,19.531,-32.715,29.785,0
1542908581.726,24.414,-973.145,23.926,-22.461,-45.410,0
1542908581.730,26.855,-973.145,28.809,-21.973,-22.461,0
1542908581.734,35.156,-973.145,25.879,-22.949,-49.316,0
1542908581.738,45.410,-973.145,25.879,-19.531,-94.727,0
1542908581.742,44.922,-973.145,27.344,-20.996,-33.203,0
1542908581.746,22.949,-973.145,25.879,-35.645,-48.340,0
1542908581.749,24.414,-973.145,25.879,-31.250,-49.316,0
1542908581.753,41.504,-973.145,22.461,-22.949,19.531,0
1542908581.757,41.992,-973.145,28.320,-22.461,5.859,0
1542908581.761,34.180,-973.145,31.250,-29.297,13.672,0
1542908581.765,33.203,-973.145,28.809,-37.598,-12.207,0
1542908581.769,37.598,-973.145,24.902,-39.062,31.250,0
1542908581.773,48.828,-973.145,21.484,-39.551,33.203,0
1542908581.777,41.504,-973.145,21.973,-36.621,-41.504,0
1542908581.781,20.996,-973.145,18.555,-36.133,-20.996,0
1542908581.785,26.855,-973.145,20.508,-34.668,10.254,0
1542908581.789,35.645,-973.145,22.461,-26.367,18.066,0
1542908581.792,32.715,-973.145,25.391,-27.344,26.855,0
1542908581.796,28.320,-973.145,22.461,-35.645,76.660,0
1542908581.800,31.250,-973.145,17.090,-35.156,49.805,0
1542908581.804,36.621,-973.145,21.484,-26.855,5.859,0
1542908581.808,43.457,-973.145,25.391,-22.949,12.695,0
1542908581.812,52.246,-973.145,27.832,-22.461,60.059,0
1542908581.816,48.828,-973.145,22.461,-25.879,90.820,0
1542908581.820,36.133,-973.145,13.184,-31.738,49.316,0
1542908581.824,31.738,-973.145,13.672,-26.855,45.898,0
1542908581.828,34.180,-973.145,22.461,-30.762,95.703,0
1542908581.831,40.527,-973.145,27.344,-38.086,57.129,0
1542908581.835,38.574,-973.145,20.508,-33.691,56.152,0
1542908581.839,27.344,-973.145,19.043,-38.574,66.406,0
1542908581.843,28.320,-973.145,24.902,-41.016,64.941,0
1542908581.847,37.109,-973.145,23.438,-35.156,54.199,0
1542908581.851,41.016,-973.145,20.508,-32.715,19.531,0
1542908581.855,39.062,-973.145,24.414,-33.691,13.672,0
1542908581.859,44.434,-973.145,31.250,-31.738,46.387,0
1542908581.863,48.828,-973.145,30.762,-33.691,-4.883,0
1542908581.867,39.551,-973.145,22.461,-35.156,10.254,0
1542908581.871,32.227,-973.633,20.020,-29.785,73.730,0
1542908581.874,29.785,-969.727,16.602,-31.250,52.246,0
1542908581.878,27.344,-968.262,15.137,-36.621,15.625,0
1542908581.882,28.320,-987.793,16.113,-36.133,41.504,0
1542908581.886,31.738,-830.078,19.043,-29.297,81.055,0
1542908581.890,42.480,-664.551,24.414,-26.855,80.078,0
1542908581.894,40.039,-838.867,27.832,-31.250,59.082,0
1542908581.898,37.109,-1000.000,29.785,-31.250,16.602,0
1542908581.902,41.016,-843.262,22.461,-29.785,28.320,0
1542908581.906,41.504,-373.535,21.484,-20.996,56.152,0
1542908581.910,49.316,-592.285,31.250,-16.113,22.461,0
1542908581.914,34.668,-994.629,27.832,-26.367,34.180,0
1542908581.917,26.855,-1000.000,27.344,-34.668,-19.043,0
1542908581.921,29.785,-788.086,33.203,-36.133,-20.508,0
1542908581.925,25.879,-656.250,25.879,-39.062,16.113,0
1542908581.929,25.879,-972.656,16.602,-41.504,-3.418,0
1542908581.933,24.414,-999.512,19.531,-34.668,5.859,0
1542908581.937,23.926,-534.668,21.973,-31.738,26.367,0
1542908581.941,26.855,-488.281,20.020,-33.691,41.504,0
1542908581.945,23.438,-948.730,17.090,-32.715,14.648,0
1542908581.949,30.273,-1000.000,16.602,-29.297,9.277,0
1542908581.953,42.969,-832.031,20.020,-34.668,29.297,0
1542908581.956,45.410,-712.402,24.902,-38.574,49.316,0
1542908581.960,42.480,-940.918,24.414,-31.250,63.477,0
1542908581.964,46.387,-997.559,18.066,-36.133,66.895,0
1542908581.968,44.434,-945.312,18.555,-41.992,73.730,0
1542908581.972,22.461,-812.500,18.066,-39.062,49.805,0
1542908581.976,20.996,-888.184,12.695,-35.645,31.738,0
1542908581.980,39.062,-998.047,10.254,-32.715,27.344,0
1542908581.984,43.457,-961.914,17.578,-29.785,37.109,0
1542908581.988,21.973,-882.324,26.367,-47.852,38.086,0
1542908581.992,5.371,-919.434,31.738,-61.523,46.875,0
1542908581.996,12.695,-979.492,35.156,-50.781,35.645,0
1542908581.999,30.762,-996.094,36.133,-50.781,53.223,0
1542908582.003,39.062,-804.688,39.551,-40.039,70.801,0
1542908582.007,28.320,-793.457,41.504,-31.738,117.676,0
1542908582.011,24.902,-983.398,43.945,-37.598,82.520,0
1542908582.015,28.320,-1000.000,42.969,-37.109,69.824,0
1542908582.019,25.391,-831.055,37.109,-33.691,60.547,0
1542908582.023,28.809,-709.473,30.273,-32.715,72.754,0
1542908582.027,29.297,-926.758,26.855,-33.203,131.836,0
1542908582.031,26.855,-1000.000,27.832,-34.668,54.199,0
1542908582.035,33.691,-859.375,31.250,-33.691,28.809,0
1542908582.039,36.621,-594.238,33.691,-30.762,39.551,0
1542908582.042,31.738,-765.625,29.785,-32.715,38.574,0
1542908582.046,25.879,-990.723,24.902,-29.297,30.273,0
1542908582.050,35.156,-981.445,24.414,-32.227,11.230,0
1542908582.054,36.133,-818.848,29.297,-37.109,35.645,0
1542908582.058,24.414,-798.340,34.668,-27.344,12.695,0
1542908582.062,21.973,-963.379,31.738,-31.250,-13.672,0
1542908582.066,20.996,-1000.000,21.973,-37.109,-0.488,0
1542908582.070,21.484,-834.961,22.461,-36.621,7.812,0
1542908582.074,29.785,-438.965,25.879,-37.109,0.000,0
1542908582.078,35.645,-710.938,24.902,-33.203,-5.371,0
1542908582.081,32.715,-1000.000,23.926,-28.809,-13.672,0
1542908582.085,38.086,-647.461,18.555,-29.297,39.062,0
1542908582.089,43.945,32.227,16.113,-33.691,50.781,0
1542908582.093,29.297,-371.582,22.461,-33.203,0.000,0
1542908582.097,21.484,-1000.000,22.949,-30.273,34.668,0
1542908582.101,28.809,-825.195,17.090,-31.738,112.305,0
1542908582.105,35.156,-307.129,13.672,-29.297,80.078,0
1542908582.109,39.062,-491.211,15.625,-27.832,52.734,0
1542908582.113,40.527,-981.445,17.090,-31.250,63.477,0
1542908582.117,34.180,-896.484,18.066,-32.227,11.230,0
1542908582.121,37.598,-128.906,26.855,-29.785,55.664,0
1542908582.124,45.898,31.250,31.738,-25.391,97.168,0
1542908582.128,47.852,-770.508,27.832,-24.414,49.316,0
1542908582.132,45.410,-1000.000,19.531,-29.297,10.254,0
1542908582.136,37.598,-463.867,18.066,-22.461,6.348,0
1542908582.140,39.551,-143.555,20.020,-21.484,36.133,0
1542908582.144,39.551,-761.230,14.160,-33.691,80.566,0
1542908582.148,38.086,-1000.000,14.160,-38.086,73.730,0
1542908582.152,31.250,-826.660,15.625,-38.574,34.180,0
1542908582.156,25.879,-511.719,11.719,-39.551,22.461,0
1542908582.160,34.180,-801.270,12.207,-32.715,36.621,0
1542908582.164,34.668,-1000.000,14.648,-35.645,25.879,0
1542908582.167,33.203,-929.199,13.672,-42.969,1.953,0
1542908582.171,42.969,-657.227,15.137,-38.086,27.344,0
1542908582.175,41.504,-752.930,21.484,-37.598,38.086,0
1542908582.179,28.809,-1000.000,24.902,-40.527,26.367,0
1542908582.183,43.457,-962.402,24.902,-26.855,5.859,0
1542908582.187,62.988,-635.742,24.414,-13.672,12.695,0
1542908582.191,35.645,-635.254,15.137,-37.598,38.574,0
1542908582.195,5.371,-985.840,1.465,-72.266,40.039,0
1542908582.199,9.277,-960.938,-0.488,-68.359,24.414,0
1542908582.203,12.695,-920.410,3.906,-63.965,11.230,0
1542908582.206,13.184,-882.324,1.465,-75.195,33.203,0
1542908582.210,19.043,-855.957,1.465,-60.547,49.316,0
1542908582.214,17.090,-1000.000,-1.465,-63.477,11.719,0
1542908582.218,20.508,-871.094,-0.488,-69.824,-33.203,0
1542908582.222,22.949,-257.324,12.695,-54.199,8.789,0
1542908582.226,24.414,-409.180,17.090,-51.758,57.617,0
1542908582.230,32.715,-1000.000,13.672,-50.781,55.664,0
1542908582.234,32.227,-836.914,7.812,-56.641,78.125,0
1542908582.238,25.879,-126.953,6.836,-59.570,42.969,0
1542908582.242,29.297,-355.469,8.301,-48.340,4.883,0
1542908582.246,38.574,-979.004,7.812,-40.039,41.992,0
1542908582.249,43.457,-1000.000,13.672,-37.598,50.293,0
1542908582.253,42.969,-430.664,17.578,-36.133,29.297,0
1542908582.257,36.133,146.973,13.184,-36.133,13.184,0
1542908582.261,36.133,-536.621,10.254,-40.527,25.391,0
1542908582.265,45.410,-996.582,14.160,-41.992,64.453,0
1542908582.269,36.621,-271.484,17.578,-41.504,91.309,0
1542908582.273,29.297,418.945,17.578,-38.086,76.172,0
1542908582.277,37.598,-252.930,17.578,-34.180,38.574,0
1542908582.281,36.621,-1000.000,16.602,-35.156,-12.695,0
1542908582.285,40.039,-553.711,17.578,-36.621,-7.324,0
1542908582.289,47.363,160.645,18.555,-27.344,4.883,0
1542908582.292,52.734,-379.883,16.113,-20.996,18.555,0
1542908582.296,51.758,-1000.000,24.902,-25.391,34.180,0
1542908582.300,52.246,-669.922,32.227,-21.484,43.945,0
1542908582.304,56.641,406.738,34.668,-17.578,99.121,0
1542908582.308,34.668,84.473,30.762,-24.902,52.246,0
1542908582.312,25.879,-931.152,20.508,-32.715,21.973,0
1542908582.316,27.832,-727.539,18.066,-31.738,33.203,0
1542908582.320,31.250,194.336,21.484,-30.273,112.305,0
1542908582.324,37.109,439.453,20.996,-32.227,104.004,0
1542908582.328,41.016,-319.824,20.020,-31.250,17.090,0
1542908582.331,40.039,-777.344,25.391,-29.297,2.930,0
1542908582.335,36.133,-340.332,18.555,-33.691,21.973,0
1542908582.339,43.457,-296.387,15.625,-40.039,-13.672,0
1542908582.343,49.805,-650.879,21.484,-42.480,2.441,0
1542908582.347,53.711,-837.891,22.949,-39.551,19.531,0
1542908582.351,50.293,-668.457,21.484,-37.598,13.184,0
1542908582.355,42.969,128.418,24.414,-36.133,31.250,0
1542908582.359,37.109,224.121,29.297,-43.457,56.641,0
1542908582.363,33.203,-496.582,25.879,-48.340,85.938,0
1542908582.367,28.809,-781.738,19.043,-46.387,13.672,0
1542908582.371,44.434,11.719,23.438,-30.762,34.668,0
1542908582.374,59.570,353.027,29.297,-11.230,32.715,0
1542908582.378,30.762,-386.719,26.855,-37.109,31.250,0
1542908582.382,3.906,-1000.000,28.809,-70.801,54.688,0
1542908582.386,2.930,-694.824,30.762,-67.383,19.531,0
1542908582.390,4.883,157.227,27.344,-62.988,11.719,0
1542908582.394,12.207,-119.141,30.762,-62.988,26.855,0
1542908582.398,8.301,-843.262,29.785,-59.570,58.594,0
1542908582.402,-1.953,-414.551,22.949,-62.988,55.664,0
1542908582.406,10.254,353.516,21.973,-60.059,52.734,0
1542908582.410,24.414,-58.105,12.695,-48.340,6.348,0
1542908582.414,26.367,-870.117,15.137,-48.340,-32.715,0
1542908582.417,24.902,-527.344,22.949,-52.246,7.812,0
1542908582.421,28.809,485.352,21.973,-42.969,18.555,0
1542908582.425,31.738,376.465,24.414,-38.574,-7.324,0
1542908582.429,31.738,-689.941,20.508,-38.574,17.090,0
1542908582.433,33.691,-834.961,17.578,-36.133,39.062,0
1542908582.437,37.598,251.953,20.996,-39.062,0.488,0
1542908582.441,37.598,568.848,24.414,-41.992,60.547,0
1542908582.445,22.461,-590.820,26.367,-48.340,67.383,0
1542908582.449,17.578,-858.887,23.438,-49.805,87.891,0
1542908582.453,25.391,294.922,19.043,-46.387,147.461,0
1542908582.456,30.762,639.160,15.625,-50.781,87.891,0
1542908582.460,27.344,-147.461,13.184,-49.805,9.766,0
1542908582.464,28.809,-595.215,16.602,-47.363,5.859,0
1542908582.468,31.250,-181.641,17.090,-50.293,46.875,0
1542908582.472,34.180,456.055,16.113,-45.898,40.527,0
1542908582.476,35.645,83.984,18.555,-40.527,51.270,0
1542908582.480,35.645,-755.859,21.973,-40.527,56.152,0
1542908582.484,36.133,-351.074,20.508,-38.574,-0.977,0
1542908582.488,29.785,246.094,16.602,-47.852,-30.273,0
1542908582.492,39.062,-53.711,11.719,-57.129,64.453,0
1542908582.496,40.039,-361.816,9.766,-57.617,60.059,0
1542908582.499,38.574,-295.410,11.230,-48.340,47.852,0
1542908582.503,50.781,340.820,10.742,-47.852,71.289,0
1542908582.507,42.969,616.211,11.230,-58.105,25.879,0
1542908582.511,32.715,36.133,15.137,-47.852,14.648,0
1542908582.515,34.668,-461.426,17.578,-38.086,54.688,0
1542908582.519,41.992,33.203,15.625,-39.062,74.219,0
1542908582.523,44.922,458.984,11.719,-35.156,66.895,0
1542908582.527,34.180,-141.113,8.301,-37.598,92.773,0
1542908582.531,32.715,-883.789,16.113,-42.969,76.660,0
1542908582.535,43.457,-885.742,18.555,-47.363,59.082,0
1542908582.539,32.715,68.848,17.090,-49.805,36.621,0
1542908582.542,26.367,447.754,18.555,-45.898,36.621,0
1542908582.546,31.738,-506.836,9.766,-48.828,59.570,0
1542908582.550,36.621,-629.395,6.836,-52.734,29.785,0
1542908582.554,40.039,486.328,15.137,-50.293,50.781,0
1542908582.558,43.457,653.809,19.043,-41.016,38.574,0
1542908582.562,48.340,-386.719,14.648,-24.414,14.648,0
1542908582.566,49.316,-699.707,20.508,-24.414,53.223,0
1542908582.570,31.738,57.617,29.785,-43.457,67.383,0
1542908582.574,21.973,373.047,28.809,-54.688,68.848,0
1542908582.578,31.250,-385.742,24.902,-52.734,50.293,0
1542908582.581,30.273,-972.168,25.391,-50.293,0.000,0
1542908582.585,23.438,-181.152,28.320,-44.922,-33.203,0
1542908582.589,24.902,564.941,32.227,-38.086,-2.930,0
1542908582.593,28.320,46.875,25.879,-45.410,33.203,0
1542908582.597,33.203,-708.984,25.879,-46.875,-1.953,0
1542908582.601,40.039,-206.543,27.832,-41.992,34.180,0
1542908582.605,39.062,665.039,20.020,-45.898,98.145,0
1542908582.609,32.227,350.098,22.949,-41.016,51.270,0
1542908582.613,35.156,-566.895,31.250,-38.086,29.785,0
1542908582.617,34.180,-690.430,28.320,-44.922,62.500,0
1542908582.621,35.645,86.426,23.438,-43.945,55.176,0
1542908582.624,31.738,-29.297,22.461,-46.387,13.672,0
1542908582.628,20.020,-656.738,20.996,-42.969,22.949,0
1542908582.632,23.438,-457.031,24.414,-42.480,43.945,0
1542908582.636,33.203,133.301,25.879,-42.480,7.324,0
1542908582.640,37.109,274.902,19.531,-39.062,1.953,0
1542908582.644,29.785,-73.242,20.996,-42.969,59.570,0
1542908582.648,30.762,-540.527,23.438,-41.504,49.316,0
1542908582.652,37.598,-206.543,16.602,-41.504,16.602,0
1542908582.656,35.645,583.008,20.020,-39.551,19.043,0
1542908582.660,36.621,375.000,27.832,-35.156,34.668,0
1542908582.664,42.480,-489.258,28.320,-31.250,62.500,0
1542908582.667,45.410,-647.949,23.926,-31.738,83.496,0
1542908582.671,41.016,-23.926,27.344,-30.762,93.262,0
1542908582.675,38.574,423.828,26.367,-29.297,83.496,0
1542908582.679,36.621,-117.676,18.066,-35.156,66.895,0
1542908582.683,41.504,-460.449,15.625,-37.109,31.738,0
1542908582.687,47.363,330.078,18.066,-31.250,3.906,0
1542908582.691,46.875,782.715,17.578,-27.832,-5.859,0
1542908582.695,41.504,3.906,19.043,-34.668,-13.672,0
1542908582.699,40.527,-583.008,20.020,-37.109,-7.324,0
1542908582.703,42.969,157.715,19.531,-31.250,9.277,0
1542908582.706,35.156,767.578,15.625,-34.668,36.621,0
1542908582.710,30.273,-27.832,13.184,-35.156,45.410,0
1542908582.714,39.551,-958.984,23.926,-31.738,50.781,0
1542908582.718,36.133,-414.551,27.344,-29.785,8.301,0
1542908582.722,20.508,801.270,15.137,-38.086,13.184,0
1542908582.726,20.020,416.016,14.648,-46.875,7.324,0
1542908582.730,23.926,-616.699,17.090,-41.992,-27.344,0
1542908582.734,22.461,-257.812,15.625,-42.480,8.301,0
1542908582.738,19.531,789.062,16.602,-45.898,67.871,0
1542908582.742,32.227,645.996,18.555,-46.387,91.309,0
1542908582.746,32.715,-363.770,20.996,-46.875,38.086,0
1542908582.749,31.738,-433.594,20.508,-46.875,14.160,0
1542908582.753,38.574,500.488,22.949,-37.109,36.133,0
1542908582.757,29.297,427.246,21.973,-37.109,63.477,0
1542908582.761,29.785,-718.750,28.320,-42.480,66.406,0
1542908582.765,37.109,-889.160,35.156,-37.598,32.715,0
1542908582.769,24.414,-1.465,25.879,-42.480,58.105,0
1542908582.773,23.438,611.328,20.996,-41.016,55.664,0
1542908582.777,39.062,118.164,21.484,-32.227,27.344,0
1542908582.781,35.156,-419.922,19.043,-37.598,44.434,0
1542908582.785,23.438,-56.152,19.531,-52.734,40.039,0
1542908582.789,22.461,567.383,24.414,-57.617,-19.043,0
1542908582.792,33.203,366.699,31.250,-41.016,-18.066,0
1542908582.796,40.527,-319.824,35.156,-35.645,13.672,0
1542908582.800,47.852,-225.098,39.551,-38.086,69.824,0
1542908582.804,46.387,276.367,36.621,-35.156,15.137,0
1542908582.808,30.273,212.402,29.297,-29.297,-19.043,0
1542908582.812,28.320,-233.398,29.297,-29.785,19.531,0
1542908582.816,31.250,-432.617,28.320,-28.809,30.762,0
1542908582.820,32.715,-244.141,24.414,-30.273,20.020,0
1542908582.824,32.715,163.574,31.738,-27.832,-0.977,0
1542908582.828,32.715,-65.918,33.691,-23.926,14.648,0
1542908582.831,37.598,-641.602,25.391,-33.203,77.637,0
1542908582.835,49.316,-99.609,27.344,-32.715,39.062,0
1542908582.839,44.922,843.262,27.344,-30.762,42.480,0
1542908582.843,44.922,499.023,29.785,-24.414,134.766,0
1542908582.847,40.039,-481.445,28.320,-22.461,119.141,0
1542908582.851,27.832,-387.207,17.090,-32.227,105.957,0
1542908582.855,35.156,397.949,22.461,-25.391,63.965,0
1542908582.859,35.645,500.977,25.391,-20.508,30.273,0
1542908582.863,39.551,-490.234,24.414,-21.484,14.160,0
1542908582.867,45.898,-773.926,25.391,-24.902,34.668,0
1542908582.871,41.504,457.520,26.855,-23.438,54.199,0
1542908582.874,38.086,827.148,29.785,-26.367,49.805,0
1542908582.878,40.527,-153.809,28.809,-32.715,64.453,0
1542908582.882,42.969,-561.523,25.879,-33.691,33.203,0
1542908582.886,45.898,215.820,32.227,-30.762,57.129,0
1542908582.890,43.457,742.676,33.203,-22.461,114.258,0
1542908582.894,38.574,90.332,23.926,-29.297,96.680,0
1542908582.898,32.227,-743.652,18.555,-35.645,43.457,0
1542908582.902,34.180,-273.438,27.832,-26.855,74.707,0
1542908582.906,43.457,623.047,28.320,-30.273,68.359,0
1542908582.910,34.180,-177.734,24.902,-42.480,27.832,0
1542908582.914,20.996,-940.430,28.320,-36.621,63.477,0
1542908582.917,29.785,-110.840,23.926,-32.715,68.848,0
1542908582.921,28.320,632.812,23.438,-36.621,85.449,0
1542908582.925,23.926,438.965,22.461,-34.668,99.609,0
1542908582.929,30.762,-226.562,12.207,-38.574,51.270,0
1542908582.933,25.391,-300.781,14.648,-43.945,12.695,0
1542908582.937,20.508,353.027,21.973,-42.480,-0.488,0
1542908582.941,26.855,584.961,20.996,-38.086,23.438,0
1542908582.945,35.645,-221.680,9.766,-33.203,58.594,0
1542908582.949,40.039,-749.023,3.906,-34.180,48.340,0
1542908582.953,21.973,-293.945,11.719,-49.805,44.922,0
1542908582.956,8.789,54.688,15.137,-60.547,27.832,0
1542908582.960,23.926,27.344,21.973,-46.875,31.250,0
1542908582.964,33.691,-331.055,30.762,-38.086,87.891,0
1542908582.968,28.320,-97.656,35.645,-45.898,72.754,0
1542908582.972,33.203,597.168,38.086,-47.363,-12.695,0
1542908582.976,25.879,511.230,38.086,-46.875,6.836,0
1542908582.980,9.277,-349.609,36.133,-48.340,9.766,0
1542908582.984,16.602,-420.410,33.203,-45.410,-1.953,0
1542908582.988,24.414,515.625,32.227,-41.992,24.902,0
1542908582.992,22.461,516.113,36.133,-41.016,72.266,0
1542908582.996,23.926,-480.957,39.551,-39.062,76.660,0
1542908582.999,25.879,-1000.000,34.668,-44.922,22.461,0
1542908583.003,33.203,-127.930,28.320,-55.176,52.734,0
1542908583.007,44.922,693.848,26.367,-53.223,70.312,0
1542908583.011,34.668,-96.680,28.809,-49.805,52.246,0
1542908583.015,21.973,-648.438,32.227,-44.922,59.570,0
1542908583.019,27.832,182.129,36.621,-39.062,45.410,0
1542908583.023,29.297,951.172,32.715,-47.852,62.012,0
1542908583.027,30.273,257.324,32.715,-47.852,48.828,0
1542908583.031,26.367,-586.426,35.156,-39.551,6.836,0
1542908583.035,20.020,-109.863,32.227,-43.457,48.340,0
1542908583.039,14.648,591.797,22.949,-54.199,64.453,0
1542908583.042,10.254,3.906,17.578,-56.641,26.855,0
1542908583.046,20.996,-940.918,25.879,-48.340,45.410,0
1542908583.050,37.598,-414.062,28.320,-41.504,21.973,0
1542908583.054,34.668,713.379,25.879,-38.086,28.320,0
1542908583.058,23.438,711.914,25.391,-37.109,79.102,0
1542908583.062,21.484,-161.133,29.785,-36.621,54.688,0
1542908583.066,31.250,-445.801,33.203,-30.762,30.762,0
1542908583.070,33.691,342.285,33.691,-29.785,25.879,0
1542908583.074,21.973,743.164,27.832,-40.527,0.977,0
1542908583.078,22.949,75.195,19.531,-41.016,-6.836,0
1542908583.081,35.156,-344.727,26.367,-33.203,61.523,0
1542908583.085,47.852,52.734,29.297,-28.320,72.754,0
1542908583.089,39.551,126.465,24.414,-35.156,6.836,0
1542908583.093,30.273,-192.383,26.855,-38.574,40.527,0
1542908583.097,29.785,-277.832,20.996,-40.527,91.797,0
1542908583.101,43.945,-82.031,4.395,-36.621,88.867,0
1542908583.105,64.941,545.410,3.418,-24.414,44.434,0
1542908583.109,34.668,613.281,24.414,-34.180,33.691,0
1542908583.113,8.789,-118.652,37.109,-42.480,34.668,0
1542908583.117,26.855,-383.301,34.668,-33.691,16.602,0
1542908583.121,38.574,354.980,35.156,-32.227,-24.414,0
1542908583.124,38.574,573.242,38.574,-45.410,-58.594,0
1542908583.128,29.785,-97.656,36.621,-49.805,13.184,0
1542908583.132,26.367,-741.699,37.109,-39.062,42.480,0
1542908583.136,30.762,-424.316,37.109,-37.109,41.016,0
1542908583.140,37.109,587.891,38.086,-33.203,20.996,0
1542908583.144,34.180,322.754,34.668,-34.668,29.297,0
1542908583.148,31.738,-512.695,25.879,-37.109,45.898,0
1542908583.152,31.738,-56.641,25.879,-40.039,35.156,0
1542908583.156,26.855,870.605,28.809,-42.480,3.418,0
1542908583.160,27.344,539.062,29.785,-38.086,26.855,0
1542908583.164,29.785,-440.430,30.273,-36.621,39.062,0
1542908583.167,33.203,-287.598,31.250,-28.320,15.625,0
1542908583.171,42.480,766.113,33.203,-28.809,67.871,0
1542908583.175,52.734,702.148,28.320,-34.668,70.312,0
1542908583.179,29.785,-512.695,17.578,-38.574,43.457,0
1542908583.183,15.625,-694.824,23.438,-39.551,45.898,0
1542908583.187,23.438,333.496,35.645,-31.250,58.105,0
1542908583.191,25.391,594.238,28.320,-33.203,38.086,0
1542908583.195,33.691,-513.184,26.367,-39.062,43.945,0
1542908583.199,47.852,-855.469,29.785,-27.344,60.059,0
1542908583.203,43.457,224.609,22.949,-23.926,35.645,0
1542908583.206,34.668,683.594,23.926,-25.391,25.391,0
1542908583.210,45.410,48.340,27.344,-25.391,26.855,0
1542908583.214,42.969,-491.699,29.785,-26.855,22.461,0
1542908583.218,31.738,-31.250,34.668,-27.832,3.906,0
1542908583.222,31.250,585.449,32.715,-30.273,-28.320,0
1542908583.226,29.785,121.582,22.949,-32.715,22.461,0
1542908583.230,32.227,-735.352,23.438,-25.879,68.359,0
1542908583.234,42.480,-321.289,31.738,-18.555,75.195,0
1542908583.238,45.898,358.887,27.344,-24.902,78.125,0
1542908583.242,40.039,-15.625,32.227,-27.344,68.848,0
1542908583.246,39.551,-547.852,36.621,-20.020,46.875,0
1542908583.249,47.852,-483.398,31.250,-20.508,66.406,0
1542908583.253,47.363,347.168,32.715,-21.484,99.609,0
1542908583.257,44.434,704.102,31.738,-24.902,58.594,0
1542908583.261,49.805,144.531,20.508,-24.902,62.012,0
1542908583.265,42.969,-437.500,18.555,-24.414,55.664,0
1542908583.269,39.551,65.430,26.367,-26.855,75.684,0
1542908583.273,39.062,561.523,22.461,-33.691,53.711,0
1542908583.277,28.320,31.738,20.508,-37.598,44.434,0
1542908583.281,38.086,-618.652,22.461,-33.203,53.223,0
1542908583.285,44.922,-552.246,25.879,-30.762,39.062,0
1542908583.289,42.969,374.023,30.273,-31.250,6.836,0
1542908583.292,59.082,566.406,22.949,-28.320,-32.227,0
1542908583.296,44.434,-446.777,21.484,-30.273,-4.395,0
1542908583.300,24.414,-710.449,27.344,-34.668,-3.906,0
1542908583.304,30.762,236.816,23.926,-38.086,-46.387,0
1542908583.308,20.996,565.918,22.461,-40.039,34.668,0
1542908583.312,19.043,-185.059,23.438,-35.156,99.121,0
1542908583.316,29.297,-507.324,21.484,-33.691,53.223,0
1542908583.320,31.250,217.773,22.461,-38.574,81.543,0
1542908583.324,30.273,690.430,19.043,-34.668,75.684,0
1542908583.328,47.852,-144.531,26.855,-20.996,-20.020,0
1542908583.331,56.152,-916.016,32.227,-6.348,5.371,0
1542908583.335,26.855,74.707,17.090,-26.367,47.363,0
1542908583.339,9.277,982.422,4.883,-66.895,15.625,0
1542908583.343,12.695,385.742,-2.930,-77.148,24.414,0
1542908583.347,20.996,-449.219,-3.418,-68.359,16.113,0
1542908583.351,17.090,19.531,-11.230,-72.266,37.109,0
1542908583.355,14.160,880.859,-31.250,-77.637,65.430,0
1542908583.359,20.996,615.234,-39.551,-69.824,28.809,0
1542908583.363,28.809,-289.062,-33.691,-61.035,34.668,0
1542908583.367,40.039,-460.938,-19.531,-58.105,59.570,0
1542908583.371,46.875,316.895,-13.184,-57.617,52.734,0
1542908583.374,31.738,188.477,-15.137,-56.152,76.172,0
1542908583.378,23.438,-556.152,-16.113,-57.129,26.855,0
1542908583.382,31.250,-353.027,-20.020,-62.012,0.488,0
