timestamps,TP9,AF7,AF8,TP10,Right AUX,Marker0
2689.962,90.820,33.203,65.918,101.074,131.348,0
2689.965,-25.391,29.785,69.824,-29.785,-0.488,0
2689.969,-48.828,32.715,69.336,-59.570,-98.633,0
2689.973,62.500,34.668,63.477,65.918,49.316,0
2689.977,100.586,34.180,62.988,117.188,149.902,0
2689.981,1.953,34.668,65.430,3.418,35.156,0
2689.985,-54.688,33.691,63.965,-75.195,-87.402,0
2689.989,35.645,33.203,62.988,28.809,9.766,0
2689.993,111.816,37.109,62.500,121.582,142.090,0
2689.997,36.621,35.645,62.988,38.086,108.398,0
2690.001,-55.176,32.227,66.406,-67.871,-40.039,0
2690.005,9.766,35.156,67.871,-4.395,-43.945,0
2690.008,111.816,35.156,68.848,114.258,99.121,0
2690.012,68.359,32.715,71.289,74.707,124.023,0
2690.016,-44.434,34.180,70.312,-56.152,0.488,0
2690.020,-27.344,36.621,70.312,-41.504,-49.805,0
2690.024,84.473,33.691,71.289,90.332,71.289,0
2690.028,90.820,32.715,73.242,103.516,134.277,0
2690.032,-18.555,30.762,71.777,-27.832,33.691,0
2690.036,-47.363,28.320,70.801,-64.453,-45.410,0
2690.040,61.035,36.133,73.242,66.895,37.109,0
2690.044,109.375,42.969,74.219,128.418,132.324,0
2690.048,12.207,40.527,72.266,20.020,77.148,0
2690.051,-52.734,40.527,72.754,-63.965,-52.734,0
2690.055,31.250,40.039,76.660,22.461,-35.645,0
2690.059,108.398,36.133,75.684,114.258,105.469,0
2690.063,41.504,34.180,74.219,41.992,116.699,0
2690.067,-56.152,35.645,75.195,-68.848,-61.035,0
2690.071,-4.883,42.480,76.172,-16.113,-74.219,0
2690.075,108.398,46.875,75.195,108.887,85.449,0
2690.079,79.102,45.410,73.242,88.379,112.305,0
2690.083,-38.574,40.527,69.336,-42.969,-19.531,0
2690.087,-32.227,38.574,72.266,-42.480,-74.219,0
2690.090,81.543,41.016,77.148,88.867,64.453,0
2690.094,94.238,42.480,78.613,113.281,150.391,0
2690.098,-11.719,38.574,80.566,-6.836,46.387,0
2690.102,-42.969,42.480,83.008,-57.129,-102.539,0
2690.106,60.547,48.828,83.008,57.617,-3.906,0
2690.110,117.188,42.480,80.078,131.348,159.180,0
2690.114,25.391,37.598,77.637,28.809,51.270,0
2690.118,-52.246,36.621,78.613,-68.359,-98.145,0
2690.122,27.832,41.016,78.125,15.137,-39.062,0
2690.126,117.676,43.945,74.219,121.582,113.770,0
2690.130,56.152,41.992,73.242,57.617,110.840,0
2690.133,-45.410,41.992,73.242,-62.988,-39.062,0
2690.137,-7.812,39.551,73.242,-18.066,-46.875,0
2690.141,97.656,37.109,71.289,109.375,86.426,0
2690.145,87.402,39.551,71.289,89.844,138.672,0
2690.149,-22.461,43.945,74.707,-36.133,3.906,0
2690.153,-31.250,47.363,77.637,-43.945,-62.012,0
2690.157,85.449,51.270,74.707,80.566,60.547,0
2690.161,109.863,51.758,71.289,109.375,143.555,0
2690.165,0.488,51.758,72.266,-16.113,53.223,0
2690.169,-45.898,51.270,72.754,-73.242,-58.594,0
2690.173,49.805,47.852,73.730,37.109,3.418,0
2690.176,110.352,45.410,78.613,114.746,123.047,0
2690.180,26.855,41.992,80.078,29.785,62.500,0
2690.184,-52.734,40.039,74.219,-67.871,-75.195,0
2690.188,15.137,44.922,69.336,-0.977,-37.598,0
2690.192,109.863,52.246,66.895,112.305,64.453,0
2690.196,60.059,50.781,68.359,65.430,62.500,0
2690.200,-45.898,46.875,71.289,-57.617,-41.016,0
2690.204,-18.555,49.316,73.242,-34.180,-87.891,0
2690.208,96.680,53.711,71.777,98.145,15.625,0
2690.212,83.008,49.805,68.359,98.633,95.703,0
2690.215,-40.039,40.527,64.453,-30.273,1.953,0
2690.219,-51.270,37.109,67.383,-59.082,-104.004,0
2690.223,59.082,41.016,71.777,59.570,-16.602,0
2690.227,92.285,42.480,68.359,107.910,123.047,0
2690.231,-4.883,41.504,67.383,-3.906,57.617,0
2690.235,-58.594,38.574,69.336,-74.707,-82.031,0
2690.239,33.203,36.621,70.312,24.414,-17.578,0
2690.243,110.352,38.086,72.266,116.211,141.602,0
2690.247,34.180,38.086,72.266,36.133,111.816,0
2690.251,-55.664,34.180,72.266,-74.707,-33.203,0
2690.255,10.742,33.691,71.289,-12.207,-27.832,0
2690.258,114.746,30.762,70.312,110.352,120.605,0
2690.262,69.336,28.809,70.801,80.078,113.281,0
2690.266,-43.457,31.250,71.777,-39.551,-45.410,0
2690.270,-28.320,28.809,71.777,-26.855,-101.074,0
2690.274,83.496,28.809,67.383,99.121,44.434,0
2690.278,86.914,33.203,70.312,109.375,154.785,0
2690.282,-29.297,29.785,76.172,-25.391,2.930,0
2690.286,-49.316,27.344,80.078,-62.500,-116.699,0
2690.290,63.965,32.715,78.125,63.477,31.738,0
2690.294,112.793,35.156,72.266,120.117,165.039,0
2690.298,23.926,32.715,73.242,8.789,67.383,0
2690.301,-33.203,36.621,75.684,-70.312,-72.754,0
2690.305,60.059,40.039,75.195,24.902,-20.020,0
2690.309,145.020,33.691,74.707,120.605,93.750,0
2690.313,76.660,33.203,73.730,40.527,43.457,0
2690.317,-22.461,34.180,73.730,-78.125,-85.938,0
2690.321,23.438,33.203,77.637,-18.555,-50.781,0
2690.325,119.141,33.203,79.102,109.863,82.031,0
2690.329,78.125,28.320,75.684,87.402,97.656,0
2690.333,-44.434,23.438,75.195,-40.527,3.418,0
2690.337,-45.410,24.902,78.125,-41.016,-73.730,0
2690.340,64.941,24.902,76.660,91.797,42.480,0
2690.344,81.055,21.484,76.172,118.652,172.363,0
2690.348,-24.414,21.484,77.148,-7.324,63.477,0
2690.352,-58.105,17.090,73.242,-62.500,-57.617,0
2690.356,44.922,20.508,67.383,49.805,-8.789,0
2690.360,98.633,25.879,70.801,119.629,118.652,0
2690.364,8.789,21.973,75.195,18.555,95.215,0
2690.368,-64.941,20.020,75.684,-72.754,-46.875,0
2690.372,15.137,24.902,79.102,11.719,-47.363,0
2690.376,105.469,27.344,79.102,120.605,73.730,0
2690.380,41.992,23.438,76.660,65.918,125.000,0
2690.383,-54.688,20.996,76.660,-48.828,-17.578,0
2690.387,-7.324,19.043,73.730,-12.695,-81.543,0
2690.391,99.121,25.391,74.707,109.863,65.430,0
2690.395,78.613,27.344,74.219,94.727,132.324,0
2690.399,-36.621,24.902,71.777,-38.574,25.879,0
2690.403,-40.039,26.367,72.266,-54.688,-65.918,0
2690.407,76.660,27.832,70.312,69.824,36.133,0
2690.411,98.145,30.762,72.266,106.445,143.066,0
2690.415,-14.160,31.250,73.242,-12.695,31.738,0
2690.419,-56.641,29.785,72.266,-76.172,-80.566,0
2690.423,46.387,28.320,70.312,35.156,-5.371,0
2690.426,111.328,26.855,70.312,119.141,140.137,0
2690.430,25.391,25.879,70.312,29.297,89.844,0
2690.434,-58.105,26.855,69.824,-74.707,-94.238,0
2690.438,10.254,28.320,71.289,-6.348,-50.293,0
2690.442,106.934,32.227,70.801,111.328,114.258,0
2690.446,53.711,33.691,73.730,65.430,112.793,0
2690.450,-51.270,32.227,77.637,-61.523,-34.668,0
2690.454,-14.648,36.621,77.637,-34.180,-86.914,0
2690.458,99.121,38.574,73.730,94.727,50.781,0
2690.462,90.332,37.598,72.754,90.332,103.027,0
2690.465,-31.250,34.180,73.242,-35.645,-37.109,0
2690.469,-41.016,29.785,74.219,-63.477,-119.629,0
2690.473,71.777,30.762,74.219,54.688,0.977,0
2690.477,101.074,32.715,72.754,106.445,145.508,0
2690.481,0.488,31.250,69.824,-4.883,65.918,0
2690.485,-57.129,31.738,67.871,-83.008,-72.754,0
2690.489,38.086,32.227,69.824,19.043,-4.883,0
2690.493,115.234,34.180,68.359,113.770,132.812,0
2690.497,35.156,32.715,63.477,27.832,85.449,0
2690.501,-49.316,30.273,62.012,-79.102,-80.078,0
2690.505,14.648,32.227,63.477,-14.648,-60.059,0
2690.508,110.352,35.156,64.941,101.562,82.520,0
2690.512,62.500,34.180,64.941,65.918,109.375,0
2690.516,-49.316,28.809,62.012,-61.523,-24.414,0
2690.520,-21.484,29.785,61.035,-48.340,-64.941,0
2690.524,99.609,35.645,59.570,85.938,72.754,0
2690.528,104.004,34.668,56.152,100.586,149.902,0
2690.532,-13.672,29.297,56.152,-26.855,35.645,0
2690.536,-43.457,24.414,58.594,-65.430,-100.586,0
2690.540,66.406,22.461,54.688,48.828,-4.883,0
2690.544,109.863,23.926,55.664,110.352,138.672,0
2690.548,9.766,23.926,57.617,5.371,57.617,0
2690.551,-55.664,24.902,56.152,-89.355,-92.773,0
2690.555,32.715,32.227,58.594,2.930,-34.668,0
2690.559,111.328,34.180,62.988,110.840,149.414,0
2690.563,35.645,25.879,59.570,42.480,111.816,0
2690.567,-60.059,21.973,55.176,-72.266,-53.711,0
2690.571,-7.324,26.367,54.199,-22.949,-24.902,0
2690.575,95.215,28.809,55.664,95.703,124.512,0
2690.579,60.547,23.438,57.617,69.824,128.418,0
2690.583,-49.316,22.461,59.082,-51.270,-13.184,0
2690.587,-42.480,27.832,61.035,-48.828,-49.316,0
2690.590,71.777,30.762,58.594,78.613,73.242,0
2690.594,85.449,26.855,56.152,100.098,102.051,0
2690.598,-24.414,27.344,56.641,-20.508,-20.020,0
2690.602,-59.570,30.762,52.246,-67.383,-72.754,0
2690.606,39.551,31.250,50.781,44.922,23.438,0
2690.610,98.633,36.133,52.734,117.676,137.207,0
2690.614,6.348,38.574,49.316,16.113,70.801,0
2690.618,-70.312,32.227,51.758,-74.707,-79.590,0
2690.622,11.719,30.273,55.664,15.137,-28.320,0
2690.626,109.375,36.621,55.176,125.000,125.488,0
2690.630,49.805,37.598,56.641,65.430,110.352,0
2690.633,-53.711,33.203,54.688,-57.129,-34.180,0
2690.637,-11.719,32.715,51.270,-17.578,-53.711,0
2690.641,98.145,36.621,52.246,110.840,77.637,0
2690.645,78.613,35.156,54.688,93.750,140.137,0
2690.649,-31.738,32.227,55.664,-33.691,22.461,0
2690.653,-35.645,33.691,58.105,-43.457,-68.848,0
2690.657,71.289,34.180,57.129,85.938,52.246,0
2690.661,97.168,34.180,52.246,126.953,139.648,0
2690.665,-9.277,33.203,45.410,5.371,29.785,0
2690.669,-56.641,34.668,42.969,-55.664,-80.566,0
2690.673,38.086,38.574,42.969,51.758,4.395,0
2690.676,103.027,40.527,43.945,132.324,128.418,0
2690.680,32.227,41.992,47.852,47.852,52.734,0
2690.684,-47.363,37.109,53.711,-49.805,-85.938,0
2690.688,15.625,37.109,59.082,19.531,-81.543,0
2690.692,112.305,43.457,62.012,126.953,85.938,0
2690.696,60.547,41.504,63.965,79.590,137.207,0
2690.700,-45.898,40.527,63.965,-41.504,-25.391,0
2690.704,-17.578,44.434,60.059,-18.555,-92.773,0
2690.708,96.680,47.363,57.617,105.469,67.871,0
2690.712,91.797,47.852,62.500,104.980,144.531,0
2690.715,-23.438,44.922,64.941,-21.484,-0.977,0
2690.719,-38.574,43.457,60.059,-52.734,-73.730,0
2690.723,76.660,42.969,57.129,68.359,63.477,0
2690.727,111.816,38.574,53.223,113.770,165.527,0
2690.731,-6.348,36.133,52.246,-1.953,66.895,0
2690.735,-63.477,41.992,55.664,-66.895,-78.613,0
2690.739,37.598,45.410,52.246,33.203,0.000,0
2690.743,111.816,46.875,48.828,124.512,149.414,0
2690.747,34.668,47.852,52.734,44.922,84.961,0
2690.751,-56.641,44.922,52.246,-64.941,-58.594,0
2690.755,6.348,45.898,46.875,1.953,-35.645,0
2690.758,109.375,47.852,44.922,117.188,91.309,0
2690.762,66.895,50.781,46.387,76.660,97.168,0
2690.766,-42.969,48.828,48.828,-49.316,-11.719,0
2690.770,-27.832,43.945,49.805,-37.109,-58.594,0
2690.774,84.961,41.992,48.340,92.285,63.477,0
2690.778,88.867,41.504,46.875,104.004,125.488,0
2690.782,-25.391,41.504,44.922,-23.438,17.090,0
2690.786,-52.246,37.598,46.387,-59.082,-88.867,0
2690.790,59.570,38.574,50.293,65.430,12.695,0
2690.794,104.492,42.969,45.898,119.141,119.629,0
2690.798,7.812,41.016,46.875,11.719,41.016,0
2690.801,-54.199,38.086,54.688,-70.312,-66.895,0
2690.805,30.273,40.039,56.641,19.531,-20.508,0
2690.809,109.863,41.016,55.664,119.141,115.234,0
2690.813,44.922,33.691,56.152,56.152,120.117,0
2690.817,-37.109,33.203,60.547,-46.387,-19.043,0
2690.821,11.230,39.551,54.688,-15.137,-61.523,0
2690.825,94.727,44.922,46.387,81.543,74.219,0
2690.829,56.641,45.410,48.340,60.547,124.512,0
2690.833,-45.898,41.504,54.199,-58.105,1.953,0
2690.837,-36.621,42.969,53.223,-61.523,-86.426,0
2690.840,79.102,50.293,49.805,63.477,54.688,0
2690.844,85.938,47.363,49.805,89.844,144.531,0
2690.848,-31.738,40.527,52.734,-27.832,-5.371,0
2690.852,-61.523,45.410,56.641,-77.148,-95.215,0
2690.856,44.434,51.270,60.547,35.156,21.484,0
2690.860,100.586,48.340,62.012,107.422,134.766,0
2690.864,11.230,44.434,63.477,12.695,54.688,0
2690.868,-65.918,41.992,64.453,-77.148,-101.562,0
2690.872,12.695,46.875,61.035,7.812,-79.102,0
2690.876,110.840,53.711,61.523,118.164,99.121,0
2690.880,49.316,47.852,62.012,50.781,95.215,0
2690.883,-56.641,40.527,59.570,-73.242,-73.242,0
2690.887,-10.742,46.875,59.082,-21.973,-65.918,0
2690.891,96.191,46.875,55.176,105.957,105.469,0
2690.895,75.684,39.551,54.688,80.566,130.859,0
2690.899,-36.133,38.086,55.176,-47.852,-13.672,0
2690.903,-34.180,39.551,50.781,-59.082,-77.637,0
2690.907,84.473,37.598,45.410,65.430,35.645,0
2690.911,105.469,34.668,42.969,106.445,125.977,0
2690.915,-0.488,34.180,45.898,-5.859,50.781,0
2690.919,-42.969,34.668,49.316,-63.477,-75.195,0
2690.923,54.199,36.621,52.734,41.992,-20.020,0
2690.926,115.234,35.645,58.105,117.188,111.328,0
2690.930,29.785,34.180,61.035,29.297,51.758,0
2690.934,-55.176,36.621,58.594,-69.336,-74.219,0
2690.938,19.043,41.992,60.059,-1.465,-45.898,0
2690.942,118.652,41.016,60.547,116.699,103.027,0
2690.946,70.801,39.551,57.129,69.824,113.770,0
2690.950,-38.574,39.551,54.688,-55.176,-22.949,0
2690.954,-12.207,38.574,56.641,-25.879,-58.105,0
2690.958,105.469,40.527,62.500,108.887,58.105,0
2690.962,97.168,42.969,62.012,108.398,145.996,0
2690.965,-21.973,39.062,58.105,-22.461,28.809,0
2690.969,-40.527,28.320,59.570,-50.293,-66.406,0
2690.973,68.848,27.832,57.617,72.754,41.016,0
2690.977,99.609,28.320,56.152,115.723,127.441,0
2690.981,-2.441,24.414,57.617,-0.488,50.781,0
2690.985,-59.570,24.414,53.223,-70.801,-56.152,0
2690.989,32.715,28.320,48.340,28.320,-6.348,0
2690.993,110.352,31.738,48.828,122.559,142.578,0
2690.997,31.738,33.203,50.781,42.480,123.535,0
2691.001,-63.965,30.762,49.316,-67.383,-44.922,0
2691.005,-1.953,28.809,50.293,-2.930,-45.410,0
2691.008,105.957,35.156,53.223,115.723,115.234,0
2691.012,64.941,32.227,51.758,80.566,116.211,0
2691.016,-43.945,26.367,53.223,-41.504,-56.641,0
2691.020,-20.020,29.785,54.688,-32.227,-102.539,0
2691.024,92.773,33.203,52.734,97.168,68.848,0
2691.028,91.797,29.297,51.758,101.562,148.926,0
2691.032,-17.578,25.391,54.199,-23.438,15.625,0
2691.036,-43.457,25.879,53.711,-57.129,-66.895,0
2691.040,58.594,30.762,49.805,59.570,25.391,0
2691.044,97.168,30.762,50.293,121.094,118.652,0
2691.048,-2.930,29.297,51.270,16.113,56.152,0
2691.051,-63.477,36.133,51.270,-67.383,-76.660,0
2691.055,37.109,37.598,44.922,19.043,3.906,0
2691.059,125.488,34.668,42.969,116.211,125.488,0
2691.063,56.641,35.156,46.875,38.574,79.590,0
2691.067,-33.203,39.062,43.457,-79.590,-38.574,0
2691.071,19.043,36.621,41.016,-27.344,-26.855,0
2691.075,127.441,32.227,46.387,98.145,110.352,0
2691.079,95.703,31.738,46.875,76.172,119.629,0
2691.083,-25.879,27.344,46.387,-47.363,3.906,0
2691.087,-31.250,27.344,45.898,-43.457,-36.133,0
2691.090,80.078,30.762,40.527,89.844,58.105,0
2691.094,93.262,28.809,40.039,118.164,128.906,0
2691.098,-22.949,24.414,45.410,-3.906,43.457,0
2691.102,-58.105,21.973,44.922,-57.129,-73.242,0
2691.106,48.828,22.461,41.504,48.828,11.230,0
2691.110,101.074,20.508,40.039,114.258,136.230,0
2691.114,8.301,20.508,40.039,15.137,87.891,0
2691.118,-62.500,25.391,43.457,-71.777,-38.086,0
2691.122,13.672,26.367,42.480,6.836,-32.715,0
2691.126,104.004,27.832,42.480,111.816,94.727,0
2691.130,46.387,29.297,42.480,62.012,108.887,0
2691.133,-62.012,24.902,46.875,-55.664,-18.555,0
2691.137,-19.531,23.438,53.711,-17.090,-55.176,0
2691.141,94.238,28.320,52.734,103.516,74.219,0
2691.145,70.801,27.832,49.805,83.984,128.906,0
2691.149,-41.504,28.809,49.805,-41.016,-0.977,0
2691.153,-40.527,27.832,46.387,-51.270,-83.984,0
2691.157,74.219,25.879,44.434,72.754,18.555,0
2691.161,101.562,32.227,45.410,110.352,137.207,0
2691.165,-10.254,33.691,45.410,-8.789,37.109,0
2691.169,-61.523,33.691,44.922,-73.242,-105.469,0
2691.173,41.504,35.645,41.992,36.133,-19.531,0
2691.176,107.910,38.086,39.551,118.652,123.535,0
2691.180,22.461,37.598,41.992,30.273,65.430,0
2691.184,-60.059,38.574,44.434,-69.824,-72.266,0
2691.188,10.742,47.852,43.945,2.441,-34.180,0
2691.192,109.375,51.270,44.434,118.652,115.234,0
2691.196,59.570,42.969,44.434,65.430,136.719,0
2691.200,-51.758,37.109,44.434,-60.547,-10.254,0
2691.204,-21.973,40.527,44.434,-29.297,-53.711,0
2691.208,100.098,41.504,41.016,102.051,98.633,0
2691.212,92.773,39.551,40.039,101.074,151.367,0
2691.215,-21.484,40.527,43.945,-33.203,10.254,0
2691.219,-33.203,42.969,40.527,-60.059,-82.520,0
2691.223,71.777,41.016,36.133,62.500,18.555,0
2691.227,106.934,37.109,39.062,108.398,131.836,0
2691.231,-1.465,36.133,38.574,-4.395,52.734,0
2691.235,-62.012,31.738,37.109,-79.102,-75.684,0
2691.239,35.156,33.203,38.574,21.973,-18.066,0
2691.243,112.305,38.086,44.922,114.258,118.652,0
2691.247,38.574,37.598,50.781,35.156,79.590,0
2691.251,-54.688,35.645,46.875,-67.871,-25.879,0
2691.255,2.930,32.227,43.945,-13.184,-20.996,0
2691.258,104.004,34.180,44.922,98.145,76.172,0
2691.262,63.477,33.203,38.574,60.059,115.723,0
2691.266,-47.852,30.762,37.109,-60.547,-1.465,0
2691.270,-28.809,30.273,41.992,-44.434,-33.691,0
2691.274,88.867,32.227,42.969,86.914,85.938,0
2691.278,100.586,37.109,45.410,100.586,133.789,0
2691.282,-12.207,35.645,44.922,-26.855,21.973,0
2691.286,-39.551,38.086,41.504,-64.941,-89.355,0
2691.290,71.777,44.434,45.410,55.176,-1.953,0
2691.294,112.793,44.434,48.340,114.258,118.164,0
2691.298,10.742,41.504,46.387,13.672,64.941,0
2691.301,-52.734,41.504,46.387,-62.988,-74.707,0
2691.305,33.691,41.016,49.805,23.438,-41.504,0
2691.309,107.910,35.645,50.781,113.770,145.996,0
2691.313,40.527,33.203,53.223,44.922,154.297,0
2691.317,-53.711,31.250,53.223,-63.965,-1.953,0
2691.321,-7.324,29.297,50.293,-16.113,-23.926,0
2691.325,96.680,30.762,45.410,102.539,112.793,0
2691.329,67.871,33.203,43.945,79.590,159.668,0
2691.333,-40.039,29.785,44.922,-45.410,9.766,0
2691.337,-30.762,25.391,44.434,-46.875,-108.887,0
2691.340,76.172,27.832,45.410,82.520,6.836,0
2691.344,91.309,27.832,46.875,108.398,94.727,0
2691.348,-16.602,26.855,47.852,-16.602,-6.836,0
2691.352,-58.105,26.855,50.293,-63.477,-79.102,0
2691.356,49.805,27.344,51.758,58.105,33.203,0
2691.360,109.375,27.344,42.969,130.371,133.301,0
2691.364,13.672,25.879,36.621,23.438,71.289,0
2691.368,-62.012,25.879,42.969,-68.359,-45.898,0
2691.372,20.020,31.250,43.457,20.996,-21.484,0
2691.376,109.863,29.297,39.062,122.070,95.215,0
2691.380,51.270,21.973,36.133,54.688,85.938,0
2691.383,-49.316,20.996,34.668,-59.570,-28.809,0
2691.387,-9.766,24.902,34.668,-16.602,-54.199,0
2691.391,100.586,31.738,37.598,110.352,58.105,0
2691.395,83.008,33.203,36.133,97.168,116.211,0
2691.399,-28.320,29.297,31.738,-25.391,2.930,0
2691.403,-30.762,28.320,32.715,-37.598,-77.637,0
2691.407,84.961,33.203,36.133,88.379,33.203,0
2691.411,112.305,30.762,39.551,127.441,156.250,0
2691.415,2.930,26.855,41.992,14.648,83.984,0
2691.419,-51.758,28.320,41.992,-50.781,-61.523,0
2691.423,42.969,30.762,39.551,46.387,16.113,0
2691.426,109.863,32.227,42.480,127.441,155.273,0
2691.430,24.902,29.785,43.945,40.039,88.379,0
2691.434,-58.594,23.438,41.504,-62.988,-71.777,0
2691.438,14.648,25.391,45.410,7.324,-62.500,0
2691.442,116.699,29.785,48.828,119.141,111.328,0
2691.446,72.266,29.297,47.852,72.754,127.930,0
2691.450,-34.668,33.691,46.875,-50.293,-30.762,0
2691.454,-4.883,41.504,49.316,-22.949,-81.543,0
2691.458,107.422,44.922,48.340,105.469,61.035,0
2691.462,94.238,44.434,45.898,102.539,122.559,0
2691.465,-18.066,41.504,48.828,-20.996,-19.043,0
2691.469,-27.832,38.574,47.852,-49.805,-76.660,0
2691.473,80.566,38.574,41.992,70.312,28.320,0
2691.477,113.770,38.086,41.992,117.676,108.398,0
2691.481,10.254,33.691,43.457,2.930,31.738,0
2691.485,-48.340,34.180,42.480,-66.895,-91.797,0
2691.489,42.480,39.551,43.457,35.156,-17.090,0
2691.493,112.793,41.504,47.363,131.836,130.859,0
2691.497,33.691,37.598,48.828,45.410,70.801,0
2691.501,-57.617,34.180,44.434,-67.383,-101.074,0
2691.505,6.348,38.574,44.434,3.906,-42.969,0
2691.508,110.840,43.945,49.805,122.070,109.375,0
2691.512,71.289,42.480,51.758,83.984,120.117,0
2691.516,-39.551,35.645,47.852,-47.363,-3.418,0
2691.520,-24.414,29.297,45.410,-40.527,-71.289,0
2691.524,88.379,26.855,44.434,92.773,44.434,0
2691.528,88.867,26.367,42.480,105.469,136.719,0
2691.532,-25.879,28.809,41.992,-20.508,20.508,0
2691.536,-49.805,27.832,42.480,-62.012,-100.586,0
2691.540,58.594,30.273,44.434,57.129,3.906,0
2691.544,105.469,31.738,39.551,117.188,120.605,0
2691.548,7.812,27.344,38.574,9.277,77.637,0
2691.551,-56.641,26.367,44.434,-70.801,-25.391,0
2691.555,26.367,25.879,43.457,20.020,21.484,0
2691.559,101.562,25.391,43.457,119.141,162.598,0
2691.563,33.203,27.832,46.387,49.316,144.531,0
2691.567,-60.547,27.832,48.828,-63.477,-9.766,0
2691.571,-7.324,25.391,45.410,-13.184,-55.176,0
2691.575,100.586,31.250,45.410,109.375,96.680,0
2691.579,69.336,34.180,47.852,83.984,150.879,0
2691.583,-41.504,33.203,46.387,-41.992,-1.953,0
2691.587,-37.109,33.203,45.898,-42.969,-86.914,0
2691.590,76.172,34.180,43.945,81.055,43.945,0
2691.594,95.215,37.109,40.039,110.352,158.691,0
2691.598,-15.137,34.180,38.574,-8.789,26.367,0
2691.602,-51.270,33.203,40.039,-59.570,-92.773,0
2691.606,60.547,36.621,38.574,60.059,-1.465,0
2691.610,118.164,38.574,36.621,126.465,134.277,0
2691.614,22.461,37.109,37.109,22.461,80.078,0
2691.618,-51.270,33.203,33.691,-64.453,-82.520,0
2691.622,28.320,32.715,28.320,19.531,-31.738,0
2691.626,117.188,34.668,29.297,125.000,134.766,0
2691.630,52.246,31.738,32.715,60.059,116.699,0
2691.633,-51.270,32.227,35.645,-62.500,-43.457,0
2691.637,-11.230,38.574,32.715,-22.949,-49.805,0
2691.641,96.680,41.016,29.785,104.004,79.102,0
2691.645,80.566,38.086,33.691,93.750,109.375,0
2691.649,-31.738,33.691,33.691,-31.738,9.766,0
2691.653,-34.668,35.645,32.227,-45.898,-55.176,0
2691.657,78.125,40.039,32.227,78.125,67.871,0
2691.661,102.051,40.527,28.809,112.793,150.879,0
2691.665,-8.789,36.621,28.320,-4.395,24.902,0
2691.669,-54.199,34.668,32.227,-60.547,-104.492,0
2691.673,51.270,37.598,34.668,52.246,-17.090,0
2691.676,113.281,41.992,37.109,126.465,105.957,0
2691.680,22.949,42.480,36.133,30.273,57.617,0
2691.684,-61.523,38.574,36.133,-64.453,-46.387,0
2691.688,12.207,37.109,39.551,12.207,-24.414,0
2691.692,115.234,42.969,40.527,122.559,130.371,0
2691.696,64.941,41.504,41.504,65.430,145.508,0
2691.700,-45.410,41.504,41.504,-54.688,-9.277,0
2691.704,-15.137,47.363,38.574,-29.297,-56.641,0
2691.708,94.727,44.922,34.668,90.332,68.359,0
2691.712,87.402,41.016,35.156,94.727,111.816,0
2691.715,-22.949,36.133,41.016,-24.414,-34.180,0
2691.719,-34.180,36.133,39.551,-52.246,-114.258,0
2691.723,80.078,41.992,35.156,65.430,2.930,0
2691.727,110.840,41.992,36.621,112.305,132.324,0
2691.731,5.859,36.621,42.969,7.812,56.152,0
2691.735,-51.758,36.133,40.039,-66.406,-81.543,0
2691.739,40.527,35.156,36.133,29.297,-19.043,0
2691.743,110.840,35.156,39.551,122.070,104.492,0
2691.747,28.320,33.203,39.551,39.551,82.520,0
2691.751,-64.453,28.809,40.527,-62.988,-39.062,0
2691.755,-2.930,32.227,44.434,-2.441,-33.203,0
2691.758,103.516,31.250,47.363,112.793,110.840,0
2691.762,64.941,29.297,51.270,79.102,114.258,0
2691.766,-44.922,28.809,49.316,-48.340,-39.551,0
2691.770,-25.391,25.879,46.875,-40.039,-74.707,0
2691.774,85.938,24.902,51.758,87.402,84.473,0
2691.778,88.867,25.391,53.223,101.562,142.578,0
2691.782,-21.484,22.949,49.805,-23.438,-3.906,0
2691.786,-49.316,20.508,49.316,-56.152,-92.285,0
2691.790,60.547,26.855,50.781,63.965,5.371,0
2691.794,106.934,30.273,48.828,120.605,129.395,0
2691.798,7.812,23.438,46.387,15.137,65.918,0
2691.801,-56.641,21.973,46.387,-65.918,-56.641,0
2691.805,31.738,25.879,41.992,23.926,-11.719,0
2691.809,112.793,25.879,43.945,120.605,104.492,0
2691.813,45.410,29.297,43.945,48.340,67.871,0
2691.817,-50.293,28.320,38.086,-63.965,-65.918,0
2691.821,-5.371,21.973,41.992,-8.789,-63.965,0
2691.825,100.586,20.996,52.246,112.305,79.590,0
2691.829,66.406,21.484,50.781,78.125,99.609,0
2691.833,-50.293,18.555,46.875,-50.293,-25.391,0
2691.837,-43.945,18.555,47.852,-48.340,-75.684,0
2691.840,65.918,23.438,46.387,76.660,58.594,0
2691.844,83.008,28.809,46.875,102.539,138.672,0
2691.848,-19.531,30.762,44.434,-16.113,17.090,0
2691.852,-46.387,32.715,39.062,-67.871,-80.566,0
2691.856,59.570,32.715,37.598,40.527,12.207,0
2691.860,122.559,29.785,38.086,113.770,132.324,0
2691.864,39.551,28.320,38.086,16.113,81.543,0
2691.868,-34.668,33.203,41.992,-75.195,-38.086,0
2691.872,48.340,38.086,45.898,0.488,-31.250,0
2691.876,137.207,37.109,43.945,97.656,91.797,0
2691.880,72.754,35.156,41.016,49.316,109.375,0
2691.883,-40.527,32.227,41.016,-60.059,-36.133,0
2691.887,-8.301,28.320,38.574,-23.438,-58.105,0
2691.891,103.027,31.250,39.062,106.934,94.238,0
2691.895,81.543,31.250,41.504,98.145,120.117,0
2691.899,-35.645,25.391,42.480,-24.902,-4.883,0
2691.903,-38.574,20.996,43.945,-36.621,-74.219,0
2691.907,73.730,25.391,43.945,91.797,56.152,0
2691.911,99.121,36.621,40.039,124.023,185.547,0
2691.915,-5.859,32.715,41.016,1.465,40.039,0
2691.919,-53.711,27.832,45.410,-55.664,-115.234,0
2691.923,42.480,30.762,45.410,49.805,-6.348,0
2691.926,110.840,33.691,44.434,130.859,153.320,0
2691.930,27.344,32.227,45.898,38.574,89.844,0
2691.934,-58.105,33.203,42.480,-62.988,-67.871,0
2691.938,11.230,33.203,41.016,11.719,-33.691,0
2691.942,110.352,29.785,42.480,123.535,113.281,0
2691.946,61.523,32.227,41.992,71.289,118.164,0
2691.950,-49.316,34.180,43.457,-57.129,-43.457,0
2691.954,-18.066,37.598,43.457,-29.297,-70.801,0
2691.958,94.727,41.504,41.016,100.586,102.539,0
2691.962,88.867,43.457,39.062,99.609,141.602,0
2691.965,-22.949,40.527,37.598,-25.391,-10.742,0
2691.969,-33.203,36.133,38.086,-51.758,-61.523,0
2691.973,79.590,31.738,38.574,70.312,38.086,0
2691.977,114.258,28.320,37.598,119.629,119.141,0
2691.981,12.207,31.738,40.039,10.254,57.129,0
2691.985,-45.898,31.250,39.062,-66.406,-53.223,0
2691.989,46.875,29.785,32.227,27.344,-12.695,0
2691.993,122.070,38.574,32.715,122.559,109.863,0
2691.997,43.457,38.086,33.691,43.457,75.684,0
2692.001,-51.270,30.762,32.227,-64.453,-57.129,0
2692.005,8.301,32.715,33.691,-7.812,-52.246,0
2692.008,105.957,39.551,36.621,107.422,70.801,0
2692.012,63.965,40.039,42.480,76.660,118.164,0
2692.016,-39.062,37.598,45.898,-46.875,-15.625,0
2692.020,-16.113,39.551,41.016,-37.598,-84.961,0
2692.024,90.332,40.039,36.621,85.938,59.570,0
2692.028,87.402,40.527,39.551,98.145,136.230,0
2692.032,-26.367,37.109,42.480,-26.367,-8.301,0
2692.036,-47.363,31.738,42.969,-66.406,-107.422,0
2692.040,68.848,35.156,43.945,56.641,14.160,0
2692.044,115.723,41.504,48.340,119.141,142.578,0
2692.048,19.531,35.156,50.293,15.625,74.707,0
2692.051,-51.758,21.973,39.551,-73.730,-68.848,0
2692.055,30.762,24.902,35.645,11.719,-12.207,0
2692.059,118.652,26.855,43.457,116.211,124.023,0
2692.063,50.781,20.996,45.898,49.805,70.801,0
2692.067,-46.875,16.602,41.992,-63.965,-71.289,0
2692.071,10.254,16.602,39.551,-17.090,-67.871,0
2692.075,119.141,24.414,39.062,106.934,67.871,0
2692.079,83.008,23.438,31.738,83.984,104.492,0
2692.083,-21.973,21.484,29.785,-39.062,-16.602,0
2692.087,-17.090,27.344,34.668,-42.480,-64.453,0
2692.090,86.426,32.715,35.645,83.496,66.895,0
2692.094,96.680,29.785,37.109,108.887,145.020,0
2692.098,-13.184,29.297,38.086,-14.648,4.395,0
2692.102,-46.875,27.832,35.156,-60.547,-81.055,0
2692.106,58.105,28.320,33.691,51.270,18.066,0
2692.110,110.840,31.250,40.527,115.234,111.816,0
2692.114,16.602,23.926,42.480,19.043,58.594,0
2692.118,-58.105,23.926,40.527,-71.777,-54.688,0
2692.122,14.160,28.320,42.480,11.230,-24.414,0
2692.126,103.027,29.297,41.992,122.070,111.816,0
2692.130,50.293,28.809,43.945,65.918,115.723,0
2692.133,-44.434,28.809,44.434,-50.781,-19.043,0
2692.137,-6.836,30.762,41.992,-13.672,-48.340,0
2692.141,93.750,29.297,41.504,108.887,65.918,0
2692.145,74.219,26.367,41.992,94.238,116.211,0
2692.149,-37.109,27.832,43.457,-31.250,-27.344,0
2692.153,-34.668,29.785,42.480,-41.992,-83.984,0
2692.157,85.938,31.738,41.992,85.449,59.570,0
2692.161,112.793,35.645,39.062,119.629,125.488,0
2692.165,2.441,33.691,38.086,2.441,39.551,0
2692.169,-47.363,28.320,38.574,-59.570,-69.336,0
2692.173,53.223,30.273,37.109,48.340,8.301,0
2692.176,116.211,32.227,39.062,131.836,164.062,0
2692.180,28.320,30.273,46.387,46.387,102.539,0
2692.184,-53.711,27.344,48.340,-51.270,-61.523,0
2692.188,15.625,33.203,49.805,16.602,-74.219,0
2692.192,115.234,39.062,52.246,125.977,75.684,0
2692.196,61.523,31.738,50.781,70.801,123.047,0
2692.200,-51.758,30.273,51.270,-47.363,-20.020,0
2692.204,-20.020,35.645,51.758,-20.508,-56.152,0
2692.208,90.820,36.621,49.316,95.215,86.914,0
2692.212,82.520,35.156,52.734,84.473,132.324,0
2692.215,-24.902,31.738,52.734,-39.551,13.672,0
2692.219,-39.062,31.250,49.805,-60.547,-58.105,0
2692.223,65.918,27.832,48.340,59.570,57.617,0
2692.227,95.215,24.414,46.875,112.793,174.805,0
2692.231,-7.812,25.879,45.410,0.000,66.895,0
2692.235,-60.059,27.832,47.363,-65.918,-80.078,0
2692.239,36.621,32.715,46.875,41.016,-27.344,0
2692.243,111.816,36.133,43.945,127.930,130.859,0
2692.247,36.621,34.180,44.434,44.922,113.770,0
2692.251,-49.805,38.574,39.551,-58.105,-44.922,0
2692.255,12.207,41.504,37.109,6.836,-35.645,0
2692.258,113.770,36.133,36.621,120.117,111.328,0
2692.262,74.219,32.715,36.133,84.473,138.184,0
2692.266,-37.598,33.203,39.551,-37.598,6.348,0
2692.270,-22.461,31.250,40.039,-32.227,-44.434,0
2692.274,88.379,28.320,41.016,89.844,62.500,0
2692.278,88.867,27.832,48.340,102.051,119.629,0
2692.282,-22.461,29.297,51.270,-21.484,-1.953,0
2692.286,-41.504,32.227,45.898,-60.059,-115.234,0
2692.290,68.848,31.738,43.945,60.059,-7.324,0
2692.294,111.816,33.691,46.387,118.652,133.789,0
2692.298,13.184,32.715,41.992,10.254,82.520,0
2692.301,-53.223,27.344,39.062,-66.406,-48.828,0
2692.305,24.902,26.855,41.016,22.949,-18.555,0
2692.309,104.004,31.250,41.016,119.141,120.117,0
2692.313,37.109,31.738,37.598,51.758,121.582,0
2692.317,-60.059,26.855,33.691,-59.570,-34.668,0
2692.321,-8.789,24.902,36.133,-13.672,-77.148,0
2692.325,92.285,26.367,40.527,101.562,59.082,0
2692.329,57.129,25.391,40.527,77.637,78.125,0
2692.333,-46.875,26.855,41.504,-42.480,-41.504,0
2692.337,-35.156,22.949,42.969,-47.363,-118.164,0
2692.340,73.242,20.020,39.551,69.824,-6.836,0
2692.344,84.473,23.926,40.527,92.773,129.395,0
2692.348,-26.367,22.949,41.992,-22.461,24.902,0
2692.352,-55.664,21.973,42.480,-63.477,-84.961,0
2692.356,54.199,22.461,40.527,51.270,30.762,0
2692.360,108.398,20.508,37.598,119.629,147.461,0
2692.364,16.113,17.090,40.039,22.949,65.430,0
2692.368,-54.688,15.625,39.062,-62.012,-66.895,0
2692.372,28.320,17.578,35.156,18.066,-39.062,0
2692.376,120.117,24.902,33.691,117.676,99.121,0
2692.380,55.664,24.902,33.691,60.059,102.539,0
2692.383,-51.270,21.973,33.203,-57.617,-49.805,0
2692.387,-13.672,24.414,30.762,-18.066,-76.660,0
2692.391,97.168,28.809,30.273,107.422,76.172,0
2692.395,81.055,26.855,32.227,92.285,138.672,0
2692.399,-33.203,23.926,35.645,-36.133,-17.090,0
2692.403,-42.480,26.367,37.598,-51.758,-90.820,0
2692.407,70.312,31.250,34.180,73.730,33.203,0
2692.411,99.609,32.227,31.250,112.793,137.207,0
2692.415,-6.836,27.832,32.715,-1.953,37.109,0
2692.419,-48.828,26.367,35.156,-65.430,-83.008,0
2692.423,48.828,28.809,35.645,37.598,4.883,0
2692.426,104.492,31.250,35.156,118.652,125.000,0
2692.430,20.996,30.762,36.621,37.109,76.660,0
2692.434,-53.711,27.832,42.969,-56.641,-53.223,0
2692.438,18.066,26.855,41.016,9.277,-16.113,0
2692.442,110.840,32.227,36.133,115.723,97.656,0
2692.446,60.547,35.156,40.527,67.383,83.496,0
2692.450,-45.410,28.809,43.945,-52.246,-23.926,0
2692.454,-20.020,21.973,44.922,-26.855,-62.012,0
2692.458,88.867,20.996,48.340,97.168,69.336,0
2692.462,83.496,20.996,52.246,94.727,150.391,0
2692.465,-29.297,15.137,49.805,-29.785,24.902,0
2692.469,-44.434,17.090,48.340,-54.199,-72.754,0
2692.473,63.477,23.438,51.270,63.477,32.227,0
2692.477,97.656,23.926,52.734,111.816,141.113,0
2692.481,-1.953,25.879,50.781,2.441,73.730,0
2692.485,-56.152,29.297,53.223,-72.266,-95.215,0
2692.489,38.086,31.250,50.781,25.879,-52.246,0
2692.493,113.770,36.621,44.922,117.676,131.348,0
2692.497,33.203,33.203,46.875,42.480,95.215,0
2692.501,-60.547,27.344,48.828,-58.594,-59.570,0
2692.505,-0.488,29.785,46.387,-0.488,-25.391,0
2692.508,104.004,29.785,46.875,118.652,130.859,0
2692.512,68.848,27.344,48.828,81.055,126.465,0
2692.516,-41.992,27.832,48.340,-51.270,-15.625,0
2692.520,-26.367,33.203,48.340,-38.086,-61.523,0
2692.524,88.867,37.598,46.387,94.238,58.105,0
2692.528,99.121,37.598,50.781,110.352,132.324,0
2692.532,-7.324,34.668,53.711,-13.184,12.207,0
2692.536,-31.738,31.738,53.223,-43.945,-98.633,0
2692.540,74.219,29.785,54.688,71.777,18.066,0
2692.544,117.188,31.738,56.152,125.000,143.555,0
2692.548,13.184,33.203,52.734,22.949,70.312,0
2692.551,-60.059,34.180,49.805,-61.035,-76.660,0
2692.555,24.902,35.645,50.781,27.344,-14.648,0
2692.559,106.934,38.574,49.316,122.070,130.371,0
2692.563,36.133,38.574,47.363,47.363,102.051,0
2692.567,-56.152,31.738,45.898,-64.453,-39.062,0
2692.571,0.000,28.320,44.434,-10.742,-54.688,0
2692.575,107.910,28.320,43.945,114.746,78.125,0
2692.579,83.984,30.273,47.363,93.262,102.051,0
2692.583,-23.926,29.785,51.270,-33.691,-21.973,0
2692.587,-19.531,28.809,49.805,-36.621,-61.035,0
2692.590,87.402,32.227,45.898,82.520,71.777,0
2692.594,99.609,37.109,44.434,106.445,127.441,0
2692.598,-9.766,35.156,42.480,-14.648,21.973,0
2692.602,-46.875,32.715,37.598,-65.918,-75.684,0
2692.606,60.059,38.086,36.133,44.434,12.207,0
2692.610,112.305,40.527,41.504,115.723,145.020,0
2692.614,16.113,39.062,42.969,24.902,62.500,0
2692.618,-58.105,33.691,41.016,-62.988,-69.336,0
2692.622,22.949,34.668,43.457,16.602,-38.086,0
2692.626,115.234,36.621,43.457,124.512,105.957,0
2692.630,54.688,31.250,44.434,71.777,125.977,0
2692.633,-45.898,27.344,41.504,-46.875,-31.250,0
2692.637,-6.836,30.762,37.109,-17.578,-61.035,0
2692.641,96.191,33.691,36.621,102.539,104.004,0
2692.645,83.496,29.785,35.645,92.285,165.039,0
2692.649,-28.320,24.902,35.156,-29.297,27.832,0
2692.653,-32.715,24.414,35.645,-41.016,-68.848,0
2692.657,78.125,24.902,36.621,78.125,44.922,0
2692.661,101.562,22.461,37.598,117.676,153.809,0
2692.665,-3.906,17.578,38.086,1.953,17.578,0
2692.669,-49.805,19.043,36.133,-62.012,-108.398,0
2692.673,50.293,24.414,34.180,48.828,29.297,0
2692.676,111.816,24.902,34.668,131.348,172.852,0
2692.680,26.367,23.438,30.762,40.039,92.773,0
2692.684,-49.805,21.973,24.902,-61.035,-49.805,0
2692.688,24.414,26.367,27.832,20.508,-18.555,0
2692.692,110.352,25.391,33.203,133.789,120.117,0
2692.696,57.129,23.438,34.180,76.172,118.164,0
2692.700,-47.852,25.879,37.598,-48.828,-18.066,0
2692.704,-11.230,24.902,36.621,-24.414,-56.641,0
2692.708,100.586,31.250,30.762,105.469,64.941,0
2692.712,82.031,35.645,29.297,104.004,101.562,0
2692.715,-35.156,34.180,29.297,-25.391,-33.691,0
2692.719,-49.805,34.668,30.273,-52.246,-83.496,0
2692.723,66.406,30.762,31.250,68.848,34.668,0
2692.727,106.934,34.180,33.203,117.188,126.953,0
2692.731,10.742,36.133,33.691,2.441,60.059,0
2692.735,-40.039,31.250,35.645,-72.266,-41.992,0
2692.739,65.918,37.598,34.180,24.902,-8.301,0
2692.743,146.973,41.504,29.785,111.816,120.605,0
2692.747,62.988,39.062,27.344,27.832,70.801,0
2692.751,-28.809,41.992,26.367,-79.590,-92.773,0
2692.755,26.855,44.922,26.367,-11.719,-69.336,0
2692.758,112.793,44.922,29.785,107.910,64.941,0
2692.762,64.941,44.922,30.273,69.824,90.332,0
2692.766,-45.898,42.969,29.297,-45.898,-21.973,0
2692.770,-32.227,41.016,30.762,-28.320,-65.430,0
2692.774,78.613,44.922,34.668,95.215,52.734,0
2692.778,85.449,45.410,36.621,104.004,124.023,0
2692.782,-25.879,36.133,33.691,-17.090,5.859,0
2692.786,-47.852,31.738,31.738,-52.734,-101.074,0
2692.790,62.012,40.039,35.645,67.871,0.488,0
2692.794,104.004,39.062,38.086,123.535,114.258,0
2692.798,2.930,32.715,34.668,15.137,38.086,0
2692.801,-65.918,32.227,33.691,-60.547,-82.031,0
2692.805,20.508,35.645,37.598,24.902,-29.297,0
2692.809,102.051,35.645,36.133,111.816,118.652,0
2692.813,33.203,31.738,34.180,42.480,113.770,0
2692.817,-62.988,31.738,33.203,-66.406,-63.965,0
2692.821,-8.789,35.645,32.715,-12.207,-110.840,0
2692.825,103.516,33.691,33.691,111.816,79.102,0
2692.829,76.660,29.297,34.180,84.473,130.859,0
2692.833,-35.645,28.809,33.691,-37.598,-5.859,0
2692.837,-30.762,34.668,31.250,-34.180,-49.805,0
2692.840,80.566,38.574,32.715,87.891,79.102,0
2692.844,93.262,31.250,32.715,109.375,149.902,0
2692.848,-17.578,27.832,31.250,-12.695,16.113,0
2692.852,-47.852,28.809,29.785,-62.988,-65.918,0
2692.856,57.129,27.832,33.203,51.758,42.480,0
2692.860,110.352,29.297,33.691,121.094,148.926,0
2692.864,16.602,27.832,27.344,23.926,76.660,0
2692.868,-59.082,25.391,27.832,-67.383,-69.824,0
2692.872,24.902,30.273,32.227,11.230,-19.531,0
2692.876,116.699,31.250,30.273,119.141,118.652,0
2692.880,52.734,25.879,30.273,55.664,93.262,0
2692.883,-47.852,26.367,34.668,-61.035,-38.574,0
2692.887,-5.371,23.438,33.203,-22.949,-51.270,0
2692.891,100.586,24.414,31.738,98.633,89.355,0
2692.895,75.684,27.344,30.762,83.496,132.324,0
2692.899,-33.691,19.531,31.738,-36.133,13.672,0
2692.903,-28.809,13.184,29.297,-42.969,-57.129,0
2692.907,82.031,13.672,23.926,71.777,44.434,0
2692.911,103.027,14.648,24.902,101.562,138.184,0
2692.915,-1.465,18.555,27.344,-9.277,51.270,0
2692.919,-51.270,20.020,31.738,-68.848,-76.660,0
2692.923,45.410,25.391,31.738,34.668,2.930,0
2692.926,121.582,34.180,35.156,117.676,129.883,0
2692.930,33.203,31.738,40.039,36.133,60.547,0
2692.934,-55.664,26.367,35.156,-65.918,-71.289,0
2692.938,20.020,29.785,27.832,-3.418,-66.895,0
2692.942,120.117,32.227,30.762,109.863,86.914,0
2692.946,67.871,29.785,36.621,67.871,127.930,0
2692.950,-40.527,26.855,35.156,-49.316,-18.555,0
2692.954,-9.766,27.832,35.156,-27.832,-68.848,0
2692.958,95.215,29.785,36.133,93.262,79.102,0
2692.962,86.914,28.809,31.738,93.750,138.672,0
2692.965,-19.531,29.297,28.320,-30.273,-8.301,0
2692.969,-35.156,29.297,27.344,-57.617,-95.703,0
2692.973,74.707,30.762,29.785,63.477,6.348,0
2692.977,112.793,29.785,32.227,114.258,129.395,0
2692.981,7.812,26.855,31.738,5.859,63.477,0
2692.985,-47.852,29.785,31.738,-62.988,-83.496,0
2692.989,43.457,31.250,29.785,34.668,-24.414,0
2692.993,112.305,31.738,28.809,118.652,140.137,0
2692.997,38.086,26.855,29.785,35.645,91.309,0
2693.001,-49.805,22.949,30.762,-70.801,-55.664,0
2693.005,10.742,28.809,27.344,-7.812,-39.062,0
2693.008,108.887,26.855,24.414,113.281,95.703,0
2693.012,61.523,21.484,24.902,76.172,141.602,0
2693.016,-44.922,17.578,24.414,-54.688,-8.789,0
2693.020,-22.949,19.043,23.438,-42.969,-83.008,0
2693.024,85.449,24.902,22.461,91.797,71.289,0
2693.028,91.797,20.996,24.414,107.910,138.184,0
2693.032,-28.809,14.648,24.902,-16.602,-2.441,0
2693.036,-61.523,17.578,24.414,-50.293,-76.660,0
2693.040,49.805,23.926,26.855,62.988,28.809,0
2693.044,93.750,21.973,27.832,111.328,97.656,0
2693.048,-3.906,20.508,28.809,8.301,29.785,0
2693.051,-71.289,23.438,28.809,-67.871,-93.750,0
2693.055,17.578,24.902,27.832,23.438,-59.082,0
2693.059,103.516,26.855,26.367,117.676,96.680,0
2693.063,37.109,26.855,28.320,50.781,86.426,0
2693.067,-66.895,20.996,29.785,-59.570,-67.383,0
2693.071,-16.602,20.508,30.273,-11.719,-93.750,0
2693.075,91.797,20.020,33.691,112.305,34.180,0
2693.079,62.988,18.066,31.738,88.379,114.746,0
2693.083,-44.434,11.719,29.297,-37.109,2.441,0
2693.087,-35.156,6.348,28.809,-41.016,-110.352,0
2693.090,79.102,12.695,30.273,86.426,18.555,0
2693.094,96.191,14.648,24.902,112.305,136.230,0
2693.098,-16.113,14.160,23.926,-8.301,19.531,0
2693.102,-57.617,19.531,23.926,-59.570,-99.121,0
2693.106,46.875,24.414,20.996,47.363,-2.930,0
2693.110,106.445,24.902,27.344,117.188,132.812,0
2693.114,15.137,21.484,28.809,21.973,88.867,0
2693.118,-62.988,20.996,28.320,-67.871,-82.520,0
2693.122,22.949,25.879,29.785,17.578,-52.246,0
2693.126,127.930,26.367,27.832,132.324,117.188,0
2693.130,56.152,21.973,26.367,66.895,83.984,0
2693.133,-72.754,16.602,23.438,-72.266,-60.059,0
2693.137,-30.273,15.625,20.508,-36.621,-68.359,0
2693.141,87.402,19.043,22.949,97.656,88.379,0
2693.145,65.430,17.090,22.461,84.473,154.785,0
2693.149,-44.922,15.137,24.414,-41.504,4.395,0
2693.153,-46.387,12.695,27.344,-48.828,-66.406,0
2693.157,64.941,12.207,26.855,78.125,58.105,0
2693.161,94.727,17.090,29.297,112.793,147.949,0
2693.165,-9.766,18.555,34.180,-2.930,41.992,0
2693.169,-60.059,21.484,37.109,-65.430,-70.312,0
2693.173,36.621,26.367,36.133,41.016,-1.465,0
2693.176,99.121,29.297,34.668,117.676,99.609,0
2693.180,15.137,29.297,34.180,28.320,54.688,0
2693.184,-62.500,27.832,31.250,-63.965,-79.590,0
2693.188,11.719,26.855,31.250,5.371,-19.043,0
2693.192,107.422,29.785,33.691,113.770,122.559,0
2693.196,63.477,27.832,32.227,71.777,80.566,0
2693.200,-39.551,20.508,33.203,-48.340,-44.434,0
2693.204,-13.672,18.066,38.574,-22.461,-61.523,0
2693.208,97.168,20.020,37.598,99.609,101.562,0
2693.212,83.496,22.461,35.645,94.238,158.691,0
2693.215,-26.367,20.996,38.574,-24.902,30.273,0
2693.219,-32.227,26.367,37.598,-46.387,-62.988,0
2693.223,72.266,29.785,34.668,73.730,32.715,0
2693.227,102.051,28.320,32.715,118.164,167.480,0
2693.231,0.977,23.926,27.832,8.789,100.098,0
2693.235,-56.152,18.555,23.926,-59.082,-37.598,0
2693.239,36.133,20.996,24.902,39.551,5.371,0
2693.243,113.770,27.832,24.902,128.906,165.039,0
2693.247,37.598,23.926,28.320,45.898,139.160,0
2693.251,-54.199,17.578,30.762,-57.129,-44.434,0
2693.255,8.789,23.926,28.809,1.465,-36.133,0
2693.258,108.398,27.344,27.344,113.281,120.117,0
2693.262,65.918,28.320,25.391,80.078,152.344,0
2693.266,-43.945,28.320,25.879,-48.828,5.859,0
2693.270,-26.367,28.320,18.066,-41.016,-70.801,0
2693.274,91.797,31.738,18.066,93.262,93.262,0
2693.278,96.680,31.738,22.461,109.375,178.223,0
2693.282,-17.578,30.273,20.020,-18.066,36.133,0
2693.286,-42.480,29.297,20.020,-59.570,-66.406,0
2693.290,64.453,32.715,23.438,64.941,42.480,0
2693.294,107.422,36.621,20.020,124.512,142.578,0
2693.298,8.301,33.203,16.602,16.113,56.152,0
2693.301,-56.152,28.809,15.137,-63.477,-40.527,0
2693.305,25.879,30.273,14.160,27.832,21.484,0
2693.309,108.398,33.691,18.555,121.582,128.906,0
2693.313,49.805,32.227,22.461,48.340,77.148,0
2693.317,-42.969,28.320,20.020,-61.035,-79.590,0
2693.321,15.137,30.762,17.090,-1.953,-67.383,0
2693.325,121.094,30.762,20.020,125.977,96.191,1
2693.329,73.242,18.066,24.902,88.867,119.629,0
2693.333,-46.387,9.766,26.855,-44.434,-22.461,0
2693.337,-29.297,19.043,29.785,-35.156,-77.148,0
2693.340,88.379,25.879,28.320,95.703,46.387,0
2693.344,100.098,27.832,22.461,114.258,145.020,0
2693.348,-6.836,32.227,26.367,-6.836,42.480,0
2693.352,-39.551,31.250,31.250,-51.758,-51.270,0
2693.356,64.941,29.785,32.715,62.012,20.020,0
2693.360,119.629,32.715,33.203,123.047,122.559,0
2693.364,22.461,30.273,31.250,20.996,93.750,0
2693.368,-57.129,23.926,30.762,-69.336,-40.039,0
2693.372,18.066,20.996,28.809,11.230,-41.992,0
2693.376,107.422,21.973,28.809,110.352,101.562,0
2693.380,45.898,27.344,31.738,51.270,104.492,0
2693.383,-54.199,30.762,31.250,-58.594,-46.875,0
2693.387,-14.648,38.086,31.250,-21.973,-66.406,0
2693.391,89.844,39.062,32.227,105.469,84.473,0
2693.395,74.219,36.133,37.109,97.656,146.973,0
2693.399,-37.109,36.133,40.039,-29.785,25.391,0
2693.403,-40.527,38.086,35.645,-45.898,-71.289,0
2693.407,68.848,41.992,34.180,72.266,43.457,0
2693.411,89.844,40.039,35.156,103.516,145.996,0
2693.415,-15.137,35.645,34.180,-13.672,35.156,0
2693.419,-61.523,36.133,35.645,-77.637,-97.656,0
2693.423,37.598,32.715,32.715,23.438,-3.906,0
2693.426,100.586,29.785,27.344,103.516,136.230,0
2693.430,17.578,26.855,29.297,19.531,75.684,0
2693.434,-60.059,20.508,33.203,-77.148,-68.848,0
2693.438,9.766,20.996,29.785,-4.883,-45.410,0
2693.442,101.562,25.879,28.809,104.004,91.797,0
2693.446,42.480,24.902,32.227,54.688,112.305,0
2693.450,-61.035,23.926,32.227,-60.547,-6.836,0
2693.454,-20.996,30.273,34.668,-33.203,-46.387,0
2693.458,90.332,30.762,34.668,94.727,74.219,0
2693.462,80.566,23.438,33.203,88.867,113.281,0
2693.465,-32.227,22.461,33.203,-43.945,-3.418,0
2693.469,-46.387,27.344,29.785,-65.918,-71.289,0
2693.473,63.477,27.832,28.320,54.688,15.625,0
2693.477,98.145,27.344,28.320,99.609,121.094,0
2693.481,0.488,28.320,29.785,-6.836,49.805,0
2693.485,-50.781,27.832,34.180,-69.824,-74.707,0
2693.489,42.480,26.855,32.227,26.367,-12.207,0
2693.493,116.699,27.344,32.715,115.234,115.723,0
2693.497,37.109,25.879,36.621,41.504,73.242,0
2693.501,-59.082,23.926,31.738,-65.918,-62.988,0
2693.505,-3.906,26.367,29.297,-5.371,-57.617,0
2693.508,95.703,22.949,31.250,108.887,71.289,0
2693.512,62.012,19.043,28.320,75.195,105.957,0
2693.516,-43.457,20.508,32.227,-36.621,-24.902,0
2693.520,-20.020,22.461,38.574,-23.926,-85.938,0
2693.524,96.680,25.391,37.109,96.191,51.758,0
2693.528,98.145,27.344,32.227,107.422,145.020,0
2693.532,-14.648,24.902,33.691,-10.742,45.898,0
2693.536,-36.133,22.461,41.016,-43.945,-67.871,0
2693.540,68.359,26.855,45.410,71.289,22.461,0
2693.544,104.492,23.926,42.480,124.023,132.812,0
2693.548,13.184,20.508,39.062,19.043,34.180,0
2693.551,-51.758,23.926,35.156,-62.012,-73.242,0
2693.555,29.785,26.367,32.715,27.832,-4.395,0
2693.559,110.840,21.973,33.691,128.906,125.488,0
2693.563,39.062,16.113,33.203,54.688,98.633,0
2693.567,-53.711,15.625,32.227,-59.570,-64.941,0
2693.571,3.906,18.555,33.203,-4.395,-79.590,0
2693.575,108.398,22.461,33.203,119.141,96.680,0
2693.579,75.684,25.391,34.180,93.750,129.883,0
2693.583,-36.621,28.320,37.109,-36.133,-5.371,0
2693.587,-23.926,34.180,38.086,-35.645,-41.992,0
2693.590,90.820,34.180,32.227,91.797,63.965,0
2693.594,106.934,30.762,28.320,111.328,129.395,0
2693.598,2.441,33.691,33.203,-15.625,13.184,0
2693.602,-28.320,34.180,33.203,-75.195,-92.285,0
2693.606,81.543,33.691,31.738,30.762,11.719,0
2693.610,144.043,38.086,31.250,101.074,112.305,0
2693.614,57.617,38.574,31.250,9.766,42.969,0
2693.618,-20.020,36.133,31.250,-71.777,-68.359,0
2693.622,48.340,28.809,27.832,11.719,-27.832,0
2693.626,126.465,24.902,23.926,116.699,116.211,0
2693.630,59.570,24.902,25.879,63.477,101.074,0
2693.633,-54.199,20.508,28.809,-51.758,-75.195,0
2693.637,-22.949,21.484,32.715,-14.160,-63.477,0
2693.641,83.008,21.973,29.785,102.051,84.473,0
2693.645,62.500,19.531,24.414,80.078,111.328,0
2693.649,-43.945,17.090,28.320,-40.527,5.371,0
2693.653,-42.969,16.113,31.250,-48.340,-69.824,0
2693.657,65.430,19.043,30.273,72.266,62.500,0
2693.661,86.426,18.555,32.227,104.004,179.199,0
2693.665,-19.531,18.066,32.227,-10.254,55.176,0
2693.669,-67.383,17.090,26.855,-70.801,-81.055,0
2693.673,33.203,20.508,28.320,39.062,18.066,0
2693.676,95.703,20.020,33.203,114.746,124.023,0
2693.680,7.324,14.648,38.086,22.949,49.805,0
2693.684,-67.383,12.207,40.039,-69.336,-83.984,0
2693.688,4.883,13.672,37.598,2.441,-68.848,0
2693.692,98.145,13.672,35.156,114.746,120.117,0
2693.696,54.688,12.207,33.691,64.453,159.180,0
2693.700,-48.340,14.648,36.133,-61.035,-10.742,0
2693.704,-20.020,19.531,35.156,-31.250,-72.266,0
2693.708,88.379,21.484,28.809,96.680,70.312,0
2693.712,78.125,18.066,31.250,95.215,129.883,0
2693.715,-29.297,15.137,35.645,-30.273,-5.371,0
2693.719,-39.062,18.066,33.691,-49.316,-81.543,0
2693.723,68.848,24.902,31.250,72.754,62.988,0
2693.727,99.609,20.020,30.273,112.793,180.176,0
2693.731,2.930,15.137,33.203,6.348,76.172,0
2693.735,-52.246,16.602,32.715,-58.105,-44.434,0
2693.739,39.062,17.578,29.297,37.109,15.625,0
2693.743,116.211,21.973,27.344,122.070,134.766,0
2693.747,38.574,17.090,28.809,43.945,70.312,0
2693.751,-47.363,9.766,29.785,-62.500,-80.566,0
2693.755,19.043,13.672,29.297,-5.371,-30.762,0
2693.758,117.676,20.020,32.227,110.352,104.492,0
2693.762,78.125,23.438,35.645,72.266,120.605,0
2693.766,-32.715,20.508,33.691,-50.293,-6.348,0
2693.770,-14.648,20.996,29.297,-34.668,-61.035,0
2693.774,100.586,24.902,25.879,94.238,59.082,0
2693.778,101.562,24.414,23.438,107.422,132.812,0
2693.782,-16.602,20.508,22.949,-21.484,15.137,0
2693.786,-40.527,21.973,25.391,-61.523,-75.195,0
2693.790,68.848,22.949,32.227,53.223,27.344,0
2693.794,114.258,22.461,36.133,106.934,136.230,0
2693.798,18.066,24.414,34.180,4.883,79.590,0
2693.801,-54.688,18.555,33.203,-75.684,-36.133,0
2693.805,27.344,17.578,29.297,14.160,16.113,0
2693.809,112.305,22.949,24.902,110.840,126.953,0
2693.813,42.969,19.531,21.973,44.434,104.004,0
2693.817,-51.270,17.578,21.484,-60.547,-31.250,0
2693.821,1.953,18.066,23.926,-14.160,-45.410,0
2693.825,106.934,18.555,26.367,104.492,99.121,0
2693.829,78.613,16.113,28.320,80.566,131.836,0
2693.833,-33.691,13.672,24.414,-41.504,-10.254,0
2693.837,-28.320,19.531,23.926,-40.527,-99.609,0
2693.840,80.566,24.414,27.344,83.984,40.527,0
2693.844,95.215,21.973,26.367,104.492,170.898,0
2693.848,-11.719,17.090,26.855,-19.043,55.664,0
2693.852,-47.852,16.602,32.227,-67.871,-83.984,0
2693.856,53.223,16.113,35.156,41.504,-0.977,0
2693.860,108.398,14.160,34.180,108.887,135.742,0
2693.864,12.695,10.254,34.668,11.230,68.359,0
2693.868,-62.012,8.789,38.086,-76.660,-88.379,0
2693.872,22.949,10.254,42.480,12.695,-53.711,0
2693.876,111.816,11.719,43.945,118.652,93.750,0
2693.880,52.734,10.254,42.969,58.105,83.496,0
2693.883,-50.293,7.324,39.551,-57.617,-46.875,0
2693.887,-5.859,7.324,34.668,-19.043,-54.688,0
2693.891,104.980,8.789,31.250,107.910,93.262,0
2693.895,81.055,7.324,34.180,98.633,140.625,0
2693.899,-32.715,4.395,36.133,-27.344,-18.555,0
2693.903,-30.273,14.160,34.180,-39.551,-87.402,0
2693.907,77.637,18.066,31.250,79.102,23.926,0
2693.911,97.168,10.742,31.738,118.164,122.070,0
2693.915,-3.418,11.719,30.762,2.441,26.367,0
2693.919,-51.758,12.207,28.320,-62.012,-87.402,0
2693.923,41.504,10.254,30.273,47.363,7.812,0
2693.926,109.375,15.137,33.203,128.418,131.348,0
2693.930,26.855,19.043,33.691,40.039,83.496,0
2693.934,-58.594,21.973,34.180,-55.664,-51.758,0
2693.938,5.859,20.508,31.738,10.742,-38.574,0
2693.942,101.562,26.855,30.762,111.816,94.238,0
2693.946,55.176,26.855,32.227,64.453,126.465,0
2693.950,-44.922,20.996,32.715,-47.852,-7.812,0
2693.954,-17.578,19.531,28.809,-21.973,-47.852,0
2693.958,90.820,18.555,28.320,95.703,92.285,0
2693.962,88.867,20.020,33.691,92.285,110.840,0
2693.965,-20.020,19.043,37.598,-24.902,-11.230,0
2693.969,-34.668,18.066,35.156,-46.387,-102.539,0
2693.973,75.195,20.508,29.785,66.895,-11.719,0
2693.977,105.469,22.949,27.344,107.422,135.254,0
2693.981,8.789,21.973,31.738,0.488,52.246,0
2693.985,-47.363,25.391,35.156,-62.012,-96.191,0
2693.989,38.086,21.973,30.762,35.645,-17.578,0
2693.993,109.375,19.043,28.809,118.652,125.000,0
2693.997,28.809,20.996,34.180,35.645,93.262,0
2694.001,-57.617,25.391,37.598,-67.871,-70.312,0
2694.005,8.301,28.320,36.133,-3.418,-67.383,0
2694.008,110.352,27.344,39.062,110.352,97.656,0
2694.012,62.500,28.320,39.062,73.730,110.352,0
2694.016,-53.223,25.391,35.645,-49.805,-40.527,0
2694.020,-29.297,26.855,34.668,-38.574,-85.938,0
2694.024,86.914,30.273,37.109,92.773,74.219,0
2694.028,94.238,30.273,42.480,109.375,158.691,0
2694.032,-18.555,31.250,43.457,-13.184,49.316,0
2694.036,-45.898,33.691,38.086,-53.711,-39.062,0
2694.040,62.988,30.273,35.645,60.059,42.480,0
2694.044,104.492,21.484,35.156,120.605,131.836,0
2694.048,6.836,21.484,33.691,17.090,48.340,0
2694.051,-54.199,26.855,33.691,-61.035,-78.125,0
2694.055,26.855,25.879,26.855,25.391,-30.273,0
2694.059,106.445,26.367,24.414,115.723,116.699,0
2694.063,41.504,29.297,29.297,42.969,92.285,0
2694.067,-51.270,28.809,32.227,-66.406,-76.660,0
2694.071,0.000,31.250,31.738,-16.602,-61.523,0
2694.075,98.633,35.156,33.203,100.098,88.867,0
2694.079,67.383,33.691,35.645,76.172,101.562,0
2694.083,-42.969,31.738,35.645,-51.270,0.488,0
2694.087,-37.598,34.668,34.180,-50.293,-51.758,0
2694.090,76.172,34.180,31.250,73.242,54.688,0
2694.094,89.355,30.762,28.809,94.238,111.816,0
2694.098,-23.438,32.227,29.785,-23.438,19.043,0
2694.102,-55.664,32.715,29.297,-68.848,-99.609,0
2694.106,50.293,34.668,28.320,49.316,-28.809,0
2694.110,102.539,35.156,29.297,121.094,127.441,0
2694.114,13.184,32.227,26.855,26.855,77.148,0
2694.118,-56.152,33.691,25.391,-62.500,-60.547,0
2694.122,22.461,42.480,28.809,14.648,-69.336,0
2694.126,111.328,48.340,31.250,116.699,59.082,0
2694.130,51.270,44.434,31.738,56.641,104.492,0
2694.133,-50.293,40.039,34.668,-52.734,-33.203,0
2694.137,-5.371,39.551,37.109,-13.672,-62.988,0
2694.141,99.609,41.992,36.621,103.027,102.539,0
2694.145,77.148,43.457,38.574,90.820,153.320,0
2694.149,-33.691,38.574,41.016,-37.109,-3.418,0
2694.153,-40.527,34.180,40.527,-54.199,-97.656,0
2694.157,69.336,36.133,36.621,68.848,46.387,0
2694.161,98.633,40.039,35.645,106.934,150.391,0
2694.165,-5.859,39.062,37.109,-7.812,17.090,0
2694.169,-52.246,33.691,35.156,-69.336,-120.117,0
2694.173,41.504,30.273,31.738,34.180,-36.133,0
2694.176,100.586,30.273,31.250,112.793,114.746,0
2694.180,14.160,31.250,34.180,28.809,85.449,0
2694.184,-67.383,29.297,34.668,-68.359,-36.133,0
2694.188,4.395,31.250,32.227,1.953,8.301,0
2694.192,99.121,29.785,34.668,109.863,142.090,0
2694.196,53.223,26.367,38.574,63.965,122.559,0
2694.200,-58.594,21.973,32.227,-52.246,-26.855,0
2694.204,-28.809,13.184,25.879,-31.250,-62.012,0
2694.208,86.426,11.719,22.949,97.168,74.219,0
2694.212,80.566,15.625,24.902,99.609,117.676,0
2694.215,-27.344,18.066,30.762,-27.344,-42.969,0
2694.219,-41.504,17.090,31.250,-47.363,-89.844,0
2694.223,66.895,16.602,30.273,76.660,47.363,0
2694.227,101.074,19.531,30.762,122.070,149.902,0
2694.231,0.977,21.973,27.832,9.277,81.055,0
2694.235,-58.105,20.996,22.949,-62.988,-66.895,0
2694.239,34.668,24.902,22.949,36.621,-15.625,0
2694.243,107.910,30.762,28.320,126.465,122.559,0
2694.247,30.762,29.297,34.180,48.340,77.148,0
2694.251,-53.711,29.785,33.203,-59.082,-62.988,0
2694.255,9.766,31.738,30.273,-3.418,-55.664,0
2694.258,107.910,31.250,29.297,107.422,81.543,0
2694.262,66.406,33.203,30.273,77.148,112.793,0
2694.266,-42.480,35.156,29.785,-39.062,-42.969,0
2694.270,-17.090,40.039,32.227,-27.344,-117.676,0
2694.274,96.680,39.551,33.691,94.238,36.621,0
2694.278,93.750,37.109,33.203,100.586,132.324,0
2694.282,-22.461,34.180,33.203,-21.484,4.395,0
2694.286,-41.504,35.645,36.621,-50.781,-109.375,0
2694.290,71.777,38.086,37.109,64.941,11.719,0
2694.294,115.723,35.156,33.691,121.582,147.461,0
2694.298,18.066,35.156,32.227,12.207,41.992,0
2694.301,-55.664,34.668,33.203,-76.172,-106.934,0
2694.305,26.367,33.691,29.297,16.602,-56.152,0
2694.309,109.863,35.645,24.902,110.840,93.262,0
2694.313,39.062,30.762,26.367,41.016,94.727,0
2694.317,-53.711,26.367,26.855,-63.965,-46.875,0
2694.321,-3.418,29.297,27.832,-16.602,-33.203,0
2694.325,98.145,34.180,33.203,105.469,115.234,0
2694.329,69.336,32.227,33.691,83.008,149.902,0
2694.333,-45.410,25.879,30.273,-44.922,16.602,0
2694.337,-33.203,23.926,26.855,-44.434,-81.543,0
2694.340,83.496,32.227,24.414,82.031,41.504,0
2694.344,92.773,36.621,27.832,106.445,145.508,0
2694.348,-14.648,34.180,33.691,-13.672,12.695,0
2694.352,-44.434,32.715,34.180,-58.594,-86.914,0
2694.356,53.223,29.785,32.715,55.176,50.781,0
2694.360,104.980,32.715,37.109,124.512,151.367,0
2694.364,22.461,32.715,41.016,27.832,72.266,0
2694.368,-46.387,37.598,40.527,-61.523,-64.941,0
2694.372,31.250,41.504,40.039,18.066,-22.949,0
2694.376,116.699,38.574,41.016,122.559,142.578,0
2694.380,53.223,41.992,39.062,63.477,102.539,0
2694.383,-48.828,37.598,38.086,-55.664,-70.312,0
2694.387,-8.301,36.133,36.133,-17.090,-89.355,0
2694.391,99.609,37.598,37.598,101.074,56.152,0
2694.395,81.055,37.598,39.062,84.961,87.402,0
2694.399,-30.762,38.086,37.109,-36.621,-47.363,0
2694.403,-32.227,37.109,36.621,-45.410,-74.219,0
2694.407,80.078,38.574,38.086,79.102,73.242,0
2694.411,98.633,37.109,36.621,109.863,156.250,0
2694.415,-11.719,32.227,35.645,-7.324,47.363,0
2694.419,-59.570,29.297,36.621,-60.059,-74.219,0
2694.423,38.086,31.250,35.645,43.945,-2.441,0
2694.426,99.609,30.762,33.203,117.188,140.625,0
2694.430,11.719,22.461,28.320,26.367,101.562,0
2694.434,-64.941,18.555,27.832,-66.895,-49.316,0
2694.438,15.625,25.391,36.133,0.977,-42.480,0
2694.442,107.422,29.297,38.086,108.887,105.957,0
2694.446,53.223,22.461,29.785,62.500,144.531,0
2694.450,-48.828,18.066,25.879,-61.035,-18.066,0
2694.454,-20.508,15.625,28.320,-32.227,-54.688,0
2694.458,88.867,16.113,32.227,101.074,146.973,0
2694.462,80.078,20.020,32.227,99.121,188.477,0
2694.465,-35.156,19.043,29.785,-28.809,9.766,0
2694.469,-47.363,20.996,29.297,-51.270,-63.965,0
2694.473,74.707,30.273,31.738,70.312,47.852,0
2694.477,114.746,34.180,37.598,116.211,117.188,0
2694.481,19.043,30.273,35.645,0.000,39.062,0
2694.485,-27.344,24.902,33.203,-72.754,-78.125,0
2694.489,74.219,27.832,33.203,20.508,-37.598,0
2694.493,151.367,34.180,32.715,107.422,101.074,0
2694.497,70.801,33.691,31.250,34.180,62.500,0
2694.501,-22.461,33.691,29.297,-68.848,-84.961,0
2694.505,34.668,32.715,25.391,-5.859,-59.082,0
2694.508,120.605,32.227,22.461,110.840,89.844,0
2694.512,63.965,34.668,26.855,82.520,112.305,0
2694.516,-48.828,31.738,30.762,-35.645,-31.738,0
2694.520,-33.691,30.273,31.738,-28.320,-83.496,0
2694.524,74.707,32.715,29.785,91.309,41.016,0
2694.528,73.242,28.809,28.320,101.562,107.422,0
2694.532,-40.039,23.438,29.785,-17.090,13.184,0
2694.536,-55.664,22.949,28.320,-54.688,-75.195,0
2694.540,55.176,22.461,24.902,60.547,22.461,0
2694.544,94.238,24.902,27.832,112.305,121.094,0
2694.548,-2.441,25.391,35.156,7.324,45.410,0
2694.551,-64.453,26.367,37.109,-64.941,-63.965,0
2694.555,23.926,30.273,37.598,29.785,-10.254,0
2694.559,103.027,24.902,33.691,119.629,106.445,0
2694.563,35.645,23.438,32.227,49.805,76.660,0
2694.567,-51.270,28.320,33.203,-57.129,-50.293,0
2694.571,0.488,27.344,32.715,-12.207,-38.574,0
2694.575,102.539,27.832,31.738,108.398,103.516,0
2694.579,70.801,28.809,31.250,77.148,124.023,0
2694.583,-42.480,25.391,31.738,-50.781,-25.391,0
2694.587,-29.297,26.855,32.715,-45.898,-83.984,0
2694.590,85.938,28.320,30.273,74.219,18.066,0
2694.594,93.262,28.809,23.926,99.609,111.328,0
2694.598,-18.066,28.320,21.973,-15.625,31.738,0
2694.602,-48.340,32.227,25.879,-59.082,-85.938,0
2694.606,52.734,34.180,25.879,53.223,9.277,0
2694.610,110.840,30.273,28.809,121.582,126.465,0
2694.614,22.949,34.180,33.203,27.344,75.195,0
2694.618,-52.734,34.180,26.367,-62.500,-49.805,0
2694.622,24.902,27.344,22.949,19.043,-24.902,0
2694.626,114.258,29.297,29.297,122.070,123.535,0
2694.630,56.641,26.855,29.785,64.453,116.699,0
2694.633,-51.758,20.996,27.832,-52.246,-54.199,0
2694.637,-10.254,27.344,23.438,-20.020,-71.289,0
2694.641,104.004,30.762,22.461,102.539,88.379,0
2694.645,82.031,27.832,28.809,86.426,114.746,0
2694.649,-27.832,28.320,27.832,-44.434,-45.898,0
2694.653,-33.691,29.785,23.438,-58.594,-79.590,0
2694.657,76.660,28.320,21.973,63.965,63.477,0
2694.661,102.539,28.320,24.414,99.121,143.555,0
2694.665,-8.789,25.391,25.879,-11.719,15.137,0
2694.669,-54.199,23.926,25.391,-65.918,-101.074,0
2694.673,46.387,27.344,25.879,36.133,-1.953,0
2694.676,111.328,31.250,25.391,109.863,104.492,0
2694.680,30.273,35.645,25.391,19.043,47.363,0
2694.684,-46.875,35.156,27.832,-71.289,-59.082,0
2694.688,22.461,34.180,26.367,4.395,-39.062,0
2694.692,114.746,36.621,22.949,109.863,100.586,0
2694.696,66.406,34.180,24.414,59.082,123.535,0
2694.700,-38.086,28.809,26.367,-53.223,-24.902,0
2694.704,-4.395,31.738,26.367,-24.414,-75.195,0
2694.708,103.027,35.645,29.297,92.773,72.754,0
2694.712,87.402,33.691,26.855,86.426,159.180,0
2694.715,-17.578,28.320,28.809,-29.785,9.277,0
2694.719,-23.438,28.320,36.621,-43.945,-123.047,0
2694.723,87.402,35.645,36.133,68.359,-2.441,0
2694.727,115.723,37.109,30.762,109.375,142.090,0
2694.731,9.277,32.715,31.738,3.418,27.344,0
2694.735,-43.457,27.832,33.691,-63.477,-137.695,0
2694.739,56.641,29.785,34.668,38.086,-74.707,0
2694.743,125.488,33.203,34.180,124.023,60.059,0
2694.747,49.316,33.691,33.203,44.922,44.922,0
2694.751,-35.156,36.133,34.180,-53.711,-93.262,0
2694.755,19.531,35.645,34.180,8.789,-70.801,0
2694.758,118.164,33.691,38.086,118.164,93.750,0
2694.762,76.172,33.691,37.598,80.078,106.445,0
2694.766,-32.227,29.297,36.133,-46.875,-47.852,0
2694.770,-11.230,35.156,38.574,-31.738,-84.961,0
2694.774,93.750,35.645,36.621,102.051,84.961,0
2694.778,96.191,31.250,35.645,110.840,162.109,0
2694.782,-9.766,32.227,38.574,-11.719,41.504,0
2694.786,-40.527,29.297,41.016,-51.758,-67.383,0
2694.790,64.453,29.297,39.062,60.059,23.926,0
2694.794,110.840,33.691,39.551,121.582,132.812,0
2694.798,10.742,35.156,40.527,17.090,56.641,0
2694.801,-52.734,29.785,40.039,-60.059,-50.293,0
2694.805,41.016,34.180,41.504,29.785,3.418,0
2694.809,119.141,32.227,37.598,120.117,120.117,0
2694.813,39.062,23.438,35.156,46.387,81.055,0
2694.817,-63.965,20.020,38.086,-66.895,-52.734,0
2694.821,-8.301,20.508,35.645,-11.719,-39.062,0
2694.825,94.727,25.391,36.621,111.328,97.168,0
2694.829,58.105,25.391,36.133,81.543,140.137,0
2694.833,-43.457,26.855,34.180,-44.434,1.953,0
2694.837,-26.855,24.902,40.527,-36.133,-70.312,0
2694.840,83.984,29.785,40.039,87.402,53.223,0
2694.844,93.750,32.715,35.645,102.539,152.344,0
2694.848,-9.766,27.344,37.109,-11.719,40.039,0
2694.852,-45.410,30.762,37.109,-54.688,-79.102,0
2694.856,51.270,31.250,32.715,49.805,7.324,0
2694.860,104.492,27.344,32.715,110.840,122.559,0
2694.864,14.160,27.344,35.645,16.602,69.824,0
2694.868,-62.012,24.902,33.691,-69.336,-82.520,0
2694.872,14.648,25.391,28.809,12.207,-54.199,0
2694.876,106.934,27.344,28.809,121.094,113.770,0
2694.880,44.434,24.902,29.297,60.547,104.980,0
2694.883,-54.688,24.414,32.227,-58.594,-39.551,0
2694.887,-5.371,25.879,35.645,-16.113,-81.543,0
2694.891,101.074,29.785,33.203,107.422,56.641,0
2694.895,79.102,34.668,30.762,92.285,141.113,0
2694.899,-31.738,31.738,36.133,-37.598,10.742,0
2694.903,-39.062,28.809,30.273,-51.758,-72.754,0
2694.907,65.430,32.715,22.461,75.195,25.391,0
2694.911,91.309,29.785,24.414,106.934,144.043,0
2694.915,-14.648,26.855,25.391,-12.207,44.922,0
2694.919,-61.523,25.879,25.879,-72.266,-105.957,0
2694.923,39.062,28.809,24.414,36.133,-20.020,0
2694.926,107.910,36.133,26.367,116.699,152.832,0
2694.930,23.438,36.133,27.832,28.809,104.492,0
2694.934,-58.594,30.762,26.855,-62.500,-57.129,0
2694.938,12.207,32.715,25.879,5.859,-11.230,0
2694.942,105.957,29.297,24.902,107.422,140.625,0
2694.946,56.152,22.461,28.320,62.500,107.422,0
2694.950,-49.805,16.602,30.762,-55.664,-52.246,0
2694.954,-16.602,11.230,28.320,-31.738,-79.590,0
2694.958,98.145,16.602,28.809,98.145,65.430,0
2694.962,87.891,22.949,31.738,100.098,109.863,0
2694.965,-23.438,21.973,28.320,-28.809,-8.789,0
2694.969,-36.621,20.020,25.391,-52.734,-71.777,0
2694.973,74.707,20.508,28.809,69.824,16.113,0
2694.977,101.074,17.090,34.180,115.234,131.836,0
2694.981,-12.207,15.625,38.574,4.395,75.195,0
2694.985,-62.500,14.648,36.621,-62.988,-64.941,0
2694.989,33.203,12.207,32.715,38.574,-17.578,0
2694.993,101.562,12.695,37.598,123.047,122.559,0
2694.997,28.809,17.090,40.527,38.086,77.148,0
2695.001,-61.523,14.160,42.480,-67.871,-49.316,0
2695.005,0.000,10.254,46.387,-3.418,-51.758,0
2695.008,102.051,17.090,43.457,110.840,70.801,0
2695.012,71.289,22.949,42.480,73.730,99.609,0
2695.016,-30.273,20.996,45.410,-41.992,-27.832,0
2695.020,-20.020,24.414,39.062,-29.785,-68.848,0
2695.024,89.844,27.344,33.691,90.332,55.664,0
2695.028,92.285,25.391,35.156,103.516,123.047,0
2695.032,-24.902,24.414,39.551,-22.461,-2.930,0
2695.036,-48.340,29.297,39.062,-57.129,-100.098,0
2695.040,64.941,33.203,30.762,62.012,5.859,0
2695.044,105.469,30.273,31.738,116.211,116.211,0
2695.048,10.254,30.762,35.645,11.230,49.805,0
2695.051,-58.105,26.855,31.738,-70.801,-86.914,0
2695.055,22.461,24.902,29.297,21.973,-60.547,0
2695.059,107.910,27.832,27.832,119.629,81.543,0
2695.063,37.109,26.367,29.785,49.316,59.082,0
2695.067,-59.082,22.461,30.273,-62.988,-58.105,0
2695.071,-7.812,21.973,25.391,-15.625,-12.207,0
2695.075,101.562,29.297,23.926,108.398,155.762,0
2695.079,74.219,30.273,27.832,83.008,177.246,0
2695.083,-43.945,19.043,26.367,-45.898,2.930,0
2695.087,-41.992,15.625,23.926,-49.805,-57.129,0
2695.090,69.824,22.949,26.855,75.684,66.895,0
2695.094,82.520,28.809,25.879,98.145,100.586,0
2695.098,-24.414,26.367,27.344,-24.414,-11.230,0
2695.102,-55.176,21.484,25.391,-70.801,-83.496,0
2695.106,49.805,21.973,19.043,42.969,16.602,0
2695.110,100.098,20.508,19.531,113.281,147.461,0
2695.114,3.906,21.973,26.855,16.113,71.289,0
2695.118,-64.453,22.461,32.227,-72.266,-79.590,0
2695.122,20.996,23.926,34.180,7.324,-27.344,0
2695.126,105.469,33.691,30.273,105.957,125.488,0
2695.130,42.480,36.133,26.855,46.875,87.891,0
2695.133,-54.199,33.691,26.367,-62.988,-53.711,0
2695.137,-6.836,34.180,29.297,-18.066,-55.176,0
2695.141,98.633,36.621,31.738,96.680,85.938,0
2695.145,79.102,35.645,29.297,75.684,134.277,0
2695.149,-28.809,29.297,26.367,-42.480,11.719,0
2695.153,-28.809,30.273,27.344,-50.293,-80.078,0
2695.157,79.102,30.762,30.273,71.289,36.621,0
2695.161,100.098,25.879,33.203,104.004,155.273,0
2695.165,-2.930,27.344,35.156,-6.348,36.621,0
2695.169,-49.316,26.367,31.738,-61.035,-90.332,0
2695.173,51.758,24.414,28.320,39.551,18.555,0
2695.176,114.746,28.320,28.809,115.234,126.465,0
2695.180,23.926,34.668,29.297,28.809,47.852,0
2695.184,-56.641,38.086,27.832,-65.918,-64.941,0
2695.188,20.020,41.992,29.785,7.812,-34.668,0
2695.192,113.770,37.598,31.250,114.258,117.676,0
2695.196,58.105,29.297,29.785,60.547,149.902,0
2695.200,-48.828,28.320,30.273,-59.082,-32.715,0
2695.204,-15.625,32.227,28.320,-28.809,-71.777,0
2695.208,101.562,33.691,29.785,97.656,85.449,0
2695.212,91.309,27.832,35.645,94.238,122.559,0
2695.215,-25.879,31.250,37.598,-26.855,0.488,0
2695.219,-39.062,38.574,35.645,-48.340,-76.660,0
2695.223,74.219,36.621,34.668,72.266,35.645,0
2695.227,108.887,30.762,32.227,120.117,149.414,0
2695.231,6.836,25.391,28.809,9.277,59.570,0
2695.235,-50.781,25.879,27.832,-60.059,-67.383,0
2695.239,40.527,28.320,25.879,36.621,-3.906,0
2695.243,114.258,24.414,25.391,123.535,106.445,0
2695.247,30.762,21.973,28.320,42.480,53.223,0
2695.251,-56.641,26.855,28.809,-61.035,-76.172,0
2695.255,2.441,25.391,28.320,-2.441,-39.062,0
2695.258,102.051,21.973,27.832,107.910,103.027,0
2695.262,65.918,21.484,26.855,69.336,115.723,0
2695.266,-43.457,24.414,27.832,-52.246,-21.973,0
2695.270,-28.320,24.414,28.320,-34.668,-59.570,0
2695.274,76.660,24.902,27.832,85.449,93.262,0
2695.278,77.637,23.926,27.832,94.727,145.996,0
2695.282,-29.785,18.555,25.391,-22.461,-15.137,0
2695.286,-51.758,20.996,23.438,-59.082,-116.699,0
2695.290,54.688,28.809,25.391,64.941,10.742,0
2695.294,97.656,29.785,26.855,117.188,114.746,0
2695.298,5.371,23.438,27.832,12.207,29.297,0
2695.301,-54.199,23.438,24.902,-62.500,-78.613,0
2695.305,27.344,28.809,25.879,28.320,-19.531,0
2695.309,99.609,28.320,27.344,125.488,107.910,0
2695.313,29.297,20.996,28.320,48.340,91.797,0
2695.317,-56.152,19.043,30.762,-57.617,-32.715,0
2695.321,5.371,24.414,28.809,1.953,-15.625,0
2695.325,109.375,25.879,29.785,114.746,119.629,0
2695.329,71.777,23.926,33.691,85.449,112.305,0
2695.333,-38.574,25.391,31.738,-39.062,-7.324,0
2695.337,-24.414,24.902,28.809,-44.434,-52.734,0
2695.340,86.914,27.344,27.832,71.777,41.016,0
2695.344,103.027,33.203,22.461,89.844,126.465,0
2695.348,3.418,33.691,24.902,-28.809,22.949,0
2695.352,-20.996,30.762,31.738,-75.195,-93.750,0
2695.356,90.332,30.273,24.902,34.668,-12.695,0
2695.360,143.066,29.297,20.996,96.680,124.512,0
2695.364,46.875,25.391,24.414,5.859,66.406,0
2695.368,-34.180,20.020,26.367,-71.289,-77.148,0
2695.372,35.645,22.461,31.738,15.625,-34.180,0
2695.376,110.840,24.902,34.668,119.629,111.816,0
2695.380,37.109,19.043,34.668,59.082,75.195,0
2695.383,-71.289,16.602,33.691,-56.152,-96.680,0
2695.387,-27.832,19.043,30.762,-20.996,-83.008,0
2695.391,84.961,21.973,30.762,100.098,51.758,0
2695.395,60.059,16.113,32.715,86.426,66.895,0
2695.399,-47.363,13.184,37.109,-35.156,-45.898,0
2695.403,-41.016,21.973,36.621,-44.434,-97.656,0
2695.407,72.754,23.926,34.668,79.102,31.738,0
2695.411,93.750,23.438,33.691,110.352,120.117,0
2695.415,-13.672,25.391,30.762,-9.766,36.621,0
2695.419,-54.688,26.855,31.738,-66.406,-83.496,0
2695.423,46.875,34.668,34.180,46.875,-7.324,0
2695.426,111.328,41.016,39.551,125.488,102.051,0
2695.430,24.902,40.527,39.551,31.250,39.062,0
2695.434,-59.082,41.504,33.203,-62.500,-76.660,0
2695.438,10.742,39.551,29.785,9.277,-64.453,0
2695.442,100.098,32.227,28.809,116.211,101.562,0
2695.446,52.246,32.227,30.762,67.383,108.887,0
2695.450,-49.805,32.715,30.273,-51.270,-26.855,0
2695.454,-18.066,31.738,32.715,-23.926,-55.176,0
2695.458,98.633,35.645,33.691,99.121,43.457,0
2695.462,89.844,38.574,35.156,93.262,142.090,0
2695.465,-25.879,29.785,39.062,-26.367,40.527,0
2695.469,-40.039,22.949,39.062,-45.410,-56.641,0
2695.473,68.848,31.250,34.180,65.918,21.973,0
2695.477,98.145,34.180,27.344,108.398,140.137,0
2695.481,-7.324,22.949,26.855,-3.418,90.820,0
2695.485,-59.082,25.391,26.367,-73.242,-51.758,0
2695.489,36.621,32.227,22.461,26.855,-29.297,0
2695.493,108.398,29.785,24.414,114.746,147.949,0
2695.497,28.809,27.344,28.809,37.598,111.328,0
2695.501,-59.082,28.809,34.180,-62.988,-80.566,0
2695.505,3.906,28.809,34.668,1.953,-43.945,0
2695.508,104.004,27.832,29.297,113.281,99.121,0
2695.512,61.523,31.738,30.273,68.848,101.562,0
2695.516,-47.363,36.133,30.762,-58.594,-20.996,0
2695.520,-22.949,37.598,28.809,-47.852,-82.031,0
2695.524,92.285,35.156,28.320,77.148,73.242,0
2695.528,92.285,28.809,27.344,84.961,168.457,0
2695.532,-21.973,29.785,26.367,-35.645,2.441,0
2695.536,-43.945,32.227,22.949,-64.453,-77.148,0
2695.540,66.895,23.926,24.414,54.199,38.574,0
2695.544,106.445,20.020,25.391,116.699,141.113,0
2695.548,8.789,22.949,25.391,14.648,56.641,0
2695.551,-45.898,25.391,28.809,-66.895,-82.031,0
2695.555,36.133,25.879,21.973,19.531,27.344,0
2695.559,106.445,23.438,20.508,109.375,168.945,0
2695.563,37.598,18.066,23.926,42.969,82.520,0
2695.567,-52.246,16.113,19.043,-62.500,-33.203,0
2695.571,7.324,20.508,21.484,-8.301,-21.973,0
2695.575,113.281,23.438,24.902,110.840,74.219,0
2695.579,77.148,22.461,19.043,80.566,107.422,0
2695.583,-38.574,22.461,17.578,-41.504,-19.531,0
2695.587,-25.391,22.949,21.484,-42.480,-70.801,0
2695.590,88.379,25.391,24.414,78.125,65.918,0
2695.594,92.285,28.809,20.996,96.191,160.645,0
2695.598,-17.578,22.949,17.578,-24.902,26.367,0
2695.602,-41.504,19.531,20.020,-58.594,-91.309,0
2695.606,63.965,22.461,23.438,53.711,-8.789,0
2695.610,113.281,28.320,22.949,111.328,120.117,0
2695.614,23.926,32.715,21.973,17.578,74.707,0
2695.618,-45.410,30.273,29.297,-65.430,-73.730,0
2695.622,29.297,33.203,35.156,13.672,-24.414,0
2695.626,109.375,31.738,30.273,110.840,116.699,0
2695.630,43.945,23.926,28.320,49.805,109.863,0
2695.633,-55.176,23.926,31.250,-63.965,-20.996,0
2695.637,-12.207,25.879,32.715,-23.438,-52.246,0
2695.641,93.750,22.949,35.645,102.539,68.848,0
2695.645,76.172,22.461,41.016,87.891,139.648,0
2695.649,-36.621,20.508,46.875,-36.133,10.742,0
2695.653,-45.410,16.602,44.922,-47.852,-92.773,0
2695.657,64.941,19.531,41.992,75.684,18.555,0
2695.661,85.938,20.508,36.133,105.469,121.094,0
2695.665,-20.020,17.090,33.691,-7.324,35.645,0
2695.669,-64.941,20.508,34.668,-62.988,-83.984,0
2695.673,37.109,24.414,32.715,36.621,-1.953,0
2695.676,106.445,23.926,34.180,118.652,140.137,0
2695.680,22.461,26.367,29.785,34.668,77.148,0
2695.684,-57.129,27.832,25.391,-58.105,-69.336,0
2695.688,9.766,27.344,27.344,14.160,-27.832,0
2695.692,98.633,28.320,33.691,117.676,118.164,0
2695.696,45.410,30.273,37.598,62.988,129.395,0
2695.700,-56.641,30.273,39.551,-56.152,-28.320,0
2695.704,-18.555,30.273,38.086,-28.809,-71.777,0
2695.708,93.750,34.668,35.645,96.680,70.312,0
2695.712,78.613,34.180,40.527,94.238,114.746,0
2695.715,-34.180,28.809,41.504,-26.855,-35.645,0
2695.719,-47.363,25.391,41.992,-47.363,-108.398,0
2695.723,65.430,21.973,41.992,71.289,27.344,0
2695.727,97.656,18.555,44.434,115.723,130.859,0
2695.731,-14.648,18.555,48.828,7.812,34.668,0
2695.735,-67.383,24.902,45.898,-63.965,-90.332,0
2695.739,28.809,33.691,37.598,26.367,-20.020,0
2695.743,98.145,36.621,35.645,109.375,122.070,0
2695.747,22.461,34.180,38.086,32.227,68.359,0
2695.751,-61.523,32.227,35.156,-65.430,-84.473,0
2695.755,2.930,31.738,39.062,-3.906,-69.336,0
2695.758,97.656,28.320,41.992,106.934,54.199,0
2695.762,59.082,29.297,39.551,68.359,95.215,0
2695.766,-41.992,28.320,36.621,-51.758,-28.320,0
2695.770,-21.973,22.949,37.598,-37.109,-104.492,0
2695.774,89.844,26.367,36.621,83.496,15.137,0
2695.778,88.867,31.250,30.762,93.262,137.207,0
2695.782,-20.996,31.250,30.273,-23.438,65.918,0
2695.786,-43.945,33.691,31.738,-55.176,-60.059,0
2695.790,64.941,38.574,32.715,62.500,30.762,0
2695.794,111.816,38.574,28.809,118.652,144.043,0
2695.798,16.113,30.762,29.785,16.602,46.387,0
2695.801,-51.758,24.902,32.227,-63.477,-80.566,0
2695.805,35.645,30.273,32.227,22.461,-29.297,0
2695.809,111.328,32.227,31.738,116.211,112.305,0
2695.813,28.320,27.832,28.320,42.969,94.238,0
2695.817,-61.035,30.273,29.297,-69.824,-72.266,0
2695.821,-1.465,36.621,34.180,-15.625,-81.055,0
2695.825,97.656,40.039,35.156,104.492,83.496,0
2695.829,67.383,43.945,33.691,73.242,109.863,0
2695.833,-35.645,44.922,36.133,-46.387,-20.508,0
2695.837,-25.391,41.504,39.062,-40.527,-51.270,0
2695.840,76.172,37.109,39.062,80.566,74.219,0
2695.844,83.496,38.086,41.992,101.562,124.512,0
2695.848,-18.066,39.062,42.969,-12.695,-2.930,0
2695.852,-53.711,35.156,41.016,-55.664,-97.656,0
2695.856,48.828,33.203,41.016,52.246,7.812,0
2695.860,102.539,33.691,37.109,116.211,123.535,0
2695.864,9.766,33.203,33.203,17.578,72.754,0
2695.868,-61.035,23.926,33.691,-68.359,-57.617,0
2695.872,17.578,21.973,35.156,15.137,-50.781,0
2695.876,98.633,24.414,36.621,113.770,110.840,0
2695.880,38.086,17.578,38.086,52.246,99.121,0
2695.883,-52.246,11.719,39.551,-60.547,-67.383,0
2695.887,-5.859,14.648,41.016,-17.090,-58.594,0
2695.891,94.238,18.555,41.504,98.145,94.238,0
2695.895,66.895,16.113,39.062,70.801,121.582,0
2695.899,-41.016,19.531,40.527,-46.387,13.672,0
2695.903,-47.363,20.020,39.551,-49.805,-49.316,0
2695.907,61.035,20.508,37.598,73.242,62.988,0
2695.911,86.426,21.484,36.133,104.004,173.828,0
2695.915,-12.207,19.531,36.133,-8.301,60.547,0
2695.919,-49.316,21.484,37.598,-60.547,-79.590,0
2695.923,49.805,20.020,31.738,49.316,10.254,0
2695.926,111.328,20.508,28.320,125.488,159.668,0
2695.930,23.438,22.949,31.250,33.203,115.723,0
2695.934,-54.688,24.902,31.738,-59.082,-42.969,0
2695.938,16.602,29.785,31.250,8.789,-57.129,0
2695.942,108.398,33.691,32.227,113.770,93.750,0
2695.946,58.105,33.691,33.203,67.871,119.629,0
2695.950,-48.340,30.273,34.180,-57.129,-20.996,0
2695.954,-18.066,28.320,32.227,-29.785,-41.992,0
2695.958,96.191,33.691,30.762,102.051,114.746,0
2695.962,86.426,37.109,32.227,98.633,163.086,0
2695.965,-31.738,34.180,34.180,-28.320,14.648,0
2695.969,-40.527,34.180,37.109,-50.293,-55.176,0
2695.973,73.242,36.133,37.109,72.754,79.590,0
2695.977,104.004,36.621,36.133,117.676,174.805,0
2695.981,-0.488,35.645,35.156,0.977,47.852,0
2695.985,-52.734,36.621,30.762,-67.871,-68.359,0
2695.989,40.527,39.062,27.832,35.645,5.859,0
2695.993,103.027,41.504,28.809,121.094,125.977,0
2695.997,24.902,39.551,28.320,36.621,82.520,0
2696.001,-52.734,41.016,32.227,-64.453,-57.617,0
2696.005,12.207,38.574,33.203,-0.488,-47.363,0
2696.008,114.258,32.227,33.691,116.211,90.820,0
2696.012,71.777,33.691,38.086,78.613,126.465,0
2696.016,-42.969,29.785,33.203,-46.875,-19.043,0
2696.020,-25.879,27.344,30.273,-32.715,-70.312,0
2696.024,85.938,35.156,29.297,90.820,76.172,0
2696.028,92.285,38.574,28.809,99.609,136.719,0
2696.032,-20.508,36.621,28.809,-25.391,-3.418,0
2696.036,-43.945,34.180,31.738,-62.500,-87.891,0
2696.040,66.406,32.227,32.227,54.199,34.668,0
2696.044,103.516,34.180,28.320,102.051,122.070,0
2696.048,5.859,33.691,30.762,0.488,47.852,0
2696.051,-51.758,34.668,32.715,-67.383,-58.105,0
2696.055,30.762,35.156,32.715,21.484,-24.902,0
2696.059,98.633,31.250,35.645,113.770,117.676,0
2696.063,28.320,29.785,35.645,35.645,92.285,0
2696.067,-61.035,30.762,35.645,-76.172,-60.059,0
2696.071,-6.836,30.762,35.645,-18.066,-37.109,0
2696.075,104.492,36.133,31.738,98.145,93.750,0
2696.079,67.871,34.668,28.320,62.500,119.141,0
2696.083,-43.945,31.250,33.203,-54.199,-19.531,0
2696.087,-25.879,29.785,37.598,-41.992,-110.352,0
2696.090,83.496,30.273,41.504,82.520,25.879,0
2696.094,92.773,30.273,41.992,103.516,134.277,0
2696.098,-14.648,26.855,46.875,-15.625,45.898,0
2696.102,-49.805,32.715,47.852,-61.523,-55.664,0
2696.106,51.270,34.180,40.039,53.711,37.109,0
2696.110,107.422,28.809,40.039,124.512,159.668,0
2696.114,20.508,27.344,38.086,26.367,76.172,0
2696.118,-57.617,27.832,34.180,-63.965,-49.316,0
2696.122,20.996,28.320,37.598,15.137,-23.438,0
2696.126,111.816,26.855,41.016,118.652,106.934,0
2696.130,45.410,28.320,41.016,59.082,97.168,0
2696.133,-59.570,27.832,37.598,-59.082,-65.918,0
2696.137,-14.648,28.809,34.668,-20.508,-75.195,0
2696.141,99.121,29.297,39.551,103.027,87.402,0
2696.145,79.590,28.320,41.992,88.379,125.488,0
2696.149,-34.668,29.297,41.504,-34.180,-7.324,0
2696.153,-35.156,30.273,42.969,-41.504,-60.059,0
2696.157,75.195,30.273,41.992,80.078,54.688,0
2696.161,99.609,28.809,41.992,109.375,138.672,0
2696.165,-11.230,27.832,40.527,-6.836,38.086,0
2696.169,-60.547,25.879,41.504,-61.523,-69.824,0
2696.173,43.945,24.414,37.109,44.434,11.719,0
2696.176,108.887,25.391,36.621,120.605,136.230,0
2696.180,29.297,30.273,46.387,35.156,77.148,0
2696.184,-42.480,32.227,49.316,-59.082,-53.711,0
2696.188,31.250,27.832,42.969,4.883,-27.344,0
2696.192,131.836,31.738,42.969,110.352,124.512,0
2696.196,87.891,32.227,41.504,59.082,132.812,0
2696.200,-11.719,31.250,40.039,-60.059,-20.508,0
2696.204,26.855,30.273,39.551,-30.273,-37.598,0
2696.208,139.160,27.344,31.738,91.309,96.191,0
2696.212,124.023,24.414,32.715,91.797,142.578,0
2696.215,-0.977,17.090,38.086,-26.367,9.277,0
2696.219,-21.973,16.602,38.574,-44.434,-88.379,0
2696.223,81.543,26.367,34.180,79.102,11.719,0
2696.227,104.492,28.809,33.691,121.094,121.094,0
2696.231,-3.418,24.414,32.715,12.207,49.805,0
2696.235,-60.547,24.902,32.227,-55.176,-75.195,0
2696.239,31.738,27.344,36.621,35.645,-10.254,0
2696.243,106.934,29.785,35.645,118.652,147.949,0
2696.247,31.250,30.273,33.203,37.109,119.629,0
2696.251,-55.664,30.762,34.668,-63.965,-35.156,0
2696.255,7.324,33.203,33.691,0.977,-43.945,0
2696.258,104.004,36.133,33.691,112.793,98.633,0
2696.262,60.547,37.109,34.180,79.102,129.395,0
2696.266,-44.922,34.180,30.762,-40.039,-41.016,0
2696.270,-23.926,38.086,32.715,-28.320,-85.449,0
2696.274,86.426,38.086,32.227,95.215,87.891,0
2696.278,84.961,34.668,34.180,106.934,151.855,0
2696.282,-26.367,34.668,37.598,-10.742,20.020,0
2696.286,-45.410,35.156,36.621,-42.480,-38.574,0
2696.290,63.477,32.227,33.691,71.289,65.918,0
2696.294,107.422,29.785,34.180,124.512,141.113,0
2696.298,18.066,33.691,35.645,14.160,66.895,0
2696.301,-42.480,39.551,31.738,-67.871,-74.707,0
2696.305,32.227,38.086,29.297,20.508,-14.648,0
2696.309,108.398,38.574,31.250,112.793,153.320,0
2696.313,37.109,39.551,31.250,39.062,118.652,0
2696.317,-58.105,41.504,30.273,-71.777,-38.086,0
2696.321,1.953,50.781,32.227,-15.137,-59.570,0
2696.325,104.980,47.852,29.297,103.027,100.098,0
2696.329,72.754,43.945,25.391,77.148,147.949,0
2696.333,-33.691,45.410,26.855,-44.922,12.695,0
2696.337,-28.320,44.922,30.273,-47.852,-58.105,0
2696.340,81.055,50.781,31.250,79.590,54.199,0
2696.344,92.773,51.758,30.762,102.051,147.461,0
2696.348,-19.531,45.410,23.438,-21.973,12.695,0
2696.352,-54.688,47.852,17.578,-68.359,-95.215,0
2696.356,51.758,51.270,21.973,43.945,17.578,0
2696.360,111.328,46.387,25.391,113.770,132.324,0
2696.364,18.555,37.598,24.902,15.625,61.035,0
2696.368,-58.105,29.785,25.391,-76.660,-86.426,0
2696.372,20.996,36.133,25.391,8.789,-50.781,0
2696.376,111.328,39.551,26.367,112.305,92.773,0
2696.380,52.734,33.203,28.320,53.711,104.004,0
2696.383,-52.734,27.832,24.414,-55.664,-25.391,0
2696.387,-12.695,32.227,20.996,-16.113,-74.219,0
2696.391,97.168,36.621,18.555,96.680,57.129,0
2696.395,70.312,33.691,23.926,84.473,126.953,0
2696.399,-34.180,32.227,25.391,-39.062,0.000,0
2696.403,-26.367,32.227,19.531,-54.688,-60.059,0
2696.407,84.961,35.156,20.996,73.242,63.477,0
2696.411,104.980,39.551,23.926,106.445,144.043,0
2696.415,-3.418,40.039,23.926,-11.719,23.926,0
2696.419,-47.363,36.133,23.926,-67.383,-93.750,0
2696.423,55.664,35.645,21.484,42.480,-0.488,0
2696.426,112.305,34.180,22.949,120.117,140.137,0
2696.430,20.996,27.832,22.461,26.855,83.984,0
2696.434,-57.617,26.367,20.020,-67.871,-80.566,0
2696.438,14.160,26.367,17.090,2.441,-51.270,0
2696.442,109.863,22.949,16.602,106.445,117.188,0
2696.446,58.594,21.973,18.066,60.547,107.910,0
2696.450,-47.852,20.996,17.578,-54.199,-66.406,0
2696.454,-15.137,22.461,22.949,-23.926,-98.145,0
2696.458,89.355,22.949,23.438,93.750,59.082,0
2696.462,78.613,19.043,19.043,90.820,111.816,0
2696.465,-28.809,22.461,18.555,-26.367,-4.395,0
2696.469,-44.434,23.926,17.090,-51.758,-62.012,0
2696.473,65.918,24.902,18.066,66.895,29.785,0
2696.477,102.539,26.855,27.832,116.699,126.465,0
2696.481,4.395,20.020,31.738,7.324,58.105,0
2696.485,-53.711,15.625,27.832,-57.617,-57.129,0
2696.489,32.227,16.113,24.902,45.410,-4.883,0
2696.493,98.145,15.625,27.832,127.441,125.000,0
2696.497,14.648,17.578,29.297,40.527,75.684,0
2696.501,-69.336,27.344,25.879,-62.500,-62.012,0
2696.505,5.371,32.227,21.973,3.906,-44.922,0
2696.508,100.586,27.832,21.973,110.840,81.543,0
2696.512,48.340,29.785,26.367,68.848,107.422,0
2696.516,-56.641,29.785,25.879,-48.340,-14.160,0
2696.520,-34.180,29.297,24.902,-30.762,-76.660,0
2696.524,82.520,43.457,26.367,95.215,63.477,0
2696.528,87.402,46.387,28.320,101.562,146.973,0
2696.532,-26.855,37.109,26.855,-20.508,18.555,0
2696.536,-48.828,32.715,22.461,-54.199,-78.125,0
2696.540,60.059,31.738,24.902,63.965,38.574,0
2696.544,103.027,34.668,27.832,118.652,152.344,0
2696.548,5.859,36.133,29.785,11.719,82.520,0
2696.551,-51.270,37.598,30.273,-65.430,-68.848,0
2696.555,37.598,36.133,32.715,25.391,-15.137,0
2696.559,114.746,33.691,32.715,119.629,139.648,0
2696.563,40.527,29.785,30.273,49.805,114.258,0
2696.567,-56.641,24.902,30.273,-59.570,-45.410,0
2696.571,-3.906,26.367,31.250,-9.766,-46.875,0
2696.575,96.191,30.762,27.832,109.375,116.211,0
2696.579,65.918,22.949,28.809,79.102,150.391,0
2696.583,-37.109,13.184,31.738,-41.992,14.648,0
2696.587,-22.461,13.184,34.180,-37.598,-61.035,0
2696.590,90.332,20.020,40.039,87.891,44.922,0
2696.594,96.680,24.414,39.062,110.840,144.043,0
2696.598,-16.602,16.113,37.109,-12.207,25.879,0
2696.602,-48.828,15.625,40.039,-54.199,-75.684,0
2696.606,50.293,24.414,39.062,59.570,35.645,0
2696.610,100.098,27.832,39.062,121.094,144.043,0
2696.614,7.812,24.902,37.598,20.508,79.590,0
2696.618,-64.941,20.996,32.715,-63.477,-60.059,0
2696.622,23.926,19.043,29.297,27.344,-23.926,0
2696.626,115.723,19.043,27.832,123.047,125.488,0
2696.630,48.828,18.066,28.809,55.664,100.586,0
2696.633,-47.363,18.555,27.832,-54.688,-30.762,0
2696.637,-9.766,14.160,25.391,-11.230,-31.250,0
2696.641,90.820,15.137,23.438,109.375,103.516,0
2696.645,71.777,19.043,20.996,85.449,149.414,0
2696.649,-42.969,14.160,19.531,-42.969,-9.766,0
2696.653,-41.504,19.531,22.461,-45.898,-91.309,0
2696.657,73.730,26.855,19.531,77.148,39.062,0
2696.661,92.285,24.902,19.043,103.027,150.879,0
2696.665,-11.230,23.926,24.902,-5.371,65.918,0
2696.669,-49.316,23.926,25.391,-51.270,-60.059,0
2696.673,46.387,25.879,23.438,51.270,0.000,0
2696.676,108.398,25.391,21.484,121.582,118.164,0
2696.680,27.344,21.484,21.973,31.738,85.938,0
2696.684,-52.246,21.484,23.926,-65.918,-56.152,0
2696.688,19.531,28.320,22.949,4.883,-65.430,0
2696.692,108.887,38.574,22.461,117.188,81.543,0
2696.696,51.270,33.203,22.461,68.848,123.535,0
2696.700,-51.758,26.367,25.879,-48.828,-6.348,0
2696.704,-13.184,30.762,28.320,-20.020,-51.758,0
2696.708,99.609,33.691,28.809,99.121,86.426,0
2696.712,78.125,31.250,26.367,90.332,138.672,0
2696.715,-33.691,30.762,25.879,-35.156,3.418,0
2696.719,-37.598,34.180,28.809,-54.688,-70.312,0
2696.723,66.406,30.762,28.809,61.035,52.246,0
2696.727,88.867,21.973,29.785,106.445,152.344,0
2696.731,-10.742,22.461,33.691,2.441,53.223,0
2696.735,-51.270,26.855,36.133,-63.965,-76.172,0
2696.739,46.875,27.344,38.086,32.227,-16.602,0
2696.743,115.234,29.297,41.992,117.188,107.422,0
2696.747,35.156,28.320,42.969,39.062,86.426,0
2696.751,-48.340,26.855,44.922,-62.988,-53.223,0
2696.755,12.207,28.320,40.527,5.371,-55.664,0
2696.758,108.398,29.297,34.668,121.094,107.910,0
2696.762,70.801,31.250,34.180,79.102,126.953,0
2696.766,-42.480,30.762,31.250,-42.480,-28.320,0
2696.770,-21.484,32.715,31.738,-28.320,-57.617,0
2696.774,96.680,32.715,37.109,100.098,83.008,0
2696.778,94.727,25.391,38.086,105.957,117.188,0
2696.782,-18.555,20.020,41.504,-18.555,-8.301,0
2696.786,-35.156,21.973,45.410,-47.852,-54.199,0
2696.790,72.266,21.973,43.945,66.895,31.738,0
2696.794,111.328,22.949,43.457,119.141,104.980,0
2696.798,19.043,24.414,41.016,16.113,45.898,0
2696.801,-48.340,20.020,41.016,-58.594,-93.262,0
2696.805,31.738,20.996,41.504,34.180,-23.438,0
2696.809,108.887,23.926,39.551,127.441,124.023,0
2696.813,39.062,26.367,38.574,54.688,76.660,0
2696.817,-47.852,23.926,36.621,-50.293,-29.297,0
2696.821,6.836,23.926,38.574,4.395,-21.973,0
2696.825,109.375,27.344,42.969,119.141,96.191,0
2696.829,74.707,22.461,44.922,87.891,130.859,0
2696.833,-31.738,17.090,44.434,-36.621,1.953,0
2696.837,-19.043,17.090,41.016,-31.738,-70.801,0
2696.840,85.449,20.996,36.621,91.309,69.336,0
2696.844,91.797,22.461,36.621,104.492,179.688,0
2696.848,-17.578,20.020,41.504,-16.113,52.246,0
2696.852,-43.945,24.414,46.875,-56.641,-58.105,0
2696.856,65.430,31.250,43.945,58.594,44.922,0
2696.860,114.746,30.762,37.109,123.535,163.086,0
2696.864,22.949,25.879,31.250,21.484,74.707,0
2696.868,-42.969,24.414,33.203,-65.430,-67.871,0
2696.872,31.738,23.438,32.227,18.066,-28.320,2
2696.876,108.398,20.020,27.344,113.281,103.027,0
2696.880,42.969,20.996,29.297,52.734,108.887,0
2696.883,-54.199,22.949,31.250,-64.941,-58.105,0
2696.887,-9.277,27.344,28.809,-30.273,-89.355,0
2696.891,104.492,33.691,30.762,95.215,81.543,0
2696.895,87.402,34.180,32.227,83.496,140.137,0
2696.899,-23.438,29.785,35.156,-36.133,9.766,0
2696.903,-18.066,29.785,33.203,-47.852,-70.312,0
2696.907,91.309,30.273,28.809,72.266,60.547,0
2696.911,105.469,28.809,33.691,108.887,141.602,0
2696.915,-6.836,22.949,31.250,-6.836,33.203,0
2696.919,-51.270,17.578,26.367,-65.918,-76.172,0
2696.923,49.316,21.973,30.273,48.340,0.977,0
2696.926,114.258,22.949,30.762,124.512,104.980,0
2696.930,35.645,27.344,27.832,33.203,17.578,0
2696.934,-42.969,30.273,24.902,-58.594,-82.031,0
2696.938,28.809,28.809,21.973,9.277,-44.434,0
2696.942,117.188,28.809,19.531,115.723,104.492,0
2696.946,62.012,25.879,20.020,63.965,127.441,0
2696.950,-44.922,22.949,20.020,-55.664,-34.668,0
2696.954,-14.160,26.367,22.949,-25.391,-86.426,0
2696.958,99.609,31.738,23.926,100.586,70.312,0
2696.962,89.844,26.367,19.043,98.633,146.973,0
2696.965,-20.996,21.973,21.973,-25.391,23.926,0
2696.969,-31.738,29.297,27.832,-49.316,-78.613,0
2696.973,72.266,33.691,29.785,67.383,-27.832,0
2696.977,98.145,32.227,25.391,106.934,94.238,0
2696.981,-3.906,26.367,23.926,-2.930,40.039,0
2696.985,-58.105,23.438,26.367,-71.289,-101.562,0
2696.989,41.016,26.855,23.438,28.809,-47.852,0
2696.993,113.770,26.855,19.043,114.746,105.957,0
2696.997,30.762,24.902,23.438,34.180,78.613,0
2697.001,-53.223,28.809,30.273,-63.965,-70.801,0
2697.005,9.277,35.156,27.832,0.000,-38.086,0
2697.008,99.609,37.598,26.367,113.770,88.867,0
2697.012,57.617,33.203,28.320,74.707,99.609,0
2697.016,-41.992,26.367,30.273,-53.223,-39.551,0
2697.020,-14.160,26.855,28.320,-42.480,-98.633,0
2697.024,100.098,36.621,25.391,78.613,65.918,0
2697.028,108.887,38.086,25.391,83.984,140.625,0
2697.032,7.812,27.832,27.344,-41.016,-1.465,0
2697.036,-15.137,22.949,27.344,-76.172,-98.633,0
2697.040,90.332,24.414,28.320,44.434,26.855,0
2697.044,128.906,24.414,30.273,105.957,141.113,0
2697.048,22.949,19.531,31.250,9.766,49.805,0
2697.051,-42.480,21.484,36.133,-61.523,-83.008,0
2697.055,35.645,24.902,36.133,32.227,-7.812,0
2697.059,101.562,23.926,35.645,124.023,139.160,0
2697.063,30.273,21.484,40.039,50.781,89.844,0
2697.067,-57.129,20.508,38.086,-58.594,-57.617,0
2697.071,-3.418,24.414,35.156,-3.906,-41.992,0
2697.075,94.238,21.484,30.273,108.398,105.957,0
2697.079,60.059,19.043,27.344,74.219,130.859,0
2697.083,-46.387,21.484,31.738,-45.898,12.207,0
2697.087,-31.738,27.832,34.668,-40.527,-64.453,0
2697.090,76.172,33.691,38.086,85.938,45.898,0
2697.094,86.914,28.809,39.062,108.887,138.672,0
2697.098,-17.578,23.438,37.109,-10.742,11.230,0
2697.102,-58.594,20.020,30.762,-60.059,-85.449,0
2697.106,40.039,20.996,29.297,47.363,5.859,0
2697.110,98.633,20.996,30.273,115.234,117.188,0
2697.114,15.625,24.902,30.762,23.926,71.289,0
2697.118,-59.570,26.367,35.156,-55.664,-80.566,0
2697.122,16.602,24.414,35.645,28.809,-52.734,0
2697.126,106.934,28.320,33.691,121.582,109.375,0
2697.130,45.410,27.344,36.133,59.082,114.746,0
2697.133,-54.199,20.996,34.668,-58.594,-26.367,0
2697.137,-9.277,23.926,32.227,-18.066,-49.805,0
2697.141,95.703,27.832,35.156,111.328,79.590,0
2697.145,75.195,30.273,36.133,95.703,101.562,0
2697.149,-35.645,28.320,35.156,-34.668,-14.648,0
2697.153,-34.180,26.367,37.109,-47.852,-74.219,0
2697.157,73.730,28.809,38.086,75.195,44.434,0
2697.161,94.238,31.738,40.039,107.910,141.113,0
2697.165,-5.859,32.227,38.086,-14.160,44.922,0
2697.169,-50.293,35.645,31.738,-76.660,-83.984,0
2697.173,50.293,40.039,27.344,27.344,-11.719,0
2697.176,108.887,29.297,29.297,111.816,145.508,0
2697.180,20.508,25.391,35.156,29.785,80.078,0
2697.184,-56.152,28.809,36.133,-66.895,-90.820,0
2697.188,19.531,30.273,32.715,6.836,-35.156,0
2697.192,114.258,32.715,33.691,118.164,147.949,0
2697.196,64.941,28.809,37.598,73.242,147.461,0
2697.200,-32.715,27.344,39.551,-41.992,-25.879,0
2697.204,0.000,32.715,38.086,-23.926,-75.684,0
2697.208,103.516,38.086,34.668,94.238,84.473,0
2697.212,84.473,36.621,31.250,86.914,118.164,0
2697.215,-25.879,32.715,28.320,-36.133,-23.926,0
2697.219,-29.785,32.227,21.973,-53.223,-79.590,0
2697.223,78.613,29.297,13.184,63.477,28.320,0
2697.227,106.934,30.762,11.230,108.887,131.348,0
2697.231,2.441,29.297,9.277,-4.395,38.086,0
2697.235,-49.316,26.855,8.301,-67.871,-57.129,0
2697.239,49.316,31.738,14.648,38.574,8.789,0
2697.243,117.188,30.762,15.625,121.094,113.770,0
2697.247,35.645,27.832,13.672,34.180,74.707,0
2697.251,-46.875,27.344,15.625,-67.871,-70.312,0
2697.255,20.508,30.762,16.602,0.000,-51.758,0
2697.258,117.188,34.180,16.602,108.887,89.355,0
2697.262,69.824,32.715,15.625,58.594,108.398,0
2697.266,-38.086,31.250,17.090,-66.406,-19.531,0
2697.270,-20.508,31.250,23.926,-45.410,-80.566,0
2697.274,88.379,25.879,26.855,84.473,56.152,0
2697.278,95.215,24.902,26.855,93.750,167.969,0
2697.282,-15.137,25.391,29.785,-31.738,24.902,0
2697.286,-38.086,26.855,27.832,-62.500,-88.379,0
2697.290,68.848,33.203,25.879,60.547,41.504,0
2697.294,104.492,33.203,24.414,119.629,156.250,0
2697.298,11.719,35.156,20.996,17.578,59.570,0
2697.301,-49.316,34.668,21.973,-61.523,-101.074,0
2697.305,38.574,36.133,24.414,31.250,-30.762,0
2697.309,112.305,43.457,21.484,123.535,129.883,0
2697.313,36.621,37.598,17.090,45.898,80.566,0
2697.317,-58.105,28.809,18.555,-58.105,-77.148,0
2697.321,-6.836,29.785,22.949,-4.395,-74.707,0
2697.325,98.145,37.109,25.391,115.723,86.426,0
2697.329,63.965,38.574,25.391,86.426,116.211,0
2697.333,-49.805,34.668,22.949,-44.922,-29.297,0
2697.337,-37.598,34.180,20.996,-43.945,-91.309,0
2697.340,78.125,31.250,20.508,83.496,58.105,0
2697.344,87.891,26.855,17.578,103.516,145.996,0
2697.348,-16.113,29.785,22.949,-14.160,-7.812,0
2697.352,-43.945,33.203,30.762,-57.129,-120.605,0
2697.356,56.641,35.156,29.785,57.617,29.297,0
2697.360,108.398,38.574,27.832,116.211,151.367,0
2697.364,16.602,34.668,30.762,18.066,71.289,0
2697.368,-54.688,28.320,31.738,-61.523,-58.594,0
2697.372,25.391,28.320,32.227,25.391,-33.691,0
2697.376,101.562,27.832,27.832,125.977,105.957,0
2697.380,34.180,26.855,25.879,53.711,81.055,0
2697.383,-62.988,29.297,27.832,-63.477,-68.848,0
2697.387,-14.160,32.227,27.832,-18.066,-56.152,0
2697.391,92.285,27.832,25.879,104.492,66.406,0
2697.395,66.895,30.762,30.762,86.426,78.125,0
2697.399,-43.457,34.180,35.156,-35.645,-33.203,0
2697.403,-42.480,33.203,32.227,-40.527,-99.609,0
2697.407,75.195,34.180,29.297,85.938,28.320,0
2697.411,110.352,34.180,29.785,124.512,131.836,0
2697.415,4.395,28.809,33.691,3.906,25.391,0
2697.419,-53.223,21.484,35.156,-66.406,-96.680,0
2697.423,44.434,19.531,35.156,43.945,7.812,0
2697.426,108.398,24.414,36.621,124.023,162.109,0
2697.430,20.020,20.508,36.621,31.250,112.305,0
2697.434,-60.547,17.090,34.180,-62.988,-26.367,0
2697.438,11.719,25.391,31.738,4.883,-26.855,0
2697.442,100.098,27.344,29.297,111.328,109.863,0
2697.446,45.898,22.949,33.203,65.918,136.230,0
2697.450,-57.129,19.531,37.598,-47.852,0.000,0
2697.454,-24.414,19.531,35.156,-23.438,-13.184,0
2697.458,87.891,27.344,36.621,92.285,121.582,0
2697.462,82.031,28.320,36.133,90.332,141.602,0
2697.465,-31.738,26.367,33.691,-31.738,5.859,0
2697.469,-43.457,33.203,33.203,-53.223,-92.285,0
2697.473,71.289,35.645,31.738,71.777,15.137,0
2697.477,104.492,34.668,30.762,120.117,136.719,0
2697.481,5.371,34.180,27.344,8.301,24.414,0
2697.485,-43.945,31.738,23.926,-57.617,-111.328,0
2697.489,47.363,28.320,25.879,41.504,-10.254,0
2697.493,114.258,31.738,32.227,124.512,123.047,0
2697.497,32.715,32.227,30.762,38.086,69.824,0
2697.501,-55.664,33.691,27.832,-60.547,-104.004,0
2697.505,19.531,37.109,28.320,7.324,-88.379,0
2697.508,117.676,32.227,28.320,114.746,73.730,0
2697.512,63.477,30.273,31.738,76.172,79.102,0
2697.516,-44.922,26.367,29.297,-44.922,-43.945,0
2697.520,-28.320,26.367,22.461,-27.832,-74.707,0
2697.524,86.914,26.855,20.508,97.656,45.898,0
2697.528,91.309,26.367,23.438,103.027,133.301,0
2697.532,-24.902,23.926,26.367,-25.391,20.996,0
2697.536,-47.363,24.414,21.973,-58.105,-75.195,0
2697.540,56.152,26.367,20.508,59.082,47.363,0
2697.544,99.121,25.391,21.484,109.863,132.812,0
2697.548,7.812,24.902,19.531,6.348,52.246,0
2697.551,-48.340,24.414,14.160,-65.918,-62.988,0
2697.555,41.016,29.297,15.625,26.855,-12.695,0
2697.559,112.305,33.203,21.484,120.117,126.953,0
2697.563,39.062,28.809,25.391,53.223,101.562,0
2697.567,-51.758,26.855,29.297,-54.199,-32.227,0
2697.571,-1.465,28.320,27.344,-6.348,-47.363,0
2697.575,96.680,29.297,27.344,114.258,84.961,0
2697.579,63.965,23.926,26.855,81.055,103.027,0
2697.583,-44.922,19.043,23.438,-47.852,-42.969,0
2697.587,-26.367,19.531,22.461,-41.504,-112.305,0
2697.590,90.332,20.996,24.902,88.867,21.973,0
2697.594,97.168,22.949,22.949,110.840,161.621,0
2697.598,-12.695,18.555,17.578,-18.066,20.508,0
2697.602,-43.945,17.578,16.602,-64.941,-112.793,0
2697.606,62.012,18.555,17.090,51.758,19.531,0
2697.610,113.281,21.973,20.996,121.094,151.855,0
2697.614,19.043,24.902,26.367,24.414,45.898,0
2697.618,-55.176,21.973,25.391,-63.965,-87.891,0
2697.622,21.484,23.438,23.926,21.484,-22.949,0
2697.626,102.051,25.879,24.414,122.070,112.793,0
2697.630,42.969,25.879,25.391,58.594,91.309,0
2697.633,-50.781,28.809,24.902,-60.547,-83.008,0
2697.637,-11.719,31.250,21.484,-23.438,-68.359,0
2697.641,96.191,28.809,24.902,100.098,107.910,0
2697.645,73.242,26.855,27.344,83.984,118.164,0
2697.649,-38.574,26.855,27.344,-38.086,-23.438,0
2697.653,-31.250,26.855,29.297,-41.504,-77.148,0
2697.657,81.543,22.949,30.762,81.543,64.453,0
2697.661,97.656,18.555,29.297,106.445,147.949,0
2697.665,-5.859,18.066,27.344,-7.812,28.320,0
2697.669,-38.086,18.066,23.438,-58.594,-71.777,0
2697.673,56.152,18.066,24.902,45.410,27.344,0
2697.676,113.281,24.414,25.879,119.141,149.414,0
2697.680,29.785,27.344,24.902,27.832,95.215,0
2697.684,-52.734,22.949,27.344,-61.523,-33.691,0
2697.688,19.531,22.949,28.320,15.625,3.418,0
2697.692,112.793,25.391,27.832,115.723,119.141,0
2697.696,56.641,22.461,25.879,60.059,114.258,0
2697.700,-49.316,23.438,21.484,-58.594,-8.301,0
2697.704,-18.555,26.855,18.066,-28.320,-51.758,0
2697.708,88.379,28.320,21.973,95.703,78.125,0
2697.712,78.125,25.391,20.508,87.891,135.742,0
2697.715,-34.180,19.531,19.043,-34.180,-17.090,0
2697.719,-45.410,17.090,22.949,-54.199,-101.074,0
2697.723,69.824,21.973,24.902,64.941,4.883,0
2697.727,104.004,27.344,27.832,113.770,112.793,0
2697.731,2.441,25.879,29.785,4.395,31.738,0
2697.735,-50.781,27.832,31.250,-67.871,-104.492,0
2697.739,42.969,29.785,32.227,34.668,-24.902,0
2697.743,115.723,27.832,34.668,122.559,126.953,0
2697.747,36.133,32.227,37.109,42.480,76.660,0
2697.751,-52.246,36.133,39.062,-59.570,-71.289,0
2697.755,12.695,35.645,36.621,-0.488,-59.082,0
2697.758,115.234,34.180,32.715,111.328,84.473,0
2697.762,66.406,35.645,32.715,66.406,91.797,0
2697.766,-45.898,30.762,33.691,-57.129,-62.988,0
2697.770,-17.090,26.367,34.180,-32.227,-89.355,0
2697.774,92.285,33.691,30.273,96.680,67.383,0
2697.778,87.891,33.203,30.762,104.492,122.559,0
2697.782,-19.043,28.320,33.691,-13.672,13.672,0
2697.786,-38.574,32.227,33.691,-44.434,-75.684,0
2697.790,68.848,34.180,34.668,74.219,29.785,0
2697.794,110.352,32.715,33.203,122.070,133.301,0
2697.798,15.137,33.691,34.180,13.184,51.270,0
2697.801,-44.922,35.645,36.621,-56.152,-69.824,0
2697.805,32.715,30.273,37.109,39.062,9.277,0
2697.809,106.934,22.461,36.133,124.512,157.715,0
2697.813,40.527,22.949,37.598,44.434,87.891,0
2697.817,-51.758,25.879,38.086,-62.988,-73.730,0
2697.821,-1.465,24.414,35.156,-8.301,-93.750,0
2697.825,100.586,23.438,36.621,106.934,64.453,0
2697.829,77.148,27.832,32.715,69.336,111.328,0
2697.833,-23.926,28.320,29.297,-54.688,-40.039,0
2697.837,-1.465,27.344,30.762,-50.293,-86.914,0
2697.840,115.723,27.344,31.250,70.801,45.410,0
2697.844,125.977,29.297,38.574,94.727,117.676,0
2697.848,9.766,26.367,38.574,-22.461,6.348,0
2697.852,-35.645,20.508,35.645,-63.477,-76.660,0
2697.856,62.012,19.531,35.645,53.223,15.137,0
2697.860,105.957,20.020,38.574,118.652,136.719,0
2697.864,3.418,21.484,40.039,24.414,74.707,0
2697.868,-68.359,21.973,37.109,-58.105,-74.219,0
2697.872,14.160,24.902,35.156,22.461,-32.227,0
2697.876,100.098,28.809,38.574,123.535,94.727,0
2697.880,37.109,22.949,39.062,58.105,72.754,0
2697.883,-61.523,15.625,35.645,-58.105,-62.012,0
2697.887,-17.090,17.578,34.668,-19.043,-83.008,0
2697.891,91.797,22.461,35.645,98.633,56.641,0
2697.895,71.289,28.320,38.086,86.426,105.957,0
2697.899,-42.969,29.785,36.133,-39.062,-32.227,0
2697.903,-48.340,26.855,32.715,-54.199,-100.098,0
2697.907,59.082,29.297,32.715,68.848,50.781,0
2697.911,88.867,31.250,38.574,106.445,134.766,0
2697.915,-8.301,29.785,42.969,-5.859,13.184,0
2697.919,-51.270,22.949,41.992,-64.941,-116.211,0
2697.923,56.152,19.531,43.945,45.898,4.883,0
2697.926,120.117,18.555,40.039,126.953,165.039,0
2697.930,24.902,18.066,35.156,34.180,90.332,0
2697.934,-55.664,22.949,35.645,-61.523,-57.129,0
2697.938,15.625,25.879,34.180,12.695,-17.090,0
2697.942,102.051,23.926,33.203,115.723,130.371,0
2697.946,44.434,21.973,36.621,57.617,102.539,0
2697.950,-64.941,19.531,33.203,-64.453,-50.293,0
2697.954,-21.973,22.949,30.762,-35.645,-80.566,0
2697.958,92.285,30.762,37.109,92.773,86.914,0
2697.962,78.613,32.715,36.133,87.402,133.789,0
2697.965,-26.367,30.273,36.133,-36.133,-42.969,0
2697.969,-32.715,28.320,43.457,-51.270,-117.676,0
2697.973,81.055,31.250,41.504,71.289,20.508,0
2697.977,114.746,34.668,38.574,114.746,143.066,0
2697.981,6.836,33.691,42.480,5.371,43.457,0
2697.985,-49.316,31.250,41.016,-58.594,-70.312,0
2697.989,46.875,30.273,41.016,40.039,-0.488,0
2697.993,125.000,30.762,42.969,123.535,128.418,0
2697.997,48.340,26.367,41.504,44.434,86.426,0
2698.001,-46.875,20.020,40.039,-57.617,-51.758,0
2698.005,13.184,22.949,41.504,3.906,-46.875,0
2698.008,109.863,28.320,41.992,112.305,106.445,0
2698.012,67.383,26.855,42.969,66.406,130.859,0
2698.016,-40.039,20.996,45.898,-54.199,-36.621,0
2698.020,-15.625,19.043,44.922,-36.621,-92.285,0
2698.024,98.145,22.949,41.504,89.355,71.777,0
2698.028,90.332,26.367,36.621,94.727,154.785,0
2698.032,-23.926,27.344,28.809,-30.762,20.020,0
2698.036,-35.156,28.320,27.344,-64.941,-67.383,0
2698.040,78.125,31.738,33.203,60.059,42.969,0
2698.044,116.211,26.367,30.762,116.699,125.488,0
2698.048,15.137,20.996,27.832,4.395,31.738,0
2698.051,-41.992,24.414,32.227,-68.359,-102.051,0
2698.055,40.527,27.344,31.250,18.555,-40.527,0
2698.059,115.234,26.855,25.391,107.422,117.676,0
2698.063,46.875,27.344,25.391,41.016,86.914,0
2698.067,-48.340,24.902,24.902,-69.824,-57.129,0
2698.071,2.930,20.508,23.438,-18.555,-41.992,0
2698.075,108.398,18.066,26.367,104.980,116.211,0
2698.079,71.289,15.625,28.320,71.777,112.305,0
2698.083,-44.434,17.090,26.367,-52.246,-34.668,0
2698.087,-27.832,19.531,22.461,-45.410,-78.125,0
2698.090,84.473,23.438,21.484,82.031,44.434,0
2698.094,90.332,23.926,26.367,104.492,144.043,0
2698.098,-15.625,26.855,31.738,-17.578,23.438,0
2698.102,-44.922,30.762,30.273,-64.453,-80.566,0
2698.106,58.594,29.785,31.738,55.176,27.832,0
2698.110,114.746,31.250,36.621,122.559,131.348,0
2698.114,20.996,32.715,39.551,25.391,77.148,0
2698.118,-52.734,27.832,39.062,-53.711,-18.066,0
2698.122,25.879,23.926,41.992,30.762,10.742,0
2698.126,105.469,24.902,44.434,131.836,112.793,0
2698.130,45.410,21.484,41.992,66.895,106.934,0
2698.133,-49.805,15.625,39.062,-48.828,-38.086,0
2698.137,-8.789,14.648,33.691,-5.859,-64.941,0
2698.141,96.191,15.625,33.203,113.281,83.984,0
2698.145,73.242,16.113,31.738,91.309,128.418,0
2698.149,-35.645,16.113,30.273,-34.668,-4.883,0
2698.153,-33.691,20.020,35.156,-34.668,-44.434,0
2698.157,77.148,27.832,36.621,93.750,56.152,0
2698.161,98.145,22.461,34.180,118.652,104.980,0
2698.165,-4.883,16.602,33.691,4.883,40.527,0
2698.169,-42.480,22.949,35.156,-43.457,-64.941,0
2698.173,57.129,32.227,33.203,61.035,-20.508,0
2698.176,108.398,30.762,29.297,127.930,133.301,0
2698.180,21.484,20.996,28.320,37.109,84.473,0
2698.184,-50.781,21.484,33.691,-56.152,-65.918,0
2698.188,19.043,25.879,35.156,11.230,-57.129,0
2698.192,110.840,29.785,34.180,121.582,106.445,0
2698.196,56.641,30.273,36.133,78.125,140.625,0
2698.200,-43.457,29.297,42.480,-42.480,-37.109,0
2698.204,-8.789,30.762,39.062,-16.113,-59.082,0
2698.208,89.844,27.832,32.227,104.004,105.469,0
2698.212,80.078,22.949,32.227,101.562,154.297,0
2698.215,-23.438,18.555,35.156,-22.461,15.625,0
2698.219,-33.203,21.973,33.691,-46.387,-41.504,0
2698.223,81.055,24.902,31.250,72.266,73.242,0
2698.227,110.352,22.461,33.691,117.188,143.555,0
2698.231,1.465,22.461,31.738,7.812,45.898,0
2698.235,-55.176,22.461,29.785,-64.453,-85.938,0
2698.239,37.598,25.391,30.273,34.668,21.484,0
2698.243,107.422,29.785,27.344,116.699,171.875,0
2698.247,22.461,24.414,28.809,31.250,104.980,0
2698.251,-65.918,20.996,33.203,-65.918,-55.176,0
2698.255,6.348,24.414,31.738,0.000,-70.801,0
2698.258,105.469,29.297,32.715,114.258,93.262,0
2698.262,58.105,31.250,34.668,69.336,130.859,0
2698.266,-47.363,27.832,33.691,-53.223,-28.809,0
2698.270,-20.020,27.344,34.180,-27.344,-63.965,0
2698.274,93.262,29.297,35.156,97.168,47.852,0
2698.278,85.938,30.762,33.691,97.656,116.699,0
2698.282,-30.273,23.438,35.645,-31.250,-14.160,0
2698.286,-51.270,19.043,38.086,-58.594,-113.281,0
2698.290,58.594,23.438,35.645,58.105,1.465,0
2698.294,102.051,21.973,35.156,108.398,110.840,0
2698.298,2.441,15.137,38.086,2.930,53.711,0
2698.301,-57.617,12.695,38.086,-78.613,-74.707,0
2698.305,31.738,15.625,36.621,18.066,-4.395,0
2698.309,107.422,17.090,37.109,118.164,135.254,0
2698.313,35.156,17.578,35.645,46.387,92.773,0
2698.317,-49.805,17.578,33.691,-62.012,-44.922,0
2698.321,6.348,24.414,33.691,-10.742,-58.105,0
2698.325,108.398,27.344,32.227,108.398,49.316,0
2698.329,75.195,19.531,32.227,83.008,98.145,0
2698.333,-38.574,15.625,33.691,-40.039,0.977,0
2698.337,-29.785,17.090,35.156,-38.086,-81.055,0
2698.340,82.520,23.438,36.621,84.961,41.016,0
2698.344,98.145,26.367,37.598,106.934,166.016,0
2698.348,-4.395,24.902,37.598,-12.207,42.480,0
2698.352,-35.156,24.902,36.621,-53.223,-85.449,0
2698.356,59.570,27.344,37.598,60.059,26.855,0
2698.360,107.910,29.297,35.645,123.535,167.969,0
2698.364,17.578,22.461,35.156,21.484,93.262,0
2698.368,-54.199,20.996,30.762,-67.383,-50.293,0
2698.372,26.367,26.855,30.273,17.578,-18.066,0
2698.376,114.746,31.738,33.691,125.488,120.605,0
2698.380,49.805,29.785,30.273,65.430,106.934,0
2698.383,-50.781,27.832,31.738,-51.758,-67.871,0
2698.387,-0.488,31.250,37.109,-9.766,-54.688,0
2698.391,105.957,30.273,33.203,107.910,121.094,0
2698.395,77.637,28.809,30.273,86.914,150.879,0
2698.399,-38.086,29.297,32.227,-45.410,1.953,0
2698.403,-37.598,28.320,36.133,-49.805,-71.289,0
2698.407,78.613,24.902,40.039,85.938,83.008,0
2698.411,97.168,23.438,36.133,109.863,183.594,0
2698.415,-16.113,25.391,35.156,-13.184,70.801,0
2698.419,-58.105,28.809,30.762,-64.941,-59.570,0
2698.423,43.457,27.344,28.809,38.086,8.789,0
2698.426,106.934,24.902,35.156,111.328,151.855,0
2698.430,24.902,27.832,34.180,20.508,106.445,0
2698.434,-53.223,30.273,31.250,-75.684,-36.133,0
2698.438,13.672,29.297,28.320,-4.395,-18.555,0
2698.442,104.492,23.926,25.391,105.469,116.699,0
2698.446,57.617,21.484,23.926,60.547,107.422,0
2698.450,-49.805,21.973,24.902,-54.688,-28.809,0
2698.454,-20.020,20.996,24.414,-22.949,-57.617,0
2698.458,91.797,22.461,26.367,100.586,69.336,0
2698.462,82.520,25.879,28.809,95.215,114.258,0
2698.465,-22.949,27.832,32.227,-23.926,7.812,0
2698.469,-36.133,30.273,28.809,-46.875,-78.613,0
2698.473,72.266,29.297,25.879,69.336,-16.113,0
2698.477,107.910,29.297,32.715,117.676,102.051,0
2698.481,3.418,22.949,34.668,6.836,25.391,0
2698.485,-54.199,18.066,32.227,-62.500,-110.840,0
2698.489,43.945,24.902,31.738,41.016,-31.250,0
2698.493,113.770,23.926,26.367,122.070,145.508,0
2698.497,31.738,19.043,25.391,38.086,124.512,0
2698.501,-50.781,23.438,27.344,-61.523,-40.039,0
2698.505,16.602,31.738,25.879,1.465,-41.992,0
2698.508,113.770,34.180,26.855,111.328,77.148,0
2698.512,68.359,36.133,30.273,72.754,98.633,0
2698.516,-41.016,33.691,31.250,-46.387,-14.648,0
2698.520,-20.020,32.715,30.762,-26.855,-52.734,0
2698.524,90.820,37.109,32.227,97.168,112.305,0
2698.528,85.938,35.645,31.738,99.121,165.527,0
2698.532,-24.902,30.273,28.320,-21.484,9.277,0
2698.536,-40.527,25.879,26.367,-50.293,-82.520,0
2698.540,66.895,26.855,27.832,63.965,32.227,0
2698.544,104.492,28.809,26.367,114.258,132.324,0
2698.548,9.277,25.391,25.391,9.766,55.664,0
2698.551,-59.082,25.391,25.391,-63.965,-46.875,0
2698.555,18.066,25.391,21.973,23.438,-17.090,0
2698.559,102.051,24.414,24.414,116.699,133.301,0
2698.563,35.645,21.484,26.367,40.039,108.887,0
2698.567,-62.012,14.160,27.344,-65.430,-43.457,0
2698.571,-2.930,13.184,26.855,-1.953,-18.555,0
2698.575,108.398,17.090,27.344,117.188,115.723,0
2698.579,70.801,18.555,32.227,82.520,135.254,0
2698.583,-37.598,21.973,28.809,-43.457,-5.371,0
2698.587,-20.020,24.414,27.344,-34.180,-39.551,0
2698.590,90.820,24.902,31.250,85.449,67.871,0
2698.594,103.027,27.832,31.250,96.191,130.371,0
2698.598,4.395,23.438,28.809,-27.832,19.043,0
2698.602,-18.555,20.996,23.438,-71.777,-89.355,0
2698.606,86.426,24.902,21.484,42.969,-11.230,0
2698.610,141.602,24.902,23.926,106.934,102.539,0
2698.614,46.875,22.949,19.043,15.137,49.316,0
2698.618,-33.691,24.414,18.555,-67.383,-88.379,0
2698.622,41.504,25.879,21.973,15.625,-68.848,0
2698.626,112.305,25.879,21.484,118.652,67.383,0
2698.630,39.551,20.996,28.320,61.523,88.867,0
2698.633,-61.523,18.555,33.203,-46.875,-50.293,0
2698.637,-24.414,22.461,34.180,-11.230,-60.547,0
2698.641,88.867,18.555,34.180,105.469,106.934,0
2698.645,70.312,18.555,33.203,94.727,157.227,0
2698.649,-38.574,19.531,34.668,-27.832,16.113,0
2698.653,-32.715,19.043,35.645,-31.738,-88.867,0
2698.657,80.078,18.555,34.180,98.633,34.668,0
2698.661,101.074,19.043,29.785,128.906,140.137,0
2698.665,-15.137,23.438,26.855,-7.324,11.230,0
2698.669,-61.523,26.367,25.391,-74.219,-133.301,0
2698.673,40.039,28.809,27.344,41.504,-20.020,0
2698.676,97.168,26.367,25.879,112.793,124.023,0
2698.680,16.113,22.949,27.344,20.996,54.688,0
2698.684,-57.129,16.113,27.344,-69.824,-83.008,0
2698.688,13.184,15.137,23.438,2.441,-55.176,0
2698.692,104.980,21.484,20.508,108.398,113.770,0
2698.696,48.828,19.531,20.996,57.129,129.395,0
2698.700,-49.805,12.695,23.438,-56.152,-34.668,0
2698.704,-11.719,13.672,18.066,-20.996,-56.641,0
2698.708,96.680,13.672,12.695,102.051,92.285,0
2698.712,76.660,14.160,15.625,90.332,116.699,0
2698.715,-38.574,13.672,17.578,-34.180,-30.273,0
2698.719,-36.133,11.230,12.207,-52.734,-87.402,0
2698.723,75.195,13.672,10.254,65.918,57.129,0
2698.727,103.027,14.160,12.695,112.305,160.645,0
2698.731,2.930,15.625,12.695,1.465,67.383,0
2698.735,-49.805,15.625,13.184,-66.895,-76.660,0
2698.739,42.969,18.555,15.625,35.645,-25.391,0
2698.743,108.887,17.578,14.160,114.746,116.211,0
2698.747,29.297,14.648,15.137,32.227,86.914,0
2698.751,-54.688,15.625,18.066,-69.824,-42.480,0
2698.755,7.324,15.137,19.531,-7.324,-33.203,0
2698.758,104.980,19.531,22.461,109.375,89.844,0
2698.762,65.430,26.367,25.391,67.871,102.051,0
2698.766,-38.086,23.926,26.367,-53.223,-10.742,0
2698.770,-9.766,23.926,21.973,-37.109,-60.547,0
2698.774,100.098,23.438,18.555,85.938,53.223,0
2698.778,90.820,19.043,17.090,94.727,123.535,0
2698.782,-16.602,18.555,18.555,-19.531,-15.137,0
2698.786,-36.133,19.531,19.043,-48.340,-87.891,0
2698.790,67.383,27.344,16.113,61.523,21.484,0
2698.794,109.863,25.879,18.066,116.699,106.445,0
2698.798,13.672,21.484,18.066,12.695,27.344,0
2698.801,-44.922,24.902,15.625,-65.430,-125.000,0
2698.805,41.992,27.832,12.695,21.973,-46.875,0
2698.809,122.559,34.180,14.160,113.770,132.812,0
2698.813,51.758,33.691,15.625,44.434,86.426,0
2698.817,-43.945,28.320,14.648,-62.500,-79.102,0
2698.821,11.719,29.297,14.160,-5.859,-79.590,0
2698.825,115.723,28.320,11.719,109.375,82.031,0
2698.829,87.402,22.461,16.602,82.520,121.582,0
2698.833,-20.996,20.020,20.996,-41.504,-18.555,0
2698.837,-9.766,22.949,16.602,-37.598,-50.781,0
2698.840,100.098,25.391,17.090,88.379,92.285,0
2698.844,103.516,24.902,20.020,104.004,138.672,0
2698.848,-6.836,23.438,20.020,-18.066,-19.043,0
2698.852,-33.691,27.344,21.484,-60.059,-107.422,0
2698.856,63.965,29.785,26.367,53.711,27.832,0
2698.860,112.305,28.809,27.832,118.164,138.672,0
2698.864,20.996,30.273,25.879,19.531,47.363,0
2698.868,-53.711,31.738,26.855,-62.012,-71.777,0
2698.872,20.996,27.344,22.461,19.043,-28.320,0
2698.876,99.609,24.414,20.508,110.840,98.633,0
2698.880,42.480,23.438,23.926,49.805,85.938,0
2698.883,-49.805,24.414,25.879,-60.547,-23.926,0
2698.887,-8.789,25.391,23.438,-20.020,-34.668,0
2698.891,92.773,27.832,22.461,103.027,75.195,0
2698.895,68.848,25.391,21.484,87.402,119.141,0
2698.899,-40.039,21.484,21.484,-34.180,25.879,0
2698.903,-40.039,20.508,24.902,-40.039,-67.383,0
2698.907,70.312,25.879,23.926,82.031,14.160,0
2698.911,93.750,27.832,25.879,110.352,121.582,0
2698.915,-17.090,21.973,28.809,-8.789,41.504,0
2698.919,-62.500,19.531,30.273,-73.242,-77.637,0
2698.923,36.133,19.531,36.133,36.621,-19.043,0
2698.926,97.656,19.043,38.574,119.629,139.648,0
2698.930,17.578,18.066,38.086,27.344,87.891,0
2698.934,-60.547,20.508,44.434,-65.918,-87.402,0
2698.938,13.672,26.855,44.922,11.719,-47.852,0
2698.942,105.957,25.879,38.574,122.559,116.211,0
2698.946,45.898,22.461,35.645,73.730,113.770,0
2698.950,-55.176,22.461,35.645,-45.410,-57.129,0
2698.954,-17.090,24.902,39.551,-24.414,-73.730,0
2698.958,93.262,28.809,35.156,97.168,60.547,0
2698.962,82.031,29.297,33.691,98.145,106.934,0
2698.965,-31.250,24.414,38.086,-26.367,6.348,0
2698.969,-39.551,22.949,34.668,-50.293,-87.402,0
2698.973,71.289,28.809,36.621,74.219,53.711,0
2698.977,97.656,28.320,37.109,115.234,175.781,0
2698.981,-10.254,21.973,35.156,1.953,57.129,0
2698.985,-59.082,19.531,37.598,-63.965,-77.637,0
2698.989,39.551,26.855,37.109,34.668,-6.348,0
2698.993,104.492,25.879,33.691,113.770,148.926,0
2698.997,22.949,16.113,31.250,25.391,99.609,0
2699.001,-57.617,18.555,31.250,-69.824,-31.738,0
2699.005,8.789,22.949,29.785,-3.906,-24.902,0
2699.008,104.980,19.531,29.297,106.934,115.723,0
2699.012,63.965,15.625,30.762,63.477,117.188,0
2699.016,-41.016,13.184,31.738,-57.129,-59.570,0
2699.020,-18.066,12.695,33.691,-33.203,-86.914,0
2699.024,92.773,12.695,36.621,91.309,48.340,0
2699.028,87.891,9.277,35.156,93.262,112.793,0
2699.032,-27.344,5.371,33.203,-37.598,15.625,0
2699.036,-46.387,14.648,36.621,-69.336,-87.402,0
2699.040,60.059,20.020,36.133,50.781,10.254,0
2699.044,102.051,9.277,34.668,104.492,122.559,0
2699.048,6.348,9.766,34.180,7.324,37.598,0
2699.051,-60.059,13.672,36.133,-67.871,-62.988,0
2699.055,23.438,14.648,40.039,23.926,-30.762,0
2699.059,103.027,18.555,40.039,117.188,117.676,0
2699.063,41.992,22.949,39.062,41.992,115.234,0
2699.067,-49.805,19.531,42.480,-67.871,-34.180,0
2699.071,-0.977,22.461,41.992,-17.578,-16.113,0
2699.075,99.609,31.250,35.156,102.539,112.305,0
2699.079,68.359,32.227,34.668,79.102,119.141,0
2699.083,-37.109,32.715,36.133,-37.598,-18.066,0
2699.087,-26.855,28.320,35.156,-35.156,-77.148,0
2699.090,80.078,27.344,33.691,79.590,55.176,0
2699.094,91.797,31.250,36.133,100.586,154.297,0
2699.098,-12.695,24.414,31.250,-18.066,47.363,0
2699.102,-48.340,17.090,25.879,-65.918,-61.523,0
2699.106,49.316,19.531,28.809,48.828,44.434,0
2699.110,98.145,22.461,30.762,114.746,154.297,0
2699.114,4.883,19.043,34.180,20.020,67.383,0
2699.118,-58.105,19.043,41.016,-61.035,-69.336,0
2699.122,33.203,26.855,40.527,23.438,-37.109,0
2699.126,113.281,32.227,37.598,121.582,123.535,0
2699.130,45.898,29.297,39.062,56.152,105.469,0
2699.133,-46.875,25.391,41.504,-55.176,-62.988,0
2699.137,-2.930,30.273,40.527,-13.184,-55.664,0
2699.141,100.098,34.668,33.691,110.352,114.258,0
2699.145,77.637,32.715,28.809,85.938,131.836,0
2699.149,-36.133,27.832,27.344,-51.270,-38.086,0
2699.153,-41.992,23.926,23.438,-61.523,-102.539,0
2699.157,68.359,25.879,21.484,66.406,49.805,0
2699.161,89.355,31.250,22.461,101.074,162.109,0
2699.165,-12.695,27.344,26.855,-9.766,30.762,0
2699.169,-49.805,21.973,33.203,-57.129,-96.680,0
2699.173,51.270,27.832,35.645,49.805,5.371,0
2699.176,108.398,25.879,35.156,119.629,124.512,0
2699.180,19.043,20.508,35.645,24.902,54.688,0
2699.184,-54.199,24.902,34.668,-71.289,-90.820,0
2699.188,23.438,30.273,38.086,0.977,-42.969,0
2699.192,115.723,36.133,39.551,111.328,148.438,0
2699.196,59.082,35.156,39.062,60.547,121.582,0
2699.200,-52.734,28.809,40.039,-63.477,-44.434,0
2699.204,-21.484,26.855,39.551,-34.180,-66.895,0
2699.208,89.844,24.902,36.621,95.215,87.402,0
2699.212,83.984,22.461,32.715,88.379,148.438,0
2699.215,-26.855,22.461,34.180,-36.133,8.789,0
2699.219,-39.062,24.902,33.203,-59.082,-90.820,0
2699.223,66.895,26.367,31.250,60.059,57.617,0
2699.227,97.168,23.926,30.762,105.957,187.500,0
2699.231,-0.488,20.508,30.762,-0.977,69.824,0
2699.235,-55.176,22.461,29.297,-66.406,-49.316,0
2699.239,39.062,25.391,27.832,29.297,35.156,0
2699.243,113.770,21.973,30.273,112.793,163.086,0
2699.247,35.645,23.438,32.227,34.180,83.496,0
2699.251,-48.828,22.461,26.855,-65.918,-86.914,0
2699.255,18.555,22.461,22.949,0.488,-43.945,0
2699.258,113.281,26.855,21.973,115.234,120.117,0
2699.262,59.570,25.879,17.578,74.707,125.977,0
2699.266,-49.805,18.555,16.113,-49.805,-36.621,0
2699.270,-25.879,19.531,19.531,-39.551,-67.871,0
2699.274,85.938,30.273,21.973,89.355,97.168,0
2699.278,80.078,30.762,20.508,96.191,182.129,0
2699.282,-29.297,27.344,25.879,-22.461,28.809,0
2699.286,-44.922,30.273,38.574,-50.781,-77.148,0
2699.290,67.871,35.156,38.574,64.941,35.156,0
2699.294,110.352,38.086,35.156,117.676,146.973,0
2699.298,6.836,32.715,41.016,7.812,67.871,0
2699.301,-46.387,28.320,39.551,-64.453,-62.988,0
2699.305,34.668,27.344,35.645,27.344,16.602,0
2699.309,100.098,27.832,35.645,113.770,119.141,0
2699.313,31.250,29.297,27.344,36.133,83.496,0
2699.317,-56.152,30.273,25.391,-69.824,-38.574,0
2699.321,4.883,35.156,30.762,-11.230,-30.273,0
2699.325,99.609,36.621,31.738,102.539,97.168,0
2699.329,54.199,31.250,30.273,71.289,100.586,0
2699.333,-53.711,27.344,27.832,-46.875,-33.691,0
2699.337,-34.180,31.738,25.879,-37.598,-74.219,0
2699.340,81.543,38.574,29.297,88.867,53.711,0
2699.344,90.332,34.668,31.250,110.352,107.422,0
2699.348,-16.113,25.391,33.203,-9.766,3.906,0
2699.352,-44.922,24.414,35.645,-56.641,-78.125,0
2699.356,61.523,30.273,34.180,55.664,15.625,0
2699.360,113.281,29.785,29.297,116.211,142.090,0
2699.364,20.996,24.902,28.320,11.230,72.754,0
2699.368,-39.062,27.832,30.762,-73.730,-65.430,0
2699.372,57.617,32.715,31.250,6.836,-46.875,0
2699.376,148.438,34.668,31.250,104.980,84.961,0
2699.380,82.031,34.180,34.180,46.387,94.238,0
2699.383,-23.926,27.832,33.203,-68.848,-33.691,0
2699.387,9.766,27.832,31.250,-20.508,-59.570,0
2699.391,106.934,32.715,34.180,107.422,74.219,0
2699.395,78.125,26.367,32.227,85.938,132.324,0
2699.399,-37.109,16.113,30.762,-37.109,2.930,0
2699.403,-37.598,18.066,35.156,-42.969,-70.312,0
2699.407,68.848,23.438,35.156,71.289,52.246,0
2699.411,86.426,19.043,34.180,100.586,178.711,0
2699.415,-14.648,14.160,36.133,-8.789,60.059,0
2699.419,-60.059,10.254,33.691,-71.289,-108.398,0
2699.423,36.133,13.184,31.738,31.738,-4.883,0
2699.426,101.074,15.137,35.156,111.328,143.066,0
2699.430,14.648,10.254,36.621,21.484,64.941,0
2699.434,-62.988,8.789,35.645,-67.871,-85.938,0
2699.438,6.836,11.719,31.738,10.254,-47.363,0
2699.442,95.215,18.555,31.250,117.188,97.656,0
2699.446,50.781,22.461,38.086,65.430,61.035,0
2699.450,-46.387,17.578,39.062,-53.223,-82.031,0
2699.454,-21.973,11.719,32.715,-30.273,-81.543,0
2699.458,82.520,15.137,34.180,95.215,72.266,0
2699.462,74.219,20.996,41.504,93.750,120.117,0
2699.465,-35.645,21.973,43.945,-31.738,-31.738,0
2699.469,-42.480,25.391,44.434,-45.410,-108.887,0
2699.473,69.336,29.785,48.340,79.102,21.484,0
2699.477,100.586,30.762,49.805,121.094,123.535,0
2699.481,-0.977,27.344,43.945,1.465,27.344,0
2699.485,-47.363,27.344,45.898,-62.988,-63.965,0
2699.489,49.316,31.250,47.852,43.945,19.531,0
2699.493,114.258,29.297,42.969,125.000,133.789,0
2699.497,33.691,31.250,46.875,46.387,77.637,0
2699.501,-48.828,33.203,46.875,-53.223,-47.363,0
2699.505,12.207,30.762,40.039,3.906,-49.316,0
2699.508,110.840,34.180,37.109,117.188,83.008,0
2699.512,73.730,30.762,37.109,79.102,110.840,0
2699.516,-30.762,27.832,33.691,-40.527,-24.902,0
2699.520,-7.812,33.203,33.203,-29.297,-59.570,0
2699.524,93.262,37.109,33.203,92.773,67.383,0
2699.528,94.727,35.156,33.203,106.934,115.234,0
2699.532,-12.207,31.738,33.691,-13.672,-2.930,0
2699.536,-38.086,34.180,28.320,-52.246,-79.590,0
2699.540,70.312,41.504,28.809,58.594,6.348,0
2699.544,110.352,41.992,31.738,111.328,120.605,0
2699.548,13.672,37.109,32.715,3.418,48.828,0
2699.551,-50.781,33.691,35.645,-73.242,-99.121,0
2699.555,29.297,31.738,34.180,20.020,-23.438,0
2699.559,111.816,33.691,30.762,114.258,135.742,0
2699.563,42.480,27.344,31.250,45.410,96.680,0
2699.567,-51.758,19.043,36.133,-62.988,-48.340,0
2699.571,7.324,27.344,37.109,-10.254,-46.875,0
2699.575,111.816,29.785,31.250,103.027,107.910,0
2699.579,71.289,23.926,33.203,70.801,132.324,0
2699.583,-36.621,21.484,29.785,-51.758,-15.137,0
2699.587,-13.672,22.949,24.414,-48.828,-83.008,0
2699.590,97.168,28.809,29.785,71.777,36.133,0
2699.594,97.656,32.715,33.691,93.262,145.508,0
2699.598,-6.836,31.738,36.621,-20.996,13.184,0
2699.602,-31.738,29.785,35.156,-63.477,-115.723,0
2699.606,72.266,27.344,29.297,49.805,14.648,0
2699.610,121.094,22.461,26.855,114.746,144.043,0
2699.614,23.926,19.531,22.949,12.207,68.848,0
2699.618,-50.293,21.973,21.484,-75.684,-53.223,0
2699.622,28.809,22.949,25.391,8.789,-20.996,0
2699.626,110.352,25.879,27.344,106.445,123.047,0
2699.630,37.598,25.391,27.832,42.480,112.793,0
2699.633,-60.547,21.973,28.320,-69.336,-22.949,0
2699.637,-6.348,22.461,30.273,-22.461,-29.297,0
2699.641,97.168,20.020,32.227,100.586,83.984,0
2699.645,68.359,20.996,34.668,84.961,126.953,0
2699.649,-45.410,20.996,37.109,-38.086,12.695,0
2699.653,-42.480,15.137,37.109,-42.480,-51.758,0
2699.657,66.895,10.742,36.621,81.055,29.297,0
2699.661,85.938,19.043,41.504,104.980,104.004,0
2699.665,-11.719,27.344,46.875,-5.859,45.410,0
2699.669,-58.594,20.996,44.922,-57.129,-79.590,0
2699.673,41.016,21.973,43.945,45.898,0.977,0
2699.676,107.910,29.785,42.969,114.746,147.461,0
2699.680,10.254,32.715,41.992,22.949,72.266,0
2699.684,-72.754,31.250,39.551,-67.383,-78.613,0
2699.688,11.230,26.367,36.133,9.766,-36.133,0
2699.692,105.469,28.809,36.621,115.723,108.398,0
2699.696,46.875,27.344,34.180,61.523,106.445,0
2699.700,-54.199,23.926,34.180,-52.246,-50.781,0
2699.704,-16.113,28.320,36.133,-18.555,-82.520,0
2699.708,91.309,32.715,38.574,102.539,70.312,0
2699.712,77.148,33.691,39.551,96.191,126.953,0
2699.715,-35.156,30.762,36.621,-27.832,19.531,0
2699.719,-42.480,28.320,38.086,-48.828,-59.082,0
2699.723,75.195,30.273,40.527,78.613,49.805,0
2699.727,108.398,31.738,37.598,127.930,159.180,0
2699.731,0.488,21.484,39.551,10.254,44.434,0
2699.735,-49.316,18.066,39.551,-59.570,-96.191,0
2699.739,45.410,21.973,38.574,42.480,-12.207,0
2699.743,114.746,18.066,39.062,127.441,139.648,0
2699.747,31.738,15.137,35.156,41.016,83.008,0
2699.751,-60.059,18.066,34.180,-62.012,-70.801,0
2699.755,6.836,23.438,35.645,1.953,-38.086,0
2699.758,108.887,24.414,35.156,113.770,118.164,0
2699.762,66.406,20.020,35.645,76.172,115.234,0
2699.766,-42.969,15.625,37.598,-44.434,-28.809,0
2699.770,-20.020,19.531,36.621,-27.832,-36.621,0
2699.774,87.402,13.672,31.738,93.750,95.215,0
2699.778,87.891,0.488,29.785,98.633,143.066,0
2699.782,-20.996,2.441,33.203,-23.926,11.719,0
2699.786,-47.363,7.812,36.621,-58.105,-71.289,0
2699.790,56.152,3.906,36.133,62.988,34.668,0
