timestamps,TP9,AF7,AF8,TP10,Right AUX,Marker0
1192.193,21.973,39.062,26.855,11.230,2.441,1
1192.197,16.113,37.598,28.320,18.066,23.438,0
1192.201,8.789,38.086,29.785,21.973,17.090,0
1192.205,12.695,39.551,31.250,16.113,17.578,0
1192.209,18.066,39.551,32.227,12.695,-2.930,0
1192.212,14.160,41.504,30.762,10.742,-14.160,0
1192.216,13.672,40.039,27.832,12.207,41.992,0
1192.220,14.160,38.086,28.320,16.113,44.434,0
1192.224,12.207,37.598,30.273,8.789,-2.441,0
1192.228,14.160,37.109,28.809,8.301,42.969,0
1192.232,14.160,36.621,29.297,18.066,65.430,0
1192.236,13.184,38.574,29.297,21.973,23.926,0
1192.240,16.113,38.086,29.785,18.555,14.160,0
1192.244,16.602,38.086,26.855,12.207,20.508,0
1192.248,12.695,37.598,25.879,19.043,32.715,0
1192.252,12.695,35.645,29.297,19.531,25.879,0
1192.255,13.672,33.691,27.832,10.742,9.766,0
1192.259,13.184,33.203,25.879,8.789,14.160,0
1192.263,10.742,31.738,27.344,9.766,31.250,0
1192.267,10.254,32.715,30.273,16.113,41.016,0
1192.271,14.160,36.133,29.785,20.508,43.945,0
1192.275,15.625,35.645,27.832,12.207,33.203,0
1192.279,13.184,38.086,30.762,12.695,0.977,0
1192.283,10.742,37.598,28.320,15.137,5.859,0
1192.287,9.277,34.180,26.855,8.301,22.461,0
1192.291,7.324,35.156,26.367,-0.488,-0.977,0
1192.295,8.301,39.062,24.902,-4.395,14.648,0
1192.298,9.766,39.062,27.344,7.812,35.645,0
1192.302,12.695,37.109,27.832,18.066,15.625,0
1192.306,12.207,39.551,26.855,12.207,-10.742,0
1192.310,11.719,38.574,28.320,5.859,-19.531,0
1192.314,8.789,34.668,29.785,11.719,-5.371,0
1192.318,7.324,36.133,25.879,15.137,16.602,0
1192.322,8.789,38.574,23.438,9.766,12.207,0
1192.326,8.301,36.621,27.344,4.395,4.883,0
1192.330,5.859,36.621,24.902,6.836,13.184,0
1192.334,7.324,37.109,21.973,12.207,22.461,0
1192.337,11.230,36.133,24.414,11.230,22.461,0
1192.341,15.137,35.645,25.391,3.906,15.137,0
1192.345,11.230,35.645,24.902,4.395,33.203,0
1192.349,6.836,35.645,23.438,7.324,18.555,0
1192.353,9.766,38.574,21.973,10.254,-0.488,0
1192.357,9.766,39.551,20.508,2.441,1.953,0
1192.361,8.789,34.668,20.508,-2.930,4.395,0
1192.365,7.324,32.227,22.949,9.277,43.945,0
1192.369,6.348,33.203,23.438,7.812,64.453,0
1192.373,11.230,35.645,19.531,-2.441,64.453,0
1192.377,10.254,36.621,19.531,-7.324,50.293,0
1192.380,0.488,34.668,20.508,-6.836,32.715,0
1192.384,1.953,34.180,18.555,-0.977,30.273,0
1192.388,7.324,33.203,17.090,-6.348,47.852,0
1192.392,10.254,33.691,17.090,-12.695,35.645,0
1192.396,10.254,32.715,18.555,-0.977,33.203,0
1192.400,14.648,33.691,16.602,3.418,65.430,0
1192.404,15.137,33.691,13.672,1.465,38.574,0
1192.408,11.719,28.809,13.184,-7.812,21.973,0
1192.412,13.184,29.297,16.113,-4.883,32.715,0
1192.416,14.648,32.715,19.531,10.742,23.438,0
1192.420,14.648,31.738,17.090,8.301,25.879,0
1192.423,15.137,30.762,17.578,4.395,28.320,0
1192.427,17.578,31.250,19.043,7.324,21.973,0
1192.431,19.043,31.250,17.578,9.766,24.902,0
1192.435,17.578,30.273,20.508,17.578,31.738,0
1192.439,15.625,31.250,21.973,14.160,46.387,0
1192.443,13.184,27.832,18.555,3.906,44.434,0
1192.447,7.324,25.879,18.555,9.766,41.992,0
1192.451,10.254,29.297,20.996,13.672,24.414,0
1192.455,11.719,30.762,21.484,11.230,8.789,0
1192.459,4.395,29.297,19.043,2.441,20.508,0
1192.462,2.930,29.785,16.602,0.977,15.137,0
1192.466,4.883,30.273,19.043,8.789,37.109,0
1192.470,2.930,27.344,21.484,6.348,45.410,0
1192.474,6.348,28.809,17.578,-0.488,26.367,0
1192.478,9.766,30.273,15.137,1.953,13.184,0
1192.482,3.418,29.297,15.625,4.883,12.695,0
1192.486,0.488,30.273,18.066,2.441,-4.395,0
1192.490,6.348,29.297,18.555,-2.930,-17.090,0
1192.494,8.301,26.367,15.625,-2.441,-2.441,0
1192.498,8.789,28.809,13.184,5.859,-7.812,0
1192.502,8.789,29.785,15.137,5.859,7.812,0
1192.505,10.254,28.809,18.555,0.977,4.395,0
1192.509,12.207,28.320,19.531,-1.953,3.906,0
1192.513,10.742,26.367,18.066,3.906,16.602,0
1192.517,11.719,28.809,17.578,4.883,-17.090,0
1192.521,17.578,31.738,16.602,-11.230,-43.457,0
1192.525,27.832,31.738,17.578,-15.625,-30.273,0
1192.529,35.645,35.156,17.578,-4.395,-12.207,0
1192.533,38.086,36.133,16.602,0.488,8.789,0
1192.537,37.598,35.156,14.648,-5.371,15.625,0
1192.541,30.273,36.133,15.137,-13.672,-22.949,0
1192.545,21.973,35.645,17.578,-4.883,-25.879,0
1192.548,18.066,34.180,18.066,8.301,12.695,0
1192.552,13.672,31.250,16.602,11.230,11.230,0
1192.556,11.719,32.715,15.625,8.301,23.926,0
1192.560,9.277,33.691,18.555,10.254,26.367,0
1192.564,3.418,32.227,22.949,20.508,35.156,0
1192.568,5.859,35.156,22.949,20.020,41.504,0
1192.572,1.465,33.691,20.020,13.672,42.969,0
1192.576,0.000,26.367,18.066,11.230,63.477,0
1192.580,3.418,26.855,16.602,10.254,59.082,0
1192.584,4.883,31.250,19.043,17.578,45.410,0
1192.587,2.441,30.273,20.508,16.113,25.391,0
1192.591,2.441,31.250,18.066,6.836,13.184,0
1192.595,2.441,34.180,17.578,1.465,3.418,0
1192.599,-3.906,31.738,18.066,-0.488,-9.277,0
1192.603,-1.953,31.738,17.090,0.977,-5.371,0
1192.607,-2.930,34.180,16.113,-9.277,5.859,0
1192.611,-2.441,32.715,17.090,-8.789,2.441,0
1192.615,-1.953,31.250,16.602,1.953,-4.395,0
1192.619,-4.395,31.738,17.090,5.371,3.906,0
1192.623,0.000,28.809,20.508,-0.488,2.441,0
1192.627,0.977,28.809,20.020,-2.441,-2.930,0
1192.630,-6.836,29.785,20.508,7.324,17.578,0
1192.634,-7.812,27.344,20.508,6.836,19.043,0
1192.638,-4.883,27.832,19.043,-0.977,9.277,0
1192.642,-2.441,29.785,18.066,-11.719,-13.184,0
1192.646,1.953,31.738,16.113,-4.883,0.977,0
1192.650,2.441,31.738,18.066,5.371,20.508,0
1192.654,6.836,32.715,20.508,4.395,-0.977,0
1192.658,6.348,32.227,20.020,-3.906,-13.672,0
1192.662,5.371,32.715,21.484,1.953,22.461,0
1192.666,8.789,33.691,23.926,13.184,33.691,0
1192.670,9.766,32.227,23.438,9.766,29.785,0
1192.673,11.230,33.691,21.973,5.371,39.062,0
1192.677,9.766,33.203,25.391,3.906,19.531,0
1192.681,7.324,31.738,26.855,9.766,14.160,0
1192.685,4.883,36.133,24.414,11.230,4.395,0
1192.689,4.395,31.738,24.414,2.441,-13.672,0
1192.693,4.883,25.879,23.926,-2.441,9.277,0
1192.697,1.953,26.855,21.973,6.836,-2.930,0
1192.701,2.441,26.855,20.996,5.371,-2.441,0
1192.705,4.395,28.809,20.996,0.488,15.137,0
1192.709,6.836,29.297,22.461,-1.465,-27.344,0
1192.712,7.324,29.785,22.949,1.953,-29.297,0
1192.716,6.836,30.762,23.438,10.254,-11.230,0
1192.720,9.766,29.785,25.391,13.672,-7.324,0
1192.724,9.766,29.297,24.902,5.371,0.977,0
1192.728,8.789,32.715,24.902,3.418,-3.906,0
1192.732,3.906,30.273,26.855,8.301,5.371,0
1192.736,8.301,29.297,26.855,8.301,23.926,0
1192.740,18.066,34.180,24.902,1.465,22.461,0
1192.744,18.555,35.156,22.461,-2.441,-8.301,0
1192.748,17.578,32.715,22.461,3.418,-4.883,0
1192.752,15.625,34.668,21.973,2.441,60.547,0
1192.755,10.742,33.691,24.902,-0.488,60.059,0
1192.759,11.230,32.715,25.391,-3.418,14.648,0
1192.763,14.160,34.668,24.414,-1.465,18.555,0
1192.767,14.160,33.203,26.367,7.324,13.184,0
1192.771,18.066,33.203,26.855,10.742,24.414,0
1192.775,19.531,33.691,25.391,7.324,34.668,0
1192.779,14.160,32.227,24.414,7.812,18.555,0
1192.783,12.695,30.273,21.973,6.836,36.621,0
1192.787,14.160,30.273,20.020,8.301,34.668,0
1192.791,14.648,32.715,21.484,3.418,-15.137,0
1192.795,13.184,32.715,20.996,-1.465,-20.996,0
1192.798,14.648,30.273,23.926,6.836,1.465,0
1192.802,10.742,30.273,26.367,13.184,46.387,0
1192.806,6.348,29.297,25.879,5.859,36.621,0
1192.810,15.625,31.250,26.367,6.348,1.465,0
1192.814,15.625,35.156,25.879,19.531,38.086,0
1192.818,7.812,35.156,27.344,20.020,38.086,0
1192.822,10.254,33.691,26.367,14.648,4.883,0
1192.826,13.672,33.203,25.879,7.812,17.090,0
1192.830,14.160,35.156,24.902,16.113,42.969,0
1192.834,12.207,35.645,25.879,21.973,35.645,0
1192.837,10.254,32.227,26.855,14.648,2.930,0
1192.841,11.719,34.668,25.879,10.742,-0.977,0
1192.845,9.277,36.621,24.902,14.160,-7.812,0
1192.849,5.859,32.715,23.438,21.973,-2.441,0
1192.853,7.324,35.156,24.414,22.461,14.160,0
1192.857,9.277,36.133,24.414,11.230,10.742,0
1192.861,9.766,33.203,24.902,10.742,5.371,0
1192.865,12.207,34.180,22.949,20.020,18.066,0
1192.869,12.207,35.156,20.508,19.531,7.324,0
1192.873,10.254,34.180,21.484,11.230,-3.906,0
1192.877,9.277,32.715,23.926,4.395,23.438,0
1192.880,8.301,30.762,24.902,11.719,30.762,0
1192.884,7.324,29.785,24.902,16.113,23.926,0
1192.888,8.301,29.297,27.344,6.836,27.344,0
1192.892,10.254,29.297,28.320,0.488,13.184,0
1192.896,8.301,32.227,27.832,6.348,28.320,0
1192.900,7.324,31.250,27.344,6.836,42.480,0
1192.904,10.742,30.762,24.414,8.301,35.156,0
1192.908,14.648,35.645,21.973,7.812,32.227,0
1192.912,6.836,34.180,20.508,3.418,25.879,0
1192.916,-1.953,31.738,20.996,5.371,15.137,0
1192.920,4.395,34.668,21.484,9.766,8.301,0
1192.923,15.137,36.133,21.484,4.395,11.230,0
1192.927,14.648,34.180,23.926,-0.488,3.906,0
1192.931,11.230,33.691,24.414,9.277,24.414,0
1192.935,11.719,33.691,23.438,13.672,15.137,0
1192.939,12.695,32.227,25.391,7.324,16.602,0
1192.943,16.602,34.180,27.832,5.371,8.789,0
1192.947,15.625,34.180,26.855,14.648,-23.926,0
1192.951,12.695,30.762,25.879,16.113,2.441,0
1192.955,13.184,29.297,24.414,11.719,42.480,0
1192.959,17.090,28.320,24.414,7.324,40.039,0
1192.962,11.230,29.297,22.949,6.836,18.066,0
1192.966,7.324,29.297,16.113,10.254,49.805,0
1192.970,9.766,26.855,15.137,3.418,69.824,0
1192.974,8.789,27.344,18.066,-6.348,34.668,0
1192.978,10.254,33.691,21.484,1.953,22.461,0
1192.982,15.625,36.621,20.020,12.695,52.734,0
1192.986,19.531,34.180,17.090,14.160,39.551,0
1192.990,5.859,29.785,21.484,-3.418,32.715,0
1192.994,-11.719,28.809,25.391,-18.066,49.316,0
1192.998,-11.719,27.344,28.320,-10.254,0.977,0
1193.002,-10.254,26.367,29.297,-3.418,-14.160,0
1193.005,-16.113,26.367,26.367,-9.766,-3.906,0
1193.009,-13.672,25.391,26.367,-15.137,4.395,0
1193.013,-3.906,28.320,29.297,1.465,37.109,0
1193.017,0.000,26.855,27.832,11.719,48.828,0
1193.021,1.953,26.367,23.926,5.859,29.785,0
1193.025,6.348,26.855,22.461,-1.953,4.395,0
1193.029,4.395,23.926,23.438,0.000,20.020,0
1193.033,3.906,27.344,27.344,8.789,37.109,0
1193.037,7.324,31.738,27.344,11.719,38.086,0
1193.041,12.695,29.785,26.367,4.883,46.875,0
1193.045,13.184,30.762,25.879,4.883,26.367,0
1193.048,8.789,33.691,25.879,9.766,31.250,0
1193.052,9.277,32.715,26.367,9.766,31.250,0
1193.056,12.207,33.203,25.879,8.301,20.996,0
1193.060,10.742,35.156,24.414,6.348,9.277,0
1193.064,8.301,33.691,26.367,9.766,17.090,0
1193.068,10.742,28.320,27.832,9.766,51.758,0
1193.072,12.207,26.855,26.367,7.324,31.250,0
1193.076,11.230,30.762,25.879,-2.441,0.977,0
1193.080,6.348,31.250,27.344,3.418,24.902,0
1193.084,7.812,27.832,28.320,15.625,40.039,0
1193.087,12.207,29.297,25.391,13.184,30.273,0
1193.091,12.207,34.668,22.461,2.930,-2.441,0
1193.095,10.742,34.668,26.367,5.371,-5.859,0
1193.099,8.789,29.297,26.367,11.230,26.855,0
1193.103,6.836,27.832,21.484,8.789,30.762,0
1193.107,12.695,30.273,19.043,1.953,8.789,0
1193.111,19.043,28.809,20.996,0.488,-0.488,0
1193.115,14.648,27.344,23.438,12.695,41.016,0
1193.119,10.742,26.855,22.461,14.648,49.316,0
1193.123,13.184,25.879,20.020,4.883,52.246,0
1193.127,12.207,27.344,21.484,1.465,67.871,0
1193.130,8.301,26.367,22.461,6.836,46.875,0
1193.134,10.742,25.879,21.973,8.301,45.898,0
1193.138,14.160,29.785,19.043,11.230,44.922,0
1193.142,15.625,28.809,17.090,5.859,27.344,0
1193.146,11.230,29.297,19.531,7.324,14.160,0
1193.150,4.395,30.273,20.996,12.695,0.000,0
1193.154,5.859,28.320,18.066,4.395,17.578,0
1193.158,12.207,28.809,18.066,-5.859,37.109,0
1193.162,14.648,31.250,19.043,-1.953,15.137,0
1193.166,11.719,35.645,22.461,9.277,-16.602,0
1193.170,0.977,31.738,23.926,9.766,-3.418,0
1193.173,-0.977,29.785,23.438,0.000,0.000,0
1193.177,9.277,34.180,22.461,-2.441,-4.883,0
1193.181,8.789,34.180,21.973,7.324,-15.625,0
1193.185,6.348,32.715,24.902,11.230,1.465,0
1193.189,8.301,31.250,24.902,6.348,11.230,0
1193.193,10.254,32.227,22.949,-4.883,-16.602,0
1193.197,10.254,30.762,24.902,-0.488,-18.555,0
1193.201,8.301,30.762,22.461,7.812,-3.418,0
1193.205,7.812,33.203,20.996,2.930,29.785,0
1193.209,16.113,31.738,23.438,-7.324,-0.488,0
1193.212,19.043,29.785,24.902,-1.953,-9.277,0
1193.216,10.254,30.273,26.367,10.742,19.531,0
1193.220,9.277,32.227,26.855,6.348,8.789,0
1193.224,14.160,33.691,28.320,0.488,-9.277,0
1193.228,13.672,36.133,25.879,3.906,-2.930,0
1193.232,11.719,34.180,22.461,11.230,32.715,0
1193.236,12.695,32.715,25.879,11.719,27.832,0
1193.240,16.113,37.598,26.855,3.906,17.090,0
1193.244,14.160,36.621,24.414,-2.441,-1.465,0
1193.248,8.789,33.203,26.855,8.301,1.465,0
1193.252,9.766,32.227,27.344,12.207,47.363,0
1193.255,10.742,34.668,24.902,3.418,-6.348,0
1193.259,14.648,36.133,25.391,-0.488,-65.430,0
1193.263,12.695,34.668,22.461,4.883,-6.348,0
1193.267,8.789,36.621,20.996,7.324,19.531,0
1193.271,7.812,34.668,22.949,-2.441,1.465,0
1193.275,8.301,30.762,27.344,-10.254,0.488,0
1193.279,6.348,33.203,28.809,-5.859,20.020,0
1193.283,9.277,38.086,26.855,2.930,9.277,0
1193.287,9.766,36.621,28.320,0.977,-10.742,0
1193.291,8.301,32.227,28.320,-9.277,-13.184,0
1193.295,13.672,34.668,29.297,-3.418,6.348,0
1193.298,7.324,33.691,29.785,2.930,4.395,0
1193.302,-2.441,32.715,26.367,-5.371,-24.902,0
1193.306,0.488,36.133,26.367,-10.254,-34.180,0
1193.310,2.930,32.715,25.879,-12.207,-39.062,0
1193.314,1.465,29.785,26.367,-6.348,-13.184,0
1193.318,5.371,33.203,25.879,1.465,15.137,0
1193.322,10.254,36.621,23.926,-1.953,41.016,0
1193.326,14.160,35.156,23.926,-12.695,35.156,0
1193.330,22.461,32.227,26.855,-11.719,23.438,0
1193.334,30.762,32.227,25.391,-9.277,26.855,0
1193.337,33.691,31.738,21.484,-12.695,26.855,0
1193.341,43.457,35.645,20.020,-17.090,17.578,0
1193.345,42.969,32.715,18.555,-15.137,-14.648,0
1193.349,28.320,31.738,16.602,-6.836,-18.066,0
1193.353,19.531,35.156,18.555,0.000,32.227,0
1193.357,14.160,34.668,22.949,0.000,52.246,0
1193.361,7.812,34.668,24.902,0.977,18.555,0
1193.365,-3.418,33.691,27.832,7.324,19.531,0
1193.369,-3.906,33.203,26.367,6.836,39.062,0
1193.373,0.000,34.180,23.438,1.465,16.113,0
1193.377,3.906,34.180,24.902,-0.488,-10.254,0
1193.380,4.883,32.715,25.879,3.906,10.254,0
1193.384,0.488,32.227,23.926,7.812,30.273,0
1193.388,-1.465,33.203,23.926,8.301,24.902,0
1193.392,0.977,35.645,23.926,1.465,1.953,0
1193.396,2.441,34.668,25.391,4.395,17.578,0
1193.400,2.441,33.203,26.855,13.184,43.945,0
1193.404,8.789,33.203,29.297,17.090,38.086,0
1193.408,13.184,35.156,28.320,6.348,-15.137,0
1193.412,10.254,36.621,24.414,5.371,-21.973,0
1193.416,6.836,33.203,26.367,14.648,43.457,0
1193.420,7.812,30.273,27.344,11.719,61.523,0
1193.423,7.812,33.203,27.344,3.418,9.277,0
1193.427,3.906,33.691,26.367,0.000,-19.043,0
1193.431,1.953,32.715,24.902,10.742,-8.301,0
1193.435,3.418,34.668,29.297,12.695,-9.766,0
1193.439,10.254,34.180,31.738,6.348,6.348,0
1193.443,11.230,35.645,33.203,5.859,29.297,0
1193.447,2.441,38.086,33.203,19.531,9.766,0
1193.451,0.488,35.645,26.855,20.020,-4.395,0
1193.455,6.836,33.691,27.832,14.160,19.531,0
1193.459,16.113,38.086,29.297,6.836,29.785,0
1193.462,16.602,40.527,26.367,8.789,25.879,0
1193.466,17.578,40.039,30.273,22.461,29.297,0
1193.470,21.973,38.574,29.785,19.043,46.387,0
1193.474,23.438,37.109,26.367,5.859,28.809,0
1193.478,17.578,38.574,26.367,7.324,26.367,0
1193.482,12.695,40.039,26.367,15.137,23.926,0
1193.486,13.672,38.086,26.855,14.160,27.344,0
1193.490,15.137,37.109,26.367,7.324,66.406,0
1193.494,13.672,37.598,28.320,2.930,31.250,0
1193.498,13.672,36.133,30.273,12.207,38.086,0
1193.502,18.555,35.645,29.297,17.578,49.805,0
1193.505,21.484,37.109,29.297,14.160,34.180,0
1193.509,28.320,38.086,28.809,11.230,25.879,0
1193.513,27.344,40.527,28.809,17.578,46.875,0
1193.517,18.066,38.574,26.855,16.113,42.480,0
1193.521,18.555,36.133,23.438,6.348,25.879,0
1193.525,20.508,34.668,24.902,-1.465,47.852,0
1193.529,17.090,30.273,28.320,4.395,51.270,0
1193.533,15.625,30.762,29.785,15.137,58.105,0
1193.537,16.602,34.668,30.273,10.742,46.387,0
1193.541,24.902,35.156,31.738,0.488,17.090,0
1193.545,28.809,36.133,31.250,3.418,6.348,0
1193.548,22.949,38.574,31.738,13.672,34.668,0
1193.552,22.949,37.598,31.738,15.625,58.594,0
1193.556,31.250,34.180,29.297,6.348,54.688,0
1193.560,31.738,32.227,27.832,0.000,25.879,0
1193.564,25.391,32.227,26.855,9.766,16.113,0
1193.568,26.367,34.668,28.809,15.625,32.715,0
1193.572,25.879,35.156,32.227,12.695,18.555,0
1193.576,24.902,36.621,30.762,3.418,18.066,0
1193.580,24.902,39.062,32.715,7.324,29.297,0
1193.584,24.902,41.016,35.156,17.090,19.531,0
1193.587,20.996,36.133,31.738,7.812,11.230,0
1193.591,23.438,33.203,26.855,-2.930,-5.859,0
1193.595,23.926,34.668,25.391,0.000,-5.859,0
1193.599,18.066,35.156,27.832,7.324,20.996,0
1193.603,19.531,38.574,28.809,14.160,37.598,0
1193.607,24.414,42.480,29.297,8.789,42.969,0
1193.611,26.367,41.504,27.832,4.883,20.996,0
1193.615,18.555,42.969,24.414,8.301,19.531,0
1193.619,13.184,43.457,26.855,7.812,44.922,0
1193.623,19.531,41.016,32.715,7.812,43.457,0
1193.627,20.996,37.109,31.738,6.348,50.293,0
1193.630,15.137,36.133,30.273,8.789,21.973,0
1193.634,13.184,38.574,28.809,13.672,7.324,0
1193.638,18.555,37.109,27.832,16.602,54.199,0
1193.642,19.043,35.156,30.273,11.230,39.062,0
1193.646,10.254,34.180,28.809,10.254,18.066,0
1193.650,13.672,36.621,29.785,18.066,22.461,0
1193.654,18.555,38.574,27.832,20.020,39.551,0
1193.658,18.066,39.551,25.391,8.789,23.926,0
1193.662,14.648,41.016,25.879,11.719,-7.812,0
1193.666,13.672,37.598,26.367,21.484,31.738,0
1193.670,18.066,36.621,26.367,20.020,45.410,0
1193.673,18.555,39.062,24.902,14.648,33.203,0
1193.677,19.531,37.598,24.902,6.348,-15.625,0
1193.681,14.160,37.109,25.391,16.113,-14.648,0
1193.685,7.324,37.598,26.367,19.531,32.227,0
1193.689,13.672,37.109,25.879,11.719,16.113,0
1193.693,20.996,36.621,24.414,7.324,10.254,0
1193.697,17.578,35.645,24.902,9.766,-0.977,0
1193.701,16.113,31.250,23.438,11.719,-8.301,0
1193.705,20.508,29.297,21.973,11.719,3.906,0
1193.709,21.973,32.227,21.973,9.277,0.488,0
1193.712,20.508,34.668,23.926,9.277,2.441,0
1193.716,22.949,35.645,27.344,13.672,23.926,0
1193.720,21.973,34.180,26.855,10.742,3.418,0
1193.724,22.461,35.156,26.367,4.883,-26.855,0
1193.728,20.020,37.109,29.297,11.230,-20.020,0
1193.732,8.301,35.156,25.879,19.531,-9.766,0
1193.736,11.719,37.598,24.902,17.578,-15.137,0
1193.740,18.066,37.598,26.855,6.348,15.137,0
1193.744,18.066,33.691,29.297,1.953,37.109,0
1193.748,17.578,34.668,28.320,13.184,43.457,0
1193.752,17.578,39.551,25.879,19.531,54.688,0
1193.755,21.973,40.039,26.367,18.555,37.598,0
1193.759,23.438,37.109,27.832,10.742,17.578,0
1193.763,20.508,37.109,27.832,13.672,12.695,0
1193.767,21.484,37.109,27.832,20.508,0.488,0
1193.771,23.438,34.180,25.879,13.672,0.000,0
1193.775,24.414,33.691,23.926,3.418,5.371,0
1193.779,25.879,37.109,27.832,9.277,27.344,0
1193.783,27.344,38.086,29.297,20.508,61.523,0
1193.787,29.297,35.645,24.902,20.508,72.754,0
1193.791,31.738,34.668,24.414,12.695,42.480,0
1193.795,30.762,34.180,23.926,10.254,19.043,0
1193.798,24.414,33.691,26.855,14.648,47.363,0
1193.802,23.438,32.715,29.297,15.137,51.758,0
1193.806,23.926,30.273,28.809,10.254,51.270,0
1193.810,20.508,29.785,28.809,4.395,29.785,0
1193.814,17.090,34.180,26.367,12.695,12.695,0
1193.818,17.578,35.645,27.344,16.602,22.949,0
1193.822,17.090,34.668,28.320,11.719,11.230,0
1193.826,24.902,33.203,28.320,6.836,16.113,0
1193.830,28.320,29.785,28.809,17.090,23.926,0
1193.834,19.531,28.809,30.273,26.367,38.574,0
1193.837,11.719,31.250,33.203,18.555,33.691,0
1193.841,15.625,31.250,30.762,9.277,6.348,0
1193.845,15.137,29.785,26.367,5.859,20.508,0
1193.849,9.766,30.273,27.344,12.695,26.855,0
1193.853,11.230,30.273,27.832,17.090,8.301,0
1193.857,14.648,33.691,26.855,4.395,-8.789,0
1193.861,15.625,30.762,24.414,3.906,-1.465,0
1193.865,14.648,25.391,21.973,13.672,35.645,0
1193.869,17.090,29.297,22.461,13.184,50.293,0
1193.873,18.555,32.227,25.391,9.766,32.227,0
1193.877,16.602,31.738,26.367,0.977,10.254,0
1193.880,13.184,32.227,21.973,6.348,17.090,0
1193.884,12.207,31.738,21.973,14.648,27.832,0
1193.888,13.672,30.762,23.926,8.789,17.578,0
1193.892,16.113,33.691,24.902,-0.977,21.484,0
1193.896,14.648,31.738,23.926,3.906,31.738,0
1193.900,12.695,30.273,23.438,15.625,14.648,0
1193.904,16.113,31.250,22.949,10.742,14.160,0
1193.908,17.090,30.273,21.973,5.859,34.180,0
1193.912,11.719,30.762,22.949,11.719,60.059,0
1193.916,9.277,33.203,22.949,18.066,61.035,0
1193.920,10.254,33.203,23.926,17.578,65.430,0
1193.923,13.184,31.250,24.414,9.277,64.453,0
1193.927,13.672,34.180,20.508,9.766,45.410,0
1193.931,11.719,32.715,20.020,20.020,58.105,0
1193.935,7.812,29.785,22.949,21.484,53.223,0
1193.939,11.719,30.273,24.414,10.254,42.969,0
1193.943,19.043,29.785,24.902,3.418,39.062,0
1193.947,15.625,30.273,20.508,8.789,42.969,0
1193.951,15.137,29.785,21.484,13.184,70.312,0
1193.955,12.695,29.785,20.996,6.348,54.688,0
1193.959,14.648,33.203,17.090,-4.395,30.273,0
1193.962,14.160,34.180,16.602,-3.418,35.156,0
1193.966,9.766,34.180,18.066,-0.977,34.668,0
1193.970,11.719,31.738,20.996,1.953,34.180,0
1193.974,16.113,29.297,18.555,-4.395,11.719,0
1193.978,20.020,33.691,17.578,-10.254,24.414,0
1193.982,21.484,34.668,19.043,4.883,50.293,0
1193.986,23.926,31.250,19.531,9.766,33.203,0
1193.990,20.996,32.227,20.020,1.953,-3.418,0
1193.994,12.207,32.715,20.020,-1.953,-11.719,0
1193.998,9.277,34.180,21.484,7.324,0.977,0
1194.002,9.277,34.668,18.555,9.277,13.184,0
1194.005,16.113,33.691,20.020,-1.953,10.742,0
1194.009,14.648,33.691,20.996,-11.230,-14.160,0
1194.013,14.648,35.156,22.461,3.418,17.090,0
1194.017,23.926,36.133,25.879,17.578,38.086,0
1194.021,20.996,35.645,19.531,9.277,23.438,0
1194.025,20.996,35.645,18.066,-2.930,9.766,0
1194.029,21.973,35.645,17.090,-0.488,30.273,0
1194.033,20.020,35.645,16.602,1.953,36.133,0
1194.037,16.602,35.645,17.578,0.000,38.574,0
1194.041,15.625,37.109,18.555,-4.395,32.715,0
1194.045,17.578,37.109,19.043,-5.371,6.348,0
1194.048,14.160,35.156,21.484,3.418,7.324,0
1194.052,8.301,36.133,23.926,2.930,7.812,0
1194.056,14.648,38.574,24.902,-0.488,7.812,0
1194.060,20.996,39.062,24.902,-1.953,16.602,0
1194.064,17.578,38.086,23.438,1.953,20.020,0
1194.068,13.184,37.109,21.973,6.836,37.598,0
1194.072,14.648,30.762,22.949,1.953,43.945,0
1194.076,15.625,29.785,25.391,-2.930,23.926,0
1194.080,11.230,36.133,22.461,-1.465,12.207,0
1194.084,12.207,38.086,20.508,5.859,26.367,0
1194.087,11.719,35.156,23.926,8.301,18.066,0
1194.091,12.207,32.227,25.879,-4.883,-2.930,0
1194.095,8.789,29.785,25.391,-9.766,-14.648,0
1194.099,11.230,32.227,26.367,0.977,-20.996,0
1194.103,15.625,36.133,27.832,7.324,-9.766,0
1194.107,15.137,34.180,26.855,-3.418,-11.230,0
1194.111,15.625,33.203,24.902,-8.301,-29.785,0
1194.115,9.277,33.691,24.902,-0.488,-14.160,0
1194.119,7.324,34.180,23.926,-1.465,11.719,0
1194.123,7.812,34.180,23.438,-9.766,-16.602,0
1194.127,13.184,34.668,21.973,-16.602,-17.578,0
1194.130,21.484,35.156,23.438,-7.812,0.000,0
1194.134,27.344,36.133,24.902,-2.441,3.906,0
1194.138,40.039,38.574,21.973,-11.230,1.953,0
1194.142,49.805,38.086,20.508,-22.949,0.488,0
1194.146,43.457,41.016,20.020,-17.578,30.762,0
1194.150,36.621,41.992,19.043,-6.836,32.227,0
1194.154,32.715,36.133,20.996,-6.836,18.066,0
1194.158,27.344,34.668,23.438,-13.672,0.000,0
1194.162,15.137,31.738,20.996,-11.230,-12.695,0
1194.166,0.977,30.273,23.438,0.000,24.902,0
1194.170,0.488,32.715,30.273,3.418,25.391,0
1194.173,6.348,32.227,29.297,-2.441,-8.301,0
1194.177,11.230,32.227,26.855,-3.906,17.578,0
1194.181,8.789,33.691,25.879,5.859,34.668,0
1194.185,4.883,32.715,26.367,3.906,10.742,0
1194.189,6.836,32.227,27.344,-8.301,7.324,0
1194.193,9.277,33.203,26.367,-15.137,15.137,0
1194.197,7.324,34.180,24.902,-7.812,9.277,0
1194.201,2.930,32.715,25.391,-2.930,26.367,0
1194.205,3.906,31.738,26.855,-8.301,30.273,0
1194.209,8.789,31.738,29.785,-12.207,30.762,0
1194.212,5.371,29.785,28.809,-7.812,20.020,0
1194.216,4.883,31.250,25.391,1.465,-7.812,0
1194.220,9.766,31.250,25.391,2.930,12.207,0
1194.224,10.742,25.879,24.902,-4.395,21.973,0
1194.228,10.742,28.320,24.902,-0.977,9.277,0
1194.232,5.859,32.715,27.344,4.883,-8.301,0
1194.236,6.836,32.715,26.367,7.324,15.625,0
1194.240,11.230,31.738,29.297,2.441,25.391,0
1194.244,7.812,33.691,30.762,-7.812,16.602,0
1194.248,9.766,33.203,24.902,-1.465,38.574,0
1194.252,11.230,29.785,22.949,4.883,40.527,0
1194.255,15.625,31.250,23.438,1.465,27.344,0
1194.259,20.996,31.738,23.438,-6.836,15.137,0
1194.263,21.484,31.250,23.926,-0.977,12.207,0
1194.267,20.508,33.203,21.973,8.301,33.691,0
1194.271,19.043,30.762,21.973,1.465,37.109,0
1194.275,18.555,29.785,21.484,-5.859,20.020,0
1194.279,15.137,30.762,20.508,-0.977,7.812,0
1194.283,16.113,28.809,21.484,3.906,41.992,0
1194.287,19.531,30.762,21.484,8.301,37.109,0
1194.291,20.020,31.738,23.926,3.906,-12.695,0
1194.295,17.090,27.344,23.926,-2.930,5.371,0
1194.298,10.254,27.344,23.926,2.930,55.664,0
1194.302,13.672,29.297,22.949,5.371,60.059,0
1194.306,19.043,27.832,19.043,-1.465,38.574,0
1194.310,22.461,27.832,19.043,-5.859,3.906,0
1194.314,14.648,28.320,17.578,0.000,15.137,0
1194.318,9.277,27.344,16.602,0.977,31.738,0
1194.322,12.695,23.926,18.555,-4.883,14.648,0
1194.326,11.230,21.973,19.531,-11.719,6.836,0
1194.330,10.742,24.902,18.555,-4.395,5.371,0
1194.334,12.695,25.879,19.531,2.441,21.484,0
1194.337,10.254,26.367,19.531,-5.371,12.695,0
1194.341,14.648,28.809,16.113,-16.113,-3.418,0
1194.345,18.066,29.297,16.113,-10.254,24.414,0
1194.349,10.742,26.855,17.090,-2.441,51.270,0
1194.353,9.277,28.809,14.648,-6.836,40.527,0
1194.357,16.113,28.320,13.672,-14.648,37.109,0
1194.361,20.508,26.367,16.113,-17.090,18.066,0
1194.365,16.113,27.344,17.578,-3.906,-10.254,0
1194.369,12.207,28.320,18.066,-0.488,0.000,0
1194.373,16.113,28.809,15.625,-8.789,-11.719,0
1194.377,19.043,28.809,16.113,-4.883,-4.395,0
1194.380,17.578,28.320,21.484,1.465,20.020,0
1194.384,22.949,26.855,19.531,2.441,-4.883,0
1194.388,23.926,24.902,19.043,-0.488,-16.602,0
1194.392,22.949,25.879,23.438,-8.789,-5.859,0
1194.396,21.484,28.320,21.973,-5.371,39.551,0
1194.400,19.043,26.855,20.996,-1.953,50.293,0
1194.404,19.043,27.344,22.949,1.953,41.992,0
1194.408,19.043,29.297,21.973,-1.465,40.039,0
1194.412,16.602,28.809,22.461,-3.418,31.738,0
1194.416,12.695,31.738,24.902,10.742,35.645,0
1194.420,10.254,30.762,22.461,8.789,20.508,0
1194.423,13.184,30.762,21.484,-6.348,2.441,0
1194.427,15.137,33.203,20.996,-10.254,-25.879,0
1194.431,12.207,30.273,19.043,-3.418,6.348,0
1194.435,7.812,29.297,20.996,-0.977,29.297,0
1194.439,5.371,32.227,22.949,-7.812,0.488,0
1194.443,8.301,32.227,23.438,-12.695,-7.812,0
1194.447,8.301,29.297,23.926,-4.395,-8.301,0
1194.451,2.441,30.273,24.414,1.465,-4.395,0
1194.455,1.953,29.785,24.902,-1.953,35.645,0
1194.459,11.230,29.785,25.879,-10.742,33.691,0
1194.462,9.277,31.250,24.902,-7.812,-8.789,0
1194.466,7.812,32.715,25.879,7.812,3.418,0
1194.470,11.230,32.715,26.367,7.812,10.742,0
1194.474,11.230,28.809,22.461,-4.883,-12.207,0
1194.478,10.254,29.297,22.461,-3.418,33.203,0
1194.482,6.836,30.762,26.367,4.883,59.082,0
1194.486,7.324,28.809,24.414,6.836,35.645,0
1194.490,7.812,28.320,22.461,-0.488,38.086,0
1194.494,10.742,29.297,22.949,-4.395,28.809,0
1194.498,8.301,28.320,21.484,6.836,0.488,0
1194.502,10.742,30.762,20.508,9.766,0.977,0
1194.505,15.625,28.320,19.531,-0.488,14.160,0
1194.509,15.625,25.879,19.531,-5.371,-14.160,0
1194.513,11.719,28.320,20.020,0.977,-22.949,0
1194.517,5.859,27.832,19.043,1.953,-17.578,0
1194.521,6.836,26.855,20.508,-1.465,2.441,0
1194.525,10.742,29.297,22.461,-3.906,5.859,0
1194.529,12.695,31.250,23.926,0.000,28.809,0
1194.533,11.719,30.273,23.438,2.441,28.320,0
1194.537,10.742,30.273,23.438,3.418,31.250,0
1194.541,17.090,29.297,22.949,-5.371,37.109,0
1194.545,14.160,26.855,20.020,-7.324,7.324,0
1194.548,10.742,26.367,21.484,0.000,38.086,0
1194.552,12.207,27.832,22.949,3.906,47.363,0
1194.556,16.113,32.227,26.367,8.301,13.672,0
1194.560,25.879,31.738,25.879,0.000,9.277,0
1194.564,14.648,30.273,22.949,1.465,6.348,0
1194.568,8.301,34.180,24.414,3.906,24.414,0
1194.572,13.184,34.180,24.414,-5.371,20.508,0
1194.576,11.719,31.250,23.438,-15.137,-19.531,0
1194.580,4.883,30.273,22.461,-10.742,2.441,0
1194.584,6.348,31.738,19.043,0.977,20.508,0
1194.587,13.672,32.715,17.090,2.441,15.625,0
1194.591,10.254,33.203,17.090,-4.395,22.949,0
1194.595,18.555,31.250,18.066,-6.836,4.395,0
1194.599,18.555,28.320,19.043,3.418,21.484,0
1194.603,2.930,32.227,19.531,0.977,39.551,0
1194.607,6.836,34.668,20.996,-11.719,-4.395,0
1194.611,10.742,31.738,19.531,-12.695,2.441,0
1194.615,7.812,30.762,17.578,0.977,25.879,0
1194.619,8.301,30.273,17.090,6.348,4.883,0
1194.623,7.812,31.250,20.508,-5.371,21.484,0
1194.627,8.789,32.227,21.484,-10.742,20.508,0
1194.630,8.789,32.227,21.484,4.395,12.695,0
1194.634,5.371,31.250,20.996,12.207,2.441,0
1194.638,5.859,32.227,19.531,4.395,0.488,0
1194.642,10.742,31.250,19.531,-8.301,7.324,0
1194.646,11.719,27.832,17.090,-6.348,-3.906,0
1194.650,4.395,30.762,16.113,7.812,-8.789,0
1194.654,4.395,31.250,20.996,5.371,5.371,0
1194.658,12.207,29.785,19.043,-3.906,18.555,0
1194.662,13.184,29.785,17.090,-2.930,-7.812,0
1194.666,14.648,28.809,18.555,5.371,-7.324,0
1194.670,14.160,29.297,19.531,8.789,16.602,0
1194.673,8.789,30.273,22.461,-0.488,44.434,0
1194.677,4.883,30.273,21.973,-8.301,26.855,0
1194.681,6.348,32.227,24.414,1.953,-2.441,0
1194.685,2.441,30.273,25.879,7.812,16.602,0
1194.689,3.906,27.344,20.996,0.488,29.297,0
1194.693,9.277,29.785,23.438,-8.789,4.883,0
1194.697,5.371,29.785,26.367,-3.418,-10.254,0
1194.701,4.883,30.762,21.973,4.883,7.812,0
1194.705,11.230,33.203,20.996,5.371,33.691,0
1194.709,13.184,32.715,23.438,0.000,14.160,0
1194.712,12.207,34.668,26.367,4.395,-5.371,0
1194.716,12.207,36.133,27.832,15.625,27.344,0
1194.720,11.719,36.621,29.297,13.672,51.758,0
1194.724,11.719,37.109,30.273,6.348,25.879,0
1194.728,16.113,37.598,29.297,8.301,27.344,0
1194.732,18.066,37.109,29.785,19.531,41.992,0
1194.736,13.672,38.574,32.227,19.043,30.273,0
1194.740,15.625,41.016,32.227,8.789,30.762,0
1194.744,20.020,37.109,31.250,8.301,17.090,0
1194.748,13.672,33.691,29.785,15.625,9.277,0
1194.752,8.789,35.156,29.297,15.625,19.531,0
1194.755,12.695,36.621,27.832,2.441,-3.418,0
1194.759,20.996,38.574,25.879,-1.953,2.441,0
1194.763,22.461,39.062,29.785,12.695,31.738,0
1194.767,15.625,39.062,32.227,17.090,24.902,0
1194.771,15.625,40.039,31.250,9.766,28.320,0
1194.775,16.113,40.039,26.367,-3.906,38.574,0
1194.779,11.719,39.551,24.414,-3.906,57.617,0
1194.783,9.277,36.133,26.855,10.742,48.828,0
1194.787,12.207,34.668,27.344,10.742,19.043,0
1194.791,20.020,35.156,28.320,5.859,-2.930,0
1194.795,21.973,35.645,26.855,-0.977,33.691,0
1194.798,14.160,39.062,20.996,2.441,13.672,0
1194.802,14.648,39.551,19.043,8.789,-33.203,0
1194.806,18.555,31.738,22.461,0.000,4.395,0
1194.810,14.160,27.832,22.461,-5.859,23.926,0
1194.814,11.230,33.203,21.973,1.953,20.020,0
1194.818,14.648,35.156,21.973,4.883,18.066,0
1194.822,12.695,30.273,20.508,1.465,6.836,0
1194.826,7.324,29.785,21.484,-2.441,-0.488,0
1194.830,10.254,33.203,20.508,-1.465,-5.859,0
1194.834,12.695,31.738,20.996,3.418,1.465,0
1194.837,11.230,30.762,22.949,6.348,2.930,0
1194.841,7.324,30.273,22.461,-6.348,-5.371,0
1194.845,1.953,30.273,21.973,-9.766,-19.531,0
1194.849,8.301,31.250,21.484,0.977,-4.395,0
1194.853,14.160,32.227,20.020,3.418,34.180,0
1194.857,8.789,34.180,20.020,-5.371,11.230,0
1194.861,4.395,31.250,20.020,-8.789,20.020,0
1194.865,0.488,30.273,18.066,-0.488,41.992,0
1194.869,1.953,32.227,19.531,3.418,24.902,0
1194.873,7.812,31.250,21.973,-0.977,19.043,0
1194.877,11.230,31.738,22.949,-4.883,-3.418,0
1194.880,14.160,32.715,22.461,-1.953,-14.160,0
1194.884,14.648,32.715,21.973,5.371,0.000,0
1194.888,6.836,32.715,26.367,1.953,-5.859,0
1194.892,7.812,32.227,25.391,-5.859,-37.598,0
1194.896,9.277,33.691,22.461,1.953,-19.531,0
1194.900,10.742,34.668,23.926,7.324,29.785,0
1194.904,15.625,32.227,22.461,4.883,39.062,0
1194.908,20.508,31.250,24.414,-3.906,24.902,0
1194.912,12.695,32.715,26.367,0.977,19.043,0
1194.916,4.395,31.250,24.414,9.277,36.133,0
1194.920,7.324,32.715,20.996,7.324,47.852,0
1194.923,13.184,32.227,20.508,-3.418,63.477,0
1194.927,17.090,31.250,22.461,-7.812,58.594,0
1194.931,17.090,32.715,20.996,-1.465,41.016,0
1194.935,28.809,34.668,20.020,-4.395,11.719,0
1194.939,39.062,35.645,24.414,-10.254,5.859,0
1194.943,39.551,33.203,21.973,-16.113,41.992,0
1194.947,40.527,32.227,17.578,-12.207,57.129,0
1194.951,37.598,33.691,20.996,-3.418,41.016,0
1194.955,30.273,31.738,20.508,-2.930,36.133,0
1194.959,16.602,29.297,18.066,-8.301,25.879,0
1194.962,3.906,30.762,17.578,0.977,3.418,0
1194.966,-2.441,31.738,20.508,10.742,5.371,0
1194.970,-2.930,29.297,22.461,9.766,7.812,0
1194.974,0.977,28.809,21.973,3.906,-5.859,0
1194.978,0.000,27.832,23.438,4.395,-27.832,0
1194.982,-4.883,28.320,21.484,6.348,-28.809,0
1194.986,-1.953,27.344,19.531,7.812,11.230,0
1194.990,6.348,26.367,22.949,4.883,40.039,0
1194.994,3.418,26.855,22.949,-3.418,-0.488,0
1194.998,-4.883,27.344,19.043,4.883,10.254,0
1195.002,-3.906,26.855,20.508,11.230,53.711,0
1195.005,0.000,28.809,23.438,2.930,26.367,0
1195.009,3.906,29.785,22.461,-2.930,-9.277,0
1195.013,3.418,29.297,20.508,2.441,14.648,0
1195.017,2.441,29.785,20.020,3.906,56.152,0
1195.021,4.395,31.738,20.508,2.441,57.617,0
1195.025,7.812,34.668,25.391,-0.488,25.879,0
1195.029,8.301,34.180,26.855,3.906,15.625,0
1195.033,9.277,36.133,26.855,12.207,27.832,0
1195.037,12.207,38.574,27.832,11.230,13.184,0
1195.041,19.043,36.133,26.855,-0.488,-5.371,0
1195.045,13.184,34.668,25.879,-1.953,16.602,0
1195.048,2.930,31.250,23.438,7.812,40.527,0
1195.052,7.324,29.297,21.484,13.672,14.648,0
1195.056,15.625,29.785,21.484,10.254,12.207,0
1195.060,18.066,29.297,22.949,3.906,20.996,0
1195.064,13.184,30.762,26.855,13.184,10.254,0
1195.068,15.625,31.738,27.832,16.113,12.695,0
1195.072,16.602,30.273,23.926,7.324,12.207,0
1195.076,19.043,32.227,20.508,-3.418,-15.137,0
1195.080,20.020,34.180,21.484,4.883,-17.578,0
1195.084,16.113,34.180,23.926,15.137,4.883,0
1195.087,16.602,34.180,25.879,11.230,5.859,0
1195.091,22.949,30.762,25.879,4.395,3.418,0
1195.095,21.973,31.250,24.902,4.395,26.367,0
1195.099,17.090,33.691,28.809,16.113,25.391,0
1195.103,21.484,35.645,30.273,18.555,6.348,0
1195.107,23.438,35.156,25.391,11.230,17.090,0
1195.111,19.531,36.133,24.902,13.184,8.301,0
1195.115,13.184,36.133,27.832,17.090,5.859,0
1195.119,8.789,32.227,26.367,12.695,-5.371,0
1195.123,9.766,30.762,23.438,4.395,11.719,0
1195.127,12.207,29.297,24.414,1.953,60.059,0
1195.130,9.277,29.785,23.438,4.883,44.434,0
1195.134,10.742,32.715,22.949,4.395,22.461,0
1195.138,11.719,29.785,23.926,5.371,46.387,0
1195.142,16.602,28.809,25.879,2.930,65.918,0
1195.146,24.902,31.738,27.832,9.766,49.316,0
1195.150,19.531,28.809,25.879,13.672,50.781,0
1195.154,17.090,27.344,23.926,10.742,71.777,0
1195.158,24.902,30.273,26.367,3.906,35.645,0
1195.162,23.926,32.715,28.320,0.977,-1.465,0
1195.166,22.461,33.691,26.367,10.254,6.836,0
1195.170,23.438,35.156,26.367,11.230,15.625,0
1195.173,26.367,31.738,26.367,-0.977,25.391,0
1195.177,22.949,32.227,23.926,-4.395,29.785,0
1195.181,20.020,34.180,24.414,12.207,35.156,0
1195.185,24.902,35.156,26.855,16.602,51.270,0
1195.189,29.785,36.133,27.832,10.254,23.438,0
1195.193,26.855,35.645,27.832,8.301,2.441,0
1195.197,20.020,33.203,28.809,16.113,45.898,0
1195.201,24.414,31.738,27.344,19.531,67.871,0
1195.205,26.855,34.668,24.414,15.137,54.199,0
1195.209,23.926,35.645,23.438,4.883,34.668,0
1195.212,17.090,34.180,21.973,8.789,2.930,0
1195.216,19.043,35.645,23.438,15.137,-9.277,0
1195.220,22.949,35.645,22.461,11.230,-19.531,0
1195.224,16.113,37.598,18.555,-1.465,-9.277,0
1195.228,12.207,35.645,18.066,0.488,19.043,0
1195.232,11.719,32.715,22.461,15.625,15.137,0
1195.236,11.719,37.109,24.902,8.301,-17.090,0
1195.240,8.789,34.668,24.902,-1.953,-16.113,0
1195.244,7.324,29.297,22.461,-4.395,32.227,0
1195.248,-1.465,29.785,20.508,0.977,33.203,0
1195.252,-9.766,31.250,20.020,7.812,14.160,0
1195.255,-3.418,32.227,19.531,3.906,23.438,0
1195.259,6.348,30.762,20.020,-2.441,32.715,0
1195.263,5.859,28.320,20.020,2.441,34.180,0
1195.267,5.371,29.297,20.996,8.301,-10.254,0
1195.271,12.207,31.738,23.438,6.348,16.113,0
1195.275,15.137,34.180,26.855,-0.488,32.715,0
1195.279,6.348,31.250,25.391,0.977,0.977,0
1195.283,0.488,27.832,22.461,10.254,21.973,0
1195.287,0.488,29.785,23.926,9.766,10.742,0
1195.291,2.441,29.297,24.902,-3.906,-13.672,0
1195.295,1.465,26.855,23.926,-3.906,-3.418,0
1195.298,0.488,29.785,20.996,3.418,15.137,0
1195.302,0.977,31.738,23.926,1.465,33.203,0
1195.306,3.906,28.809,26.367,2.441,31.250,0
1195.310,9.277,27.832,23.926,0.977,-12.695,0
1195.314,9.277,30.762,21.484,1.953,-27.344,0
1195.318,10.254,30.273,25.391,8.301,14.160,0
1195.322,11.230,31.738,26.367,4.883,40.527,0
1195.326,16.602,32.227,22.461,0.000,5.859,0
1195.330,12.695,29.297,23.438,7.324,-11.719,0
1195.334,3.906,28.320,23.926,10.742,22.949,0
1195.337,8.301,29.297,22.949,7.812,22.949,0
1195.341,12.695,32.227,23.438,0.000,0.977,0
1195.345,11.719,33.691,24.414,1.465,13.184,0
1195.349,14.648,33.691,22.949,11.230,28.809,0
1195.353,12.695,35.645,21.973,12.207,6.836,0
1195.357,8.301,34.668,21.484,-0.977,-3.906,0
1195.361,11.230,32.715,21.973,-0.488,1.465,0
1195.365,13.672,34.180,20.996,14.648,22.949,0
1195.369,15.625,34.668,20.020,10.254,25.391,0
1195.373,12.695,35.645,24.414,1.465,26.855,0
1195.377,7.812,35.156,24.902,-0.977,20.996,0
1195.380,4.395,34.180,23.438,1.953,40.527,0
1195.384,4.883,36.133,23.438,2.930,36.621,0
1195.388,7.324,36.133,23.438,-4.395,2.930,0
1195.392,8.301,36.621,25.879,-5.371,13.184,0
1195.396,8.301,38.086,25.879,5.859,0.488,0
1195.400,4.883,38.086,25.391,7.324,-3.906,0
1195.404,8.301,34.668,21.973,3.906,6.836,0
1195.408,16.113,33.691,23.438,4.395,-6.836,0
1195.412,12.207,33.203,28.320,6.836,6.348,0
1195.416,3.906,35.156,28.809,10.254,23.438,0
1195.420,1.465,35.156,25.879,9.766,20.996,0
1195.423,8.789,32.227,22.949,1.465,12.207,0
1195.427,13.184,34.668,21.484,1.953,6.348,0
1195.431,11.230,35.156,22.461,13.672,29.785,0
1195.435,10.742,35.156,22.949,18.066,42.969,0
1195.439,18.066,37.598,23.438,17.578,29.785,0
1195.443,27.832,35.156,26.367,9.766,-13.184,0
1195.447,25.391,36.133,26.367,11.230,-24.902,0
1195.451,21.484,36.133,24.902,17.090,13.672,0
1195.455,19.043,31.738,24.902,12.695,23.926,0
1195.459,20.996,33.203,23.926,2.441,-12.207,0
1195.462,18.555,33.691,26.367,5.371,-32.715,0
1195.466,15.137,32.715,28.320,12.695,6.348,0
1195.470,17.090,35.156,26.367,9.277,14.648,0
1195.474,15.137,36.133,27.344,1.465,-7.324,0
1195.478,18.066,37.109,28.320,5.371,5.371,0
1195.482,16.602,35.645,28.320,12.207,25.391,0
1195.486,14.648,35.156,28.809,9.766,46.875,0
1195.490,16.113,34.180,25.391,6.348,39.551,0
1195.494,16.602,34.180,24.902,6.348,31.250,0
1195.498,14.160,34.668,25.391,10.742,33.691,0
1195.502,10.254,30.762,24.902,14.648,46.875,0
1195.505,17.090,33.203,26.367,11.719,47.363,0
1195.509,22.949,37.109,26.367,2.930,18.555,0
1195.513,17.090,35.156,25.391,13.184,29.297,0
1195.517,12.207,32.715,24.902,19.043,25.391,0
1195.521,14.648,32.227,24.902,12.695,14.160,0
1195.525,17.578,31.738,24.902,3.906,12.207,0
1195.529,12.695,30.762,24.414,5.371,4.883,0
1195.533,13.184,33.203,27.832,17.578,28.320,0
1195.537,15.137,34.668,29.785,18.555,42.969,0
1195.541,18.066,36.621,26.367,10.742,15.625,0
1195.545,20.508,37.598,23.926,3.906,30.273,0
1195.548,16.602,38.086,24.414,11.719,69.824,0
1195.552,21.973,35.645,23.438,15.137,32.227,0
1195.556,25.391,33.203,21.973,7.324,10.742,0
1195.560,19.531,32.715,21.484,5.371,41.992,0
1195.564,15.625,31.738,20.508,11.719,47.363,0
1195.568,17.578,30.762,20.508,16.602,43.457,0
1195.572,25.391,32.227,23.926,15.625,39.551,0
1195.576,23.926,35.645,25.391,8.301,33.203,0
1195.580,20.508,37.109,23.926,11.230,53.711,0
1195.584,18.066,37.598,21.973,16.113,40.039,0
1195.587,14.160,35.645,22.949,7.812,19.531,0
1195.591,15.625,36.621,21.484,-2.441,14.648,0
1195.595,13.184,38.086,19.531,1.465,-9.766,0
1195.599,11.719,38.574,22.461,9.766,-0.488,0
1195.603,16.113,39.062,21.973,8.301,34.668,0
1195.607,16.602,38.086,20.996,-3.418,3.418,0
1195.611,18.066,37.109,22.949,-4.883,-31.250,0
1195.615,21.484,37.598,23.926,8.301,2.930,0
1195.619,18.555,35.645,20.508,13.184,20.020,0
1195.623,16.602,34.180,20.996,3.906,16.113,0
1195.627,21.484,33.691,22.949,-5.371,-4.883,0
1195.630,20.996,32.715,21.973,4.395,-2.441,0
1195.634,17.578,36.133,24.902,13.184,21.973,0
1195.638,20.996,38.574,26.367,10.254,37.109,0
1195.642,27.832,35.156,23.438,2.441,10.254,0
1195.646,41.992,36.621,21.973,21.973,11.230,0
1195.650,32.715,38.574,28.320,30.273,26.855,0
1195.654,11.719,33.691,33.691,9.766,9.766,0
1195.658,10.254,29.785,32.227,-2.441,14.648,0
1195.662,10.254,27.832,29.297,-0.977,-7.324,0
1195.666,13.672,29.785,29.297,12.207,3.906,0
1195.670,16.113,30.273,30.762,14.160,28.809,0
1195.673,15.625,27.344,27.832,6.836,23.438,0
1195.677,13.672,26.855,27.344,3.418,21.484,0
1195.681,10.742,27.344,25.879,12.695,19.043,0
1195.685,12.695,27.832,27.832,12.695,4.395,0
1195.689,20.020,30.762,30.762,3.418,-6.836,0
1195.693,26.855,33.691,29.297,4.883,24.414,0
1195.697,16.602,33.691,29.785,13.184,22.949,0
1195.701,9.766,31.250,29.785,18.066,14.160,0
1195.705,13.184,31.250,27.832,15.137,33.203,0
1195.709,15.137,31.738,25.879,5.859,20.508,0
1195.712,15.137,30.273,23.926,8.301,17.090,0
1195.716,16.113,29.297,23.438,12.695,15.625,0
1195.720,22.461,31.738,22.949,3.906,32.227,0
1195.724,30.762,34.668,20.996,-10.742,38.086,0
1195.728,38.574,31.738,21.484,-12.695,6.836,0
1195.732,45.410,32.227,22.949,-3.906,7.812,0
1195.736,48.828,35.156,20.508,-6.836,18.555,0
1195.740,50.293,34.180,20.020,-13.672,18.066,0
1195.744,42.480,34.180,22.461,-15.137,7.812,0
1195.748,32.715,35.645,21.973,-0.977,-13.184,0
1195.752,27.344,31.738,20.508,4.883,5.371,0
1195.755,13.184,27.832,21.973,2.441,21.973,0
1195.759,6.836,28.320,23.438,4.883,9.766,0
1195.763,6.348,28.809,22.949,8.789,12.695,0
1195.767,-0.488,28.809,23.438,12.207,20.020,0
1195.771,1.465,28.809,23.438,5.371,21.973,0
1195.775,4.395,31.250,21.484,-4.395,5.371,0
1195.779,3.418,28.809,23.438,-1.465,-11.230,0
1195.783,1.953,29.785,26.367,0.977,1.953,0
1195.787,-0.488,31.738,26.855,1.465,29.297,0
1195.791,0.000,29.297,29.297,-3.418,0.000,0
1195.795,8.301,32.227,30.762,-5.859,-25.879,0
1195.798,8.789,33.691,29.785,3.906,30.273,0
1195.802,1.953,31.250,29.297,1.953,54.199,1
1195.806,3.418,32.715,27.832,-0.488,27.832,0
1195.810,8.301,31.250,24.902,-0.488,29.785,0
1195.814,8.301,28.809,23.926,6.836,39.551,0
1195.818,5.859,28.809,26.367,7.812,42.480,0
1195.822,4.395,27.832,26.367,-1.465,32.715,0
1195.826,4.395,31.250,21.484,-7.812,45.898,0
1195.830,3.906,34.180,23.438,-4.883,60.059,0
1195.834,0.488,35.645,30.273,6.836,25.879,0
1195.837,2.441,33.691,27.832,5.859,3.418,0
1195.841,8.301,30.273,23.926,-8.301,-7.812,0
1195.845,3.906,30.762,24.902,-4.395,14.648,0
1195.849,3.418,33.203,27.344,6.836,15.137,0
1195.853,1.953,30.762,23.926,3.418,1.953,0
1195.857,0.977,30.273,21.484,-3.418,22.949,0
1195.861,3.906,30.273,22.949,-0.977,12.207,0
1195.865,5.371,30.762,21.484,8.301,18.066,0
1195.869,9.766,32.227,20.508,11.719,43.457,0
1195.873,12.695,32.227,21.484,7.812,43.457,0
1195.877,17.578,34.180,22.949,5.371,34.668,0
1195.880,13.672,32.227,23.926,10.742,13.184,0
1195.884,12.695,31.738,22.949,11.230,0.977,0
1195.888,10.254,31.250,20.996,6.348,19.043,0
1195.892,8.301,32.227,22.949,-1.465,16.602,0
1195.896,9.766,35.645,24.414,0.488,10.254,0
1195.900,9.766,36.133,24.414,7.812,17.090,0
1195.904,7.812,31.738,26.367,3.418,-2.441,0
1195.908,8.301,32.227,25.879,-8.789,-27.832,0
1195.912,12.207,35.156,23.926,-0.977,-11.230,0
1195.916,11.719,35.156,24.902,12.207,11.719,0
1195.920,16.113,35.645,24.902,10.254,3.418,0
1195.923,15.625,34.668,23.926,0.977,1.953,0
1195.927,15.137,35.645,26.855,0.000,-24.902,0
1195.931,17.578,38.086,27.832,10.742,2.441,0
1195.935,14.160,39.551,26.367,12.207,30.762,0
1195.939,16.602,40.527,24.902,5.371,9.766,0
1195.943,25.391,39.551,22.949,-1.953,-1.465,0
1195.947,18.066,37.598,25.879,0.488,4.883,0
1195.951,12.207,35.645,26.367,5.371,30.273,0
1195.955,14.160,36.621,21.973,-2.930,35.645,0
1195.959,13.672,38.086,22.949,-12.695,44.434,0
1195.962,14.160,39.062,25.879,-1.465,48.828,0
1195.966,16.113,37.598,24.414,4.395,62.500,0
1195.970,19.043,36.621,25.879,3.906,40.527,0
1195.974,20.020,36.621,27.832,-2.441,-0.488,0
1195.978,19.043,36.621,27.832,-5.371,15.137,0
1195.982,18.066,37.109,31.250,7.812,36.621,0
1195.986,20.020,38.574,30.762,12.695,44.434,0
1195.990,21.484,40.527,29.785,5.859,68.848,0
1195.994,19.531,37.598,29.785,3.418,52.246,0
1195.998,15.625,35.645,26.367,7.812,18.066,0
1196.002,17.090,38.574,26.855,11.719,18.066,0
1196.005,22.461,30.762,28.320,11.230,44.922,0
1196.009,20.020,26.367,25.391,2.930,57.617,0
1196.013,13.672,39.062,21.973,5.371,15.625,0
1196.017,10.254,44.434,22.461,8.301,9.766,0
1196.021,11.230,40.039,23.926,3.418,22.949,0
1196.025,17.578,36.133,23.926,1.465,1.953,0
1196.029,18.066,36.133,22.949,5.859,0.488,0
1196.033,19.043,36.621,23.926,11.230,3.906,0
1196.037,21.484,35.156,23.438,12.207,9.766,0
1196.041,24.414,36.621,21.484,7.324,21.484,0
1196.045,24.902,38.574,23.438,9.766,9.766,0
1196.048,21.484,34.668,25.879,14.648,21.973,0
1196.052,17.090,34.668,24.414,10.742,43.945,0
1196.056,13.672,35.156,23.438,4.395,59.570,0
1196.060,12.695,31.250,21.484,1.465,28.320,0
1196.064,12.207,31.250,19.531,8.789,-26.855,0
1196.068,12.207,32.227,20.996,10.742,-4.883,0
1196.072,17.578,35.156,23.438,8.789,32.227,0
1196.076,21.973,35.645,23.926,5.859,25.879,0
1196.080,16.602,35.156,23.438,11.719,12.207,0
1196.084,13.672,33.203,24.414,11.230,7.812,0
1196.087,15.137,31.738,28.320,9.277,19.531,0
1196.091,17.578,34.180,28.320,4.883,0.000,0
1196.095,19.531,35.156,25.391,4.883,-4.883,0
1196.099,16.113,32.227,23.438,12.207,35.645,0
1196.103,9.766,31.738,22.949,11.230,49.805,0
1196.107,7.324,30.273,20.996,-0.488,13.184,0
1196.111,9.766,27.832,19.043,-7.812,2.441,0
1196.115,9.277,28.809,19.043,-0.977,44.922,0
1196.119,7.812,31.738,18.066,-2.930,30.273,0
1196.123,11.230,32.715,17.090,-9.277,17.090,0
1196.127,14.160,32.715,16.602,-7.324,61.035,0
1196.130,12.207,36.133,19.531,5.371,60.059,0
1196.134,8.301,35.645,20.020,4.883,13.184,0
1196.138,8.301,34.180,18.066,-1.465,23.926,0
1196.142,16.113,33.691,18.555,-1.465,29.785,0
1196.146,15.625,31.250,18.555,3.418,6.348,0
1196.150,14.160,32.227,18.555,10.254,-7.812,0
1196.154,15.625,30.762,19.043,10.742,27.832,0
1196.158,18.066,30.273,21.973,3.906,47.363,0
1196.162,19.531,33.691,21.484,6.348,28.809,0
1196.166,18.555,32.227,18.555,13.672,30.762,0
1196.170,15.625,27.344,20.508,14.160,6.836,0
1196.173,15.625,30.273,23.438,10.254,5.371,0
1196.177,20.020,31.738,27.832,5.859,-4.395,0
1196.181,23.438,32.227,28.320,13.184,-6.348,0
1196.185,21.973,34.180,25.391,16.113,40.527,0
1196.189,20.508,32.227,24.414,10.254,57.129,0
1196.193,19.531,32.715,23.438,3.906,9.277,0
1196.197,13.184,32.715,22.949,11.230,9.766,0
1196.201,17.090,33.203,23.926,16.113,41.992,0
1196.205,20.996,34.668,20.996,9.277,35.156,0
1196.209,15.137,34.180,14.648,0.000,-1.465,0
1196.212,9.277,35.156,17.578,-1.465,-22.949,0
1196.216,10.742,32.715,20.996,7.324,-6.836,0
1196.220,16.113,33.691,20.020,10.254,31.738,0
1196.224,19.043,35.645,19.531,1.465,25.391,0
1196.228,19.043,34.180,20.996,0.488,16.602,0
1196.232,20.508,34.180,24.414,13.184,57.129,0
1196.236,25.391,35.645,24.414,19.531,57.617,0
1196.240,31.250,36.133,21.973,9.277,46.387,0
1196.244,27.832,35.645,20.508,2.930,24.902,0
1196.248,17.090,35.156,23.438,11.719,-2.930,0
1196.252,17.090,33.691,26.367,15.137,20.020,0
1196.255,20.508,35.645,25.391,6.348,-4.395,0
1196.259,20.020,36.133,25.879,-5.859,-23.926,0
1196.263,17.578,35.156,22.949,0.977,25.879,0
1196.267,14.648,34.180,17.090,12.695,29.297,0
1196.271,11.719,33.203,17.090,10.742,24.902,0
1196.275,14.160,31.738,20.020,-1.465,36.133,0
1196.279,14.160,31.250,20.020,-0.488,48.340,0
1196.283,11.719,35.156,21.973,3.906,58.105,0
1196.287,12.207,33.203,24.414,4.883,40.039,0
1196.291,14.160,33.203,22.461,-0.488,9.277,0
1196.295,18.066,39.062,22.949,-1.465,7.812,0
1196.298,12.695,39.062,20.508,9.277,13.184,0
1196.302,6.836,33.691,18.555,9.277,1.465,0
1196.306,9.277,34.668,20.020,0.488,14.648,0
1196.310,13.672,38.574,20.508,-6.348,0.000,0
1196.314,14.160,39.551,21.484,2.930,5.371,0
1196.318,7.324,38.574,21.484,1.465,-9.277,0
1196.322,8.301,37.109,21.484,-0.977,-8.301,0
1196.326,13.184,36.621,22.949,0.000,14.160,0
1196.330,13.184,34.180,23.926,1.953,7.324,0
1196.334,12.695,35.645,23.438,8.301,36.133,0
1196.337,15.137,39.062,23.438,1.953,27.832,0
1196.341,20.996,39.062,22.949,-6.836,12.207,0
1196.345,16.113,36.133,21.973,-1.953,2.930,0
1196.349,12.207,36.621,23.926,2.930,13.672,0
1196.353,15.625,37.598,26.367,3.906,43.457,0
1196.357,18.555,35.645,27.832,0.977,16.113,0
1196.361,20.508,34.180,25.879,2.930,-9.277,0
1196.365,18.555,31.250,23.438,5.371,9.277,0
1196.369,20.508,34.180,22.949,8.789,23.926,0
1196.373,21.484,34.668,24.414,4.395,18.555,0
1196.377,15.137,32.227,24.902,-4.395,22.461,0
1196.380,9.277,32.715,24.414,4.395,5.859,0
1196.384,7.812,33.691,26.367,7.812,4.883,0
1196.388,8.789,32.715,27.344,1.465,-0.977,0
1196.392,16.602,33.691,28.809,-6.348,-38.086,0
1196.396,15.137,32.715,29.785,4.395,-15.137,0
1196.400,14.160,34.180,27.832,17.578,22.461,0
1196.404,14.160,36.133,21.973,13.672,34.180,0
1196.408,12.695,36.621,21.484,5.859,17.578,0
1196.412,10.254,35.645,25.879,3.418,-6.836,0
1196.416,8.789,35.645,24.902,4.395,-4.883,0
1196.420,13.184,35.645,22.949,4.883,8.301,0
1196.423,17.090,33.203,20.508,0.000,17.090,0
1196.427,14.648,33.691,20.996,-8.301,24.414,0
1196.431,9.277,36.133,23.438,1.465,26.367,0
1196.435,15.137,35.645,25.391,13.184,-8.789,0
1196.439,15.625,30.762,25.879,2.441,-11.230,0
1196.443,15.625,32.715,21.973,-3.418,28.809,0
1196.447,17.578,35.645,20.996,8.301,28.809,0
1196.451,18.555,35.156,20.020,11.719,18.555,0
1196.455,16.113,34.668,19.531,5.859,32.227,0
1196.459,20.020,38.086,21.484,0.488,31.738,0
1196.462,19.531,38.574,21.973,5.371,7.812,0
1196.466,9.277,33.691,24.902,11.719,15.137,0
1196.470,11.719,30.762,23.926,9.766,31.250,0
1196.474,16.602,32.227,21.484,5.859,9.766,0
1196.478,14.160,33.203,22.949,3.906,-19.043,0
1196.482,11.719,33.691,25.879,5.859,-8.789,0
1196.486,8.789,33.691,25.391,9.766,28.809,0
1196.490,8.301,31.738,23.438,2.441,51.270,0
1196.494,10.254,29.297,24.414,-6.836,29.297,0
1196.498,3.418,27.832,24.902,0.488,20.508,0
1196.502,5.859,29.785,23.926,7.812,33.203,0
1196.505,9.277,29.785,21.484,0.000,31.250,0
1196.509,8.789,28.320,20.508,-5.371,20.996,0
1196.513,8.789,28.809,21.973,4.395,-2.930,0
1196.517,8.789,33.203,23.438,9.277,15.137,0
1196.521,11.719,35.645,21.973,3.906,62.500,0
1196.525,18.066,37.109,21.973,-7.812,36.133,0
1196.529,18.555,38.086,23.926,-9.766,-3.906,0
1196.533,20.508,35.645,22.461,-4.395,5.859,0
1196.537,30.762,35.156,19.531,-4.395,9.277,0
1196.541,41.992,40.527,20.996,-16.602,-23.926,0
1196.545,48.340,41.016,23.926,-23.438,-44.434,0
1196.548,49.316,39.551,23.926,-11.230,18.555,0
1196.552,42.480,41.016,21.484,-1.465,43.945,0
1196.556,34.180,37.598,22.461,-3.906,27.832,0
1196.560,27.832,35.645,25.879,-2.930,29.297,0
1196.564,13.184,32.715,26.367,6.836,25.879,0
1196.568,4.883,30.762,26.367,10.742,12.207,0
1196.572,4.883,33.203,26.855,8.301,-0.977,0
1196.576,5.371,34.668,24.902,-0.488,-7.324,0
1196.580,4.395,35.645,22.461,1.465,18.555,0
1196.584,8.301,34.668,21.973,7.324,45.898,0
1196.587,8.789,36.621,23.438,-1.953,35.156,0
1196.591,9.277,37.109,24.902,-6.348,20.020,0
1196.595,12.695,35.645,23.926,2.441,21.973,0
1196.599,8.789,36.621,20.996,3.418,24.414,0
1196.603,4.395,33.691,20.508,4.883,18.555,0
1196.607,8.789,34.668,21.973,0.000,13.184,0
1196.611,11.230,37.109,20.996,-3.906,15.625,0
1196.615,13.184,36.133,20.996,3.418,9.277,0
1196.619,14.648,35.645,23.926,4.395,17.578,0
1196.623,9.277,37.598,21.484,-0.488,16.602,0
1196.627,4.883,37.598,21.484,-4.883,-20.508,0
1196.630,5.371,36.621,23.926,2.441,-12.695,0
1196.634,11.719,37.109,25.391,8.301,22.461,0
1196.638,18.555,36.133,27.832,12.695,26.367,0
1196.642,17.578,37.598,25.391,9.766,29.785,0
1196.646,12.695,38.086,22.949,7.324,8.301,0
1196.650,9.766,36.133,22.949,10.742,14.160,0
1196.654,9.766,35.156,22.949,6.836,44.922,0
1196.658,13.672,35.156,23.438,-0.488,20.996,0
1196.662,11.230,34.668,23.438,0.488,15.137,0
1196.666,7.812,35.156,24.902,9.277,2.441,0
1196.670,15.137,34.180,26.367,16.113,8.301,0
1196.673,19.043,34.180,25.391,8.789,3.418,0
1196.677,18.555,34.668,23.926,5.859,8.301,0
1196.681,20.020,34.180,23.926,15.625,14.648,0
1196.685,20.508,34.668,24.414,20.508,11.230,0
1196.689,21.973,35.156,24.902,13.672,17.578,0
1196.693,20.020,36.621,26.855,0.977,2.930,0
1196.697,11.230,36.133,25.879,5.859,38.086,0
1196.701,7.812,33.203,24.414,9.277,51.270,0
1196.705,14.160,37.598,25.391,5.859,36.621,0
1196.709,21.484,40.527,24.902,-0.488,35.645,0
1196.712,18.555,35.645,22.949,3.418,5.371,0
1196.716,12.207,32.715,21.973,6.348,-15.137,0
1196.720,12.695,31.738,20.508,0.977,7.812,0
1196.724,19.043,30.273,21.973,-0.488,-7.812,0
1196.728,20.020,30.762,23.438,-1.953,12.207,0
1196.732,15.137,31.250,20.508,3.418,41.504,0
1196.736,15.625,30.273,20.508,7.812,28.809,0
1196.740,16.602,32.715,20.996,-1.953,7.812,0
1196.744,17.578,33.203,18.066,-7.324,-1.465,0
1196.748,14.160,33.203,15.137,2.930,1.953,0
1196.752,15.625,34.180,19.531,6.348,9.277,0
1196.755,20.996,37.598,23.926,6.348,25.391,0
1196.759,20.020,37.109,20.508,0.977,29.297,0
1196.763,18.555,32.227,17.578,2.930,20.996,0
1196.767,17.578,34.668,18.555,3.418,26.855,0
1196.771,17.578,33.691,18.066,-3.906,23.438,0
1196.775,17.578,31.738,17.090,-10.742,33.691,0
1196.779,14.648,35.156,17.578,-7.812,7.812,0
1196.783,14.160,36.133,20.508,4.395,4.883,0
1196.787,16.602,34.180,20.996,4.395,45.410,0
1196.791,18.066,30.762,19.531,-4.883,35.645,0
1196.795,19.043,32.715,20.996,-4.883,9.277,0
1196.798,19.531,34.180,21.973,3.906,23.438,0
1196.802,13.672,32.227,20.020,6.836,38.574,0
1196.806,12.695,33.691,22.461,7.324,10.742,0
1196.810,17.090,33.691,23.926,1.465,-28.809,0
1196.814,15.137,34.180,22.949,1.953,-17.090,0
1196.818,12.695,34.668,20.508,12.207,34.668,0
1196.822,12.207,30.762,20.996,9.277,45.410,0
1196.826,15.137,29.785,22.461,0.977,0.000,0
1196.830,12.695,31.738,19.531,8.301,-11.230,0
1196.834,10.742,32.227,18.555,14.160,20.996,0
1196.837,12.207,30.762,22.461,12.695,4.883,0
1196.841,11.230,31.738,25.391,8.301,-27.832,0
1196.845,11.230,30.762,23.926,9.277,10.254,0
1196.849,15.625,27.832,24.414,17.090,52.734,0
1196.853,12.207,31.250,26.367,19.043,16.602,0
1196.857,14.160,34.668,25.391,13.184,-10.254,0
1196.861,17.090,31.250,24.414,12.207,29.297,0
1196.865,13.672,29.785,26.367,21.484,60.059,0
1196.869,19.043,30.273,30.762,23.926,37.598,0
1196.873,24.902,32.715,29.785,14.160,13.184,0
1196.877,21.973,32.227,25.879,4.883,33.691,0
1196.880,12.695,27.832,24.902,7.324,27.832,0
1196.884,9.277,30.762,27.832,16.113,3.418,0
1196.888,15.137,33.203,26.367,13.672,21.484,0
1196.892,20.996,34.180,23.926,5.859,15.625,0
1196.896,15.137,33.203,26.367,10.742,16.602,0
1196.900,9.766,32.715,28.809,14.648,20.508,0
1196.904,7.324,32.715,26.367,5.371,13.672,0
1196.908,6.836,32.715,20.996,-3.906,54.199,0
1196.912,5.859,32.227,22.949,0.000,41.016,0
1196.916,4.883,31.250,26.367,7.324,30.273,0
1196.920,10.742,33.203,26.367,7.812,49.805,0
1196.923,14.160,33.691,25.879,0.000,34.668,0
1196.927,15.137,33.203,25.391,-2.930,28.809,0
1196.931,13.184,33.203,29.297,7.324,45.898,0
1196.935,10.742,34.180,29.297,4.883,44.434,0
1196.939,9.766,37.109,24.414,-2.441,28.320,0
1196.943,11.230,36.133,22.949,-4.883,27.344,0
1196.947,10.254,33.203,25.391,-1.465,50.293,0
1196.951,3.418,34.180,27.344,0.488,57.617,0
1196.955,4.883,34.180,23.438,-3.418,36.133,0
1196.959,9.766,32.715,24.902,-6.836,34.668,0
1196.962,7.812,31.250,24.414,-7.812,5.859,0
1196.966,9.277,34.180,21.484,-0.488,17.578,0
1196.970,11.230,36.621,20.996,4.883,24.414,0
1196.974,14.648,33.203,21.973,-3.906,2.930,0
1196.978,15.625,31.250,24.414,0.488,16.113,0
1196.982,14.160,33.203,24.902,14.160,25.391,0
1196.986,13.672,32.715,25.879,15.137,31.250,0
1196.990,20.020,34.180,24.902,4.395,30.762,0
1196.994,20.020,34.668,24.902,-3.418,0.977,0
1196.998,13.184,31.250,23.926,6.836,3.906,0
1197.002,16.113,31.738,22.949,12.695,30.762,0
1197.005,19.531,33.691,25.391,8.301,1.953,0
1197.009,24.902,33.691,26.367,1.953,-17.578,0
1197.013,20.508,35.645,24.414,8.301,14.648,0
1197.017,17.578,36.133,22.461,11.230,21.973,0
1197.021,18.066,34.180,23.438,7.324,37.598,0
1197.025,17.090,34.668,23.438,4.883,43.945,0
1197.029,20.020,33.691,18.555,4.883,42.480,0
1197.033,20.508,36.133,20.996,12.695,32.715,0
1197.037,23.438,39.062,25.879,12.207,38.574,0
1197.041,25.879,36.133,24.414,2.930,37.109,0
1197.045,19.043,36.133,20.508,3.906,23.438,0
1197.048,14.648,38.086,20.020,9.766,38.086,0
1197.052,17.578,36.621,20.996,9.766,30.762,0
1197.056,20.996,35.645,23.438,2.441,53.223,0
1197.060,21.973,35.156,19.531,-3.906,27.344,0
1197.064,17.090,35.156,17.090,-1.465,0.488,0
1197.068,13.184,34.180,19.531,-0.488,17.090,0
1197.072,9.766,32.227,20.020,-7.812,15.625,0
1197.076,7.324,35.156,19.531,-15.137,17.090,0
1197.080,9.766,33.691,20.996,-8.301,23.438,0
1197.084,12.695,30.762,20.020,-2.930,28.320,0
1197.087,10.254,32.227,20.020,-7.812,17.090,0
1197.091,13.672,34.668,20.508,-11.719,1.953,0
1197.095,12.695,33.691,20.020,-8.789,1.953,0
1197.099,8.301,36.133,21.973,-1.465,-2.441,0
1197.103,7.324,39.062,21.973,-2.441,5.371,0
1197.107,8.301,36.621,23.926,-5.371,14.160,0
1197.111,10.742,35.645,24.414,-5.371,18.066,0
1197.115,5.371,36.621,25.391,1.465,11.230,0
1197.119,3.906,35.156,26.855,4.395,16.602,0
1197.123,10.742,37.598,25.879,1.465,43.457,0
1197.127,14.648,39.062,24.414,-4.395,25.879,0
1197.130,15.625,35.156,24.414,1.465,2.441,0
1197.134,18.066,33.203,20.508,7.324,11.719,0
1197.138,16.602,33.691,18.066,4.395,16.113,0
1197.142,10.254,35.645,21.973,-2.930,-5.859,0
1197.146,11.719,33.691,22.461,3.906,11.230,0
1197.150,12.207,32.227,23.438,12.695,41.504,0
1197.154,9.766,30.762,27.344,7.324,11.719,0
1197.158,10.742,32.227,27.832,0.000,23.926,0
1197.162,11.230,31.738,25.391,2.441,40.527,0
1197.166,8.301,30.273,27.344,8.301,25.879,0
1197.170,12.695,36.133,27.344,3.906,24.414,0
1197.173,16.602,37.109,23.926,-1.465,33.691,0
1197.177,10.254,34.180,24.414,-1.465,3.418,0
1197.181,7.812,35.645,25.391,7.324,-15.137,0
1197.185,11.719,38.086,24.414,6.348,9.766,0
1197.189,17.090,40.527,27.344,-0.977,1.465,0
1197.193,20.508,43.457,25.879,-0.488,15.625,0
1197.197,16.602,41.504,24.902,5.859,22.461,0
1197.201,8.789,38.086,24.902,5.859,34.668,0
1197.205,5.859,37.598,23.438,3.418,36.621,0
1197.209,15.137,36.133,24.902,1.953,18.066,0
1197.212,20.020,36.133,23.926,4.883,9.766,0
1197.216,13.672,36.133,25.391,10.254,29.297,0
1197.220,13.184,39.551,27.344,6.836,29.297,0
1197.224,19.531,40.039,26.855,-0.488,4.883,0
1197.228,15.137,35.645,25.391,0.000,5.859,0
1197.232,9.766,32.715,21.484,5.371,18.555,0
1197.236,8.301,32.715,23.926,1.465,35.645,0
1197.240,9.766,33.203,26.855,-3.418,28.809,0
1197.244,12.695,32.715,23.926,-5.371,21.484,0
1197.248,8.789,32.227,23.926,-0.977,24.902,0
1197.252,6.836,32.715,27.832,2.441,31.250,0
1197.255,7.324,32.715,26.367,-1.465,33.691,0
1197.259,11.719,32.227,24.414,-2.441,4.395,0
1197.263,11.719,28.320,26.367,-3.906,-0.977,0
1197.267,8.789,29.297,24.414,2.930,24.902,0
1197.271,13.672,35.645,23.926,10.742,28.809,0
1197.275,18.066,35.645,26.367,-0.977,2.441,0
1197.279,18.066,34.180,25.879,-0.488,-10.254,0
1197.283,10.742,33.691,25.879,6.348,27.344,0
1197.287,6.836,35.156,22.949,2.930,58.594,0
1197.291,12.695,35.645,21.973,-5.371,22.461,0
1197.295,16.602,36.133,24.414,0.000,-4.395,0
1197.298,13.672,38.086,22.949,13.672,-1.465,0
1197.302,13.672,39.062,21.973,13.184,-2.930,0
1197.306,18.555,38.086,22.949,9.277,-4.395,0
1197.310,14.648,39.062,23.438,3.906,0.977,0
1197.314,11.719,40.039,24.902,10.254,-2.930,0
1197.318,19.043,41.016,24.902,15.137,10.254,0
1197.322,19.043,39.551,22.461,9.766,3.906,0
1197.326,16.602,35.156,22.949,1.953,15.625,0
1197.330,11.719,32.715,24.414,0.000,35.645,0
1197.334,3.906,34.180,25.879,6.348,5.371,0
1197.337,6.836,31.250,26.367,1.953,-19.531,0
1197.341,16.113,29.785,22.461,-4.883,-30.273,0
1197.345,15.137,29.297,23.438,2.930,-17.090,0
1197.349,9.277,31.738,26.855,9.277,-3.906,0
1197.353,8.301,32.715,25.391,5.371,-27.832,0
1197.357,12.207,32.227,22.461,-0.488,-15.625,0
1197.361,14.648,32.227,22.461,-1.465,6.348,0
1197.365,14.648,34.668,23.438,6.348,7.812,0
1197.369,14.648,36.133,24.902,11.230,34.668,0
1197.373,14.160,32.715,27.832,3.906,34.180,0
1197.377,19.043,34.180,28.320,-7.324,19.043,0
1197.380,21.973,40.039,24.902,-7.812,23.438,0
1197.384,23.438,41.504,21.973,-10.742,30.273,0
1197.388,34.668,40.527,20.020,-18.555,41.016,0
1197.392,45.410,41.504,21.484,-19.531,29.785,0
1197.396,43.945,39.551,20.508,-11.719,23.926,0
1197.400,41.504,37.109,19.531,-8.301,31.250,0
1197.404,39.551,37.109,22.461,-8.301,34.668,0
1197.408,33.203,38.574,24.902,-6.348,18.066,0
1197.412,20.996,37.109,24.902,0.000,1.953,0
1197.416,9.766,35.156,21.973,7.324,28.809,0
1197.420,0.488,33.203,22.949,10.742,12.207,0
1197.423,0.488,31.738,24.414,2.930,-14.648,0
1197.427,3.906,34.180,21.973,-4.883,-16.113,0
1197.431,0.488,33.691,19.531,2.441,-2.441,0
1197.435,1.465,32.227,21.484,8.301,44.922,0
1197.439,12.695,34.180,25.879,6.348,40.039,0
1197.443,16.113,36.133,26.367,-2.930,-17.090,0
1197.447,9.277,35.156,23.438,-0.488,9.277,0
1197.451,3.906,35.156,24.414,7.324,16.602,0
1197.455,2.930,31.738,25.879,5.371,-2.441,0
1197.459,7.812,27.832,23.926,-1.465,-1.953,0
1197.462,12.207,30.762,22.461,1.953,-0.977,0
1197.466,6.348,30.762,22.461,6.836,18.066,0
1197.470,5.859,32.715,22.461,3.418,-11.719,0
1197.474,13.184,37.598,21.484,-4.395,-47.852,0
1197.478,9.277,35.156,21.973,-5.371,-8.301,0
1197.482,6.836,30.273,23.926,4.395,-9.277,0
1197.486,11.719,30.273,23.438,3.418,-15.137,0
1197.490,6.836,29.297,20.996,-4.395,0.488,0
1197.494,3.418,28.809,20.508,-10.254,13.184,0
1197.498,7.812,32.227,22.949,-7.324,46.875,0
1197.502,11.230,32.227,22.461,0.000,33.203,0
1197.505,14.648,30.273,22.461,0.977,4.395,0
1197.509,16.113,30.762,23.438,-5.371,7.812,0
1197.513,9.766,29.785,23.438,-0.488,12.695,0
1197.517,11.230,31.250,23.926,2.930,0.488,0
1197.521,14.648,30.273,23.438,-0.977,20.508,0
1197.525,13.184,29.297,26.855,-3.418,13.184,0
1197.529,13.184,29.297,23.926,-0.488,9.766,0
1197.533,10.742,27.344,21.484,3.906,32.227,0
1197.537,10.742,26.855,25.879,5.859,25.879,0
1197.541,14.648,29.785,25.391,-0.977,4.883,0
1197.545,12.695,29.785,24.902,-4.395,10.742,0
1197.548,12.207,31.250,24.902,5.371,28.320,0
1197.552,19.531,33.691,22.461,9.766,44.922,0
1197.556,21.484,33.691,23.438,5.859,38.086,0
1197.560,17.578,33.691,23.926,1.953,10.742,0
1197.564,11.719,35.645,23.438,8.301,35.645,0
1197.568,11.230,31.738,21.484,7.324,27.832,0
1197.572,13.672,28.809,21.484,1.465,3.418,0
1197.576,12.695,31.250,26.367,-5.859,-12.695,0
1197.580,14.160,32.227,25.391,-5.859,-12.207,0
1197.584,12.695,31.738,22.949,1.953,17.578,0
1197.587,6.348,31.250,26.367,-0.488,46.387,0
1197.591,8.301,33.691,24.414,-6.836,26.855,0
1197.595,15.137,32.715,24.902,-1.465,17.090,0
1197.599,14.648,31.738,22.949,7.324,40.527,0
1197.603,16.602,33.691,19.531,9.766,27.344,0
1197.607,19.531,34.180,24.414,1.953,18.066,0
1197.611,18.555,31.738,25.391,-6.836,20.020,0
1197.615,16.113,33.203,24.902,0.977,14.648,0
1197.619,20.020,37.109,26.855,6.348,8.301,0
1197.623,27.344,35.645,25.391,0.977,15.137,0
1197.627,27.832,34.180,23.438,-2.930,29.297,0
1197.630,29.785,38.574,24.902,4.395,21.973,0
1197.634,31.738,40.527,24.414,10.742,-0.977,0
1197.638,25.391,37.109,25.391,10.254,4.395,0
1197.642,23.438,36.133,26.367,6.348,3.418,0
1197.646,22.461,35.156,26.855,6.348,15.137,0
1197.650,18.066,36.133,26.367,13.184,33.203,0
1197.654,20.508,40.039,27.344,17.578,4.395,0
1197.658,18.066,37.598,29.297,10.254,-5.859,0
1197.662,13.672,37.109,24.902,7.324,5.371,0
1197.666,17.090,37.109,25.879,15.137,-9.277,0
1197.670,16.113,36.133,27.344,13.672,-24.902,0
1197.673,12.695,38.574,21.484,6.836,-6.348,0
1197.677,17.578,36.133,23.438,6.836,3.418,0
1197.681,21.973,35.156,26.855,12.695,6.348,0
1197.685,20.020,36.133,24.902,13.184,28.809,0
1197.689,17.578,34.668,24.414,8.789,9.277,0
1197.693,16.602,33.691,25.879,6.836,-20.996,0
1197.697,14.648,33.691,28.320,10.742,13.672,0
1197.701,9.277,36.621,29.297,12.695,35.156,0
1197.705,11.719,38.086,29.297,12.695,35.645,0
1197.709,14.648,34.668,29.297,5.859,53.223,0
1197.712,11.719,33.203,28.809,6.836,28.320,0
1197.716,14.648,36.133,27.832,15.137,36.133,0
1197.720,15.625,36.621,26.367,16.602,56.152,0
1197.724,13.672,35.156,24.902,11.719,26.367,0
1197.728,15.625,34.668,23.926,5.859,24.902,0
1197.732,13.672,31.738,23.926,10.254,55.176,0
1197.736,7.812,30.273,23.926,11.230,49.805,0
1197.740,14.648,33.691,23.926,8.789,16.113,0
1197.744,23.438,34.180,23.926,11.719,7.812,0
1197.748,18.555,32.227,25.391,15.625,22.949,0
1197.752,17.090,32.227,24.414,11.230,34.180,0
1197.755,20.508,33.203,25.879,5.371,37.109,0
1197.759,25.879,36.621,27.344,1.465,33.203,0
1197.763,20.508,37.598,28.320,6.348,46.387,0
1197.767,16.602,39.062,27.832,15.137,45.898,0
1197.771,21.973,42.480,30.273,15.137,27.832,0
1197.775,21.484,38.086,32.715,7.812,20.508,0
1197.779,16.602,36.621,27.832,9.277,25.391,0
1197.783,15.137,38.574,26.855,16.602,-5.859,0
1197.787,16.602,38.086,24.414,16.113,-0.488,0
1197.791,19.043,36.133,23.438,8.789,16.602,0
1197.795,13.672,35.645,27.344,5.371,26.855,0
1197.798,7.324,36.133,25.879,8.789,44.922,0
1197.802,11.719,40.039,26.855,10.254,41.016,0
1197.806,17.578,39.551,28.320,6.836,48.340,0
1197.810,18.555,35.156,25.391,1.465,15.137,0
1197.814,20.996,35.645,24.902,8.789,-2.441,0
1197.818,19.531,35.645,24.902,12.695,30.762,0
1197.822,15.625,35.156,24.414,6.348,48.340,0
1197.826,18.555,36.133,25.391,0.488,22.461,0
1197.830,19.043,35.645,26.367,4.883,9.766,0
1197.834,14.648,34.180,26.855,7.812,20.508,0
1197.837,11.230,34.668,25.879,2.930,35.156,0
1197.841,14.648,34.180,22.949,-4.395,12.695,0
1197.845,13.184,36.621,24.902,-4.395,-11.719,0
1197.849,19.043,36.133,28.320,10.254,11.230,0
1197.853,22.461,34.180,27.344,12.207,42.969,0
1197.857,19.531,37.598,28.320,2.930,24.414,0
1197.861,20.508,38.574,27.832,6.836,20.508,0
1197.865,20.996,38.086,25.879,13.184,55.176,0
1197.869,19.531,40.039,26.367,13.672,64.941,0
1197.873,19.531,41.992,27.344,8.789,48.828,0
1197.877,21.973,37.598,26.855,1.953,40.527,0
1197.880,19.531,38.086,28.320,6.836,59.082,0
1197.884,18.066,41.016,27.832,10.742,74.219,0
1197.888,20.508,38.086,26.855,7.324,55.664,0
1197.892,24.902,39.551,27.344,3.906,18.555,0
1197.896,20.020,36.133,23.926,2.930,9.766,0
1197.900,18.066,31.738,18.555,6.836,38.086,0
1197.904,18.066,35.156,20.020,6.836,59.570,0
1197.908,14.648,36.621,21.973,0.488,38.574,0
1197.912,11.719,33.691,22.949,-0.977,17.578,0
1197.916,18.066,33.691,22.949,2.930,22.461,0
1197.920,22.461,38.574,24.902,7.324,41.504,0
1197.923,16.602,35.645,26.855,3.906,48.340,0
1197.927,19.043,30.762,25.879,2.930,10.742,0
1197.931,18.066,33.203,24.414,9.766,15.625,0
1197.935,15.137,33.691,25.879,10.742,-4.883,0
1197.939,14.160,35.645,25.879,3.418,-31.738,0
1197.943,14.160,34.668,25.391,-0.488,-20.996,0
1197.947,9.277,36.133,25.879,6.836,-25.391,0
1197.951,11.230,39.062,26.367,12.695,-38.574,0
1197.955,16.113,39.062,27.344,13.672,-30.273,0
1197.959,19.531,36.133,25.391,3.418,-5.371,0
1197.962,19.043,36.133,23.438,5.859,-31.738,0
1197.966,12.207,38.574,26.367,14.160,-34.668,0
1197.970,9.766,35.156,26.855,7.324,-1.465,0
1197.974,15.137,35.645,27.832,3.906,-2.441,0
1197.978,17.578,38.086,29.785,6.836,-1.465,0
1197.982,10.742,40.039,30.273,11.230,-8.301,0
1197.986,9.277,37.109,29.297,9.766,3.906,0
1197.990,14.160,33.203,26.367,7.324,3.906,0
1197.994,16.113,32.715,23.926,7.812,2.930,0
1197.998,11.719,32.227,23.438,5.371,0.977,0
1198.002,9.277,34.180,24.414,3.906,-19.043,0
1198.005,11.719,32.227,20.508,-2.930,-12.207,0
1198.009,13.672,34.180,23.438,-8.301,-33.691,0
1198.013,15.137,37.109,27.344,-0.488,-53.223,0
1198.017,18.555,37.598,21.484,0.000,-37.598,0
1198.021,13.184,35.156,20.996,1.953,0.000,0
1198.025,9.766,34.180,23.438,-6.836,4.395,0
1198.029,12.695,37.109,21.973,-8.789,-6.836,0
1198.033,14.160,34.180,20.508,4.395,-4.883,0
1198.037,10.254,33.691,20.996,3.418,6.348,0
1198.041,11.230,38.574,22.949,-3.906,-8.789,0
1198.045,19.043,36.133,24.902,-0.977,-11.230,0
1198.048,16.113,30.762,23.438,5.859,9.766,0
1198.052,15.137,32.227,23.438,9.766,30.762,0
1198.056,18.555,31.738,21.973,2.930,33.203,0
1198.060,16.113,29.785,23.438,-7.324,22.461,0
1198.064,15.625,34.180,24.414,2.441,37.109,0
1198.068,18.555,36.621,22.949,6.836,28.809,0
1198.072,14.160,33.203,23.926,2.930,15.625,0
1198.076,12.207,31.738,26.367,-0.488,26.855,0
1198.080,15.137,34.668,26.855,0.977,51.270,0
1198.084,14.648,36.621,27.832,3.418,51.270,0
1198.087,14.160,37.598,29.297,5.859,36.621,0
1198.091,19.043,35.156,28.320,3.418,18.066,0
1198.095,17.090,32.227,28.320,4.395,9.277,0
1198.099,9.766,33.691,28.809,8.789,15.137,0
1198.103,9.277,35.645,27.344,3.906,29.297,0
1198.107,10.254,37.598,26.367,-5.859,22.949,0
1198.111,13.184,39.062,24.414,-9.766,22.461,0
1198.115,15.137,37.598,21.973,0.000,34.180,0
1198.119,11.719,34.180,22.461,3.418,25.879,0
1198.123,16.113,32.227,24.902,0.000,29.297,0
1198.127,19.531,33.691,25.879,0.000,22.461,0
1198.130,13.672,34.180,25.879,5.371,-11.230,0
1198.134,13.672,37.598,23.438,8.789,6.836,0
1198.138,19.531,38.086,23.926,6.836,10.254,0
1198.142,23.438,35.156,21.484,-3.418,-27.832,0
1198.146,17.090,32.715,20.020,-6.348,-16.602,0
1198.150,13.672,31.250,22.949,1.465,6.348,0
1198.154,17.090,29.785,21.973,-0.488,4.883,0
1198.158,22.949,32.715,21.484,-6.348,-12.207,0
1198.162,23.438,35.645,22.461,0.000,-8.301,0
1198.166,15.625,34.180,24.414,7.812,10.254,0
1198.170,17.578,35.156,26.367,11.230,10.742,0
1198.173,20.020,35.645,23.926,3.906,42.969,0
1198.177,18.555,34.180,20.996,-5.859,41.992,0
1198.181,14.648,30.762,22.461,3.418,32.227,0
1198.185,10.254,32.227,23.926,5.859,41.992,0
1198.189,11.230,34.180,27.344,1.953,18.066,0
1198.193,18.555,30.273,26.855,1.465,19.531,0
1198.197,21.484,28.809,22.461,7.812,33.203,0
1198.201,22.949,30.762,26.855,17.090,25.879,0
1198.205,20.508,33.691,29.785,16.113,26.855,0
1198.209,17.090,34.180,26.367,2.441,7.324,0
1198.212,11.230,35.156,24.902,0.000,21.973,0
1198.216,9.766,34.668,25.391,8.301,47.852,0
1198.220,11.719,32.227,25.879,8.301,25.391,0
1198.224,10.254,33.203,26.855,-2.441,-4.395,0
1198.228,7.812,31.250,26.367,0.977,8.301,0
1198.232,2.930,29.785,27.832,14.648,32.715,0
1198.236,4.395,30.762,30.273,15.625,20.508,0
1198.240,13.672,31.738,27.832,7.812,55.664,0
1198.244,11.719,31.250,26.855,-1.465,55.176,0
1198.248,12.207,31.250,25.391,3.906,18.066,0
1198.252,24.902,32.715,23.926,4.395,26.855,0
1198.255,38.086,38.086,21.973,-4.883,15.137,0
1198.259,48.828,41.016,20.020,-12.207,17.578,0
1198.263,52.734,40.039,21.973,-10.254,15.625,0
1198.267,53.223,40.039,22.461,-9.766,9.766,0
1198.271,50.293,39.062,19.043,-11.230,25.391,0
1198.275,37.109,36.133,18.555,-4.883,30.273,0
1198.279,24.902,35.645,23.926,0.000,17.090,0
1198.283,23.926,36.621,26.855,13.672,41.016,0
1198.287,16.113,36.133,22.949,21.484,92.773,0
1198.291,8.301,35.156,23.438,11.719,71.289,0
1198.295,9.766,35.645,26.367,11.719,18.066,0
1198.298,12.207,32.227,28.320,18.066,39.062,0
1198.302,7.324,29.785,24.902,12.695,41.016,0
1198.306,1.953,31.738,22.949,5.859,5.371,0
1198.310,3.906,31.250,25.879,-2.441,-10.254,0
1198.314,2.441,32.227,26.367,2.930,-13.672,0
1198.318,0.977,33.203,25.879,15.137,20.020,0
1198.322,5.859,32.227,22.949,13.184,18.066,0
1198.326,8.301,27.832,22.461,-1.953,2.441,0
1198.330,3.906,26.367,25.879,-1.953,-2.441,0
1198.334,1.465,27.344,23.438,8.789,14.160,0
1198.337,3.418,26.367,20.508,6.348,23.926,0
1198.341,9.277,26.855,19.043,-6.836,12.695,0
1198.345,6.348,28.809,18.066,-3.906,9.277,0
1198.349,3.418,31.250,21.484,6.836,26.855,0
1198.353,5.371,31.250,20.508,2.441,43.945,0
1198.357,7.324,30.273,19.043,-3.906,46.875,0
1198.361,10.254,28.320,20.020,-4.395,52.246,0
1198.365,8.789,28.809,20.508,5.859,57.129,0
1198.369,13.184,32.227,22.461,11.719,47.363,0
1198.373,14.160,31.250,23.438,2.930,16.113,0
1198.377,14.648,28.320,22.461,-3.418,25.879,0
1198.380,11.230,28.320,22.949,4.395,48.828,0
1198.384,8.301,30.762,22.949,6.836,27.832,0
1198.388,8.301,31.250,23.926,0.488,26.367,0
1198.392,5.371,29.297,21.484,-5.371,33.691,0
1198.396,6.836,32.227,18.555,-0.488,41.992,0
1198.400,7.324,32.227,16.113,2.441,42.480,0
1198.404,6.836,32.715,16.602,2.930,26.855,0
1198.408,12.207,33.203,22.949,1.953,40.527,0
1198.412,14.648,34.180,23.438,4.883,22.949,0
1198.416,12.207,38.086,19.531,11.230,21.973,0
1198.420,11.230,38.574,20.508,8.301,21.484,0
1198.423,17.578,36.621,23.438,7.324,7.812,0
1198.427,20.996,38.086,21.973,5.859,27.832,0
1198.431,16.113,37.109,19.531,5.859,37.598,0
1198.435,11.719,32.715,19.531,7.812,44.922,0
1198.439,11.230,32.227,19.043,2.441,37.598,0
1198.443,16.602,34.668,20.996,-1.953,34.668,0
1198.447,15.625,36.133,23.926,2.441,52.246,0
1198.451,11.230,35.645,23.438,3.418,41.992,0
1198.455,15.137,36.133,22.949,3.906,47.852,0
1198.459,24.414,35.156,22.461,0.488,41.504,0
1198.462,23.438,33.691,20.996,-2.441,20.508,0
1198.466,18.066,33.203,21.484,1.465,76.660,0
1198.470,13.184,35.645,22.949,5.859,80.566,0
1198.474,14.648,36.133,21.973,-2.930,54.199,0
1198.478,16.113,33.691,20.996,-7.812,30.762,0
1198.482,15.625,33.691,23.438,-0.488,34.180,0
1198.486,18.555,33.203,21.484,-0.488,78.125,0
1198.490,18.066,30.762,18.066,-2.930,44.922,0
1198.494,16.113,28.809,19.043,-8.301,5.371,0
1198.498,9.766,31.250,18.555,-6.348,41.016,0
1198.502,6.348,33.203,19.531,-2.441,68.359,0
1198.505,9.277,31.738,21.484,-6.836,40.039,0
1198.509,10.742,33.203,20.996,-15.137,21.484,0
1198.513,12.207,35.156,21.484,-11.230,42.969,0
1198.517,11.719,33.203,22.949,-3.906,44.434,0
1198.521,17.090,34.180,22.949,-4.395,25.391,0
1198.525,18.555,35.645,20.508,-14.160,5.371,0
1198.529,15.137,33.203,20.508,-11.719,21.484,0
1198.533,10.742,34.668,20.996,0.977,18.066,0
1198.537,12.695,34.180,19.531,5.371,-14.648,0
1198.541,14.160,29.785,18.066,-2.930,0.000,0
1198.545,11.719,32.227,16.602,-6.348,7.324,0
1198.548,8.301,33.691,17.578,-1.953,18.066,0
1198.552,2.441,33.203,20.020,-5.859,-0.977,0
1198.556,3.906,32.227,20.508,-4.395,-11.230,0
1198.560,8.301,30.762,22.949,-3.418,13.184,0
1198.564,3.906,30.273,21.484,0.977,12.207,0
1198.568,7.324,28.320,20.508,3.906,10.254,0
1198.572,15.625,30.273,22.949,0.000,24.902,0
1198.576,12.207,32.715,21.484,1.465,20.020,0
1198.580,7.812,32.227,20.508,5.371,27.344,0
1198.584,4.883,27.832,23.438,8.789,36.621,0
1198.587,3.906,27.344,24.414,8.789,19.043,0
1198.591,11.230,29.785,23.438,0.977,5.859,0
1198.595,14.160,31.738,26.367,0.977,-8.789,0
1198.599,10.254,32.227,26.855,2.930,-25.391,0
1198.603,9.277,31.738,24.902,6.348,-8.789,0
1198.607,10.254,31.738,24.414,0.977,-10.742,0
1198.611,12.695,32.715,25.391,-3.906,-21.973,0
1198.615,10.254,35.156,25.391,4.883,-2.441,0
1198.619,9.766,33.691,23.438,6.348,0.488,0
1198.623,17.090,32.227,24.414,-0.488,-27.344,0
1198.627,14.160,38.086,27.344,-6.348,-46.387,0
1198.630,4.883,37.109,25.391,-4.395,-17.578,0
1198.634,6.348,31.738,23.438,0.000,16.602,0
1198.638,14.160,32.715,22.461,1.953,-1.465,0
1198.642,16.602,35.156,21.973,-7.324,-20.020,0
1198.646,14.648,35.645,20.508,-6.348,6.836,0
1198.650,13.184,36.133,19.531,3.418,51.270,0
1198.654,8.301,34.180,20.508,2.441,36.133,0
1198.658,14.648,35.645,20.996,-1.465,14.160,0
1198.662,18.555,36.133,22.461,-1.465,28.320,0
1198.666,11.230,33.691,23.926,4.395,18.555,0
1198.670,10.254,32.715,23.926,5.859,18.066,0
1198.673,9.277,31.250,22.949,-1.953,30.273,0
1198.677,8.789,32.715,23.438,-2.930,18.555,0
1198.681,10.742,32.227,22.949,7.324,22.949,0
1198.685,13.184,29.297,24.902,5.371,35.156,0
1198.689,14.160,30.762,27.832,3.906,27.344,0
1198.693,14.648,33.691,24.902,5.371,35.156,0
1198.697,12.695,33.203,24.902,9.277,26.855,0
1198.701,6.836,29.785,28.809,5.371,23.438,0
1198.705,3.906,28.809,27.832,3.418,16.113,0
1198.709,3.418,30.273,22.949,1.953,16.113,0
1198.712,0.000,28.320,22.949,-0.977,14.648,0
1198.716,-3.906,24.902,24.902,4.883,20.020,0
1198.720,1.953,27.344,23.926,3.418,24.902,0
1198.724,5.859,31.250,24.902,-4.883,10.742,0
1198.728,6.348,32.715,26.367,0.977,-1.953,0
1198.732,4.395,33.691,27.832,6.348,14.648,0
1198.736,5.859,32.715,31.250,7.812,9.277,0
1198.740,12.695,32.715,29.297,7.324,5.859,0
1198.744,10.254,34.668,28.809,-0.488,6.348,0
1198.748,9.766,31.738,31.738,7.812,-7.812,0
1198.752,14.648,31.250,27.832,13.672,7.812,0
1198.755,16.602,35.156,24.414,9.277,38.086,0
1198.759,15.137,36.133,23.926,0.488,51.758,0
1198.763,16.602,33.691,25.879,-0.977,19.043,0
1198.767,15.137,32.715,25.879,11.230,11.230,0
1198.771,16.602,32.227,23.438,12.695,27.832,0
1198.775,20.020,32.715,21.973,2.441,10.742,0
1198.779,15.625,33.691,22.461,1.953,1.465,0
1198.783,15.625,35.156,24.902,13.184,-2.441,0
1198.787,16.113,37.598,26.367,14.160,-11.230,0
1198.791,14.648,36.133,25.391,2.441,-25.391,0
1198.795,12.207,34.668,23.438,-6.348,-2.441,0
1198.798,11.230,34.668,22.461,2.441,49.316,0
1198.802,17.578,35.645,25.879,11.230,44.434,0
1198.806,21.484,33.691,25.391,6.836,20.508,0
1198.810,15.625,33.203,22.949,1.465,28.809,0
1198.814,11.230,32.715,28.320,0.977,52.246,0
1198.818,8.301,30.273,26.855,5.371,41.992,0
1198.822,10.254,31.738,22.461,2.930,18.066,0
1198.826,11.719,30.762,23.926,-5.371,-11.230,0
1198.830,10.742,27.832,24.902,2.930,5.371,0
1198.834,12.695,29.297,22.949,7.812,23.926,0
1198.837,9.277,30.273,22.949,2.441,-18.555,0
1198.841,13.672,32.715,24.902,-4.883,-0.977,0
1198.845,20.508,34.668,25.879,-0.977,48.828,0
1198.849,18.066,30.762,24.902,6.348,35.645,0
1198.853,16.113,28.809,25.391,5.859,25.391,0
1198.857,16.602,29.297,24.902,0.977,21.973,0
1198.861,15.137,31.738,23.438,-2.930,10.254,0
1198.865,12.695,34.180,26.855,2.930,2.441,0
1198.869,8.789,35.156,26.367,4.395,-3.418,0
1198.873,8.789,33.691,26.367,-1.465,-5.859,0
1198.877,15.625,32.715,27.832,-3.418,8.789,0
1198.880,14.648,33.691,26.855,0.488,-5.859,0
1198.884,17.090,33.691,27.832,4.883,4.395,0
1198.888,20.020,32.715,29.297,0.977,65.918,0
1198.892,22.461,34.668,27.832,-2.441,61.035,0
1198.896,21.973,36.621,26.855,0.488,23.926,0
1198.900,16.113,35.645,29.297,1.465,28.809,0
1198.904,15.625,34.180,28.809,3.906,47.363,0
1198.908,18.555,32.227,26.855,-3.906,41.992,0
1198.912,17.578,31.738,25.879,-1.465,53.223,0
1198.916,13.672,33.203,24.902,4.883,58.105,0
1198.920,14.160,36.621,24.414,3.906,55.176,0
1198.923,19.043,40.039,26.855,2.441,66.895,0
1198.927,15.625,37.109,25.879,-5.371,10.254,0
1198.931,10.742,33.691,24.414,0.488,8.789,0
1198.935,15.625,34.180,24.902,9.277,48.340,0
1198.939,16.113,34.180,27.344,4.395,32.227,0
1198.943,16.602,33.691,28.809,-2.441,28.320,0
1198.947,13.672,33.203,27.344,-0.488,21.484,0
1198.951,10.254,34.668,26.855,2.441,9.277,0
1198.955,12.695,33.691,26.367,-0.977,7.324,0
1198.959,11.230,33.691,24.414,-2.441,5.371,0
1198.962,11.230,36.621,24.414,-3.418,5.859,0
1198.966,12.695,36.621,25.879,1.465,31.738,0
1198.970,15.137,37.109,26.855,4.395,14.160,0
1198.974,18.066,40.039,24.414,-5.371,-9.277,0
1198.978,16.113,37.598,20.508,-3.906,16.113,0
1198.982,13.672,34.180,22.949,-0.977,20.996,0
1198.986,15.137,33.691,23.926,-2.441,29.785,0
1198.990,16.602,36.133,22.949,-5.371,36.621,0
1198.994,15.625,36.133,20.508,-9.766,27.344,0
1198.998,9.766,34.180,23.438,-0.977,43.457,0
1199.002,6.836,34.668,25.391,3.418,42.969,0
1199.005,8.301,35.645,21.973,-2.441,24.414,0
1199.009,9.766,32.227,20.508,-6.348,19.043,0
1199.013,14.648,32.715,21.484,7.812,6.348,0
1199.017,15.625,35.156,23.438,12.207,-1.953,0
1199.021,14.648,33.203,24.902,6.348,-14.160,0
1199.025,15.137,35.156,28.809,6.348,-26.367,0
1199.029,8.789,32.227,27.832,10.742,-14.160,0
1199.033,5.371,31.250,22.461,11.719,-4.883,0
1199.037,6.836,31.738,20.508,7.324,33.691,0
1199.041,7.324,30.273,19.531,-1.465,33.203,0
1199.045,3.418,27.832,18.555,-5.371,0.488,0
1199.048,2.441,30.762,20.020,3.418,13.672,0
1199.052,8.789,33.203,21.973,4.883,20.996,0
1199.056,16.113,33.691,25.879,-0.488,20.996,0
1199.060,17.090,34.668,25.391,-8.789,-19.043,0
1199.064,12.207,32.227,19.043,-4.883,-25.879,0
1199.068,9.766,30.762,18.555,-0.977,22.461,0
1199.072,11.719,29.785,19.531,0.000,27.344,0
1199.076,13.672,27.832,19.043,-4.395,21.973,0
1199.080,7.812,27.832,18.555,-10.742,8.789,0
1199.084,10.742,29.785,19.531,-2.441,18.555,0
1199.087,15.137,32.227,21.973,7.812,29.785,0
1199.091,13.184,33.691,21.973,-0.977,4.883,0
1199.095,17.090,34.180,21.973,-0.977,21.973,0
1199.099,20.020,32.715,23.438,5.859,39.551,0
1199.103,23.926,32.227,22.461,-0.977,26.855,0
1199.107,33.691,36.133,23.926,-9.766,10.254,0
1199.111,41.992,35.645,24.414,-15.137,0.977,0
1199.115,45.898,35.156,21.484,-14.648,43.945,0
1199.119,43.457,33.691,18.066,-12.207,47.363,0
1199.123,38.574,31.250,20.508,-18.555,31.738,0
1199.127,30.762,31.250,23.438,-16.113,36.133,0
1199.130,16.602,31.250,20.508,-4.395,7.812,0
1199.134,6.836,30.762,20.508,0.488,0.488,0
1199.138,0.977,29.785,22.949,2.441,13.184,0
1199.142,3.418,32.715,24.902,-2.441,6.348,0
1199.146,5.371,33.691,25.391,1.953,14.648,0
1199.150,-0.977,34.668,27.832,9.277,-11.719,0
1199.154,-2.441,36.621,27.832,6.836,6.836,0
1199.158,-5.859,31.250,24.902,-7.812,33.203,0
1199.162,-6.348,27.832,22.949,-11.230,9.766,0
1199.166,-2.930,32.715,23.438,0.000,-9.766,0
1199.170,1.953,35.645,23.438,0.977,-3.418,0
1199.173,6.348,33.691,24.414,-4.395,18.066,0
1199.177,4.883,32.227,25.391,-5.859,-0.488,0
1199.181,0.000,33.691,23.926,-4.395,0.977,0
1199.185,3.906,37.109,23.926,-0.488,19.531,0
1199.189,8.301,39.551,25.879,0.000,41.016,0
1199.193,6.836,35.645,24.902,-3.906,20.996,0
1199.197,3.418,31.738,23.926,0.488,5.859,0
1199.201,2.930,29.785,21.484,1.465,19.531,0
1199.205,8.789,29.297,16.602,-2.930,17.090,0
1199.209,5.859,29.785,15.625,-7.812,15.137,0
1199.212,1.953,31.738,18.555,-3.418,-20.508,0
1199.216,1.465,32.227,20.020,3.906,-20.996,0
1199.220,0.000,31.250,20.508,5.371,17.578,0
1199.224,3.906,31.738,20.996,-0.977,32.227,0
1199.228,4.395,29.297,22.949,0.977,15.137,0
1199.232,2.441,28.320,20.996,5.859,12.207,0
1199.236,2.441,28.809,17.090,-0.488,16.602,0
1199.240,2.930,31.250,18.555,-7.812,9.277,0
1199.244,5.859,31.250,20.508,-10.254,-5.371,0
1199.248,9.277,29.785,19.043,0.488,-12.207,0
1199.252,12.695,32.227,18.555,9.766,-13.184,0
1199.255,16.602,30.762,19.531,3.418,-26.855,0
1199.259,20.996,30.273,20.508,-3.906,-41.504,0
1199.263,21.973,35.156,20.996,0.488,-14.160,0
1199.267,31.738,38.574,19.043,16.602,29.297,0
1199.271,39.551,39.551,20.020,26.367,33.203,0
1199.275,22.949,39.062,21.973,0.977,16.602,0
1199.279,6.836,39.551,27.832,-10.742,22.461,0
1199.283,16.602,42.969,32.227,2.930,18.555,0
1199.287,23.926,44.922,31.250,12.207,-5.859,0
1199.291,19.531,44.922,29.785,7.812,3.418,0
1199.295,15.625,43.945,26.367,1.465,15.137,0
1199.298,18.066,42.969,26.855,11.719,13.184,0
1199.302,15.625,45.898,27.344,8.789,5.371,0
1199.306,9.277,43.945,27.344,1.465,-12.695,0
1199.310,10.254,43.457,30.273,2.930,-1.465,0
1199.314,7.812,46.875,29.785,1.953,7.324,0
1199.318,11.230,44.922,26.855,2.930,5.371,0
1199.322,13.672,43.457,24.414,0.000,15.137,0
1199.326,17.578,47.852,23.926,-3.906,26.367,0
1199.330,17.578,46.387,25.391,1.465,21.973,0
1199.334,12.207,43.457,26.367,3.418,25.391,0
1199.337,14.648,44.434,26.855,2.930,20.508,0
1199.341,24.414,43.945,24.414,-5.859,34.668,0
1199.345,24.414,41.504,24.414,-3.906,3.418,0
1199.349,13.184,39.062,26.855,9.766,-19.043,0
1199.353,11.719,38.086,26.367,9.277,40.039,0
1199.357,18.555,41.016,28.320,4.395,36.621,0
1199.361,18.066,41.992,27.832,4.395,20.996,0
1199.365,17.090,40.527,25.879,13.672,22.949,0
1199.369,20.508,39.062,24.902,17.090,11.230,0
1199.373,15.137,36.621,26.367,8.301,18.066,0
1199.377,19.043,36.621,30.273,3.418,18.066,0
1199.380,21.973,40.039,27.344,7.812,38.086,0
1199.384,16.602,39.551,27.832,10.742,51.758,0
1199.388,18.066,38.086,29.785,10.742,45.898,0
1199.392,20.508,37.109,28.809,7.812,56.641,0
1199.396,17.090,36.621,26.367,3.906,54.199,0
1199.400,11.719,37.109,25.391,8.301,52.246,2
1199.404,11.230,40.527,23.926,10.254,81.543,0
1199.408,15.137,43.457,21.484,2.930,63.477,0
1199.412,16.602,42.480,23.438,1.953,49.316,0
1199.416,14.160,39.551,26.367,11.719,45.898,0
1199.420,9.766,38.086,25.391,13.672,29.297,0
1199.423,12.207,38.574,26.367,5.371,43.457,0
1199.427,14.648,37.598,28.320,0.000,32.715,0
1199.431,13.184,38.086,27.344,3.906,2.930,0
1199.435,11.230,40.527,25.879,4.883,8.789,0
1199.439,8.789,39.551,28.320,2.441,26.855,0
1199.443,12.695,41.016,28.809,-3.906,20.996,0
1199.447,11.230,43.945,27.344,-0.977,22.461,0
1199.451,8.301,42.480,28.320,-0.488,8.301,0
1199.455,12.207,42.480,28.320,-3.906,7.324,0
1199.459,15.137,43.945,27.344,-2.441,12.207,0
1199.462,14.160,42.480,27.832,0.000,4.883,0
1199.466,11.719,39.062,26.855,8.789,-1.953,0
1199.470,9.766,40.039,25.391,6.348,-3.906,0
1199.474,16.602,41.992,27.344,-1.465,-1.465,0
1199.478,16.602,41.504,28.809,1.953,-20.508,0
1199.482,9.766,41.504,24.414,5.371,-29.297,0
1199.486,9.766,42.480,23.438,5.371,6.348,0
1199.490,13.184,42.480,27.832,1.465,29.297,0
1199.494,19.043,40.527,28.809,-3.906,0.000,0
1199.498,12.695,41.504,25.879,3.906,11.230,0
1199.502,10.742,42.480,22.461,6.836,5.371,0
1199.505,16.602,39.062,25.391,0.488,-11.719,0
1199.509,19.531,39.062,25.879,-3.906,-25.879,0
1199.513,16.113,41.504,23.438,-1.465,-25.391,0
1199.517,14.648,41.992,23.438,-0.488,1.465,0
1199.521,20.996,38.086,23.438,0.000,11.719,0
1199.525,21.973,36.133,24.902,-6.348,-10.742,0
1199.529,16.602,37.598,24.414,-7.324,-19.043,0
1199.533,12.695,37.598,22.949,4.395,20.508,0
1199.537,20.508,39.062,27.344,7.324,46.875,0
1199.541,20.996,41.504,29.297,-3.418,48.828,0
1199.545,14.160,40.527,25.879,-7.324,23.926,0
1199.548,9.766,37.598,25.879,2.441,12.695,0
1199.552,6.836,38.574,26.367,4.883,24.902,0
1199.556,7.812,37.598,23.438,-0.488,26.367,0
1199.560,14.648,39.551,26.855,0.488,31.250,0
1199.564,18.555,41.016,27.832,10.254,33.691,0
1199.568,20.020,36.621,26.367,9.766,16.602,0
1199.572,16.113,33.691,27.832,4.883,7.812,0
1199.576,13.672,35.156,28.320,-1.465,15.137,0
1199.580,14.648,33.203,28.320,4.395,19.043,0
1199.584,10.254,33.203,27.832,12.695,13.672,0
1199.587,13.672,36.133,28.320,5.371,6.348,0
1199.591,13.672,34.180,28.809,-4.395,23.438,0
1199.595,10.254,32.715,27.344,-0.977,42.969,0
1199.599,5.371,31.250,28.320,5.371,45.410,0
1199.603,2.930,30.273,26.855,3.418,39.062,0
1199.607,10.254,33.203,26.855,3.906,29.297,0
1199.611,16.602,37.109,26.367,0.000,48.828,0
1199.615,21.973,37.109,25.879,1.465,63.965,0
1199.619,17.578,34.668,28.809,7.812,21.484,0
1199.623,16.602,35.645,28.809,5.859,10.254,0
1199.627,22.949,37.598,27.344,-2.441,5.859,0
1199.630,16.602,35.156,28.809,0.000,-12.207,0
1199.634,16.602,35.645,29.785,9.277,6.348,0
1199.638,15.625,37.598,28.809,7.324,19.043,0
1199.642,10.742,37.109,27.832,-3.418,16.113,0
1199.646,9.277,33.691,25.879,-5.859,21.973,0
1199.650,2.441,30.762,25.391,-7.324,23.926,0
1199.654,0.977,33.203,26.367,-4.395,23.926,0
1199.658,5.371,32.227,23.926,-13.672,-0.977,0
1199.662,8.789,33.691,23.438,-12.207,-24.414,0
1199.666,8.789,35.645,25.391,8.301,-13.184,0
1199.670,12.207,35.645,27.832,7.812,-10.254,0
1199.673,11.719,33.691,25.879,-0.977,-10.742,0
1199.677,9.277,30.273,21.973,-4.883,-27.832,0
1199.681,8.301,32.715,25.391,-1.953,-15.137,0
1199.685,7.324,35.156,26.855,0.977,13.184,0
1199.689,10.742,33.691,25.879,3.906,-2.930,0
1199.693,9.766,36.133,23.926,-0.488,-17.578,0
1199.697,12.695,39.062,24.902,-2.441,4.395,0
1199.701,16.113,36.133,27.344,6.836,14.648,0
1199.705,13.672,32.227,21.484,6.836,14.160,0
1199.709,20.996,33.203,21.484,-0.977,4.883,0
1199.712,24.902,38.086,23.438,3.418,4.883,0
1199.716,21.973,40.039,22.949,15.137,30.762,0
1199.720,23.926,38.086,23.926,14.648,27.832,0
1199.724,26.855,36.133,23.438,5.859,-5.371,0
1199.728,24.414,34.668,21.973,6.836,-3.418,0
1199.732,18.555,33.691,20.020,14.648,29.297,0
1199.736,15.625,35.156,20.508,13.184,46.387,0
1199.740,17.578,34.668,20.996,0.488,36.133,0
1199.744,20.996,33.203,20.508,-6.836,33.203,0
1199.748,19.531,34.668,20.508,0.488,26.367,0
1199.752,18.066,37.109,21.973,7.812,28.320,0
1199.755,21.484,37.598,22.461,4.395,31.738,0
1199.759,19.043,36.621,20.020,-2.441,36.621,0
1199.763,16.602,37.109,20.020,0.977,58.105,0
1199.767,16.113,36.621,20.996,6.836,38.574,0
1199.771,15.625,35.645,19.043,2.441,24.414,0
1199.775,18.555,37.109,16.113,-5.859,30.762,0
1199.779,12.207,35.156,17.090,-5.371,0.977,0
1199.783,10.254,33.203,19.531,0.000,9.766,0
1199.787,17.578,33.691,18.066,1.953,24.902,0
1199.791,23.438,35.645,18.066,-6.348,-6.836,0
1199.795,20.020,35.156,20.020,-11.230,-3.906,0
1199.798,13.672,34.668,17.578,0.488,20.020,0
1199.802,16.602,35.645,17.090,4.395,43.457,0
1199.806,22.949,36.133,19.043,0.000,25.879,0
1199.810,24.414,37.109,19.531,-1.465,-5.859,0
1199.814,20.508,35.645,21.973,-1.953,12.695,0
1199.818,15.625,34.180,23.926,1.465,26.855,0
1199.822,9.766,34.180,22.949,0.977,15.625,0
1199.826,12.695,32.715,20.020,-5.371,35.645,0
1199.830,16.113,34.180,19.043,-1.953,63.965,0
1199.834,16.113,38.574,20.996,3.906,55.664,0
1199.837,18.066,37.109,23.438,1.465,35.645,0
1199.841,20.508,34.668,25.879,-1.953,2.441,0
1199.845,19.531,36.133,23.438,0.000,11.230,0
1199.849,15.137,40.527,22.461,5.859,30.762,0
1199.853,15.625,37.598,25.391,7.324,25.879,0
1199.857,19.043,33.691,25.879,2.930,42.480,0
1199.861,20.508,34.180,27.832,6.348,42.969,0
1199.865,19.531,35.156,24.414,12.695,59.570,0
1199.869,14.648,36.621,22.949,13.184,73.730,0
1199.873,15.137,37.598,25.391,11.719,22.461,0
1199.877,19.043,39.062,27.344,5.859,8.789,0
1199.880,16.602,38.086,27.832,9.277,61.523,0
1199.884,15.625,33.691,25.879,13.672,61.523,0
1199.888,14.160,32.227,25.879,12.695,35.156,0
1199.892,21.484,35.645,25.879,9.277,42.969,0
1199.896,26.367,34.668,26.855,11.719,43.945,0
1199.900,19.043,34.180,25.879,16.113,35.645,0
1199.904,9.766,37.598,22.461,11.719,26.367,0
1199.908,14.160,38.574,25.391,4.883,12.207,0
1199.912,17.578,40.039,28.320,5.371,17.090,0
1199.916,13.672,37.109,23.438,11.230,56.152,0
1199.920,9.766,33.203,23.438,15.137,80.078,0
1199.923,9.277,31.738,23.926,10.254,56.641,0
1199.927,13.672,30.762,22.461,5.371,27.832,0
1199.931,13.672,32.715,25.879,13.672,39.062,0
1199.935,17.090,36.133,25.391,13.184,54.688,0
1199.939,23.926,37.598,23.926,0.977,63.477,0
1199.943,33.691,40.039,28.320,-6.348,52.734,0
1199.947,37.109,42.480,27.832,-3.418,32.227,0
1199.951,36.133,43.457,19.531,-1.465,23.926,0
1199.955,42.480,42.969,18.066,-2.441,20.996,0
1199.959,52.246,41.992,20.996,-13.184,33.203,0
1199.962,49.316,43.457,20.508,-18.066,13.184,0
1199.966,35.645,41.992,21.484,3.418,10.742,0
1199.970,28.320,40.039,24.414,9.766,54.199,0
1199.974,17.090,41.016,26.855,3.906,41.992,0
1199.978,7.324,38.574,30.273,2.930,19.531,0
1199.982,6.348,38.574,26.855,2.441,27.344,0
1199.986,6.348,38.086,21.973,0.977,35.156,0
1199.990,3.418,34.180,22.949,-2.930,29.297,0
1199.994,1.465,36.133,24.902,-1.953,-8.789,0
1199.998,0.000,37.109,25.391,4.883,-6.836,0
1200.002,0.488,37.598,21.484,9.277,21.973,0
1200.005,5.859,40.039,22.949,6.348,12.695,0
1200.009,7.812,41.504,26.855,-2.441,-5.371,0
1200.013,6.348,40.527,25.391,5.859,13.184,0
1200.017,8.789,38.086,24.414,14.648,26.855,0
1200.021,8.789,37.598,22.949,11.719,20.020,0
1200.025,11.230,35.156,22.949,7.324,14.648,0
1200.029,9.277,33.691,21.484,1.465,23.926,0
1200.033,12.695,37.598,23.926,-0.488,50.293,0
1200.037,16.602,39.062,25.391,4.883,50.781,0
1200.041,7.324,33.691,21.973,-3.418,16.113,0
1200.045,7.324,33.203,20.996,-5.859,8.301,0
1200.048,12.695,34.668,21.973,6.836,33.203,0
1200.052,9.277,34.668,23.926,9.277,-4.883,0
1200.056,10.742,35.156,22.949,1.953,-16.602,0
1200.060,19.531,38.574,21.973,3.418,-15.625,0
1200.064,15.625,39.062,22.461,9.766,-25.879,0
1200.068,15.625,38.574,23.926,12.207,5.371,0
1200.072,16.113,36.133,23.438,8.789,16.113,0
1200.076,13.184,34.668,22.461,3.906,5.371,0
1200.080,14.648,35.645,24.902,7.812,5.371,0
1200.084,11.230,38.086,27.344,6.836,3.906,0
1200.087,10.254,37.109,27.344,8.301,-2.930,0
1200.091,17.090,37.598,24.414,5.371,-5.371,0
1200.095,22.461,39.551,24.902,4.883,-15.137,0
1200.099,14.648,33.691,26.367,15.625,1.953,0
1200.103,14.648,35.645,27.344,18.555,20.508,0
1200.107,23.926,39.062,26.855,17.578,16.602,0
1200.111,23.926,35.645,24.902,10.254,5.371,0
1200.115,21.973,34.668,24.902,18.066,12.695,0
1200.119,22.461,38.574,25.391,27.832,35.156,0
1200.123,20.508,38.574,24.902,17.090,17.578,0
1200.127,20.020,36.133,23.438,4.395,0.000,0
1200.130,20.020,38.086,25.391,8.301,18.555,0
1200.134,22.461,38.574,27.344,15.625,32.227,0
1200.138,18.555,35.645,26.367,10.254,11.719,0
1200.142,20.020,34.180,24.414,0.000,-6.836,0
1200.146,17.090,35.645,22.949,0.000,32.715,0
1200.150,17.578,38.086,24.902,9.277,43.945,0
1200.154,19.043,38.574,24.414,7.324,8.301,0
1200.158,19.531,38.574,23.438,-2.441,-13.672,0
1200.162,20.020,36.133,24.902,-3.418,-23.438,0
1200.166,15.625,33.203,24.414,4.395,4.883,0
1200.170,17.578,33.203,21.973,1.953,8.301,0
1200.173,21.484,33.691,20.020,-7.324,-9.277,0
1200.177,26.367,33.203,19.043,-2.930,-4.883,0
1200.181,22.461,32.227,20.508,7.324,9.766,0
1200.185,21.484,34.668,23.926,4.883,4.395,0
1200.189,24.414,33.203,24.414,-1.953,-2.441,0
1200.193,19.043,33.691,21.973,-6.348,19.043,0
1200.197,15.137,35.645,22.461,-1.465,37.109,0
1200.201,12.207,33.203,22.949,8.301,66.406,0
1200.205,16.113,35.156,23.926,6.836,56.152,0
1200.209,20.996,36.133,23.438,-7.324,8.301,0
1200.212,14.648,34.668,24.414,-3.418,6.836,0
1200.216,7.812,35.156,27.344,9.277,21.973,0
1200.220,12.207,39.062,28.809,9.277,23.438,0
1200.224,16.113,36.621,29.785,1.953,12.207,0
1200.228,13.184,33.691,31.250,3.418,14.160,0
1200.232,11.719,33.691,28.320,7.812,-9.277,0
1200.236,8.789,32.227,24.902,8.301,-36.133,0
1200.240,11.230,34.180,26.855,12.695,0.488,0
1200.244,19.043,37.109,30.273,16.113,7.324,0
1200.248,17.578,39.551,27.832,19.043,-5.371,0
1200.252,17.578,36.621,25.879,22.949,17.090,0
1200.255,24.414,34.668,31.250,24.414,34.180,0
1200.259,16.113,36.621,31.250,12.207,36.621,0
1200.263,5.859,35.156,26.367,9.766,37.598,0
1200.267,11.230,35.156,26.367,14.160,36.621,0
1200.271,14.160,40.039,25.391,14.160,55.664,0
1200.275,16.113,37.109,26.367,6.348,14.648,0
1200.279,17.578,34.668,27.344,8.789,-0.488,0
1200.283,12.695,38.086,27.832,13.672,53.223,0
1200.287,14.160,39.062,32.227,14.648,57.617,0
1200.291,16.113,36.133,31.250,11.230,37.109,0
1200.295,12.207,34.668,26.367,8.789,21.973,0
1200.298,8.301,33.691,24.902,14.160,33.691,0
1200.302,11.230,36.133,22.949,13.672,31.250,0
1200.306,16.602,35.156,22.949,10.742,3.906,0
1200.310,20.996,34.180,22.949,6.836,4.883,0
1200.314,13.184,36.133,20.508,12.207,31.738,0
1200.318,9.277,37.109,25.879,14.160,31.738,0
1200.322,7.812,34.668,27.344,4.883,-1.465,0
1200.326,6.348,32.715,22.949,-1.953,-5.859,0
1200.330,11.230,35.645,20.508,7.812,18.555,0
1200.334,10.254,35.156,20.508,15.625,25.879,0
1200.337,5.859,31.250,23.926,10.742,10.254,0
1200.341,10.742,30.273,25.391,5.371,-6.836,0
1200.345,20.020,32.715,22.461,12.207,-0.488,0
1200.349,13.184,34.668,22.461,21.484,33.203,0
1200.353,6.348,35.645,24.902,18.066,41.504,0
1200.357,14.160,35.156,22.461,11.719,51.270,0
1200.361,13.672,35.645,21.484,12.207,39.551,0
1200.365,10.254,37.109,24.414,14.160,43.945,0
1200.369,14.160,37.598,27.344,16.113,57.617,0
1200.373,20.020,38.086,29.785,14.160,43.945,0
1200.377,20.996,38.086,30.273,12.207,27.832,0
1200.380,16.602,40.039,28.320,18.066,48.340,0
1200.384,17.578,38.574,26.367,20.020,68.359,0
1200.388,14.648,36.621,28.320,20.508,53.223,0
1200.392,10.742,35.645,30.273,17.578,31.250,0
1200.396,14.648,35.645,25.879,15.625,11.719,0
1200.400,20.020,34.668,23.926,20.508,2.441,0
1200.404,22.949,34.180,25.391,25.879,12.207,0
1200.408,20.996,36.133,27.832,16.113,30.762,0
1200.412,15.625,34.180,27.832,9.277,4.395,0
1200.416,13.672,32.227,26.855,18.555,-13.672,0
1200.420,13.184,33.691,28.320,19.043,22.949,0
1200.423,18.555,32.715,30.273,14.160,3.906,0
1200.427,27.344,35.645,27.832,15.625,-12.695,0
1200.431,19.531,38.086,26.855,18.555,11.719,0
1200.435,12.695,34.668,28.320,20.508,17.090,0
1200.439,12.695,33.691,28.320,16.602,8.789,0
1200.443,17.090,35.156,27.832,12.207,0.977,0
1200.447,19.043,33.203,24.902,16.602,33.691,0
1200.451,10.254,32.227,24.414,10.254,53.711,0
1200.455,9.766,34.668,27.832,3.906,25.391,0
1200.459,13.184,38.574,28.320,0.000,4.395,0
1200.462,11.719,38.086,22.949,1.465,12.695,0
1200.466,5.371,31.738,25.879,7.324,17.090,0
1200.470,5.371,34.180,26.855,-0.488,9.766,0
1200.474,8.789,37.109,23.926,-8.789,-26.367,0
1200.478,9.277,34.180,24.414,-4.883,-32.715,0
1200.482,9.766,33.203,25.879,4.395,16.113,0
1200.486,6.348,34.180,26.855,3.906,45.410,0
1200.490,2.930,34.180,22.461,-4.395,-1.465,0
1200.494,3.418,31.738,19.043,-8.789,-5.859,0
1200.498,6.348,33.203,22.949,2.441,19.043,0
1200.502,12.695,37.598,25.391,9.766,1.465,0
1200.505,14.160,36.133,24.414,4.883,19.043,0
1200.509,14.160,33.203,23.438,-0.488,18.555,0
1200.513,5.371,32.715,23.926,1.465,-5.859,0
1200.517,1.953,35.645,29.297,1.465,1.953,0
1200.521,11.230,37.598,28.809,-0.977,19.531,0
1200.525,13.184,37.598,25.879,-1.953,1.953,0
1200.529,9.766,37.109,24.902,0.488,7.324,0
1200.533,3.906,37.598,21.973,3.418,16.602,0
1200.537,4.395,37.598,22.949,2.441,0.000,0
1200.541,10.742,37.109,25.391,-0.977,24.414,0
1200.545,15.137,37.598,24.414,-2.930,20.020,0
1200.548,9.277,38.086,23.926,5.859,14.160,0
1200.552,10.254,36.133,23.438,9.766,31.250,0
1200.556,21.973,35.645,22.461,12.695,13.672,0
1200.560,28.320,36.621,25.391,16.113,3.906,0
1200.564,8.301,36.133,26.367,0.488,24.902,0
1200.568,-11.230,35.156,21.973,-10.742,41.992,0
1200.572,-2.930,35.645,21.973,-8.301,49.316,0
1200.576,5.371,35.645,24.414,-15.137,33.203,0
1200.580,9.277,32.227,24.902,-6.348,27.344,0
1200.584,9.277,29.785,26.367,2.930,50.781,0
1200.587,6.348,33.203,24.902,5.859,36.621,0
1200.591,10.254,35.156,21.484,2.441,20.996,0
1200.595,12.207,36.133,20.996,0.488,33.203,0
1200.599,11.719,38.086,22.461,5.859,32.227,0
1200.603,13.672,39.551,20.996,7.812,12.207,0
1200.607,17.578,38.574,22.949,2.930,24.902,0
1200.611,17.090,38.086,24.902,1.465,41.016,0
1200.615,14.160,35.156,23.438,13.184,35.645,0
1200.619,13.672,33.203,23.438,15.137,52.246,0
1200.623,8.301,32.715,24.414,5.371,22.461,0
1200.627,7.324,31.738,24.902,1.953,-16.113,0
1200.630,9.766,35.156,23.926,11.230,30.273,0
1200.634,10.254,39.551,21.484,14.160,50.781,0
1200.638,11.719,36.621,22.949,3.418,28.320,0
1200.642,15.137,33.203,24.414,0.000,25.391,0
1200.646,15.137,33.203,22.461,5.371,9.277,0
1200.650,7.812,34.668,23.438,6.348,-9.766,0
1200.654,7.812,36.621,25.391,5.859,-22.461,0
1200.658,13.672,35.645,24.414,0.977,-20.508,0
1200.662,13.672,35.645,21.973,2.441,-1.953,0
1200.666,12.207,34.180,20.996,8.789,-1.465,0
1200.670,12.207,34.668,23.438,13.184,-1.953,0
1200.673,14.648,34.180,22.949,10.254,-12.207,0
1200.677,16.113,33.691,23.438,4.395,-22.461,0
1200.681,11.719,36.133,23.926,5.859,-18.555,0
1200.685,12.207,36.133,20.508,4.395,-29.785,0
1200.689,18.066,33.691,21.484,5.371,-7.812,0
1200.693,12.207,34.180,26.367,3.906,-11.230,0
1200.697,4.395,35.645,27.344,2.441,-25.391,0
1200.701,11.230,37.598,26.367,6.348,-10.742,0
1200.705,12.695,38.086,23.926,8.301,5.859,0
1200.709,13.184,39.062,21.484,1.953,8.301,0
1200.712,13.184,37.598,24.902,3.906,-27.832,0
1200.716,10.742,37.598,29.297,10.742,0.000,0
1200.720,11.719,37.109,26.367,3.906,36.133,0
1200.724,20.020,36.133,24.414,-2.441,14.160,0
1200.728,29.785,38.086,23.438,-5.371,20.508,0
1200.732,31.738,37.598,22.461,-2.930,49.316,0
1200.736,41.016,40.527,21.484,0.000,54.199,0
1200.740,50.293,41.992,21.484,-7.324,14.648,0
1200.744,50.293,40.527,21.973,-14.160,-2.930,0
1200.748,37.598,40.527,21.973,-7.324,-8.789,0
1200.752,20.996,39.551,22.949,-1.953,16.602,0
1200.755,12.695,38.086,25.879,0.488,9.277,0
1200.759,3.906,34.180,25.391,-6.836,-31.250,0
1200.763,-2.930,32.227,23.926,-0.977,25.879,0
1200.767,-0.488,34.668,27.344,13.672,35.156,0
1200.771,2.930,34.180,28.809,14.648,3.906,0
1200.775,2.441,32.715,24.414,7.812,0.977,0
1200.779,0.977,31.738,23.926,5.371,7.812,0
1200.783,-5.859,31.738,24.414,8.789,30.273,0
1200.787,-0.488,31.250,22.949,10.254,26.855,0
1200.791,4.395,31.738,22.461,5.371,23.926,0
1200.795,2.441,35.156,20.508,0.977,26.855,0
1200.798,2.441,35.156,21.973,9.766,20.020,0
1200.802,2.441,35.156,22.949,10.254,-10.254,0
1200.806,7.812,36.133,23.926,6.348,3.906,0
1200.810,12.207,34.668,26.855,5.859,6.836,0
1200.814,6.348,35.156,26.367,8.789,7.812,0
1200.818,8.301,36.133,29.785,15.625,34.668,0
1200.822,11.719,32.715,28.809,18.555,42.969,0
1200.826,12.207,32.227,22.949,12.207,28.320,0
1200.830,8.301,35.156,24.414,20.508,16.113,0
1200.834,5.371,32.715,25.391,24.902,45.898,0
1200.837,8.301,31.738,26.367,16.602,47.852,0
1200.841,11.719,32.227,30.273,7.812,48.340,0
1200.845,11.230,32.227,29.785,8.789,54.688,0
1200.849,10.742,37.598,29.297,13.672,33.203,0
1200.853,11.230,38.574,30.273,11.719,2.441,0
1200.857,11.719,33.203,29.785,9.277,2.930,0
1200.861,8.789,32.227,30.273,4.395,17.090,0
1200.865,4.883,32.227,28.320,5.371,24.414,0
1200.869,2.930,37.598,27.832,10.742,34.668,0
1200.873,0.488,38.574,29.785,1.953,16.113,0
1200.877,4.883,38.086,32.715,-1.465,37.109,0
1200.880,2.441,39.062,34.180,1.465,44.434,0
1200.884,-6.836,37.598,38.574,0.488,14.160,0
1200.888,-21.484,38.086,39.062,-4.883,0.000,0
1200.892,-31.738,35.156,37.109,-24.414,-11.230,0
1200.896,-33.691,33.691,39.062,-30.762,24.414,0
1200.900,-43.457,35.156,42.480,-33.203,30.762,0
1200.904,-55.664,36.133,49.316,-42.480,25.391,0
1200.908,-54.199,32.227,51.270,-57.617,23.438,0
1200.912,-52.246,31.250,49.316,-63.477,4.395,0
1200.916,-60.547,35.156,50.781,-58.105,22.461,0
1200.920,-75.684,36.621,52.246,-64.941,30.273,0
1200.923,-82.031,37.109,54.199,-75.195,30.273,0
1200.927,-83.496,36.621,58.105,-87.891,28.809,0
1200.931,-89.844,35.645,58.594,-86.426,9.277,0
1200.935,-88.867,37.109,57.617,-82.520,14.648,0
1200.939,-83.984,38.086,56.152,-89.355,21.484,0
1200.943,-82.031,37.598,54.688,-96.680,10.742,0
1200.947,-76.172,40.527,50.781,-85.938,15.625,0
1200.951,-64.941,44.434,52.734,-63.965,19.531,0
1200.955,-59.570,44.434,52.734,-62.988,21.484,0
1200.959,-49.316,41.504,47.363,-65.918,6.348,0
1200.962,-41.504,40.527,46.387,-55.176,-2.441,0
1200.966,-37.598,37.598,41.992,-44.922,17.578,0
1200.970,-31.250,36.133,36.621,-40.527,26.855,0
1200.974,-26.367,40.039,34.180,-44.922,41.504,0
1200.978,-18.555,44.922,32.715,-39.551,21.484,0
1200.982,-13.184,44.922,31.738,-20.508,32.715,0
1200.986,-12.695,42.480,27.832,-17.578,51.758,0
1200.990,-3.418,41.016,23.926,-17.090,41.992,0
1200.994,7.812,41.016,27.832,-6.836,29.297,0
1200.998,12.695,41.504,30.762,2.930,-13.184,0
1201.002,18.066,39.551,27.344,9.766,-3.906,0
1201.005,18.066,35.156,24.414,11.719,33.691,0
1201.009,16.113,35.156,23.438,13.184,5.371,0
1201.013,22.949,35.645,20.996,17.578,-10.742,0
1201.017,26.855,34.180,20.508,24.414,21.484,0
1201.021,22.949,32.227,20.996,27.832,43.945,0
1201.025,27.344,28.320,21.973,18.555,27.344,0
1201.029,28.809,14.160,23.438,20.508,25.391,0
1201.033,25.391,4.883,22.461,31.738,38.086,0
1201.037,24.414,3.906,20.020,27.344,45.898,0
1201.041,27.344,2.930,19.531,22.949,20.020,0
1201.045,32.715,4.883,20.996,26.855,4.883,0
1201.048,34.668,9.766,21.973,39.062,38.086,0
1201.052,35.156,12.695,20.996,42.480,37.109,0
1201.056,35.645,13.184,20.020,33.691,20.996,0
1201.060,41.016,14.160,15.137,31.250,25.879,0
1201.064,35.645,15.625,14.160,36.621,29.785,0
1201.068,32.227,16.113,15.625,40.039,47.363,0
1201.072,39.551,16.602,16.602,39.551,45.898,0
1201.076,36.621,15.137,18.555,33.691,28.320,0
1201.080,34.668,20.508,16.113,33.691,14.648,0
1201.084,35.645,22.461,15.625,40.527,-8.301,0
1201.087,36.621,21.484,19.531,40.039,-18.066,0
1201.091,39.551,20.996,20.020,33.691,2.441,0
1201.095,36.621,18.555,19.043,33.691,23.438,0
1201.099,38.086,18.555,18.066,41.016,-8.789,0
1201.103,41.504,20.996,13.184,40.039,-16.113,0
1201.107,41.016,22.949,14.160,30.762,-3.418,0
1201.111,40.039,20.020,15.625,26.367,-30.273,0
1201.115,27.344,20.508,17.090,31.250,-8.301,0
1201.119,24.414,22.949,18.066,34.180,-1.953,0
1201.123,34.668,24.902,20.020,29.297,-0.977,0
1201.127,38.574,25.879,21.973,23.438,17.578,0
1201.130,37.109,25.391,20.020,28.809,-4.395,0
1201.134,34.668,22.461,20.508,31.738,0.977,0
1201.138,33.691,19.531,19.043,33.203,35.156,0
1201.142,35.156,22.461,19.043,31.250,35.645,0
1201.146,33.203,24.902,21.973,29.785,-4.883,0
1201.150,34.180,24.414,21.484,33.203,-1.465,0
1201.154,35.156,22.949,20.996,32.227,31.250,0
1201.158,31.250,23.438,20.508,24.902,9.766,0
1201.162,30.762,24.414,19.531,22.949,-6.348,0
1201.166,27.832,23.438,21.973,29.297,13.672,0
1201.170,24.902,24.902,26.367,30.762,24.414,0
1201.173,23.438,23.926,23.438,20.020,7.324,0
1201.177,20.020,23.438,19.043,9.277,-6.836,0
1201.181,17.578,27.832,19.531,18.066,-3.418,0
1201.185,18.066,27.344,22.461,24.414,3.418,0
1201.189,21.484,27.832,22.949,18.555,4.395,0
1201.193,25.879,31.738,20.508,10.254,7.812,0
1201.197,26.367,33.203,21.973,14.160,29.297,0
1201.201,21.973,30.273,21.973,20.020,41.504,0
1201.205,25.879,28.320,20.508,18.555,29.785,0
1201.209,33.691,29.785,22.949,13.672,18.066,0
1201.212,35.645,31.738,21.973,18.066,15.137,0
1201.216,27.344,33.203,20.020,17.090,21.484,0
1201.220,17.578,34.668,20.996,11.719,32.227,0
1201.224,28.809,37.109,20.996,5.371,38.574,0
1201.228,34.180,36.621,20.020,0.488,31.738,0
1201.232,22.949,36.133,19.531,13.184,35.156,0
1201.236,25.391,36.133,20.996,17.090,10.742,0
1201.240,29.785,38.086,21.484,11.230,-3.418,0
1201.244,29.297,39.551,19.531,10.254,11.230,0
1201.248,26.367,36.621,19.531,17.090,6.348,0
1201.252,26.855,33.691,18.555,23.926,33.203,0
1201.255,32.227,33.691,24.902,20.996,62.012,0
1201.259,28.809,34.180,25.391,13.672,36.133,0
1201.263,25.879,33.691,23.438,19.043,35.645,0
1201.267,28.809,34.180,24.902,21.484,32.227,0
1201.271,30.762,34.668,23.926,21.973,24.902,0
1201.275,32.715,34.668,24.902,15.137,44.922,0
1201.279,30.273,33.203,23.926,14.160,38.086,0
1201.283,25.391,32.715,24.414,23.438,15.625,0
1201.287,21.973,33.203,25.879,22.949,24.902,0
1201.291,20.020,30.762,23.438,11.719,27.344,0
1201.295,21.484,29.785,23.438,5.859,8.301,0
1201.298,20.996,33.203,22.949,10.254,33.691,0
1201.302,16.602,36.621,21.484,14.160,38.086,0
1201.306,18.066,37.109,22.949,14.160,0.488,0
1201.310,17.090,35.156,22.949,4.395,-7.812,0
1201.314,11.719,32.715,22.461,0.977,4.883,0
1201.318,10.742,29.785,24.902,8.301,19.043,0
1201.322,9.766,29.785,25.879,8.789,11.719,0
1201.326,9.277,28.320,23.438,0.000,5.859,0
1201.330,10.742,29.297,19.531,2.441,13.184,0
1201.334,7.324,30.273,20.996,6.836,9.766,0
1201.337,11.230,30.762,21.973,6.836,15.625,0
1201.341,17.578,30.762,20.996,2.441,12.207,0
1201.345,13.672,30.273,24.414,-1.953,19.531,0
1201.349,8.789,32.227,22.461,3.906,41.992,0
1201.353,9.277,32.227,19.531,4.883,47.363,0
1201.357,11.230,32.715,20.020,-10.254,4.883,0
1201.361,11.230,31.738,19.043,-13.184,-7.812,0
1201.365,13.184,30.273,20.996,3.906,29.785,0
1201.369,15.137,31.738,21.484,0.488,39.551,0
1201.373,15.625,31.250,22.461,-1.465,41.992,0
1201.377,17.090,30.762,22.949,3.418,26.367,0
1201.380,14.648,30.273,22.461,7.324,43.945,0
1201.384,12.207,31.250,22.461,7.324,48.340,0
1201.388,11.719,32.227,22.949,3.418,22.949,0
1201.392,17.578,28.320,22.949,-4.883,12.695,0
1201.396,17.090,32.715,23.926,-5.859,30.273,0
1201.400,8.301,33.203,22.461,-2.441,41.016,0
1201.404,6.348,28.809,21.973,-4.883,11.230,0
1201.408,9.277,30.273,20.996,-9.277,25.879,0
1201.412,9.766,30.273,19.531,-7.812,30.273,0
1201.416,5.859,31.250,22.949,-3.418,-1.953,0
1201.420,4.395,33.203,23.438,-1.465,9.766,0
1201.423,6.348,32.715,23.438,0.977,20.020,0
1201.427,6.836,31.738,24.902,0.488,12.207,0
1201.431,6.836,31.738,27.832,11.230,47.852,0
1201.435,15.137,34.668,30.762,14.648,55.176,0
1201.439,20.020,36.621,30.762,9.766,30.273,0
1201.443,13.184,34.668,30.762,4.395,8.789,0
1201.447,6.836,33.203,29.785,7.812,-0.977,0
1201.451,2.441,28.809,28.809,8.789,-0.977,0
1201.455,5.859,29.297,26.855,2.441,24.414,0
1201.459,11.719,34.180,22.949,-3.418,14.648,0
1201.462,13.672,31.738,20.508,-4.883,12.207,0
1201.466,21.484,32.227,22.949,-1.953,45.898,0
1201.470,31.250,36.133,24.414,1.465,41.504,0
1201.474,43.945,36.133,19.043,-6.348,33.691,0
1201.478,45.410,33.691,20.020,-18.555,16.602,0
1201.482,38.086,32.715,22.461,-12.207,20.508,0
1201.486,33.691,35.156,21.484,-0.977,17.578,0
1201.490,23.438,34.180,24.902,1.953,7.324,0
1201.494,16.113,31.738,26.367,-2.441,-3.906,0
1201.498,9.766,31.738,20.996,1.465,-10.742,0
1201.502,6.836,34.180,21.973,12.695,-8.789,0
1201.505,8.301,34.180,26.855,13.672,-10.254,0
1201.509,7.324,31.250,24.902,2.441,8.301,0
1201.513,1.953,34.180,22.949,5.371,24.902,0
1201.517,0.977,33.203,23.438,13.672,21.973,0
1201.521,2.930,28.320,20.996,7.324,30.273,0
1201.525,5.859,29.297,20.508,-5.371,16.602,0
1201.529,6.836,31.250,19.043,-0.488,21.973,0
1201.533,9.766,34.180,20.996,11.719,36.133,0
1201.537,12.695,36.621,28.320,8.301,23.438,0
1201.541,14.160,36.133,28.320,0.488,23.438,0
1201.545,13.184,32.715,24.414,-1.953,24.414,0
1201.548,12.207,31.250,23.926,12.695,29.297,0
1201.552,15.625,31.250,25.879,14.160,17.090,0
1201.556,17.578,32.715,23.926,1.953,9.766,0
1201.560,20.996,34.180,22.949,-2.441,28.809,0
1201.564,20.508,35.645,24.902,4.883,35.156,0
1201.568,19.043,38.574,26.855,11.230,41.992,0
1201.572,18.555,36.621,25.391,6.348,51.758,0
1201.576,17.578,34.668,26.855,0.977,24.414,0
1201.580,13.672,33.203,26.855,3.906,7.812,0
1201.584,9.766,32.227,24.902,7.324,19.531,0
1201.587,13.672,34.668,21.484,7.812,26.855,0
1201.591,20.508,34.668,19.531,5.859,23.926,0
1201.595,17.090,30.273,22.949,4.883,24.414,0
1201.599,14.160,30.273,23.438,7.324,35.156,0
1201.603,16.602,32.227,20.020,8.301,41.992,0
1201.607,12.207,31.738,20.020,2.441,26.855,0
1201.611,16.113,31.250,24.414,3.906,11.230,0
1201.615,21.973,33.691,26.855,14.160,14.160,0
1201.619,20.508,36.621,25.879,17.090,44.434,0
1201.623,22.461,37.598,24.902,15.625,25.391,0
1201.627,27.832,35.645,21.484,9.277,-25.391,0
1201.630,20.508,34.668,21.484,9.277,0.488,0
1201.634,12.695,37.109,26.855,14.648,3.418,0
1201.638,19.531,36.133,25.391,12.207,-1.953,0
1201.642,20.996,35.645,22.461,-2.930,6.348,0
1201.646,13.184,32.227,23.926,0.977,7.812,0
1201.650,9.766,30.762,25.879,12.207,49.316,0
1201.654,10.254,31.250,25.879,8.789,51.758,0
1201.658,15.137,30.273,24.414,3.418,22.949,0
1201.662,11.719,29.297,22.949,2.441,9.766,0
1201.666,7.812,29.297,22.949,10.742,27.832,0
1201.670,14.160,28.809,24.902,12.207,13.184,0
1201.673,13.672,28.809,21.973,2.441,-14.648,0
1201.677,12.695,29.785,20.996,-3.906,-22.949,0
1201.681,14.648,30.762,23.926,5.371,13.184,0
1201.685,17.090,31.250,22.461,9.766,45.898,0
1201.689,19.043,28.809,21.973,3.418,10.742,0
1201.693,23.926,30.762,23.438,-2.441,10.254,0
1201.697,22.949,32.715,21.973,2.441,21.484,0
1201.701,22.949,30.762,22.949,7.812,6.348,0
1201.705,21.484,32.227,20.996,2.930,3.906,0
1201.709,19.531,32.715,19.043,-3.418,33.691,0
1201.712,20.508,33.691,21.484,1.953,22.461,0
1201.716,15.625,36.621,20.508,9.766,1.953,0
1201.720,14.648,35.645,19.531,10.254,23.438,0
1201.724,19.531,30.273,20.020,0.977,41.016,0
1201.728,20.020,29.785,20.020,-3.418,14.648,0
1201.732,16.113,31.250,20.996,3.906,-11.230,0
1201.736,16.113,30.762,20.020,4.883,18.066,0
1201.740,17.578,34.180,20.508,1.465,28.809,0
1201.744,16.602,30.762,20.996,0.977,25.391,0
1201.748,18.066,31.738,22.461,5.371,28.320,0
1201.752,17.578,34.180,23.438,16.602,18.555,0
1201.755,13.672,30.762,26.855,17.090,16.602,0
1201.759,15.625,30.273,28.320,6.348,6.836,0
1201.763,8.789,29.785,22.949,4.395,11.719,0
1201.767,4.395,28.809,22.949,6.836,20.020,0
1201.771,9.277,29.297,25.879,4.883,33.203,0
1201.775,8.789,27.344,23.438,-2.441,15.625,0
1201.779,7.324,29.297,23.438,-3.418,17.090,0
1201.783,4.395,31.250,25.391,5.371,35.156,0
1201.787,3.906,29.785,26.367,12.207,51.758,0
1201.791,4.395,33.203,24.902,5.859,41.016,0
1201.795,5.859,34.180,23.438,1.465,5.371,0
1201.798,5.859,29.785,20.996,9.277,18.555,0
1201.802,4.395,29.297,21.484,11.719,43.945,0
1201.806,9.766,32.227,23.438,9.766,41.016,0
1201.810,19.531,33.691,22.461,6.836,25.879,0
1201.814,16.113,33.203,20.996,10.742,0.488,0
1201.818,11.230,33.691,21.973,9.766,4.395,0
1201.822,16.113,33.691,23.926,7.812,30.762,0
1201.826,15.137,33.203,24.414,4.883,9.277,0
1201.830,11.719,35.156,23.926,5.859,8.301,0
1201.834,9.766,38.086,20.508,13.184,18.066,0
1201.837,9.277,36.133,20.996,8.789,-8.301,0
1201.841,10.254,33.691,20.508,1.953,4.395,0
1201.845,5.859,34.180,20.020,5.859,8.301,0
1201.849,4.883,33.691,22.949,10.742,-2.930,0
1201.853,9.277,37.598,23.438,14.160,14.160,0
1201.857,15.137,44.434,22.461,11.719,40.039,0
1201.861,16.602,46.875,22.461,6.348,25.879,0
1201.865,12.207,49.316,20.020,14.648,4.395,0
1201.869,8.789,49.805,22.461,12.207,8.789,0
1201.873,9.277,47.852,25.391,8.789,29.297,0
1201.877,14.160,48.828,22.949,7.324,20.508,0
1201.880,13.672,47.852,25.879,11.230,1.953,0
1201.884,11.230,49.316,28.320,18.555,-6.348,0
1201.888,10.254,48.828,23.438,13.184,6.836,0
1201.892,15.625,47.363,21.973,6.836,25.879,0
1201.896,18.066,46.875,24.902,9.277,35.156,0
1201.900,18.555,45.898,23.926,13.672,24.902,0
1201.904,24.902,45.410,22.461,14.160,15.625,0
1201.908,24.902,43.945,21.484,6.836,9.766,0
1201.912,17.578,42.480,23.438,2.930,-5.859,0
1201.916,20.508,41.992,20.996,12.207,-3.418,0
1201.920,24.414,43.457,16.602,12.207,9.277,0
1201.923,19.531,45.898,19.531,4.395,43.457,0
1201.927,19.531,46.387,21.973,4.395,36.133,0
1201.931,20.996,47.852,21.484,13.184,26.855,0
1201.935,21.973,47.852,21.973,20.996,47.852,0
1201.939,17.578,44.922,25.391,19.043,28.809,0
1201.943,21.484,43.457,26.855,6.836,10.254,0
1201.947,25.391,41.992,23.926,9.277,21.484,0
1201.951,21.484,46.387,25.391,15.625,28.809,0
1201.955,22.949,48.340,26.855,14.648,23.926,0
1201.959,30.273,45.898,26.367,10.742,-7.324,0
1201.962,28.320,44.922,28.320,11.230,-25.391,0
1201.966,20.996,42.480,28.320,16.113,-17.578,0
1201.970,15.137,41.992,27.344,9.277,-18.066,0
1201.974,18.066,41.504,25.391,0.000,-9.766,0
1201.978,25.879,41.992,24.902,5.371,21.973,0
1201.982,25.391,43.457,24.902,14.160,37.598,0
1201.986,23.926,42.969,25.391,16.602,21.484,0
1201.990,24.902,43.457,29.297,13.184,27.832,0
1201.994,20.020,43.457,30.273,8.789,23.438,0
1201.998,12.207,41.504,26.855,11.230,-1.953,0
1202.002,13.184,40.527,23.926,10.254,-11.230,0
1202.005,18.066,42.969,25.879,2.930,12.695,0
1202.009,20.996,44.434,27.832,-0.488,10.254,0
1202.013,20.020,43.945,25.391,5.371,3.906,0
1202.017,20.020,41.992,23.926,5.859,21.484,0
1202.021,20.996,41.992,22.949,8.301,59.570,0
1202.025,23.926,44.434,19.531,6.348,65.430,0
1202.029,26.367,42.969,19.531,4.883,46.875,0
1202.033,23.926,42.480,18.555,11.719,29.297,0
1202.037,22.461,42.969,17.578,14.160,35.645,0
1202.041,21.973,40.039,19.531,9.766,33.203,0
1202.045,19.531,38.086,19.531,2.930,17.578,0
1202.048,20.020,39.062,19.043,16.113,27.344,0
1202.052,23.438,40.039,20.020,24.902,34.668,0
1202.056,24.902,42.480,23.438,18.066,26.855,0
1202.060,23.926,41.504,23.438,11.230,-7.324,0
1202.064,15.625,41.016,23.926,19.043,-11.719,0
1202.068,12.207,41.504,25.391,20.508,-7.812,0
1202.072,12.695,39.062,24.414,7.812,8.789,0
1202.076,14.648,39.062,22.949,-0.977,9.277,0
1202.080,15.137,38.574,20.508,4.395,6.348,0
1202.084,9.277,34.668,19.043,8.789,31.738,0
1202.087,4.883,36.133,21.484,5.859,45.410,0
1202.091,4.883,37.598,22.949,-1.953,22.461,0
1202.095,6.836,35.645,24.414,-5.371,9.766,0
1202.099,6.348,37.109,23.438,2.930,15.137,0
1202.103,3.418,37.109,22.461,6.836,14.160,0
1202.107,2.930,35.156,22.949,2.441,-7.812,0
1202.111,6.836,37.598,21.484,-3.418,-13.672,0
1202.115,9.277,41.016,22.461,5.371,11.719,0
1202.119,9.277,41.992,26.855,12.695,13.184,0
1202.123,5.859,40.527,23.926,1.953,6.836,0
1202.127,7.324,38.086,24.902,-4.883,4.883,0
1202.130,1.953,35.156,27.832,3.418,-19.043,0
1202.134,-4.883,35.156,23.438,8.789,-8.301,0
1202.138,-2.930,37.109,23.926,2.930,13.184,0
1202.142,-3.418,34.668,24.902,-3.906,11.230,0
1202.146,1.953,32.227,23.438,4.395,28.320,0
1202.150,5.371,34.180,22.461,17.090,7.324,0
1202.154,3.906,32.227,20.508,15.625,-12.695,0
1202.158,4.395,32.227,21.484,1.953,8.301,0
1202.162,3.906,34.668,24.414,2.930,20.020,0
1202.166,-0.488,33.203,25.391,9.766,21.973,0
1202.170,0.977,32.715,24.902,7.812,33.203,0
1202.173,4.395,32.227,24.414,7.812,34.180,0
1202.177,7.324,34.180,23.926,4.883,26.855,0
1202.181,11.719,35.645,24.902,6.836,31.250,0
1202.185,21.484,35.645,26.855,6.836,23.438,0
1202.189,32.227,36.133,23.926,-1.953,51.270,0
1202.193,38.086,35.645,22.461,-11.719,50.293,0
1202.197,36.133,37.109,21.484,-9.766,23.438,0
1202.201,39.062,40.527,21.973,-5.371,46.875,0
1202.205,41.016,40.039,20.508,-6.348,50.293,0
1202.209,27.832,36.133,20.996,-7.324,16.602,0
1202.212,20.508,39.062,22.949,-5.371,-14.648,0
1202.216,19.043,42.480,25.391,11.230,9.277,0
1202.220,11.719,36.133,27.344,19.531,59.570,0
1202.224,1.953,30.273,23.926,9.277,47.852,0
1202.228,0.977,32.715,23.926,7.812,20.020,0
1202.232,5.859,32.227,23.926,12.695,49.316,0
1202.236,4.883,36.133,24.902,13.184,31.738,0
1202.240,5.859,38.086,28.809,10.254,11.230,0
1202.244,12.695,40.527,26.855,4.395,8.301,0
1202.248,6.836,38.086,25.391,4.395,0.000,0
1202.252,0.488,34.180,25.391,7.324,33.691,0
1202.255,1.953,33.203,25.879,3.418,18.066,0
1202.259,6.836,33.203,26.367,-3.418,-18.066,0
1202.263,10.254,35.645,26.367,10.742,-21.484,0
1202.267,8.789,33.203,27.832,18.066,-8.301,0
1202.271,9.277,37.109,28.809,11.230,19.043,0
1202.275,9.766,37.598,27.832,4.395,28.809,0
1202.279,6.836,35.645,26.367,4.883,28.809,0
1202.283,7.324,35.645,26.855,8.301,26.367,0
1202.287,9.277,35.645,29.785,9.277,24.902,0
1202.291,11.230,36.133,30.762,7.324,6.348,0
1202.295,8.301,34.668,28.320,1.953,6.348,0
1202.298,2.930,34.180,26.855,4.395,21.484,0
1202.302,9.766,33.691,29.785,6.348,1.465,0
1202.306,15.137,33.203,32.227,2.441,15.625,0
1202.310,10.742,33.203,28.809,-7.324,33.203,0
1202.314,6.836,31.250,24.902,-1.465,18.066,0
1202.318,9.277,30.273,27.344,7.812,35.156,0
1202.322,11.719,30.762,28.809,6.836,47.363,0
1202.326,15.137,34.180,26.367,1.953,21.484,0
1202.330,17.090,34.668,26.367,5.859,4.395,0
1202.334,12.207,33.203,26.855,12.695,23.438,0
1202.337,11.719,34.180,27.832,12.207,10.254,0
1202.341,17.090,33.691,27.832,11.230,-2.930,0
1202.345,20.996,36.133,28.809,10.742,20.996,0
1202.349,16.113,36.621,25.879,13.184,27.832,0
1202.353,13.184,34.668,25.879,17.090,25.391,0
1202.357,19.531,35.645,27.832,13.672,29.297,0
1202.361,20.508,36.133,28.320,13.184,20.508,0
1202.365,13.672,36.621,30.273,18.555,36.621,0
1202.369,14.160,39.062,28.320,20.996,24.902,0
1202.373,21.484,39.551,29.785,15.625,1.465,0
1202.377,23.438,41.504,30.762,9.277,-5.371,0
1202.380,22.949,44.434,30.762,16.113,20.020,0
1202.384,26.367,42.969,29.297,19.043,47.852,0
1202.388,27.344,41.992,28.320,16.602,30.273,0
1202.392,26.855,43.457,28.809,11.719,-2.930,0
1202.396,26.367,41.992,23.926,8.301,-7.324,0
1202.400,29.297,41.992,22.461,15.137,26.855,0
1202.404,33.203,43.945,27.344,18.555,39.551,0
1202.408,33.203,40.527,25.391,4.883,23.438,0
1202.412,28.809,41.016,23.438,-4.883,6.348,0
1202.416,23.926,40.039,23.926,2.930,9.766,0
1202.420,23.926,37.598,23.926,7.812,11.230,0
1202.423,23.438,38.086,22.949,1.953,24.414,0
1202.427,25.391,36.621,21.484,-5.371,32.227,0
1202.431,23.926,39.062,24.414,3.906,13.672,0
1202.435,20.996,39.062,27.832,14.648,19.531,0
1202.439,19.043,37.109,25.879,6.836,3.906,0
1202.443,20.020,37.109,25.391,-4.395,-27.832,0
1202.447,20.020,36.133,24.414,5.859,-16.113,0
1202.451,18.066,35.645,25.879,12.207,2.441,0
1202.455,14.648,35.645,25.879,8.301,23.926,0
1202.459,14.160,36.133,25.391,1.465,24.902,0
1202.462,17.090,38.086,26.855,7.812,35.645,0
1202.466,18.066,38.086,27.832,17.090,62.012,0
1202.470,14.160,37.109,27.344,18.066,65.430,0
1202.474,12.695,35.645,24.902,12.695,19.043,0
1202.478,12.695,34.180,25.391,9.277,21.484,0
1202.482,13.184,35.645,24.902,12.207,22.461,0
1202.486,16.113,35.645,24.414,9.277,-15.137,0
1202.490,16.113,36.133,25.879,7.324,24.414,0
1202.494,13.672,36.621,25.879,4.395,24.414,0
1202.498,10.742,36.133,23.926,8.301,23.438,0
1202.502,13.184,37.598,23.438,11.230,51.270,0
1202.505,15.625,36.621,24.414,5.859,24.414,0
1202.509,11.230,35.156,26.367,0.488,-3.418,0
1202.513,9.277,34.668,26.855,0.977,-19.043,0
1202.517,5.859,33.203,26.855,3.906,3.418,0
1202.521,3.418,31.738,26.855,4.395,-3.906,0
1202.525,7.812,29.785,25.879,-5.371,-32.227,0
1202.529,7.812,31.250,24.414,-3.906,13.672,0
1202.533,7.812,32.227,22.461,7.324,51.758,0
1202.537,11.230,32.715,21.484,8.301,41.504,0
1202.541,11.719,34.180,22.949,5.371,13.672,0
1202.545,15.625,33.203,23.926,6.836,-16.602,0
1202.548,15.625,32.715,20.996,11.719,-7.324,0
