timestamps,TP9,AF7,AF8,TP10,Right AUX,Marker0
2376.076,58.105,56.641,20.996,89.844,-25.879,0
2376.079,73.730,42.480,34.180,70.312,-11.719,0
2376.083,89.844,57.129,30.273,55.664,-29.785,0
2376.087,65.430,51.758,19.531,73.242,-34.668,0
2376.091,43.945,45.898,21.484,85.938,-25.391,0
2376.095,71.289,61.035,14.160,74.707,-5.371,0
2376.099,59.082,62.500,25.391,47.363,12.695,0
2376.103,53.223,45.410,38.574,82.520,-6.348,0
2376.107,62.012,54.688,29.297,85.449,-14.648,0
2376.111,88.379,53.223,20.508,84.473,8.301,0
2376.115,85.449,32.715,31.738,95.703,14.648,0
2376.119,61.523,41.992,30.273,50.293,-3.418,0
2376.122,45.898,50.781,20.020,68.848,18.066,0
2376.126,41.992,40.039,32.715,96.191,43.945,0
2376.130,61.035,39.551,36.621,80.078,25.391,0
2376.134,72.754,44.922,26.855,55.664,1.465,0
2376.138,53.223,48.340,15.137,45.410,-4.395,0
2376.142,34.668,50.781,15.137,64.453,15.137,0
2376.146,33.203,39.062,26.855,81.543,-9.277,0
2376.150,60.059,30.762,25.879,75.684,-25.391,0
2376.154,71.777,44.922,21.484,55.176,18.555,0
2376.158,39.551,44.434,28.320,75.195,54.199,0
2376.162,38.086,42.480,25.391,63.477,34.668,0
2376.165,59.570,50.293,26.367,41.504,3.906,0
2376.169,92.773,46.387,28.809,58.594,2.441,0
2376.173,80.566,44.922,22.461,72.266,36.133,0
2376.177,56.152,52.734,22.461,67.383,40.039,0
2376.181,56.641,39.551,27.344,59.570,10.254,0
2376.185,82.520,32.715,31.250,65.918,0.488,0
2376.189,77.148,41.992,29.297,78.613,-1.465,0
2376.193,59.570,46.875,24.414,72.754,-9.277,0
2376.197,68.359,47.363,24.414,57.129,7.812,0
2376.201,96.191,52.734,26.855,50.293,33.203,0
2376.204,69.824,52.246,29.297,62.988,10.254,0
2376.208,43.457,41.992,35.156,84.961,-17.090,0
2376.212,68.848,43.457,36.621,60.059,-10.742,0
2376.216,88.867,45.410,33.691,33.691,23.926,0
2376.220,76.172,48.340,32.227,38.574,22.461,0
2376.224,64.941,49.805,34.180,57.129,10.254,0
2376.228,70.801,48.340,38.574,69.824,38.086,0
2376.232,62.012,44.434,39.062,61.035,21.973,0
2376.236,80.078,47.363,32.227,53.711,5.371,0
2376.240,82.520,50.781,29.297,51.270,25.391,0
2376.244,82.520,48.828,29.785,64.941,31.250,0
2376.247,101.562,50.293,32.227,71.777,11.230,0
2376.251,99.121,48.340,30.273,43.457,-45.898,0
2376.255,74.219,48.828,30.273,57.617,-40.527,0
2376.259,66.895,43.457,35.156,60.547,4.395,0
2376.263,43.457,40.039,30.273,29.297,8.301,0
2376.267,41.504,39.551,29.785,34.668,-3.906,0
2376.271,42.969,34.180,28.320,41.504,-15.137,0
2376.275,41.504,36.621,23.926,50.293,1.953,0
2376.279,67.383,31.738,30.762,56.641,20.508,0
2376.283,71.289,25.391,35.156,24.902,14.160,0
2376.287,68.848,29.785,30.762,11.230,0.977,0
2376.290,57.617,34.668,32.227,61.035,37.598,0
2376.294,43.945,31.250,31.738,63.965,48.340,0
2376.298,61.523,26.855,28.320,36.133,-0.977,0
2376.302,72.754,28.320,29.297,36.621,-13.184,0
2376.306,45.898,28.809,26.367,28.809,10.742,0
2376.310,33.691,25.879,27.344,30.762,33.203,0
2376.314,74.219,27.832,33.203,55.664,34.668,0
2376.318,85.938,31.250,31.250,40.039,37.598,0
2376.322,38.086,30.273,25.391,9.766,46.387,0
2376.326,20.508,28.320,26.855,33.691,30.762,0
2376.329,34.180,26.367,28.809,52.734,24.902,0
2376.333,67.383,24.414,24.902,18.066,26.855,0
2376.337,53.223,24.414,23.926,8.301,38.086,0
2376.341,19.531,24.902,26.855,38.086,22.461,0
2376.345,21.484,25.391,27.344,44.434,-0.977,0
2376.349,30.273,24.902,26.367,30.273,13.672,0
2376.353,29.297,23.438,23.438,21.484,11.719,0
2376.357,24.902,24.902,20.020,32.715,30.273,0
2376.361,26.855,26.367,18.066,37.109,36.621,0
2376.365,39.551,24.902,21.973,38.574,38.086,0
2376.369,50.293,26.367,23.926,26.855,30.762,0
2376.372,25.879,24.414,21.484,27.832,21.484,0
2376.376,24.902,22.949,26.367,51.270,14.160,0
2376.380,53.711,27.344,25.879,33.203,12.695,0
2376.384,92.285,30.273,19.043,4.883,28.320,0
2376.388,93.262,26.367,18.555,26.367,6.836,0
2376.392,82.031,24.414,19.531,42.480,15.625,0
2376.396,106.934,26.855,17.090,22.461,43.945,0
2376.400,140.137,25.391,19.531,17.578,26.367,0
2376.404,145.996,21.484,22.461,34.180,0.488,0
2376.408,127.441,21.973,20.508,44.434,24.902,0
2376.412,131.348,23.926,21.484,40.039,83.984,0
2376.415,151.855,24.902,18.066,11.719,54.688,0
2376.419,158.203,23.438,16.602,1.953,25.391,0
2376.423,148.926,22.461,20.020,29.297,14.648,0
2376.427,162.109,25.391,19.043,31.250,21.973,0
2376.431,169.434,20.996,20.020,11.230,33.203,0
2376.435,178.711,17.578,19.531,-4.395,23.926,0
2376.439,190.918,20.996,15.625,17.090,38.086,0
2376.443,187.500,22.461,17.578,29.297,44.434,0
2376.447,192.871,23.438,16.113,1.465,33.203,0
2376.451,208.984,20.508,14.648,-6.348,20.508,0
2376.454,203.613,20.020,19.043,18.555,37.109,0
2376.458,182.129,21.484,20.996,37.109,30.273,0
2376.462,169.434,20.020,20.996,37.598,15.137,0
2376.466,183.105,19.043,18.555,18.066,16.113,0
2376.470,179.688,21.973,20.020,19.043,19.531,0
2376.474,149.414,22.461,21.973,37.598,19.043,0
2376.478,138.672,22.949,21.484,36.621,-1.465,0
2376.482,163.086,23.926,22.949,23.926,5.371,0
2376.486,173.828,21.484,20.996,3.418,20.020,0
2376.490,140.137,20.020,21.973,17.578,28.320,0
2376.494,124.023,21.973,25.391,34.180,30.273,0
2376.497,135.742,26.367,24.902,18.555,0.977,0
2376.501,147.461,27.832,24.414,0.488,1.953,0
2376.505,128.418,25.879,26.367,21.973,20.508,0
2376.509,117.676,24.414,28.809,33.203,9.277,0
2376.513,123.047,26.855,28.320,23.926,-27.344,0
2376.517,127.441,27.832,23.438,8.789,-24.902,0
2376.521,112.793,25.879,23.926,13.672,1.953,0
2376.525,96.680,29.785,26.367,26.855,-3.906,0
2376.529,105.957,30.762,25.879,26.367,-8.301,0
2376.533,126.465,27.832,26.367,21.973,-9.766,0
2376.537,128.418,27.832,26.855,17.578,-22.461,0
2376.540,113.281,29.785,27.344,28.320,-59.570,0
2376.544,125.977,31.250,29.297,33.203,-34.668,0
2376.548,136.230,30.273,30.273,20.508,-15.137,0
2376.552,140.625,31.738,27.344,18.066,-24.414,0
2376.556,130.371,31.250,28.809,40.039,-21.973,0
2376.560,120.117,26.855,36.133,49.316,-29.785,0
2376.564,99.609,20.508,40.039,29.785,-34.668,0
2376.568,114.258,12.207,43.945,7.324,-55.176,0
2376.572,141.113,5.371,48.828,25.391,-20.508,0
2376.576,125.977,-1.465,54.199,32.715,13.184,0
2376.579,106.934,-9.277,59.082,20.508,-4.883,0
2376.583,115.234,-15.625,64.941,19.531,-9.277,0
2376.587,106.934,-13.672,64.453,20.020,-2.441,0
2376.591,83.496,-11.719,61.035,25.391,17.578,0
2376.595,86.426,-11.719,58.105,30.762,7.812,0
2376.599,106.445,-7.812,57.129,30.762,-12.207,0
2376.603,116.699,-7.812,56.152,33.691,-9.766,0
2376.607,102.539,-8.789,51.270,46.875,-8.789,0
2376.611,90.820,-10.254,50.293,54.688,-13.184,0
2376.615,96.191,-10.254,50.293,35.645,-0.488,0
2376.619,125.000,-5.859,48.340,15.625,25.391,0
2376.622,111.328,-5.859,50.293,21.973,22.949,0
2376.626,79.102,-4.395,50.293,25.391,9.277,0
2376.630,86.426,0.000,47.363,30.273,-0.488,0
2376.634,106.934,1.465,44.922,22.461,-18.066,0
2376.638,94.727,2.441,44.922,28.320,-20.508,0
2376.642,78.125,1.465,46.875,50.293,-3.906,0
2376.646,84.961,0.488,44.434,47.363,-12.207,0
2376.650,91.309,1.465,42.480,27.344,-22.461,0
2376.654,91.309,4.395,45.410,30.762,0.488,0
2376.658,85.938,7.812,46.387,54.199,-0.977,0
2376.662,80.566,10.742,47.852,56.641,5.371,0
2376.665,87.891,11.230,45.410,42.480,-0.488,0
2376.669,93.262,11.719,38.574,20.996,-33.691,0
2376.673,60.547,15.137,39.062,24.902,-22.949,0
2376.677,62.012,14.648,41.504,30.273,-2.441,0
2376.681,83.008,15.137,40.527,19.531,0.977,0
2376.685,93.262,15.137,42.969,22.461,15.625,0
2376.689,75.684,11.230,43.457,39.062,11.719,0
2376.693,46.875,12.695,39.551,46.875,-6.348,0
2376.697,54.199,13.184,41.992,46.387,5.859,0
2376.701,71.777,12.207,43.457,34.180,3.906,0
2376.704,70.801,16.602,42.480,42.480,-19.043,0
2376.708,53.223,23.926,40.039,53.223,-9.766,0
2376.712,41.016,26.367,37.109,42.969,1.465,0
2376.716,42.480,20.508,38.574,25.391,-33.691,0
2376.720,39.062,22.461,37.109,12.207,-62.988,0
2376.724,16.602,24.902,36.621,30.762,6.836,0
2376.728,24.414,20.996,39.551,43.945,10.742,0
2376.732,51.270,20.996,41.016,30.762,-31.738,0
2376.736,65.918,20.996,43.457,34.668,4.883,0
2376.740,63.965,23.438,45.898,58.105,12.207,0
2376.744,65.918,23.926,46.387,55.664,-2.930,0
2376.747,78.613,24.414,42.480,43.457,-13.184,0
2376.751,98.633,26.367,41.504,32.715,-42.480,0
2376.755,95.215,24.414,41.016,41.016,-18.066,0
2376.759,83.496,24.902,41.016,60.547,37.598,0
2376.763,79.102,24.902,39.062,54.688,-4.395,0
2376.767,103.516,25.391,36.621,44.922,-13.672,0
2376.771,112.305,30.273,39.551,58.594,38.086,0
2376.775,90.820,28.809,41.504,72.754,20.508,0
2376.779,96.680,26.855,38.574,66.406,12.207,0
2376.783,121.582,31.250,37.598,47.852,32.227,0
2376.787,127.441,35.645,37.109,41.016,39.551,0
2376.790,98.633,35.156,37.109,50.781,53.223,0
2376.794,89.844,30.273,38.086,53.223,43.457,0
2376.798,105.957,29.785,39.062,46.387,41.016,0
2376.802,123.047,31.738,40.039,42.969,33.203,0
2376.806,103.516,28.320,41.016,61.035,20.996,0
2376.810,97.656,28.320,40.527,61.035,18.555,0
2376.814,113.770,31.250,41.504,53.711,30.762,0
2376.818,120.117,32.715,40.527,48.340,50.781,0
2376.822,100.586,30.762,37.598,48.828,30.762,0
2376.826,78.125,31.250,37.109,57.129,28.809,0
2376.829,81.055,31.738,36.621,52.246,51.270,0
2376.833,93.750,27.832,39.062,40.527,57.129,0
2376.837,78.613,27.344,38.086,33.691,37.109,0
2376.841,48.828,25.391,36.133,45.898,37.109,0
2376.845,43.457,26.367,36.133,47.852,45.410,0
2376.849,52.246,29.785,40.039,41.992,30.273,0
2376.853,61.035,28.320,39.062,40.527,-0.488,0
2376.857,42.969,31.250,35.645,42.969,3.906,0
2376.861,40.039,36.621,34.668,42.480,27.344,0
2376.865,52.734,34.180,33.691,40.039,5.859,0
2376.869,51.758,29.297,31.250,31.738,5.859,0
2376.872,38.086,29.785,27.344,39.062,75.195,0
2376.876,33.691,30.273,26.855,49.316,78.613,0
2376.880,33.203,30.762,25.879,47.363,14.648,0
2376.884,49.805,32.715,27.832,41.016,2.930,0
2376.888,46.875,31.738,31.738,51.270,34.668,0
2376.892,28.809,27.832,33.203,65.430,48.340,0
2376.896,37.109,27.344,32.227,59.082,31.738,0
2376.900,60.547,26.367,32.715,44.922,3.906,0
2376.904,64.941,22.461,33.691,46.387,-6.348,0
2376.908,46.875,24.414,31.250,62.012,-0.977,0
2376.912,51.758,26.367,31.738,59.570,-7.324,0
2376.915,70.801,29.297,33.691,41.504,-26.855,0
2376.919,87.891,32.227,33.203,38.086,18.555,0
2376.923,57.129,31.250,31.250,48.340,50.781,0
2376.927,33.203,31.738,31.250,44.922,40.039,0
2376.931,45.410,32.227,29.785,44.922,37.109,0
2376.935,61.035,29.785,28.809,42.969,28.320,0
2376.939,36.133,29.785,29.297,41.504,16.602,0
2376.943,7.812,31.738,24.902,37.598,11.230,0
2376.947,21.973,31.250,19.531,25.879,9.766,0
2376.951,55.176,29.785,23.438,20.508,43.945,0
2376.954,41.992,26.367,28.809,34.180,80.566,0
2376.958,15.137,28.809,25.879,42.969,58.105,0
2376.962,20.508,33.691,23.926,32.715,31.738,0
2376.966,20.020,31.738,23.438,21.484,18.066,0
2376.970,14.648,31.738,23.926,23.926,24.902,0
2376.974,3.906,30.762,27.832,41.016,23.438,0
2376.978,-2.441,26.367,26.855,43.945,42.969,0
2376.982,9.277,25.391,23.438,22.949,58.105,0
2376.986,16.602,23.926,20.020,13.672,8.301,0
2376.990,-17.090,18.066,22.949,33.203,2.930,0
2376.994,-8.789,15.625,28.320,51.758,45.898,0
2376.997,20.996,23.438,19.531,46.875,77.148,0
2377.001,16.602,30.762,9.766,11.230,37.109,0
2377.005,-19.531,31.250,10.254,5.859,-7.812,0
2377.009,-31.250,36.621,4.883,12.695,33.203,0
2377.013,-22.461,42.480,1.465,6.348,40.527,0
2377.017,-3.906,46.875,-0.488,-12.207,1.953,0
2377.021,5.859,45.898,-5.371,-4.883,-4.883,0
2377.025,-2.930,44.434,-8.789,22.461,27.344,0
2377.029,10.742,44.922,-9.766,33.203,41.504,0
2377.033,37.109,41.504,-5.859,23.926,-1.953,0
2377.037,49.316,39.062,-4.883,2.930,-0.488,0
2377.040,26.367,34.668,-6.836,13.184,35.645,0
2377.044,34.180,34.180,-7.324,28.809,59.082,0
2377.048,52.734,35.645,-9.277,10.742,23.438,0
2377.052,60.547,31.738,-10.742,3.906,14.648,0
2377.056,45.410,35.156,-10.742,25.391,40.039,0
2377.060,23.438,35.156,-9.766,41.504,31.738,0
2377.064,30.762,29.785,-5.371,49.805,28.320,0
2377.068,60.547,26.367,-5.371,-1.465,19.531,0
2377.072,43.457,20.020,-4.395,19.531,24.902,0
2377.076,11.719,17.090,-3.906,41.992,28.320,0
2377.079,21.973,19.043,-4.883,6.836,3.906,0
2377.083,54.199,19.531,-2.441,-3.418,-9.766,0
2377.087,59.570,22.461,-0.488,-1.465,-1.953,0
2377.091,31.250,25.391,1.465,28.809,34.668,0
2377.095,34.668,24.414,1.465,44.434,7.324,0
2377.099,51.758,22.949,0.977,13.184,-26.367,0
2377.103,44.922,23.926,4.883,27.832,-4.395,0
2377.107,11.230,29.297,5.371,61.523,-9.277,0
2377.111,-17.090,26.367,6.836,70.312,-17.090,0
2377.115,-21.973,18.066,7.324,35.645,0.977,0
2377.119,-10.254,15.137,2.441,0.000,17.090,0
2377.122,-33.203,10.742,2.930,11.230,3.906,0
2377.126,-49.316,9.277,4.395,9.277,-18.066,0
2377.130,-41.992,7.324,-0.488,-1.953,-11.230,0
2377.134,-14.648,8.301,-3.906,-3.906,-14.648,0
2377.138,-22.461,8.301,0.488,-16.602,-25.879,0
2377.142,-51.270,5.859,-0.488,-17.090,-11.719,0
2377.146,-37.598,7.812,-4.395,-6.348,10.742,0
2377.150,-25.879,4.883,-3.906,-69.336,3.418,0
2377.154,-24.902,6.348,-1.465,-42.480,-7.812,0
2377.158,-36.133,12.695,0.977,20.020,-9.766,0
2377.162,-40.527,9.277,-0.488,-48.340,-2.930,0
2377.165,-31.738,3.418,-1.465,-69.336,-9.277,0
2377.169,-22.949,0.977,-0.977,-52.246,-53.223,0
2377.173,-39.551,0.488,0.000,-53.223,-54.199,0
2377.177,-47.852,0.488,1.953,-41.016,-3.418,0
2377.181,-37.598,0.977,3.906,-9.277,24.414,0
2377.185,-25.879,3.418,4.883,-31.250,-28.809,0
2377.189,-20.508,7.324,3.906,-66.895,-12.695,0
2377.193,-32.227,9.277,1.953,-57.129,36.621,0
2377.197,-39.062,6.836,0.977,-29.297,-1.465,0
2377.201,-15.625,5.371,-2.441,-27.344,-26.855,0
2377.204,-4.395,8.789,-6.836,-70.801,-9.277,0
2377.208,-15.625,11.230,-5.371,-71.289,-21.484,0
2377.212,-16.602,10.254,-4.395,-60.059,-38.574,0
2377.216,9.766,14.160,-2.930,-41.992,-44.922,0
2377.220,24.414,15.625,1.953,-18.066,-41.992,0
2377.224,9.766,17.090,-1.953,-45.898,-11.719,0
2377.228,10.742,20.508,-2.441,-51.270,-30.273,0
2377.232,29.297,17.578,1.465,-11.230,-36.133,0
2377.236,42.480,16.602,-0.977,-30.273,-8.789,0
2377.240,26.855,17.090,-1.465,-44.922,-26.367,0
2377.244,35.156,21.973,-5.371,-53.223,-2.930,0
2377.247,43.457,24.414,-5.371,-67.383,-9.277,0
2377.251,64.941,20.508,-2.930,-42.480,-40.039,0
2377.255,61.035,20.508,-0.488,-29.785,-22.949,0
2377.259,41.016,21.484,5.371,-0.488,-6.836,0
2377.263,52.246,22.949,4.395,-17.578,-10.742,0
2377.267,77.637,23.438,0.977,-80.566,-36.621,0
2377.271,70.312,26.367,0.977,-48.340,-22.949,0
2377.275,40.527,30.273,-2.441,-32.715,-4.883,0
2377.279,52.734,24.902,-3.906,-44.434,-1.465,0
2377.283,85.938,25.879,-2.930,-34.668,-1.953,0
2377.287,82.031,23.438,-0.488,-1.953,-36.621,0
2377.290,49.805,20.508,0.977,-19.043,-38.574,0
2377.294,62.012,27.832,-3.418,-61.523,16.113,0
2377.298,82.520,31.250,-6.348,-52.734,14.648,0
2377.302,83.496,27.832,-3.906,-49.316,-52.246,0
2377.306,65.430,27.344,3.906,7.812,-48.828,0
2377.310,49.805,26.367,5.859,7.324,-37.598,0
2377.314,42.969,23.926,1.465,-32.715,-31.250,0
2377.318,43.945,27.344,0.488,-26.855,-50.293,0
2377.322,55.664,29.785,0.000,-18.555,-72.266,0
2377.326,49.805,27.344,0.000,-12.207,-20.996,0
2377.329,55.176,30.273,0.000,-13.672,3.906,0
2377.333,83.496,32.715,-1.953,-10.254,-15.625,0
2377.337,83.008,29.785,-0.977,-4.395,-22.949,0
2377.341,66.406,31.738,-2.930,7.324,-5.859,0
2377.345,60.547,31.738,1.953,49.805,-8.789,0
2377.349,85.938,35.156,2.930,17.578,-11.719,0
2377.353,99.609,37.598,-2.441,-32.715,-19.043,0
2377.357,73.242,36.133,-2.441,26.855,0.977,0
2377.361,50.781,33.691,-1.465,31.250,12.695,0
2377.365,66.406,35.156,-1.953,25.879,-20.020,0
2377.369,90.820,35.645,4.883,76.660,-29.297,0
2377.372,64.941,33.691,2.930,78.125,-14.160,0
2377.376,55.664,37.109,-2.930,46.875,-1.953,0
2377.380,52.734,36.621,-0.488,37.598,2.441,0
2377.384,56.152,33.691,-3.418,16.113,10.742,0
2377.388,30.273,33.203,-2.441,44.922,6.836,0
2377.392,-15.137,33.203,2.930,58.594,-7.324,0
2377.396,-14.648,34.180,0.977,48.828,-35.645,0
2377.400,13.184,37.109,-4.395,53.223,-28.320,0
2377.404,12.207,35.156,1.465,62.500,-7.324,0
2377.408,-35.156,27.344,14.160,86.914,0.977,0
2377.412,-58.105,22.461,17.090,77.637,13.184,0
2377.415,-34.668,26.855,18.066,63.477,-2.930,0
2377.419,-31.738,31.738,16.602,74.707,6.836,0
2377.423,-58.105,31.250,13.184,89.355,4.395,0
2377.427,-44.434,30.273,17.090,81.055,-27.344,0
2377.431,-28.809,29.785,16.602,94.238,-20.020,0
2377.435,-34.668,23.926,14.160,94.238,-60.547,0
2377.439,-71.289,21.484,14.160,78.125,-57.617,0
2377.443,-98.633,22.949,17.090,93.262,-3.418,0
2377.447,-85.449,24.414,20.020,101.074,5.859,0
2377.451,-59.082,25.391,20.996,97.656,-24.902,0
2377.454,-64.453,27.832,20.508,94.238,-32.715,0
2377.458,-80.566,28.320,20.996,115.723,1.953,0
2377.462,-78.613,32.227,20.020,121.094,-10.254,0
2377.466,-65.430,31.250,20.996,104.004,-46.387,0
2377.470,-69.824,26.855,19.043,75.195,-81.055,0
2377.474,-66.895,31.250,17.090,116.699,-35.645,0
2377.478,-71.289,32.227,18.555,135.742,0.977,0
2377.482,-64.941,29.785,21.973,110.840,-6.348,0
2377.486,-32.715,35.156,21.484,92.285,-13.184,0
2377.490,-39.062,37.109,17.578,84.473,-0.488,0
2377.494,-41.504,35.645,18.066,95.703,4.883,0
2377.497,-15.625,38.574,18.066,76.660,-15.625,0
2377.501,10.742,34.668,18.555,73.730,-13.672,0
2377.505,12.695,34.180,19.531,90.332,-9.766,0
2377.509,1.953,35.645,18.555,91.797,-18.066,0
2377.513,29.297,35.645,18.066,89.844,-41.992,0
2377.517,59.570,37.109,20.020,74.707,-20.020,0
2377.521,70.312,38.086,18.066,75.684,30.273,0
2377.525,63.477,38.086,15.625,77.148,24.902,0
2377.529,39.551,34.180,18.555,99.121,2.441,0
2377.533,89.355,34.668,20.020,106.445,-17.090,0
2377.537,143.555,33.691,21.484,85.938,-19.043,0
2377.540,109.863,31.738,24.902,81.543,13.184,0
2377.544,124.512,36.621,26.367,92.285,5.371,0
2377.548,152.344,37.109,20.996,94.238,-13.184,0
2377.552,162.109,31.738,23.438,94.238,-21.484,0
2377.556,152.832,31.250,30.273,88.867,-20.508,0
2377.560,143.066,29.297,29.785,65.430,-18.066,0
2377.564,165.527,32.227,27.832,64.941,-17.090,0
2377.568,203.125,35.645,29.785,64.453,-32.715,0
2377.572,191.895,30.762,34.180,87.891,-61.035,0
2377.576,166.992,31.738,35.156,106.445,-41.992,0
2377.579,166.016,33.691,30.273,63.477,-2.441,0
2377.583,188.477,30.762,30.273,46.875,-22.949,0
2377.587,218.750,29.785,25.391,71.289,-33.691,0
2377.591,186.035,27.344,21.973,84.473,-11.719,0
2377.595,168.945,22.949,24.902,84.473,-3.418,0
2377.599,215.332,22.461,20.020,61.523,12.695,0
2377.603,223.633,22.461,18.066,37.598,-15.625,0
2377.607,193.359,14.160,18.555,77.637,-54.688,0
2377.611,189.453,8.789,20.508,104.492,-21.484,0
2377.615,205.078,8.789,22.461,69.824,-10.742,0
2377.619,227.539,8.301,21.973,31.738,-41.504,0
2377.622,216.797,6.836,21.484,48.828,-34.668,0
2377.626,206.055,7.324,21.484,74.707,22.461,0
2377.630,208.496,4.395,19.043,61.523,42.480,0
2377.634,211.914,-0.488,17.578,34.180,18.066,0
2377.638,225.098,1.465,17.578,60.059,-2.930,0
2377.642,233.398,6.348,17.578,90.332,32.715,0
2377.646,212.402,4.395,22.461,72.754,15.137,0
2377.650,202.148,-0.977,24.902,56.152,-32.227,0
2377.654,227.539,0.488,24.414,47.852,-20.996,0
2377.658,202.637,1.465,19.531,66.895,-11.230,0
2377.662,199.707,2.930,17.578,69.336,-8.789,0
2377.665,218.262,3.906,21.973,77.148,-1.953,0
2377.669,218.262,6.348,23.438,76.660,-35.156,0
2377.673,197.754,5.371,18.555,42.969,-8.789,0
2377.677,183.105,1.953,18.066,37.598,16.602,0
2377.681,193.359,1.953,15.137,32.715,16.113,0
2377.685,198.730,3.906,13.672,51.758,24.902,0
2377.689,185.059,3.906,16.602,63.965,21.973,0
2377.693,158.691,1.465,13.672,38.086,55.664,0
2377.697,160.645,0.488,13.672,37.598,48.828,0
2377.701,187.500,-0.488,14.160,31.250,38.574,0
2377.704,180.176,0.000,10.742,40.039,40.039,0
2377.708,150.391,1.465,11.719,63.965,49.805,0
2377.712,152.344,6.348,11.719,44.434,63.965,0
2377.716,170.898,5.371,10.254,-1.465,40.039,0
2377.720,172.852,2.930,10.742,10.254,11.230,0
2377.724,151.367,5.371,9.766,58.105,40.527,0
2377.728,149.414,5.371,5.371,21.973,56.641,0
2377.732,148.926,3.906,4.883,3.418,27.832,0
2377.736,135.254,5.371,7.812,15.137,-9.766,0
2377.740,117.188,7.324,7.324,19.043,-1.465,0
2377.744,84.473,6.836,6.348,37.109,29.785,0
2377.747,57.617,6.348,7.324,39.551,49.316,0
2377.751,48.340,2.930,7.812,-6.348,57.617,0
2377.755,6.836,1.465,6.836,0.977,54.688,0
2377.759,-13.672,7.324,4.395,22.461,44.922,0
2377.763,10.742,6.836,4.883,14.160,36.133,0
2377.767,30.762,1.953,5.859,-6.836,36.133,0
2377.771,32.715,1.465,2.930,-24.414,28.809,0
2377.775,20.020,2.441,6.348,22.461,53.223,0
2377.779,29.785,1.953,8.789,30.273,61.523,0
2377.783,39.062,-3.418,6.836,-35.156,38.574,0
2377.787,35.156,-6.836,7.324,-17.090,18.555,0
2377.790,37.598,-2.441,5.859,2.930,12.207,0
2377.794,49.805,-4.883,7.812,-23.926,39.062,0
2377.798,81.055,-7.812,10.742,-16.113,19.043,0
2377.802,101.562,-8.789,11.230,-10.742,-13.672,0
2377.806,91.797,-10.254,16.113,20.020,18.066,0
2377.810,64.941,-10.254,20.508,30.273,42.480,0
2377.814,65.430,-10.254,18.555,2.441,38.574,0
2377.818,87.402,-8.789,16.602,-54.688,23.438,0
2377.822,77.637,-10.742,20.508,-42.969,25.391,0
2377.826,63.477,-10.254,22.461,19.531,44.922,0
2377.829,67.871,-9.277,22.949,25.879,25.391,0
2377.833,85.449,-9.277,22.461,-21.973,-14.648,0
2377.837,94.727,-8.789,18.555,-23.438,-6.836,0
2377.841,84.961,-5.371,18.555,3.906,22.461,0
2377.845,80.566,-3.418,22.949,19.043,5.859,0
2377.849,97.656,-2.441,22.461,15.625,19.531,0
2377.853,108.398,1.465,17.578,5.371,27.344,0
2377.857,91.309,0.488,15.625,31.250,-6.836,0
2377.861,87.402,2.441,16.113,37.109,-5.371,0
2377.865,93.262,3.418,15.625,8.301,-0.977,0
2377.869,98.145,2.441,15.137,3.418,-6.836,0
2377.872,71.289,-0.488,19.531,42.480,23.926,0
2377.876,60.547,-3.906,19.531,48.828,30.762,0
2377.880,68.359,-3.418,17.578,50.293,30.273,0
2377.884,76.172,-0.977,16.113,11.719,20.020,0
2377.888,80.566,1.953,14.160,2.930,4.395,0
2377.892,56.641,-0.977,13.672,38.574,24.414,0
2377.896,63.477,-3.418,15.625,42.969,54.688,0
2377.900,83.496,0.488,13.184,11.719,43.945,0
2377.904,82.520,-0.488,13.672,8.789,20.996,0
2377.908,60.059,3.906,16.113,38.574,31.738,0
2377.912,41.992,5.859,17.090,37.109,51.758,0
2377.915,30.273,0.488,17.090,14.160,64.453,0
2377.919,27.344,0.977,13.184,-7.324,67.871,0
2377.923,6.348,2.930,11.719,27.344,70.801,0
2377.927,-31.738,0.488,13.672,36.621,88.379,0
2377.931,-60.547,-3.906,15.625,2.441,55.176,0
2377.935,-56.152,-3.906,15.137,-16.602,14.160,0
2377.939,-63.965,0.488,15.137,0.977,34.180,0
2377.943,-84.961,4.883,13.184,7.812,53.711,0
2377.947,-75.684,4.883,7.812,-10.254,34.668,0
2377.951,-48.828,6.836,5.859,-16.602,7.812,0
2377.954,-42.969,5.859,6.348,-18.555,21.973,0
2377.958,-82.520,1.465,8.301,-8.789,59.570,0
2377.962,-93.262,1.465,10.254,-1.465,64.453,0
2377.966,-73.242,5.371,8.301,-4.395,37.598,0
2377.970,-88.379,8.789,3.418,-16.602,24.902,0
2377.974,-112.793,6.348,2.930,-1.953,45.898,0
2377.978,-123.047,4.395,1.465,-1.465,72.754,0
2377.982,-115.723,6.836,-0.488,-48.828,46.875,0
2377.986,-101.074,9.277,2.930,-54.688,32.227,0
2377.990,-136.230,14.648,0.977,-44.922,45.410,0
2377.994,-165.039,14.648,0.488,-39.062,14.160,0
2377.997,-156.250,7.324,5.859,-18.555,9.766,0
2378.001,-144.043,10.254,5.371,-32.227,31.250,0
2378.005,-175.781,11.230,2.441,-37.598,44.434,0
2378.009,-230.469,5.371,5.371,-0.488,49.316,0
2378.013,-246.582,5.859,2.930,-6.836,24.414,0
2378.017,-236.816,11.719,0.000,-28.320,2.441,0
2378.021,-230.469,6.836,3.418,-15.625,-14.648,0
2378.025,-240.723,5.371,2.930,-6.348,-1.465,0
2378.029,-237.793,10.742,0.488,-17.578,27.832,0
2378.033,-211.426,8.301,3.418,-20.020,25.391,0
2378.037,-203.125,9.277,4.395,-22.461,14.648,0
2378.040,-214.844,10.254,3.906,-19.043,19.531,0
2378.044,-200.195,6.348,2.930,-7.324,22.461,0
2378.048,-175.781,7.812,6.348,-10.254,15.137,0
2378.052,-152.344,6.836,7.324,-22.461,6.348,0
2378.056,-146.484,2.930,3.906,-7.324,10.742,0
2378.060,-142.578,8.789,0.977,-0.977,52.734,0
2378.064,-132.812,8.789,-0.488,-15.137,52.246,0
2378.068,-121.094,1.465,1.953,-30.273,12.207,0
2378.072,-120.117,-1.465,5.859,-20.996,39.062,0
2378.076,-130.371,3.418,3.906,-1.465,76.172,0
2378.079,-156.738,8.301,-1.465,-10.742,63.477,0
2378.083,-144.531,11.230,0.488,-35.156,3.418,0
2378.087,-96.191,8.789,4.883,-34.668,-9.277,0
2378.091,-105.469,7.324,2.930,-24.414,59.082,0
2378.095,-102.051,5.859,5.371,-29.297,48.340,0
2378.099,-83.008,2.930,7.324,-38.574,33.691,0
2378.103,-61.035,3.418,4.395,-43.457,51.758,0
2378.107,-49.805,10.254,1.953,-20.508,45.898,0
2378.111,-36.133,9.766,1.953,-12.695,33.203,0
2378.115,-28.809,7.812,2.441,-23.438,20.508,0
2378.119,-14.648,8.301,1.953,-35.645,23.438,0
2378.122,4.883,10.742,5.371,-25.879,30.273,0
2378.126,-9.766,11.719,6.836,-10.742,25.391,0
2378.130,-30.273,11.230,5.371,-26.367,13.672,0
2378.134,-3.418,11.230,4.883,-39.551,-15.137,0
2378.138,18.555,16.602,3.906,-27.344,8.301,0
2378.142,2.441,18.066,7.812,-15.625,53.711,0
2378.146,-14.160,12.695,10.742,-11.719,51.270,0
2378.150,-1.465,17.578,6.836,-24.414,15.137,0
2378.154,41.504,17.578,10.254,-17.090,-0.977,0
2378.158,10.742,15.137,13.672,-6.836,3.418,0
2378.162,-4.883,17.578,9.766,-21.973,25.879,0
2378.165,25.391,17.090,10.254,-17.578,29.785,0
2378.169,34.180,14.160,13.672,-9.277,-8.301,0
2378.173,16.602,13.184,11.230,-5.371,-1.953,0
2378.177,7.812,13.184,4.395,-0.977,2.930,0
2378.181,20.020,12.207,7.324,-11.719,-0.488,0
2378.185,51.758,17.090,11.230,-21.973,17.578,0
2378.189,54.688,12.207,12.695,0.977,14.648,0
2378.193,36.621,10.254,13.184,17.578,-2.930,0
2378.197,32.715,12.695,16.113,11.719,-3.906,0
2378.201,45.410,11.719,16.113,-15.137,2.930,0
2378.204,42.480,11.719,12.207,-4.395,-0.488,0
2378.208,21.484,14.160,11.230,22.949,0.977,0
2378.212,43.945,15.625,15.137,14.648,-3.906,0
2378.216,60.059,12.207,19.043,5.371,-10.742,0
2378.220,59.082,14.160,13.184,7.812,-47.363,0
2378.224,60.059,10.742,15.137,28.320,-24.902,0
2378.228,61.035,9.766,21.973,36.621,35.156,0
2378.232,72.266,13.184,17.578,29.785,-2.930,0
2378.236,84.961,13.672,15.137,19.043,-54.199,0
2378.240,73.730,13.184,17.090,36.133,-10.254,0
2378.244,63.965,12.695,15.137,52.734,-8.301,0
2378.247,75.195,17.090,12.207,56.641,-8.789,0
2378.251,89.355,10.254,15.625,38.574,-5.859,0
2378.255,81.055,8.301,18.066,42.969,-13.184,0
2378.259,72.266,6.836,18.066,71.289,-1.465,0
2378.263,82.520,3.906,17.090,64.941,2.441,0
2378.267,84.961,9.277,15.625,49.316,12.207,0
2378.271,82.520,9.766,15.137,62.988,29.785,0
2378.275,83.008,9.277,12.695,87.891,43.457,0
2378.279,86.914,17.578,13.672,74.219,36.621,0
2378.283,94.238,13.184,17.578,66.895,18.555,0
2378.287,91.309,9.277,11.719,57.129,7.324,0
2378.290,72.266,20.508,4.395,57.129,2.930,0
2378.294,60.547,16.602,8.301,61.523,17.578,0
2378.298,75.684,12.695,10.254,60.059,42.969,0
2378.302,80.566,19.531,8.789,51.270,19.531,0
2378.306,63.477,10.742,7.812,43.457,18.066,0
2378.310,51.758,11.230,9.766,51.270,1.953,0
2378.314,42.480,12.695,9.766,43.457,-3.418,0
2378.318,46.387,2.930,11.230,22.461,24.902,0
2378.322,38.086,12.695,13.672,22.461,41.992,0
2378.326,30.762,18.555,6.836,32.715,26.855,0
2378.329,10.254,20.020,2.930,14.160,18.555,0
2378.333,-11.230,14.160,5.859,-6.836,10.254,0
2378.337,3.418,-0.488,6.836,-4.395,0.488,0
2378.341,-18.555,3.906,7.324,19.531,15.625,0
2378.345,-22.461,2.930,6.348,26.367,19.043,0
2378.349,7.324,1.953,4.883,2.441,24.902,0
2378.353,18.066,7.812,-1.465,-11.230,6.348,0
2378.357,-20.020,12.207,1.465,1.465,19.531,0
2378.361,-73.242,4.883,6.348,-7.812,26.367,0
2378.365,-55.176,-1.953,5.371,-19.531,17.090,0
2378.369,-16.602,21.484,-0.977,-38.574,9.766,0
2378.372,-25.879,2.930,3.906,-19.043,29.785,0
2378.376,-23.926,-13.184,8.789,1.953,51.758,0
2378.380,-21.973,11.230,5.859,-18.066,18.555,0
2378.384,-27.832,5.859,12.695,-28.320,16.113,0
2378.388,-44.922,12.695,4.883,-31.250,14.648,0
2378.392,-68.359,20.508,-1.465,-13.672,11.719,0
2378.396,-83.496,0.000,16.602,1.465,5.859,0
2378.400,-77.637,-4.395,16.602,-16.602,-20.508,0
2378.404,-68.848,-8.789,12.695,-33.691,-9.277,0
2378.408,-78.613,-1.953,2.441,-10.742,25.879,0
2378.412,-78.125,9.766,3.906,12.695,27.344,0
2378.415,-78.125,10.254,11.719,-8.789,12.207,0
2378.419,-76.660,5.371,1.465,-20.020,-8.301,0
2378.423,-98.633,2.441,1.953,-16.113,-4.883,0
2378.427,-91.797,8.301,-0.977,-8.789,17.090,0
2378.431,-74.707,6.348,0.488,-1.953,21.484,0
2378.435,-80.566,1.465,8.789,-34.180,1.465,0
2378.439,-83.984,6.836,9.766,-32.227,-31.738,0
2378.443,-92.773,12.207,5.859,-3.906,-29.785,0
2378.447,-89.844,13.672,17.090,-18.066,-33.691,0
2378.451,-45.410,17.578,12.207,-44.922,-24.902,0
2378.454,-33.691,15.625,-3.418,-7.324,3.906,0
2378.458,-66.895,-0.977,15.137,12.695,39.062,0
2378.462,-66.895,16.602,3.906,1.465,39.551,0
2378.466,-49.805,21.973,1.953,-12.207,0.488,0
2378.470,-33.691,2.441,10.742,-21.973,-14.160,0
2378.474,-50.781,12.695,2.930,17.090,-1.953,0
2378.478,-47.852,18.066,7.812,35.156,9.766,0
2378.482,-34.180,17.090,8.789,9.277,-4.883,0
2378.486,-33.203,19.043,6.836,-13.184,-15.137,0
2378.490,-63.477,21.973,3.906,-10.742,-26.855,0
2378.494,-65.918,33.691,2.441,-17.090,-9.277,0
2378.497,-52.734,26.367,22.461,-4.883,2.930,0
2378.501,-19.531,19.043,20.020,7.812,-18.066,0
2378.505,-11.230,31.250,1.953,0.000,-31.738,0
2378.509,-55.176,26.367,10.742,-4.395,6.836,0
2378.513,-33.691,33.691,3.418,-2.441,32.715,0
2378.517,-2.441,26.855,2.930,3.418,1.465,0
2378.521,-32.715,26.855,6.348,3.906,-10.254,0
2378.525,-64.453,30.762,-1.465,4.395,-11.719,0
2378.529,-9.766,9.766,23.926,16.602,-13.184,0
2378.533,31.738,41.992,24.902,12.695,-7.324,0
2378.537,25.879,31.250,7.812,12.207,-6.348,0
2378.540,17.090,7.812,13.184,29.297,7.324,0
2378.544,20.020,31.738,8.789,30.762,28.320,0
2378.548,15.625,23.926,20.996,2.441,16.602,0
2378.552,12.695,22.949,28.809,-0.488,-21.973,0
2378.556,24.902,29.785,10.742,36.133,-9.766,1
2378.560,24.902,25.879,10.254,48.828,11.230,0
2378.564,24.902,30.273,15.137,45.410,32.227,0
2378.568,48.828,31.250,9.277,12.695,29.297,0
2378.572,33.203,34.668,20.020,18.555,-10.254,0
2378.576,21.973,40.527,13.672,55.176,-3.418,0
2378.579,54.199,45.898,9.766,43.457,42.969,0
2378.583,97.656,27.832,23.438,41.992,31.738,0
2378.587,98.633,23.438,25.391,55.176,16.113,0
2378.591,59.082,35.156,24.414,63.477,13.672,0
2378.595,67.871,32.715,23.926,72.266,-14.160,0
2378.599,91.797,41.016,25.391,76.172,-12.207,0
2378.603,98.633,29.297,38.574,56.152,4.395,0
2378.607,74.219,40.039,26.367,50.293,3.418,0
2378.611,72.266,39.062,8.301,81.055,-5.859,0
2378.615,114.258,12.695,21.973,80.566,14.648,0
2378.619,121.094,20.508,27.832,51.758,12.207,0
2378.622,99.121,39.551,24.902,51.270,4.395,0
2378.626,81.543,48.340,11.719,60.059,0.488,0
2378.630,80.078,33.691,18.066,73.242,-3.418,0
2378.634,80.566,37.598,23.438,70.801,6.348,0
2378.638,54.199,40.527,28.809,64.941,-21.973,0
2378.642,54.199,35.645,27.344,74.219,-24.902,0
2378.646,68.359,37.598,24.902,70.801,23.926,0
2378.650,63.477,33.203,20.996,62.012,35.645,0
2378.654,43.457,32.715,15.625,39.551,23.438,0
2378.658,40.039,35.156,27.832,51.270,25.391,0
2378.662,43.945,27.832,23.438,70.801,38.086,0
2378.665,31.250,34.180,19.043,67.383,30.273,0
2378.669,42.480,41.992,24.414,47.363,7.324,0
2378.673,29.297,34.180,28.809,57.617,11.719,0
2378.677,-19.531,29.297,28.320,58.594,-5.371,0
2378.681,-14.160,19.531,34.180,46.875,-28.809,0
2378.685,3.906,29.297,33.691,36.133,-17.578,0
2378.689,-25.391,45.898,15.625,35.645,10.254,0
2378.693,-26.855,33.203,23.438,59.570,5.859,0
2378.697,15.137,23.926,22.949,62.500,-23.438,0
2378.701,56.641,25.391,23.438,41.992,-31.250,0
2378.704,60.059,32.715,25.879,50.293,-22.461,0
2378.708,45.898,21.484,30.273,83.008,-17.090,0
2378.712,48.340,17.578,32.227,88.379,-6.348,0
2378.716,66.406,31.250,17.090,53.223,-8.301,0
2378.720,76.172,27.832,21.973,37.109,-15.137,0
2378.724,71.289,19.531,23.926,77.637,24.902,0
2378.728,72.266,30.762,15.625,89.355,34.668,0
2378.732,67.383,35.645,24.902,52.734,40.039,0
2378.736,87.402,28.809,22.461,35.645,19.531,0
2378.740,73.730,19.043,23.438,65.918,23.926,0
2378.744,53.711,23.438,19.043,59.570,18.066,0
2378.747,70.312,26.855,23.926,37.109,-1.465,0
2378.751,95.215,24.902,29.297,53.223,22.461,0
2378.755,81.543,33.203,16.113,62.988,8.789,0
2378.759,41.992,16.602,30.273,64.941,15.625,0
2378.763,53.223,8.789,25.879,60.547,22.461,0
2378.767,71.289,15.137,18.555,41.992,13.672,0
2378.771,74.707,21.484,20.020,47.852,8.789,0
2378.775,54.688,29.785,15.625,51.270,-7.812,0
2378.779,34.180,31.738,14.648,41.016,27.344,0
2378.783,65.430,31.738,19.531,41.016,66.406,0
2378.787,89.355,25.879,21.973,39.062,31.250,0
2378.790,62.500,20.020,22.461,48.340,40.039,0
2378.794,42.969,28.809,18.555,42.480,41.992,0
2378.798,56.641,25.879,21.484,35.645,44.434,0
2378.802,76.172,23.926,15.137,30.762,65.918,0
2378.806,81.543,34.180,10.742,39.062,39.551,0
2378.810,37.598,23.926,23.926,37.109,10.254,0
2378.814,18.555,29.297,15.137,26.855,1.465,0
2378.818,75.195,29.785,13.672,25.391,5.371,0
2378.822,71.289,20.020,21.973,20.508,6.348,0
2378.826,43.457,30.762,21.973,25.391,13.184,0
2378.829,53.223,37.109,26.855,38.574,18.066,0
2378.833,37.109,31.738,22.461,28.809,-5.371,0
2378.837,13.184,29.297,21.484,17.578,0.977,0
2378.841,43.945,32.715,23.438,41.016,24.414,0
2378.845,68.848,35.645,24.902,36.621,18.555,0
2378.849,45.410,37.109,20.508,-4.883,-8.789,0
2378.853,41.016,38.086,24.414,-4.395,-27.832,0
2378.857,35.156,35.156,26.367,41.504,-18.066,0
2378.861,32.227,33.691,22.461,49.805,4.883,0
2378.865,37.598,31.738,24.414,27.832,-0.977,0
2378.869,45.898,31.250,24.414,5.371,-5.859,0
2378.872,36.621,39.551,22.949,19.043,9.277,0
2378.876,27.832,36.621,27.344,27.832,15.625,0
2378.880,30.762,30.762,27.832,20.996,6.348,0
2378.884,38.574,39.551,17.090,18.555,-13.672,0
2378.888,34.668,39.062,16.113,18.066,-13.184,0
2378.892,19.043,31.738,22.461,38.574,6.836,0
2378.896,17.578,30.762,19.531,23.926,-5.859,0
2378.900,13.184,32.227,17.578,24.414,-4.395,0
2378.904,16.113,28.320,31.250,22.949,9.766,0
2378.908,19.531,19.043,34.668,10.742,8.301,0
2378.912,20.508,41.016,11.719,36.133,35.156,0
2378.915,33.203,56.641,12.695,23.438,33.691,0
2378.919,50.781,30.762,21.973,22.461,2.441,0
2378.923,4.883,26.855,17.090,37.109,2.930,0
2378.927,-7.812,30.762,25.391,33.691,13.184,0
2378.931,26.855,28.809,29.297,23.438,20.996,0
2378.935,30.762,42.969,19.043,11.230,-13.184,0
2378.939,46.387,52.246,5.371,34.668,-33.691,0
2378.943,44.434,46.387,16.113,56.152,25.391,0
2378.947,2.930,53.223,18.066,35.156,59.570,0
2378.951,35.156,45.410,11.719,19.531,38.086,0
2378.954,75.195,17.090,23.438,44.922,6.836,0
2378.958,47.363,21.484,27.832,48.828,15.625,0
2378.962,25.879,15.137,28.809,49.805,50.781,0
2378.966,37.598,20.508,22.949,32.715,15.137,0
2378.970,56.641,36.133,4.883,27.344,-28.320,0
2378.974,24.414,78.125,6.836,41.992,0.488,0
2378.978,-0.488,51.270,28.320,61.035,24.414,0
2378.982,41.504,-5.859,34.668,62.012,-0.488,0
2378.986,99.121,2.930,18.066,41.504,-4.883,0
2378.990,68.848,16.113,31.250,59.570,20.996,0
2378.994,48.340,29.785,30.273,63.477,50.293,0
2378.997,47.363,29.297,5.371,52.246,56.641,0
2379.001,47.852,27.832,12.207,42.969,20.020,0
2379.005,71.289,13.672,20.996,47.852,20.996,0
2379.009,53.223,21.973,15.625,52.734,26.855,0
2379.013,50.781,31.738,14.648,38.574,17.578,0
2379.017,68.359,35.156,20.508,11.230,-4.883,0
2379.021,74.219,25.879,17.578,26.367,3.418,0
2379.025,63.965,18.555,30.762,38.086,0.000,0
2379.029,46.387,13.184,33.203,36.621,-14.160,0
2379.033,29.297,33.203,16.602,19.531,-2.930,0
2379.037,62.988,31.250,18.066,41.016,11.719,0
2379.040,39.062,16.113,23.926,81.543,14.648,0
2379.044,15.625,20.020,27.832,64.453,27.832,0
2379.048,55.664,17.090,22.949,50.781,34.668,0
2379.052,35.645,27.832,18.555,49.316,24.414,0
2379.056,-5.371,14.648,20.020,52.734,33.691,0
2379.060,0.000,13.672,18.066,44.922,23.926,0
2379.064,20.996,29.785,18.555,45.410,33.691,0
2379.068,25.391,20.996,23.926,28.320,9.766,0
2379.072,30.273,11.719,23.926,36.133,-6.836,0
2379.076,19.043,19.043,19.531,62.988,35.645,0
2379.079,12.207,19.531,20.020,78.125,44.434,0
2379.083,23.926,21.973,17.090,60.059,45.898,0
2379.087,15.625,29.297,17.578,25.879,41.992,0
2379.091,-6.836,23.926,23.438,37.109,36.133,0
2379.095,11.719,22.949,19.043,41.992,67.871,0
2379.099,37.109,22.949,22.949,50.293,86.426,0
2379.103,30.762,18.555,22.949,43.457,37.109,0
2379.107,-1.953,30.273,18.555,45.898,4.395,0
2379.111,5.371,20.996,29.785,71.777,3.418,0
2379.115,10.742,21.484,22.461,57.129,3.906,0
2379.119,1.953,24.414,19.531,38.086,11.230,0
2379.122,25.391,30.273,20.020,24.902,15.137,0
2379.126,19.531,30.762,16.113,10.742,26.367,0
2379.130,2.441,26.367,19.043,26.367,39.551,0
2379.134,19.043,31.738,22.949,35.645,0.000,0
2379.138,30.762,29.785,24.414,28.320,3.418,0
2379.142,18.555,22.461,25.391,36.621,42.480,0
2379.146,-0.488,24.414,25.391,35.645,45.410,0
2379.150,1.953,27.832,21.973,22.949,11.719,0
2379.154,23.438,39.062,27.344,58.105,-17.578,0
2379.158,32.715,37.109,22.949,63.477,14.160,0
2379.162,23.926,26.367,13.184,8.789,23.438,0
2379.165,15.137,31.738,14.160,0.488,1.953,0
2379.169,17.090,27.832,15.625,3.906,1.953,0
2379.173,32.715,26.367,17.578,12.695,35.156,0
2379.177,48.340,36.621,15.625,27.832,59.570,0
2379.181,35.645,40.527,13.184,34.180,63.965,0
2379.185,12.695,27.832,19.043,35.645,45.410,0
2379.189,33.203,27.344,20.508,27.832,17.090,0
2379.193,59.570,37.109,14.160,18.555,9.277,0
2379.197,41.504,34.668,15.137,30.762,8.789,0
2379.201,33.691,37.598,12.207,14.160,19.043,0
2379.204,41.992,38.086,7.324,-10.254,8.301,0
2379.208,34.668,26.855,14.160,36.621,3.418,0
2379.212,16.602,21.973,21.484,43.945,27.832,0
2379.216,40.527,28.809,17.578,1.953,17.578,0
2379.220,45.410,28.809,17.578,0.000,-13.672,0
2379.224,34.668,26.367,20.996,33.691,-4.883,0
2379.228,43.457,29.785,19.531,32.227,35.645,0
2379.232,51.270,26.855,20.508,11.719,39.551,0
2379.236,49.316,20.996,23.926,13.184,9.766,0
2379.240,52.734,25.391,24.902,31.738,9.277,0
2379.244,52.246,31.738,25.879,45.898,29.297,0
2379.247,33.203,30.273,22.949,10.742,49.805,0
2379.251,47.363,31.250,24.902,11.719,20.996,0
2379.255,38.086,28.809,28.320,49.805,1.465,0
2379.259,20.996,28.320,21.484,28.320,28.320,0
2379.263,23.438,31.250,22.461,13.184,35.156,0
2379.267,23.438,31.250,27.832,23.438,21.973,0
2379.271,36.621,31.738,31.738,42.969,26.367,0
2379.275,23.926,28.809,30.762,55.664,74.219,0
2379.279,15.137,28.809,24.902,17.578,72.754,0
2379.283,18.066,27.832,28.809,16.602,38.086,0
2379.287,28.809,28.320,28.809,30.762,34.180,0
2379.290,14.648,28.320,27.344,41.992,17.090,0
2379.294,18.066,28.809,30.762,58.105,7.324,0
2379.298,19.043,26.367,23.438,31.738,-0.977,0
2379.302,16.113,24.902,20.508,7.812,-17.578,0
2379.306,19.531,30.762,23.926,26.855,-21.484,0
2379.310,-4.395,29.785,23.438,41.504,-0.488,0
2379.314,6.348,30.762,27.344,51.270,37.598,0
2379.318,30.762,36.133,25.391,34.180,31.250,0
2379.322,21.973,36.133,23.926,33.203,28.809,0
2379.326,0.488,37.598,26.855,34.668,27.832,0
2379.329,2.441,40.039,27.344,17.578,22.461,0
2379.333,16.113,41.016,30.273,31.738,32.227,0
2379.337,15.625,41.504,30.273,43.457,46.875,0
2379.341,15.137,41.016,26.855,45.898,44.922,0
2379.345,11.719,38.574,29.785,42.480,17.090,0
2379.349,13.184,40.527,29.785,40.039,23.438,0
2379.353,8.301,38.086,27.344,35.645,35.645,0
2379.357,-15.625,34.668,27.832,41.992,22.949,0
2379.361,-29.297,35.645,28.809,49.316,16.602,0
2379.365,-33.203,33.691,26.367,37.109,45.410,0
2379.369,-19.531,33.691,25.391,27.344,28.809,0
2379.372,-8.789,38.086,26.855,39.551,-13.184,0
2379.376,-6.836,39.062,24.902,38.086,-24.902,0
2379.380,9.766,39.551,22.949,35.645,-14.648,0
2379.384,37.109,36.621,21.973,33.691,6.836,0
2379.388,46.875,35.156,21.973,31.250,-1.953,0
2379.392,38.086,38.574,21.484,30.762,3.418,0
2379.396,60.059,41.992,19.531,25.391,20.020,0
2379.400,77.148,39.062,20.020,26.367,22.949,0
2379.404,79.102,34.668,21.973,24.414,0.000,0
2379.408,81.055,36.621,26.855,39.551,9.766,0
2379.412,83.008,36.133,28.320,45.410,16.602,0
2379.415,88.379,33.691,25.879,30.762,-0.977,0
2379.419,91.797,33.203,26.855,19.043,-3.418,0
2379.423,85.449,32.715,28.809,28.809,4.395,0
2379.427,89.844,31.250,28.320,49.805,16.602,0
2379.431,107.422,37.109,28.809,46.387,12.695,0
2379.435,113.281,38.574,29.297,21.973,-19.043,0
2379.439,101.562,33.203,30.762,25.879,0.488,0
2379.443,97.656,35.156,33.691,42.969,42.969,0
2379.447,115.723,42.480,32.227,44.922,37.598,0
2379.451,125.977,40.039,31.250,34.180,-1.953,0
2379.454,123.047,37.598,32.227,33.203,-24.414,0
2379.458,113.770,37.598,33.691,52.734,16.602,0
2379.462,108.398,35.156,34.180,54.199,46.875,0
2379.466,123.047,36.621,34.668,41.016,44.922,0
2379.470,129.395,37.109,37.109,41.992,44.434,0
2379.474,116.211,37.598,36.621,53.223,50.781,0
2379.478,112.305,39.551,34.668,47.852,37.598,0
2379.482,118.164,38.574,32.227,40.527,24.414,0
2379.486,132.324,37.598,31.738,30.273,16.113,0
2379.490,126.465,40.039,32.715,35.645,21.484,0
2379.494,108.887,41.016,33.203,50.293,26.367,0
2379.497,114.746,37.598,33.203,43.945,31.738,0
2379.501,135.254,38.574,33.691,35.645,31.738,0
2379.505,131.348,37.109,30.273,42.480,13.672,0
2379.509,116.211,35.645,27.344,50.781,0.000,0
2379.513,118.164,37.598,26.855,50.781,14.648,0
2379.517,124.512,39.551,26.855,37.109,36.133,0
2379.521,124.023,39.062,26.367,30.762,16.602,0
2379.525,105.469,36.621,24.414,43.945,-2.930,0
2379.529,101.562,37.109,25.879,43.945,26.855,0
2379.533,108.887,33.691,25.391,30.762,38.086,0
2379.537,106.445,29.785,21.973,28.320,7.324,0
2379.540,92.773,29.297,22.949,36.621,-8.789,0
2379.544,92.773,29.785,27.344,41.992,13.184,0
2379.548,106.445,29.785,24.902,37.598,52.734,0
2379.552,107.422,25.879,24.414,27.344,25.879,0
2379.556,90.820,26.367,27.832,37.109,-2.930,0
2379.560,75.195,29.297,25.879,45.410,11.230,0
2379.564,79.102,27.344,24.902,36.133,16.113,0
2379.568,96.680,26.855,25.391,23.438,12.695,0
2379.572,97.168,24.902,28.809,28.320,22.949,0
2379.576,82.031,26.367,29.297,41.016,24.414,0
2379.579,69.824,30.762,26.367,31.738,12.207,0
2379.583,65.430,25.879,24.902,8.789,-8.301,0
2379.587,68.359,23.438,22.949,1.465,-21.973,0
2379.591,58.594,26.367,21.973,19.043,18.066,0
2379.595,56.641,26.855,22.949,22.461,28.320,0
2379.599,68.848,25.879,24.902,23.438,-2.441,0
2379.603,80.078,26.855,24.414,25.879,-19.531,0
2379.607,75.684,27.832,27.344,44.434,5.371,0
2379.611,67.871,26.367,30.273,48.828,11.719,0
2379.615,70.801,29.297,29.297,26.855,7.324,0
2379.619,85.449,29.785,31.738,23.926,-5.371,0
2379.622,82.520,24.902,31.738,43.945,24.902,0
2379.626,68.848,23.438,29.297,56.152,41.992,0
2379.630,78.125,28.320,30.762,53.711,9.277,0
2379.634,101.074,30.762,30.762,37.109,25.391,0
2379.638,97.656,28.809,28.809,34.668,33.203,0
2379.642,83.496,29.297,26.855,50.293,6.836,0
2379.646,97.656,31.250,27.344,48.340,25.391,0
2379.650,118.164,35.156,26.367,34.180,42.480,0
2379.654,122.559,37.109,22.461,22.461,15.137,0
2379.658,106.445,36.133,20.508,31.738,-6.348,0
2379.662,106.445,36.621,23.438,39.551,23.926,0
2379.665,113.281,36.133,22.949,29.785,48.828,0
2379.669,109.375,37.109,22.949,28.320,29.297,0
2379.673,89.844,34.668,22.949,42.480,8.789,0
2379.677,75.195,30.762,21.484,48.828,45.898,0
2379.681,80.078,29.785,23.926,41.992,65.430,0
2379.685,88.867,31.738,23.926,29.297,21.484,0
2379.689,72.754,33.203,21.484,30.273,-6.836,0
2379.693,60.059,29.785,20.508,40.039,18.555,0
2379.697,68.359,29.785,24.414,43.457,66.895,0
2379.701,74.219,32.715,23.438,33.691,63.477,0
2379.704,77.148,29.785,21.484,41.504,7.812,0
2379.708,73.730,29.297,22.461,48.828,18.066,0
2379.712,76.660,31.250,23.438,47.852,48.828,0
2379.716,82.520,30.273,20.996,41.504,22.949,0
2379.720,90.820,30.273,20.508,29.785,-15.137,0
2379.724,80.078,32.715,22.949,43.945,-10.742,0
2379.728,73.242,33.203,21.973,51.270,2.441,0
2379.732,79.590,33.203,21.973,34.668,13.184,0
2379.736,85.449,34.180,21.484,24.902,41.992,0
2379.740,74.707,33.691,19.531,32.227,39.551,0
2379.744,60.547,33.203,20.020,41.016,7.812,0
2379.747,63.965,30.762,21.484,45.410,0.977,0
2379.751,73.730,28.320,23.438,31.738,-10.742,0
2379.755,71.777,30.762,21.973,26.855,1.953,0
2379.759,63.477,33.203,19.531,40.039,35.645,0
2379.763,62.500,34.180,23.926,43.457,29.785,0
2379.767,75.684,32.227,23.438,29.785,26.367,0
2379.771,86.426,30.762,22.461,29.297,28.320,0
2379.775,62.500,30.273,23.438,48.828,20.996,0
2379.779,56.641,28.320,22.461,49.805,41.016,0
2379.783,68.359,26.367,19.531,38.086,44.922,0
2379.787,77.637,25.391,18.555,36.133,26.855,0
2379.790,61.523,26.367,21.484,41.016,27.344,0
2379.794,50.781,30.273,24.414,43.457,23.926,0
2379.798,65.918,33.691,23.438,41.504,5.859,0
2379.802,79.590,34.180,22.949,39.551,-4.395,0
2379.806,70.312,33.203,22.461,42.969,22.461,0
2379.810,58.105,32.227,21.484,38.086,19.531,0
2379.814,59.082,33.691,24.414,33.691,28.320,0
2379.818,65.918,34.668,24.902,26.855,36.621,0
2379.822,64.453,34.668,27.344,33.203,-9.277,0
2379.826,49.316,35.156,31.738,47.363,-8.789,0
2379.829,59.082,33.691,32.715,50.781,-10.254,0
2379.833,75.195,30.762,32.715,38.574,-18.555,0
2379.837,81.055,33.691,30.762,27.344,0.000,0
2379.841,64.941,35.156,28.320,41.992,1.465,0
2379.845,57.617,32.227,27.832,42.969,0.977,0
2379.849,69.336,33.203,28.320,28.809,-15.625,0
2379.853,71.777,34.180,25.879,16.602,-43.945,0
2379.857,61.035,33.691,25.391,24.414,-20.020,0
2379.861,56.152,34.668,27.344,38.086,15.625,0
2379.865,61.035,34.668,26.855,34.180,29.785,0
2379.869,64.941,33.691,27.344,23.438,4.883,0
2379.872,57.129,33.691,26.367,26.367,7.324,0
2379.876,52.734,33.691,27.344,32.227,48.828,0
2379.880,55.176,31.738,28.809,31.738,52.246,0
2379.884,58.105,33.691,27.832,19.043,7.812,0
2379.888,55.176,34.668,29.297,19.531,13.672,0
2379.892,39.551,32.227,31.738,39.062,30.762,0
2379.896,39.062,34.668,33.203,37.109,8.301,0
2379.900,52.246,34.668,31.738,22.461,-16.113,0
2379.904,63.477,32.715,29.785,20.508,-1.953,0
2379.908,50.293,34.668,31.738,40.039,12.695,0
2379.912,40.039,34.180,32.227,44.922,-8.301,0
2379.915,47.852,29.297,26.855,33.203,20.996,0
2379.919,53.223,27.344,26.367,25.391,13.184,0
2379.923,42.969,29.297,28.320,35.645,6.348,0
2379.927,35.156,30.762,27.832,46.387,37.109,0
2379.931,43.457,33.203,28.320,44.922,48.340,0
2379.935,56.641,36.133,29.785,34.180,25.391,0
2379.939,50.781,34.668,29.785,40.039,11.719,0
2379.943,42.969,34.668,28.809,51.758,30.762,0
2379.947,47.852,33.203,27.344,43.945,8.301,0
2379.951,50.293,30.273,26.855,32.715,-17.090,0
2379.954,48.828,31.738,24.902,34.180,0.977,0
2379.958,35.645,32.227,24.902,40.039,1.953,0
2379.962,38.086,31.250,27.832,38.574,4.883,0
2379.966,56.641,31.738,26.367,33.203,26.367,0
2379.970,55.664,31.250,27.832,29.785,-7.812,0
2379.974,39.551,31.738,26.855,36.621,-0.977,0
2379.978,44.922,33.203,25.391,41.016,31.250,0
2379.982,51.758,32.715,26.855,37.598,28.320,0
2379.986,50.781,31.250,26.367,26.367,7.324,0
2379.990,39.551,29.297,24.414,31.738,-10.742,0
2379.994,35.645,33.691,21.484,43.945,31.738,0
2379.997,46.387,34.668,21.973,43.457,45.410,0
2380.001,55.664,28.320,22.949,29.785,17.578,0
2380.005,48.828,26.367,24.414,32.227,24.902,0
2380.009,35.645,29.785,24.902,38.574,22.949,0
2380.013,40.039,32.715,22.949,39.551,41.016,0
2380.017,50.293,31.250,23.926,38.086,37.598,0
2380.021,60.547,32.227,24.902,38.086,13.184,0
2380.025,50.293,34.668,20.996,49.316,29.297,0
2380.029,46.875,35.645,18.555,45.898,28.320,0
2380.033,63.477,38.086,23.926,37.109,20.508,0
2380.037,71.289,37.598,25.391,31.738,-11.719,0
2380.040,55.176,33.691,23.926,42.969,8.301,0
2380.044,42.969,29.785,24.902,47.363,19.531,0
2380.048,47.363,31.250,24.902,34.180,-14.648,0
2380.052,60.059,34.668,23.438,21.484,-8.789,0
2380.056,53.711,32.227,23.926,32.715,40.527,0
2380.060,43.457,31.738,23.438,44.922,56.641,0
2380.064,47.852,33.691,25.879,41.016,34.180,0
2380.068,51.270,32.715,26.367,32.715,32.715,0
2380.072,51.270,32.227,23.926,30.762,40.039,0
2380.076,43.457,31.250,25.879,40.527,6.348,0
2380.079,39.062,31.250,25.879,39.062,7.812,0
2380.083,47.363,31.738,23.926,28.320,-1.465,0
2380.087,56.152,31.738,22.949,26.855,-6.348,0
2380.091,41.992,33.203,20.508,35.156,18.066,0
2380.095,38.086,32.715,20.508,34.668,5.859,0
2380.099,47.852,30.273,23.438,27.832,27.832,0
2380.103,51.270,29.785,27.344,25.391,43.945,0
2380.107,41.016,28.320,28.320,33.203,31.738,0
2380.111,40.039,28.809,28.320,40.039,18.555,0
2380.115,54.199,32.227,28.809,42.969,23.926,0
2380.119,66.895,31.738,27.832,32.227,20.020,0
2380.122,61.035,33.203,27.832,28.809,20.996,0
2380.126,44.922,34.668,26.855,35.645,34.180,0
2380.130,44.922,32.227,28.809,36.133,16.113,0
2380.134,62.988,29.785,29.297,29.785,20.020,0
2380.138,55.176,31.738,26.367,21.973,8.789,0
2380.142,36.621,32.227,26.855,30.762,-4.395,0
2380.146,42.480,33.691,27.832,31.738,18.066,0
2380.150,44.922,32.227,26.855,20.996,36.133,0
2380.154,52.734,29.785,23.926,11.719,11.230,0
2380.158,49.805,32.227,23.926,28.320,14.648,0
2380.162,45.898,31.250,26.855,41.504,49.316,0
2380.165,47.852,27.832,29.785,34.668,48.828,0
2380.169,54.688,26.855,30.762,25.879,21.484,0
2380.173,50.293,29.785,31.738,30.273,15.137,0
2380.177,42.969,31.250,32.227,36.621,28.320,0
2380.181,41.016,29.785,33.203,31.738,26.367,0
2380.185,42.969,25.879,32.715,20.020,-15.625,0
2380.189,41.016,25.879,31.250,24.902,-29.297,0
2380.193,37.109,30.273,31.250,44.434,14.648,0
2380.197,40.039,30.273,30.273,47.363,29.785,0
2380.201,49.805,31.738,25.391,30.762,18.555,0
2380.204,57.129,33.203,25.879,28.320,11.719,0
2380.208,47.852,35.156,27.832,45.898,22.949,0
2380.212,47.363,35.156,24.414,43.457,13.184,0
2380.216,56.641,35.156,21.484,32.715,14.160,0
2380.220,61.523,36.621,24.414,30.273,26.367,0
2380.224,51.758,38.086,27.832,42.480,9.277,0
2380.228,45.410,37.109,28.320,47.852,-20.996,0
2380.232,52.734,33.691,25.391,38.086,-20.020,0
2380.236,64.941,31.738,24.414,30.762,-6.348,0
2380.240,58.594,33.203,25.879,40.039,-11.719,0
2380.244,45.898,32.227,26.855,44.922,20.996,0
2380.247,49.316,31.738,27.344,37.109,20.020,0
2380.251,62.012,34.668,26.367,30.762,18.066,0
2380.255,52.734,34.180,25.879,36.133,20.508,0
2380.259,38.574,32.227,28.320,46.875,22.461,0
2380.263,37.598,31.738,29.785,43.945,44.922,0
2380.267,39.062,33.203,27.832,36.133,23.926,0
2380.271,52.734,32.227,25.879,38.086,3.906,0
2380.275,43.457,30.762,25.879,44.434,0.488,0
2380.279,46.387,33.203,25.879,39.062,-13.672,0
2380.283,64.453,36.621,24.414,28.320,4.395,0
2380.287,72.754,38.574,24.414,18.066,-0.977,0
2380.290,65.430,37.598,25.391,21.973,-11.719,0
2380.294,61.523,36.133,25.879,27.832,8.789,0
2380.298,67.871,37.598,28.320,26.855,15.137,0
2380.302,68.848,35.645,30.273,24.414,-14.160,0
2380.306,52.734,33.203,31.250,35.156,-24.414,0
2380.310,38.574,34.180,29.785,47.363,-11.230,0
2380.314,42.969,36.621,32.227,47.852,1.465,0
2380.318,48.828,38.086,33.691,39.062,-10.742,0
2380.322,40.039,34.180,29.297,36.621,-34.668,0
2380.326,32.715,31.738,27.344,51.758,-2.930,0
2380.329,47.363,31.250,31.250,53.711,32.227,0
2380.333,55.176,29.297,33.203,39.062,7.812,0
2380.337,50.293,28.809,32.227,32.715,-3.418,0
2380.341,32.227,31.250,32.227,44.922,45.898,0
2380.345,27.832,33.203,30.273,44.922,35.156,0
2380.349,42.480,32.227,30.273,42.969,11.230,0
2380.353,53.711,29.785,29.297,36.133,15.137,0
2380.357,41.992,29.297,27.344,37.109,0.000,0
2380.361,33.203,29.785,26.367,41.504,-11.230,0
2380.365,35.156,30.762,25.879,36.133,-23.926,0
2380.369,43.945,34.668,25.879,22.949,-10.254,0
2380.372,38.086,32.715,25.879,25.879,-13.184,0
2380.376,26.855,31.250,26.855,39.551,-4.883,0
2380.380,28.320,30.762,25.879,33.203,14.160,0
2380.384,39.062,27.832,25.879,20.020,15.137,0
2380.388,43.457,27.344,28.809,27.832,13.672,0
2380.392,28.809,26.855,32.715,47.852,29.297,0
2380.396,33.203,27.832,34.180,44.434,14.648,0
2380.400,51.758,31.250,31.738,34.180,4.883,0
2380.404,53.223,28.809,29.785,25.391,2.930,0
2380.408,38.086,28.320,32.227,36.621,12.695,0
2380.412,37.598,29.297,31.250,39.551,7.812,0
2380.415,50.293,29.297,29.297,30.273,28.809,0
2380.419,56.152,29.785,30.273,21.973,32.715,0
2380.423,40.527,27.344,28.320,28.320,-1.953,0
2380.427,40.527,26.855,28.809,38.574,10.742,0
2380.431,53.711,30.273,31.738,42.969,20.996,0
2380.435,59.082,31.250,27.832,27.344,29.785,0
2380.439,54.199,30.762,28.809,26.855,10.742,0
2380.443,38.574,34.180,31.250,40.527,-6.836,0
2380.447,45.410,33.691,30.273,36.133,31.738,0
2380.451,59.570,31.250,31.738,32.227,29.297,0
2380.454,55.176,31.250,26.855,29.785,-6.836,0
2380.458,45.898,30.273,25.391,35.645,-13.184,0
2380.462,48.340,31.738,27.344,44.922,4.395,0
2380.466,51.758,31.738,25.879,35.645,7.324,0
2380.470,55.664,31.250,26.855,17.090,-23.438,0
2380.474,51.758,32.227,28.320,31.250,-9.277,0
2380.478,44.434,31.738,26.855,48.828,14.160,0
2380.482,51.270,28.320,26.367,46.875,18.066,0
2380.486,73.730,30.273,24.414,39.551,8.301,0
2380.490,53.223,32.227,22.461,33.203,15.625,0
2380.494,21.484,30.273,25.879,30.273,38.086,0
2380.497,24.414,31.250,27.832,24.414,33.203,0
2380.501,40.527,30.762,26.855,14.648,-4.883,0
2380.505,48.828,34.180,23.926,19.531,-13.672,0
2380.509,40.527,33.691,24.414,34.180,-1.953,0
2380.513,40.527,30.273,27.832,38.086,-21.973,0
2380.517,53.223,36.133,27.832,31.738,-16.113,0
2380.521,58.105,37.109,26.367,24.902,16.113,0
2380.525,44.922,32.715,27.344,39.551,12.207,0
2380.529,42.480,32.715,27.832,44.922,11.230,0
2380.533,46.875,33.203,27.344,30.762,15.625,0
2380.537,56.641,33.203,27.344,20.996,26.855,0
2380.540,38.086,31.250,28.809,28.320,26.367,0
2380.544,27.832,30.273,32.227,35.156,-1.953,0
2380.548,38.086,30.273,35.645,34.668,-14.160,0
2380.552,51.270,29.297,35.645,24.414,-2.930,0
2380.556,44.434,26.855,34.668,32.227,9.277,0
2380.560,24.902,27.832,34.180,44.434,15.625,0
2380.564,36.621,33.203,34.180,38.086,19.531,0
2380.568,55.176,32.227,34.668,28.320,5.371,0
2380.572,52.734,34.180,33.203,30.762,2.441,0
2380.576,42.969,36.133,32.715,45.898,1.465,0
2380.579,37.109,33.203,32.227,40.527,4.395,0
2380.583,44.434,34.180,37.598,29.785,20.020,0
2380.587,56.152,34.180,38.086,29.297,6.836,0
2380.591,38.086,33.691,30.762,38.574,32.227,0
2380.595,31.738,35.156,33.691,42.480,57.617,0
2380.599,35.156,30.273,38.574,39.551,3.418,0
2380.603,49.316,28.809,34.668,32.227,9.766,0
2380.607,49.316,31.738,33.203,40.039,31.738,0
2380.611,41.016,32.715,37.109,49.805,23.438,0
2380.615,42.969,33.203,38.086,46.387,5.859,0
2380.619,47.363,34.180,36.133,27.344,-20.508,0
2380.622,49.805,31.250,38.086,29.297,5.371,0
2380.626,39.551,31.738,36.133,49.316,25.391,0
2380.630,38.086,31.738,34.180,50.781,35.645,0
2380.634,49.316,31.738,36.621,34.668,34.180,0
2380.638,51.758,33.691,37.109,31.250,19.043,0
2380.642,34.180,30.762,34.668,43.457,30.273,0
2380.646,26.367,29.297,32.227,41.016,39.062,0
2380.650,28.809,29.297,31.738,28.320,1.465,0
2380.654,41.504,28.320,33.691,14.160,-27.344,0
2380.658,30.762,27.344,32.715,29.297,-8.301,0
2380.662,22.461,28.809,29.785,35.645,13.672,0
2380.665,33.203,31.250,27.832,20.508,15.625,0
2380.669,51.270,30.762,28.320,12.695,32.227,0
2380.673,49.805,30.762,32.227,24.902,62.988,0
2380.677,30.273,31.250,35.156,36.133,77.148,0
2380.681,36.133,27.344,32.715,30.273,52.734,0
2380.685,52.734,24.414,30.273,22.461,7.812,0
2380.689,46.387,23.438,29.785,26.855,-7.324,0
2380.693,21.484,23.926,30.273,33.203,-8.789,0
2380.697,22.949,25.391,31.738,34.180,11.719,0
2380.701,47.363,22.461,31.250,23.438,31.738,0
2380.704,50.293,21.484,30.273,15.625,36.621,0
2380.708,32.715,22.461,29.297,31.738,52.246,0
2380.712,32.715,21.484,28.809,34.180,43.457,0
2380.716,38.574,21.973,26.855,20.996,42.480,0
2380.720,44.922,22.461,25.391,5.371,17.090,0
2380.724,38.574,26.367,26.855,23.438,4.883,0
2380.728,31.250,27.344,29.297,39.551,16.602,0
2380.732,37.109,24.414,32.715,32.715,13.672,0
2380.736,44.922,25.391,31.738,19.043,14.648,0
2380.740,40.039,23.438,29.785,27.344,9.766,0
2380.744,33.203,25.391,30.762,41.016,2.441,0
2380.747,38.574,26.855,29.297,35.645,-8.301,0
2380.751,50.781,21.973,28.809,27.344,-12.695,0
2380.755,50.293,20.020,28.809,21.973,23.926,0
2380.759,29.785,21.484,31.250,34.180,41.016,0
2380.763,31.738,22.461,33.203,41.016,35.156,0
2380.767,46.875,23.438,32.227,30.273,12.695,0
2380.771,47.363,21.973,31.738,23.438,-14.160,0
2380.775,32.227,20.996,31.250,35.156,11.719,0
2380.779,24.414,23.438,34.180,41.992,11.719,0
2380.783,31.250,25.879,34.668,26.367,4.883,0
2380.787,41.016,26.367,32.227,5.371,-14.160,0
2380.790,32.227,26.855,28.320,17.578,-1.953,0
2380.794,19.531,27.832,30.762,27.832,30.762,0
2380.798,27.832,26.367,33.203,22.949,23.926,0
2380.802,49.805,25.879,31.738,14.160,-3.906,0
2380.806,47.363,25.391,31.738,20.020,-25.391,0
2380.810,33.203,26.855,28.809,32.715,4.883,0
2380.814,34.180,30.762,26.855,34.668,32.715,0
2380.818,51.270,30.273,31.250,22.949,17.578,0
2380.822,55.176,29.297,30.273,17.090,-8.301,0
2380.826,38.086,28.809,28.809,32.715,-9.277,0
2380.829,33.691,30.273,28.809,28.320,1.465,0
2380.833,42.480,28.809,28.320,14.648,-15.625,0
2380.837,53.223,25.879,29.785,16.113,10.254,0
2380.841,34.180,27.832,30.273,30.762,32.227,0
2380.845,26.367,29.297,30.762,38.086,2.930,0
2380.849,33.203,29.785,31.250,29.297,4.883,0
2380.853,43.457,28.809,30.273,18.066,0.977,0
2380.857,35.156,28.320,30.762,32.715,-22.949,0
2380.861,23.926,27.832,33.203,42.480,-5.859,0
2380.865,35.645,31.738,33.203,36.133,16.602,0
2380.869,48.828,29.785,31.738,20.996,15.137,0
2380.872,42.480,25.879,29.785,22.461,-19.043,0
2380.876,25.391,31.250,29.785,40.039,-11.719,0
2380.880,28.809,34.668,31.738,42.969,18.555,0
2380.884,46.875,29.785,32.227,35.156,32.227,0
2380.888,48.340,30.273,30.762,24.414,4.395,0
2380.892,26.367,29.785,32.715,37.109,-4.883,0
2380.896,30.762,30.762,35.645,46.387,8.301,0
2380.900,46.875,33.203,34.180,33.203,5.371,0
2380.904,47.363,30.273,32.227,19.531,-2.441,0
2380.908,35.156,29.297,33.691,28.809,12.207,0
2380.912,25.391,30.273,34.668,36.133,10.742,0
2380.915,31.738,29.297,35.156,27.832,1.465,0
2380.919,55.176,30.273,34.668,10.254,3.906,0
2380.923,57.129,29.785,32.715,11.719,2.930,0
2380.927,47.363,29.297,32.227,24.414,4.395,0
2380.931,52.734,31.250,32.227,27.344,-5.859,0
2380.935,66.895,27.344,30.273,9.277,-16.602,0
2380.939,63.477,28.809,30.273,8.301,-10.254,0
2380.943,40.039,31.250,34.668,31.738,22.949,0
2380.947,26.855,26.855,33.203,31.250,20.508,0
2380.951,29.785,24.414,31.738,23.438,19.531,0
2380.954,35.156,28.320,30.762,24.414,11.230,0
2380.958,25.391,31.738,27.832,38.574,14.160,0
2380.962,25.391,29.785,27.344,39.062,47.363,0
2380.966,29.785,30.273,26.367,29.297,8.789,0
2380.970,32.227,32.227,25.391,23.438,-14.160,0
2380.974,22.461,29.297,22.461,30.273,-5.859,0
2380.978,20.508,30.273,21.484,39.062,-31.738,0
2380.982,27.832,33.691,20.020,31.250,-16.602,0
2380.986,36.621,29.785,23.438,20.020,-7.324,0
2380.990,33.203,28.809,23.926,28.809,7.324,0
2380.994,21.484,29.297,21.484,37.109,11.719,0
2380.997,27.344,28.320,20.020,37.598,15.625,0
2381.001,45.898,27.344,19.043,28.320,24.414,0
2381.005,37.598,24.414,23.926,24.414,12.695,0
2381.009,17.578,24.414,26.367,39.062,20.508,0
2381.013,21.484,24.902,24.902,34.180,23.926,0
2381.017,34.668,26.855,23.438,21.484,33.203,0
2381.021,35.156,26.855,23.438,14.648,20.020,0
2381.025,25.391,26.855,28.320,19.043,-32.715,0
2381.029,32.227,30.762,30.762,29.785,-14.648,0
2381.033,37.598,29.297,27.344,29.785,52.246,0
2381.037,46.875,26.855,26.855,13.184,30.762,0
2381.040,38.574,29.785,26.367,23.438,-11.719,0
2381.044,24.902,34.180,26.367,35.645,4.883,0
2381.048,31.738,33.203,26.855,24.902,19.043,0
2381.052,47.363,31.250,28.809,12.207,12.207,0
2381.056,42.969,31.738,30.273,13.672,39.062,0
2381.060,26.367,33.203,27.832,32.715,47.363,0
2381.064,28.809,35.645,27.832,36.621,-3.418,0
2381.068,46.387,36.133,27.832,23.926,-11.230,0
2381.072,52.734,36.621,24.902,18.066,1.953,0
2381.076,43.457,38.086,25.879,39.062,28.809,0
2381.079,38.086,35.645,29.297,39.062,19.531,0
2381.083,46.387,31.738,29.785,16.113,0.488,0
2381.087,57.617,34.668,27.832,11.230,22.461,0
2381.091,38.574,35.156,26.367,28.809,42.969,0
2381.095,26.855,27.832,23.438,33.691,13.672,0
2381.099,36.621,26.855,22.461,29.297,0.977,0
2381.103,51.758,28.809,20.508,16.113,21.484,0
2381.107,42.969,27.832,20.996,24.414,11.230,0
2381.111,27.832,29.785,25.879,40.527,26.855,0
2381.115,36.621,30.762,24.414,35.156,21.484,0
2381.119,61.035,29.785,24.414,23.926,3.906,0
2381.122,57.129,31.738,27.344,29.785,-3.906,0
2381.126,36.621,31.250,26.367,40.039,-10.254,0
2381.130,37.598,31.250,26.367,32.227,-6.348,0
2381.134,52.734,30.762,28.809,24.414,-18.066,0
2381.138,58.105,32.715,26.855,19.043,-16.113,0
2381.142,41.992,33.203,23.926,33.691,1.953,0
2381.146,43.945,31.738,22.949,39.551,26.367,0
2381.150,51.270,32.227,24.902,22.461,73.730,0
2381.154,62.012,35.645,25.879,16.602,49.316,0
2381.158,43.945,31.738,26.855,31.738,20.020,0
2381.162,28.809,30.273,28.809,34.668,15.625,0
2381.165,50.293,32.227,26.855,28.809,6.836,0
2381.169,64.453,30.762,24.414,19.531,9.277,0
2381.173,45.898,32.715,26.855,24.414,0.488,0
2381.177,34.180,34.180,27.832,33.691,10.742,0
2381.181,46.875,35.156,29.785,37.598,41.016,0
2381.185,56.641,35.156,33.691,31.738,14.160,0
2381.189,52.246,33.203,29.785,29.785,-29.785,0
2381.193,41.016,29.297,26.855,44.922,-21.973,0
2381.197,43.457,28.320,27.832,45.410,12.207,0
2381.201,46.387,25.879,27.344,28.809,9.277,0
2381.204,44.922,26.367,28.320,26.855,2.930,0
2381.208,28.320,28.320,28.809,41.504,30.762,0
2381.212,27.344,27.832,30.762,41.016,57.617,0
2381.216,40.039,27.832,30.273,31.250,48.340,0
2381.220,48.340,28.320,26.855,21.973,21.973,0
2381.224,41.504,30.273,27.344,38.086,42.969,0
2381.228,27.832,30.273,26.367,39.551,43.945,0
2381.232,34.180,28.809,25.879,35.645,7.812,0
2381.236,58.594,29.785,26.855,29.297,14.160,0
2381.240,51.270,29.297,28.320,29.785,15.137,0
2381.244,34.180,30.273,30.762,39.062,23.926,0
2381.247,32.227,34.180,28.320,34.668,29.297,0
2381.251,42.480,29.297,24.902,25.879,10.742,0
2381.255,40.039,24.902,23.926,23.438,3.418,0
2381.259,23.438,28.320,24.414,38.574,23.438,0
2381.263,25.879,29.785,28.809,43.945,10.254,0
2381.267,34.180,31.250,27.832,31.738,-6.836,0
2381.271,49.316,30.273,22.949,24.902,12.207,0
2381.275,41.504,29.297,24.414,42.480,10.254,0
2381.279,37.109,29.297,27.344,52.246,32.715,0
2381.283,48.828,31.250,27.832,40.527,42.969,0
2381.287,53.711,29.785,29.785,24.414,-14.648,0
2381.290,39.062,27.344,28.809,28.809,-15.137,0
2381.294,32.227,28.809,29.785,42.969,6.836,0
2381.298,44.434,29.785,34.668,43.457,-4.883,0
2381.302,58.105,28.809,34.180,24.902,0.488,0
2381.306,45.410,30.762,33.691,20.996,-12.207,0
2381.310,28.809,29.297,35.156,32.715,-18.555,0
2381.314,38.086,30.762,34.180,30.762,5.859,0
2381.318,50.781,34.180,34.180,19.043,18.555,0
2381.322,56.641,35.645,33.203,17.090,-0.488,0
2381.326,41.504,34.180,31.738,34.668,-5.859,0
2381.329,39.062,31.250,35.156,41.992,10.254,0
2381.333,47.852,29.297,38.086,30.273,21.484,0
2381.337,52.246,26.367,39.062,24.902,27.344,0
2381.341,40.039,27.832,40.039,38.574,45.410,0
2381.345,29.297,29.297,38.086,36.621,44.922,0
2381.349,35.156,30.273,39.551,35.645,13.184,0
2381.353,48.828,34.180,41.016,25.879,-20.020,0
2381.357,43.457,37.109,40.527,30.273,-18.066,0
2381.361,33.203,36.621,38.574,41.504,36.133,0
2381.365,34.180,35.156,36.621,31.738,32.227,0
2381.369,43.945,35.645,32.715,18.066,-9.766,0
2381.372,47.363,33.203,32.227,25.391,27.344,0
2381.376,26.367,32.227,34.180,42.969,60.547,0
2381.380,20.020,33.691,35.156,39.062,19.531,0
2381.384,30.273,31.738,35.156,22.949,-14.160,0
2381.388,41.504,33.203,34.668,18.555,7.324,0
2381.392,27.344,32.227,31.738,30.273,51.270,0
2381.396,22.949,30.273,29.785,35.156,42.480,0
2381.400,39.062,32.227,33.691,35.156,35.156,0
2381.404,45.410,29.297,35.645,25.391,40.527,0
2381.408,37.109,29.297,37.598,36.621,25.879,0
2381.412,33.203,30.273,37.598,47.363,33.691,0
2381.415,39.062,30.273,36.621,41.504,21.973,0
2381.419,53.223,30.762,36.133,27.832,19.043,0
2381.423,47.363,29.785,33.691,32.227,20.020,0
2381.427,28.809,29.297,34.180,46.387,6.836,0
2381.431,29.785,29.297,35.156,33.691,-10.742,0
2381.435,52.246,30.273,34.180,19.043,0.977,0
2381.439,54.688,30.762,36.133,25.391,5.859,0
2381.443,30.762,29.297,35.645,34.668,-16.113,0
2381.447,30.273,27.832,33.691,29.785,4.395,0
2381.451,50.293,30.762,37.598,22.461,32.715,0
2381.454,60.547,30.762,42.480,22.949,25.391,0
2381.458,36.133,28.320,40.039,35.645,13.672,0
2381.462,35.156,30.762,37.598,32.715,12.207,0
2381.466,51.758,31.738,39.062,23.438,30.762,0
2381.470,48.828,29.785,38.086,18.555,7.324,0
2381.474,34.668,31.738,37.109,25.391,3.906,0
2381.478,32.715,33.691,38.574,31.738,17.090,0
2381.482,40.527,32.227,35.645,29.297,25.879,0
2381.486,46.875,34.180,32.715,12.207,14.160,0
2381.490,39.551,32.227,35.645,16.602,-20.996,0
2381.494,35.156,28.320,34.180,33.691,-8.789,0
2381.497,39.062,29.785,33.691,33.691,21.484,0
2381.501,40.039,29.297,35.156,26.855,-5.371,0
2381.505,38.086,32.715,34.180,18.066,-24.902,0
2381.509,26.367,33.691,34.180,24.902,8.789,0
2381.513,22.461,33.203,34.180,31.250,38.574,0
2381.517,38.086,34.668,33.203,16.113,23.438,0
2381.521,50.293,34.668,33.203,12.207,1.465,0
2381.525,35.645,34.180,34.668,35.156,27.832,0
2381.529,25.391,35.645,32.227,41.016,29.297,0
2381.533,23.926,36.621,33.203,29.297,39.062,0
2381.537,41.016,34.180,37.598,14.648,19.531,0
2381.540,34.180,32.715,37.109,24.902,-5.371,0
2381.544,20.508,36.133,37.109,33.691,31.738,0
2381.548,19.531,35.156,34.180,23.438,24.902,0
2381.552,36.621,33.203,30.273,9.277,13.184,0
2381.556,36.133,32.715,29.785,10.742,32.227,0
2381.560,11.230,30.273,30.762,26.855,36.133,0
2381.564,14.160,29.785,31.738,30.273,51.270,0
2381.568,36.133,32.715,32.715,19.043,58.105,0
2381.572,44.434,33.691,36.621,18.066,22.461,0
2381.576,29.297,32.227,40.039,30.762,11.230,0
2381.579,30.273,32.227,39.551,31.250,26.367,0
2381.583,51.270,35.645,37.109,23.438,38.574,0
2381.587,71.289,39.062,38.574,12.695,12.207,0
2381.591,50.781,39.551,38.086,13.672,-14.648,0
2381.595,48.340,37.598,36.133,20.996,22.949,0
2381.599,51.758,35.156,36.133,20.020,42.480,0
2381.603,45.898,33.691,34.668,11.719,23.926,0
2381.607,30.762,33.691,33.691,29.297,-8.301,0
2381.611,16.113,31.738,35.645,47.363,7.324,0
2381.615,21.973,31.250,35.156,43.457,15.137,0
2381.619,35.156,29.785,34.668,28.320,11.719,0
2381.622,28.809,26.855,34.668,25.391,4.395,0
2381.626,12.695,30.273,33.203,37.109,22.949,0
2381.630,27.344,31.738,34.180,34.180,48.340,0
2381.634,43.945,31.250,31.738,21.973,39.062,0
2381.638,38.086,31.250,25.391,14.648,25.391,0
2381.642,18.555,31.738,24.902,31.250,36.133,0
2381.646,20.020,32.227,28.320,45.898,25.391,0
2381.650,26.855,31.250,29.297,42.480,14.160,0
2381.654,34.668,30.273,28.320,26.367,29.297,0
2381.658,22.949,28.320,25.391,27.344,18.555,0
2381.662,15.625,28.320,26.367,37.598,6.348,0
2381.665,23.926,28.320,25.391,33.203,6.348,0
2381.669,36.621,30.273,20.996,18.555,-9.766,0
2381.673,25.879,32.715,19.531,21.484,-22.949,0
2381.677,14.648,31.250,20.020,35.156,8.789,0
2381.681,23.438,28.320,19.531,35.156,0.977,0
2381.685,32.715,27.832,20.508,20.996,3.906,0
2381.689,37.598,28.320,21.484,22.461,44.922,0
2381.693,25.391,28.320,21.484,41.016,36.621,0
2381.697,24.902,27.832,20.996,42.969,18.555,0
2381.701,34.668,26.855,22.461,29.297,31.250,0
2381.704,45.898,29.785,20.996,20.996,36.621,0
2381.708,37.598,30.273,19.531,36.621,49.805,0
2381.712,31.738,28.320,18.066,38.086,46.875,0
2381.716,42.969,28.809,18.555,29.297,52.246,0
2381.720,53.223,27.832,19.043,20.508,3.906,0
2381.724,43.457,29.785,15.137,27.344,-8.301,0
2381.728,32.227,30.762,16.602,37.109,13.672,0
2381.732,38.086,27.344,17.578,30.273,-17.090,0
2381.736,58.105,24.902,16.113,23.438,10.742,0
2381.740,44.434,28.320,17.578,31.250,32.227,0
2381.744,23.438,34.180,18.555,41.504,35.156,0
2381.747,38.574,32.715,20.020,41.504,22.949,0
2381.751,53.223,29.297,20.508,32.227,9.766,0
2381.755,53.711,27.832,24.414,30.762,7.324,0
2381.759,40.039,24.414,26.855,47.363,10.742,0
2381.763,40.527,27.344,26.367,51.270,10.742,0
2381.767,54.199,30.273,24.902,38.086,33.203,0
2381.771,62.988,28.320,24.902,29.297,24.414,0
2381.775,42.480,28.809,25.879,38.574,-6.348,0
2381.779,41.992,31.250,26.855,44.434,1.953,0
2381.783,56.641,32.715,27.344,39.062,17.090,0
2381.787,65.430,30.273,27.832,24.902,19.043,0
2381.790,56.152,30.273,24.902,31.250,25.391,0
2381.794,44.434,31.250,23.438,47.852,29.785,0
2381.798,54.199,31.250,26.367,52.734,4.883,0
2381.802,62.988,30.273,25.391,33.203,-7.324,0
2381.806,51.270,25.879,25.879,25.391,1.953,0
2381.810,33.691,23.926,26.367,37.598,-8.301,0
2381.814,30.762,23.926,27.344,40.527,-5.371,0
2381.818,37.109,25.879,28.809,28.809,1.465,0
2381.822,52.246,23.926,26.855,22.461,-13.184,0
2381.826,48.340,22.461,25.879,40.039,35.156,0
2381.829,38.086,25.879,28.320,42.969,43.457,0
2381.833,40.039,25.391,26.855,35.156,0.488,0
2381.837,48.340,25.879,23.926,26.367,-19.531,0
2381.841,48.340,26.367,25.879,33.203,2.930,0
2381.845,41.016,24.414,27.832,41.992,20.996,0
2381.849,40.039,23.926,28.809,37.598,-20.996,0
2381.853,54.199,23.926,31.250,26.855,-23.926,0
2381.857,46.387,22.461,30.762,27.832,17.090,0
2381.861,26.855,19.043,32.227,37.598,15.137,0
2381.865,36.133,21.973,33.691,33.691,8.789,0
2381.869,51.270,27.344,32.715,26.367,10.742,0
2381.872,46.387,27.832,29.785,27.344,12.695,0
2381.876,37.598,27.344,29.297,36.621,7.812,0
2381.880,47.363,28.320,29.785,38.574,1.465,0
2381.884,52.734,30.273,31.250,31.250,21.973,0
2381.888,50.781,29.785,32.227,29.297,38.086,0
2381.892,44.922,30.273,32.227,42.480,13.184,0
2381.896,39.062,29.785,31.738,46.387,-5.859,0
2381.900,47.852,26.855,32.227,36.133,-4.883,0
2381.904,54.199,28.320,31.738,30.273,11.230,0
2381.908,37.598,26.855,28.809,38.086,1.465,0
2381.912,28.809,25.391,28.320,34.668,-22.949,0
2381.915,34.668,28.320,26.855,23.926,2.441,0
2381.919,41.504,26.855,28.809,18.066,6.348,0
2381.923,37.109,25.879,30.762,23.926,-11.719,0
2381.927,21.973,22.461,28.809,28.809,7.812,0
2381.931,26.367,22.461,27.832,28.809,13.672,0
2381.935,42.969,26.367,29.785,22.949,-25.879,0
2381.939,41.504,26.367,32.715,21.484,2.441,0
2381.943,23.438,24.414,33.691,32.227,27.832,0
2381.947,23.438,27.344,31.250,32.227,6.348,0
2381.951,33.203,29.297,27.832,21.484,0.488,0
2381.954,31.738,27.832,27.344,16.602,-8.789,0
2381.958,23.438,29.785,28.809,30.762,-9.277,0
2381.962,28.809,32.227,27.832,39.551,-4.883,0
2381.966,36.133,31.738,25.879,30.273,-9.277,0
2381.970,38.086,35.645,22.949,13.672,-35.156,0
2381.974,36.133,36.133,24.414,20.508,-17.578,0
2381.978,36.621,33.203,26.855,34.668,1.953,0
2381.982,41.504,35.156,29.785,39.551,3.418,0
2381.986,46.875,34.180,32.227,32.227,15.137,0
2381.990,38.574,32.715,28.809,31.250,-3.418,0
2381.994,30.273,29.297,25.879,41.992,-6.348,0
2381.997,33.691,31.250,25.391,41.016,0.977,0
2382.001,43.457,34.180,25.879,26.855,0.000,0
2382.005,38.574,30.762,26.367,18.555,-15.137,0
2382.009,23.438,33.691,29.785,26.855,4.395,0
2382.013,24.902,37.109,33.203,29.785,32.715,0
2382.017,32.715,37.598,28.809,20.020,3.906,0
2382.021,45.410,40.527,26.855,13.672,14.648,0
2382.025,31.250,39.551,31.250,25.879,33.691,0
2382.029,22.949,37.598,33.691,32.715,27.344,0
2382.033,25.391,35.645,31.738,22.949,20.020,0
2382.037,33.203,32.227,31.250,16.113,25.391,0
2382.040,28.320,32.715,30.273,24.414,7.812,0
2382.044,17.578,32.227,29.785,27.344,-16.113,0
2382.048,22.949,32.227,31.738,24.902,4.395,0
2382.052,23.926,32.227,32.715,15.625,18.066,0
2382.056,25.879,34.180,31.250,16.602,21.484,0
2382.060,22.461,35.645,32.715,28.809,32.715,0
2382.064,20.020,34.180,32.715,34.180,17.578,0
2382.068,30.762,32.715,33.203,24.414,17.578,0
2382.072,28.809,30.273,34.668,22.949,24.902,0
2382.076,15.625,29.785,32.227,33.203,14.160,0
2382.079,22.949,28.809,29.785,27.832,13.672,0
2382.083,30.762,26.367,32.227,21.484,39.551,0
2382.087,34.668,24.902,34.180,14.648,42.480,0
2382.091,18.555,23.438,33.203,16.113,26.367,0
2382.095,11.230,25.391,34.668,25.391,18.066,0
2382.099,26.367,28.809,36.133,27.344,20.508,0
2382.103,33.203,26.855,34.668,11.719,-17.578,0
2382.107,24.902,22.461,33.203,10.742,-22.949,0
2382.111,20.020,20.996,32.715,29.297,20.020,0
2382.115,25.391,23.438,33.691,33.691,18.555,0
2382.119,42.969,27.344,34.668,18.066,9.277,0
2382.122,46.387,26.367,35.156,19.043,8.301,0
2382.126,35.156,26.367,33.691,28.809,41.016,0
2382.130,34.668,30.273,34.180,30.762,39.062,0
2382.134,47.363,34.668,34.668,26.855,19.043,0
2382.138,52.734,35.156,31.738,16.602,28.320,0
2382.142,39.062,33.203,35.645,30.273,13.184,0
2382.146,36.621,31.738,36.621,34.668,5.859,0
2382.150,35.156,30.273,31.738,21.973,10.742,0
2382.154,42.969,31.250,32.227,14.160,31.250,0
2382.158,37.109,31.250,35.645,27.344,53.711,0
2382.162,29.297,34.180,38.086,39.062,32.715,0
2382.165,33.691,32.715,39.062,31.250,11.719,0
2382.169,41.504,30.273,37.598,17.578,5.371,0
2382.173,41.016,32.715,38.086,25.879,30.762,0
2382.177,32.227,33.203,38.086,41.504,16.602,0
2382.181,37.109,34.180,34.668,33.691,6.836,0
2382.185,48.828,34.668,33.203,20.996,64.453,1
2382.189,46.875,30.762,33.203,22.949,64.453,0
2382.193,24.902,30.273,36.133,33.203,36.133,0
2382.197,26.855,32.715,41.504,34.668,21.973,0
2382.201,45.410,30.762,42.480,29.297,15.137,0
2382.204,42.969,30.273,40.039,23.926,30.762,0
2382.208,26.855,30.273,36.133,33.203,33.691,0
2382.212,26.367,26.367,32.715,36.621,35.156,0
2382.216,34.668,24.902,30.273,31.250,48.340,0
2382.220,41.504,26.367,28.809,21.973,18.555,0
2382.224,29.785,27.832,30.273,25.879,9.277,0
2382.228,18.066,28.809,27.344,34.180,31.250,0
2382.232,30.762,29.297,26.855,33.203,25.391,0
2382.236,42.480,27.344,30.762,23.926,14.160,0
2382.240,38.574,25.391,33.203,24.414,-6.836,0
2382.244,32.715,32.227,35.156,37.109,-10.254,0
2382.247,35.645,36.133,33.203,34.180,29.785,0
2382.251,49.316,35.645,30.273,19.531,0.000,0
2382.255,60.547,35.156,33.203,21.973,-22.461,0
2382.259,56.641,36.133,32.227,31.250,4.395,0
2382.263,59.082,35.645,29.297,26.367,7.324,0
2382.267,72.754,37.598,31.738,17.090,4.883,0
2382.271,77.637,38.086,34.180,15.625,-10.742,0
2382.275,62.500,35.645,32.715,29.785,0.488,0
2382.279,50.293,33.691,30.273,40.527,22.461,0
2382.283,42.969,31.250,30.273,39.551,22.949,0
2382.287,34.180,28.809,29.297,27.344,0.488,0
2382.290,29.297,26.855,25.391,37.109,-4.883,0
2382.294,24.902,25.391,26.855,46.875,12.207,0
2382.298,22.461,26.367,29.297,39.062,15.625,0
2382.302,29.785,27.832,29.785,29.297,0.000,0
2382.306,32.715,29.785,28.809,25.391,3.418,0
2382.310,18.066,29.785,28.809,39.551,0.977,0
2382.314,25.391,29.297,29.297,41.992,3.418,0
2382.318,42.969,28.320,27.344,27.832,22.461,0
2382.322,38.086,23.438,28.320,21.973,14.648,0
2382.326,23.438,23.926,35.156,38.574,24.414,0
2382.329,21.484,26.855,39.062,42.480,8.301,0
2382.333,31.738,26.855,35.645,29.785,-12.207,0
2382.337,42.969,26.855,35.156,28.320,8.301,0
2382.341,32.715,26.855,36.133,37.598,-6.348,0
2382.345,21.973,27.344,35.645,40.527,-17.090,0
2382.349,28.809,26.367,36.621,31.738,3.906,0
2382.353,35.156,23.438,36.133,16.113,7.812,0
2382.357,29.785,24.902,35.156,21.484,-16.602,0
2382.361,20.020,30.762,35.645,31.250,-22.461,0
2382.365,28.320,32.227,36.621,34.180,-3.906,0
2382.369,41.504,29.297,35.156,28.320,14.648,0
2382.372,41.992,26.855,32.227,25.391,13.672,0
2382.376,29.785,26.367,27.832,33.691,0.977,0
2382.380,26.855,27.344,25.391,30.273,0.000,0
2382.384,32.227,24.902,25.391,19.043,3.906,0
2382.388,36.621,27.344,26.367,14.648,-27.344,0
2382.392,29.297,30.273,30.762,27.344,-30.762,0
2382.396,29.785,30.273,32.227,34.668,9.277,0
2382.400,44.922,30.762,32.715,23.926,21.484,0
2382.404,47.852,29.297,31.738,15.625,23.438,0
2382.408,35.645,27.832,28.320,19.531,26.367,0
2382.412,37.598,24.902,28.320,29.297,36.133,0
2382.415,36.133,25.879,26.855,32.227,43.457,0
2382.419,41.016,24.902,27.344,23.926,11.230,0
2382.423,43.457,23.926,27.832,27.832,15.137,0
2382.427,38.574,29.297,27.344,37.598,15.625,0
2382.431,49.316,29.785,30.273,39.062,-3.418,0
2382.435,53.223,31.738,29.297,26.855,-1.953,0
2382.439,56.152,37.109,27.832,23.438,14.160,0
2382.443,44.434,34.668,27.832,34.668,19.043,0
2382.447,40.527,31.738,27.344,32.715,-11.230,0
2382.451,50.781,33.203,27.344,26.855,3.418,0
2382.454,58.105,35.156,29.785,22.461,30.273,0
2382.458,46.387,33.203,32.715,33.691,22.461,0
2382.462,41.992,35.156,32.715,43.457,21.973,0
2382.466,47.852,38.086,32.715,35.156,14.648,0
2382.470,54.688,33.691,33.203,19.531,-2.930,0
2382.474,47.852,33.203,32.227,27.832,3.418,0
2382.478,35.156,34.180,32.715,34.668,17.090,0
2382.482,43.457,34.180,36.621,30.762,21.484,0
2382.486,56.152,35.156,38.086,27.832,28.809,0
2382.490,56.152,35.156,38.574,25.879,18.066,0
2382.494,38.086,32.715,35.645,31.738,11.719,0
2382.497,34.180,31.250,36.133,31.738,12.207,0
2382.501,41.016,31.250,36.133,21.973,23.926,0
2382.505,41.992,28.809,36.621,18.066,-11.230,0
2382.509,37.109,26.855,37.109,29.785,3.418,0
2382.513,28.809,27.344,36.621,35.645,21.973,0
2382.517,34.180,25.879,36.621,29.785,20.020,0
2382.521,42.480,26.855,38.574,18.555,11.230,0
2382.525,28.320,28.320,40.527,25.391,-17.578,0
2382.529,28.320,27.832,41.504,35.645,2.930,0
2382.533,34.180,26.855,41.992,35.645,26.367,0
2382.537,37.598,24.902,41.504,27.344,17.578,0
2382.540,34.180,25.879,41.016,27.344,20.508,0
2382.544,27.832,28.809,45.410,36.621,33.203,0
2382.548,31.250,26.855,51.270,38.086,21.973,0
2382.552,30.762,21.484,48.340,24.414,-16.113,0
2382.556,29.785,23.926,41.992,15.137,-29.785,0
2382.560,18.555,26.855,40.039,19.531,2.930,0
2382.564,20.020,26.855,42.969,28.809,2.441,0
2382.568,33.691,25.879,45.410,24.414,-33.691,0
2382.572,35.645,27.344,40.527,15.625,-35.156,0
2382.576,25.879,31.250,38.574,30.273,5.371,0
2382.579,27.344,33.691,41.504,37.598,-20.996,0
2382.583,41.992,35.645,42.969,35.156,-27.832,0
2382.587,46.387,32.715,42.969,26.367,17.090,0
2382.591,34.668,27.832,39.062,29.297,38.086,0
2382.595,33.691,27.344,38.086,32.227,40.039,0
2382.599,33.203,29.297,35.645,22.461,8.301,0
2382.603,35.645,29.785,33.691,16.602,29.785,0
2382.607,37.109,29.297,34.180,29.297,49.316,0
2382.611,31.738,31.250,33.691,46.875,45.410,0
2382.615,29.785,28.809,37.109,35.156,36.621,0
2382.619,32.227,26.855,38.086,21.973,11.719,0
2382.622,36.621,28.809,33.203,20.996,-4.395,0
2382.626,27.344,26.855,31.738,31.738,-2.930,0
2382.630,26.367,26.367,31.738,34.668,19.531,0
2382.634,43.457,29.297,31.250,22.461,39.062,0
2382.638,46.387,30.762,34.180,20.996,17.090,0
2382.642,29.297,31.250,32.715,28.809,27.344,0
2382.646,28.320,31.738,29.297,30.762,49.805,0
2382.650,37.109,31.738,26.855,22.461,25.391,0
2382.654,41.992,33.203,27.344,17.578,17.578,0
2382.658,33.203,33.691,31.250,32.227,11.719,0
2382.662,23.926,33.691,34.180,42.969,31.738,0
2382.665,29.785,34.180,34.180,30.273,38.086,0
2382.669,39.062,34.668,34.180,16.602,27.832,0
2382.673,32.227,36.133,36.621,19.531,21.973,0
2382.677,21.484,37.598,37.598,29.785,5.859,0
2382.681,27.832,37.598,34.668,31.738,51.758,0
2382.685,36.621,37.598,33.691,27.832,37.598,0
2382.689,38.574,36.621,33.691,25.879,-7.812,0
2382.693,34.180,35.645,31.738,37.109,22.949,0
2382.697,33.691,37.598,29.785,37.109,35.645,0
2382.701,31.250,36.621,33.203,27.832,8.789,0
2382.704,34.668,34.668,33.203,26.855,23.926,0
2382.708,28.809,36.621,29.785,28.809,57.617,0
2382.712,25.879,37.598,28.320,29.297,68.848,0
2382.716,27.832,35.156,26.855,27.344,53.223,0
2382.720,35.645,35.156,27.832,14.160,2.441,0
2382.724,34.180,36.621,28.320,20.508,5.371,0
2382.728,23.438,38.086,24.414,32.715,23.438,0
2382.732,29.297,39.551,22.949,24.902,14.648,0
2382.736,40.527,34.180,25.391,16.113,20.996,0
2382.740,42.480,34.668,27.344,20.020,23.438,0
2382.744,32.227,36.133,26.855,35.156,24.414,0
2382.747,32.227,36.621,27.832,29.297,36.621,0
2382.751,43.945,35.156,33.203,24.902,48.828,0
2382.755,46.875,32.715,33.691,22.461,32.227,0
2382.759,29.297,31.250,32.227,27.344,22.949,0
2382.763,25.391,29.297,33.691,29.297,23.926,0
2382.767,43.457,30.762,30.762,22.461,18.066,0
2382.771,52.246,30.762,28.809,22.949,43.945,0
2382.775,37.598,31.250,28.809,31.738,45.898,0
2382.779,27.832,34.180,27.832,33.691,24.902,0
2382.783,35.645,34.668,25.879,30.762,29.785,0
2382.787,51.270,33.691,27.344,27.344,22.949,0
2382.790,47.363,31.738,29.785,37.109,8.789,0
2382.794,42.969,29.785,29.785,45.898,-2.441,0
2382.798,46.875,32.227,29.785,39.062,-13.184,0
2382.802,52.246,33.203,29.785,28.320,-17.578,0
2382.806,45.898,33.691,29.297,23.926,-28.320,0
2382.810,28.320,35.156,28.809,33.691,-40.039,0
2382.814,38.574,31.738,31.250,37.598,-14.160,0
2382.818,50.293,30.273,33.691,27.344,-9.277,0
2382.822,51.758,30.762,32.227,21.973,-18.555,0
2382.826,40.039,30.762,29.297,35.156,-2.930,0
2382.829,42.969,33.691,29.297,41.504,0.000,0
2382.833,44.922,33.203,27.832,37.598,-4.395,0
2382.837,43.457,32.227,25.391,24.414,-7.812,0
2382.841,39.062,31.738,24.414,26.367,0.977,0
2382.845,32.715,31.250,27.344,32.715,17.578,0
2382.849,38.574,31.738,29.785,33.691,23.438,0
2382.853,42.480,29.785,26.855,25.391,-14.648,0
2382.857,29.785,29.297,28.320,18.066,-22.461,0
2382.861,25.879,31.738,29.785,30.762,27.832,0
2382.865,29.297,29.297,26.855,34.180,27.344,0
2382.869,31.738,24.902,28.320,23.438,1.953,0
2382.872,33.691,23.926,32.715,22.461,-7.324,0
2382.876,19.531,25.391,32.227,31.738,21.973,0
2382.880,22.461,27.344,30.762,33.691,22.461,0
2382.884,38.574,26.855,30.273,28.809,0.000,0
2382.888,41.504,24.414,31.250,25.879,-9.277,0
2382.892,29.785,25.391,32.227,35.156,-16.113,0
2382.896,24.414,24.902,29.785,37.109,12.695,0
2382.900,29.297,24.902,30.273,33.203,6.348,0
2382.904,43.457,25.879,29.785,21.484,-17.090,0
2382.908,36.133,22.461,28.320,27.344,10.742,0
2382.912,20.508,21.973,30.762,38.086,2.441,0
2382.915,31.250,22.949,27.344,27.344,7.324,0
2382.919,48.340,27.344,23.926,12.695,38.574,0
2382.923,51.758,30.762,26.855,13.184,50.293,0
2382.927,47.852,30.273,27.832,21.484,56.641,0
2382.931,53.711,27.344,26.367,20.020,68.848,0
2382.935,62.012,28.320,25.391,12.207,56.641,0
2382.939,67.871,30.273,26.367,14.160,25.391,0
2382.943,54.688,29.297,25.391,32.227,5.859,0
2382.947,34.668,27.832,23.926,36.621,-5.371,0
2382.951,35.645,28.809,24.902,35.156,29.297,0
2382.954,35.645,29.785,25.879,34.668,25.879,0
2382.958,25.391,29.785,27.832,43.945,12.695,0
2382.962,27.832,30.762,29.785,49.316,44.922,0
2382.966,36.133,29.785,32.227,43.457,24.414,0
2382.970,42.969,25.879,34.668,30.762,6.836,0
2382.974,33.203,24.902,33.691,35.156,2.930,0
2382.978,20.996,21.973,30.273,42.969,-12.695,0
2382.982,28.809,22.461,32.227,38.574,-22.461,0
2382.986,40.039,24.902,31.738,32.715,-20.508,0
2382.990,31.738,25.391,28.320,23.926,-21.973,0
2382.994,19.043,26.855,28.320,27.832,-12.207,0
2382.997,25.879,28.320,26.855,29.297,8.301,0
2383.001,31.250,28.320,27.344,20.508,26.855,0
2383.005,30.273,26.855,26.855,22.949,12.207,0
2383.009,21.973,25.879,25.391,34.180,-1.953,0
2383.013,14.160,23.926,27.344,36.621,24.902,0
2383.017,26.855,27.344,26.855,28.809,28.809,0
2383.021,41.992,28.809,26.367,17.578,33.691,0
2383.025,29.297,26.367,28.320,26.367,23.438,0
2383.029,22.461,23.438,25.879,35.156,17.578,0
2383.033,29.297,23.438,23.438,37.598,27.832,0
2383.037,41.992,26.367,22.949,25.879,34.668,0
2383.040,36.621,24.902,20.996,19.531,50.781,0
2383.044,23.438,24.414,20.020,29.785,51.270,0
2383.048,24.902,25.879,20.996,32.227,36.621,0
2383.052,34.668,25.879,22.461,22.949,20.508,0
2383.056,38.574,27.344,23.438,25.391,26.367,0
2383.060,26.855,27.344,25.879,37.109,31.250,0
2383.064,26.367,26.367,25.879,32.715,37.109,0
2383.068,35.156,23.438,24.902,22.461,22.949,0
2383.072,42.969,26.367,23.438,19.531,13.672,0
2383.076,34.668,31.738,24.414,29.785,32.227,0
2383.079,30.762,30.273,25.879,35.156,26.855,0
2383.083,38.086,27.832,24.902,26.855,44.922,0
2383.087,48.340,29.785,25.391,19.531,36.133,0
2383.091,39.551,29.297,23.926,32.227,6.836,0
2383.095,32.227,25.879,25.879,42.969,17.578,0
2383.099,44.922,24.902,30.273,38.574,4.883,0
2383.103,46.875,23.926,27.344,22.949,-18.555,0
2383.107,41.016,24.902,25.391,21.484,-8.789,0
2383.111,34.180,24.414,24.902,31.250,-17.090,0
2383.115,32.715,21.973,23.438,26.367,-25.879,0
2383.119,42.480,23.438,22.461,13.672,-12.207,0
2383.122,45.410,24.414,22.461,14.160,-4.883,0
2383.126,31.250,22.461,22.461,30.762,-15.137,0
2383.130,24.902,21.973,23.926,34.180,-12.207,0
2383.134,36.621,23.438,26.367,29.297,14.160,0
2383.138,47.363,24.414,28.809,20.020,-15.137,0
2383.142,38.574,28.320,29.785,29.785,-24.902,0
2383.146,31.738,30.273,26.367,33.203,10.742,0
2383.150,38.086,27.344,26.367,29.297,11.719,0
2383.154,47.363,25.391,27.344,26.367,-4.395,0
2383.158,41.016,28.320,28.320,27.344,2.930,0
2383.162,32.715,28.809,27.344,36.621,22.461,0
2383.165,39.062,27.344,26.367,39.551,28.809,0
2383.169,47.852,26.367,28.320,32.227,58.105,0
2383.173,43.945,24.902,30.273,27.832,35.156,0
2383.177,30.273,27.344,28.809,35.156,15.137,0
2383.181,30.762,29.785,26.855,31.738,27.832,0
2383.185,45.898,30.273,27.832,22.461,15.137,0
2383.189,47.852,31.738,28.809,19.531,13.184,0
2383.193,27.832,30.762,29.297,31.250,15.625,0
2383.197,22.949,30.762,26.367,32.227,17.090,0
2383.201,29.785,30.762,26.367,21.973,7.812,0
2383.204,40.039,28.320,27.344,16.602,18.555,0
2383.208,29.785,28.809,26.367,29.297,9.277,0
2383.212,20.508,31.250,21.973,33.203,2.441,0
2383.216,25.879,28.809,21.973,23.926,16.602,0
2383.220,28.809,27.344,23.926,17.090,-12.695,0
2383.224,21.973,29.297,21.484,23.926,-25.879,0
2383.228,9.766,28.320,21.973,30.273,-6.836,0
2383.232,12.207,28.809,23.926,26.855,-15.137,0
2383.236,32.227,32.715,24.414,18.555,-6.348,0
2383.240,31.250,32.227,24.902,20.020,7.324,0
2383.244,20.508,30.762,21.973,29.785,19.043,0
2383.247,23.926,32.227,21.484,27.832,13.184,0
2383.251,35.156,30.273,25.879,17.090,13.672,0
2383.255,36.133,29.297,25.391,14.160,2.441,0
2383.259,22.461,31.250,25.391,26.855,-8.301,0
2383.263,24.902,30.273,28.320,32.227,-2.930,0
2383.267,28.320,27.832,29.785,26.855,-19.531,0
2383.271,27.832,28.320,27.344,19.531,4.395,0
2383.275,22.949,28.320,22.949,28.320,10.254,0
2383.279,24.902,28.809,21.484,28.809,6.348,0
2383.283,32.227,29.785,22.949,20.508,21.484,0
2383.287,31.250,29.297,22.949,13.672,10.742,0
2383.290,20.996,28.320,22.949,14.648,17.578,0
2383.294,20.508,29.297,25.879,25.391,37.109,0
2383.298,25.879,30.762,26.855,29.785,41.992,0
2383.302,27.832,29.785,25.879,21.484,22.949,0
2383.306,27.832,29.785,23.438,16.602,-17.578,0
2383.310,20.020,31.250,21.484,21.973,5.371,0
2383.314,22.461,31.738,23.926,24.414,47.363,0
2383.318,35.645,30.762,26.367,19.531,16.602,0
2383.322,42.969,30.273,25.879,12.695,-11.719,0
2383.326,30.762,30.762,27.344,31.250,36.133,0
2383.329,26.367,32.227,29.785,37.109,69.336,0
2383.333,31.250,31.738,30.273,25.391,56.641,0
2383.337,37.109,28.320,31.250,20.020,39.551,0
2383.341,24.902,28.320,29.785,24.414,35.156,0
2383.345,11.719,29.785,28.809,26.855,26.367,0
2383.349,18.555,29.785,27.832,22.461,1.953,0
2383.353,31.250,31.738,27.832,13.672,9.277,0
2383.357,28.809,32.227,29.785,17.090,17.090,0
2383.361,14.160,32.227,29.785,28.809,-0.488,0
2383.365,16.602,29.785,28.320,26.367,-11.719,0
2383.369,31.250,27.344,25.879,21.484,-9.766,0
2383.372,42.969,26.367,22.949,24.902,11.719,0
2383.376,24.414,24.902,25.391,29.785,4.883,0
2383.380,17.578,25.391,28.320,30.762,10.254,0
2383.384,33.203,27.344,29.297,28.320,30.273,0
2383.388,40.039,27.832,30.762,22.949,3.906,0
2383.392,34.180,28.809,30.762,34.180,1.953,0
2383.396,27.344,28.809,31.250,41.016,5.371,0
2383.400,32.227,31.250,27.344,35.156,-10.254,0
2383.404,44.922,33.691,25.391,22.461,-20.996,0
2383.408,31.738,29.785,27.344,27.832,4.395,0
2383.412,21.973,30.273,27.344,42.480,34.668,0
2383.415,32.715,33.203,25.391,33.203,10.742,0
2383.419,41.504,28.809,24.414,19.531,6.348,0
2383.423,32.227,26.855,24.902,17.578,5.859,0
2383.427,22.461,28.320,25.879,23.438,3.906,0
2383.431,30.273,29.297,26.855,26.367,42.480,0
2383.435,41.504,28.320,25.879,19.531,28.809,0
2383.439,47.363,27.832,26.855,23.438,0.488,0
2383.443,31.250,28.809,27.344,30.762,11.719,0
2383.447,25.879,31.738,27.344,29.785,41.504,0
2383.451,34.180,32.715,28.809,28.809,46.387,0
2383.454,41.504,30.273,29.785,23.926,6.836,0
2383.458,32.715,28.320,30.762,29.785,24.414,0
2383.462,23.926,29.785,30.762,31.250,47.363,0
2383.466,28.320,30.273,29.297,24.902,21.973,0
2383.470,37.109,30.762,31.250,13.184,-12.207,0
2383.474,40.527,34.668,31.250,20.020,-1.953,0
2383.478,29.785,35.156,28.320,29.297,40.527,0
2383.482,21.484,32.227,26.855,20.996,22.461,0
2383.486,34.668,33.691,26.855,17.578,-17.578,0
2383.490,40.039,34.180,29.297,22.461,-16.602,0
2383.494,21.973,31.738,30.273,28.809,7.324,0
2383.497,30.762,31.738,28.809,28.809,37.109,0
2383.501,41.504,32.227,28.809,19.531,28.320,0
2383.505,36.133,32.227,31.738,20.020,1.465,0
2383.509,26.367,27.344,33.691,31.250,15.137,0
2383.513,26.367,29.297,30.762,32.715,22.949,0
2383.517,35.645,32.227,29.785,28.809,9.766,0
2383.521,42.969,29.785,34.180,21.484,-5.859,0
2383.525,32.715,30.273,36.133,28.320,21.973,0
2383.529,21.484,28.809,33.203,34.668,21.484,0
2383.533,28.809,31.250,29.297,29.785,17.578,0
2383.537,44.922,32.715,27.832,23.438,49.805,0
2383.540,34.668,30.273,25.879,28.320,40.527,0
2383.544,19.043,29.785,26.855,35.156,24.414,0
2383.548,32.227,27.832,26.855,34.180,13.672,0
2383.552,38.086,25.879,27.344,24.902,12.207,0
2383.556,31.738,28.320,28.809,23.926,35.645,0
2383.560,18.555,27.832,29.785,37.109,31.738,0
2383.564,21.484,24.902,29.785,37.109,38.574,0
2383.568,34.668,26.367,28.809,26.855,20.020,0
2383.572,42.969,29.297,27.832,15.137,-12.695,0
2383.576,35.156,31.738,27.832,22.461,-0.488,0
2383.579,36.621,34.668,28.320,27.832,9.277,0
2383.583,51.758,35.156,28.320,13.672,20.996,0
2383.587,59.570,32.227,29.297,7.324,5.859,0
2383.591,54.688,30.762,28.320,14.160,-7.812,0
2383.595,47.363,32.227,28.809,24.414,-3.418,0
2383.599,44.434,32.715,31.250,32.715,20.508,0
2383.603,45.898,29.785,30.762,24.414,23.438,0
2383.607,40.527,29.785,29.297,32.227,2.441,0
2383.611,30.762,32.227,30.273,48.340,31.250,0
2383.615,30.762,31.738,30.762,46.875,63.477,0
2383.619,34.668,28.320,28.320,34.668,50.293,0
2383.622,37.598,27.832,27.344,28.809,36.621,0
2383.626,29.297,32.227,28.809,37.109,36.621,0
2383.630,22.461,30.762,31.738,39.062,24.902,0
2383.634,28.809,31.250,29.297,29.785,19.531,0
2383.638,36.621,30.273,27.832,23.926,-13.672,0
2383.642,26.855,29.297,30.273,36.133,-15.625,0
2383.646,27.344,30.762,33.203,46.387,20.508,0
2383.650,34.180,28.809,34.180,43.457,26.367,0
2383.654,38.086,27.344,32.715,30.273,11.230,0
2383.658,27.832,30.273,30.762,31.250,25.391,0
2383.662,15.137,32.227,30.273,40.527,35.645,0
2383.665,22.949,30.273,33.691,38.086,22.949,0
2383.669,37.109,28.320,34.668,28.320,-3.418,0
2383.673,36.621,27.344,31.250,31.738,10.254,0
2383.677,21.973,30.273,30.273,42.480,5.371,0
2383.681,24.902,32.715,28.320,41.016,7.812,0
2383.685,38.086,29.297,30.762,30.762,6.348,0
2383.689,36.621,27.832,32.227,21.484,-4.395,0
2383.693,20.508,29.785,32.227,26.367,16.602,0
2383.697,20.996,29.297,28.809,28.809,22.949,0
2383.701,33.203,31.250,25.391,22.949,46.387,0
2383.704,44.922,32.227,26.367,11.719,44.434,0
2383.708,41.016,32.227,28.320,27.344,40.527,0
2383.712,31.250,30.273,28.320,39.551,39.551,0
2383.716,33.691,29.297,25.879,32.715,18.555,0
2383.720,35.156,28.809,27.832,22.461,12.207,0
2383.724,25.391,28.809,28.809,21.973,4.883,0
2383.728,17.578,28.809,28.320,28.809,11.719,0
2383.732,19.531,26.855,32.715,27.832,30.273,0
2383.736,21.484,25.879,34.668,18.555,19.531,0
2383.740,23.438,30.273,29.785,21.484,-11.719,0
2383.744,23.926,31.738,27.832,35.645,-15.625,0
2383.747,29.297,30.273,28.320,39.062,6.348,0
2383.751,37.109,31.738,27.832,32.715,-24.902,0
2383.755,45.898,31.738,29.785,29.785,-39.062,0
2383.759,40.527,33.203,35.156,39.062,-5.371,0
2383.763,41.504,36.133,38.574,40.039,16.113,0
2383.767,43.945,38.574,36.133,28.320,19.043,0
2383.771,44.922,38.086,34.668,19.531,12.207,0
2383.775,37.109,39.551,32.227,24.414,33.691,0
2383.779,25.391,37.598,33.203,34.180,50.293,0
2383.783,29.297,33.203,31.738,32.715,31.250,0
2383.787,50.293,33.691,26.855,23.926,24.414,0
2383.790,55.664,35.156,30.762,31.250,26.367,0
2383.794,35.156,34.668,32.715,40.039,7.812,0
2383.798,33.691,34.180,35.156,34.180,-0.977,0
2383.802,47.363,35.645,37.109,27.832,-2.441,0
2383.806,48.340,33.691,33.203,23.438,0.488,0
2383.810,33.691,31.738,31.738,29.297,4.883,0
2383.814,29.785,34.668,31.250,36.133,8.301,0
2383.818,37.598,37.598,31.250,28.320,22.461,0
2383.822,42.969,38.086,27.832,21.973,10.742,0
2383.826,33.203,37.109,25.879,36.133,-3.418,0
2383.829,33.203,35.645,25.879,41.504,23.926,0
2383.833,41.504,37.109,26.855,32.715,16.113,0
2383.837,48.828,37.109,28.809,21.973,-15.137,0
2383.841,37.598,37.598,31.738,29.297,-27.832,0
2383.845,26.855,36.621,31.738,35.645,-18.066,0
2383.849,37.109,37.109,31.738,31.250,20.996,0
2383.853,43.457,40.039,35.645,29.297,8.301,0
2383.857,35.156,37.598,35.645,32.227,-6.348,0
2383.861,23.438,34.180,34.180,39.551,30.762,0
2383.865,34.668,34.668,30.762,39.062,49.805,0
2383.869,44.922,34.180,28.320,30.273,13.184,0
2383.872,42.480,36.133,28.320,25.391,-11.719,0
2383.876,26.367,37.598,28.809,38.086,17.578,0
2383.880,22.461,36.133,30.762,42.969,27.832,0
2383.884,38.574,35.645,29.785,29.785,11.230,0
2383.888,36.621,31.738,28.320,25.391,7.812,0
2383.892,28.320,32.227,29.785,35.156,6.348,0
2383.896,30.762,34.668,27.832,39.551,0.977,0
2383.900,28.320,33.203,25.391,38.086,11.719,0
2383.904,37.598,35.156,25.879,30.273,2.441,0
2383.908,37.598,34.668,30.762,34.180,11.230,0
2383.912,30.273,32.227,30.762,38.574,31.250,0
2383.915,26.855,32.227,28.320,25.879,-24.414,0
2383.919,33.203,30.273,28.809,16.113,-52.734,0
2383.923,35.645,28.809,28.320,17.090,-31.738,0
2383.927,19.531,33.203,26.855,26.367,8.301,0
2383.931,21.484,33.203,28.320,24.414,19.043,0
2383.935,28.320,31.738,31.738,19.043,-5.859,0
2383.939,34.180,33.691,32.715,14.160,-29.297,0
2383.943,33.203,34.668,32.715,20.996,-11.719,0
2383.947,26.367,36.133,34.180,27.832,7.324,0
2383.951,30.273,37.109,34.668,24.902,-16.602,0
2383.954,41.504,36.621,33.691,20.996,-15.137,0
2383.958,37.598,35.645,31.738,29.297,10.254,0
2383.962,33.203,36.133,31.250,41.504,10.254,0
2383.966,43.945,38.086,29.785,37.598,23.438,0
2383.970,48.828,36.133,29.297,26.855,16.602,0
2383.974,34.180,30.762,34.180,29.297,-6.348,0
2383.978,22.949,32.227,35.645,35.645,-0.488,0
2383.982,27.832,33.691,34.180,37.109,5.371,0
2383.986,44.922,34.668,33.691,27.832,6.348,0
2383.990,44.922,32.227,31.738,22.461,2.441,0
2383.994,23.926,27.832,30.273,34.180,1.953,0
2383.997,29.297,30.273,28.809,40.527,28.320,0
2384.001,48.828,33.203,30.273,37.109,30.273,0
2384.005,47.852,33.203,30.762,24.414,19.531,0
2384.009,32.715,32.227,29.297,28.320,4.395,0
2384.013,27.832,34.668,30.273,37.109,-17.578,0
2384.017,37.598,35.156,29.297,33.203,8.789,0
2384.021,45.410,33.203,28.320,20.508,22.461,0
2384.025,31.738,33.203,30.762,25.391,-17.578,0
2384.029,30.762,33.691,32.715,35.156,-8.789,0
2384.033,38.086,31.738,32.227,27.832,22.461,0
2384.037,39.062,27.344,30.762,17.578,15.625,0
2384.040,39.551,28.320,30.273,23.926,22.461,0
2384.044,31.738,28.809,30.273,37.109,25.391,0
2384.048,35.156,30.762,25.879,35.645,17.578,0
2384.052,39.062,32.715,22.461,26.855,24.902,0
2384.056,38.086,31.250,25.879,26.367,-6.348,0
2384.060,31.738,28.320,26.855,35.156,0.977,0
2384.064,33.203,29.785,25.879,42.480,36.621,0
2384.068,44.922,29.785,26.367,37.109,26.367,0
2384.072,49.316,27.832,25.391,20.508,16.602,0
2384.076,41.504,31.250,25.391,27.344,4.883,0
2384.079,45.410,32.715,26.855,36.621,-7.812,0
2384.083,41.992,29.297,28.809,29.297,-11.719,0
2384.087,47.852,30.762,32.227,20.020,-38.574,0
2384.091,50.293,32.227,32.227,28.809,-12.207,0
2384.095,36.621,28.320,33.203,43.457,3.906,0
2384.099,38.086,27.832,32.715,40.527,24.902,0
2384.103,47.852,31.738,30.762,23.926,38.086,0
2384.107,47.852,36.133,31.250,30.273,23.438,0
2384.111,34.668,33.691,31.738,41.992,35.645,0
2384.115,31.250,31.738,28.320,39.062,18.066,0
2384.119,48.828,36.621,27.344,33.691,7.324,0
2384.122,56.152,36.621,26.855,30.762,17.578,0
2384.126,42.480,34.180,25.879,38.086,41.504,0
2384.130,40.039,37.598,25.879,34.180,34.668,0
2384.134,46.387,37.598,23.926,24.902,34.180,0
2384.138,47.363,31.738,26.367,21.973,20.996,0
2384.142,33.691,29.297,27.344,26.855,-3.418,0
2384.146,29.297,31.250,22.949,30.273,16.113,0
2384.150,34.668,29.785,22.461,32.227,45.898,0
2384.154,33.203,25.879,22.949,23.438,21.973,0
2384.158,30.762,30.273,24.414,30.762,-7.324,0
2384.162,29.297,32.227,23.438,41.504,-11.719,0
2384.165,36.133,31.738,21.973,32.715,20.020,0
2384.169,49.805,33.691,23.438,23.438,42.480,0
2384.173,41.992,32.715,25.391,19.531,14.648,0
2384.177,27.344,33.203,24.902,29.785,19.531,0
2384.181,35.156,32.715,22.949,37.109,23.926,0
2384.185,39.062,28.809,22.949,33.203,12.695,0
2384.189,35.156,29.297,20.508,29.297,20.020,0
2384.193,25.879,29.297,16.113,33.691,38.574,0
2384.197,28.809,28.809,16.113,37.598,44.922,0
2384.201,32.227,28.809,16.113,30.762,26.855,0
2384.204,34.668,31.738,19.531,22.461,27.344,0
2384.208,31.738,33.203,25.391,30.762,26.367,0
2384.212,30.762,32.227,25.879,39.062,25.391,0
2384.216,41.504,32.715,22.949,36.133,13.184,0
2384.220,51.758,32.715,24.414,23.438,13.184,0
2384.224,57.129,34.668,23.926,16.602,28.809,0
2384.228,51.758,36.621,21.484,23.438,27.832,0
2384.232,48.340,35.645,23.926,19.043,24.414,0
2384.236,58.594,35.156,26.855,7.812,-33.691,0
2384.240,59.570,33.691,30.273,13.672,-24.414,0
2384.244,42.969,32.227,29.785,32.715,37.598,0
2384.247,32.227,28.809,25.391,33.691,16.113,0
2384.251,27.344,25.879,26.367,30.762,-2.441,0
2384.255,30.762,29.785,28.320,28.320,14.648,0
2384.259,25.391,28.809,28.320,39.551,9.277,0
2384.263,20.020,28.809,28.320,44.922,-7.324,0
2384.267,27.344,31.250,28.809,30.273,0.488,0
2384.271,35.645,31.250,29.297,20.996,14.648,0
2384.275,29.785,31.738,30.273,33.203,22.461,0
2384.279,19.531,28.320,29.785,39.062,3.906,0
2384.283,26.367,30.273,28.809,36.133,-15.625,0
2384.287,32.715,31.250,25.879,25.879,5.859,0
2384.290,28.809,28.320,22.949,21.484,0.977,0
2384.294,20.508,30.273,22.949,31.738,-12.207,0
2384.298,20.020,27.344,24.902,29.297,4.883,0
2384.302,30.273,26.367,26.367,23.438,6.836,0
2384.306,32.715,28.809,26.855,19.531,-3.418,0
2384.310,19.531,28.320,31.250,32.715,-2.930,0
2384.314,24.902,28.320,31.250,40.039,-2.930,0
2384.318,35.645,31.738,28.809,32.227,5.371,0
2384.322,38.574,31.250,28.320,27.832,-16.602,0
2384.326,25.879,27.832,29.785,32.715,-24.902,0
2384.329,23.926,28.320,31.738,41.504,7.324,0
2384.333,34.668,28.320,30.273,42.969,16.113,0
2384.337,46.875,27.832,29.297,33.203,-12.695,0
2384.341,39.551,25.879,32.227,37.109,-4.883,0
2384.345,24.902,24.414,32.715,47.852,25.879,0
2384.349,29.297,27.344,32.227,47.852,48.828,0
2384.353,40.527,27.344,31.250,30.273,12.695,0
2384.357,39.551,27.832,30.273,23.926,-8.789,0
2384.361,32.227,29.297,29.785,38.574,32.227,0
2384.365,35.156,31.250,26.367,37.598,29.785,0
2384.369,41.992,29.297,23.926,27.832,37.109,0
2384.372,47.852,27.832,23.926,29.297,29.297,0
2384.376,41.992,27.832,27.344,40.527,22.461,0
2384.380,33.691,22.461,30.762,36.621,40.039,0
2384.384,35.645,19.531,30.762,27.344,35.156,0
2384.388,44.434,21.484,32.227,26.855,22.949,0
2384.392,36.621,24.414,31.250,34.180,7.812,0
2384.396,33.203,27.344,31.250,41.504,16.602,0
2384.400,38.574,28.809,30.762,28.809,-5.371,0
2384.404,50.293,27.344,26.855,16.113,-22.949,0
2384.408,48.828,28.320,24.414,29.297,-1.465,0
2384.412,34.180,27.344,26.367,37.598,31.250,0
2384.415,36.621,21.484,27.832,31.250,34.180,0
2384.419,44.922,17.090,28.320,20.508,33.203,0
2384.423,43.945,16.113,33.203,26.855,38.574,0
2384.427,31.250,19.531,36.133,40.039,26.367,0
2384.431,30.762,20.996,34.180,34.180,40.527,0
2384.435,46.875,23.438,33.691,29.297,58.105,0
2384.439,59.082,31.250,33.691,23.438,41.992,0
2384.443,40.039,29.785,29.297,30.762,3.906,0
2384.447,30.762,25.879,25.879,29.785,-4.883,0
2384.451,42.480,27.344,28.320,25.391,23.438,0
2384.454,48.340,27.344,30.273,22.461,12.695,0
2384.458,37.109,28.809,25.879,23.438,24.414,0
2384.462,26.367,30.762,24.902,30.762,28.320,0
2384.466,33.203,28.809,31.250,32.715,14.648,0
2384.470,45.410,24.902,34.668,28.320,10.254,0
2384.474,41.016,22.461,32.227,29.785,26.855,0
2384.478,29.297,24.414,32.227,38.574,29.785,0
2384.482,29.297,28.320,33.203,43.457,23.926,0
2384.486,37.598,31.250,33.203,31.250,3.418,0
2384.490,41.504,31.738,32.227,24.414,-22.461,0
2384.494,32.227,29.297,34.668,35.156,9.277,0
2384.497,28.320,30.762,35.645,39.551,50.293,0
2384.501,32.227,31.250,31.250,26.367,29.785,0
2384.505,34.180,29.297,31.250,14.648,-23.438,0
2384.509,27.344,30.273,33.691,29.785,9.277,0
2384.513,28.809,32.715,33.203,36.133,69.336,0
2384.517,36.621,31.250,36.133,32.715,29.785,0
2384.521,47.852,30.273,38.086,33.691,15.625,0
2384.525,42.969,31.250,35.156,35.156,36.133,0
2384.529,34.668,29.297,31.738,39.062,14.160,0
2384.533,34.668,26.855,30.762,38.086,-0.977,0
2384.537,41.016,25.391,31.738,27.344,-11.719,0
2384.540,42.969,26.855,34.668,29.297,4.395,0
2384.544,30.273,27.832,35.156,38.086,41.504,0
2384.548,26.855,27.344,32.715,32.227,31.738,0
2384.552,37.598,26.367,32.227,23.926,10.254,0
2384.556,42.969,25.879,31.738,28.320,38.086,0
2384.560,26.855,26.367,34.668,41.504,41.016,0
2384.564,20.020,25.879,35.645,41.992,8.301,0
2384.568,30.273,26.367,33.691,32.715,15.625,0
2384.572,44.434,26.367,33.691,23.438,16.602,0
2384.576,32.227,23.926,34.180,35.156,17.578,0
2384.579,21.484,26.367,33.203,39.551,37.109,0
2384.583,29.297,32.227,33.203,22.949,39.062,0
2384.587,43.457,33.203,33.691,17.578,28.320,0
2384.591,39.551,32.227,30.762,30.273,49.805,0
2384.595,28.320,36.133,29.785,33.203,41.992,0
2384.599,31.738,34.668,33.691,32.227,35.156,0
2384.603,38.086,31.738,33.691,23.438,29.785,0
2384.607,39.062,31.250,31.250,19.531,7.812,0
2384.611,31.738,28.809,32.715,33.691,8.301,0
2384.615,31.250,26.855,32.715,32.715,11.230,0
2384.619,31.738,23.926,34.668,23.438,20.508,0
2384.622,30.273,24.902,32.715,25.391,11.719,0
2384.626,24.414,25.391,33.691,33.691,4.395,0
2384.630,26.367,24.902,34.180,37.109,35.156,0
2384.634,31.250,23.926,29.785,30.273,47.363,0
2384.638,35.156,23.438,30.762,19.043,-3.906,0
2384.642,33.691,28.320,33.203,23.926,-14.648,0
2384.646,34.180,27.832,33.203,29.785,8.789,0
2384.650,35.645,23.926,34.180,26.855,-4.883,0
2384.654,42.969,25.391,34.668,20.020,-11.230,0
2384.658,38.086,26.855,31.250,21.973,-29.785,0
2384.662,27.344,28.320,28.809,31.738,0.977,0
2384.665,28.809,26.855,29.785,34.668,22.461,0
2384.669,39.062,28.809,32.227,24.414,23.926,0
2384.673,37.598,30.762,30.273,23.926,41.504,0
2384.677,25.391,25.879,26.855,35.156,23.926,0
2384.681,22.949,24.414,31.738,35.645,-11.230,0
2384.685,29.297,26.367,37.109,26.855,-21.973,0
2384.689,41.504,27.832,34.668,27.344,-19.043,0
2384.693,41.504,28.809,33.203,40.039,-4.883,0
2384.697,34.180,29.297,32.715,41.016,12.207,0
2384.701,37.109,30.273,32.715,33.203,30.273,0
2384.704,47.852,32.715,35.156,22.461,23.926,0
2384.708,42.480,30.762,36.621,32.227,31.738,0
2384.712,35.156,27.344,37.598,39.551,19.043,0
2384.716,31.250,25.879,38.086,29.297,2.441,0
2384.720,39.551,28.320,37.109,21.484,-4.883,0
2384.724,38.086,31.250,36.621,24.902,-3.418,0
2384.728,24.902,33.691,34.180,36.621,20.996,0
2384.732,29.785,33.691,31.738,37.109,0.488,0
2384.736,42.969,28.809,31.250,24.414,25.879,0
2384.740,43.945,31.738,31.250,21.973,19.531,0
2384.744,22.461,33.203,28.809,35.645,-12.695,0
2384.747,23.926,27.832,25.879,36.621,24.902,0
2384.751,40.039,27.832,23.438,32.715,30.273,0
2384.755,46.387,30.273,23.926,24.902,13.184,0
2384.759,34.668,32.715,25.391,26.367,7.812,0
2384.763,31.250,33.203,25.391,31.250,-5.371,0
2384.767,36.133,31.250,26.855,25.391,5.371,0
2384.771,45.410,30.273,29.297,21.484,5.371,0
2384.775,41.504,33.691,28.809,30.273,2.930,0
2384.779,31.250,33.203,27.344,36.621,32.715,0
2384.783,37.109,31.738,24.414,35.156,41.016,0
2384.787,38.086,28.320,25.391,22.949,32.715,0
2384.790,34.180,27.344,27.344,26.855,-5.859,0
2384.794,26.855,27.832,29.297,41.016,0.000,0
2384.798,29.785,25.879,30.762,41.992,39.062,0
2384.802,41.504,29.785,32.227,34.180,14.648,0
2384.806,41.504,30.273,32.715,28.320,-20.020,0
2384.810,32.227,32.715,32.715,40.527,1.953,0
2384.814,31.738,33.203,35.645,45.410,33.203,0
2384.818,28.809,28.320,38.086,34.668,21.973,0
2384.822,35.156,28.320,35.645,20.020,-5.371,0
2384.826,31.250,28.320,35.156,28.809,0.000,0
2384.829,20.996,30.762,35.645,40.527,-3.418,0
2384.833,29.297,32.715,35.645,36.621,-6.836,0
2384.837,40.527,31.738,36.621,22.949,39.551,0
2384.841,33.203,32.227,37.109,25.391,52.734,0
2384.845,21.973,30.762,37.598,39.551,27.832,0
2384.849,29.297,31.250,35.156,34.668,-2.441,0
2384.853,35.156,32.715,33.691,25.391,24.902,0
2384.857,26.855,32.227,33.691,28.320,43.945,0
2384.861,19.531,32.227,33.691,33.691,19.043,0
2384.865,26.367,32.227,31.738,29.785,5.371,0
2384.869,40.039,33.203,32.715,20.508,25.879,0
2384.872,56.152,37.109,34.180,13.672,27.344,0
2384.876,48.340,38.086,34.668,21.484,23.438,0
2384.880,41.016,36.133,33.691,21.484,18.555,0
2384.884,60.547,34.180,32.227,14.160,-4.883,0
2384.888,70.801,35.645,33.203,5.859,-17.090,0
2384.892,51.758,35.645,33.691,13.184,0.488,0
2384.896,34.180,32.715,35.645,24.414,1.953,0
2384.900,34.180,32.227,36.133,24.902,8.789,0
2384.904,40.527,30.762,36.621,21.973,25.391,0
2384.908,28.809,28.320,39.062,28.320,16.602,0
2384.912,16.113,27.832,38.086,37.598,17.090,0
2384.915,27.344,26.855,35.645,36.133,32.715,0
2384.919,35.645,26.855,37.109,31.250,19.531,0
2384.923,32.715,30.273,36.621,35.156,13.672,0
2384.927,24.414,29.297,35.645,45.410,31.738,0
2384.931,29.785,30.273,35.156,43.945,46.875,0
2384.935,37.598,31.250,35.156,32.227,20.996,0
2384.939,40.039,28.809,31.250,31.738,-13.184,0
2384.943,35.645,30.762,30.762,41.992,1.953,0
2384.947,35.156,32.715,33.203,50.293,7.812,0
2384.951,42.480,32.227,33.203,47.363,-14.648,0
2384.954,37.598,30.762,32.715,29.785,-26.367,0
2384.958,29.297,29.785,31.250,30.273,-3.418,0
2384.962,28.809,28.809,30.273,36.621,40.527,0
2384.966,28.320,28.809,32.715,36.133,8.789,0
2384.970,42.969,28.320,34.668,27.344,-26.367,0
2384.974,46.387,28.809,31.250,31.250,0.000,0
2384.978,29.297,30.762,32.715,45.898,12.695,0
2384.982,32.227,33.691,34.668,40.527,23.438,0
2384.986,39.062,34.668,31.738,31.738,-12.207,0
2384.990,45.410,34.668,31.738,30.762,-35.156,0
2384.994,37.598,34.180,31.738,37.109,-20.508,0
2384.997,30.762,31.738,31.250,35.645,-25.391,0
2385.001,42.480,31.738,33.203,28.809,-19.531,0
2385.005,47.363,32.715,32.227,25.879,-13.184,0
2385.009,34.180,29.785,28.809,35.156,2.441,0
2385.013,26.367,29.785,27.832,38.086,7.324,0
2385.017,29.297,30.762,28.809,35.156,1.465,0
2385.021,41.992,29.785,26.855,26.855,5.371,0
2385.025,39.062,31.738,26.855,29.297,9.766,0
2385.029,23.438,33.203,30.273,39.551,16.602,0
2385.033,23.438,29.297,29.297,35.645,8.301,0
2385.037,40.527,27.344,27.832,24.902,-8.789,0
2385.040,43.945,28.809,31.250,27.832,-13.672,0
2385.044,36.133,29.785,30.762,38.574,-5.859,0
2385.048,37.598,30.762,26.855,30.762,7.812,0
2385.052,42.969,33.691,26.367,24.902,25.391,0
2385.056,44.434,36.621,28.320,25.391,14.648,0
2385.060,30.273,35.156,32.715,33.203,-24.414,0
2385.064,34.180,35.645,32.227,38.086,-21.484,0
2385.068,48.340,36.621,28.809,32.715,19.043,0
2385.072,52.734,35.645,32.715,24.414,-5.371,0
2385.076,43.945,35.645,35.645,33.691,-4.395,0
2385.079,40.039,36.133,33.691,42.969,26.367,0
2385.083,46.387,37.598,33.203,32.227,12.207,0
2385.087,56.152,40.039,35.645,17.578,-9.766,0
2385.091,46.387,40.039,37.598,21.973,-3.906,0
2385.095,34.668,38.574,37.598,31.738,-1.465,0
2385.099,40.527,37.598,36.621,33.691,20.508,0
2385.103,44.922,34.668,35.645,24.414,9.277,0
2385.107,43.457,31.738,32.715,21.484,-24.902,0
2385.111,36.133,35.156,33.691,33.691,7.812,0
2385.115,39.551,38.086,38.574,37.109,13.672,0
2385.119,50.781,36.621,39.551,36.133,9.277,0
2385.122,56.641,37.109,38.086,31.738,21.973,0
2385.126,44.434,37.598,38.086,37.109,21.973,0
2385.130,38.574,37.109,38.086,40.039,33.691,0
2385.134,43.945,34.668,38.574,36.133,18.066,0
2385.138,45.898,34.668,36.133,28.809,3.418,0
2385.142,36.621,33.203,34.180,36.621,20.508,0
2385.146,28.320,29.297,37.598,46.875,12.695,0
2385.150,32.227,33.691,37.109,41.016,-4.395,0
2385.154,41.504,35.645,36.621,32.227,3.906,0
2385.158,37.109,31.738,39.551,38.086,4.883,0
2385.162,21.973,28.809,35.645,44.922,15.625,0
2385.165,26.367,29.297,32.715,37.109,6.348,0
2385.169,37.109,30.762,32.715,21.973,13.672,0
2385.173,36.621,31.250,33.691,17.578,18.555,0
2385.177,29.297,32.227,33.203,35.645,15.625,0
2385.181,29.297,27.832,34.180,37.109,15.137,0
2385.185,38.086,26.367,36.621,28.320,0.488,0
2385.189,41.992,28.320,37.598,27.344,17.578,0
2385.193,32.715,33.203,40.527,39.551,27.344,0
2385.197,31.738,33.203,39.551,39.551,9.766,0
2385.201,42.480,31.738,38.086,32.715,28.320,0
2385.204,50.781,32.715,37.109,31.250,31.738,0
2385.208,40.039,32.715,34.668,34.180,16.113,0
2385.212,29.297,34.668,36.133,42.969,21.484,0
2385.216,33.691,32.227,37.109,37.598,42.480,0
2385.220,43.457,29.297,38.086,30.273,44.434,0
2385.224,42.969,32.227,38.086,36.133,25.879,0
2385.228,28.320,34.668,35.645,38.574,38.086,0
2385.232,26.367,31.738,37.109,38.086,32.227,0
2385.236,38.574,32.227,32.715,36.133,15.625,0
2385.240,48.828,31.738,28.809,28.809,19.043,0
2385.244,40.527,26.367,29.297,36.133,26.855,0
2385.247,32.227,25.879,30.762,37.598,24.902,0
2385.251,35.645,30.273,34.180,31.250,28.809,0
2385.255,45.898,29.785,37.109,30.273,1.953,0
2385.259,41.992,25.391,38.086,44.922,16.602,0
2385.263,38.086,23.926,34.668,48.828,50.293,0
2385.267,39.551,27.344,33.203,40.039,27.832,0
2385.271,44.922,30.273,30.762,29.785,-0.488,0
2385.275,44.922,29.785,28.809,34.180,13.184,0
2385.279,34.180,28.320,30.273,48.340,38.086,0
2385.283,29.297,26.367,32.227,42.969,33.203,0
2385.287,44.434,26.855,34.180,29.297,36.621,0
2385.290,49.805,28.809,31.250,32.227,70.801,0
2385.294,35.645,30.762,29.785,45.410,62.500,0
2385.298,32.227,30.273,31.738,44.922,20.508,0
2385.302,41.016,26.855,34.668,35.156,0.488,0
2385.306,51.270,28.809,35.645,27.344,3.418,0
2385.310,33.691,29.297,34.180,34.180,-1.953,0
2385.314,25.879,27.344,33.691,38.574,-0.488,0
2385.318,32.715,26.367,34.180,37.109,14.648,0
2385.322,38.086,26.855,33.691,31.250,-15.137,0
2385.326,30.762,27.344,31.738,35.645,-15.625,0
2385.329,26.367,28.320,31.738,41.016,7.324,0
2385.333,35.156,33.203,33.691,36.133,-3.418,0
2385.337,46.875,32.715,34.668,22.949,-7.812,0
2385.341,41.992,30.273,31.250,22.461,-5.859,0
2385.345,21.973,31.738,27.832,29.785,-17.578,0
2385.349,24.902,35.645,29.297,28.809,-15.625,0
2385.353,40.527,31.250,27.832,20.020,2.441,0
2385.357,33.691,26.367,23.926,19.043,4.395,0
2385.361,20.508,27.832,23.926,34.668,11.230,0
2385.365,28.320,28.809,24.414,31.250,18.066,0
2385.369,39.062,30.273,25.391,19.531,2.441,0
2385.372,41.504,32.715,21.973,14.648,4.395,0
2385.376,21.973,29.785,19.043,26.367,37.598,0
2385.380,18.066,27.832,20.996,29.785,27.344,0
2385.384,26.367,29.297,19.531,20.996,22.949,0
2385.388,25.391,27.344,19.043,12.695,19.043,0
2385.392,21.484,27.344,18.066,20.508,10.254,0
2385.396,19.043,30.273,17.090,29.297,28.320,0
2385.400,23.438,30.762,19.531,26.855,-8.789,0
2385.404,30.762,30.762,20.996,17.090,-31.738,0
2385.408,29.297,32.715,24.414,17.578,-4.395,0
2385.412,25.879,37.109,23.926,31.738,0.488,0
2385.415,26.855,39.062,21.484,27.832,-5.371,0
2385.419,29.785,37.109,25.879,17.578,-33.203,0
2385.423,29.297,34.180,23.926,13.184,-53.711,0
2385.427,20.508,31.250,22.461,25.879,-20.020,0
2385.431,26.855,27.832,24.414,35.156,-1.465,0
2385.435,36.621,25.391,23.926,28.809,-19.043,0
2385.439,47.852,27.344,27.344,25.391,-7.812,0
2385.443,41.992,29.297,31.738,41.504,13.672,0
2385.447,19.043,28.809,33.691,38.574,-10.254,0
2385.451,11.230,30.273,33.691,17.090,-31.250,0
2385.454,27.832,29.785,35.156,10.742,8.789,0
2385.458,31.250,30.762,32.715,20.508,20.996,0
2385.462,17.090,30.762,29.785,26.855,-0.977,0
2385.466,16.113,25.879,30.273,21.484,10.742,0
2385.470,21.973,21.973,33.203,16.602,16.113,0
2385.474,18.555,21.484,33.203,21.973,26.367,0
2385.478,5.371,22.461,30.273,34.180,13.672,0
2385.482,11.719,24.902,34.180,33.203,-9.277,0
2385.486,26.855,28.320,32.227,20.996,18.555,0
2385.490,31.738,29.785,29.297,17.090,2.441,0
2385.494,19.531,30.762,30.273,27.832,-15.137,0
2385.497,18.555,32.715,31.250,30.273,8.301,0
2385.501,33.203,35.645,31.738,25.391,1.465,0
2385.505,35.156,32.715,29.297,19.531,2.930,0
2385.509,17.578,29.297,30.762,25.391,-24.414,0
2385.513,17.090,27.832,35.156,35.156,-26.367,0
2385.517,27.344,27.344,33.691,36.133,2.441,0
2385.521,33.691,29.297,32.715,27.344,-8.301,0
2385.525,27.832,30.762,34.668,29.785,8.301,0
2385.529,20.996,29.297,34.180,39.551,11.230,0
2385.533,25.879,29.297,31.250,38.574,16.602,0
2385.537,27.832,29.785,27.344,23.438,31.250,0
2385.540,28.809,29.785,27.832,20.996,20.020,0
2385.544,25.391,31.250,27.832,36.621,7.324,0
2385.548,27.832,29.785,28.320,36.133,-4.395,0
2385.552,40.527,31.738,31.250,24.902,21.484,0
2385.556,46.387,30.273,31.738,16.113,14.160,0
2385.560,46.387,28.320,32.715,22.949,35.156,0
2385.564,50.293,29.297,31.250,26.367,60.059,0
2385.568,56.641,27.344,27.832,17.578,40.039,0
2385.572,64.941,26.367,31.250,11.230,37.109,0
2385.576,49.316,25.391,31.738,20.996,35.645,0
2385.579,35.645,23.438,30.273,28.809,42.480,0
2385.583,30.762,21.973,33.691,26.855,37.598,0
2385.587,27.832,20.996,36.133,18.066,18.066,0
2385.591,24.902,23.926,33.203,23.438,32.715,0
2385.595,16.602,23.438,29.785,32.715,50.293,0
2385.599,21.484,23.438,32.715,29.297,32.227,0
2385.603,29.785,24.414,33.691,21.973,-5.371,0
2385.607,33.203,23.926,34.180,24.414,-10.254,0
2385.611,21.484,25.879,36.621,39.062,16.602,0
2385.615,20.508,27.832,36.621,35.645,-4.395,0
2385.619,33.691,27.344,35.645,25.391,0.000,0
2385.622,36.621,25.391,34.180,23.438,31.738,0
2385.626,25.879,25.879,33.203,34.180,8.301,0
2385.630,24.414,27.344,33.203,42.969,24.902,0
2385.634,32.715,30.273,36.133,40.039,39.062,0
2385.638,46.875,32.227,36.133,30.762,14.160,0
2385.642,42.969,33.691,32.715,34.180,4.395,0
2385.646,34.180,32.715,33.203,45.410,3.906,0
2385.650,42.969,31.738,34.668,49.316,19.531,0
2385.654,53.711,31.738,32.715,41.504,12.207,0
2385.658,43.945,28.320,31.738,35.645,-19.531,0
2385.662,35.645,30.273,34.668,41.016,-23.926,0
2385.665,45.410,30.762,35.645,43.945,-5.371,0
2385.669,52.246,28.320,33.691,37.598,-6.836,0
2385.673,51.270,30.273,32.227,32.227,1.465,0
2385.677,36.133,28.809,31.250,37.109,28.809,0
2385.681,38.574,27.832,35.156,42.480,49.805,0
2385.685,47.852,30.762,35.645,35.645,57.129,0
2385.689,53.223,30.762,31.738,26.367,45.898,0
2385.693,43.945,31.738,32.715,40.039,39.062,0
2385.697,34.668,31.250,33.203,44.922,47.363,0
2385.701,43.945,32.227,32.715,41.016,46.875,0
2385.704,56.641,34.668,32.227,32.715,35.156,0
2385.708,51.758,37.109,28.320,31.738,26.367,0
2385.712,43.457,39.551,27.832,43.457,52.734,0
2385.716,50.293,40.527,31.250,40.527,43.945,0
2385.720,52.246,37.109,30.762,22.461,21.973,0
2385.724,49.316,35.645,28.320,20.020,31.250,0
2385.728,44.434,36.133,27.344,40.039,30.273,0
2385.732,43.945,35.156,28.320,41.504,37.598,0
2385.736,48.340,34.668,27.344,26.855,30.273,0
2385.740,54.199,34.668,24.414,21.484,32.227,0
2385.744,40.527,35.645,25.879,34.180,38.086,0
2385.747,35.645,34.180,27.344,40.527,37.109,0
2385.751,45.410,33.203,28.320,33.691,45.410,0
2385.755,53.711,33.203,25.391,23.438,29.297,0
2385.759,44.434,31.738,24.902,30.273,42.480,0
2385.763,27.344,31.738,25.391,30.273,49.316,0
2385.767,28.809,31.738,22.949,20.020,8.789,0
2385.771,49.805,33.691,24.414,19.531,17.090,0
2385.775,46.387,35.156,26.367,26.855,27.832,0
2385.779,31.738,35.156,26.367,29.297,24.414,1
2385.783,32.715,34.668,23.438,25.391,24.414,0
2385.787,46.387,32.715,22.461,18.555,21.973,0
2385.790,48.828,32.227,26.855,17.090,26.367,0
2385.794,29.297,31.738,28.809,28.320,24.902,0
2385.798,25.391,32.715,25.391,31.250,2.930,0
2385.802,37.598,33.203,23.926,22.461,4.883,0
2385.806,44.922,32.227,23.926,17.090,12.695,0
2385.810,30.273,33.691,24.414,28.809,13.184,0
2385.814,25.391,34.180,26.367,36.133,30.273,0
2385.818,36.621,34.668,29.297,33.691,51.270,0
2385.822,40.527,32.715,29.297,23.926,25.879,0
2385.826,31.250,34.668,30.762,24.902,-20.996,0
2385.829,28.809,38.086,32.715,35.156,-0.488,0
2385.833,35.156,35.645,30.273,36.133,9.766,0
2385.837,44.922,37.109,29.785,24.414,-4.395,0
2385.841,45.898,37.598,30.273,27.832,6.836,0
2385.845,33.691,32.715,31.738,41.992,32.715,0
2385.849,35.156,30.762,32.715,40.527,43.457,0
2385.853,42.480,32.227,28.320,29.785,7.324,0
2385.857,37.598,35.156,26.855,19.043,2.441,0
2385.861,26.367,36.133,26.855,27.832,46.387,0
2385.865,30.762,32.715,28.809,33.203,46.875,0
2385.869,41.504,33.691,30.273,27.344,19.043,0
2385.872,47.363,35.156,31.738,28.809,4.395,0
2385.876,39.062,35.156,32.715,35.645,26.855,0
2385.880,29.297,34.668,30.762,40.527,42.969,0
2385.884,33.203,31.250,30.762,37.109,60.059,0
2385.888,45.410,28.809,32.715,22.461,32.715,0
2385.892,40.039,28.320,32.715,22.949,-4.395,0
2385.896,26.855,29.297,34.180,37.109,-0.488,0
2385.900,32.715,31.250,34.668,37.109,1.465,0
2385.904,45.410,29.297,30.273,24.902,0.977,0
2385.908,44.434,28.809,26.367,30.273,3.418,0
2385.912,29.297,28.320,28.809,40.527,-1.953,0
2385.915,29.785,28.320,31.738,40.527,-1.465,0
2385.919,39.551,30.273,30.762,31.250,17.090,0
2385.923,39.551,29.297,32.715,26.367,-13.672,0
2385.927,27.832,30.273,35.156,37.109,-12.695,0
2385.931,27.344,29.297,33.203,32.227,26.855,0
2385.935,29.785,26.367,29.297,20.508,26.367,0
2385.939,36.133,26.855,25.879,16.602,9.277,0
2385.943,27.344,28.320,25.391,23.438,15.625,0
2385.947,23.926,30.273,26.367,25.879,2.441,0
2385.951,39.062,31.738,28.320,23.926,-4.883,0
2385.954,43.945,34.180,29.297,19.043,6.836,0
2385.958,32.715,37.598,28.320,26.367,-0.977,0
2385.962,22.461,38.086,26.367,35.156,25.879,0
2385.966,29.297,34.668,28.809,37.109,45.898,0
2385.970,37.598,32.227,31.250,29.785,16.113,0
2385.974,30.762,33.203,28.320,20.508,19.531,0
2385.978,14.648,33.203,28.320,26.367,30.273,0
2385.982,16.602,33.203,28.809,27.344,12.695,0
2385.986,22.461,36.133,27.832,22.949,-4.395,0
2385.990,24.902,34.668,28.809,20.020,-23.438,0
2385.994,22.949,31.250,26.855,32.715,15.625,0
2385.997,13.672,29.785,28.320,35.645,28.320,0
2386.001,14.160,28.809,32.227,24.902,5.371,0
2386.005,28.320,28.320,31.738,14.648,8.301,0
2386.009,33.691,31.738,30.762,22.949,10.254,0
2386.013,27.832,33.203,28.809,30.273,-7.324,0
2386.017,25.879,28.809,28.320,27.344,-33.203,0
2386.021,35.156,27.832,27.832,20.996,-15.137,0
2386.025,35.156,29.785,27.832,21.484,7.812,0
2386.029,21.484,31.250,28.809,36.133,24.414,0
2386.033,25.391,33.203,28.809,37.109,13.672,0
2386.037,40.039,32.715,28.809,23.438,-2.930,0
2386.040,44.434,32.715,31.738,25.879,18.555,0
2386.044,31.250,31.738,31.250,36.133,32.227,0
2386.048,26.367,31.738,29.297,27.344,13.184,0
2386.052,29.785,33.691,29.785,21.484,-12.695,0
2386.056,30.273,33.203,27.832,19.531,-25.391,0
2386.060,23.926,35.156,25.879,27.344,10.254,0
2386.064,22.461,37.109,26.855,28.809,3.906,0
2386.068,27.344,37.109,26.367,26.855,-11.719,0
2386.072,39.062,35.645,25.879,22.461,16.602,0
2386.076,35.645,34.668,27.832,29.785,22.461,0
2386.079,32.715,35.645,28.320,39.062,8.301,0
2386.083,38.086,34.180,28.809,38.086,6.836,0
2386.087,45.898,31.738,25.879,30.273,0.977,0
2386.091,42.969,31.738,22.461,30.762,-33.691,0
2386.095,29.297,33.203,24.902,37.109,-63.965,0
2386.099,33.691,33.691,27.344,40.527,-51.270,0
2386.103,51.758,34.668,25.879,33.203,-27.344,0
2386.107,54.199,34.668,27.832,31.738,-6.836,0
2386.111,39.062,32.227,30.762,46.387,-11.719,0
2386.115,37.109,29.785,30.273,51.758,-22.461,0
2386.119,46.875,33.203,28.809,41.016,2.930,0
2386.122,57.129,33.691,28.320,28.320,-20.508,0
2386.126,43.945,32.227,30.273,36.133,-39.062,0
2386.130,36.621,33.691,30.273,41.992,1.953,0
2386.134,45.410,33.203,29.297,41.992,7.812,0
2386.138,52.246,33.203,30.273,34.668,-5.859,0
2386.142,45.898,35.156,31.738,30.762,-11.230,0
2386.146,39.551,35.156,32.227,39.551,-3.418,0
2386.150,46.875,33.203,31.738,44.434,27.832,0
2386.154,55.664,31.738,28.809,35.645,21.484,0
2386.158,52.246,33.203,30.273,31.250,34.180,0
2386.162,44.434,33.691,31.250,42.480,76.172,0
2386.165,47.852,33.203,32.715,45.410,70.801,0
2386.169,51.270,33.691,35.156,32.227,23.438,0
2386.173,49.805,33.203,34.668,28.320,-0.488,0
2386.177,36.133,32.227,33.691,41.992,20.020,0
2386.181,33.203,30.762,34.668,41.504,15.137,0
2386.185,38.086,28.320,33.691,27.344,15.625,0
2386.189,46.387,25.879,30.762,20.996,41.016,0
2386.193,41.504,25.879,28.809,31.738,37.598,0
2386.197,30.762,30.762,28.320,39.062,28.320,0
2386.201,32.715,30.762,31.250,31.738,33.203,0
2386.204,43.945,28.320,31.738,20.508,44.922,0
2386.208,40.527,28.809,31.250,30.762,33.203,0
2386.212,30.273,29.297,31.738,39.551,26.855,0
2386.216,33.203,27.832,33.691,36.133,17.090,0
2386.220,41.016,25.879,34.668,31.250,11.230,0
2386.224,35.645,27.832,33.691,28.809,34.668,0
2386.228,26.367,28.809,34.668,42.969,23.926,0
2386.232,38.086,26.855,33.691,44.922,24.902,0
2386.236,51.270,28.809,35.156,35.645,23.438,0
2386.240,52.734,26.367,38.086,31.738,2.441,0
2386.244,35.645,25.879,36.621,38.086,16.602,0
2386.247,28.809,28.320,36.621,40.039,28.320,0
2386.251,41.504,28.320,37.109,34.668,50.781,0
