timestamps,TP9,AF7,AF8,TP10,Right AUX,Marker0
1553636231.320,27.344,40.527,65.918,29.785,-2.930,0
1553636231.324,34.180,35.645,67.383,28.320,-52.246,0
1553636231.328,14.160,42.480,53.223,36.621,16.602,0
1553636231.331,25.879,46.875,53.223,46.875,95.215,0
1553636231.335,22.461,35.645,56.152,27.832,41.992,0
1553636231.339,7.324,38.086,49.805,28.320,34.180,0
1553636231.343,20.508,39.551,46.875,35.645,62.500,0
1553636231.347,22.461,33.203,53.223,36.133,74.707,0
1553636231.351,13.672,34.668,57.617,27.832,127.930,0
1553636231.355,13.184,25.879,50.293,15.625,20.508,0
1553636231.359,16.602,26.367,55.664,26.855,-23.438,0
1553636231.363,22.461,42.969,32.715,43.457,40.039,0
1553636231.367,25.879,46.387,13.672,32.715,55.664,0
1553636231.371,33.203,41.016,44.434,21.973,4.883,0
1553636231.374,27.344,40.039,60.059,34.668,-32.715,0
1553636231.378,21.484,40.039,58.594,39.551,-7.324,0
1553636231.382,36.133,35.645,48.828,36.133,14.160,0
1553636231.386,45.410,44.434,33.691,36.133,38.086,0
1553636231.390,40.039,38.086,37.109,31.738,-4.395,0
1553636231.394,39.551,33.203,46.387,27.344,3.906,0
1553636231.398,41.992,48.828,37.109,31.738,45.898,0
1553636231.402,33.691,52.734,36.621,41.992,-5.371,0
1553636231.406,22.461,45.898,19.043,53.711,-28.809,0
1553636231.410,17.090,36.133,37.598,38.086,-16.113,0
1553636231.414,14.160,35.645,61.523,38.086,56.152,0
1553636231.417,6.348,38.086,47.852,43.945,95.703,0
1553636231.421,-0.977,37.109,43.945,38.086,54.688,0
1553636231.425,10.742,35.645,36.133,41.016,23.438,0
1553636231.429,28.320,36.133,37.109,35.156,-3.418,0
1553636231.433,33.691,41.016,42.969,37.598,12.695,0
1553636231.437,31.250,45.410,27.344,40.039,5.371,0
1553636231.441,27.832,38.574,15.625,35.156,-8.789,0
1553636231.445,32.227,34.668,41.016,23.438,-18.066,0
1553636231.449,20.508,35.645,51.270,13.184,-16.602,0
1553636231.453,8.789,35.645,43.945,23.926,-21.484,0
1553636231.456,14.160,30.273,40.039,23.926,-34.180,0
1553636231.460,16.602,29.785,39.062,12.207,-28.809,0
1553636231.464,5.371,32.715,33.203,19.043,-18.555,0
1553636231.468,5.859,28.809,26.855,23.438,55.176,0
1553636231.472,12.695,28.809,8.789,29.785,47.363,0
1553636231.476,14.648,34.180,11.719,22.949,21.973,0
1553636231.480,12.207,34.668,41.992,11.230,37.109,0
1553636231.484,-0.977,30.762,42.969,20.508,49.316,0
1553636231.488,6.836,29.785,46.875,-1.953,25.391,0
1553636231.492,23.438,33.203,51.758,-14.160,-22.949,0
1553636231.496,16.113,34.180,44.434,1.465,-61.035,0
1553636231.499,21.973,31.250,33.691,16.602,-73.242,0
1553636231.503,26.855,29.785,36.621,19.043,-21.973,0
1553636231.507,17.090,27.832,38.086,22.949,-42.480,0
1553636231.511,13.184,32.227,24.414,7.324,-64.941,0
1553636231.515,17.090,37.598,12.695,-4.883,-20.508,0
1553636231.519,9.277,32.715,41.016,5.859,-13.672,0
1553636231.523,19.043,31.250,54.688,15.137,-58.594,0
1553636231.527,29.785,27.832,44.922,34.180,27.344,0
1553636231.531,34.180,27.344,45.898,35.156,56.152,0
1553636231.535,34.180,36.621,39.551,33.691,22.949,0
1553636231.539,20.996,35.645,35.156,35.156,-3.906,0
1553636231.542,29.785,34.180,36.621,28.809,43.945,0
1553636231.546,43.945,34.180,39.062,36.133,90.820,0
1553636231.550,23.926,31.738,31.250,38.086,-25.391,0
1553636231.554,2.930,35.156,26.855,35.645,-40.039,0
1553636231.558,-5.371,35.645,33.691,43.945,12.207,0
1553636231.562,-2.441,28.320,31.738,45.898,91.797,0
1553636231.566,8.789,26.855,26.367,46.387,50.293,0
1553636231.570,17.578,28.320,39.062,44.922,73.730,0
1553636231.574,36.133,27.832,49.316,49.316,98.633,0
1553636231.578,26.855,31.738,46.875,65.918,78.613,0
1553636231.581,-3.418,35.645,46.875,51.270,65.430,0
1553636231.585,10.254,32.227,41.016,32.715,12.695,0
1553636231.589,18.066,29.297,40.039,35.645,45.898,0
1553636231.593,6.348,28.320,49.316,51.270,75.684,0
1553636231.597,13.672,21.484,53.223,48.340,50.293,0
1553636231.601,24.902,20.020,52.734,33.203,74.707,0
1553636231.605,21.973,20.996,50.293,39.551,46.875,0
1553636231.609,29.785,20.508,37.109,38.086,30.762,0
1553636231.613,39.062,23.438,19.043,45.410,83.496,0
1553636231.617,25.879,18.066,37.109,46.875,75.195,0
1553636231.621,26.855,14.160,55.176,52.246,33.691,0
1553636231.624,33.203,20.508,43.945,53.711,36.621,0
1553636231.628,35.156,23.926,42.480,41.992,42.480,0
1553636231.632,35.156,25.391,42.969,36.621,49.316,0
1553636231.636,34.180,30.273,43.457,37.109,0.977,0
1553636231.640,32.227,31.250,25.879,63.965,-15.137,0
1553636231.644,26.855,27.344,19.043,63.965,-23.438,0
1553636231.648,17.578,23.438,49.316,39.062,28.809,0
1553636231.652,18.555,23.926,53.223,34.668,70.801,0
1553636231.656,32.227,23.926,43.945,43.945,19.531,0
1553636231.660,29.297,25.879,46.387,47.852,59.082,0
1553636231.664,25.391,30.273,44.434,52.734,118.164,0
1553636231.667,32.715,28.809,41.992,62.500,124.512,0
1553636231.671,38.086,27.832,44.922,46.875,90.820,0
1553636231.675,37.598,27.344,35.645,43.945,38.086,0
1553636231.679,31.738,27.832,23.926,49.316,34.668,0
1553636231.683,33.691,33.203,35.645,47.852,57.617,0
1553636231.687,26.855,28.809,44.434,54.199,54.688,0
1553636231.691,28.809,32.715,42.480,60.059,49.805,0
1553636231.695,36.133,36.133,38.086,47.363,50.781,0
1553636231.699,28.320,29.785,30.762,48.340,51.270,0
1553636231.703,30.273,33.203,32.715,59.570,31.250,0
1553636231.706,37.598,34.668,35.156,40.039,48.340,0
1553636231.710,31.738,31.738,38.574,38.574,81.543,0
1553636231.714,43.945,35.156,35.645,60.059,23.926,0
1553636231.718,41.504,38.574,35.645,61.035,48.340,0
1553636231.722,22.949,34.180,40.527,49.805,80.078,0
1553636231.726,24.414,31.250,36.133,51.270,-14.648,0
1553636231.730,25.391,34.180,30.762,52.734,1.953,0
1553636231.734,26.855,35.156,24.414,69.336,52.246,0
1553636231.738,25.391,34.180,40.527,53.711,2.930,0
1553636231.742,26.367,36.621,47.363,38.086,-39.551,0
1553636231.746,15.625,36.621,35.645,37.598,7.324,0
1553636231.749,10.742,35.645,32.227,33.203,59.570,0
1553636231.753,22.949,33.691,34.668,51.270,26.855,0
1553636231.757,18.066,36.133,34.180,28.809,20.508,0
1553636231.761,9.766,39.062,26.855,28.809,17.090,0
1553636231.765,26.367,41.016,24.902,22.949,16.602,0
1553636231.769,30.273,45.410,26.367,-6.836,37.598,0
1553636231.773,26.855,44.434,27.344,2.441,70.801,0
1553636231.777,26.855,41.992,34.668,10.254,105.957,0
1553636231.781,26.855,41.016,39.551,10.742,105.957,0
1553636231.785,20.020,31.738,33.691,8.789,47.852,0
1553636231.789,30.273,31.738,21.973,19.043,-12.695,0
1553636231.792,34.180,41.016,18.555,22.949,47.852,0
1553636231.796,35.645,37.109,28.320,3.906,50.293,0
1553636231.800,31.250,31.250,40.527,12.207,28.320,0
1553636231.804,-2.930,33.203,42.480,18.066,86.426,0
1553636231.808,-8.301,34.668,36.621,19.531,87.402,0
1553636231.812,-21.484,31.250,35.645,19.531,84.961,0
1553636231.816,-17.578,31.738,29.785,12.207,100.586,0
1553636231.820,-4.395,34.180,22.949,32.227,78.125,0
1553636231.824,0.488,35.645,38.086,42.969,0.977,0
1553636231.828,1.953,36.621,47.363,25.391,27.832,0
1553636231.831,25.391,37.598,43.945,21.973,98.633,0
1553636231.835,21.973,40.039,38.574,31.738,27.832,0
1553636231.839,3.418,43.457,39.062,37.109,49.805,0
1553636231.843,9.766,42.480,40.039,12.207,128.906,0
1553636231.847,0.977,34.668,37.598,-2.930,117.188,0
1553636231.851,1.953,38.574,42.480,14.648,68.848,0
1553636231.855,-0.977,43.457,48.340,7.324,62.012,0
1553636231.859,-16.602,35.156,55.664,4.883,81.055,0
1553636231.863,-16.113,39.062,60.059,14.648,79.102,0
1553636231.867,-20.020,57.129,52.734,-3.906,65.430,0
1553636231.871,-31.250,60.547,57.617,-14.160,33.203,0
1553636231.874,-39.551,58.105,65.918,-14.648,79.102,0
1553636231.878,-62.012,64.453,59.082,-30.273,78.125,0
1553636231.882,-59.570,68.848,58.594,-20.508,34.180,0
1553636231.886,-74.219,66.895,49.805,-58.105,50.781,0
1553636231.890,-88.379,64.941,47.363,-72.266,63.477,0
1553636231.894,-95.215,68.848,35.645,-69.336,111.816,0
1553636231.898,-115.723,69.336,46.875,-106.445,79.590,0
1553636231.902,-104.980,60.059,78.125,-101.562,71.777,0
1553636231.906,-79.102,52.734,30.762,-80.566,116.211,0
1553636231.910,-72.266,54.688,37.598,-67.871,89.355,0
1553636231.914,-67.871,48.828,79.102,-61.523,50.293,0
1553636231.917,-49.316,46.387,60.547,-37.109,75.684,0
1553636231.921,-36.133,28.809,45.410,-19.043,78.125,0
1553636231.925,-50.293,30.273,45.410,-38.574,63.965,0
1553636231.929,-52.246,72.754,41.992,-31.250,46.875,0
1553636231.933,-33.691,77.637,27.344,-2.930,70.801,0
1553636231.937,-28.320,59.570,23.438,4.395,37.598,0
1553636231.941,-19.531,52.734,28.320,1.953,-25.391,0
1553636231.945,0.000,53.223,27.832,14.648,-39.062,0
1553636231.949,17.578,48.340,19.531,23.438,14.648,0
1553636231.953,25.879,43.945,22.461,19.043,55.176,0
1553636231.956,36.133,41.016,14.648,40.527,37.598,0
1553636231.960,37.109,39.551,-4.395,57.129,16.602,0
1553636231.964,42.969,38.086,21.973,45.898,37.598,0
1553636231.968,42.969,33.203,35.156,52.734,21.484,0
1553636231.972,44.434,35.156,27.832,57.129,95.215,0
1553636231.976,47.852,39.062,27.832,54.199,111.816,0
1553636231.980,53.223,37.109,24.902,58.105,52.734,0
1553636231.984,69.336,36.621,20.508,65.430,84.961,0
1553636231.988,65.918,38.574,21.973,74.707,83.008,0
1553636231.992,56.152,29.785,23.438,77.148,43.457,0
1553636231.996,67.383,26.367,22.949,62.500,79.590,0
1553636231.999,58.105,38.086,24.414,65.430,67.871,0
1553636232.003,18.555,40.527,23.926,75.195,4.883,0
1553636232.007,14.160,41.504,25.879,56.641,11.719,0
1553636232.011,16.602,42.480,27.832,45.898,61.035,0
1553636232.015,15.625,41.504,32.227,42.969,83.008,0
1553636232.019,22.949,39.062,36.133,49.805,3.418,0
1553636232.023,12.695,40.039,37.109,46.875,13.184,0
1553636232.027,10.742,52.246,40.039,21.973,48.828,0
1553636232.031,3.906,51.758,45.898,11.230,-15.137,0
1553636232.035,-11.230,46.387,46.387,10.254,-9.277,0
1553636232.039,-24.902,48.340,48.828,13.184,35.645,0
1553636232.042,-64.453,49.316,56.641,-18.555,82.031,0
1553636232.046,-80.078,57.129,56.152,-50.781,119.141,0
1553636232.050,-86.914,62.012,53.711,-60.059,49.316,0
1553636232.054,-115.723,63.965,57.129,-94.238,23.926,0
1553636232.058,-112.793,64.941,53.223,-92.773,54.199,0
1553636232.062,-121.582,66.406,41.016,-88.379,20.020,0
1553636232.066,-135.742,65.918,48.828,-88.867,-6.836,0
1553636232.070,-94.727,64.941,34.668,-46.875,35.645,0
1553636232.074,-93.262,67.871,30.273,-70.312,54.199,0
1553636232.078,-104.492,62.988,62.012,-85.938,53.223,0
1553636232.081,-70.312,58.105,56.641,-58.594,63.965,0
1553636232.085,-58.105,53.711,40.527,-42.480,19.043,0
1553636232.089,-54.688,43.945,47.852,-44.434,62.500,0
1553636232.093,-33.691,33.691,56.152,-33.691,111.328,0
1553636232.097,-28.809,36.621,27.344,-18.066,56.152,0
1553636232.101,-29.297,34.180,-3.418,-17.578,68.359,0
1553636232.105,-10.254,30.762,28.809,11.719,104.980,0
1553636232.109,-6.836,35.645,44.434,6.836,77.637,0
1553636232.113,16.602,31.250,25.391,-1.465,52.734,0
1553636232.117,14.160,28.320,19.043,37.109,11.230,0
1553636232.121,7.324,32.227,18.555,35.156,7.324,0
1553636232.124,32.715,32.715,19.531,18.555,28.809,0
1553636232.128,32.227,29.297,13.672,21.973,34.668,0
1553636232.132,44.922,29.785,1.465,38.086,25.391,0
1553636232.136,53.223,32.227,4.883,52.246,10.254,0
1553636232.140,42.480,28.809,12.207,59.570,70.312,0
1553636232.144,45.898,23.926,11.230,47.852,65.430,0
1553636232.148,48.828,24.902,14.160,40.039,75.195,0
1553636232.152,56.641,26.367,20.508,57.617,80.078,0
1553636232.156,65.918,27.832,21.973,58.594,8.301,0
1553636232.160,61.523,30.273,23.926,58.105,33.203,0
1553636232.164,63.965,32.227,10.742,80.566,64.453,0
1553636232.167,82.520,30.762,9.766,86.426,56.152,0
1553636232.171,63.965,24.902,33.691,53.223,61.035,0
1553636232.175,44.434,26.855,37.598,45.898,22.461,0
1553636232.179,54.688,25.391,27.832,64.453,54.688,0
1553636232.183,53.711,21.484,21.973,59.082,104.492,0
1553636232.187,57.129,22.949,32.227,60.059,64.941,0
1553636232.191,57.129,23.926,33.203,65.918,51.270,0
1553636232.195,60.059,24.902,26.855,73.242,9.766,0
1553636232.199,71.777,26.367,28.809,76.172,0.000,0
1553636232.203,88.867,25.879,30.762,69.336,69.824,0
1553636232.206,83.984,25.391,35.156,71.777,46.875,0
1553636232.210,73.730,28.809,37.109,77.637,67.871,0
1553636232.214,59.570,35.156,35.645,73.242,43.945,0
1553636232.218,48.828,34.668,34.180,70.312,46.387,0
1553636232.222,52.734,28.320,33.691,81.543,82.031,0
1553636232.226,38.086,29.785,37.598,71.289,89.844,0
1553636232.230,36.133,30.273,38.574,56.641,39.062,0
1553636232.234,50.781,30.762,38.086,65.430,41.016,0
1553636232.238,46.875,39.062,32.715,88.379,61.523,0
1553636232.242,44.922,40.527,35.645,84.473,35.156,0
1553636232.246,53.711,36.621,45.410,48.828,29.297,0
1553636232.249,49.805,35.645,45.898,49.805,48.340,0
1553636232.253,50.781,34.668,40.039,63.477,80.566,0
1553636232.257,76.172,35.645,34.180,70.801,40.039,0
1553636232.261,69.336,38.574,36.133,78.125,12.695,0
1553636232.265,48.340,34.668,41.504,81.543,9.766,0
1553636232.269,47.852,37.109,40.039,55.176,-14.160,0
1553636232.273,43.457,37.109,40.039,46.875,50.293,0
1553636232.277,64.941,35.645,41.016,69.824,102.539,0
1553636232.281,77.148,34.180,36.133,67.871,79.590,0
1553636232.285,55.664,33.203,35.156,74.707,63.965,0
1553636232.289,59.082,32.715,37.109,93.750,30.273,0
1553636232.292,109.375,32.715,38.574,105.469,44.434,0
1553636232.296,113.281,34.180,39.551,97.168,120.117,0
1553636232.300,93.750,40.039,33.203,82.520,80.078,0
1553636232.304,94.727,39.062,35.645,84.961,41.504,0
1553636232.308,80.566,35.156,42.969,111.816,34.668,0
1553636232.312,83.496,38.574,41.992,128.418,-0.977,0
1553636232.316,71.289,40.039,34.668,89.355,-0.977,0
1553636232.320,74.219,34.180,36.621,86.426,1.953,0
1553636232.324,80.566,32.227,44.922,111.816,24.414,0
1553636232.328,82.031,34.180,40.527,86.914,90.820,0
1553636232.331,85.938,31.738,35.645,92.285,63.965,0
1553636232.335,66.406,31.250,33.691,107.422,18.555,0
1553636232.339,71.777,29.297,35.645,93.750,16.113,0
1553636232.343,75.195,31.738,36.133,85.938,12.695,0
1553636232.347,67.383,36.621,27.344,76.172,53.711,0
1553636232.351,60.547,34.180,23.438,89.355,30.273,0
1553636232.355,53.711,35.645,21.973,103.027,-2.441,0
1553636232.359,59.570,39.551,26.855,80.078,43.945,0
1553636232.363,68.848,36.621,30.762,65.430,107.422,0
1553636232.367,66.895,36.621,24.902,72.754,84.473,0
1553636232.371,48.340,43.457,18.066,80.078,74.219,0
1553636232.374,60.059,42.969,23.926,75.684,92.285,0
1553636232.378,67.871,39.551,22.461,60.059,55.176,0
1553636232.382,46.387,36.621,22.461,52.246,45.898,0
1553636232.386,55.176,35.645,21.484,61.035,3.418,0
1553636232.390,36.621,34.668,13.672,49.316,24.414,0
1553636232.394,22.461,31.738,15.625,54.688,67.871,0
1553636232.398,51.758,30.273,20.508,68.848,34.668,0
1553636232.402,58.105,32.227,26.367,58.105,39.062,0
1553636232.406,34.180,39.062,24.902,62.988,23.438,0
1553636232.410,55.664,40.039,20.996,80.566,26.367,0
1553636232.414,68.359,38.086,20.996,91.309,80.566,0
1553636232.417,38.086,39.062,21.484,90.820,80.566,0
1553636232.421,30.762,39.062,26.367,49.805,69.336,0
1553636232.425,24.414,39.551,21.973,53.223,64.941,0
1553636232.429,19.531,41.992,19.531,63.965,105.469,0
1553636232.433,28.320,40.527,30.273,46.875,105.469,0
1553636232.437,28.809,39.062,28.809,57.617,68.848,0
1553636232.441,30.273,41.016,27.344,57.129,109.863,0
1553636232.445,32.715,34.180,24.902,64.453,56.152,0
1553636232.449,28.809,36.621,20.508,60.547,20.020,0
1553636232.453,37.109,50.781,18.555,49.805,56.152,0
1553636232.456,43.457,48.340,19.531,45.410,16.602,0
1553636232.460,33.691,41.016,23.926,41.992,32.715,0
1553636232.464,34.180,41.016,21.973,38.574,76.172,0
1553636232.468,40.039,41.016,24.902,35.156,72.266,0
1553636232.472,27.832,41.504,24.902,39.062,56.641,0
1553636232.476,23.926,42.480,20.020,52.246,20.996,0
1553636232.480,27.344,41.016,23.926,42.969,46.875,0
1553636232.484,26.367,41.016,34.180,31.250,71.777,0
1553636232.488,40.039,39.551,32.715,44.922,79.590,0
1553636232.492,27.832,36.621,20.996,52.734,81.055,0
1553636232.496,10.254,36.621,25.391,48.340,25.879,0
1553636232.499,30.273,39.062,27.344,38.086,51.270,0
1553636232.503,36.133,40.039,27.832,13.672,102.539,0
1553636232.507,16.113,40.527,25.879,17.090,68.359,0
1553636232.511,18.555,40.039,19.043,23.438,30.762,0
1553636232.515,27.344,38.086,21.973,25.879,0.488,0
1553636232.519,17.578,39.551,23.438,27.832,50.781,0
1553636232.523,18.066,37.109,19.531,21.973,119.141,0
1553636232.527,21.484,38.086,8.789,42.969,66.895,0
1553636232.531,12.695,37.109,17.090,33.203,19.043,0
1553636232.535,5.859,32.715,27.832,8.789,42.480,0
1553636232.539,24.902,37.598,21.973,27.832,71.289,0
1553636232.542,23.926,43.457,15.137,41.992,66.406,0
1553636232.546,4.395,41.504,12.695,28.809,44.922,0
1553636232.550,25.391,41.016,15.625,30.762,32.227,0
1553636232.554,35.156,42.969,14.160,36.133,21.484,0
1553636232.558,33.203,48.828,12.695,37.109,32.227,0
1553636232.562,32.715,45.410,17.090,39.551,104.004,0
1553636232.566,26.367,41.016,14.160,45.898,71.777,0
1553636232.570,19.043,45.410,7.812,46.387,77.637,0
1553636232.574,30.273,46.387,10.254,41.016,89.355,0
1553636232.578,25.879,43.945,14.160,41.016,54.199,0
1553636232.581,15.137,44.434,14.160,39.551,55.176,0
1553636232.585,26.367,43.457,11.719,28.320,74.707,0
1553636232.589,34.668,44.922,8.789,38.574,100.098,0
1553636232.593,45.410,47.363,13.672,62.012,113.281,0
1553636232.597,39.062,43.945,21.973,46.875,95.703,0
1553636232.601,16.602,42.969,17.578,20.996,113.281,0
1553636232.605,-8.789,41.016,16.113,24.414,71.289,0
1553636232.609,-13.672,40.039,12.695,15.137,23.926,0
1553636232.613,7.324,41.016,6.836,20.020,44.434,0
1553636232.617,8.789,40.039,2.441,22.949,59.570,0
1553636232.621,-8.789,38.086,9.766,2.441,55.176,0
1553636232.624,0.977,34.668,9.766,7.324,72.754,0
1553636232.628,-6.348,34.668,13.672,5.371,87.402,0
1553636232.632,-11.230,38.086,12.695,-6.348,88.867,0
1553636232.636,6.348,38.086,0.000,8.301,84.473,0
1553636232.640,10.742,35.645,5.371,21.973,43.945,0
1553636232.644,5.371,36.621,7.812,16.602,50.781,0
1553636232.648,1.953,38.574,8.301,20.996,60.547,0
1553636232.652,0.000,39.062,8.789,23.438,-1.465,0
1553636232.656,5.371,39.062,5.371,16.113,4.395,0
1553636232.660,4.883,40.039,0.000,26.855,55.664,0
1553636232.664,3.418,39.062,-0.977,29.785,12.695,0
1553636232.667,24.414,41.504,-2.930,19.531,52.734,0
1553636232.671,15.137,42.969,-3.418,32.227,38.086,0
1553636232.675,3.906,41.504,1.953,52.734,-27.832,0
1553636232.679,22.949,38.574,2.441,39.551,24.414,0
1553636232.683,17.578,36.621,4.883,35.156,35.156,0
1553636232.687,15.137,35.156,9.766,37.109,55.664,0
1553636232.691,15.137,34.180,9.277,35.156,58.594,0
1553636232.695,16.602,33.691,8.789,38.086,9.766,0
1553636232.699,22.949,33.203,6.348,36.133,12.207,0
1553636232.703,20.508,37.109,3.418,35.156,56.641,0
1553636232.706,5.371,40.527,4.395,33.203,84.473,0
1553636232.710,0.000,41.016,7.324,37.598,22.461,0
1553636232.714,-9.766,41.992,6.836,43.945,30.762,0
1553636232.718,-3.418,41.016,4.395,42.969,97.168,0
1553636232.722,5.859,41.016,2.930,47.363,67.383,0
1553636232.726,6.836,39.551,10.254,63.965,24.902,0
1553636232.730,9.766,37.109,8.789,58.105,5.859,0
1553636232.734,30.762,41.016,8.301,42.480,4.883,0
1553636232.738,17.578,43.457,18.066,57.129,23.926,0
1553636232.742,5.371,43.945,13.672,53.711,42.969,0
1553636232.746,32.227,45.410,11.719,52.246,74.707,0
1553636232.749,18.555,40.527,18.555,50.293,82.031,0
1553636232.753,6.836,43.945,25.391,40.039,83.008,0
1553636232.757,18.066,41.992,16.113,51.270,86.914,0
1553636232.761,30.273,31.250,3.906,55.176,116.211,0
1553636232.765,22.949,35.645,1.465,52.246,57.617,0
1553636232.769,18.555,48.340,-13.672,67.871,-14.648,0
1553636232.773,23.438,55.176,4.395,47.852,29.785,0
1553636232.777,32.227,55.176,24.902,28.320,58.105,0
1553636232.781,28.809,48.828,17.578,42.969,70.312,0
1553636232.785,14.160,41.992,14.648,47.852,34.668,0
1553636232.789,21.484,44.922,-3.906,45.898,26.367,0
1553636232.792,30.762,45.898,-8.301,54.199,28.320,0
1553636232.796,21.973,45.410,21.973,62.012,40.527,0
1553636232.800,31.738,50.781,27.344,52.246,62.500,0
1553636232.804,30.762,48.828,16.602,38.574,105.469,0
1553636232.808,32.715,44.434,14.648,30.762,138.672,0
1553636232.812,46.387,45.898,14.160,43.457,83.984,0
1553636232.816,34.668,44.922,8.301,44.922,54.688,0
1553636232.820,14.160,47.363,2.441,33.203,57.617,0
1553636232.824,6.836,48.828,4.395,36.621,86.914,0
1553636232.828,17.090,43.457,6.348,35.645,90.332,0
1553636232.831,19.043,41.504,7.812,41.992,86.426,0
1553636232.835,13.184,42.480,7.812,46.875,64.453,0
1553636232.839,24.414,43.945,2.441,40.527,69.336,0
1553636232.843,45.410,43.457,1.465,48.828,92.285,0
1553636232.847,32.227,45.898,2.441,41.504,99.121,0
1553636232.851,19.043,45.410,2.441,38.574,116.211,0
1553636232.855,25.391,45.898,2.930,40.039,49.805,0
1553636232.859,20.020,44.434,6.348,34.180,35.156,0
1553636232.863,29.785,43.945,11.230,44.434,53.223,0
1553636232.867,37.598,52.734,9.277,21.973,42.969,0
1553636232.871,12.207,49.805,10.254,18.066,17.578,0
1553636232.874,0.488,50.781,12.695,35.645,37.598,0
1553636232.878,0.977,52.246,11.230,27.832,33.203,0
1553636232.882,0.488,45.410,17.578,22.949,37.598,0
1553636232.886,-1.953,49.316,20.508,18.066,92.285,0
1553636232.890,-5.371,51.758,22.949,15.137,74.219,0
1553636232.894,-11.719,49.316,26.367,6.348,82.520,0
1553636232.898,-9.277,51.270,29.297,-7.324,145.996,0
1553636232.902,-8.789,53.223,33.203,2.441,112.793,0
1553636232.906,-15.625,52.734,36.621,11.230,20.996,0
1553636232.910,-22.461,56.641,36.621,7.324,46.875,0
1553636232.914,-32.227,54.688,41.992,-4.883,105.957,0
1553636232.917,-27.832,53.223,25.391,3.418,79.102,0
1553636232.921,-24.414,55.176,30.762,1.465,55.176,0
1553636232.925,-12.207,47.363,16.113,-1.465,44.434,0
1553636232.929,-6.836,41.504,4.395,0.977,79.102,0
1553636232.933,-2.441,31.250,71.289,-7.324,113.770,0
1553636232.937,6.836,27.344,67.871,-0.488,51.758,0
1553636232.941,-9.766,41.992,45.410,-0.488,23.926,0
1553636232.945,-6.836,42.969,40.527,2.930,81.543,0
1553636232.949,5.859,37.598,24.414,33.691,70.312,0
1553636232.953,6.836,39.062,25.879,36.621,73.730,0
1553636232.956,19.531,46.875,31.250,23.926,105.469,0
1553636232.960,20.508,44.922,27.832,30.762,76.172,0
1553636232.964,11.230,38.574,30.273,32.227,42.969,0
1553636232.968,23.438,43.945,26.367,41.992,75.195,0
1553636232.972,40.039,45.898,23.438,50.781,61.523,0
1553636232.976,24.902,42.969,21.484,36.621,86.426,0
1553636232.980,11.719,42.480,20.020,38.086,69.336,0
1553636232.984,37.598,40.039,22.949,66.895,36.621,0
1553636232.988,39.062,39.551,21.484,49.805,90.820,0
1553636232.992,20.020,40.527,20.020,37.109,80.078,0
1553636232.996,26.367,43.945,22.949,51.758,20.020,0
1553636232.999,29.785,45.898,24.414,41.992,20.020,0
1553636233.003,25.391,41.992,22.949,37.598,-2.930,0
1553636233.007,23.926,46.387,21.484,33.203,-47.363,0
1553636233.011,20.996,44.922,25.391,24.414,19.043,0
1553636233.015,13.672,39.551,23.438,17.090,69.824,0
1553636233.019,-8.789,44.434,21.973,5.371,71.289,0
1553636233.023,-13.184,50.781,31.738,5.371,35.645,0
1553636233.027,-7.324,51.270,39.551,6.348,78.613,0
1553636233.031,-13.184,47.852,38.574,5.371,151.367,0
1553636233.035,-20.508,55.176,38.086,-9.277,126.953,0
1553636233.039,-62.012,56.641,44.922,-41.016,106.445,0
1553636233.042,-92.285,51.758,55.176,-47.363,74.219,0
1553636233.046,-88.379,56.641,60.059,-45.898,66.895,0
1553636233.050,-124.023,56.641,63.477,-69.336,58.594,0
1553636233.054,-116.699,56.152,61.523,-84.961,44.434,0
1553636233.058,-94.238,53.711,60.059,-71.289,56.152,0
1553636233.062,-107.422,52.246,62.500,-71.777,41.016,0
1553636233.066,-83.496,47.852,62.988,-83.008,43.945,0
1553636233.070,-75.684,39.062,62.500,-68.848,79.590,0
1553636233.074,-86.426,41.992,43.457,-55.176,148.438,0
1553636233.078,-62.988,43.457,37.109,-60.547,89.355,0
1553636233.081,-44.434,32.715,48.340,-44.922,41.016,0
1553636233.085,-57.129,25.391,63.965,-29.785,83.496,0
1553636233.089,-57.617,27.832,51.758,-34.180,87.891,0
1553636233.093,-60.059,32.715,31.250,-49.316,73.242,0
1553636233.097,-51.270,31.250,44.434,-37.598,58.594,0
1553636233.101,-33.691,34.180,39.062,5.371,38.086,0
1553636233.105,-16.113,22.949,19.043,22.949,15.625,0
1553636233.109,0.488,19.043,20.020,18.555,70.312,0
1553636233.113,6.348,26.855,25.879,16.113,99.121,0
1553636233.117,0.977,24.414,23.926,24.414,46.387,0
1553636233.121,-1.465,29.297,26.367,26.367,-7.324,0
1553636233.124,14.160,29.297,19.043,26.367,34.180,0
1553636233.128,22.461,29.785,8.301,43.945,48.828,0
1553636233.132,20.020,27.344,8.301,45.410,45.410,0
1553636233.136,11.230,28.320,13.672,44.434,60.547,0
1553636233.140,20.996,32.227,10.742,31.250,69.336,0
1553636233.144,23.926,30.762,8.789,10.742,82.031,0
1553636233.148,10.254,30.273,7.324,20.020,79.102,0
1553636233.152,28.809,30.762,6.836,49.805,35.645,0
1553636233.156,39.551,30.762,4.883,63.477,-1.953,0
1553636233.160,34.180,33.691,0.000,43.945,-5.371,0
1553636233.164,20.996,35.645,0.488,41.504,22.461,0
1553636233.167,8.789,33.691,-0.488,52.734,93.262,0
1553636233.171,14.648,33.691,-2.441,29.785,115.723,0
1553636233.175,16.113,36.621,-7.324,14.648,116.699,0
1553636233.179,17.578,33.203,2.441,31.250,73.242,0
1553636233.183,23.926,35.645,7.812,47.363,83.984,0
1553636233.187,20.020,34.668,0.488,52.246,69.824,0
1553636233.191,26.367,29.297,-2.930,21.484,14.160,0
1553636233.195,37.598,33.203,-5.371,23.438,51.758,0
1553636233.199,20.508,33.691,-2.930,35.156,70.312,0
1553636233.203,2.930,35.156,-4.395,24.414,87.402,0
1553636233.206,6.836,35.645,-1.953,27.344,102.539,0
1553636233.210,13.672,35.645,2.930,44.434,90.820,0
1553636233.214,11.230,34.180,0.488,42.480,65.430,0
1553636233.218,10.254,32.715,1.465,17.578,-25.879,0
1553636233.222,4.883,35.156,3.906,10.254,-26.367,0
1553636233.226,9.277,40.039,3.418,27.832,29.785,0
1553636233.230,2.930,36.621,7.324,27.344,59.570,0
1553636233.234,-15.625,33.691,7.812,27.344,34.668,0
1553636233.238,-24.902,30.273,7.324,-5.859,-42.969,0
1553636233.242,-27.344,33.691,10.742,-26.367,82.031,0
1553636233.246,-26.367,39.551,10.254,-10.742,143.066,0
1553636233.249,-41.504,31.738,10.742,-7.812,53.223,0
1553636233.253,-44.922,29.297,0.000,7.324,32.715,0
1553636233.257,-32.227,35.156,-18.066,8.789,87.891,0
1553636233.261,-30.762,27.832,5.859,-12.207,58.594,0
1553636233.265,-22.461,29.785,27.344,1.465,34.668,0
1553636233.269,-10.254,37.109,20.020,22.949,57.617,0
1553636233.273,5.859,36.133,8.301,-9.766,85.938,0
1553636233.277,-4.395,30.762,12.695,-12.207,87.402,0
1553636233.281,-17.578,29.297,18.555,17.578,42.480,0
1553636233.285,-5.371,32.227,12.207,16.602,30.762,0
1553636233.289,-8.301,33.691,16.113,9.277,87.402,0
1553636233.292,17.578,27.832,18.555,15.625,13.672,0
1553636233.296,28.809,31.738,12.207,1.953,21.973,0
1553636233.300,3.906,41.016,7.812,2.441,80.078,0
1553636233.304,22.949,35.645,12.695,38.086,47.852,0
1553636233.308,43.945,35.645,14.648,58.594,29.297,0
1553636233.312,36.133,39.062,9.766,71.289,-2.441,0
1553636233.316,34.668,43.457,6.836,52.734,78.613,0
1553636233.320,43.457,41.992,10.742,56.641,84.961,0
1553636233.324,37.109,39.551,16.113,63.477,40.039,0
1553636233.328,32.715,38.086,20.508,49.805,72.266,0
1553636233.331,35.156,37.109,19.043,36.621,83.984,0
1553636233.335,30.273,35.645,18.066,58.105,66.895,0
1553636233.339,31.738,33.203,21.973,77.148,46.387,0
1553636233.343,34.180,33.691,24.414,44.434,-4.395,0
1553636233.347,24.902,36.621,20.996,47.363,-32.227,0
1553636233.351,22.949,42.480,20.996,49.805,11.230,0
1553636233.355,29.785,38.574,22.461,43.945,41.504,0
1553636233.359,36.133,37.109,23.926,56.641,13.672,0
1553636233.363,27.832,36.133,28.320,62.500,8.301,0
1553636233.367,17.578,33.203,31.738,75.684,27.344,0
1553636233.371,25.879,37.109,34.180,47.363,71.777,0
1553636233.374,39.551,41.016,31.738,35.156,58.594,0
1553636233.378,50.293,40.039,32.715,72.754,43.457,0
1553636233.382,29.297,42.480,27.344,73.242,49.805,0
1553636233.386,24.902,46.387,9.766,34.180,65.430,0
1553636233.390,19.043,42.969,16.602,15.625,33.203,0
1553636233.394,12.207,40.527,36.621,25.391,-3.906,0
1553636233.398,8.301,41.016,35.156,27.832,6.348,0
1553636233.402,18.555,34.668,34.668,28.809,42.969,0
1553636233.406,21.484,33.691,32.227,30.273,90.820,0
1553636233.410,6.836,36.133,25.391,43.945,102.539,0
1553636233.414,15.625,37.598,30.762,47.363,109.863,0
1553636233.417,10.742,41.504,32.227,37.598,54.199,0
1553636233.421,29.297,38.086,35.156,48.828,33.691,0
1553636233.425,23.438,41.016,34.668,35.156,63.477,0
1553636233.429,27.344,38.086,26.855,47.852,72.754,0
1553636233.433,39.062,32.715,31.738,67.871,53.711,0
1553636233.437,36.133,35.156,33.691,53.223,51.758,0
1553636233.441,38.574,41.504,27.344,71.777,56.641,0
1553636233.445,16.113,38.086,29.297,56.641,98.145,0
1553636233.449,19.043,31.250,35.156,18.066,105.957,0
1553636233.453,31.250,41.016,31.250,47.363,73.730,0
1553636233.456,19.531,45.898,20.996,63.965,79.102,0
1553636233.460,38.086,39.551,21.484,48.340,92.285,0
1553636233.464,45.898,44.434,25.879,38.086,92.285,0
1553636233.468,30.273,40.527,29.297,45.898,82.520,0
1553636233.472,14.160,19.043,31.738,31.738,88.867,0
1553636233.476,31.738,29.785,22.461,32.227,95.215,0
1553636233.480,31.250,41.504,18.555,30.273,70.801,0
1553636233.484,21.484,35.156,18.066,41.504,46.875,0
1553636233.488,18.066,38.086,19.043,44.922,35.156,0
1553636233.492,49.805,43.457,7.324,11.230,23.926,0
1553636233.496,83.984,47.852,14.648,72.754,41.992,0
1553636233.499,52.734,40.527,39.551,95.215,91.797,0
1553636233.503,38.574,33.691,38.086,52.246,122.559,0
1553636233.507,29.785,34.180,27.832,33.203,62.012,0
1553636233.511,25.391,39.062,22.949,27.832,9.277,0
1553636233.515,8.789,42.969,27.344,4.395,17.578,0
1553636233.519,-10.742,39.551,29.785,3.418,32.715,0
1553636233.523,-8.301,36.133,18.066,14.160,52.734,0
1553636233.527,11.230,40.039,25.391,-8.789,48.340,0
1553636233.531,32.227,37.598,35.156,-8.789,69.824,0
1553636233.535,0.488,37.109,32.227,14.160,69.824,0
1553636233.539,20.508,37.598,25.879,45.410,67.383,0
1553636233.542,9.277,27.344,35.645,26.367,40.039,0
1553636233.546,-26.367,48.340,30.273,-29.297,46.387,0
1553636233.550,16.602,51.758,17.578,17.090,61.523,0
1553636233.554,15.137,47.363,24.414,50.781,66.406,0
1553636233.558,6.836,29.785,34.180,25.879,61.035,0
1553636233.562,-7.812,20.020,15.137,6.836,-0.977,0
1553636233.566,-29.785,35.645,15.625,-37.109,13.672,0
1553636233.570,-1.953,25.391,36.621,-8.301,52.734,0
1553636233.574,17.090,32.715,43.945,40.527,46.387,0
1553636233.578,55.664,30.273,42.480,48.340,76.660,0
1553636233.581,73.242,34.180,23.438,104.980,43.457,0
1553636233.585,-68.359,27.832,32.227,-111.328,65.918,0
1553636233.589,-181.152,64.453,17.578,-202.148,77.637,0
1553636233.593,-31.738,32.715,51.270,32.227,14.160,0
1553636233.597,32.227,-12.207,56.152,60.547,16.602,0
1553636233.601,-70.312,64.941,13.672,-6.836,41.016,0
1553636233.605,-102.539,58.594,43.945,-73.242,35.645,0
1553636233.609,-120.605,18.555,41.992,-43.945,16.602,0
1553636233.613,-37.109,9.277,37.109,-81.543,38.086,0
1553636233.617,97.656,8.789,1.465,-0.977,58.594,0
1553636233.621,24.902,50.293,-10.254,89.844,75.195,0
1553636233.624,-51.270,32.715,18.555,72.266,44.434,0
1553636233.628,44.922,23.926,15.625,100.098,37.598,0
1553636233.632,113.770,38.086,17.090,100.586,38.086,0
1553636233.636,61.035,26.855,41.504,72.754,15.137,0
1553636233.640,31.250,41.016,27.344,66.406,-38.574,0
1553636233.644,79.590,41.016,-21.484,49.316,-50.293,0
1553636233.648,30.273,41.992,32.715,10.254,103.027,0
1553636233.652,-48.828,41.992,35.156,31.738,143.555,0
1553636233.656,83.496,21.973,-7.324,174.805,26.855,0
1553636233.660,149.902,20.020,11.719,236.328,-22.949,0
1553636233.664,103.027,25.391,10.254,206.055,45.898,0
1553636233.667,32.715,41.504,24.902,124.512,37.598,0
1553636233.671,-38.086,45.410,6.348,-28.320,20.996,0
1553636233.675,-10.742,14.160,12.207,26.367,44.922,0
1553636233.679,-45.410,39.062,25.879,63.965,-2.441,0
1553636233.683,-22.461,41.992,19.043,29.785,1.465,0
1553636233.687,16.113,11.230,20.508,9.766,58.105,0
1553636233.691,20.020,42.480,-21.973,44.434,39.551,0
1553636233.695,19.043,52.246,-54.688,68.848,9.277,0
1553636233.699,-19.531,28.809,-11.719,52.246,77.148,0
1553636233.703,47.852,44.922,-20.996,23.438,88.379,0
1553636233.706,11.230,38.086,-28.809,41.992,71.289,0
1553636233.710,-1.465,21.484,-1.465,86.426,22.461,0
1553636233.714,88.379,36.133,-7.812,133.789,-28.320,0
1553636233.718,47.852,57.129,-14.160,124.023,11.719,0
1553636233.722,39.551,56.152,-18.066,30.273,30.762,0
1553636233.726,50.293,22.949,-19.531,37.598,-9.277,0
1553636233.730,41.504,12.207,-22.461,12.207,38.574,0
1553636233.734,29.297,20.508,-18.555,47.363,56.641,0
1553636233.738,37.109,12.695,-18.066,109.863,5.859,0
1553636233.742,36.133,18.066,-4.395,51.270,15.137,0
1553636233.746,41.016,24.414,-7.324,73.242,32.715,0
1553636233.749,50.293,31.250,0.000,38.574,-23.438,0
1553636233.753,9.277,30.762,-1.953,-35.156,-9.766,0
1553636233.757,15.137,29.297,-14.648,32.227,4.883,0
1553636233.761,27.832,29.785,-18.555,25.879,-54.199,0
1553636233.765,29.785,44.922,-12.207,30.273,25.391,0
1553636233.769,30.762,35.156,-2.441,77.637,78.613,0
1553636233.773,20.508,19.531,1.953,146.484,-20.508,0
1553636233.777,13.672,32.227,-11.230,115.234,12.207,0
1553636233.781,39.551,42.969,-15.137,59.570,60.059,0
1553636233.785,34.180,26.367,5.859,81.543,49.805,0
1553636233.789,13.672,33.203,-11.719,41.992,28.809,0
1553636233.792,43.457,45.898,-3.906,42.480,2.441,0
1553636233.796,40.527,25.879,13.672,47.852,56.152,0
1553636233.800,38.086,32.227,2.930,51.270,52.734,0
1553636233.804,15.625,42.480,2.441,77.148,20.020,0
1553636233.808,31.250,30.273,0.977,115.723,69.824,0
1553636233.812,52.734,29.297,-11.719,130.371,80.078,0
1553636233.816,-8.789,17.578,29.785,-5.859,65.430,0
1553636233.820,1.465,10.254,21.973,6.836,58.594,0
1553636233.824,45.898,17.578,-5.859,142.090,59.082,0
1553636233.828,11.719,18.066,-3.418,46.387,98.145,0
1553636233.831,27.344,28.809,-7.812,-17.090,69.824,0
1553636233.835,63.965,21.484,3.418,90.820,39.551,0
1553636233.839,53.711,36.621,-14.648,80.566,50.293,0
1553636233.843,15.625,32.227,9.277,35.156,61.523,0
1553636233.847,41.016,38.086,16.113,94.238,0.977,0
1553636233.851,89.844,50.293,1.465,137.695,12.207,0
1553636233.855,31.738,35.156,0.488,52.734,62.500,0
1553636233.859,20.508,21.973,14.648,18.555,31.738,0
1553636233.863,50.293,32.715,27.832,12.695,32.227,0
1553636233.867,57.617,48.340,1.953,63.477,54.688,0
1553636233.871,73.730,34.668,8.789,122.559,75.684,0
1553636233.874,47.852,32.227,11.230,45.898,66.406,0
1553636233.878,72.754,26.855,4.883,1.465,127.930,0
1553636233.882,42.969,26.855,4.395,108.887,161.621,0
1553636233.886,18.066,30.762,0.000,101.562,81.543,0
1553636233.890,25.391,34.668,3.418,34.668,18.555,0
1553636233.894,33.203,33.203,6.348,99.609,38.574,0
1553636233.898,61.523,28.320,5.371,90.820,69.336,0
1553636233.902,38.086,30.273,2.441,69.824,34.668,0
1553636233.906,-12.695,36.133,11.230,104.004,27.832,0
1553636233.910,-25.391,31.738,25.391,101.562,47.363,0
1553636233.914,11.230,36.133,13.672,10.254,41.504,0
1553636233.917,17.578,40.527,-18.066,19.043,42.969,0
1553636233.921,20.508,13.672,5.859,113.770,95.215,0
1553636233.925,69.336,31.738,2.930,45.410,52.246,0
1553636233.929,95.215,33.203,-11.230,-14.648,16.602,0
1553636233.933,14.160,17.090,29.297,54.688,87.402,0
1553636233.937,4.395,22.949,31.738,72.266,59.082,0
1553636233.941,49.805,20.996,4.395,65.918,31.738,0
1553636233.945,27.832,1.465,17.090,50.293,77.148,0
1553636233.949,0.977,11.719,30.273,73.730,93.750,0
1553636233.953,32.227,21.973,21.484,44.922,14.160,0
1553636233.956,63.477,30.273,15.137,-22.461,17.578,0
1553636233.960,60.547,35.645,7.812,60.547,64.453,0
1553636233.964,63.477,32.227,21.484,134.277,57.129,0
1553636233.968,35.156,23.438,34.180,73.730,54.688,0
1553636233.972,27.832,27.344,22.949,12.695,40.527,0
1553636233.976,-20.508,23.926,22.949,44.922,81.055,0
1553636233.980,-17.090,27.344,23.926,114.258,89.844,0
1553636233.984,42.480,41.016,27.832,98.633,48.828,0
1553636233.988,14.648,26.367,32.715,62.500,82.520,0
1553636233.992,24.902,5.859,18.066,104.492,97.168,0
1553636233.996,48.340,24.902,12.695,59.082,25.391,0
1553636233.999,34.668,41.992,21.973,-0.488,71.289,0
1553636234.003,24.902,18.555,34.180,3.418,121.094,0
1553636234.007,59.570,23.438,8.301,21.973,65.918,0
1553636234.011,65.430,22.461,23.438,66.406,37.598,0
1553636234.015,32.715,20.508,33.691,57.129,13.672,0
1553636234.019,2.930,27.344,1.465,-5.859,40.527,0
1553636234.023,46.875,22.461,37.109,60.547,114.258,0
1553636234.027,42.969,28.809,42.969,66.406,80.566,0
1553636234.031,40.527,30.762,32.227,41.992,92.285,0
1553636234.035,79.102,24.414,56.152,54.199,117.676,0
1553636234.039,53.711,30.762,41.016,17.578,132.324,0
1553636234.042,50.781,23.438,45.410,83.008,138.672,0
1553636234.046,61.035,19.531,54.199,43.457,104.004,0
1553636234.050,-4.883,21.484,40.039,-5.371,119.141,0
1553636234.054,-37.598,14.648,48.340,85.449,139.648,0
1553636234.058,5.859,19.531,62.012,136.230,150.391,0
1553636234.062,-2.930,23.438,67.383,129.395,163.574,0
1553636234.066,6.836,28.809,64.453,87.402,146.973,0
1553636234.070,62.012,24.902,52.246,106.445,178.711,0
1553636234.074,27.832,21.973,66.406,96.191,239.258,0
1553636234.078,-6.836,23.926,57.129,52.734,249.512,0
1553636234.081,57.617,13.184,61.035,53.711,230.957,0
1553636234.085,47.363,7.812,66.406,36.133,246.094,0
1553636234.089,33.691,20.996,49.316,84.961,262.207,0
1553636234.093,68.359,20.508,64.941,105.957,278.320,0
1553636234.097,83.984,-2.930,69.336,134.766,271.973,0
1553636234.101,74.707,2.930,63.477,99.609,249.023,0
1553636234.105,39.062,13.672,61.035,30.273,287.598,0
1553636234.109,59.570,16.602,49.316,95.215,292.480,0
1553636234.113,34.668,10.254,57.617,163.086,262.207,0
1553636234.117,-29.297,4.395,68.359,109.375,222.656,0
1553636234.121,-21.484,13.672,47.852,71.777,209.961,0
1553636234.124,6.836,17.090,51.270,109.375,216.797,0
1553636234.128,33.691,11.230,62.012,95.703,184.082,0
1553636234.132,52.734,9.277,56.152,101.074,158.691,0
1553636234.136,55.176,12.207,47.363,147.949,133.789,0
1553636234.140,36.621,32.227,63.477,123.047,119.629,0
1553636234.144,6.836,33.203,64.941,31.250,120.605,0
1553636234.148,49.805,17.090,55.176,67.383,107.910,0
1553636234.152,80.078,16.113,74.707,159.180,65.430,0
1553636234.156,62.988,9.277,66.895,104.492,55.664,0
1553636234.160,35.645,11.719,53.223,69.336,37.109,0
1553636234.164,30.762,40.527,37.109,92.285,-10.742,0
1553636234.167,43.945,32.227,56.641,107.910,16.113,0
1553636234.171,55.176,14.160,74.707,90.820,-2.930,0
1553636234.175,27.344,19.531,46.387,47.852,-39.062,0
1553636234.179,12.207,6.348,37.109,59.570,-81.543,0
1553636234.183,33.691,20.508,39.062,88.867,-114.746,0
1553636234.187,37.109,21.484,31.250,49.805,-93.750,0
1553636234.191,39.551,23.438,7.324,79.590,-111.328,0
1553636234.195,19.531,36.133,14.160,83.008,-123.047,0
1553636234.199,22.949,27.832,19.043,62.500,-76.660,0
1553636234.203,16.602,19.531,30.273,35.156,-80.566,0
1553636234.206,37.109,34.668,29.297,48.828,-109.863,0
1553636234.210,30.273,30.273,25.879,101.562,-172.363,0
1553636234.214,23.926,20.996,26.367,85.449,-170.898,0
1553636234.218,42.480,27.832,14.648,56.152,-93.262,0
1553636234.222,38.086,17.578,0.488,22.461,-63.477,0
1553636234.226,30.273,11.230,15.137,44.922,-93.262,0
1553636234.230,32.227,20.508,49.805,66.895,-52.246,0
1553636234.234,10.742,31.738,46.387,29.785,-52.734,0
1553636234.238,-3.906,33.691,32.227,0.488,-63.477,0
1553636234.242,52.246,30.762,26.855,47.363,-6.836,0
1553636234.246,32.227,28.809,35.156,90.332,-20.020,0
1553636234.249,22.949,31.250,27.344,42.969,-16.602,0
1553636234.253,22.949,42.480,27.832,34.668,-6.836,0
1553636234.257,17.090,47.852,20.996,92.285,-26.367,0
1553636234.261,38.086,42.480,19.531,84.961,11.719,0
1553636234.265,43.457,23.926,29.785,50.781,93.750,0
1553636234.269,44.434,26.367,35.645,37.598,29.785,0
1553636234.273,6.348,31.250,33.203,29.785,28.320,0
1553636234.277,11.230,29.297,36.621,-8.789,109.375,0
1553636234.281,29.785,29.297,37.109,1.953,131.348,0
1553636234.285,41.016,24.414,34.180,86.426,145.020,0
1553636234.289,40.527,34.668,20.996,80.078,163.574,0
1553636234.292,23.438,34.668,19.043,42.969,191.895,0
1553636234.296,10.742,25.879,31.738,43.457,246.094,0
1553636234.300,6.836,21.484,37.109,64.453,289.551,0
1553636234.304,22.949,19.531,45.410,50.781,317.383,0
1553636234.308,26.367,26.367,34.668,22.949,351.074,0
1553636234.312,32.715,33.203,21.973,64.941,348.145,0
1553636234.316,61.523,40.039,16.113,98.633,374.512,0
1553636234.320,38.574,42.969,25.391,59.570,449.707,0
1553636234.324,-19.043,31.738,46.875,34.180,509.277,0
1553636234.328,-3.418,32.227,29.297,-6.348,519.531,0
1553636234.331,42.480,38.086,20.996,56.152,519.043,0
1553636234.335,41.504,39.551,24.902,61.523,551.270,0
1553636234.339,8.301,31.250,40.527,13.184,584.961,0
1553636234.343,11.719,24.902,30.273,100.098,566.895,0
1553636234.347,37.109,32.227,17.090,100.586,556.152,0
1553636234.351,39.062,45.410,22.461,4.883,538.086,0
1553636234.355,33.203,45.898,5.371,11.719,558.105,0
1553636234.359,24.414,27.344,34.668,66.406,621.094,0
1553636234.363,42.969,29.785,50.293,65.430,607.910,0
1553636234.367,21.973,33.203,31.738,54.688,564.941,0
1553636234.371,9.277,36.621,28.320,46.387,575.195,0
1553636234.374,28.320,54.199,35.156,61.523,568.359,0
1553636234.378,15.137,40.039,41.016,79.102,546.387,0
1553636234.382,29.297,19.531,40.527,64.941,531.738,0
1553636234.386,27.832,35.645,33.691,5.371,499.512,0
1553636234.390,-9.766,44.922,25.391,13.672,494.629,0
1553636234.394,25.879,31.250,32.715,64.941,433.594,0
1553636234.398,36.133,32.715,27.832,65.918,395.020,0
1553636234.402,2.930,30.762,30.762,33.691,403.809,0
1553636234.406,-0.488,19.043,29.297,19.531,362.305,0
1553636234.410,38.574,20.020,31.250,77.148,337.891,0
1553636234.414,38.574,20.996,52.734,68.359,303.711,0
1553636234.417,47.852,26.855,50.781,41.504,277.344,0
1553636234.421,37.109,35.156,45.410,75.684,255.859,0
1553636234.425,17.090,37.598,29.785,78.613,230.957,0
1553636234.429,30.273,26.367,26.367,63.965,192.383,0
1553636234.433,36.621,36.621,31.250,46.875,167.969,0
1553636234.437,46.387,38.086,25.391,0.000,169.922,0
1553636234.441,27.832,32.715,24.902,39.551,131.836,0
1553636234.445,-0.977,37.598,23.438,45.898,140.137,0
1553636234.449,30.273,31.250,16.602,42.480,123.047,0
1553636234.453,36.133,26.855,31.738,55.664,71.777,0
1553636234.456,23.926,31.250,23.926,36.133,96.680,0
1553636234.460,36.621,42.969,7.324,86.914,93.262,0
1553636234.464,37.109,35.156,3.418,70.312,66.895,0
1553636234.468,28.809,24.414,19.531,13.672,43.457,0
1553636234.472,45.898,27.832,18.066,-10.742,75.195,0
1553636234.476,50.293,33.691,1.465,23.926,90.332,0
1553636234.480,21.973,18.555,11.719,69.336,52.246,0
1553636234.484,31.738,24.902,6.836,31.738,62.012,0
1553636234.488,29.297,32.227,11.230,21.973,93.262,0
1553636234.492,12.207,20.020,26.367,38.574,119.141,0
1553636234.496,24.414,30.273,19.531,58.105,131.836,0
1553636234.499,20.508,37.598,7.324,46.387,136.719,0
1553636234.503,15.137,27.344,9.277,5.371,151.367,0
1553636234.507,19.043,28.809,9.766,9.766,164.062,0
1553636234.511,9.766,33.203,16.602,45.410,131.348,0
1553636234.515,7.812,23.438,20.020,36.133,145.996,0
1553636234.519,25.879,30.762,12.207,50.293,171.387,0
1553636234.523,15.625,29.785,15.625,42.480,153.320,0
1553636234.527,15.625,28.320,5.371,21.973,147.461,0
1553636234.531,27.832,37.109,3.418,22.949,141.113,0
1553636234.535,33.691,34.180,2.930,37.109,124.512,0
1553636234.539,26.367,25.391,10.742,63.965,122.070,0
1553636234.542,12.695,25.879,31.738,14.648,106.934,0
1553636234.546,33.691,30.273,34.668,11.719,98.145,0
1553636234.550,39.062,37.109,28.320,61.523,93.262,0
1553636234.554,26.367,35.156,24.414,70.801,101.074,0
1553636234.558,31.738,31.738,19.531,48.828,103.027,0
1553636234.562,7.812,37.109,13.184,35.645,84.961,0
1553636234.566,-6.836,35.645,10.742,37.109,63.965,0
1553636234.570,15.625,19.531,9.766,39.551,48.828,0
1553636234.574,15.625,13.672,7.324,62.012,60.059,0
1553636234.578,28.320,29.785,11.230,47.363,75.684,0
1553636234.581,35.156,40.039,25.879,56.152,74.707,0
1553636234.585,15.625,43.945,5.859,55.176,45.410,0
1553636234.589,3.418,36.133,-18.066,21.484,40.527,0
1553636234.593,-7.324,41.992,9.277,6.348,59.082,0
1553636234.597,16.113,46.387,27.344,20.020,36.133,0
1553636234.601,27.832,41.992,20.508,8.789,2.441,0
1553636234.605,9.277,44.922,21.484,-9.277,-8.789,0
1553636234.609,-0.977,44.922,18.555,24.902,2.930,0
1553636234.613,11.719,51.270,7.812,20.020,-5.859,0
1553636234.617,18.066,55.664,14.160,2.930,-38.086,0
1553636234.621,12.695,47.852,29.785,19.043,-37.598,0
1553636234.624,18.066,52.246,22.949,19.043,-41.504,0
1553636234.628,8.301,54.688,18.066,20.020,-71.777,0
1553636234.632,3.906,54.688,21.973,21.484,-109.863,0
1553636234.636,0.977,48.340,24.902,8.301,-123.535,0
1553636234.640,-6.836,42.969,20.508,-12.695,-108.887,0
1553636234.644,17.090,39.062,17.578,15.137,-116.211,0
1553636234.648,18.066,40.039,19.043,30.762,-120.117,0
1553636234.652,19.531,43.945,21.973,19.043,-127.441,0
1553636234.656,24.902,45.410,23.438,23.438,-132.324,0
1553636234.660,11.230,42.480,20.508,24.414,-147.461,0
1553636234.664,9.277,33.691,18.066,29.785,-180.176,0
1553636234.667,15.137,40.527,20.996,30.273,-181.641,0
1553636234.671,18.555,48.828,19.043,31.250,-158.691,0
1553636234.675,13.184,46.875,16.602,32.227,-159.668,0
1553636234.679,17.090,44.434,17.090,15.137,-175.293,0
1553636234.683,20.996,43.945,16.602,34.668,-181.152,0
1553636234.687,19.531,47.363,20.996,54.199,-204.590,0
1553636234.691,22.461,42.969,26.367,31.738,-208.008,0
1553636234.695,22.461,41.016,20.996,25.391,-188.477,0
1553636234.699,17.578,45.898,10.742,36.133,-170.410,0
1553636234.703,29.785,47.363,14.160,49.805,-175.293,0
1553636234.706,31.738,49.805,7.324,47.363,-192.383,0
1553636234.710,25.391,53.711,0.000,43.457,-179.688,0
1553636234.714,31.250,45.410,11.719,48.828,-198.242,0
1553636234.718,19.531,41.504,27.344,56.152,-222.656,0
1553636234.722,6.348,48.828,30.273,58.105,-224.609,0
1553636234.726,9.766,42.969,28.809,47.363,-218.750,0
1553636234.730,20.508,36.621,24.902,37.598,-206.055,0
1553636234.734,15.137,34.668,27.344,51.270,-223.145,0
1553636234.738,2.441,35.156,28.809,51.270,-246.094,0
1553636234.742,11.719,41.992,31.250,66.895,-234.375,0
1553636234.746,15.625,46.387,26.367,60.059,-210.449,0
1553636234.749,16.602,41.992,13.184,39.551,-212.402,0
1553636234.753,13.184,34.180,19.043,41.504,-212.891,0
1553636234.757,9.766,40.527,24.414,55.664,-197.266,0
1553636234.761,14.648,47.363,20.996,53.711,-176.758,0
1553636234.765,6.348,41.016,22.949,43.457,-167.969,0
1553636234.769,17.090,38.574,21.973,53.223,-156.250,0
1553636234.773,23.926,49.316,19.531,46.875,-122.559,0
1553636234.777,16.602,49.316,19.043,69.336,-109.375,0
1553636234.781,17.090,38.086,22.461,77.637,-165.039,0
1553636234.785,12.695,38.086,23.438,62.500,-166.504,0
1553636234.789,12.207,40.527,24.902,72.266,-129.395,0
1553636234.792,17.578,43.457,27.832,68.359,-133.789,0
1553636234.796,15.137,42.480,26.367,50.293,-155.762,0
1553636234.800,24.902,43.457,23.438,85.449,-145.020,0
1553636234.804,25.391,44.922,20.508,91.309,-130.371,0
1553636234.808,15.625,45.410,20.020,61.035,-123.535,0
1553636234.812,20.508,45.898,20.020,58.105,-90.332,0
1553636234.816,16.113,43.457,18.555,44.922,-98.145,0
1553636234.820,9.277,46.387,17.090,62.988,-80.566,0
1553636234.824,25.391,46.387,17.090,78.125,-60.059,0
1553636234.828,38.086,36.621,13.672,70.801,-98.633,0
1553636234.831,37.109,30.762,19.531,74.219,-95.215,0
1553636234.835,0.488,38.086,20.508,41.504,-78.613,0
1553636234.839,-14.648,40.527,16.113,30.273,-80.566,0
1553636234.843,-20.020,39.062,23.438,20.996,-62.988,0
1553636234.847,-53.711,36.621,23.926,1.465,-44.434,0
1553636234.851,-53.711,32.227,30.273,22.461,-54.199,0
1553636234.855,-55.664,34.180,32.227,-1.465,-62.988,0
1553636234.859,-73.730,35.645,30.762,-31.250,-53.223,0
1553636234.863,-87.891,38.086,34.668,-40.039,-72.754,0
1553636234.867,-79.102,32.227,41.016,-18.066,-90.820,0
1553636234.871,-71.289,25.391,46.875,-10.254,-128.906,0
1553636234.874,-80.566,29.785,45.410,-30.762,-120.117,0
1553636234.878,-83.984,31.738,46.875,-20.020,-101.074,0
1553636234.882,-80.078,31.250,48.828,-7.812,-135.742,0
1553636234.886,-66.406,37.109,29.785,-14.648,-79.102,0
1553636234.890,-78.613,41.016,44.434,-18.555,-44.434,0
1553636234.894,-80.566,27.832,37.109,-20.996,-71.777,0
1553636234.898,-59.082,19.043,4.883,-24.414,-67.871,0
1553636234.902,-59.570,31.250,34.668,-9.766,-51.270,0
1553636234.906,-52.734,32.715,50.293,-11.719,-42.969,0
1553636234.910,-48.340,33.691,46.387,-8.301,-55.176,0
1553636234.914,-38.086,37.109,39.062,13.672,-59.570,0
1553636234.917,-20.508,34.668,30.762,15.625,-73.242,0
1553636234.921,-26.855,24.414,31.250,17.578,-46.875,0
1553636234.925,-25.879,14.160,38.574,11.719,-57.617,0
1553636234.929,-29.785,20.020,42.480,17.578,-35.156,0
1553636234.933,-40.039,24.414,37.598,27.344,-12.207,0
1553636234.937,-15.625,25.391,31.738,26.367,-25.879,0
1553636234.941,-11.230,23.926,37.109,20.020,-31.738,0
1553636234.945,-1.953,26.367,35.645,34.668,-65.430,0
1553636234.949,-1.465,23.926,33.691,52.734,-72.754,0
1553636234.953,2.441,20.020,42.969,43.457,-39.551,0
1553636234.956,15.625,30.273,44.434,53.223,-56.641,0
1553636234.960,-9.277,31.738,45.410,49.805,-50.293,0
1553636234.964,-27.344,20.020,44.922,25.879,-29.785,0
1553636234.968,-8.789,30.273,33.691,19.043,-3.418,0
1553636234.972,4.395,39.062,47.852,16.602,-33.691,0
1553636234.976,-22.461,41.504,70.312,5.859,-96.680,0
1553636234.980,-47.363,38.086,68.359,1.953,-41.992,0
1553636234.984,-52.246,41.016,61.035,-11.230,-58.594,0
1553636234.988,-72.266,54.199,57.129,-41.016,-63.965,0
1553636234.992,-92.773,49.805,78.613,-62.988,-35.156,0
1553636234.996,-106.445,49.316,93.262,-67.383,-30.273,0
1553636234.999,-109.863,50.781,97.656,-80.566,-64.941,0
1553636235.003,-119.141,48.828,107.422,-89.355,-82.031,0
1553636235.007,-131.836,52.246,109.375,-85.938,-94.238,0
1553636235.011,-122.559,47.852,111.816,-105.957,-74.219,0
1553636235.015,-111.328,50.293,96.680,-76.660,-42.480,0
1553636235.019,-86.914,54.199,70.801,-35.645,-26.855,0
1553636235.023,-70.312,47.363,80.078,-37.109,-41.992,0
1553636235.027,-54.199,41.992,96.191,-19.043,-41.504,0
1553636235.031,-43.457,28.809,89.355,3.906,-33.203,0
1553636235.035,-31.250,22.949,84.473,0.488,-60.547,0
1553636235.039,-14.648,39.551,74.707,26.367,-42.480,0
1553636235.042,-6.348,44.922,55.176,41.504,-42.480,0
1553636235.046,1.953,28.809,60.059,27.344,-47.852,0
1553636235.050,14.160,29.297,68.848,33.691,-27.344,0
1553636235.054,27.832,31.738,55.176,58.594,1.953,0
1553636235.058,58.594,22.461,30.762,66.895,69.336,0
1553636235.062,73.242,24.902,28.320,87.891,65.430,0
1553636235.066,74.707,27.344,22.949,112.305,-55.664,0
1553636235.070,89.844,23.926,17.090,111.816,-55.176,0
1553636235.074,82.520,26.367,7.324,104.980,-15.625,0
1553636235.078,79.590,28.320,-5.371,99.121,-67.383,0
1553636235.081,82.031,21.973,2.441,116.699,-31.250,0
1553636235.085,86.914,23.926,12.207,121.582,51.270,0
1553636235.089,89.844,30.273,13.184,106.445,15.137,0
1553636235.093,90.820,29.297,-2.930,104.980,45.410,0
1553636235.097,95.703,21.973,-12.695,102.051,84.473,0
1553636235.101,78.125,22.461,7.812,97.656,30.762,0
1553636235.105,80.566,28.320,25.879,87.402,28.809,0
1553636235.109,93.750,32.227,15.137,89.355,24.414,0
1553636235.113,94.238,33.203,3.418,113.770,44.922,0
1553636235.117,82.031,29.785,-0.488,123.047,16.602,0
1553636235.121,77.637,35.645,0.977,120.605,-34.668,0
1553636235.124,80.566,36.621,-5.371,116.211,-12.207,0
1553636235.128,78.125,34.180,-1.465,97.656,17.578,0
1553636235.132,86.426,36.133,4.395,78.125,-21.973,0
1553636235.136,88.379,28.320,2.441,86.914,25.879,0
1553636235.140,80.566,23.438,-2.441,95.703,106.934,0
1553636235.144,83.008,32.715,-3.906,89.844,97.656,0
1553636235.148,85.449,38.574,-10.742,91.797,56.641,0
1553636235.152,76.660,39.062,-22.949,89.355,32.715,0
1553636235.156,75.684,33.203,-11.230,69.824,60.547,0
1553636235.160,62.988,35.645,-13.672,80.566,84.961,0
1553636235.164,63.965,36.621,-17.090,89.355,61.035,0
1553636235.167,59.570,32.227,-11.719,82.031,12.207,0
1553636235.171,53.223,33.203,-4.395,79.102,55.176,0
1553636235.175,50.781,34.668,0.488,71.289,53.223,0
1553636235.179,54.688,36.621,-5.371,83.496,49.805,0
1553636235.183,46.387,36.133,-3.418,79.590,38.574,0
1553636235.187,38.086,36.621,-4.395,71.777,71.777,0
1553636235.191,51.270,41.504,-7.324,62.500,78.613,0
1553636235.195,64.453,42.480,-13.672,60.059,67.383,0
1553636235.199,62.988,38.086,-15.137,82.031,107.422,0
1553636235.203,46.387,37.109,-9.277,80.566,37.109,0
1553636235.206,61.035,34.180,-11.230,84.473,30.762,0
1553636235.210,62.500,31.738,-10.742,83.496,55.176,0
1553636235.214,42.480,36.133,-4.395,49.805,-6.836,0
1553636235.218,37.598,43.945,-2.930,41.992,66.895,0
1553636235.222,58.594,47.852,-2.930,77.148,94.238,0
1553636235.226,65.918,42.969,-3.906,89.355,59.082,0
1553636235.230,58.105,41.992,-3.906,79.102,104.004,0
1553636235.234,59.570,42.969,1.953,72.754,93.750,0
1553636235.238,57.129,41.504,-11.719,61.035,46.387,0
1553636235.242,55.664,41.016,-24.902,65.918,-16.602,0
1553636235.246,59.570,42.969,-9.766,70.312,4.395,0
1553636235.249,55.176,35.156,1.465,62.500,54.688,0
1553636235.253,32.227,37.109,-10.742,60.059,79.590,0
1553636235.257,48.828,39.551,-11.719,71.777,75.195,0
1553636235.261,64.453,32.715,20.996,65.918,22.461,0
1553636235.265,26.367,39.551,37.109,44.434,34.180,0
1553636235.269,21.484,43.945,30.762,51.270,50.293,0
1553636235.273,33.203,39.062,17.090,50.781,35.156,0
1553636235.277,33.203,37.109,18.555,52.246,57.129,0
1553636235.281,28.320,41.992,22.461,51.270,121.582,0
1553636235.285,12.695,41.016,21.484,50.293,138.184,0
1553636235.289,38.086,32.227,29.785,60.547,55.176,0
1553636235.292,53.223,30.762,29.785,43.457,45.410,0
1553636235.296,41.992,41.016,23.926,48.340,88.379,0
1553636235.300,12.695,40.039,23.438,45.410,78.613,0
1553636235.304,9.277,34.668,25.879,53.711,47.363,0
1553636235.308,33.691,42.969,24.902,59.570,95.703,0
1553636235.312,28.809,50.293,24.902,46.387,73.730,0
1553636235.316,26.855,46.387,25.391,54.688,-12.695,0
1553636235.320,35.645,43.457,22.461,54.688,11.719,0
1553636235.324,33.691,44.922,26.855,57.129,-35.156,0
1553636235.328,27.344,44.434,31.250,57.129,-20.996,0
1553636235.331,18.066,43.945,30.273,42.969,56.152,0
1553636235.335,15.625,42.480,33.691,38.086,37.109,0
1553636235.339,27.344,42.969,31.738,42.969,15.137,0
1553636235.343,23.438,43.945,20.020,34.668,43.945,0
1553636235.347,19.043,44.922,26.855,47.363,71.777,0
1553636235.351,25.391,50.781,31.738,68.359,24.414,0
1553636235.355,14.648,51.270,31.250,45.898,66.895,0
1553636235.359,27.832,46.875,33.691,28.320,119.629,0
1553636235.363,46.875,45.898,26.367,48.828,31.738,0
1553636235.367,37.109,38.086,27.832,62.988,40.527,0
1553636235.371,25.391,38.574,38.086,41.992,88.379,0
1553636235.374,33.203,44.922,29.297,35.156,92.773,0
1553636235.378,22.461,41.992,25.879,50.781,50.293,0
1553636235.382,20.020,38.574,35.645,41.504,73.730,0
1553636235.386,21.484,41.992,32.227,39.062,95.703,0
1553636235.390,7.324,39.551,34.180,34.180,47.363,0
1553636235.394,-0.488,39.551,37.109,30.273,17.090,0
1553636235.398,20.508,41.016,32.715,23.926,-0.977,0
1553636235.402,21.484,37.598,35.156,43.945,16.602,0
1553636235.406,11.719,35.645,33.691,66.895,47.363,0
1553636235.410,24.414,40.527,15.137,55.176,57.617,0
1553636235.414,19.043,47.852,28.320,35.156,95.703,0
1553636235.417,6.836,52.734,47.363,34.668,103.027,0
1553636235.421,-1.465,53.223,34.180,42.480,49.316,0
1553636235.425,13.184,41.504,30.762,36.133,33.203,0
1553636235.429,29.785,37.109,29.297,42.969,75.684,0
1553636235.433,20.508,41.504,19.043,50.781,57.129,0
1553636235.437,13.184,45.410,11.230,33.203,31.250,0
1553636235.441,19.531,39.551,20.020,45.410,66.406,0
1553636235.445,26.367,38.086,17.090,47.852,24.414,0
1553636235.449,25.391,45.410,10.254,40.527,40.527,0
1553636235.453,22.461,47.852,11.719,34.668,5.371,0
1553636235.456,20.996,47.363,10.254,47.363,11.719,0
1553636235.460,22.461,50.293,4.395,73.730,27.344,0
1553636235.464,19.531,56.152,9.277,39.551,18.066,0
1553636235.468,17.578,49.805,19.531,27.344,38.574,0
1553636235.472,24.902,52.734,-2.930,41.992,-15.137,0
1553636235.476,21.973,53.223,-0.977,23.926,5.859,0
1553636235.480,14.160,47.852,20.020,22.461,50.293,0
1553636235.484,18.555,53.711,8.301,36.621,-9.277,0
1553636235.488,9.277,53.223,4.395,27.344,5.371,0
1553636235.492,9.766,47.852,10.254,24.902,67.871,0
1553636235.496,19.043,42.969,22.461,38.574,14.648,0
1553636235.499,18.555,46.875,14.160,33.203,12.207,0
1553636235.503,24.414,49.316,11.230,36.133,24.414,0
1553636235.507,30.762,45.898,21.973,32.227,29.297,0
1553636235.511,27.344,47.852,12.695,27.832,108.398,0
1553636235.515,29.297,47.363,13.672,41.504,124.512,0
1553636235.519,37.109,46.387,16.602,45.898,120.605,0
1553636235.523,20.508,42.480,16.602,41.016,110.352,0
1553636235.527,14.648,43.457,14.648,42.969,74.219,0
1553636235.531,11.719,40.527,14.648,44.922,86.426,0
1553636235.535,-1.953,33.203,12.207,49.805,104.492,0
1553636235.539,5.371,34.180,14.160,46.875,61.523,0
1553636235.542,14.648,37.598,17.090,44.922,73.242,0
1553636235.546,16.113,38.574,12.207,53.223,77.637,0
1553636235.550,15.625,40.039,10.254,47.852,31.250,0
1553636235.554,25.391,39.062,19.531,43.945,53.711,0
1553636235.558,17.090,42.480,2.930,43.457,121.094,0
1553636235.562,4.883,43.457,-9.277,34.180,119.629,0
1553636235.566,10.742,39.062,22.461,18.066,124.512,0
1553636235.570,15.137,37.598,27.832,36.133,118.652,0
1553636235.574,16.113,37.109,19.043,41.504,115.234,0
1553636235.578,12.207,36.621,25.879,42.969,114.746,0
1553636235.581,12.695,39.062,17.090,51.758,107.422,0
1553636235.585,19.531,41.504,9.766,41.992,119.629,0
1553636235.589,31.738,43.945,13.672,58.105,119.141,0
1553636235.593,34.668,40.527,23.926,46.875,145.996,0
1553636235.597,13.184,41.016,26.855,41.992,146.484,0
1553636235.601,11.719,49.805,19.043,62.012,141.113,0
1553636235.605,20.996,46.875,21.484,56.641,183.594,0
1553636235.609,5.859,43.457,19.531,31.738,182.617,0
1553636235.613,0.488,44.922,23.438,27.832,192.871,0
1553636235.617,19.531,47.852,23.926,29.297,172.852,0
1553636235.621,19.043,47.363,4.883,32.227,148.438,0
1553636235.624,24.902,41.992,6.836,53.223,200.684,0
1553636235.628,17.090,41.016,18.555,45.898,181.641,0
1553636235.632,1.465,38.574,25.879,31.738,173.828,0
1553636235.636,-1.465,36.133,24.414,34.180,178.223,0
1553636235.640,-3.418,33.203,20.020,51.758,162.598,0
1553636235.644,1.953,34.668,23.926,46.387,152.344,0
1553636235.648,4.395,35.645,24.414,32.715,133.301,0
1553636235.652,-3.418,37.109,23.438,31.738,158.203,0
1553636235.656,5.371,33.691,26.855,29.297,123.047,0
1553636235.660,13.184,32.227,18.066,20.508,102.539,0
1553636235.664,0.488,30.762,12.207,8.789,137.695,0
1553636235.667,0.488,23.926,17.090,31.250,113.281,0
1553636235.671,10.742,30.762,6.348,29.297,85.449,0
1553636235.675,10.254,38.574,1.953,35.156,73.730,0
1553636235.679,-1.465,40.527,2.930,45.898,60.547,0
1553636235.683,4.883,36.621,-8.301,14.648,59.082,0
1553636235.687,11.719,34.668,12.207,10.254,36.621,0
1553636235.691,2.930,40.527,27.832,29.297,18.555,0
1553636235.695,0.000,37.109,15.137,37.109,8.301,0
1553636235.699,9.277,35.645,9.277,27.832,6.348,0
1553636235.703,7.812,35.156,4.395,15.137,4.883,0
1553636235.706,-1.465,36.133,2.441,25.879,-30.762,0
1553636235.710,10.742,34.180,-7.812,31.250,-44.434,0
1553636235.714,23.926,29.297,-16.113,28.809,-30.762,0
1553636235.718,5.859,40.039,-13.184,14.648,-44.434,0
1553636235.722,8.301,48.828,-14.648,25.879,-40.039,0
1553636235.726,21.484,40.527,-36.133,35.645,-26.367,0
1553636235.730,14.160,38.086,-50.293,8.301,-53.223,0
1553636235.734,11.230,40.039,-34.180,12.695,-52.246,0
1553636235.738,0.977,38.574,-12.207,8.301,-48.340,0
1553636235.742,6.836,34.180,-2.930,13.184,-54.688,0
1553636235.746,5.371,38.086,-14.160,28.320,12.695,0
1553636235.749,4.883,38.574,-17.090,23.438,-23.926,0
1553636235.753,3.418,37.598,-20.996,33.203,-85.938,0
1553636235.757,-6.836,38.086,-27.832,28.320,-17.090,0
1553636235.761,-3.418,34.668,-21.973,4.883,-8.789,0
1553636235.765,-1.465,32.715,-19.531,6.836,-26.855,0
1553636235.769,5.859,34.668,-29.297,21.973,10.742,0
1553636235.773,14.160,35.645,-30.762,39.062,-30.273,0
1553636235.777,9.766,32.227,-25.391,39.062,-39.551,0
1553636235.781,0.488,31.250,-30.762,6.348,-20.996,0
1553636235.785,-10.254,31.738,-27.344,16.602,-37.598,0
1553636235.789,-1.465,29.297,-30.273,39.551,40.527,0
1553636235.792,-2.930,27.832,-46.387,24.414,-0.977,0
1553636235.796,-22.461,28.809,-30.273,10.254,-46.387,0
1553636235.800,-15.137,20.508,-5.859,4.395,17.578,0
1553636235.804,-7.812,26.855,-17.090,24.414,22.949,0
1553636235.808,-2.441,40.039,-18.066,28.320,-2.441,0
1553636235.812,5.371,40.039,-11.230,6.836,-62.500,0
1553636235.816,-0.488,37.109,-13.184,10.742,-57.617,0
1553636235.820,-5.859,37.109,-12.695,0.977,38.086,0
1553636235.824,-5.859,41.504,-17.090,-0.488,52.246,0
1553636235.828,-14.648,43.457,-23.926,15.137,10.742,0
1553636235.831,-2.930,39.062,-20.020,28.809,-33.691,0
1553636235.835,-4.395,33.691,-11.719,25.879,34.180,0
1553636235.839,-6.348,39.551,-4.395,11.719,88.379,0
1553636235.843,-8.301,43.457,4.395,20.020,42.969,0
1553636235.847,-11.230,44.922,0.488,18.555,55.176,0
1553636235.851,-15.137,39.551,-9.766,2.930,96.680,0
1553636235.855,-13.184,37.109,-10.742,-9.277,77.148,0
1553636235.859,-7.324,41.992,5.859,2.441,50.781,0
1553636235.863,-4.883,33.691,14.648,21.484,70.801,0
1553636235.867,0.977,33.203,1.465,16.602,129.883,0
1553636235.871,-4.395,43.945,5.371,17.090,90.820,0
1553636235.874,8.301,33.691,7.812,38.574,42.969,0
1553636235.878,-2.930,23.926,3.418,32.227,70.312,0
1553636235.882,-8.789,25.879,28.809,0.488,105.957,0
1553636235.886,4.883,26.367,29.297,8.789,85.449,0
1553636235.890,0.000,28.320,16.113,38.574,57.129,0
1553636235.894,-2.441,35.645,19.043,32.715,83.984,0
1553636235.898,-1.953,37.598,22.949,1.953,33.691,0
1553636235.902,1.465,27.832,20.996,22.949,65.430,0
1553636235.906,9.766,34.668,21.973,49.805,89.355,0
1553636235.910,-15.625,33.691,26.855,24.902,46.387,0
1553636235.914,-8.301,32.715,27.344,31.250,10.254,0
1553636235.917,9.766,38.574,26.855,22.949,-1.465,0
1553636235.921,10.742,41.016,28.320,19.531,40.039,0
1553636235.925,0.977,46.875,29.297,22.949,63.965,0
1553636235.929,-10.742,44.434,28.809,16.113,28.320,0
1553636235.933,9.277,45.410,31.738,23.926,16.113,0
1553636235.937,-2.930,56.152,41.992,28.809,68.359,0
1553636235.941,-13.184,48.340,59.082,25.391,62.988,0
1553636235.945,-2.930,40.039,54.688,-5.859,54.688,0
1553636235.949,-10.254,44.922,30.273,3.906,74.707,0
1553636235.953,-29.785,44.922,34.180,7.324,91.309,0
1553636235.956,-26.367,53.711,52.734,0.488,121.582,0
1553636235.960,-11.719,50.293,66.406,-8.301,73.730,0
1553636235.964,-36.621,44.434,69.336,-33.203,64.941,0
1553636235.968,-54.688,48.828,75.684,-32.227,53.711,0
1553636235.972,-70.312,52.246,88.379,-47.363,72.754,0
1553636235.976,-68.848,55.664,93.262,-66.895,112.793,0
1553636235.980,-68.848,58.594,102.051,-48.340,115.723,0
1553636235.984,-104.004,57.617,108.887,-99.609,75.684,0
1553636235.988,-114.258,57.617,79.102,-114.746,7.812,0
1553636235.992,-98.633,63.965,86.426,-57.129,50.293,0
1553636235.996,-118.652,67.383,127.930,-69.824,76.660,0
1553636235.999,-115.723,46.875,138.184,-73.730,97.656,0
1553636236.003,-86.426,43.457,99.609,-65.918,97.656,0
1553636236.007,-91.309,53.711,79.590,-53.223,44.434,0
1553636236.011,-94.238,33.691,127.930,-55.664,64.453,0
1553636236.015,-81.055,2.441,132.324,-49.316,102.051,0
1553636236.019,-68.848,7.812,112.793,-49.805,129.395,0
1553636236.023,-69.336,47.363,112.793,-63.965,127.441,0
1553636236.027,-58.594,81.543,94.238,-52.734,118.652,0
1553636236.031,-39.062,75.195,80.078,-11.230,125.488,0
1553636236.035,-38.086,56.641,75.684,3.418,117.188,0
1553636236.039,-16.602,46.387,64.453,0.977,123.535,0
1553636236.042,-4.395,41.016,62.012,14.648,121.582,0
1553636236.046,5.371,37.598,63.965,20.020,101.562,0
1553636236.050,16.602,29.785,52.734,49.316,119.141,0
1553636236.054,21.973,25.391,50.293,60.547,121.582,0
1553636236.058,17.578,23.926,60.547,30.762,103.027,0
1553636236.062,11.230,23.438,67.383,38.086,120.605,0
1553636236.066,29.785,20.996,67.383,48.340,118.652,0
1553636236.070,22.461,24.414,67.871,50.293,100.098,0
1553636236.074,20.996,33.691,67.383,37.598,105.957,0
1553636236.078,27.832,31.738,71.289,37.109,123.535,0
1553636236.081,22.461,25.391,74.707,61.523,132.812,0
1553636236.085,26.855,27.832,77.637,66.895,140.137,0
1553636236.089,28.320,29.785,81.055,51.758,146.484,0
1553636236.093,42.969,33.203,83.008,56.641,157.715,0
1553636236.097,43.945,29.785,86.914,49.316,175.781,0
1553636236.101,29.297,22.461,89.844,34.180,186.523,0
1553636236.105,34.180,22.949,89.355,51.758,170.898,0
1553636236.109,34.668,27.832,84.473,42.480,172.852,0
1553636236.113,6.348,33.203,89.844,19.531,196.777,0
1553636236.117,-5.371,35.156,94.727,18.555,179.199,0
1553636236.121,-12.695,37.598,89.844,10.254,183.105,0
1553636236.124,-55.176,34.668,88.867,-15.625,210.938,0
1553636236.128,-78.125,38.086,85.938,-31.250,196.289,0
1553636236.132,-86.914,45.410,89.355,-44.434,133.301,0
1553636236.136,-118.164,49.316,91.309,-82.031,127.441,0
1553636236.140,-134.277,47.363,88.379,-97.656,178.711,0
1553636236.144,-133.789,55.176,87.402,-90.820,152.344,0
1553636236.148,-142.090,56.152,89.844,-95.215,143.066,0
1553636236.152,-138.184,47.852,86.914,-94.727,165.039,0
1553636236.156,-124.023,47.363,85.938,-92.285,171.387,0
1553636236.160,-125.488,46.875,86.914,-90.820,176.758,0
1553636236.164,-112.305,47.852,50.293,-66.406,152.832,0
1553636236.167,-92.285,49.805,58.594,-52.246,155.762,0
1553636236.171,-92.285,39.062,112.793,-63.965,163.574,0
1553636236.175,-78.613,31.738,104.492,-47.852,156.738,0
1553636236.179,-56.152,45.410,85.938,-30.762,156.250,0
1553636236.183,-48.340,43.457,75.684,-24.902,177.246,0
1553636236.187,-40.039,37.109,81.055,-5.859,160.645,0
1553636236.191,-22.949,35.156,80.566,11.230,107.910,0
1553636236.195,-10.742,24.902,63.965,22.461,128.418,0
1553636236.199,-7.812,23.438,65.918,23.438,132.324,0
1553636236.203,4.883,21.973,68.848,35.156,91.797,0
1553636236.206,21.484,20.996,58.594,44.922,106.934,0
1553636236.210,32.715,18.555,56.152,54.688,101.562,0
1553636236.214,44.922,13.184,46.875,87.402,79.102,0
1553636236.218,62.500,16.602,39.551,96.680,78.125,0
1553636236.222,55.664,15.137,35.156,68.848,46.875,0
1553636236.226,51.758,21.973,45.410,62.012,28.320,0
1553636236.230,57.129,25.879,61.523,77.637,10.742,0
1553636236.234,52.734,20.020,54.199,80.566,-23.438,0
1553636236.238,63.965,20.020,48.828,74.707,-42.969,0
1553636236.242,71.777,20.020,41.504,94.238,-44.922,0
1553636236.246,77.148,19.531,44.434,108.887,-32.715,0
1553636236.249,71.777,23.926,44.922,97.656,-51.758,0
1553636236.253,81.055,26.855,30.762,106.445,-119.629,0
1553636236.257,87.402,28.809,53.223,110.352,-119.141,0
1553636236.261,88.867,25.879,63.477,108.398,-92.773,0
1553636236.265,86.426,22.949,54.199,109.863,-102.539,0
1553636236.269,84.473,29.297,53.711,102.539,-91.797,0
1553636236.273,81.055,31.250,48.340,105.957,-138.672,0
1553636236.277,67.383,30.762,43.945,105.469,-100.098,0
1553636236.281,75.195,32.715,42.480,98.633,-58.594,0
1553636236.285,73.730,33.691,41.504,105.469,-96.680,0
1553636236.289,69.336,32.227,31.250,98.145,-109.375,0
1553636236.292,81.543,29.785,25.879,100.098,-53.223,0
1553636236.296,85.938,31.250,42.480,107.910,-41.504,0
1553636236.300,87.891,27.344,46.875,104.004,-119.629,0
1553636236.304,80.566,22.949,43.457,105.469,-101.074,0
1553636236.308,91.309,27.344,43.457,107.422,-28.320,0
1553636236.312,88.379,34.180,49.805,104.492,-43.945,0
1553636236.316,66.895,34.668,48.828,92.285,-17.090,0
1553636236.320,71.289,37.109,39.551,83.984,-40.527,0
1553636236.324,93.750,37.598,41.016,94.238,-88.379,0
1553636236.328,89.844,31.738,42.480,97.656,-53.711,0
1553636236.331,66.895,32.227,40.527,88.867,-78.125,0
1553636236.335,70.801,32.715,36.621,102.051,-108.398,0
1553636236.339,81.055,34.668,29.297,94.727,-2.930,0
1553636236.343,72.754,31.738,26.367,79.590,29.297,0
1553636236.347,67.871,29.297,40.039,81.055,-42.480,0
1553636236.351,68.359,32.227,52.246,77.637,-29.297,0
1553636236.355,63.965,34.180,46.387,85.449,-40.039,0
1553636236.359,67.871,31.738,50.293,84.961,-5.371,0
1553636236.363,57.129,30.273,47.363,70.312,-17.578,0
1553636236.367,57.617,29.785,41.016,80.078,-75.684,0
1553636236.371,64.941,34.180,48.340,74.219,-27.832,0
1553636236.374,45.898,34.668,61.523,60.547,-17.578,0
1553636236.378,45.410,26.855,57.617,69.336,-36.133,0
1553636236.382,44.434,28.320,44.434,60.547,9.766,0
1553636236.386,36.621,35.156,54.199,54.199,-28.809,0
1553636236.390,35.645,35.645,61.035,56.641,-45.898,0
1553636236.394,39.551,32.715,60.547,48.828,-24.902,0
1553636236.398,39.062,34.180,54.688,51.270,-7.324,0
1553636236.402,45.898,36.621,53.223,53.223,56.641,0
1553636236.406,48.340,35.645,53.223,49.805,74.219,0
1553636236.410,41.016,35.645,54.199,49.805,3.906,0
1553636236.414,42.969,35.645,58.594,48.828,-35.645,0
1553636236.417,37.109,37.598,59.082,52.246,-4.395,0
1553636236.421,42.480,41.504,52.246,55.176,31.738,0
1553636236.425,39.551,43.945,56.152,39.551,-7.324,0
1553636236.429,30.762,41.992,37.598,32.715,23.438,0
1553636236.433,33.691,41.992,11.230,35.645,29.785,0
1553636236.437,22.949,45.410,56.152,33.691,21.484,0
1553636236.441,23.926,33.203,75.195,33.691,17.090,0
1553636236.445,31.250,27.832,69.336,37.598,12.695,0
1553636236.449,27.832,41.992,70.312,34.180,9.766,0
1553636236.453,26.855,53.711,57.617,27.344,12.695,0
1553636236.456,51.270,51.270,46.387,53.223,23.438,0
1553636236.460,50.781,39.062,62.500,53.711,20.996,0
1553636236.464,22.461,39.062,76.172,29.297,-16.602,0
1553636236.468,27.344,41.992,70.801,42.480,-17.090,0
1553636236.472,41.016,43.457,67.871,48.340,-3.418,0
1553636236.476,38.086,36.133,66.406,48.340,45.898,0
1553636236.480,23.438,27.344,70.312,54.688,36.133,0
1553636236.484,22.949,25.391,74.707,54.688,-1.953,0
1553636236.488,37.109,21.484,75.684,68.848,17.090,0
1553636236.492,38.086,20.508,72.266,62.500,20.996,0
1553636236.496,35.156,16.602,72.266,59.082,42.480,0
1553636236.499,36.621,14.648,77.148,54.688,49.805,0
1553636236.503,37.598,23.438,76.660,70.801,71.777,0
1553636236.507,47.363,32.227,56.152,70.801,37.109,0
1553636236.511,46.387,35.645,54.688,54.688,67.383,0
1553636236.515,46.387,34.180,63.477,61.523,68.848,0
1553636236.519,51.270,33.203,75.195,59.570,8.301,0
1553636236.523,40.527,30.762,85.938,49.805,-2.441,0
1553636236.527,44.434,29.297,78.125,38.574,-8.301,0
1553636236.531,57.617,33.203,69.336,37.598,-20.020,0
1553636236.535,47.852,30.762,67.383,46.387,0.000,0
1553636236.539,50.293,26.367,67.871,46.387,33.691,0
1553636236.542,61.523,29.785,70.312,43.457,-22.949,0
1553636236.546,56.152,36.133,69.824,47.363,23.926,0
1553636236.550,49.316,35.645,62.500,52.246,22.461,0
1553636236.554,44.434,37.598,63.965,48.828,59.082,0
1553636236.558,52.734,38.574,61.523,37.109,85.449,0
1553636236.562,44.434,37.598,60.059,41.016,8.301,0
1553636236.566,36.133,40.527,65.430,44.434,-13.184,0
1553636236.570,46.387,42.480,58.105,52.246,17.090,0
1553636236.574,54.688,37.109,53.223,54.688,28.320,0
1553636236.578,46.387,35.645,43.457,42.480,1.465,0
1553636236.581,35.645,38.086,47.852,56.152,64.941,0
1553636236.585,44.434,36.133,65.430,62.012,18.066,0
1553636236.589,51.758,32.715,63.965,48.828,12.207,0
1553636236.593,41.016,31.738,61.035,55.664,90.332,0
1553636236.597,35.645,33.203,60.547,53.711,104.004,0
1553636236.601,37.109,30.762,55.176,38.086,49.316,0
1553636236.605,33.203,30.762,52.246,37.598,16.602,0
1553636236.609,32.227,27.344,58.594,56.152,28.320,0
1553636236.613,47.852,31.250,51.270,73.242,31.250,0
1553636236.617,53.711,41.992,44.434,59.082,41.016,0
1553636236.621,37.598,38.086,44.434,47.852,58.105,0
1553636236.624,30.762,37.598,41.016,52.246,58.594,0
1553636236.628,12.207,39.062,45.410,29.297,4.883,0
1553636236.632,19.043,41.992,42.480,26.367,-13.184,0
1553636236.636,23.438,49.316,28.809,48.340,1.465,0
1553636236.640,20.508,50.781,27.344,44.434,76.172,0
1553636236.644,24.902,46.875,29.785,19.043,77.637,0
1553636236.648,25.391,53.223,12.695,11.230,106.445,0
1553636236.652,25.391,55.664,15.625,21.484,89.355,0
1553636236.656,21.484,55.176,28.809,21.973,23.438,0
1553636236.660,18.066,53.223,22.949,21.484,34.668,0
1553636236.664,19.043,48.340,31.250,19.043,13.184,0
1553636236.667,28.320,46.875,44.434,24.414,16.113,0
1553636236.671,24.902,41.504,37.598,35.645,18.066,0
1553636236.675,25.879,43.457,27.832,35.156,38.574,0
1553636236.679,32.227,48.340,26.367,35.156,31.738,0
1553636236.683,33.691,48.340,29.297,43.457,56.641,0
1553636236.687,32.227,49.805,36.133,46.387,88.379,0
1553636236.691,49.805,50.293,30.273,53.223,85.449,0
1553636236.695,52.246,49.805,23.438,33.203,-35.156,0
1553636236.699,46.387,41.992,33.203,23.438,-68.359,0
1553636236.703,57.617,43.457,32.227,42.480,2.930,0
1553636236.706,47.363,46.875,21.484,39.551,-10.254,0
1553636236.710,31.250,41.992,16.113,48.340,-10.254,0
1553636236.714,20.996,44.434,18.555,48.828,28.320,0
1553636236.718,23.926,43.457,41.992,39.062,95.215,0
1553636236.722,22.949,43.945,56.152,43.945,97.168,0
1553636236.726,14.160,44.434,44.434,41.992,51.758,0
1553636236.730,18.066,43.945,36.621,35.156,33.691,0
1553636236.734,18.555,46.875,35.156,33.691,60.059,0
1553636236.738,11.719,43.945,22.949,39.551,82.520,0
1553636236.742,25.391,44.434,12.695,50.293,33.203,0
1553636236.746,42.969,44.434,41.992,47.363,35.645,0
1553636236.749,34.668,41.992,52.246,51.758,47.852,0
1553636236.753,18.555,41.992,52.734,60.059,70.312,0
1553636236.757,23.926,41.016,52.246,30.273,34.668,0
1553636236.761,26.855,39.062,49.316,28.809,33.691,0
1553636236.765,31.738,41.016,54.199,45.410,23.926,0
1553636236.769,31.250,42.480,38.086,47.852,5.371,0
1553636236.773,27.344,39.551,34.668,44.434,67.871,0
1553636236.777,21.484,37.598,47.363,35.156,54.199,0
1553636236.781,17.090,40.527,53.223,26.367,61.523,0
1553636236.785,14.160,42.480,56.641,31.250,63.477,0
1553636236.789,17.090,41.992,53.711,42.969,23.926,0
1553636236.792,34.180,45.898,53.223,41.992,34.180,0
1553636236.796,26.855,44.434,52.734,37.598,67.871,0
1553636236.800,20.996,42.480,47.363,50.781,33.691,0
1553636236.804,23.438,42.480,43.457,43.457,-10.742,0
1553636236.808,22.949,39.551,41.016,47.363,51.758,0
1553636236.812,25.391,41.504,46.875,40.527,99.121,0
1553636236.816,17.090,40.039,62.988,29.297,109.375,0
1553636236.820,15.137,38.086,64.453,36.133,43.945,0
1553636236.824,27.344,40.039,54.199,43.945,26.855,0
1553636236.828,36.621,36.621,60.059,48.340,43.945,0
1553636236.831,29.785,35.156,70.312,43.945,45.898,0
1553636236.835,19.531,40.039,69.824,39.062,48.828,0
1553636236.839,19.043,39.551,61.523,28.809,31.250,0
1553636236.843,15.625,37.598,59.082,40.039,79.102,0
1553636236.847,11.230,33.691,65.430,52.734,35.645,0
1553636236.851,15.625,30.273,73.730,29.785,35.156,0
1553636236.855,14.648,32.715,66.406,30.762,64.941,0
1553636236.859,21.973,35.156,62.012,34.180,23.438,0
1553636236.863,29.785,40.527,68.848,30.273,7.324,0
1553636236.867,27.344,38.574,65.430,41.016,-8.301,0
1553636236.871,20.020,41.016,64.941,42.480,58.594,0
1553636236.874,30.273,41.016,71.777,40.527,47.363,0
1553636236.878,38.086,41.504,70.801,40.039,34.668,0
1553636236.882,17.578,46.387,57.129,43.945,95.215,0
1553636236.886,12.695,42.480,55.664,32.715,91.797,0
1553636236.890,20.996,40.039,66.895,26.367,63.477,0
1553636236.894,22.461,37.598,67.871,47.852,30.762,0
1553636236.898,11.719,33.691,75.195,35.156,56.641,0
1553636236.902,13.672,41.016,68.848,27.832,64.941,0
1553636236.906,32.227,50.293,35.645,60.547,72.754,0
1553636236.910,40.527,47.363,47.852,51.270,85.938,0
1553636236.914,30.273,40.527,81.055,26.367,85.938,0
1553636236.917,32.227,34.180,81.055,39.551,37.598,0
1553636236.921,33.203,40.527,74.707,45.410,25.391,0
1553636236.925,24.902,51.758,73.730,32.715,32.227,0
1553636236.929,21.484,47.363,73.242,30.273,12.207,0
1553636236.933,15.137,39.551,68.359,32.227,8.789,0
1553636236.937,13.184,42.480,61.035,32.227,19.043,0
1553636236.941,12.695,45.898,68.848,29.785,86.914,0
1553636236.945,16.113,41.016,65.430,36.621,86.914,0
1553636236.949,27.344,35.645,59.570,45.410,114.258,0
1553636236.953,28.809,37.598,77.148,46.875,74.707,0
1553636236.956,29.297,45.410,49.805,51.758,-16.602,0
1553636236.960,30.273,49.805,48.828,56.641,18.555,0
1553636236.964,25.391,45.898,86.426,51.270,15.625,0
1553636236.968,23.926,40.527,81.543,38.086,-15.625,0
1553636236.972,23.438,38.086,65.918,36.621,35.156,0
1553636236.976,29.297,41.992,62.500,41.016,82.520,0
1553636236.980,17.090,46.387,68.359,35.645,21.973,0
1553636236.984,19.531,42.480,57.617,37.598,-30.762,0
1553636236.988,21.973,48.828,61.035,40.039,26.855,0
1553636236.992,19.043,49.316,68.848,32.227,110.352,0
1553636236.996,21.484,45.410,62.988,33.691,84.473,0
1553636236.999,4.395,53.223,63.477,34.668,9.766,0
1553636237.003,-0.977,51.270,66.895,31.738,93.750,0
1553636237.007,17.578,42.480,64.941,41.016,95.215,0
1553636237.011,21.484,41.016,60.059,42.969,47.852,0
1553636237.015,-0.488,45.898,57.617,26.367,79.590,0
1553636237.019,8.789,43.945,55.664,37.109,78.613,0
1553636237.023,18.555,40.039,58.594,38.086,62.012,0
1553636237.027,19.531,39.551,50.781,34.180,93.750,0
1553636237.031,9.277,41.992,41.504,37.109,72.754,0
1553636237.035,22.461,36.133,57.129,31.250,31.738,0
1553636237.039,42.969,22.949,70.801,47.852,76.660,0
1553636237.042,16.602,37.109,70.801,41.992,91.797,0
1553636237.046,-10.254,54.688,64.453,7.324,105.469,0
1553636237.050,-6.836,48.828,58.105,8.789,50.293,0
1553636237.054,-12.695,46.387,55.664,3.418,89.355,0
1553636237.058,-34.668,44.922,52.246,-18.555,110.840,0
1553636237.062,-52.246,37.109,50.781,-20.508,78.125,0
1553636237.066,-62.500,31.738,52.734,-30.762,51.758,0
1553636237.070,-64.453,28.809,62.012,-51.270,52.246,0
1553636237.074,-67.871,31.738,58.105,-35.156,65.430,0
1553636237.078,-61.523,37.598,47.852,-33.203,61.523,0
1553636237.081,-49.805,32.715,49.805,-45.410,26.367,0
1553636237.085,-44.434,29.297,47.363,-36.133,43.945,0
1553636237.089,-37.109,31.738,44.922,0.977,22.461,0
1553636237.093,-18.555,36.621,44.434,15.625,14.160,0
1553636237.097,-19.043,37.109,44.434,-14.160,57.129,0
1553636237.101,-24.414,30.762,47.363,-9.277,104.492,0
1553636237.105,-11.719,33.691,45.898,6.348,75.195,0
1553636237.109,-12.695,35.156,46.875,5.371,20.996,0
1553636237.113,-3.418,36.621,45.410,11.230,71.289,0
1553636237.117,3.906,39.551,41.504,25.391,124.023,0
1553636237.121,-8.789,38.574,45.410,13.184,38.086,0
1553636237.124,0.977,40.039,45.898,26.855,24.414,0
1553636237.128,9.766,40.039,43.945,28.809,72.754,0
1553636237.132,18.066,41.992,41.016,22.949,6.348,0
1553636237.136,23.438,44.434,43.457,43.457,-30.762,0
1553636237.140,24.414,42.480,51.758,47.363,45.898,0
1553636237.144,26.367,37.598,50.293,41.504,52.246,0
1553636237.148,20.508,37.598,46.875,43.457,45.410,0
1553636237.152,19.043,39.551,52.246,44.922,68.848,0
1553636237.156,34.180,37.109,53.223,40.039,49.805,0
1553636237.160,30.273,39.551,43.457,32.715,39.062,0
1553636237.164,16.602,37.109,45.898,43.457,43.945,0
1553636237.167,6.348,35.156,47.363,50.293,53.711,0
1553636237.171,9.766,41.504,31.738,41.992,47.852,0
1553636237.175,23.438,46.875,36.621,38.086,106.934,0
1553636237.179,28.320,45.410,50.781,51.758,97.656,0
1553636237.183,28.320,43.457,55.176,50.293,60.547,0
1553636237.187,33.691,43.945,52.734,39.062,50.781,0
1553636237.191,37.598,41.992,43.457,44.434,-30.273,0
1553636237.195,22.949,41.992,42.480,49.805,14.648,0
1553636237.199,17.578,40.039,53.711,46.387,23.926,0
1553636237.203,15.137,34.180,58.594,41.504,0.977,0
1553636237.206,16.602,34.180,51.270,28.809,47.852,0
1553636237.210,16.113,38.086,49.316,31.250,20.996,0
1553636237.214,18.555,34.668,52.734,47.852,9.277,0
1553636237.218,18.555,35.645,53.223,39.551,39.551,0
1553636237.222,18.066,42.969,49.316,41.504,10.254,0
1553636237.226,18.555,43.945,49.316,44.922,19.043,0
1553636237.230,20.508,41.016,51.758,48.340,51.758,0
1553636237.234,23.926,45.898,53.223,63.477,63.965,0
1553636237.238,23.438,49.316,47.363,49.316,61.523,0
1553636237.242,29.785,47.363,37.109,38.574,53.711,0
1553636237.246,32.715,48.828,37.598,50.781,65.430,0
1553636237.249,36.621,48.340,46.875,54.199,71.289,0
1553636237.253,32.715,48.828,51.270,42.480,24.902,0
1553636237.257,12.207,50.781,48.340,36.621,38.086,0
1553636237.261,8.301,51.270,41.016,33.203,79.102,0
1553636237.265,25.879,49.805,25.391,36.133,20.508,0
1553636237.269,28.809,46.875,20.508,39.062,24.414,0
1553636237.273,16.602,46.875,44.434,36.133,51.270,0
1553636237.277,19.043,45.410,58.594,27.832,50.293,0
1553636237.281,30.762,44.434,47.363,30.273,17.578,0
1553636237.285,35.156,48.828,52.246,38.086,56.641,0
1553636237.289,32.227,49.805,64.453,40.527,78.125,0
1553636237.292,36.133,42.480,61.035,47.363,62.500,0
1553636237.296,34.180,39.551,53.711,49.316,56.152,0
1553636237.300,19.531,47.363,53.223,43.457,8.789,0
1553636237.304,14.160,51.270,50.293,49.805,74.219,0
1553636237.308,21.484,48.340,45.898,46.875,156.738,0
1553636237.312,20.996,47.852,43.945,43.457,92.773,0
1553636237.316,23.926,46.387,47.852,41.504,56.641,0
1553636237.320,23.438,44.434,40.527,52.246,68.359,0
1553636237.324,23.438,41.016,35.645,44.922,52.734,0
1553636237.328,21.973,41.504,45.898,30.762,52.246,0
1553636237.331,18.066,45.898,45.898,24.902,51.270,0
1553636237.335,20.996,48.340,56.641,30.762,91.309,0
1553636237.339,23.438,49.805,58.594,40.527,88.379,0
1553636237.343,19.531,48.828,54.688,37.598,30.762,0
1553636237.347,18.066,44.922,45.410,44.922,1.465,0
1553636237.351,19.531,43.457,40.527,47.363,51.758,0
1553636237.355,16.602,46.387,47.852,39.062,81.055,0
1553636237.359,22.461,43.457,42.969,46.387,5.371,0
1553636237.363,27.832,41.016,43.457,46.875,70.312,0
1553636237.367,21.973,43.945,53.223,34.180,65.430,0
1553636237.371,20.996,43.457,63.477,43.945,14.648,0
1553636237.374,32.227,41.016,60.059,56.152,15.137,0
1553636237.378,29.785,42.480,55.176,53.711,34.668,0
1553636237.382,21.973,39.062,61.035,55.176,62.012,0
1553636237.386,14.160,39.062,51.270,42.969,90.332,0
1553636237.390,15.625,42.969,45.410,25.879,125.488,0
1553636237.394,30.273,41.016,56.641,36.621,43.457,0
1553636237.398,22.461,39.062,54.688,45.410,41.504,0
1553636237.402,31.738,39.551,54.199,66.406,27.832,0
1553636237.406,39.551,38.574,59.570,70.312,72.266,0
1553636237.410,39.551,40.039,60.059,60.059,77.148,0
1553636237.414,56.641,43.457,65.430,78.613,28.320,0
1553636237.417,48.340,43.457,60.547,80.078,40.039,0
1553636237.421,53.223,39.062,51.270,73.242,84.961,0
1553636237.425,60.059,39.062,60.059,78.125,104.492,0
1553636237.429,41.016,42.480,64.941,70.801,79.590,0
1553636237.433,42.969,40.527,61.035,65.430,69.824,0
1553636237.437,41.504,44.434,61.523,62.012,43.457,0
1553636237.441,40.527,41.504,64.453,47.363,52.246,0
1553636237.445,41.504,35.156,56.152,64.453,19.043,0
1553636237.449,35.645,44.434,43.945,65.918,19.043,0
1553636237.453,36.621,48.340,48.340,52.246,43.457,0
1553636237.456,33.203,43.945,72.754,49.805,22.949,0
1553636237.460,41.992,33.691,60.059,60.059,0.488,0
1553636237.464,40.527,34.180,3.906,65.430,-55.176,0
1553636237.468,24.902,41.016,44.922,40.527,-27.832,0
1553636237.472,24.902,39.062,98.145,36.621,56.152,0
1553636237.476,20.020,42.480,78.125,32.227,84.961,0
1553636237.480,19.043,39.062,62.012,31.738,61.523,0
1553636237.484,28.320,40.527,57.129,41.504,74.219,0
1553636237.488,26.367,44.434,58.594,41.504,83.496,0
1553636237.492,22.461,40.527,66.895,40.039,-21.973,0
1553636237.496,14.648,44.922,68.359,50.781,-23.438,0
1553636237.499,19.043,47.363,62.012,49.316,69.824,0
1553636237.503,20.996,43.945,61.035,41.016,54.688,0
1553636237.507,23.926,43.457,59.082,47.852,-27.832,0
1553636237.511,28.809,41.504,56.152,49.316,22.461,0
1553636237.515,19.531,40.527,47.852,53.223,70.312,0
1553636237.519,18.555,39.062,49.316,46.875,55.664,0
1553636237.523,18.555,41.992,56.152,33.691,40.039,0
1553636237.527,33.203,41.016,56.152,34.180,37.109,0
1553636237.531,37.598,38.574,55.664,24.902,10.254,0
1553636237.535,22.949,42.969,54.688,32.715,31.738,0
1553636237.539,19.043,39.062,54.199,39.551,19.043,0
1553636237.542,29.785,39.551,62.500,38.086,39.551,0
1553636237.546,30.762,41.992,66.406,44.922,55.176,0
1553636237.550,24.414,41.016,59.570,46.875,32.715,0
1553636237.554,27.344,39.551,56.152,39.551,39.062,0
1553636237.558,31.738,38.574,52.246,45.410,38.086,0
1553636237.562,33.691,38.086,51.270,49.316,91.797,0
1553636237.566,24.902,38.086,60.059,42.969,79.590,0
1553636237.570,18.555,38.086,62.012,31.738,42.969,0
1553636237.574,25.391,39.551,64.453,39.551,83.008,0
1553636237.578,23.926,39.551,59.570,37.109,79.102,0
1553636237.581,19.043,36.133,54.199,24.414,47.363,0
1553636237.585,20.996,39.062,53.711,29.785,47.852,0
1553636237.589,18.066,39.551,59.570,23.926,114.258,0
1553636237.593,17.090,41.504,60.547,27.832,72.266,0
1553636237.597,18.066,42.480,56.152,32.227,31.738,0
1553636237.601,18.066,39.062,55.176,34.668,108.398,0
1553636237.605,20.996,41.504,49.316,42.480,47.852,0
1553636237.609,28.809,35.156,58.594,56.641,-2.441,0
1553636237.613,24.902,36.133,60.547,48.828,38.086,0
1553636237.617,20.508,52.734,57.617,23.438,31.250,0
1553636237.621,19.043,51.270,56.152,27.344,48.828,0
1553636237.624,18.066,44.922,52.734,30.273,110.352,0
1553636237.628,18.066,42.969,58.105,29.297,72.754,0
1553636237.632,17.578,41.504,58.594,31.738,19.043,0
1553636237.636,23.438,41.504,54.199,35.156,60.059,0
1553636237.640,23.438,42.480,58.105,57.617,62.988,0
1553636237.644,21.484,40.527,58.594,51.758,75.684,0
1553636237.648,22.461,34.668,56.641,30.762,95.703,0
1553636237.652,25.391,31.250,62.500,37.109,15.625,0
1553636237.656,25.879,36.133,60.059,39.551,-2.441,0
1553636237.660,20.508,39.062,60.547,35.156,97.168,0
1553636237.664,19.043,38.086,52.246,37.598,96.680,0
1553636237.667,14.648,38.574,56.152,39.551,39.062,0
1553636237.671,11.719,39.551,58.105,34.180,59.570,0
1553636237.675,20.508,42.969,48.828,30.273,70.801,0
1553636237.679,19.043,41.504,65.430,30.762,46.387,0
1553636237.683,18.555,38.086,62.012,29.785,84.961,0
1553636237.687,21.973,38.574,59.082,39.551,59.570,0
1553636237.691,29.785,37.109,67.383,48.340,0.977,0
1553636237.695,28.320,39.551,65.918,36.133,-23.926,0
1553636237.699,23.438,43.457,55.664,31.250,2.930,0
1553636237.703,32.715,41.504,51.758,31.738,0.488,0
1553636237.706,31.250,36.621,64.453,32.227,21.973,0
1553636237.710,23.438,34.180,67.871,34.180,76.172,0
1553636237.714,19.531,46.875,62.988,29.297,-0.977,0
1553636237.718,21.484,44.922,56.641,28.320,11.230,0
1553636237.722,20.508,39.551,57.129,28.320,32.227,0
1553636237.726,24.414,45.898,42.480,23.926,15.625,0
1553636237.730,27.344,44.434,50.781,24.414,80.566,0
1553636237.734,22.461,41.016,62.012,27.344,74.219,0
1553636237.738,16.602,38.086,51.758,27.832,10.742,0
1553636237.742,15.625,39.551,66.895,20.020,41.504,0
1553636237.746,8.789,43.945,67.871,11.719,63.477,0
1553636237.749,7.812,41.504,62.500,15.625,71.289,0
1553636237.753,9.277,40.039,67.383,23.926,125.000,0
1553636237.757,10.742,43.945,54.688,24.414,106.934,0
1553636237.761,17.578,43.945,47.363,25.391,125.977,0
1553636237.765,13.184,40.039,64.453,28.809,108.887,0
1553636237.769,13.184,39.551,67.383,32.715,54.199,0
1553636237.773,11.230,42.480,66.895,17.090,71.777,0
1553636237.777,2.930,42.480,65.430,15.625,-1.953,0
1553636237.781,0.977,41.504,60.547,28.320,13.672,0
1553636237.785,10.254,43.457,55.176,13.672,51.758,0
1553636237.789,15.137,45.898,49.316,11.719,-22.461,0
1553636237.792,10.742,46.875,51.270,21.484,38.086,0
1553636237.796,8.301,49.316,48.340,23.926,108.887,0
1553636237.800,16.113,51.270,44.922,21.973,60.059,0
1553636237.804,20.508,50.293,48.828,19.043,41.016,0
1553636237.808,24.414,55.176,48.828,19.043,33.691,0
1553636237.812,33.203,58.105,45.898,30.762,103.516,0
1553636237.816,24.414,55.176,50.781,31.250,79.590,0
1553636237.820,19.531,55.664,53.223,25.391,4.395,0
1553636237.824,16.113,54.199,46.875,25.391,28.809,0
1553636237.828,13.672,51.270,45.898,20.020,61.035,0
1553636237.831,26.367,50.293,47.363,19.531,77.148,0
1553636237.835,20.508,45.410,48.340,21.973,53.223,0
1553636237.839,15.137,41.016,49.805,22.461,45.410,0
1553636237.843,27.832,43.457,48.828,30.762,61.035,0
1553636237.847,25.391,43.945,37.598,38.086,35.645,0
1553636237.851,23.926,47.363,33.691,36.621,5.371,0
1553636237.855,27.344,49.805,51.270,36.621,47.363,0
1553636237.859,29.297,48.340,60.059,26.367,100.586,0
1553636237.863,32.227,46.875,61.523,23.926,101.562,0
1553636237.867,23.926,47.363,58.105,24.902,18.555,0
1553636237.871,24.902,42.480,42.969,23.926,2.930,0
1553636237.874,33.691,40.039,41.504,28.320,67.383,0
1553636237.878,28.320,43.457,44.434,29.785,87.891,0
1553636237.882,15.137,46.387,36.133,33.691,53.223,0
1553636237.886,11.230,45.410,57.129,36.133,64.453,0
1553636237.890,14.648,40.039,69.336,33.203,67.871,0
1553636237.894,24.414,41.504,59.570,33.691,38.574,0
1553636237.898,25.391,42.480,54.688,33.203,-22.461,0
1553636237.902,19.043,42.480,50.293,27.832,16.602,0
1553636237.906,20.996,43.945,51.270,17.578,102.539,0
1553636237.910,18.555,44.922,50.293,20.020,63.965,0
1553636237.914,11.719,46.387,43.457,24.902,30.762,0
1553636237.917,6.836,45.898,50.293,26.855,52.246,0
1553636237.921,7.324,42.969,54.688,29.297,27.832,0
1553636237.925,6.836,40.527,58.105,28.809,-41.504,0
1553636237.929,14.648,41.016,57.617,36.621,-4.395,0
1553636237.933,28.320,44.922,50.293,36.133,38.574,0
1553636237.937,24.902,45.898,55.176,27.832,21.484,0
1553636237.941,17.578,40.039,61.035,32.227,45.410,0
1553636237.945,14.160,42.480,55.664,39.062,62.500,0
1553636237.949,22.949,43.457,51.270,37.598,19.531,0
1553636237.953,30.273,38.574,55.664,37.109,9.766,0
1553636237.956,22.461,38.086,57.129,43.945,35.645,0
1553636237.960,27.344,39.062,57.617,51.270,61.035,0
1553636237.964,36.621,38.574,58.105,53.223,55.176,0
1553636237.968,36.621,37.109,61.035,56.152,-18.555,0
1553636237.972,34.180,36.133,67.383,51.758,-33.691,0
1553636237.976,38.086,37.598,68.848,59.570,12.695,0
1553636237.980,40.527,31.250,70.801,71.289,39.551,0
1553636237.984,20.020,28.320,71.777,65.918,57.129,0
1553636237.988,15.137,24.414,73.242,71.289,58.594,0
1553636237.992,20.508,20.996,74.219,80.078,3.906,0
1553636237.996,20.996,22.949,74.707,81.055,38.574,0
1553636237.999,22.461,21.973,76.660,72.754,54.688,0
1553636238.003,29.297,21.973,73.242,61.523,36.621,0
1553636238.007,36.133,19.531,64.941,68.848,119.629,0
1553636238.011,28.320,22.461,68.848,58.594,125.488,0
1553636238.015,28.809,22.949,76.172,54.199,109.863,0
1553636238.019,29.785,20.508,75.195,62.012,29.785,0
1553636238.023,28.809,24.902,64.453,57.617,-15.137,0
1553636238.027,35.156,29.785,63.965,59.570,73.242,0
1553636238.031,29.785,30.762,72.754,58.105,88.867,0
1553636238.035,24.414,30.273,73.242,59.570,66.406,0
1553636238.039,29.785,32.715,69.824,61.035,78.613,0
1553636238.042,38.086,33.691,52.246,53.711,65.918,0
1553636238.046,33.691,34.180,57.617,41.992,17.578,0
1553636238.050,28.320,31.250,63.965,42.969,4.395,0
1553636238.054,19.531,28.809,62.500,48.340,55.664,0
1553636238.058,21.973,34.180,64.941,49.316,52.246,0
1553636238.062,27.344,38.086,67.383,43.457,38.086,0
1553636238.066,9.766,36.621,72.754,33.691,129.883,0
1553636238.070,10.254,36.133,65.430,33.203,122.070,0
1553636238.074,20.020,36.621,66.406,38.086,28.320,0
1553636238.078,20.508,38.086,68.848,42.969,50.293,0
1553636238.081,21.484,36.133,62.012,41.992,91.797,0
1553636238.085,23.438,34.180,60.547,48.340,116.211,0
1553636238.089,22.949,36.621,64.453,49.805,110.840,0
1553636238.093,20.020,39.062,62.988,43.457,59.082,0
1553636238.097,17.090,40.527,57.129,44.922,-7.324,0
1553636238.101,21.484,41.016,57.129,40.527,24.902,0
1553636238.105,28.320,45.410,57.129,40.039,90.332,0
1553636238.109,28.320,48.340,53.711,49.316,34.668,0
1553636238.113,26.855,42.969,53.223,37.109,-25.879,0
1553636238.117,26.855,43.945,56.152,42.969,39.062,0
1553636238.121,20.996,44.922,55.664,43.457,68.359,0
1553636238.124,15.137,38.574,53.711,39.551,6.348,0
1553636238.128,20.996,37.598,51.758,33.203,50.781,0
1553636238.132,21.484,37.109,51.758,27.832,81.543,0
1553636238.136,18.066,38.086,54.199,42.969,29.785,0
1553636238.140,22.949,43.457,52.734,45.410,72.754,0
1553636238.144,22.949,44.922,53.711,41.504,41.504,0
1553636238.148,25.391,40.527,51.270,40.039,20.508,0
1553636238.152,30.273,46.387,48.340,34.668,64.941,0
1553636238.156,26.855,52.246,51.758,42.969,51.758,0
1553636238.160,35.645,48.828,51.758,53.711,55.664,0
1553636238.164,31.738,40.527,56.152,51.270,29.785,0
1553636238.167,10.742,37.109,64.453,43.457,8.301,0
1553636238.171,2.441,41.016,57.129,29.785,-15.625,0
1553636238.175,9.766,41.504,43.457,42.480,-24.902,0
1553636238.179,14.648,40.527,48.340,43.945,32.227,0
1553636238.183,11.230,37.598,62.500,29.785,84.961,0
1553636238.187,8.789,34.180,68.359,34.668,92.285,0
1553636238.191,3.418,33.203,65.918,23.926,93.262,0
1553636238.195,5.371,32.715,69.336,24.902,88.867,0
1553636238.199,9.277,30.273,73.242,41.504,56.641,0
1553636238.203,16.602,34.668,66.895,38.086,116.211,0
1553636238.206,19.531,31.738,65.430,36.133,80.078,0
1553636238.210,18.555,29.785,66.406,37.598,50.293,0
1553636238.214,18.066,34.180,63.965,38.086,24.414,0
1553636238.218,13.184,35.156,63.477,41.016,21.484,0
1553636238.222,14.648,33.691,63.477,38.574,4.883,0
1553636238.226,17.578,33.203,66.895,33.203,20.508,0
1553636238.230,18.555,35.645,64.453,34.668,39.062,0
1553636238.234,16.602,35.645,59.082,35.156,65.430,0
1553636238.238,20.508,37.109,55.176,24.902,111.328,0
1553636238.242,20.996,39.062,58.594,31.738,71.289,0
1553636238.246,19.043,34.180,58.594,33.203,47.363,0
1553636238.249,19.043,34.180,59.082,29.785,8.789,0
1553636238.253,15.137,41.504,58.105,40.039,-12.695,0
1553636238.257,18.066,40.039,58.594,42.480,33.203,0
1553636238.261,21.973,38.086,64.453,36.621,19.043,0
1553636238.265,20.508,37.598,62.988,37.109,13.184,0
1553636238.269,26.367,38.086,56.152,36.621,-0.977,0
1553636238.273,23.926,39.062,55.176,34.668,33.691,0
1553636238.277,18.066,37.598,63.477,31.738,80.078,0
1553636238.281,19.043,39.062,59.570,20.996,40.039,0
1553636238.285,13.672,38.574,58.105,20.996,74.219,0
1553636238.289,14.648,37.598,62.988,36.133,20.996,0
1553636238.292,17.578,37.598,61.523,30.762,32.227,0
1553636238.296,21.484,39.551,61.035,24.414,85.449,0
1553636238.300,17.578,38.086,63.965,27.344,37.598,0
1553636238.304,24.902,39.062,58.594,25.879,73.242,0
1553636238.308,26.855,42.480,53.711,26.367,-1.465,0
1553636238.312,16.113,42.969,56.641,39.062,-23.926,0
1553636238.316,15.625,40.527,53.223,32.227,40.039,0
1553636238.320,22.461,38.574,53.223,28.320,-0.977,0
1553636238.324,16.113,41.992,54.199,36.133,1.953,0
1553636238.328,13.184,45.410,53.223,18.555,88.867,0
1553636238.331,20.020,47.363,59.570,20.996,75.684,0
1553636238.335,18.555,49.316,58.594,22.949,87.891,0
1553636238.339,9.766,47.852,56.152,16.602,141.113,0
1553636238.343,4.395,45.410,66.406,18.555,112.793,0
1553636238.347,19.043,38.086,68.359,38.086,49.805,0
1553636238.351,38.086,47.363,57.129,55.176,37.109,0
1553636238.355,21.484,60.059,56.641,32.227,54.199,0
1553636238.359,-15.625,49.805,66.895,-6.348,77.148,0
1553636238.363,-27.832,41.504,72.266,-18.555,24.902,0
1553636238.367,-41.504,50.293,67.871,-20.020,-3.418,0
1553636238.371,-66.406,61.523,66.895,-45.410,56.152,0
1553636238.374,-71.777,68.359,76.172,-60.547,82.031,0
1553636238.378,-87.402,73.242,77.637,-73.242,61.523,0
1553636238.382,-111.816,70.312,78.613,-83.984,78.125,0
1553636238.386,-116.699,66.895,82.031,-96.680,49.316,0
1553636238.390,-129.883,78.613,76.172,-134.277,-6.836,0
1553636238.394,-139.648,84.473,72.754,-137.695,-2.930,0
1553636238.398,-138.184,80.078,71.289,-127.441,47.852,0
1553636238.402,-150.391,83.984,81.055,-143.066,89.355,0
1553636238.406,-155.273,82.031,86.914,-145.996,63.477,0
1553636238.410,-138.672,85.938,63.965,-139.648,20.508,0
1553636238.414,-134.766,80.078,60.059,-140.137,41.016,0
1553636238.417,-129.395,66.406,37.109,-125.488,98.145,0
1553636238.421,-120.117,79.590,39.062,-117.676,83.984,0
1553636238.425,-120.117,86.914,83.008,-125.488,63.477,0
1553636238.429,-104.492,67.871,88.379,-114.258,97.168,0
1553636238.433,-89.355,56.152,74.219,-93.750,118.652,0
1553636238.437,-88.867,59.082,53.711,-75.195,41.016,0
1553636238.441,-72.266,50.293,30.762,-58.105,34.180,0
1553636238.445,-57.617,53.223,30.273,-43.457,45.898,0
1553636238.449,-43.457,66.895,45.898,-37.598,29.785,0
1553636238.453,-27.344,69.336,42.969,-38.086,8.301,0
1553636238.456,-10.742,66.895,38.086,-20.508,72.266,0
1553636238.460,2.441,62.988,36.621,-3.418,82.031,0
1553636238.464,3.418,56.641,23.438,-0.488,62.988,0
1553636238.468,10.742,56.641,-9.277,11.230,41.504,0
1553636238.472,7.812,58.105,3.418,21.484,71.777,0
1553636238.476,-4.395,47.852,44.434,14.160,81.543,0
1553636238.480,-6.348,37.598,56.152,14.648,65.918,0
1553636238.484,2.930,40.527,62.012,12.695,39.551,0
1553636238.488,9.277,45.898,60.059,21.973,44.922,0
1553636238.492,17.090,49.316,56.641,39.062,110.840,0
1553636238.496,27.344,50.781,64.941,39.551,60.059,0
1553636238.499,29.297,47.852,64.941,44.434,49.316,0
1553636238.503,35.645,47.852,67.383,41.016,61.035,0
1553636238.507,39.062,46.875,76.660,46.387,8.789,0
1553636238.511,30.762,43.945,84.473,46.387,-16.602,0
1553636238.515,32.227,43.945,90.820,46.875,23.438,0
1553636238.519,36.621,41.016,97.656,50.293,78.613,0
1553636238.523,37.109,36.621,96.680,45.898,77.637,0
1553636238.527,33.691,40.527,95.215,54.199,9.277,0
1553636238.531,38.086,41.016,102.539,60.547,12.695,0
1553636238.535,46.387,42.480,105.957,52.246,39.551,0
1553636238.539,50.293,45.898,100.098,47.852,33.691,0
1553636238.542,51.270,44.434,97.168,57.129,4.883,0
1553636238.546,41.992,45.898,98.145,66.895,14.648,0
1553636238.550,38.086,46.387,101.562,56.152,25.391,0
1553636238.554,39.551,45.410,99.609,47.363,43.457,0
1553636238.558,41.504,43.457,99.609,52.734,38.574,0
1553636238.562,42.969,42.480,100.098,51.270,18.066,0
1553636238.566,44.434,41.016,96.680,45.898,40.527,0
1553636238.570,45.410,43.457,93.262,44.922,71.777,0
1553636238.574,49.316,49.805,77.637,48.828,17.578,0
1553636238.578,49.805,47.852,67.871,46.387,-39.551,0
1553636238.581,47.852,41.016,82.520,48.828,27.832,0
1553636238.585,41.016,40.039,90.820,51.270,60.547,0
1553636238.589,38.086,39.062,80.078,44.922,-47.852,0
1553636238.593,45.898,41.016,73.730,46.875,79.102,0
1553636238.597,42.969,41.992,76.172,58.594,134.277,0
1553636238.601,26.855,38.086,68.848,44.922,20.996,0
1553636238.605,30.762,35.645,55.176,42.969,40.039,0
1553636238.609,39.062,40.527,59.570,44.922,88.379,0
1553636238.613,32.715,42.969,62.988,36.133,40.039,0
1553636238.617,25.391,41.504,46.875,35.645,-23.926,0
1553636238.621,30.273,39.551,44.434,34.180,44.922,0
1553636238.624,36.133,41.016,41.016,39.551,63.965,0
1553636238.628,40.039,40.527,40.039,46.387,35.645,0
1553636238.632,29.297,36.621,42.480,47.852,40.039,0
1553636238.636,20.996,36.133,33.203,32.227,27.344,0
1553636238.640,31.250,34.180,33.691,36.621,9.766,0
1553636238.644,36.621,35.156,35.156,47.852,65.918,0
1553636238.648,39.551,37.109,33.691,49.316,60.059,0
1553636238.652,34.180,35.156,35.156,58.594,48.828,0
1553636238.656,33.203,38.574,23.926,48.828,94.238,0
1553636238.660,35.645,43.945,21.484,35.156,77.148,0
1553636238.664,35.645,41.504,27.344,42.480,33.691,0
1553636238.667,33.691,42.480,22.461,41.992,40.527,0
1553636238.671,29.297,43.457,26.855,37.598,60.059,0
1553636238.675,32.227,43.945,19.043,41.016,38.086,0
1553636238.679,25.879,43.945,2.930,48.828,39.062,0
1553636238.683,21.484,41.504,10.254,45.410,6.836,0
1553636238.687,24.414,39.551,17.578,35.156,54.688,0
1553636238.691,17.578,40.039,29.297,33.691,98.633,0
1553636238.695,19.531,41.016,39.062,41.504,56.152,0
1553636238.699,27.344,43.945,40.039,43.945,28.809,0
1553636238.703,23.438,47.363,33.203,29.297,79.102,0
1553636238.706,25.391,46.387,26.855,39.551,62.012,0
1553636238.710,23.926,45.410,31.250,39.551,21.484,0
1553636238.714,25.391,45.410,28.809,31.738,33.691,0
1553636238.718,27.344,42.480,27.344,48.828,56.641,0
1553636238.722,17.578,44.922,28.809,53.711,25.879,0
1553636238.726,16.602,45.898,24.414,40.039,-57.129,0
1553636238.730,23.438,45.410,27.832,36.133,16.602,0
1553636238.734,19.043,47.363,32.227,42.480,70.801,0
1553636238.738,15.137,49.316,17.090,36.133,-28.809,0
1553636238.742,11.719,45.898,19.043,26.855,45.410,0
1553636238.746,13.672,41.992,27.832,34.180,109.375,0
1553636238.749,15.625,42.480,29.297,39.062,36.133,0
1553636238.753,23.926,43.945,44.922,45.410,28.809,0
1553636238.757,28.320,45.898,43.945,56.641,24.414,0
1553636238.761,27.344,45.410,30.273,52.734,5.859,0
1553636238.765,25.391,41.992,24.414,42.969,34.180,0
1553636238.769,22.461,42.480,37.109,40.039,33.203,0
1553636238.773,23.926,42.969,42.480,37.109,52.734,0
1553636238.777,15.625,43.945,40.039,39.062,5.859,0
1553636238.781,13.184,43.945,39.551,32.227,-1.953,0
1553636238.785,12.207,41.504,39.062,34.180,57.129,0
1553636238.789,9.766,41.504,37.109,44.922,96.191,0
1553636238.792,8.301,41.504,31.738,41.016,111.816,0
1553636238.796,0.977,41.992,32.715,26.367,41.016,0
1553636238.800,0.488,45.898,34.180,35.156,37.109,0
1553636238.804,15.625,41.504,41.992,42.480,26.855,0
1553636238.808,13.672,41.992,41.016,31.250,7.812,0
1553636238.812,0.488,45.410,29.785,30.762,41.016,0
1553636238.816,7.812,41.504,33.203,30.762,59.570,0
1553636238.820,14.648,46.387,37.109,31.250,34.180,0
1553636238.824,22.461,50.293,31.738,34.180,-8.301,0
1553636238.828,20.996,53.223,33.203,36.621,16.602,0
1553636238.831,29.785,59.082,21.484,44.922,67.383,0
1553636238.835,37.109,59.082,23.438,40.527,86.914,0
1553636238.839,27.344,57.617,42.969,41.992,69.824,0
1553636238.843,24.414,57.129,34.668,34.668,92.773,0
1553636238.847,26.855,54.199,22.949,24.414,80.566,0
1553636238.851,16.113,52.734,26.855,23.926,104.980,0
1553636238.855,13.672,52.246,36.133,20.020,92.773,0
1553636238.859,18.555,49.316,35.156,31.738,22.949,0
1553636238.863,20.508,48.340,37.598,37.598,66.895,0
1553636238.867,24.414,46.875,34.180,44.922,69.824,0
1553636238.871,20.508,45.898,15.625,40.039,63.965,0
1553636238.874,17.578,47.363,26.855,25.391,11.719,0
1553636238.878,23.438,49.805,43.945,33.203,12.695,0
1553636238.882,21.484,45.898,38.574,45.410,43.945,0
1553636238.886,21.484,45.898,37.598,35.156,43.945,0
1553636238.890,20.508,48.340,34.668,30.273,86.914,0
1553636238.894,21.973,44.434,33.203,31.738,52.246,0
1553636238.898,27.344,45.898,30.762,21.973,68.848,0
1553636238.902,21.973,48.828,35.156,35.156,87.402,0
1553636238.906,19.043,48.340,41.504,39.551,41.016,0
1553636238.910,23.926,49.316,31.250,29.785,24.902,0
1553636238.914,27.344,50.781,22.949,35.645,48.340,0
1553636238.917,26.855,49.805,34.668,41.504,18.066,0
1553636238.921,27.344,49.805,44.434,41.016,32.715,0
1553636238.925,32.227,48.828,41.992,44.922,96.191,0
1553636238.929,31.250,46.875,39.551,38.086,69.824,0
1553636238.933,23.438,46.875,35.156,37.109,104.492,0
1553636238.937,27.344,46.387,35.156,41.504,88.867,0
1553636238.941,32.715,45.410,41.992,37.598,30.273,0
1553636238.945,22.461,48.828,38.574,44.434,22.461,0
1553636238.949,18.066,49.316,33.203,48.340,-32.715,0
1553636238.953,23.438,44.922,34.180,41.992,-33.203,0
1553636238.956,21.973,43.945,42.480,43.945,-18.555,0
1553636238.960,22.461,44.922,42.480,51.758,27.832,0
1553636238.964,24.414,45.410,41.504,51.270,92.285,0
1553636238.968,22.949,44.434,38.086,47.363,45.898,0
1553636238.972,13.184,48.340,35.156,40.039,95.215,0
1553636238.976,13.672,49.316,40.039,32.715,40.527,0
1553636238.980,30.762,54.199,35.645,41.504,-0.977,0
1553636238.984,41.504,54.199,38.086,46.387,64.453,0
1553636238.988,31.250,46.387,45.410,41.016,51.270,0
1553636238.992,28.320,48.828,46.875,38.574,47.363,0
1553636238.996,35.645,48.828,39.062,46.387,59.082,0
1553636238.999,47.852,42.969,39.551,66.406,24.902,0
1553636239.003,50.781,39.062,49.316,66.406,11.230,0
1553636239.007,46.875,35.645,50.293,65.430,36.621,0
1553636239.011,55.176,30.273,54.199,80.078,71.777,0
1553636239.015,46.875,30.762,53.711,77.637,23.438,0
1553636239.019,40.527,29.297,55.176,80.078,41.016,0
1553636239.023,52.734,30.273,52.734,79.102,41.016,0
1553636239.027,62.012,32.227,53.711,79.590,21.973,0
1553636239.031,59.082,30.273,58.105,83.008,37.598,0
1553636239.035,51.758,33.691,54.688,74.707,50.293,0
1553636239.039,63.965,35.156,39.062,79.590,42.480,0
1553636239.042,62.988,36.133,41.992,69.336,47.852,0
1553636239.046,57.617,33.203,62.500,62.988,58.594,0
1553636239.050,57.129,33.203,61.523,68.359,23.926,0
1553636239.054,47.852,34.668,58.105,66.406,22.461,0
1553636239.058,54.199,36.133,48.828,65.918,18.555,0
1553636239.062,52.734,35.645,46.875,73.730,41.016,0
1553636239.066,32.715,31.250,51.270,76.172,25.879,0
1553636239.070,30.762,31.250,52.246,66.895,70.312,0
1553636239.074,40.039,37.598,54.199,70.801,91.797,0
1553636239.078,35.156,41.504,46.875,67.871,82.031,0
1553636239.081,28.809,38.086,44.434,46.387,104.004,0
1553636239.085,25.879,35.156,56.152,40.527,51.758,0
1553636239.089,30.273,39.062,59.082,43.457,51.758,0
1553636239.093,32.715,40.039,53.711,41.016,119.141,0
1553636239.097,25.391,40.527,52.734,43.945,43.945,0
1553636239.101,20.996,41.016,49.805,41.992,0.488,0
1553636239.105,20.020,37.598,49.316,41.992,103.516,0
1553636239.109,20.020,36.621,50.293,34.668,134.766,0
1553636239.113,17.578,35.645,53.711,24.414,71.289,0
1553636239.117,19.043,37.109,48.828,27.832,33.203,0
1553636239.121,19.531,35.645,32.715,35.156,-8.789,0
1553636239.124,20.020,35.645,32.227,41.016,-1.465,0
1553636239.128,24.414,41.504,44.922,40.527,50.781,0
1553636239.132,28.320,41.504,56.641,44.434,7.812,0
1553636239.136,29.297,41.992,52.246,49.316,47.363,0
1553636239.140,30.273,41.016,39.062,38.086,90.820,0
1553636239.144,26.855,40.039,32.227,39.062,78.613,0
1553636239.148,26.367,39.062,45.410,41.504,95.215,0
1553636239.152,30.273,38.086,62.988,30.273,67.383,0
1553636239.156,26.367,38.086,43.945,40.527,67.871,0
1553636239.160,22.949,41.016,25.391,48.828,32.715,0
1553636239.164,21.484,41.016,45.898,31.250,-7.324,0
1553636239.167,20.996,40.039,60.547,21.484,78.613,0
1553636239.171,23.926,41.504,54.688,29.297,91.797,0
1553636239.175,30.762,43.945,51.270,38.574,19.531,0
1553636239.179,32.715,44.922,54.199,37.598,12.207,0
1553636239.183,23.926,41.016,51.270,35.645,19.043,0
1553636239.187,28.320,37.598,32.715,36.621,-4.395,0
1553636239.191,36.621,38.086,40.039,35.645,-24.414,0
1553636239.195,31.738,40.039,62.500,37.109,26.855,0
1553636239.199,20.996,41.992,52.734,45.410,80.566,0
1553636239.203,16.602,39.062,46.875,42.480,34.668,0
1553636239.206,20.508,37.598,55.664,27.344,15.625,0
1553636239.210,16.602,37.109,62.012,23.438,83.984,0
1553636239.214,11.719,37.598,62.988,27.832,116.211,0
1553636239.218,18.066,41.504,59.570,37.598,40.527,0
1553636239.222,15.625,42.969,51.758,35.156,44.434,0
1553636239.226,16.113,41.992,50.781,19.043,125.000,0
1553636239.230,18.066,43.945,50.781,20.508,26.367,0
1553636239.234,16.602,37.598,46.387,32.715,-20.020,0
1553636239.238,20.508,37.598,54.199,30.762,-4.395,0
1553636239.242,17.578,47.852,54.688,27.344,-4.883,0
1553636239.246,14.648,44.922,51.758,20.508,39.551,0
1553636239.249,20.996,42.480,47.363,27.344,58.594,0
1553636239.253,16.602,41.992,52.246,25.879,26.367,0
1553636239.257,12.207,43.945,64.941,21.484,41.016,0
1553636239.261,15.625,42.969,53.223,29.785,58.105,0
1553636239.265,17.090,39.551,43.945,25.391,35.645,0
1553636239.269,20.020,40.527,56.641,23.438,61.523,0
1553636239.273,19.043,41.504,58.105,22.949,29.785,0
1553636239.277,19.531,42.969,53.223,33.203,64.941,0
1553636239.281,20.508,41.016,52.246,39.062,85.449,0
1553636239.285,20.508,37.598,48.340,24.414,64.941,0
1553636239.289,21.973,37.109,38.086,16.602,51.758,0
1553636239.292,19.531,38.574,51.758,17.578,22.461,0
1553636239.296,21.484,42.480,61.523,22.949,-4.883,0
1553636239.300,21.484,43.457,52.734,16.113,6.836,0
1553636239.304,19.531,39.551,49.805,14.160,68.359,0
1553636239.308,22.461,38.086,48.828,29.297,56.641,0
1553636239.312,22.949,39.062,48.340,30.762,31.738,0
1553636239.316,20.020,37.109,48.828,12.207,61.523,0
1553636239.320,19.043,38.574,52.734,14.648,-4.883,0
1553636239.324,18.555,41.016,47.363,24.902,48.340,0
1553636239.328,25.391,34.180,49.316,39.551,87.402,0
1553636239.331,30.273,41.016,50.293,41.992,48.828,0
1553636239.335,9.766,47.363,46.875,17.578,54.199,0
1553636239.339,-12.207,41.992,42.480,-2.441,36.621,0
1553636239.343,-18.555,41.504,43.945,-18.066,49.805,0
1553636239.347,-14.648,41.016,42.480,-7.812,72.754,0
1553636239.351,-19.043,52.734,35.645,-24.902,92.285,0
1553636239.355,-48.340,53.223,34.180,-54.199,99.609,0
1553636239.359,-35.156,44.922,19.531,-30.762,69.824,0
1553636239.363,-41.504,53.223,16.113,-59.082,86.426,0
1553636239.367,-72.266,46.387,36.621,-82.520,109.375,0
1553636239.371,-61.523,38.574,32.227,-50.293,84.473,0
1553636239.374,-48.828,45.898,22.461,-53.711,29.785,0
1553636239.378,-41.992,46.387,22.949,-60.059,-51.758,0
1553636239.382,-35.645,48.828,30.762,-44.434,-58.594,0
1553636239.386,-31.738,48.828,39.551,-34.668,11.230,0
1553636239.390,-26.367,43.457,35.156,-33.691,53.711,0
1553636239.394,-15.625,46.875,33.203,-26.367,96.191,0
1553636239.398,-12.207,50.293,26.855,-14.160,56.641,0
1553636239.402,-11.230,51.270,29.785,-5.371,79.102,0
1553636239.406,-3.418,53.711,33.691,0.488,157.227,0
1553636239.410,2.930,50.781,31.250,1.953,125.977,0
1553636239.414,5.371,44.434,35.156,-1.953,48.340,0
1553636239.417,3.906,43.945,34.668,12.207,-12.207,0
1553636239.421,7.324,44.922,29.297,16.113,14.160,0
1553636239.425,11.230,41.992,34.180,4.395,74.707,0
1553636239.429,14.160,41.992,39.062,6.836,103.516,0
1553636239.433,16.113,37.109,37.598,17.090,65.918,0
1553636239.437,10.254,39.062,35.156,13.184,52.734,0
1553636239.441,6.836,46.387,37.598,2.930,18.066,0
1553636239.445,8.301,44.434,39.551,8.301,5.859,0
1553636239.449,10.742,42.969,37.109,12.695,89.355,0
1553636239.453,17.090,45.410,34.668,4.395,30.762,0
1553636239.456,20.508,47.363,38.086,10.254,46.387,0
1553636239.460,18.066,42.480,38.086,17.578,60.059,0
1553636239.464,24.414,44.434,33.691,21.973,9.766,0
1553636239.468,33.203,48.340,34.668,20.508,65.430,0
1553636239.472,29.297,46.387,31.250,17.090,72.754,0
1553636239.476,25.391,46.875,31.738,23.926,55.176,0
1553636239.480,28.320,45.898,39.551,25.879,39.551,0
1553636239.484,26.367,42.969,34.180,25.879,63.477,0
1553636239.488,24.902,46.875,34.180,27.832,63.965,0
1553636239.492,22.949,42.480,48.340,30.762,41.992,0
1553636239.496,23.438,40.039,33.691,33.691,3.906,0
1553636239.499,27.832,41.504,16.113,32.227,22.949,0
1553636239.503,20.996,35.645,38.574,33.203,106.445,0
1553636239.507,17.578,38.086,42.969,29.297,37.109,0
1553636239.511,16.602,44.922,43.945,24.902,36.133,0
1553636239.515,14.648,46.387,36.621,20.020,95.215,0
1553636239.519,17.578,44.922,35.645,21.484,67.871,0
1553636239.523,20.508,42.480,49.805,26.855,45.410,0
1553636239.527,32.715,41.992,46.387,27.344,20.996,0
1553636239.531,37.598,44.922,42.969,36.621,4.883,0
1553636239.535,39.062,43.457,44.922,45.410,24.414,0
1553636239.539,30.273,41.016,42.969,48.828,3.906,0
1553636239.542,23.926,42.480,41.016,37.109,30.273,0
1553636239.546,33.203,43.457,45.898,40.527,98.633,0
1553636239.550,30.762,41.504,42.969,46.875,69.336,0
1553636239.554,22.949,38.574,37.598,33.203,76.172,0
1553636239.558,21.484,40.039,44.434,33.691,83.496,0
1553636239.562,24.902,41.504,45.410,39.551,44.434,0
1553636239.566,22.949,42.969,46.875,32.227,35.645,0
1553636239.570,28.320,43.457,45.898,35.645,29.785,0
1553636239.574,31.738,41.992,40.527,41.504,-19.531,0
1553636239.578,30.273,42.480,40.039,43.945,-3.906,0
1553636239.581,37.109,42.480,30.273,47.852,14.160,0
1553636239.585,30.762,40.527,40.527,40.039,40.527,0
1553636239.589,27.344,37.598,57.129,34.668,116.211,0
1553636239.593,28.809,39.062,51.758,26.855,110.352,0
1553636239.597,26.367,40.039,45.898,25.879,24.902,0
1553636239.601,24.414,35.156,41.992,26.855,38.086,0
1553636239.605,22.461,34.180,37.109,24.902,95.703,0
1553636239.609,28.320,41.504,41.992,32.227,77.637,0
1553636239.613,29.785,44.922,38.574,38.574,4.883,0
1553636239.617,23.926,41.992,35.645,27.344,23.926,0
1553636239.621,24.902,41.016,46.387,27.832,90.332,0
1553636239.624,28.809,39.551,49.805,33.691,60.059,0
1553636239.628,22.949,38.086,47.852,23.438,47.852,0
1553636239.632,24.902,39.062,41.992,27.344,5.371,0
1553636239.636,30.762,39.551,44.434,34.668,10.742,0
1553636239.640,32.715,38.574,44.922,35.645,83.496,0
1553636239.644,33.203,37.598,43.457,29.785,11.719,0
1553636239.648,35.645,37.109,45.898,21.973,-1.953,0
1553636239.652,41.016,36.621,40.527,28.320,30.762,0
1553636239.656,36.133,37.109,43.945,28.809,44.922,0
1553636239.660,20.508,35.156,48.828,29.297,59.082,0
1553636239.664,14.160,34.668,43.457,33.203,49.316,0
1553636239.667,9.277,35.156,42.969,25.879,33.203,0
1553636239.671,8.789,35.156,41.992,33.203,19.531,0
1553636239.675,9.277,38.086,41.504,33.203,21.484,0
1553636239.679,8.301,36.133,41.504,26.367,14.160,0
1553636239.683,14.160,34.668,43.457,41.016,17.578,0
1553636239.687,16.602,39.551,42.480,42.480,45.410,0
1553636239.691,18.066,42.969,35.156,31.250,34.180,0
1553636239.695,15.137,42.969,39.062,19.531,51.758,0
1553636239.699,16.113,41.016,54.199,19.531,111.816,0
1553636239.703,20.508,40.527,58.105,27.344,75.684,0
1553636239.706,25.391,37.109,48.828,34.668,60.547,0
1553636239.710,34.180,41.992,45.898,47.363,50.781,0
1553636239.714,29.785,44.922,51.270,35.156,-25.879,0
1553636239.718,24.414,40.527,48.828,23.926,28.320,0
1553636239.722,33.203,43.457,46.875,30.273,59.082,0
1553636239.726,38.086,42.969,40.527,33.203,34.180,0
1553636239.730,31.250,44.434,38.574,32.715,74.707,0
1553636239.734,21.484,47.852,41.504,20.508,82.031,0
1553636239.738,19.531,41.992,41.504,21.973,34.668,0
1553636239.742,26.367,43.457,44.922,29.297,30.762,0
1553636239.746,31.250,47.363,32.227,27.832,69.824,0
1553636239.749,26.367,47.852,26.367,25.879,66.895,0
1553636239.753,28.809,46.387,34.668,20.508,50.293,0
1553636239.757,28.809,43.457,39.551,22.461,52.246,0
1553636239.761,29.297,41.992,41.992,23.438,60.059,0
1553636239.765,27.344,44.434,41.016,25.391,20.996,0
1553636239.769,20.996,43.945,37.109,30.273,18.555,0
1553636239.773,21.484,39.551,28.809,39.551,25.391,0
1553636239.777,22.461,38.574,29.785,39.062,42.969,0
1553636239.781,23.926,40.039,35.156,24.902,66.895,0
1553636239.785,21.484,37.598,43.945,18.066,49.316,0
1553636239.789,19.531,36.621,54.688,29.297,15.137,0
1553636239.792,22.461,38.086,51.270,35.156,-14.160,0
1553636239.796,23.438,31.738,48.340,40.039,64.941,0
1553636239.800,29.785,38.574,42.480,43.945,102.051,0
1553636239.804,28.320,46.387,30.762,30.273,50.293,0
1553636239.808,23.926,41.016,41.992,27.832,66.406,0
1553636239.812,16.602,36.621,49.805,29.297,37.109,0
1553636239.816,18.066,37.109,41.504,34.668,34.668,0
1553636239.820,23.438,38.574,42.969,43.945,77.148,0
1553636239.824,20.020,40.039,43.457,33.203,83.496,0
1553636239.828,30.762,39.551,49.805,32.715,88.867,0
1553636239.831,31.250,38.086,47.363,37.598,85.938,0
1553636239.835,20.996,41.504,41.016,41.992,43.457,0
1553636239.839,24.902,42.969,33.203,34.668,5.859,0
1553636239.843,27.832,41.016,33.691,35.645,39.551,0
1553636239.847,32.227,40.527,48.340,42.480,68.848,0
1553636239.851,32.715,41.992,47.363,36.133,81.543,0
1553636239.855,24.902,42.480,43.945,32.715,49.805,0
1553636239.859,27.832,43.457,43.945,32.227,37.598,0
1553636239.863,28.809,41.992,40.039,34.180,60.547,0
1553636239.867,21.973,42.480,45.410,31.738,26.367,0
1553636239.871,21.973,40.527,50.781,28.809,25.879,0
1553636239.874,30.273,41.504,47.852,23.926,34.180,0
1553636239.878,23.926,44.434,46.875,20.996,51.270,0
1553636239.882,18.555,43.945,48.828,30.273,24.414,0
1553636239.886,23.926,45.898,40.527,23.438,43.457,0
1553636239.890,31.738,47.363,26.367,26.367,11.230,0
1553636239.894,47.363,39.062,34.668,55.664,-26.855,0
1553636239.898,18.066,33.203,59.082,44.922,75.195,0
1553636239.902,-18.066,37.109,62.988,19.531,83.496,0
1553636239.906,-13.184,38.574,53.223,9.766,22.461,0
1553636239.910,-22.461,36.133,47.852,0.000,13.184,0
1553636239.914,-42.480,28.320,40.527,-6.836,62.012,0
1553636239.917,-50.781,24.902,45.410,-18.066,132.812,0
1553636239.921,-57.129,24.414,61.523,-28.320,86.426,0
1553636239.925,-69.824,22.461,60.059,-39.062,48.828,0
1553636239.929,-64.453,20.996,54.688,-41.016,129.395,0
1553636239.933,-52.734,19.043,56.641,-31.250,103.027,0
1553636239.937,-58.594,19.531,55.664,-19.043,17.090,0
1553636239.941,-52.734,19.531,51.270,-14.160,-20.020,0
1553636239.945,-42.480,22.949,48.340,-12.695,27.832,0
1553636239.949,-38.574,22.461,49.316,-13.672,67.383,0
1553636239.953,-35.156,20.996,53.711,1.465,58.594,0
1553636239.956,-27.344,22.949,46.875,7.324,81.543,0
1553636239.960,-23.438,26.367,49.316,1.465,90.820,0
1553636239.964,-16.113,26.367,57.617,12.207,49.805,0
1553636239.968,-12.207,27.344,54.688,12.207,47.363,0
1553636239.972,-9.766,27.344,52.246,13.672,12.695,0
1553636239.976,-10.742,22.461,50.293,16.113,58.594,0
1553636239.980,-10.254,26.367,47.852,17.578,74.707,0
1553636239.984,-4.883,29.297,46.875,13.672,-49.316,0
1553636239.988,-0.977,26.855,38.086,20.508,-55.176,0
1553636239.992,5.371,27.344,45.898,27.832,25.879,0
1553636239.996,2.930,26.855,56.641,26.855,36.133,0
1553636239.999,1.465,28.320,44.434,29.297,33.691,0
1553636240.003,7.812,29.297,40.527,31.738,52.734,0
1553636240.007,6.836,25.391,48.828,36.621,26.367,0
1553636240.011,-1.465,28.320,42.480,27.832,45.898,0
1553636240.015,-1.953,32.227,36.133,15.625,116.211,0
1553636240.019,-1.953,28.809,50.293,20.996,38.086,0
1553636240.023,-4.883,29.785,55.664,20.508,13.672,0
1553636240.027,-2.441,32.227,48.828,17.578,66.895,0
1553636240.031,0.000,30.273,43.945,31.250,39.551,0
1553636240.035,0.977,33.203,42.969,34.180,84.473,0
1553636240.039,9.277,33.203,44.434,31.250,95.703,0
1553636240.042,13.184,35.156,50.293,36.133,20.996,0
1553636240.046,9.766,37.109,41.016,37.109,99.121,0
1553636240.050,20.020,38.086,41.016,40.527,83.496,0
1553636240.054,20.996,42.480,47.852,41.992,4.395,0
1553636240.058,13.184,39.551,41.504,32.715,67.871,0
1553636240.062,15.625,35.156,38.086,32.227,53.711,0
1553636240.066,12.207,36.621,47.363,27.832,144.043,0
1553636240.070,17.578,35.156,45.898,30.273,150.391,0
1553636240.074,19.043,33.203,37.109,35.156,15.625,0
1553636240.078,19.043,36.621,38.574,36.621,51.758,0
1553636240.081,31.250,35.156,42.480,52.734,34.180,0
1553636240.085,23.438,37.109,53.711,43.945,12.695,0
1553636240.089,6.348,42.969,46.387,31.738,32.227,0
1553636240.093,20.508,40.527,33.691,42.480,36.133,0
1553636240.097,28.809,37.598,41.992,65.430,4.883,0
1553636240.101,26.367,33.691,50.293,64.453,44.922,0
1553636240.105,41.016,33.203,45.898,60.547,83.008,0
1553636240.109,46.387,33.203,43.457,70.801,59.570,0
1553636240.113,38.574,30.273,52.734,62.012,94.727,0
1553636240.117,40.527,27.344,52.734,64.453,79.102,0
1553636240.121,47.363,29.785,47.852,78.125,55.664,0
1553636240.124,52.246,31.738,44.922,77.148,97.656,0
1553636240.128,54.688,33.203,36.621,71.289,86.426,0
1553636240.132,56.152,36.621,41.992,72.754,-20.996,0
1553636240.136,50.293,34.668,46.875,69.824,9.277,0
1553636240.140,50.781,34.668,55.664,62.500,59.570,0
1553636240.144,47.363,40.039,48.828,75.195,54.688,0
1553636240.148,36.133,36.621,33.691,73.242,76.172,0
1553636240.152,41.992,32.715,50.293,53.711,39.551,0
1553636240.156,38.086,35.156,58.105,57.617,78.613,0
1553636240.160,34.180,35.156,45.410,67.871,98.145,0
1553636240.164,31.738,32.227,37.598,45.898,34.180,0
1553636240.167,27.344,34.668,44.434,37.109,61.523,0
1553636240.171,26.367,36.133,50.781,53.223,95.215,0
1553636240.175,22.949,27.344,46.875,49.805,84.473,0
1553636240.179,20.996,31.250,46.875,59.570,47.852,0
1553636240.183,27.344,49.805,50.293,62.988,-24.414,0
1553636240.187,26.367,50.293,44.922,49.316,21.973,0
1553636240.191,22.949,42.480,39.551,43.457,78.613,0
1553636240.195,19.043,37.109,42.969,48.340,87.402,0
1553636240.199,19.043,37.109,54.199,43.457,71.289,0
1553636240.203,22.949,38.086,57.129,41.504,61.035,0
1553636240.206,22.461,34.668,50.781,47.363,43.457,0
1553636240.210,24.414,24.902,47.363,50.781,-3.906,0
1553636240.214,28.809,21.484,49.805,75.684,-2.441,0
1553636240.218,20.020,42.480,50.293,46.387,6.348,0
1553636240.222,13.672,52.734,48.340,19.531,43.457,0
1553636240.226,28.320,47.852,45.898,66.406,-4.883,0
1553636240.230,30.273,45.898,46.875,89.355,-19.043,0
1553636240.234,27.344,42.969,44.434,19.531,42.969,0
1553636240.238,11.230,43.457,39.062,-3.418,54.199,0
1553636240.242,-1.953,41.016,35.645,32.715,17.578,0
1553636240.246,12.695,38.574,29.297,37.598,69.336,0
1553636240.249,16.113,38.086,34.668,38.086,109.375,0
1553636240.253,17.090,36.133,53.711,41.504,20.996,0
1553636240.257,20.508,37.109,56.641,42.969,-5.859,0
1553636240.261,24.902,34.668,48.828,37.109,55.664,0
1553636240.265,41.016,31.250,50.293,53.223,39.551,0
