timestamps,TP9,AF7,AF8,TP10,Right AUX,Marker0
16157.606,5.859,32.227,33.203,16.113,69.336,0
16157.610,6.348,30.762,36.133,15.137,0.977,0
16157.614,20.020,24.902,29.785,25.391,40.039,0
16157.618,20.508,23.438,31.738,31.738,59.570,0
16157.622,6.836,26.367,41.992,27.832,7.324,0
16157.626,0.977,29.297,41.016,24.414,-4.395,0
16157.629,17.090,23.926,31.250,33.203,1.465,0
16157.633,23.926,21.973,32.227,38.086,45.898,0
16157.637,8.789,26.367,41.016,33.691,0.488,0
16157.641,-9.766,32.715,43.457,23.438,6.836,0
16157.645,3.906,26.855,36.133,28.320,69.336,0
16157.649,19.531,21.973,28.809,35.156,18.555,0
16157.653,10.742,29.297,31.738,29.785,-14.648,0
16157.657,0.000,31.738,37.598,18.555,-4.883,0
16157.661,5.371,26.855,33.691,16.113,40.527,0
16157.665,20.508,25.879,28.809,23.438,37.109,0
16157.669,21.973,28.809,31.738,23.926,19.043,0
16157.672,8.301,31.738,34.668,13.672,45.898,0
16157.676,5.371,30.273,33.203,10.254,60.547,0
16157.680,11.230,26.367,26.855,20.020,50.293,1
16157.684,6.348,29.297,27.344,28.809,60.059,0
16157.688,-8.789,34.180,34.668,23.438,27.832,0
16157.692,-14.160,36.133,37.598,17.578,-27.344,0
16157.696,2.930,28.320,32.227,27.344,38.574,0
16157.700,9.766,24.414,28.320,29.297,33.203,0
16157.704,-2.930,32.227,33.691,22.949,46.387,0
16157.708,-11.230,37.109,37.598,15.625,39.551,0
16157.712,-1.953,32.227,29.785,19.531,-13.184,0
16157.715,12.695,28.320,25.879,30.762,-34.668,0
16157.719,7.324,27.832,28.809,29.785,4.395,0
16157.723,-7.324,31.738,33.203,17.578,53.711,0
16157.727,-4.395,32.715,31.250,17.090,33.203,0
16157.731,15.625,26.855,29.297,29.297,21.484,0
16157.735,23.438,27.832,32.227,33.691,3.418,0
16157.739,4.883,33.691,33.203,28.809,27.344,0
16157.743,2.441,34.180,35.156,29.785,50.293,0
16157.747,19.531,28.809,31.738,36.621,62.500,0
16157.751,25.391,26.367,30.273,41.016,68.359,0
16157.754,16.113,29.297,32.227,34.668,46.387,0
16157.758,4.395,36.133,31.250,22.461,73.730,0
16157.762,18.555,35.645,28.809,29.297,53.223,0
16157.766,27.344,31.738,29.297,32.715,5.859,0
16157.770,16.602,33.691,30.762,27.344,35.156,0
16157.774,1.953,37.109,35.156,20.996,70.312,0
16157.778,9.277,31.250,31.738,19.531,58.594,0
16157.782,26.367,24.902,27.344,28.809,56.641,0
16157.786,27.344,30.273,30.273,29.297,38.574,0
16157.790,12.207,38.086,36.133,21.973,22.949,0
16157.794,10.742,36.133,35.645,25.391,52.734,0
16157.797,21.973,28.320,27.344,33.691,14.160,0
16157.801,20.996,26.855,29.785,29.785,-10.742,0
16157.805,10.254,32.227,39.062,21.484,5.859,0
16157.809,3.418,33.691,41.992,21.484,45.410,0
16157.813,21.484,30.273,36.621,28.809,58.105,0
16157.817,33.691,30.273,34.180,34.180,52.246,0
16157.821,23.926,35.156,40.527,28.809,54.199,0
16157.825,12.207,40.039,43.945,20.020,0.488,0
16157.829,23.926,33.203,37.598,25.391,14.160,0
16157.833,37.598,31.250,33.691,34.180,3.906,0
16157.837,34.668,35.156,37.109,30.762,-45.898,0
16157.840,20.020,39.062,38.086,23.926,-9.766,0
16157.844,18.555,34.668,35.645,29.297,30.273,0
16157.848,24.902,27.344,34.668,38.086,-5.859,0
16157.852,19.043,28.320,34.180,36.133,16.602,0
16157.856,5.859,30.273,34.668,28.809,37.109,0
16157.860,3.906,29.297,32.715,27.344,49.805,0
16157.864,16.602,27.344,29.785,34.668,22.461,0
16157.868,20.996,31.250,29.785,37.598,1.953,0
16157.872,6.348,34.180,35.156,31.250,51.270,0
16157.876,-2.441,33.691,41.016,25.879,-2.930,0
16157.879,16.602,28.320,34.180,35.156,-16.113,0
16157.883,28.320,26.855,29.785,40.527,38.574,0
16157.887,19.531,31.738,35.156,34.180,42.969,0
16157.891,11.230,35.645,42.969,25.879,16.602,0
16157.895,20.996,33.691,37.598,30.273,46.875,0
16157.899,31.250,29.297,32.715,31.738,69.824,0
16157.903,26.367,28.809,35.156,22.949,48.340,0
16157.907,14.648,32.227,39.062,16.113,66.895,0
16157.911,21.973,27.344,35.645,20.020,50.781,0
16157.915,41.992,23.926,27.832,25.879,22.461,0
16157.919,39.551,27.832,30.273,28.320,10.742,0
16157.922,22.461,37.598,37.109,20.996,9.277,0
16157.926,23.926,38.574,35.645,13.672,37.109,0
16157.930,42.969,29.785,26.855,19.531,68.848,0
16157.934,43.945,29.785,25.391,24.414,19.043,0
16157.938,29.785,37.109,32.227,20.020,-6.836,0
16157.942,25.879,38.574,35.156,13.184,-1.953,0
16157.946,34.668,28.809,25.879,14.648,-10.254,0
16157.950,37.109,22.461,20.020,19.043,-3.418,0
16157.954,31.250,29.785,25.879,15.137,47.852,0
16157.958,23.438,35.156,32.227,7.324,46.387,0
16157.962,32.715,30.762,26.855,14.648,-2.441,0
16157.965,45.410,26.855,21.973,25.391,40.527,0
16157.969,39.062,29.785,25.879,28.320,52.246,0
16157.973,24.414,33.203,33.203,18.066,27.344,0
16157.977,22.461,26.367,30.273,15.625,20.508,0
16157.981,37.109,25.879,26.367,26.367,12.207,0
16157.985,33.691,32.227,27.344,25.879,27.832,0
16157.989,12.207,35.156,31.250,21.973,-6.836,0
16157.993,5.859,33.203,31.250,17.090,-4.395,0
16157.997,23.926,27.344,22.461,19.043,48.828,0
16158.001,25.879,25.879,20.996,24.414,38.574,0
16158.004,4.883,28.809,23.926,19.043,-19.531,0
16158.008,-0.977,32.227,25.879,9.766,-63.477,0
16158.012,19.043,29.785,24.902,15.625,35.645,0
16158.016,31.250,28.809,22.949,27.344,15.625,0
16158.020,20.020,30.762,25.879,20.020,-3.906,0
16158.024,2.441,35.156,33.203,10.742,14.648,0
16158.028,3.418,31.250,27.832,15.137,-4.395,0
16158.032,18.555,23.438,19.531,20.996,29.785,0
16158.036,21.484,22.461,21.973,16.113,39.551,0
16158.040,9.277,28.320,26.367,9.766,47.852,0
16158.044,14.160,31.738,23.926,13.184,29.785,0
16158.047,29.785,27.344,19.531,21.484,-21.484,0
16158.051,23.438,28.809,23.926,23.926,3.906,0
16158.055,7.812,36.621,32.227,21.484,40.527,0
16158.059,10.742,36.621,37.598,25.391,55.664,0
16158.063,32.227,29.297,31.250,29.297,14.648,0
16158.067,40.527,27.832,27.344,31.250,11.230,0
16158.071,25.391,31.250,33.691,24.414,52.734,0
16158.075,6.836,34.668,36.621,13.672,6.348,0
16158.079,17.090,28.809,31.250,13.672,-26.855,0
16158.083,37.598,28.809,28.320,25.391,-45.410,0
16158.087,33.203,32.715,34.180,27.344,-0.488,0
16158.090,16.602,33.203,39.551,20.020,61.523,0
16158.094,21.973,29.785,36.133,25.879,55.176,0
16158.098,36.621,21.484,33.203,35.645,19.531,0
16158.102,40.527,23.926,37.109,43.945,19.043,0
16158.106,25.879,35.645,41.504,47.363,42.480,0
16158.110,18.066,35.645,40.039,51.758,44.434,0
16158.114,37.598,26.855,33.203,62.988,38.574,0
16158.118,40.039,27.832,34.180,63.477,51.758,0
16158.122,27.344,35.645,40.527,41.504,56.152,0
16158.126,20.996,40.527,39.062,12.207,12.207,0
16158.129,35.156,32.715,29.297,5.859,1.465,0
16158.133,42.480,25.879,28.809,16.602,10.742,0
16158.137,33.203,32.227,37.598,17.090,43.457,0
16158.141,26.855,38.574,42.480,11.719,26.855,0
16158.145,38.086,30.762,36.133,17.578,41.504,0
16158.149,48.340,26.367,29.785,28.320,55.176,0
16158.153,38.086,31.738,33.203,31.250,-1.953,0
16158.157,21.484,36.133,38.086,23.438,46.387,0
16158.161,26.855,33.691,33.203,20.996,25.391,0
16158.165,46.875,31.250,28.809,31.250,3.418,0
16158.169,38.086,30.273,31.738,35.645,14.648,0
16158.172,11.719,33.203,34.668,27.344,14.160,0
16158.176,9.766,30.273,36.133,23.926,61.035,0
16158.180,22.461,21.484,32.227,33.691,26.367,0
16158.184,23.438,19.531,35.156,42.969,-15.137,0
16158.188,12.207,20.996,39.062,33.203,16.113,0
16158.192,0.977,24.902,37.598,23.926,48.828,0
16158.196,18.066,26.367,31.250,31.250,26.367,0
16158.200,24.414,26.855,28.320,36.133,33.691,0
16158.204,4.395,28.809,35.156,35.156,36.133,0
16158.208,-6.348,31.738,40.039,26.367,43.945,0
16158.212,11.230,28.320,32.715,31.250,39.551,0
16158.215,27.832,23.926,29.297,42.969,-79.102,0
16158.219,20.996,25.391,34.180,40.527,-71.777,0
16158.223,9.766,30.273,37.598,34.180,35.645,0
16158.227,14.648,26.367,34.180,36.133,63.965,0
16158.231,32.227,19.531,29.297,37.109,45.410,0
16158.235,39.551,23.926,33.691,37.598,47.363,0
16158.239,24.414,30.762,37.598,33.691,86.426,0
16158.243,20.996,30.273,36.621,28.320,8.301,0
16158.247,41.016,22.949,29.297,37.598,-1.465,0
16158.251,42.969,22.461,24.414,41.504,99.609,0
16158.254,26.855,29.785,32.227,35.645,51.758,0
16158.258,15.137,34.668,38.086,30.273,-12.207,0
16158.262,30.273,30.762,33.691,37.109,16.113,0
16158.266,41.992,25.391,27.344,44.922,51.270,0
16158.270,29.785,31.250,29.297,41.016,1.953,0
16158.274,13.672,42.969,33.691,28.809,13.672,0
16158.278,23.926,41.016,29.785,27.344,35.156,0
16158.282,41.504,36.621,27.832,36.621,67.871,0
16158.286,36.133,36.621,27.344,32.227,83.496,0
16158.290,22.949,39.551,31.250,21.973,44.434,0
16158.294,26.367,39.062,30.273,22.949,3.906,0
16158.297,45.410,31.738,23.438,28.809,-10.742,0
16158.301,45.898,30.273,20.996,30.273,8.789,0
16158.305,26.855,31.738,20.996,22.949,29.785,0
16158.309,21.484,32.227,24.414,17.578,53.711,0
16158.313,38.086,30.273,24.902,27.344,59.082,0
16158.317,47.852,29.297,25.879,32.227,0.977,0
16158.321,43.945,31.738,31.250,28.320,13.672,0
16158.325,35.156,30.762,29.785,21.973,30.273,0
16158.329,49.805,23.926,25.879,28.809,2.441,0
16158.333,67.871,20.508,27.344,39.062,31.250,0
16158.337,62.988,24.414,31.250,31.250,16.602,0
16158.340,51.758,31.250,34.180,19.531,90.332,0
16158.344,67.871,34.668,30.273,23.438,107.422,0
16158.348,88.379,27.832,24.902,28.320,39.062,0
16158.352,88.379,30.273,26.855,28.320,19.043,0
16158.356,77.637,40.039,32.227,21.973,-17.578,0
16158.360,83.984,40.039,31.738,20.996,-42.480,0
16158.364,109.863,34.668,25.879,28.320,-6.348,2
16158.368,109.863,32.227,28.320,28.809,20.996,0
16158.372,95.215,35.645,33.691,20.508,15.137,0
16158.376,86.914,36.133,32.715,16.113,60.059,0
16158.379,91.309,27.344,26.367,25.391,32.227,0
16158.383,97.168,25.879,25.879,36.133,-64.453,0
16158.387,89.355,33.203,31.250,30.762,2.441,0
16158.391,76.660,33.203,37.109,17.578,54.688,0
16158.395,86.914,25.879,34.180,20.996,23.926,0
16158.399,102.539,24.902,29.785,31.250,-0.488,0
16158.403,94.238,33.203,31.738,28.320,34.180,0
16158.407,79.590,38.086,36.133,16.113,62.500,0
16158.411,91.309,35.645,34.180,16.113,16.602,0
16158.415,113.770,34.668,29.785,27.832,6.836,0
16158.419,113.770,36.621,28.809,29.785,25.391,0
16158.422,96.680,40.039,32.715,22.461,2.441,0
16158.426,92.773,41.016,35.645,20.996,28.320,0
16158.430,106.934,34.668,28.809,27.344,53.711,0
16158.434,102.539,31.250,27.344,26.367,0.000,0
16158.438,85.449,33.691,33.203,16.113,-2.441,0
16158.442,80.078,37.109,35.156,11.719,3.906,0
16158.446,94.727,33.691,29.297,19.531,13.672,0
16158.450,100.586,27.344,29.297,27.832,22.949,0
16158.454,87.402,29.785,34.180,28.809,-5.371,0
16158.458,71.289,34.668,34.180,17.578,-13.672,0
16158.462,79.590,33.691,29.785,19.043,2.441,0
16158.465,99.609,33.203,27.344,30.273,40.039,0
16158.469,96.680,33.203,31.250,29.785,8.301,0
16158.473,75.684,36.621,35.156,23.438,-11.719,0
16158.477,79.102,36.133,31.250,22.949,41.016,0
16158.481,99.609,33.203,25.391,30.273,47.852,0
16158.485,99.121,36.133,27.832,33.691,29.297,0
16158.489,83.008,40.527,35.156,29.297,13.672,0
16158.493,78.613,38.574,34.180,22.949,-6.348,0
16158.497,100.586,34.180,28.320,29.297,49.805,0
16158.501,103.027,33.203,30.273,37.109,40.527,0
16158.504,82.520,35.156,32.715,30.762,21.484,0
16158.508,72.266,38.086,31.738,22.461,11.719,0
16158.512,83.496,35.156,23.926,23.926,-53.711,0
16158.516,95.215,31.250,21.484,30.762,-3.418,0
16158.520,84.473,31.250,30.273,31.738,17.578,0
16158.524,70.801,38.086,36.133,26.367,7.324,0
16158.528,79.590,35.156,30.273,26.855,20.996,0
16158.532,83.984,26.855,23.438,32.715,-36.621,0
16158.536,70.312,27.832,27.344,35.645,24.414,0
16158.540,60.547,31.250,40.039,34.668,40.527,0
16158.544,64.941,31.250,38.086,31.250,0.977,0
16158.547,75.195,27.832,25.879,30.762,93.750,0
16158.551,73.730,29.297,26.367,35.645,111.328,0
16158.555,57.617,33.691,31.250,27.344,55.176,0
16158.559,53.223,33.203,32.227,19.531,43.457,0
16158.563,71.777,29.785,27.832,26.855,49.316,0
16158.567,82.031,29.297,26.367,32.227,83.008,0
16158.571,71.777,31.250,30.762,27.832,44.434,0
16158.575,59.082,35.645,33.203,21.484,42.480,0
16158.579,68.359,31.250,27.832,30.273,61.523,0
16158.583,81.055,25.879,20.508,37.109,29.297,0
16158.587,75.195,30.762,22.949,33.203,37.598,0
16158.590,63.965,38.086,35.156,28.809,-10.742,0
16158.594,71.289,35.156,33.691,35.156,25.879,0
16158.598,84.961,29.785,24.902,37.598,79.102,0
16158.602,81.543,32.227,29.785,37.109,10.254,0
16158.606,64.941,33.203,35.645,32.227,-3.418,0
16158.610,63.477,30.273,33.203,29.297,31.250,0
16158.614,71.289,25.391,25.391,37.109,60.547,0
16158.618,69.336,28.809,24.902,40.039,21.484,0
16158.622,56.641,36.621,32.227,38.086,46.875,0
16158.626,45.898,37.109,33.203,32.715,57.129,0
16158.629,55.176,29.297,25.391,29.297,6.348,0
16158.633,60.547,26.855,25.391,32.227,35.156,0
16158.637,43.945,30.273,30.273,31.250,67.871,0
16158.641,29.785,34.180,35.645,25.391,32.227,0
16158.645,38.086,31.738,34.668,33.691,13.672,0
16158.649,48.828,27.832,27.832,40.527,48.340,0
16158.653,43.945,30.762,30.273,37.598,9.277,0
16158.657,29.297,35.645,37.598,31.738,-2.930,0
16158.661,37.598,35.156,31.738,28.809,16.602,0
16158.665,49.805,29.785,24.414,32.715,22.949,0
16158.669,35.645,25.391,24.902,30.762,2.930,0
16158.672,14.160,28.809,27.832,20.508,-30.273,0
16158.676,16.113,32.715,24.902,22.949,21.973,0
16158.680,36.621,27.832,20.020,37.598,57.617,0
16158.684,42.480,28.320,22.461,39.062,-10.742,0
16158.688,33.691,36.621,26.367,28.809,-48.828,0
16158.692,24.902,41.016,27.832,26.367,-37.598,0
16158.696,34.668,33.691,21.484,32.227,-12.207,0
16158.700,45.410,30.762,20.996,37.109,43.945,0
16158.704,34.668,33.203,27.344,38.574,45.410,0
16158.708,17.090,34.180,30.273,26.855,15.137,0
16158.712,20.996,28.320,28.809,21.973,33.691,0
16158.715,26.855,23.438,22.461,32.227,66.895,0
16158.719,18.555,29.785,20.996,34.180,29.297,0
16158.723,3.906,37.598,27.344,28.320,22.461,0
16158.727,-1.953,31.738,23.438,24.414,5.859,0
16158.731,8.301,22.949,20.020,28.809,-13.184,0
16158.735,7.324,25.391,24.902,32.715,17.090,0
16158.739,-13.184,33.691,33.691,29.297,4.883,0
16158.743,-21.484,34.668,33.203,31.250,38.574,0
16158.747,-9.766,27.344,25.391,37.598,33.691,0
16158.751,-17.578,24.902,22.461,31.738,-10.254,0
16158.754,-38.086,29.297,26.855,27.344,39.551,0
16158.758,-46.387,30.273,28.320,24.902,42.969,0
16158.762,-31.738,26.367,20.996,27.832,27.832,0
16158.766,-21.973,24.414,18.066,35.156,25.879,0
16158.770,-34.668,29.785,24.414,30.762,58.105,0
16158.774,-48.340,32.227,30.762,19.043,46.387,0
16158.778,-44.434,27.832,24.902,25.391,-18.555,0
16158.782,-33.203,22.461,19.043,38.086,-12.207,0
16158.786,-31.250,21.973,21.484,34.668,35.156,0
16158.790,-48.828,28.809,26.855,24.414,32.227,0
16158.794,-49.805,30.273,25.879,24.414,-6.348,0
16158.797,-31.738,27.344,18.066,27.344,35.645,0
16158.801,-28.809,28.320,20.020,28.320,74.707,0
16158.805,-39.551,33.203,26.855,25.879,40.039,0
16158.809,-45.898,32.227,25.879,20.996,42.969,0
16158.813,-32.715,26.367,20.508,27.344,33.691,0
16158.817,-28.320,23.438,18.066,32.715,16.113,0
16158.821,-38.574,29.785,20.996,29.785,15.625,0
16158.825,-43.457,35.645,23.926,25.391,22.461,0
16158.829,-30.273,26.855,20.508,32.715,-9.766,0
16158.833,-16.113,22.461,17.578,38.086,0.977,0
16158.837,-22.949,29.297,23.438,37.598,41.504,0
16158.840,-38.574,35.645,33.691,32.715,21.973,0
16158.844,-28.320,33.691,31.738,31.250,-17.090,0
16158.848,-7.812,28.320,28.809,41.504,-25.879,0
16158.852,-13.672,28.320,30.762,43.457,22.949,0
16158.856,-32.227,32.227,34.668,38.574,24.902,0
16158.860,-32.715,31.250,34.668,36.133,23.438,0
16158.864,-17.090,30.273,30.762,39.551,32.227,0
16158.868,-19.531,34.180,27.344,34.668,-5.371,0
16158.872,-34.668,37.598,25.879,20.508,60.059,0
16158.876,-34.180,37.598,27.832,16.602,66.895,0
16158.879,-20.020,30.762,21.973,20.020,18.555,0
16158.883,-17.578,31.250,25.391,26.855,18.555,0
16158.887,-30.273,39.551,30.762,23.926,35.645,0
16158.891,-48.828,38.086,29.297,10.742,31.738,0
16158.895,-41.016,27.344,26.367,14.160,44.922,0
16158.899,-25.879,26.367,23.438,20.020,34.668,0
16158.903,-31.250,35.156,29.785,18.066,1.465,0
16158.907,-45.410,39.551,35.156,13.184,43.457,0
16158.911,-40.039,32.227,31.738,13.672,45.410,0
16158.915,-17.578,29.785,26.855,27.832,41.992,0
16158.919,-13.184,35.156,28.320,36.133,48.828,0
16158.922,-31.738,37.598,35.645,33.203,7.324,0
16158.926,-30.762,35.156,34.180,28.809,32.715,0
16158.930,-12.207,30.762,24.414,30.762,58.105,0
16158.934,-11.719,27.832,21.973,34.180,39.551,0
16158.938,-24.414,29.785,29.297,34.668,82.031,0
16158.942,-29.297,37.109,36.621,23.438,39.551,0
16158.946,-14.160,31.250,28.809,23.438,-36.621,0
16158.950,-7.324,28.320,22.461,31.250,26.855,0
16158.954,-17.578,31.738,27.832,29.297,34.668,0
16158.958,-26.855,30.762,33.691,24.414,26.367,0
16158.962,-18.066,28.809,31.738,29.785,43.457,0
16158.965,-11.719,29.785,24.414,33.203,79.590,0
16158.969,-19.043,31.250,28.320,30.273,71.289,0
16158.973,-29.785,32.715,34.668,22.461,-5.371,0
16158.977,-25.879,32.715,32.715,19.043,20.508,0
16158.981,-10.742,30.762,28.320,25.879,20.996,0
16158.985,-8.789,30.762,29.297,29.297,60.547,0
16158.989,-20.020,35.645,38.086,19.531,65.918,0
16158.993,-23.926,35.156,36.133,16.113,26.367,0
16158.997,-5.859,27.344,26.855,27.344,-12.695,0
16159.001,-2.930,25.879,25.879,31.250,-8.301,0
16159.004,-17.578,30.762,35.156,23.438,62.012,0
16159.008,-25.391,34.668,38.574,18.555,53.223,0
16159.012,-7.812,29.297,30.762,26.367,16.602,0
16159.016,5.371,24.414,27.832,31.738,-3.418,1
16159.020,-5.859,27.832,30.762,31.738,-11.719,0
16159.024,-19.531,33.203,37.109,25.879,-0.488,0
16159.028,-6.836,31.738,33.691,21.973,5.371,0
16159.032,10.742,30.762,27.344,25.879,-5.859,0
16159.036,6.836,34.180,30.273,26.855,-0.977,0
16159.040,-7.812,36.621,33.691,20.508,11.719,0
16159.044,-7.812,34.180,33.691,21.484,63.965,0
16159.047,9.277,28.320,25.391,26.367,20.020,0
16159.051,11.230,25.879,24.902,25.879,-62.012,0
16159.055,-3.906,30.762,34.180,24.902,-13.672,0
16159.059,-14.160,33.203,35.645,18.555,69.336,0
16159.063,-3.906,27.344,29.297,21.484,56.641,0
16159.067,5.371,24.414,25.879,26.855,33.691,0
16159.071,-4.883,25.879,30.762,20.020,0.000,0
16159.075,-14.160,28.320,33.691,14.160,-68.848,0
16159.079,2.441,25.391,29.297,23.438,-26.855,0
16159.083,18.066,25.391,28.809,35.156,0.000,0
16159.087,13.672,30.273,34.180,28.320,9.277,0
16159.090,2.441,33.203,35.645,15.137,33.203,0
16159.094,13.184,31.250,34.180,26.855,7.812,0
16159.098,27.344,23.926,28.320,32.715,0.000,0
16159.102,23.438,23.438,27.344,33.203,24.414,0
16159.106,7.812,32.227,37.109,30.762,23.926,0
16159.110,7.812,32.227,34.668,20.508,21.973,0
16159.114,24.902,24.902,23.438,25.391,40.527,0
16159.118,23.926,25.391,26.855,29.297,-10.254,0
16159.122,8.301,30.273,32.227,23.926,-12.207,0
16159.126,1.953,32.715,30.762,20.508,77.148,0
16159.129,17.578,27.344,24.902,21.973,46.875,0
16159.133,28.809,22.949,23.438,22.461,19.043,0
16159.137,19.043,23.926,30.762,20.020,0.977,0
16159.141,9.766,31.738,35.156,16.602,-69.824,0
16159.145,26.367,32.715,27.832,22.949,1.953,0
16159.149,41.016,25.391,20.020,26.367,109.375,0
16159.153,30.762,23.926,21.973,21.973,155.762,0
16159.157,15.137,29.297,27.832,15.625,65.918,0
16159.161,27.344,31.738,25.879,15.137,61.523,0
16159.165,45.898,28.809,21.973,21.973,113.770,0
16159.169,38.574,29.297,25.879,24.414,52.246,0
16159.172,23.926,32.227,32.227,19.043,65.918,0
16159.176,23.438,32.715,31.250,18.555,34.180,0
16159.180,38.086,26.367,21.484,26.367,-10.742,0
16159.184,42.969,26.367,21.484,34.180,-21.973,0
16159.188,23.438,34.668,31.250,28.320,-21.484,0
16159.192,5.859,35.645,35.156,18.066,32.715,0
16159.196,15.625,30.273,28.809,22.461,63.477,0
16159.200,25.879,23.926,24.902,28.809,60.059,0
16159.204,15.625,26.367,26.855,28.320,58.105,0
16159.208,1.953,35.645,32.715,23.926,24.902,0
16159.212,9.277,32.715,31.250,24.902,7.812,0
16159.215,20.508,27.832,22.949,31.250,-4.395,0
16159.219,11.230,29.297,23.926,32.715,22.461,0
16159.223,-4.395,34.180,30.273,24.414,47.852,0
16159.227,-2.930,33.691,28.809,20.020,-0.488,0
16159.231,7.324,25.879,22.949,29.297,9.766,0
16159.235,12.207,28.320,27.832,38.086,38.574,0
16159.239,-1.953,35.645,33.691,34.180,-1.953,0
16159.243,-11.230,32.227,33.691,22.949,-39.062,0
16159.247,4.395,25.391,28.320,30.273,15.625,0
16159.251,15.625,27.832,26.367,41.992,33.691,0
16159.254,4.395,35.156,30.762,36.621,-3.418,0
16159.258,-5.371,35.645,33.691,28.809,-12.695,0
16159.262,5.859,26.855,27.344,31.250,-0.488,0
16159.266,10.742,23.926,21.484,33.203,49.316,0
16159.270,1.953,31.250,28.320,27.344,61.035,0
16159.274,-11.230,35.645,34.668,18.555,72.754,0
16159.278,-2.930,32.227,29.785,19.043,94.238,0
16159.282,15.137,30.273,28.320,31.738,68.359,0
16159.286,5.371,33.691,30.273,31.250,-1.465,0
16159.290,-15.625,36.133,38.086,20.996,-1.465,0
16159.294,-15.137,31.250,38.086,20.508,28.320,0
16159.297,3.906,25.879,26.855,27.832,19.531,0
16159.301,11.719,28.809,27.832,29.785,13.672,0
16159.305,0.977,36.133,34.180,23.438,18.066,0
16159.309,-4.395,35.645,33.203,20.508,11.230,0
16159.313,7.812,27.832,28.320,29.785,40.527,0
16159.317,9.277,25.391,23.438,34.668,69.336,0
16159.321,2.930,30.273,31.250,31.250,31.250,0
16159.325,-9.277,32.715,40.527,26.855,9.277,0
16159.329,-2.930,27.344,32.715,26.367,31.250,0
16159.333,3.906,27.344,27.344,29.297,32.227,0
16159.337,-8.301,31.738,31.738,27.832,48.828,0
16159.340,-19.531,34.668,37.598,22.949,121.094,0
16159.344,-6.348,32.227,34.180,21.484,78.125,0
16159.348,12.207,27.344,28.320,27.832,10.254,0
16159.352,11.719,28.809,30.762,31.250,21.973,0
16159.356,0.000,33.203,35.645,24.902,30.762,0
16159.360,1.465,34.180,34.668,23.438,53.223,0
16159.364,20.020,30.762,28.809,31.738,53.223,0
16159.368,25.879,30.273,25.879,31.250,45.410,0
16159.372,10.742,33.203,30.762,26.367,79.102,0
16159.376,6.348,36.621,33.203,28.320,15.137,0
16159.379,22.461,30.273,27.344,32.227,-4.883,0
16159.383,28.320,23.438,26.367,30.762,24.902,0
16159.387,21.973,30.273,31.738,26.367,36.133,0
16159.391,12.207,38.574,37.109,22.949,7.324,0
16159.395,18.555,37.109,32.715,21.973,35.645,0
16159.399,31.738,32.227,29.297,32.715,75.684,0
16159.403,23.438,33.203,32.715,39.551,35.156,0
16159.407,4.883,38.086,36.133,30.762,12.695,0
16159.411,7.812,35.645,31.738,29.297,-5.371,0
16159.415,21.484,30.762,28.809,34.668,10.254,0
16159.419,14.648,32.715,36.621,36.621,19.043,0
16159.422,-8.301,36.621,42.969,24.902,11.719,0
16159.426,-5.859,36.621,37.598,19.531,39.551,0
16159.430,9.277,31.738,27.832,28.320,41.016,0
16159.434,0.000,26.855,26.855,31.738,-3.418,0
16159.438,-18.066,33.203,33.691,29.297,11.230,0
16159.442,-22.461,36.621,39.062,23.926,23.926,0
16159.446,-5.371,27.832,34.668,29.785,16.602,0
16159.450,2.441,28.320,30.762,34.180,-0.977,0
16159.454,-8.301,37.109,33.691,31.738,7.812,0
16159.458,-17.090,43.457,38.086,27.344,20.020,0
16159.462,-4.395,40.527,33.203,29.785,9.277,0
16159.465,14.160,36.621,27.832,37.598,18.555,0
16159.469,4.395,36.621,29.297,35.156,39.551,0
16159.473,-15.625,40.527,32.227,25.391,78.613,0
16159.477,-16.113,38.574,27.832,21.484,38.574,0
16159.481,-0.977,29.297,21.484,27.832,-37.598,0
16159.485,2.930,29.785,20.020,30.273,-9.277,0
16159.489,-8.789,36.621,23.926,21.484,35.645,0
16159.493,-6.836,38.574,27.832,24.414,-3.418,0
16159.497,8.301,33.203,25.879,33.691,-20.020,0
16159.501,8.301,30.762,28.320,37.109,0.000,0
16159.504,-7.324,34.180,36.133,32.227,27.344,0
16159.508,-21.484,33.691,33.691,20.020,39.062,0
16159.512,-0.488,27.832,25.391,24.902,39.062,0
16159.516,11.230,29.297,25.391,33.691,65.430,0
16159.520,-18.066,32.227,30.762,34.180,42.480,0
16159.524,-39.062,33.691,39.062,27.344,8.301,0
16159.528,-31.250,33.203,37.598,29.785,32.227,0
16159.532,-23.438,34.180,28.320,40.039,21.973,0
16159.536,-34.180,34.180,30.273,41.504,-7.324,0
16159.540,-47.363,35.156,38.086,29.785,-11.719,0
16159.544,-32.227,35.156,32.715,21.484,20.020,0
16159.547,-0.977,30.273,27.344,25.391,12.695,0
16159.551,2.930,25.879,31.250,25.391,-1.465,0
16159.555,-14.160,28.809,35.156,21.973,40.527,0
16159.559,-15.137,30.762,35.156,21.484,26.855,0
16159.563,5.859,27.832,33.691,33.691,-6.836,0
16159.567,15.137,28.809,35.156,40.527,14.160,0
16159.571,4.395,32.227,37.598,32.715,-1.465,0
16159.575,-8.301,38.086,37.109,28.320,-4.883,0
16159.579,0.000,35.156,26.855,34.180,41.992,0
16159.583,15.137,29.297,24.414,41.016,62.500,0
16159.587,8.789,32.715,31.738,41.504,58.105,0
16159.590,-5.859,34.180,37.109,32.227,37.598,0
16159.594,8.301,30.273,35.156,33.203,6.836,0
16159.598,22.461,29.785,29.297,43.457,11.719,1
16159.602,10.254,33.203,30.273,40.527,39.551,0
16159.606,-7.324,36.133,34.180,29.785,5.859,0
16159.610,-0.488,34.668,31.250,29.785,28.320,0
16159.614,18.066,28.809,22.461,38.574,59.082,0
16159.618,16.602,26.855,22.461,38.574,8.789,0
16159.622,8.789,33.203,31.738,29.785,-6.348,0
16159.626,3.418,36.133,32.715,18.066,68.848,0
16159.629,19.043,31.738,28.320,23.438,69.336,0
16159.633,27.832,27.344,28.809,33.203,-18.555,0
16159.637,13.672,27.832,31.738,27.832,23.438,0
16159.641,3.906,32.715,36.133,22.949,23.926,0
16159.645,12.695,28.809,31.738,28.320,47.852,0
16159.649,19.043,23.926,29.297,30.762,71.777,0
16159.653,15.625,27.344,34.180,30.273,20.020,0
16159.657,5.859,32.227,36.133,19.531,52.734,0
16159.661,8.301,29.785,30.273,14.160,33.691,0
16159.665,22.949,24.414,26.367,29.785,6.348,0
16159.669,26.367,26.367,30.762,36.621,-0.977,0
16159.672,11.719,31.738,35.645,28.809,-0.977,0
16159.676,13.184,28.809,35.156,24.902,38.574,0
16159.680,32.227,23.926,28.320,30.273,11.230,0
16159.684,37.109,29.785,26.855,39.551,18.555,0
16159.688,19.531,38.574,36.621,36.621,81.543,0
16159.692,1.465,39.551,40.039,27.832,81.543,0
16159.696,17.578,34.180,32.227,31.250,35.645,0
16159.700,35.645,32.715,34.668,38.086,-15.625,0
16159.704,26.367,35.156,41.504,29.785,51.758,0
16159.708,10.742,36.621,43.457,20.020,76.172,0
16159.712,19.531,29.785,38.086,24.902,33.203,0
16159.715,34.668,25.391,28.320,30.762,44.434,0
16159.719,31.250,31.738,30.762,32.715,23.926,0
16159.723,14.648,35.645,36.133,24.902,47.852,0
16159.727,13.184,30.762,30.273,18.066,10.254,0
16159.731,27.344,24.902,24.902,24.902,4.883,0
16159.735,27.832,26.367,26.855,31.250,76.172,0
16159.739,16.602,34.180,34.668,27.832,2.930,0
16159.743,16.602,33.691,38.086,24.902,-30.273,0
16159.747,35.645,26.855,29.785,31.250,29.785,0
16159.751,37.598,25.879,21.484,35.156,41.504,0
16159.754,21.973,32.227,28.320,28.809,-11.719,0
16159.758,17.090,36.133,37.109,22.949,-0.977,0
16159.762,27.344,29.297,32.227,28.809,46.875,0
16159.766,30.762,27.344,26.855,26.367,11.230,0
16159.770,22.461,30.273,28.320,18.555,24.902,0
16159.774,13.672,35.645,36.133,19.043,10.254,0
16159.778,25.879,34.180,34.668,22.461,-18.555,0
16159.782,40.527,31.738,29.297,29.297,53.711,0
16159.786,36.133,31.738,29.785,30.762,29.785,0
16159.790,21.484,32.227,37.109,24.902,1.465,0
16159.794,25.879,32.227,35.645,26.367,-11.230,0
16159.797,46.387,29.297,29.785,33.203,1.465,0
16159.801,49.805,27.832,32.715,35.645,-3.906,0
16159.805,40.527,32.227,37.109,28.320,16.602,0
16159.809,37.598,31.738,37.598,23.438,44.434,0
16159.813,48.828,27.344,32.715,26.855,-2.441,0
16159.817,53.223,24.902,32.227,31.738,20.508,0
16159.821,41.504,26.367,33.691,29.297,49.316,0
16159.825,32.715,31.250,32.715,17.090,42.969,0
16159.829,41.992,28.320,31.738,22.461,58.594,0
16159.833,50.781,25.879,32.715,36.133,84.961,0
16159.837,42.969,28.809,34.668,30.762,57.129,0
16159.840,25.879,35.645,35.156,20.996,61.523,0
16159.844,33.203,33.691,36.133,30.762,38.574,0
16159.848,38.574,25.391,29.785,38.086,-19.531,0
16159.852,31.250,26.367,26.367,38.086,51.758,0
16159.856,23.926,31.738,29.785,36.133,68.359,0
16159.860,21.973,30.273,27.344,26.855,31.250,0
16159.864,38.574,24.414,20.996,28.320,48.340,0
16159.868,44.434,26.855,18.555,30.762,19.043,0
16159.872,26.855,32.227,24.414,18.066,49.316,0
16159.876,15.625,33.203,26.367,12.695,38.574,0
16159.879,31.738,26.855,21.973,20.020,34.668,0
16159.883,34.180,22.461,25.391,23.926,28.809,0
16159.887,20.020,26.855,29.785,19.531,21.973,0
16159.891,9.766,34.180,31.250,15.137,16.602,0
16159.895,26.367,33.203,26.855,17.090,-10.254,0
16159.899,43.457,27.832,22.949,23.926,15.137,0
16159.903,35.156,32.227,29.297,34.668,-34.180,0
16159.907,20.020,40.527,33.203,25.879,-70.312,0
16159.911,26.367,36.133,27.832,19.531,15.137,0
16159.915,46.387,29.297,23.438,30.273,47.852,0
16159.919,41.992,30.762,22.949,26.855,18.066,0
16159.922,22.949,35.645,30.273,25.391,27.832,0
16159.926,22.949,39.062,34.668,27.832,58.105,0
16159.930,32.715,31.738,27.832,25.879,29.297,0
16159.934,34.180,25.879,28.320,34.180,-6.836,0
16159.938,22.461,31.250,35.645,33.203,-13.184,0
16159.942,12.207,37.598,37.598,25.879,-13.672,0
16159.946,24.414,30.273,29.297,23.438,50.293,0
16159.950,36.133,25.391,26.855,28.809,51.758,0
16159.954,32.715,28.320,33.203,26.367,44.922,0
16159.958,17.090,34.180,37.598,16.602,41.992,0
16159.962,21.973,32.715,32.227,21.484,28.320,0
16159.965,38.574,25.879,27.832,33.203,49.805,0
16159.969,27.832,29.297,32.227,32.715,12.207,0
16159.973,10.742,34.668,38.086,26.855,0.488,0
16159.977,20.020,34.180,39.062,33.203,29.785,0
16159.981,37.598,29.785,32.715,40.527,35.645,0
16159.985,34.180,29.785,27.344,33.203,18.555,0
16159.989,19.531,34.668,29.785,15.625,19.043,0
16159.993,19.043,34.668,30.273,14.160,7.812,0
16159.997,39.551,30.762,21.484,24.414,-8.301,0
16160.001,50.293,27.344,20.996,31.738,-21.973,0
16160.004,39.062,31.250,26.855,26.855,15.137,0
16160.008,30.273,36.133,29.297,22.949,40.527,0
16160.012,41.992,28.809,27.832,32.227,73.730,0
16160.016,47.852,21.484,27.832,36.621,71.777,0
16160.020,37.109,23.438,29.297,32.715,-24.902,0
16160.024,19.531,29.785,30.762,23.438,-36.621,0
16160.028,28.809,27.832,29.297,30.762,3.418,0
16160.032,45.410,20.508,28.809,43.945,26.855,0
16160.036,39.062,28.320,35.645,39.062,-3.906,0
16160.040,24.414,33.203,38.086,28.320,-30.273,0
16160.044,26.855,28.809,31.738,29.297,-34.668,0
16160.047,40.039,23.926,26.855,37.109,22.949,0
16160.051,40.039,25.879,31.250,45.898,32.227,0
16160.055,27.344,32.227,37.598,36.621,-28.320,0
16160.059,18.066,31.250,37.109,21.973,36.621,0
16160.063,32.227,24.902,30.273,28.320,92.285,0
16160.067,35.645,22.461,27.832,32.715,27.832,0
16160.071,18.555,26.855,32.227,28.320,-5.371,0
16160.075,9.277,29.297,33.203,21.484,54.688,0
16160.079,29.297,22.949,29.297,31.738,57.617,0
16160.083,46.875,21.484,27.344,43.457,12.207,0
16160.087,39.551,26.855,26.855,41.992,41.504,0
16160.090,26.367,31.250,31.250,28.809,33.691,0
16160.094,33.203,29.785,25.879,31.250,18.555,0
16160.098,48.828,26.367,15.625,42.480,12.695,0
16160.102,45.410,29.297,21.484,41.016,13.184,0
16160.106,25.879,33.203,32.227,30.762,60.059,0
16160.110,25.879,33.203,32.715,29.785,59.082,0
16160.114,44.922,29.297,28.320,41.016,1.953,0
16160.118,49.805,30.762,31.738,38.086,40.527,0
16160.122,42.480,34.668,38.086,26.855,25.879,0
16160.126,31.738,35.156,39.062,23.438,15.137,0
16160.129,39.062,27.344,33.203,31.738,-1.953,0
16160.133,41.992,23.438,28.320,31.250,-30.273,0
16160.137,29.297,27.344,30.273,24.414,0.977,0
16160.141,22.461,29.297,33.691,19.531,-1.953,0
16160.145,33.203,25.391,27.344,20.508,40.039,0
16160.149,41.504,24.902,22.949,26.367,96.191,0
16160.153,37.598,30.273,24.414,26.367,62.012,0
16160.157,28.320,36.133,27.344,20.996,6.348,0
16160.161,35.156,34.180,27.344,21.484,-17.090,0
16160.165,54.199,29.297,21.973,33.203,39.062,0
16160.169,52.734,29.785,20.508,35.156,114.746,0
16160.172,34.668,35.645,23.438,29.785,77.637,0
16160.176,33.203,38.086,19.531,29.297,25.391,0
16160.180,52.246,31.250,10.742,34.180,26.367,0
16160.184,57.129,31.738,12.207,38.574,41.016,0
16160.188,42.969,34.668,23.438,36.621,38.086,0
16160.192,34.180,35.156,25.879,32.227,4.883,0
16160.196,52.246,35.645,17.578,36.621,74.219,0
16160.200,60.059,35.156,18.066,41.504,79.102,0
16160.204,40.039,36.133,27.344,35.645,3.906,0
16160.208,17.090,36.621,33.203,28.320,-8.301,0
16160.212,26.367,29.297,28.320,25.391,-14.648,0
16160.215,37.109,21.973,25.879,26.367,-16.602,0
16160.219,20.508,24.414,28.809,22.949,31.250,0
16160.223,4.395,28.809,37.598,15.137,57.617,0
16160.227,14.160,26.367,35.156,15.625,-3.906,0
16160.231,32.227,22.949,25.391,25.879,27.832,0
16160.235,33.691,27.832,30.762,32.715,77.637,0
16160.239,21.973,38.086,38.574,22.949,61.035,0
16160.243,17.090,38.086,41.992,18.555,30.273,0
16160.247,31.738,30.762,34.668,30.762,25.391,0
16160.251,37.109,31.738,31.250,33.203,82.031,0
16160.254,20.996,38.086,35.156,22.949,67.871,0
16160.258,13.184,40.527,37.109,20.508,31.738,0
16160.262,31.738,37.109,32.227,31.738,33.691,1
16160.266,44.434,33.691,29.785,38.574,-10.742,0
16160.270,33.203,32.227,30.273,28.320,-1.953,0
16160.274,18.555,34.668,31.250,16.113,35.645,0
16160.278,23.438,33.203,26.855,19.531,13.672,0
16160.282,38.574,31.250,25.391,27.344,52.246,0
16160.286,34.668,31.250,27.344,24.902,34.180,0
16160.290,15.137,35.156,33.203,16.602,-38.086,0
16160.294,20.508,33.691,33.691,20.020,-40.039,0
16160.297,31.738,24.902,25.391,24.414,5.371,0
16160.301,25.391,26.855,27.832,23.926,39.062,0
16160.305,17.090,37.109,38.086,24.414,43.457,0
16160.309,13.672,39.062,39.062,20.996,32.227,0
16160.313,23.438,28.809,30.762,27.832,5.859,0
16160.317,26.367,24.902,29.785,32.715,14.648,0
16160.321,19.043,33.203,36.133,25.391,60.059,0
16160.325,10.254,38.086,38.574,20.020,-8.301,0
16160.329,20.508,31.738,30.273,28.320,-17.090,0
16160.333,34.180,30.762,30.762,39.062,71.777,0
16160.337,29.785,37.109,38.086,35.156,18.555,0
16160.340,23.438,43.945,38.086,28.809,-42.969,0
16160.344,26.855,40.039,34.180,28.809,-10.254,0
16160.348,37.598,32.715,31.250,32.715,34.180,0
16160.352,37.598,32.227,31.738,36.621,9.277,0
16160.356,19.531,33.203,35.156,30.273,4.883,0
16160.360,14.648,36.621,34.668,29.297,39.551,0
16160.364,28.809,35.645,28.320,39.062,33.203,0
16160.368,28.809,35.156,29.297,40.527,61.035,0
16160.372,17.090,38.574,35.156,36.621,85.938,0
16160.376,7.324,38.574,32.715,29.297,32.715,0
16160.379,20.508,33.691,27.832,33.691,-10.742,0
16160.383,29.297,32.715,32.715,40.527,19.043,0
16160.387,16.602,32.715,38.574,34.668,6.348,0
16160.391,2.930,35.645,39.062,21.484,-3.906,0
16160.395,15.625,30.762,32.227,18.555,53.223,0
16160.399,31.738,23.926,26.367,26.855,12.695,0
16160.403,25.879,30.762,34.180,27.344,36.621,0
16160.407,7.812,34.180,40.039,22.949,93.750,0
16160.411,7.324,30.273,33.203,23.926,53.223,0
16160.415,26.855,26.855,26.367,29.785,50.781,0
16160.419,31.250,30.762,31.738,30.273,38.086,0
16160.422,14.648,36.621,40.527,23.438,25.879,0
16160.426,12.207,35.156,35.156,21.973,7.324,0
16160.430,26.367,30.273,26.367,31.738,-12.207,0
16160.434,29.297,30.273,31.738,38.086,38.086,0
16160.438,18.066,35.645,39.551,35.156,40.527,0
16160.442,10.742,36.133,38.574,23.438,26.367,0
16160.446,25.879,31.250,28.809,26.855,43.457,0
16160.450,36.621,29.297,23.926,32.715,74.219,0
16160.454,19.531,31.738,27.832,28.809,51.758,0
16160.458,0.977,35.645,32.227,22.461,4.883,0
16160.462,16.113,31.738,27.832,23.926,2.930,0
16160.465,31.738,29.785,23.926,32.715,2.930,0
16160.469,24.902,32.227,30.762,31.738,-1.465,0
16160.473,6.348,35.156,36.133,26.855,11.230,0
16160.477,7.324,30.273,30.762,25.879,39.062,0
16160.481,27.832,26.855,25.391,37.109,37.598,0
16160.485,28.809,29.785,27.832,38.574,50.293,0
16160.489,14.648,35.645,31.738,28.320,-1.953,0
16160.493,13.672,36.621,28.809,24.902,-23.438,0
16160.497,21.484,29.785,24.414,26.855,22.461,0
16160.501,26.855,28.809,28.809,32.715,42.480,0
16160.504,23.926,33.691,37.109,36.621,42.480,0
16160.508,12.695,36.133,38.574,28.320,36.133,0
16160.512,20.508,32.227,31.250,26.855,45.410,0
16160.516,27.344,30.762,27.832,35.156,19.531,0
16160.520,13.672,32.715,32.227,32.715,23.438,0
16160.524,-4.395,35.645,34.668,19.043,46.387,0
16160.528,11.230,30.273,30.762,22.461,24.902,0
16160.532,35.645,25.391,28.809,30.273,28.809,0
16160.536,33.203,30.762,32.227,32.227,13.672,0
16160.540,19.043,36.133,38.086,31.250,-7.324,0
16160.544,25.391,33.203,36.621,32.227,-21.484,0
16160.547,44.922,28.809,31.738,39.551,-55.664,0
16160.551,42.969,28.809,29.785,37.109,1.465,0
16160.555,29.297,32.227,33.691,24.414,35.645,0
16160.559,24.414,32.227,38.086,24.902,4.883,0
16160.563,41.016,25.879,33.203,36.133,25.879,0
16160.567,46.875,25.879,31.250,37.109,66.895,0
16160.571,24.414,29.297,35.156,33.691,10.254,0
16160.575,8.301,28.320,40.039,24.414,-62.500,0
16160.579,23.926,28.809,35.156,31.738,-3.906,0
16160.583,32.227,30.273,27.832,38.086,56.641,0
16160.587,27.344,37.109,37.598,31.738,30.762,0
16160.590,18.555,40.527,41.016,21.484,19.043,0
16160.594,19.043,36.621,31.738,18.555,31.738,0
16160.598,31.738,31.250,27.832,26.855,21.973,0
16160.602,30.762,33.691,30.273,26.367,-11.719,0
16160.606,12.695,37.109,34.180,20.996,-7.324,0
16160.610,12.207,34.180,33.203,15.137,30.273,0
16160.614,37.109,32.227,28.809,15.137,41.992,0
16160.618,40.527,32.715,31.738,25.391,64.941,0
16160.622,18.066,35.645,38.574,20.020,66.895,0
16160.626,8.789,33.691,38.086,13.184,41.016,0
16160.629,25.879,23.926,32.715,19.531,75.684,0
16160.633,36.621,20.020,29.785,19.531,95.703,0
16160.637,27.832,26.855,35.156,20.020,81.543,0
16160.641,17.578,34.180,41.016,18.066,4.883,0
16160.645,31.250,28.320,37.109,19.531,0.488,0
16160.649,45.898,22.949,32.715,30.273,55.664,0
16160.653,36.133,27.344,35.645,32.715,4.883,0
16160.657,18.555,32.227,40.527,23.438,2.930,0
16160.661,21.484,32.227,35.156,20.996,57.129,0
16160.665,39.062,27.832,30.762,24.414,74.707,0
16160.669,40.527,28.320,31.250,25.879,46.875,0
16160.672,23.926,33.691,34.668,19.043,6.836,0
16160.676,16.602,31.250,34.668,8.789,-6.348,0
16160.680,28.809,25.391,27.344,16.113,3.906,0
16160.684,31.738,26.855,25.879,27.344,18.555,0
16160.688,14.160,29.785,31.738,21.973,-0.488,0
16160.692,1.953,32.715,31.738,17.578,15.137,0
16160.696,24.902,31.250,28.809,30.762,41.504,0
16160.700,38.574,28.809,29.297,36.621,38.574,0
16160.704,25.879,33.203,29.785,30.273,11.230,0
16160.708,12.695,35.156,34.668,22.949,14.160,0
16160.712,26.855,24.902,31.738,28.809,49.805,0
16160.715,39.062,22.461,27.344,39.062,47.852,0
16160.719,24.414,31.250,34.180,41.504,26.855,0
16160.723,7.812,37.598,37.109,28.320,54.688,0
16160.727,15.625,35.156,33.691,25.391,37.109,0
16160.731,30.762,29.297,30.273,34.668,-2.441,0
16160.735,27.344,30.762,26.367,33.203,83.496,0
16160.739,15.625,38.086,27.832,23.926,110.840,0
16160.743,16.602,37.598,29.297,20.508,38.574,0
16160.747,33.203,28.320,24.414,25.391,-9.766,0
16160.751,42.969,27.344,23.438,27.344,29.785,0
16160.754,36.133,36.133,29.297,23.926,70.312,0
16160.758,21.484,36.621,32.227,20.508,39.551,0
16160.762,34.180,28.320,27.344,27.832,4.395,0
16160.766,40.527,29.785,23.438,26.367,19.043,0
16160.770,24.414,35.645,26.855,18.555,38.086,0
16160.774,11.230,36.621,31.738,13.672,44.922,0
16160.778,21.484,32.715,24.902,14.648,44.922,0
16160.782,41.504,29.297,23.438,25.391,29.297,0
16160.786,41.016,31.250,28.320,27.344,42.969,0
16160.790,22.461,33.691,29.297,20.508,42.480,0
16160.794,19.531,32.227,28.320,21.484,-20.508,0
16160.797,33.203,26.367,23.438,28.320,-0.488,0
16160.801,28.320,23.926,25.879,27.832,13.184,0
16160.805,10.254,31.738,33.203,21.484,-56.152,0
16160.809,7.324,35.156,32.715,17.578,-4.883,0
16160.813,20.508,26.855,27.832,20.996,12.207,0
16160.817,25.879,24.414,28.320,24.902,-19.531,0
16160.821,15.137,30.273,30.762,22.461,34.668,0
16160.825,3.418,34.180,33.691,13.672,62.988,0
16160.829,17.578,28.320,29.297,19.531,76.660,0
16160.833,31.738,22.461,27.344,33.203,71.777,0
16160.837,18.066,25.391,33.691,27.344,39.062,0
16160.840,3.418,29.297,36.621,13.672,61.523,0
16160.844,9.277,25.879,33.203,14.648,45.898,0
16160.848,19.043,21.484,32.227,20.508,-34.668,0
16160.852,15.137,19.531,33.203,20.996,0.488,0
16160.856,0.488,20.996,39.062,14.648,12.695,0
16160.860,3.906,23.926,36.133,10.742,-20.996,0
16160.864,25.879,23.926,28.809,20.508,19.531,0
16160.868,39.551,27.832,25.879,26.367,41.504,0
16160.872,27.832,34.180,29.297,18.555,40.039,0
16160.876,15.625,32.715,34.180,16.113,10.254,0
16160.879,31.250,26.367,26.855,27.344,49.316,0
16160.883,40.039,26.855,22.949,32.227,80.566,0
16160.887,21.973,30.762,28.320,24.902,47.363,0
16160.891,10.254,34.668,31.250,13.672,38.086,0
16160.895,28.809,31.738,25.391,23.438,33.691,0
16160.899,39.062,27.832,24.902,38.086,8.789,1
16160.903,31.250,31.250,30.273,33.691,-29.297,0
16160.907,17.578,37.109,37.109,25.391,-55.664,0
16160.911,22.949,30.273,35.156,30.762,-36.133,0
16160.915,40.527,21.973,25.391,40.527,24.902,0
16160.919,37.598,27.832,26.855,37.598,81.543,0
16160.922,26.367,34.668,33.691,28.809,45.898,0
16160.926,24.414,31.738,26.855,20.996,-15.137,0
16160.930,36.133,25.879,17.090,24.902,-14.648,0
16160.934,45.898,29.785,20.020,30.762,-37.598,0
16160.938,34.668,36.621,24.902,25.391,-19.531,0
16160.942,29.297,40.039,28.320,22.949,-9.277,0
16160.946,50.781,35.645,25.879,29.785,2.441,0
16160.950,62.012,34.668,23.438,36.621,62.012,0
16160.954,51.758,38.574,28.809,30.273,87.402,0
16160.958,36.133,35.645,32.715,22.461,59.082,0
16160.962,34.668,28.320,26.367,34.180,-18.555,0
16160.965,37.598,28.809,21.973,36.621,-48.828,0
16160.969,23.926,32.715,24.414,31.250,-1.953,0
16160.973,11.719,36.133,30.762,28.809,9.277,0
16160.977,18.555,32.227,27.344,24.902,0.488,0
16160.981,32.227,24.414,24.902,32.715,18.555,0
16160.985,32.227,25.391,29.297,34.180,28.809,0
16160.989,18.555,32.715,32.227,25.391,26.367,0
16160.993,13.672,34.180,30.762,25.391,-0.977,0
16160.997,22.461,26.855,27.344,29.297,-21.973,0
16161.001,28.809,25.879,31.738,29.785,26.367,0
16161.004,22.461,29.297,33.691,22.461,36.621,0
16161.008,16.602,29.297,31.250,14.160,64.453,0
16161.012,31.738,26.367,28.809,25.879,44.922,0
16161.016,42.969,23.438,29.297,35.156,1.465,0
16161.020,35.645,27.832,31.738,34.180,30.762,0
16161.024,26.855,32.715,37.598,32.227,-18.066,0
16161.028,39.551,28.320,36.133,36.133,-16.602,0
16161.032,54.199,25.879,30.273,28.809,32.227,0
16161.036,41.504,27.832,30.273,23.926,56.641,0
16161.040,21.484,34.668,37.109,22.461,72.266,0
16161.044,29.297,35.156,33.691,19.531,-13.672,0
16161.047,41.992,26.367,24.414,25.391,-63.477,0
16161.051,36.621,28.320,26.855,29.297,-27.344,0
16161.055,21.973,37.109,32.715,22.461,34.668,0
16161.059,19.043,39.062,33.691,15.625,56.152,0
16161.063,40.527,33.203,29.297,29.297,21.973,0
16161.067,43.945,28.809,26.367,32.227,56.152,0
16161.071,27.832,34.180,32.715,29.785,86.426,0
16161.075,16.113,39.551,33.203,24.414,27.832,0
16161.079,20.020,32.715,23.438,23.926,52.734,0
16161.083,29.785,28.320,21.973,30.273,82.031,0
16161.087,22.949,27.832,25.391,28.809,79.102,0
16161.090,8.301,32.227,28.809,18.066,64.941,0
16161.094,18.066,30.762,26.855,19.531,44.922,0
16161.098,30.273,22.461,21.973,32.227,56.641,0
16161.102,29.297,22.949,25.391,36.621,25.879,0
16161.106,17.578,30.762,30.762,27.832,-11.719,0
16161.110,22.949,30.273,27.344,24.902,30.762,0
16161.114,42.969,26.367,21.973,36.133,70.801,0
16161.118,42.480,28.809,23.926,37.598,-4.395,0
16161.122,28.320,33.203,27.832,28.809,44.922,0
16161.126,24.902,33.691,27.832,23.926,59.082,0
16161.129,43.457,27.344,24.414,31.250,6.836,0
16161.133,52.734,27.344,23.438,31.738,50.781,0
16161.137,43.945,34.668,25.879,29.785,6.836,0
16161.141,40.527,40.039,33.203,31.738,-52.734,0
16161.145,50.781,36.133,32.715,31.250,3.418,0
16161.149,57.617,29.785,26.367,32.227,59.570,0
16161.153,50.293,30.273,33.691,32.715,55.664,0
16161.157,36.621,33.203,40.527,23.926,53.711,0
16161.161,39.062,32.227,33.203,22.949,25.879,0
16161.165,54.199,28.809,28.809,34.668,-8.301,0
16161.169,44.922,28.809,31.250,32.715,60.547,0
16161.172,21.973,33.203,38.086,20.508,34.180,0
16161.176,19.531,31.738,33.691,19.043,-6.836,0
16161.180,29.785,25.879,24.902,27.344,53.223,0
16161.184,26.855,20.996,26.855,30.762,16.113,0
16161.188,15.137,22.461,32.227,32.227,-29.297,0
16161.192,6.836,27.832,34.180,28.320,52.246,0
16161.196,15.137,24.902,32.227,35.156,69.824,0
16161.200,28.320,24.414,33.691,45.898,5.371,0
16161.204,25.391,31.738,39.062,41.016,21.484,0
16161.208,10.254,34.668,39.551,30.273,31.250,0
16161.212,19.531,29.785,31.250,29.785,7.324,0
16161.215,36.621,25.391,24.414,37.598,-1.465,0
16161.219,32.227,26.855,26.367,31.250,20.020,0
16161.223,23.438,32.227,33.203,24.902,94.727,0
16161.227,33.691,29.297,29.785,24.902,96.680,0
16161.231,52.246,26.367,23.926,29.785,25.391,0
16161.235,47.852,33.203,27.832,37.109,-24.902,0
16161.239,25.879,39.551,32.227,26.367,10.254,0
16161.243,19.043,38.574,34.180,21.484,56.641,0
16161.247,32.715,33.203,30.762,34.180,2.441,0
16161.251,34.180,30.273,27.344,34.180,-21.484,0
16161.254,20.996,35.156,31.250,25.391,-35.156,0
16161.258,10.742,39.062,35.645,22.949,-45.898,0
16161.262,23.926,35.156,32.227,31.250,-14.160,0
16161.266,39.062,35.156,31.250,35.645,35.645,0
16161.270,27.344,38.574,38.086,31.738,28.809,0
16161.274,13.672,40.039,43.457,23.926,40.039,0
16161.278,15.137,32.715,35.156,24.414,99.609,0
16161.282,21.484,28.809,30.762,37.109,38.086,0
16161.286,15.625,27.832,37.598,42.480,-6.348,0
16161.290,1.465,27.832,39.551,28.809,29.785,0
16161.294,11.719,30.762,37.109,27.344,12.695,0
16161.297,32.715,32.227,34.180,41.016,34.180,0
16161.301,38.086,33.691,35.156,40.527,83.984,0
16161.305,27.344,35.156,39.062,29.785,28.809,0
16161.309,19.531,35.156,39.062,28.809,27.832,0
16161.313,29.297,29.297,32.227,32.227,6.836,0
16161.317,38.086,27.344,31.250,33.203,-30.273,0
16161.321,28.809,34.668,37.109,29.297,9.766,0
16161.325,13.184,38.086,36.621,19.531,45.410,0
16161.329,24.414,31.250,28.809,27.832,52.734,0
16161.333,33.203,30.762,27.344,37.109,12.207,0
16161.337,24.902,34.668,34.668,34.180,-4.883,0
16161.340,11.719,38.086,41.016,28.320,-29.297,0
16161.344,14.160,39.062,37.109,31.738,-29.785,0
16161.348,28.320,36.133,28.320,38.086,34.180,0
16161.352,20.508,34.668,28.320,35.156,46.387,0
16161.356,4.395,34.180,37.109,28.809,34.668,0
16161.360,6.348,34.668,34.180,24.902,29.297,0
16161.364,24.902,30.273,28.320,33.691,-20.020,0
16161.368,25.391,27.344,30.762,34.668,-8.789,0
16161.372,7.812,36.133,33.203,22.461,41.992,0
16161.376,-0.977,37.598,34.180,22.949,30.762,0
16161.379,13.184,29.297,31.738,38.574,-13.672,0
16161.383,19.531,29.297,31.738,42.969,-42.969,0
16161.387,11.230,31.250,37.109,38.086,-14.160,0
16161.391,2.930,30.762,39.062,30.273,15.137,0
16161.395,14.160,27.344,32.715,38.086,39.551,0
16161.399,28.320,23.438,24.902,51.758,52.246,0
16161.403,21.484,25.879,26.367,40.039,36.621,0
16161.407,6.836,30.273,35.156,25.391,-38.086,0
16161.411,16.113,27.832,31.738,28.320,8.789,0
16161.415,39.062,25.879,22.461,33.203,84.473,0
16161.419,35.156,25.879,23.926,32.715,56.152,0
16161.422,20.508,35.156,36.133,25.879,13.184,0
16161.426,22.461,42.480,34.180,21.484,18.066,0
16161.430,32.227,36.133,23.438,36.133,74.219,0
16161.434,31.738,37.109,25.879,39.062,17.090,0
16161.438,13.184,39.062,27.344,20.020,17.090,0
16161.442,5.371,41.016,27.344,16.113,51.270,0
16161.446,22.949,37.598,25.879,28.809,-3.418,0
16161.450,21.484,30.273,24.902,34.180,-1.953,0
16161.454,6.836,34.668,28.320,30.273,22.949,0
16161.458,-1.953,37.598,31.738,20.508,63.477,0
16161.462,2.441,33.203,34.668,26.367,71.777,0
16161.465,6.836,29.785,33.691,44.434,75.195,0
16161.469,1.953,34.180,38.086,44.434,80.078,0
16161.473,-12.695,35.156,41.992,27.832,32.715,0
16161.477,-16.602,26.855,38.086,26.367,-38.574,0
16161.481,-3.906,26.367,35.645,36.133,5.859,0
16161.485,1.953,35.645,39.551,41.016,0.000,0
16161.489,-9.277,38.574,46.875,32.715,13.184,0
16161.493,-12.695,32.715,44.922,26.855,67.383,0
16161.497,7.324,26.367,36.133,38.086,3.906,0
16161.501,19.043,24.902,36.133,43.457,6.836,0
16161.504,12.695,28.320,38.086,31.738,20.996,0
16161.508,9.766,26.855,36.133,20.020,61.523,0
16161.512,28.320,21.973,31.738,29.785,32.715,0
16161.516,43.945,26.855,30.273,38.574,-40.039,0
16161.520,38.574,30.762,35.156,29.297,0.000,0
16161.524,28.320,33.691,36.621,18.066,53.223,0
16161.528,39.551,32.715,27.832,21.484,26.855,0
16161.532,47.852,26.367,23.926,31.738,45.410,0
16161.536,36.133,24.414,27.344,30.273,33.691,0
16161.540,25.391,31.738,31.738,18.066,-55.176,0
16161.544,37.109,38.574,30.273,17.090,20.996,0
16161.547,51.758,31.738,24.414,26.367,71.777,0
16161.551,45.410,29.297,23.926,33.691,38.574,0
16161.555,29.297,33.203,31.738,30.273,1.953,0
16161.559,25.391,30.273,30.273,26.855,19.531,1
16161.563,49.316,27.832,26.367,34.180,45.898,0
16161.567,59.082,23.926,31.250,40.527,37.598,0
16161.571,43.457,25.391,34.668,33.203,15.137,0
16161.575,31.738,29.297,34.180,23.926,27.832,0
16161.579,44.922,23.926,26.855,31.250,24.902,0
16161.583,65.430,25.391,21.484,35.645,25.391,0
16161.587,68.848,28.809,25.879,32.715,28.320,0
16161.590,63.965,29.785,34.668,25.879,9.277,0
16161.594,81.055,29.297,35.156,30.762,30.762,0
16161.598,94.727,29.785,33.203,42.480,16.602,0
16161.602,84.961,33.691,30.762,37.109,38.574,0
16161.606,64.453,34.668,31.738,24.902,65.430,0
16161.610,56.152,33.203,31.738,24.902,41.504,0
16161.614,69.824,26.855,24.902,32.715,41.016,0
16161.618,75.195,25.391,22.949,35.156,65.430,0
16161.622,67.871,33.691,30.762,29.297,82.031,0
16161.626,67.383,36.621,34.180,24.902,14.160,0
16161.629,81.055,31.738,25.879,27.832,-8.301,0
16161.633,91.309,29.785,24.902,30.273,57.129,0
16161.637,91.797,34.180,29.297,22.461,27.832,0
16161.641,90.820,38.574,30.762,17.090,-22.949,0
16161.645,105.469,34.668,27.344,24.414,-1.465,0
16161.649,119.141,31.250,21.973,30.762,-39.551,0
16161.653,105.469,37.598,29.297,32.715,-14.648,0
16161.657,78.613,41.504,43.457,31.250,7.812,0
16161.661,81.543,32.715,39.062,32.227,3.418,0
16161.665,108.887,29.297,33.203,40.527,31.250,0
16161.669,106.934,36.621,38.086,45.410,25.879,0
16161.672,67.871,39.551,40.527,41.992,8.789,0
16161.676,59.082,35.156,38.086,43.945,-1.465,0
16161.680,82.031,26.855,33.691,58.594,44.922,0
16161.684,88.867,25.879,32.715,56.152,41.504,0
16161.688,78.613,32.715,36.133,34.180,38.574,0
16161.692,78.613,36.621,41.016,23.926,74.219,0
16161.696,93.262,32.227,37.109,41.016,13.184,0
16161.700,96.191,30.762,34.668,60.059,-50.293,0
16161.704,84.473,34.668,40.527,57.129,51.758,0
16161.708,72.754,35.645,41.504,39.551,98.633,0
16161.712,92.285,33.203,36.621,35.645,14.648,0
16161.715,115.723,26.855,31.250,33.691,21.973,0
16161.719,106.934,28.320,31.250,10.254,90.332,0
16161.723,97.656,42.969,37.109,-12.207,85.449,0
16161.727,105.957,45.898,34.668,-10.742,20.020,0
16161.731,121.094,34.180,28.809,-0.488,-11.230,0
16161.735,123.047,34.180,31.250,3.418,1.465,0
16161.739,100.586,38.574,38.574,2.930,31.738,0
16161.743,82.520,36.621,39.062,6.348,18.066,0
16161.747,84.473,29.785,33.691,20.508,20.508,0
16161.751,82.520,28.809,35.156,28.809,79.590,0
16161.754,69.336,31.738,37.598,24.414,74.219,0
16161.758,63.477,36.133,42.480,21.484,27.832,0
16161.762,84.961,34.668,42.969,34.180,-13.184,0
16161.766,99.609,31.250,37.598,41.016,27.832,0
16161.770,84.961,33.691,38.086,37.598,54.199,0
16161.774,68.848,36.133,43.945,37.109,16.113,0
16161.778,80.078,30.273,38.086,34.180,1.465,0
16161.782,99.121,27.344,34.180,38.086,24.414,0
16161.786,97.168,31.250,38.574,41.016,37.109,0
16161.790,84.473,35.645,41.016,27.344,39.551,0
16161.794,88.867,34.668,35.156,23.438,46.387,0
16161.797,102.539,32.227,25.879,32.715,42.480,0
16161.801,99.609,33.203,28.809,37.109,38.086,0
16161.805,83.008,36.133,33.203,30.273,50.293,0
16161.809,72.754,35.156,29.297,21.973,51.270,0
16161.813,87.402,27.832,25.391,26.367,41.504,0
16161.817,99.121,27.344,27.344,31.738,16.602,0
16161.821,89.844,33.691,30.762,26.855,-17.578,0
16161.825,71.289,34.180,35.156,19.043,6.348,0
16161.829,71.289,29.785,30.273,26.367,40.527,0
16161.833,81.055,29.297,23.438,33.691,-20.508,0
16161.837,73.242,28.809,28.809,31.738,-20.996,0
16161.840,55.664,30.273,38.086,29.297,53.711,0
16161.844,57.617,27.344,37.598,30.762,25.879,0
16161.848,67.871,24.902,30.273,36.133,22.949,0
16161.852,57.617,27.832,31.738,36.133,7.812,0
16161.856,40.527,29.785,40.527,25.879,-8.301,0
16161.860,42.969,25.879,38.086,24.902,16.113,0
16161.864,60.547,22.461,32.715,39.551,41.992,0
16161.868,64.453,26.367,35.645,42.480,13.184,0
16161.872,47.852,30.273,39.062,28.320,7.812,0
16161.876,44.922,28.809,39.551,20.020,46.875,0
16161.879,61.523,22.461,33.203,30.762,48.828,0
16161.883,71.777,24.414,32.715,38.574,46.387,0
16161.887,61.035,31.250,37.598,31.738,36.133,0
16161.891,51.270,32.715,41.992,20.020,16.602,0
16161.895,65.918,26.855,32.227,22.949,53.711,0
16161.899,80.078,21.973,22.949,29.785,84.473,0
16161.903,79.102,30.762,30.762,32.715,28.320,0
16161.907,61.035,37.598,34.668,26.855,52.734,0
16161.911,64.941,32.227,27.832,22.461,91.309,0
16161.915,86.426,29.297,20.996,34.668,4.883,0
16161.919,81.055,31.250,23.926,38.086,4.395,0
16161.922,62.500,35.645,33.691,27.832,12.207,0
16161.926,59.570,34.180,35.156,23.926,5.859,0
16161.930,75.195,29.785,30.762,31.250,66.895,0
16161.934,76.172,27.832,30.762,28.809,40.527,0
16161.938,59.082,29.785,32.715,22.949,-3.418,0
16161.942,52.734,34.180,34.668,20.020,-16.602,0
16161.946,68.359,29.297,28.320,23.926,-23.438,0
16161.950,72.266,24.414,22.461,30.273,22.461,0
16161.954,55.176,28.320,26.367,29.785,11.719,0
16161.958,39.062,29.785,31.250,19.531,41.992,0
16161.962,51.758,28.320,30.762,20.508,58.105,0
16161.965,68.848,28.320,28.809,31.738,-16.602,0
16161.969,62.988,28.320,28.320,31.738,-28.320,0
16161.973,49.805,32.227,33.203,21.484,-6.348,0
16161.977,56.641,35.156,30.273,20.020,18.066,0
16161.981,74.219,33.203,20.996,28.809,49.316,0
16161.985,69.824,32.715,23.926,30.273,27.344,0
16161.989,47.852,35.645,29.785,20.508,-7.324,0
16161.993,44.922,38.574,30.762,19.043,-6.836,0
16161.997,66.406,35.645,24.902,29.785,58.105,0
16162.001,71.289,35.156,20.508,33.691,53.223,0
16162.004,57.617,40.039,27.344,27.832,-18.066,0
16162.008,51.758,41.504,31.738,20.020,0.488,0
16162.012,64.453,32.715,24.902,21.484,12.207,0
16162.016,72.266,28.809,23.926,22.949,16.113,0
16162.020,61.523,30.762,30.273,21.973,49.316,0
16162.024,49.805,35.156,33.691,20.020,57.129,0
16162.028,57.617,31.250,30.273,21.973,45.410,0
16162.032,72.266,25.879,26.855,32.715,58.105,0
16162.036,69.824,30.762,28.809,35.156,-9.277,0
16162.040,54.199,38.086,33.691,27.832,-30.762,0
16162.044,57.617,37.109,31.250,31.250,15.625,0
16162.047,75.684,32.227,24.414,37.109,45.410,0
16162.051,79.590,32.227,26.367,41.504,11.230,0
16162.055,63.477,36.621,35.156,35.156,61.523,0
16162.059,65.918,39.062,35.156,30.762,70.801,0
16162.063,87.891,35.645,25.879,39.062,10.742,2
16162.067,87.402,31.250,25.391,37.109,31.250,0
16162.071,72.266,36.133,31.250,27.832,41.016,0
16162.075,60.059,37.109,28.809,23.438,1.953,0
16162.079,68.359,32.227,20.996,29.785,-1.465,0
16162.083,81.543,32.227,20.508,36.621,6.836,0
16162.087,75.195,35.156,25.879,36.133,-31.250,0
16162.090,53.223,34.668,29.297,24.902,-45.898,0
16162.094,58.594,33.691,25.879,28.320,-13.184,0
16162.098,76.172,33.203,22.949,37.109,24.414,0
16162.102,71.777,34.668,27.344,28.809,45.898,0
16162.106,56.152,39.062,34.180,18.066,84.961,0
16162.110,56.152,37.598,28.809,15.625,100.098,0
16162.114,65.430,30.273,20.020,21.973,84.473,0
16162.118,61.523,30.273,22.949,25.391,22.461,0
16162.122,46.875,35.645,33.691,19.043,25.879,0
16162.126,40.527,36.133,31.738,10.254,68.848,0
16162.129,62.500,33.203,22.949,25.391,34.668,0
16162.133,61.523,29.785,24.902,33.691,13.184,0
16162.137,35.645,30.273,35.645,22.949,6.348,0
16162.141,14.648,41.504,42.969,17.090,16.602,0
16162.145,14.160,40.039,34.668,12.207,13.672,0
16162.149,31.250,33.203,30.273,20.508,12.207,0
16162.153,18.066,31.250,32.715,15.137,12.207,0
16162.157,-4.883,34.180,38.574,-6.348,-6.836,0
16162.161,-13.184,31.250,36.133,-20.020,-10.742,0
16162.165,-19.531,24.902,27.832,-22.461,22.949,0
16162.169,-29.297,30.273,30.762,-23.926,40.039,0
16162.172,-34.180,44.922,43.457,-29.297,39.062,0
16162.176,-40.039,45.410,48.828,-44.434,38.086,0
16162.180,-41.992,30.762,41.016,-60.059,72.266,0
16162.184,-56.641,31.250,38.574,-77.637,27.832,0
16162.188,-80.566,34.180,41.504,-96.191,-0.488,0
16162.192,-88.379,32.715,47.363,-108.398,-10.254,0
16162.196,-77.637,27.832,43.945,-115.723,-1.465,0
16162.200,-73.730,24.414,41.992,-115.234,54.688,0
16162.204,-85.938,25.391,53.223,-116.699,3.418,0
16162.208,-97.168,28.320,58.594,-119.141,-52.734,0
16162.212,-83.008,20.996,48.340,-101.562,27.344,0
16162.215,-58.105,13.672,41.016,-80.566,53.223,0
16162.219,-47.363,20.996,50.781,-63.477,9.766,0
16162.223,-42.480,30.273,56.152,-50.293,64.941,0
16162.227,-21.484,30.273,47.852,-34.668,82.031,0
16162.231,13.672,22.949,42.480,-11.230,17.090,0
16162.235,31.250,22.949,38.086,4.883,43.457,0
16162.239,25.391,30.273,42.969,12.695,89.844,0
16162.243,32.715,26.855,41.992,25.391,23.438,0
16162.247,67.383,22.949,33.203,48.828,4.395,0
16162.251,83.496,25.391,34.180,63.965,43.457,0
16162.254,74.707,28.809,37.109,64.453,74.707,0
16162.258,58.105,30.762,34.668,62.500,36.621,0
16162.262,60.059,22.461,23.926,73.730,25.879,0
16162.266,73.730,21.484,21.484,87.402,12.207,0
16162.270,65.918,30.273,26.367,86.426,-59.082,0
16162.274,56.152,35.156,30.762,80.078,14.648,0
16162.278,65.918,32.227,26.855,86.914,21.973,0
16162.282,82.520,27.344,24.902,97.656,-44.434,0
16162.286,85.449,32.227,27.344,96.680,39.062,0
16162.290,71.289,40.527,29.785,83.984,19.531,0
16162.294,70.312,39.062,24.414,78.125,-12.695,0
16162.297,84.961,37.109,15.625,87.402,45.898,0
16162.301,82.031,40.039,20.020,89.844,55.176,0
16162.305,62.988,44.434,25.391,76.172,-4.395,0
16162.309,57.129,41.504,23.926,67.383,32.227,0
16162.313,71.777,36.133,19.043,75.195,81.543,0
16162.317,79.102,35.156,17.090,77.148,20.020,0
16162.321,68.848,37.109,24.414,70.801,51.758,0
16162.325,52.734,40.527,29.297,63.965,67.383,0
16162.329,52.734,35.645,24.414,67.871,38.574,0
16162.333,62.988,28.809,18.555,70.801,54.199,0
16162.337,59.082,33.203,19.531,66.406,7.324,0
16162.340,50.781,39.062,28.809,63.965,-30.762,0
16162.344,59.570,32.227,25.391,64.453,-0.977,0
16162.348,73.730,25.391,13.672,67.871,29.297,0
16162.352,71.777,29.785,14.160,66.406,3.906,0
16162.356,59.082,37.598,24.414,56.152,-60.059,0
16162.360,61.523,38.086,24.902,52.246,-47.852,0
16162.364,80.566,34.180,19.043,56.641,43.457,0
16162.368,81.055,32.715,20.508,55.176,43.457,0
16162.372,65.430,34.180,26.855,51.270,24.414,0
16162.376,60.547,32.715,27.344,45.898,58.594,0
16162.379,80.078,30.762,20.508,48.828,42.969,0
16162.383,90.332,32.715,20.508,54.199,57.617,0
16162.387,80.078,39.062,25.391,51.758,4.883,0
16162.391,71.289,45.410,28.809,44.434,-9.277,0
16162.395,84.473,39.551,26.855,48.340,52.734,0
16162.399,93.262,32.715,23.926,53.711,69.336,0
16162.403,80.078,35.156,25.391,45.898,66.406,0
16162.407,60.059,41.504,28.320,35.645,0.977,0
16162.411,69.336,39.062,24.414,38.086,-47.363,0
16162.415,87.402,32.227,20.996,47.852,7.324,0
16162.419,80.566,32.227,23.926,43.945,81.055,0
16162.422,66.406,39.551,31.250,33.691,86.426,0
16162.426,65.430,38.574,33.203,37.109,58.594,0
16162.430,80.078,29.297,24.414,44.922,49.316,0
16162.434,85.449,24.902,22.461,46.387,58.594,0
16162.438,66.895,31.250,31.250,42.480,19.043,0
16162.442,58.105,38.086,36.621,39.062,46.387,0
16162.446,69.824,32.715,34.668,47.363,35.645,0
16162.450,64.941,29.785,30.273,50.293,5.859,0
16162.454,47.363,34.180,32.227,46.387,61.035,0
16162.458,32.227,37.109,37.598,41.504,82.520,0
16162.462,44.434,35.156,37.598,48.340,91.309,0
16162.465,62.012,29.785,34.668,51.758,28.320,0
16162.469,48.828,26.367,31.738,41.992,-16.113,0
16162.473,28.320,29.785,34.180,33.691,9.277,0
16162.477,36.621,25.879,30.762,31.250,-3.418,0
16162.481,58.594,21.484,26.367,34.180,0.000,0
16162.485,59.082,26.367,30.762,36.621,3.906,0
16162.489,45.410,30.762,31.738,27.832,-49.805,0
16162.493,48.828,33.203,31.250,23.438,-3.418,0
16162.497,69.336,33.203,26.367,30.762,70.312,0
16162.501,70.801,35.645,23.926,35.645,-32.227,0
16162.504,50.781,40.527,26.855,28.320,-30.273,0
16162.508,35.156,41.504,27.832,22.461,54.688,0
16162.512,47.852,37.109,20.508,27.344,-33.203,0
16162.516,55.664,32.715,18.066,29.297,11.719,0
16162.520,44.922,36.621,30.273,25.391,70.312,0
16162.524,34.180,41.504,40.039,17.090,26.367,0
16162.528,41.016,37.109,32.227,16.113,24.414,0
16162.532,51.758,31.738,24.902,20.020,31.738,0
16162.536,46.875,31.738,26.367,18.066,13.672,0
16162.540,33.691,36.133,28.809,12.207,-32.715,0
16162.544,35.156,34.180,29.785,15.137,-10.254,0
16162.547,51.270,25.391,26.367,26.367,27.344,0
16162.551,51.758,28.320,27.344,32.227,44.434,0
16162.555,42.969,39.062,36.133,29.297,16.602,0
16162.559,47.363,43.945,38.086,27.832,5.859,0
16162.563,66.406,37.109,29.785,37.109,70.801,0
16162.567,67.383,32.227,26.367,41.016,50.293,0
16162.571,54.199,34.180,31.738,32.715,1.465,0
16162.575,43.457,34.180,34.668,22.949,-5.859,0
16162.579,52.734,29.785,28.320,22.949,-17.090,0
16162.583,61.035,25.391,25.391,25.391,-1.465,0
16162.587,56.152,29.297,30.273,27.344,58.594,0
16162.590,48.340,37.109,38.086,24.414,39.551,0
16162.594,51.758,36.133,32.227,27.344,0.977,0
16162.598,64.453,28.320,23.438,38.086,20.996,0
16162.602,61.523,25.391,28.809,39.551,18.555,0
16162.606,43.945,34.180,35.645,30.762,32.227,0
16162.610,41.016,34.180,31.738,25.391,60.547,0
16162.614,54.199,30.762,25.879,30.762,53.711,0
16162.618,53.711,32.715,30.762,36.621,53.711,0
16162.622,39.551,38.086,39.062,33.691,37.109,0
16162.626,32.227,41.504,38.086,23.438,5.371,0
16162.629,38.574,32.227,28.320,25.879,25.879,1
16162.633,41.504,25.391,24.414,28.809,52.734,0
16162.637,23.438,29.785,26.855,20.508,29.785,0
16162.641,7.324,33.691,29.785,19.531,43.457,0
16162.645,14.160,29.297,25.879,29.785,53.223,0
16162.649,14.648,24.414,21.484,35.156,-39.551,0
16162.653,12.207,31.738,27.344,34.180,-52.734,0
16162.657,3.418,39.551,32.715,30.762,35.156,0
16162.661,-5.371,31.738,29.297,37.109,41.992,0
16162.665,-4.883,20.996,24.414,41.016,38.574,0
16162.669,-17.578,24.414,27.832,38.086,26.855,0
16162.672,-45.898,34.180,33.203,28.809,-13.672,0
16162.676,-46.875,35.156,27.832,23.438,-2.441,0
16162.680,-23.438,30.762,22.461,31.250,51.758,0
16162.684,-21.484,32.715,24.902,28.320,68.848,0
16162.688,-32.715,36.621,32.715,23.438,46.875,0
16162.692,-43.945,38.086,32.715,19.531,19.043,0
16162.696,-31.250,35.645,27.344,25.391,33.691,0
16162.700,-22.949,33.691,27.832,33.203,57.129,0
16162.704,-37.598,37.109,35.156,33.203,38.086,0
16162.708,-48.828,38.574,39.062,24.902,66.895,0
16162.712,-42.480,32.227,31.250,25.391,71.777,0
16162.715,-31.250,28.809,28.320,38.574,43.457,0
16162.719,-37.109,34.668,35.645,40.527,55.176,0
16162.723,-47.852,39.062,40.527,33.203,32.715,0
16162.727,-44.922,33.691,33.203,32.715,-16.113,0
16162.731,-30.273,27.344,29.785,36.621,-2.930,0
16162.735,-30.273,31.738,37.598,37.598,-4.395,0
16162.739,-50.781,38.086,41.504,29.785,52.734,0
16162.743,-49.805,38.574,41.016,26.367,24.902,0
16162.747,-30.762,33.691,40.039,37.109,-41.504,0
16162.751,-29.297,30.762,40.527,41.992,16.602,0
16162.754,-39.062,35.645,46.387,34.180,53.223,0
16162.758,-46.875,38.574,45.898,26.367,4.883,0
16162.762,-36.621,34.180,37.109,34.668,-31.250,0
16162.766,-32.715,29.297,35.156,39.062,-16.602,0
16162.770,-44.434,32.715,40.527,35.156,20.996,0
16162.774,-57.617,38.086,45.410,29.297,-24.902,0
16162.778,-49.805,31.250,41.016,30.273,-28.320,0
16162.782,-30.273,28.809,39.551,41.992,44.434,0
16162.786,-37.598,33.691,42.969,36.621,-4.395,0
16162.790,-53.711,34.668,41.504,21.484,10.254,0
16162.794,-40.527,32.715,37.109,23.438,92.285,0
16162.797,-22.461,26.855,27.832,26.855,64.453,0
16162.801,-16.113,28.320,27.344,36.621,0.977,0
16162.805,-26.367,37.109,36.621,34.180,9.277,0
16162.809,-31.250,38.574,34.668,23.926,64.941,0
16162.813,-7.324,31.738,25.879,35.645,71.777,0
16162.817,-1.953,28.809,23.926,42.969,-10.742,0
16162.821,-16.602,36.133,31.738,39.062,-51.270,0
16162.825,-23.926,40.527,37.109,30.762,49.805,0
16162.829,-8.789,36.133,32.227,33.203,61.523,0
16162.833,3.906,33.203,28.809,38.574,32.227,0
16162.837,-12.207,32.227,29.785,31.250,11.719,0
16162.840,-37.598,32.715,32.715,14.648,7.812,0
16162.844,-26.367,29.297,29.297,13.672,43.945,0
16162.848,-8.789,21.973,25.879,25.879,9.277,0
16162.852,-26.367,22.949,27.344,25.879,58.594,0
16162.856,-45.410,30.273,33.691,22.461,57.617,0
16162.860,-43.457,27.344,29.297,25.879,19.043,0
16162.864,-27.832,23.926,24.414,33.203,70.312,0
16162.868,-22.461,27.832,33.691,35.156,49.316,0
16162.872,-41.992,32.227,40.039,24.902,13.184,0
16162.876,-52.734,31.738,37.598,13.184,8.301,0
16162.879,-40.527,24.902,26.367,20.996,-0.977,0
16162.883,-27.832,25.391,25.391,32.715,15.625,0
16162.887,-32.715,30.762,29.785,28.320,19.043,0
16162.891,-46.387,31.250,31.250,15.625,37.598,0
16162.895,-31.250,28.809,23.438,18.555,5.371,0
16162.899,-11.719,29.785,18.066,30.762,13.184,0
16162.903,-19.043,33.691,24.902,30.273,26.367,0
16162.907,-34.668,40.527,33.203,20.020,21.484,0
16162.911,-27.344,38.086,29.297,19.531,19.531,0
16162.915,-13.184,32.227,21.973,27.344,20.020,0
16162.919,-13.672,35.156,24.902,27.344,53.223,0
16162.922,-20.996,45.898,31.250,23.438,13.672,0
16162.926,-22.949,46.875,30.273,22.461,-7.324,0
16162.930,-12.695,36.133,21.484,30.273,-26.855,0
16162.934,-8.301,35.156,21.484,39.062,-58.105,0
16162.938,-20.996,37.598,27.344,30.273,-1.953,0
16162.942,-28.320,38.574,33.203,24.902,44.434,0
16162.946,-7.812,33.691,32.715,38.086,21.484,0
16162.950,1.465,29.297,29.785,42.480,7.812,0
16162.954,-10.254,31.250,32.227,33.203,55.664,0
16162.958,-22.461,35.156,35.645,22.949,10.742,0
16162.962,-9.766,33.691,32.227,27.344,-1.953,0
16162.965,6.836,30.762,27.344,38.086,61.523,0
16162.969,-2.441,32.227,31.738,35.645,48.340,0
16162.973,-14.648,35.645,38.086,29.297,4.883,0
16162.977,-6.836,31.738,32.227,35.645,-22.949,0
16162.981,5.859,25.391,25.391,39.551,0.977,0
16162.985,4.395,29.785,27.344,38.574,8.789,0
16162.989,-8.301,35.645,31.250,28.320,8.789,0
16162.993,-5.371,32.227,31.250,21.973,-2.441,0
16162.997,11.719,24.414,24.414,31.738,-2.441,0
16163.001,11.719,24.414,27.344,33.691,30.273,0
16163.004,-11.230,27.344,37.109,29.297,58.594,0
16163.008,-26.855,29.785,36.621,19.043,-3.418,0
16163.012,-3.906,27.832,28.809,22.461,-11.230,0
16163.016,13.184,27.832,29.297,32.715,19.531,0
16163.020,-0.977,32.227,35.156,25.391,-26.367,0
16163.024,-13.184,37.598,38.086,17.090,-30.273,0
16163.028,-2.930,34.180,32.715,23.438,38.086,0
16163.032,5.859,27.344,29.297,29.785,41.016,0
16163.036,-4.883,31.738,32.715,28.320,-7.324,0
16163.040,-21.484,41.016,37.598,21.484,-18.066,0
16163.044,-18.555,40.527,36.621,24.414,26.855,0
16163.047,-2.930,31.738,30.273,30.762,64.941,0
16163.051,-4.395,30.762,30.273,29.297,35.645,0
16163.055,-11.230,37.598,39.062,26.855,42.480,0
16163.059,-4.883,38.574,43.457,25.391,1.465,0
16163.063,13.672,33.691,35.156,34.180,35.645,0
16163.067,18.066,33.203,31.250,39.062,85.938,0
16163.071,-2.930,35.156,36.621,31.738,36.621,0
16163.075,-17.578,35.645,36.621,23.438,15.625,0
16163.079,-2.441,26.855,26.367,24.414,-22.949,0
16163.083,12.207,25.391,24.902,33.203,0.488,0
16163.087,3.906,33.691,31.738,34.668,34.180,0
16163.090,-10.742,38.086,35.156,27.832,27.344,0
16163.094,0.488,34.180,31.738,29.785,52.734,0
16163.098,18.066,29.297,29.297,38.574,48.828,0
16163.102,12.207,25.391,33.691,34.180,36.621,0
16163.106,-12.207,23.926,36.133,19.531,23.926,0
16163.110,-12.207,27.832,32.715,18.555,29.297,0
16163.114,8.301,27.832,24.414,32.715,44.434,0
16163.118,3.418,27.832,25.391,37.598,-9.277,0
16163.122,-19.531,35.156,37.109,23.926,41.016,0
16163.126,-20.996,39.062,43.457,25.879,47.363,0
16163.129,-3.906,34.180,34.668,36.133,-41.504,0
16163.133,-1.953,30.273,29.297,33.203,-2.930,0
16163.137,-11.230,33.691,35.156,27.832,58.594,0
16163.141,-17.578,38.574,41.016,23.926,43.457,0
16163.145,-0.977,35.645,35.156,32.715,5.859,0
16163.149,13.184,30.762,31.738,40.527,42.480,0
16163.153,8.789,33.203,35.645,35.645,91.797,0
16163.157,0.977,37.598,39.062,28.320,43.457,0
16163.161,11.230,34.668,38.086,32.715,-6.836,0
16163.165,20.996,28.809,30.273,39.062,34.668,0
16163.169,12.207,28.809,28.809,33.691,43.945,0
16163.172,1.953,35.645,36.133,23.438,14.648,0
16163.176,0.977,31.738,35.156,21.484,10.254,0
16163.180,14.160,21.973,24.414,26.855,40.527,0
16163.184,13.184,23.926,24.902,34.668,49.316,0
16163.188,-8.301,30.762,30.762,28.809,64.941,0
16163.192,-15.625,30.273,30.273,20.020,43.457,2
16163.196,1.465,25.879,24.902,30.273,43.457,0
16163.200,6.348,25.879,24.902,36.133,65.430,0
16163.204,-2.441,26.855,30.762,28.809,47.363,0
16163.208,-12.695,30.273,32.715,22.461,59.082,0
16163.212,-1.465,25.879,27.344,29.297,56.641,0
16163.215,12.207,22.461,26.855,38.574,45.410,0
16163.219,0.000,25.879,33.203,37.598,27.832,0
16163.223,-18.555,31.738,37.598,30.273,21.484,0
16163.227,-14.648,31.250,36.133,27.344,13.184,0
16163.231,0.000,25.391,26.855,33.691,19.531,0
16163.235,1.465,24.414,25.879,35.645,34.668,0
16163.239,-16.602,26.855,33.203,26.367,28.809,0
16163.243,-22.461,32.227,32.715,20.020,-9.766,0
16163.247,5.859,35.645,26.367,30.762,-3.418,0
16163.251,19.043,38.574,28.320,34.668,-14.648,0
16163.254,2.930,37.598,30.762,18.555,-35.156,0
16163.258,-10.742,36.621,30.762,9.766,-11.230,0
16163.262,3.906,34.180,24.902,19.043,-5.371,0
16163.266,20.508,33.203,23.438,23.438,39.551,0
16163.270,16.113,39.062,30.762,20.020,46.875,0
16163.274,3.906,43.457,35.156,19.043,49.805,0
16163.278,13.184,38.574,30.273,21.973,6.348,0
16163.282,29.785,33.203,26.367,25.391,23.438,0
16163.286,23.438,33.203,26.367,27.832,30.762,0
16163.290,8.789,34.668,28.809,20.996,35.645,0
16163.294,17.090,33.203,29.785,21.973,51.270,0
16163.297,29.297,30.762,25.879,29.785,27.344,0
16163.301,22.949,26.367,24.902,30.762,23.926,0
16163.305,2.930,29.297,29.297,24.902,42.480,0
16163.309,-6.836,35.156,31.250,17.090,31.738,0
16163.313,12.207,31.250,25.879,28.809,15.625,0
16163.317,17.578,29.785,25.391,35.156,54.199,0
16163.321,3.906,36.133,31.738,26.367,34.668,0
16163.325,-8.301,35.645,32.227,17.578,11.719,0
16163.329,1.953,26.367,26.367,20.996,36.621,0
16163.333,17.090,25.391,25.391,26.367,43.457,0
16163.337,9.766,29.297,29.785,21.973,20.508,0
16163.340,-2.441,32.227,36.621,19.043,21.484,0
16163.344,13.184,33.691,35.156,24.414,40.527,0
16163.348,31.738,32.715,29.297,30.273,53.711,0
16163.352,27.344,31.250,30.273,30.762,70.801,0
16163.356,16.113,36.133,35.156,20.508,85.449,0
16163.360,20.996,33.691,34.180,19.531,35.156,0
16163.364,39.551,28.809,28.809,32.227,2.441,0
16163.368,41.504,33.203,26.367,35.645,-6.348,0
16163.372,25.879,39.551,34.668,26.855,15.625,0
16163.376,19.043,39.551,39.062,20.996,-1.465,0
16163.379,33.203,34.180,29.785,29.297,-10.254,0
16163.383,39.062,33.691,30.273,35.156,4.883,0
16163.387,30.273,36.621,38.086,28.809,0.488,0
16163.391,15.625,36.133,39.062,22.461,31.250,0
16163.395,22.461,31.250,35.156,29.785,47.363,0
16163.399,32.227,28.320,30.762,36.133,29.297,0
16163.403,16.113,28.809,32.227,30.762,22.949,0
16163.407,-2.930,32.715,39.551,26.367,-30.273,0
16163.411,0.977,29.785,35.645,27.832,-23.926,0
16163.415,14.648,24.902,30.762,34.668,2.930,0
16163.419,11.719,25.391,33.691,40.527,-2.930,0
16163.422,-4.395,29.297,39.551,33.203,4.883,0
16163.426,-3.418,35.645,37.598,26.367,14.160,0
16163.430,10.742,33.691,32.715,34.180,41.992,0
16163.434,14.648,33.691,34.668,38.574,2.441,0
16163.438,2.441,35.156,40.039,32.227,-21.484,0
16163.442,-4.883,32.227,41.992,28.809,7.324,0
16163.446,16.602,27.832,34.180,34.180,3.906,0
16163.450,27.832,26.367,30.273,37.109,48.340,0
16163.454,19.043,29.785,32.715,31.250,56.641,0
16163.458,15.137,37.598,36.133,24.902,-34.180,0
16163.462,25.879,36.621,29.785,30.762,-6.348,0
16163.465,32.715,31.250,23.926,40.039,100.098,0
16163.469,24.414,35.156,30.762,41.016,82.031,0
16163.473,11.719,41.992,38.574,35.645,47.363,0
16163.477,21.973,39.551,36.621,35.156,-10.742,0
16163.481,37.109,35.156,31.250,44.434,-28.809,0
16163.485,25.391,32.227,32.227,44.922,-19.531,0
16163.489,9.277,36.133,39.551,31.250,-43.945,0
16163.493,6.348,39.551,37.598,25.391,31.250,0
16163.497,24.902,32.715,29.297,34.668,80.078,0
16163.501,34.668,34.668,31.250,41.504,71.777,0
16163.504,17.090,40.039,39.551,36.621,31.738,0
16163.508,2.930,35.645,40.527,27.344,9.766,0
16163.512,12.207,25.879,29.785,30.273,72.266,0
16163.516,17.578,22.461,27.344,38.574,33.691,0
16163.520,4.883,24.902,33.691,37.598,31.738,0
16163.524,-7.812,25.879,37.598,28.320,31.738,0
16163.528,1.953,20.020,32.715,28.320,2.930,0
16163.532,18.555,18.066,30.273,37.109,59.082,0
16163.536,12.695,21.973,30.762,33.691,71.777,0
16163.540,0.000,26.367,36.621,24.414,-1.465,0
16163.544,5.371,27.344,39.062,23.438,-24.902,0
16163.547,24.902,24.902,31.250,25.879,1.465,0
16163.551,32.227,29.785,28.809,27.344,12.695,0
16163.555,18.555,36.133,33.203,20.996,16.602,0
16163.559,20.996,37.598,30.762,16.113,17.090,0
16163.563,48.340,34.180,22.461,22.461,51.270,0
16163.567,51.758,32.227,21.484,25.879,53.223,0
16163.571,42.480,39.551,31.250,23.438,12.695,0
16163.575,33.691,43.457,37.598,17.578,6.836,0
16163.579,46.387,36.621,32.227,19.043,25.879,0
16163.583,64.941,34.180,30.762,29.785,-4.395,0
16163.587,45.410,33.691,35.156,27.344,-23.926,0
16163.590,14.160,33.691,37.109,14.160,20.508,0
16163.594,23.438,35.156,32.715,17.578,34.180,0
16163.598,45.898,29.785,26.855,28.809,-20.508,0
16163.602,45.410,29.297,31.250,31.738,-40.039,0
16163.606,37.109,37.109,35.156,27.832,22.461,0
16163.610,40.039,33.203,35.156,27.832,4.395,0
16163.614,48.828,25.391,29.785,29.785,0.488,0
16163.618,39.062,26.367,28.320,24.902,12.695,0
16163.622,20.508,29.785,33.691,16.113,35.156,0
16163.626,20.996,30.273,36.621,20.020,63.965,0
16163.629,43.945,26.367,33.691,30.762,56.641,0
16163.633,56.641,23.926,33.203,35.156,21.484,0
16163.637,53.711,28.320,38.086,31.738,16.602,0
16163.641,50.293,36.133,40.039,19.043,58.594,0
16163.645,67.871,35.156,37.109,25.391,46.387,0
16163.649,79.590,31.250,30.762,31.250,21.484,0
16163.653,68.359,34.180,29.297,19.531,49.316,0
16163.657,55.176,39.062,33.203,11.230,87.402,0
16163.661,67.871,34.180,29.297,13.184,54.688,0
16163.665,90.820,29.785,24.902,20.996,14.648,0
16163.669,90.332,29.785,24.414,28.320,17.578,0
16163.672,75.684,31.250,29.785,17.578,20.508,0
16163.676,69.824,29.785,34.180,15.625,1.465,0
16163.680,84.473,25.879,28.320,26.855,17.578,0
16163.684,96.191,28.809,30.762,29.785,40.039,0
16163.688,80.078,35.156,37.598,23.926,35.645,0
16163.692,66.895,34.668,36.133,17.578,8.789,0
16163.696,86.914,27.344,29.785,25.391,3.906,0
16163.700,98.633,25.879,28.320,33.203,15.625,0
16163.704,84.961,28.809,33.203,30.273,-11.230,0
16163.708,75.195,33.203,36.133,24.902,31.250,0
16163.712,90.332,29.785,33.203,31.738,65.918,0
16163.715,102.051,24.414,30.273,39.551,18.066,0
16163.719,96.191,26.855,32.715,39.062,8.301,0
16163.723,79.590,27.832,39.551,31.738,41.016,0
16163.727,83.008,24.414,38.086,32.227,0.488,0
16163.731,100.586,24.902,32.715,40.039,-10.742,0
16163.735,99.609,27.344,33.203,37.598,15.625,0
16163.739,84.473,31.738,38.574,28.809,28.809,0
16163.743,83.496,33.691,36.133,23.926,25.879,0
16163.747,100.586,27.344,26.367,24.414,31.738,0
16163.751,104.980,27.832,28.320,28.809,20.020,0
16163.754,90.332,33.691,36.621,29.297,20.996,0
16163.758,76.660,33.203,37.109,24.414,9.277,0
16163.762,85.449,22.949,31.738,24.414,21.973,1
16163.766,93.262,23.926,32.715,29.785,52.734,0
16163.770,79.102,31.738,33.203,25.391,-3.906,0
16163.774,63.965,33.691,34.180,15.137,-14.648,0
16163.778,74.707,34.668,33.203,25.391,29.785,0
16163.782,83.496,30.762,26.855,32.715,36.621,0
16163.786,73.242,31.738,28.320,27.832,24.902,0
16163.790,62.988,37.598,35.156,16.602,-15.137,0
16163.794,68.848,35.156,31.738,17.578,0.000,0
16163.797,75.684,29.297,25.391,30.762,63.477,0
16163.801,78.613,36.133,30.273,33.691,78.125,0
16163.805,68.848,43.945,36.621,28.320,21.484,0
16163.809,62.500,38.574,32.227,20.996,58.594,0
16163.813,77.148,30.273,24.902,28.320,66.406,0
16163.817,81.055,25.391,24.902,35.645,3.906,0
16163.821,71.289,29.297,29.785,29.297,8.301,0
16163.825,59.082,35.156,32.227,22.461,31.738,0
16163.829,71.777,28.809,27.344,24.414,39.551,0
16163.833,88.867,23.926,25.879,34.668,17.578,0
16163.837,84.473,31.250,31.250,38.086,-0.488,0
16163.840,68.359,38.086,35.156,28.809,-27.832,0
16163.844,75.684,35.645,30.762,32.227,-1.953,0
16163.848,92.773,30.762,23.926,36.621,10.254,0
16163.852,92.773,31.738,26.855,35.645,6.348,0
16163.856,70.312,36.133,32.715,29.297,67.871,0
16163.860,63.965,38.086,29.785,28.320,62.988,0
16163.864,79.590,32.715,25.391,35.645,6.348,0
16163.868,78.125,28.809,26.367,30.273,39.551,0
16163.872,61.035,35.645,33.203,24.902,20.996,0
16163.876,52.734,40.527,35.645,17.090,19.531,0
16163.879,66.895,36.621,29.785,22.461,68.359,0
16163.883,73.730,35.645,30.273,31.250,21.973,0
16163.887,64.453,41.016,37.598,28.320,0.000,0
16163.891,55.664,40.527,41.016,24.414,13.672,0
16163.895,68.359,34.668,33.203,29.297,2.441,0
16163.899,75.684,31.250,26.855,30.762,4.395,0
16163.903,61.035,31.738,29.785,26.367,0.000,0
16163.907,47.852,37.109,36.621,18.555,-3.906,0
16163.911,58.594,35.156,31.738,17.578,39.062,0
16163.915,74.707,24.414,23.926,24.902,17.090,0
16163.919,62.500,22.461,27.832,25.391,43.457,0
16163.922,43.945,34.668,37.109,23.926,67.383,0
16163.926,45.410,38.574,36.621,21.973,74.219,0
16163.930,58.594,30.273,32.227,32.715,72.754,0
16163.934,59.082,27.344,35.156,38.574,-5.859,0
16163.938,43.457,32.715,39.062,30.762,-6.836,0
16163.942,40.039,34.668,38.086,27.832,31.738,0
16163.946,54.199,26.367,30.762,33.203,63.965,0
16163.950,59.570,25.879,26.855,39.062,52.734,0
16163.954,56.152,34.180,33.691,38.086,5.371,0
16163.958,48.340,37.109,39.062,27.832,3.418,0
16163.962,64.453,35.645,33.203,28.320,29.297,0
16163.965,77.637,34.180,26.855,35.156,65.918,0
16163.969,62.988,33.691,31.250,26.855,77.637,0
16163.973,47.852,39.551,41.016,18.555,6.348,0
16163.977,54.199,41.504,37.598,22.949,7.324,0
16163.981,67.383,36.133,28.320,33.691,9.766,0
16163.985,64.453,36.621,26.367,32.227,-2.441,0
16163.989,44.922,39.551,30.273,15.137,74.219,0
16163.993,40.527,37.109,30.762,16.602,118.652,0
16163.997,58.105,28.809,25.879,30.273,35.156,0
16164.001,62.500,28.809,25.879,30.762,47.852,0
16164.004,49.316,35.645,31.738,22.949,125.488,0
16164.008,38.086,35.156,35.156,16.113,16.602,0
16164.012,55.664,33.203,32.227,33.691,23.438,0
16164.016,68.359,30.762,28.809,42.969,64.453,0
16164.020,56.152,34.180,31.738,32.715,-13.672,0
16164.024,36.621,38.574,39.551,27.832,-5.371,0
16164.028,43.457,31.250,32.227,27.832,26.367,0
16164.032,60.059,29.297,26.855,35.645,55.664,0
16164.036,49.805,32.227,29.785,39.062,33.691,0
16164.040,26.855,34.180,34.180,27.832,18.555,0
16164.044,32.227,31.250,33.203,23.438,41.504,0
16164.047,54.199,27.344,27.344,38.574,48.340,0
16164.051,56.641,27.344,28.809,42.969,73.730,0
16164.055,41.992,32.227,35.645,34.180,82.520,0
16164.059,31.250,32.227,37.109,33.203,25.879,0
16164.063,44.922,27.344,30.762,45.410,37.598,0
16164.067,54.688,26.855,29.785,45.898,25.391,0
16164.071,39.551,26.367,34.180,30.273,12.207,0
16164.075,25.879,29.297,37.109,21.973,56.152,0
16164.079,35.645,26.855,30.273,28.320,40.039,0
16164.083,45.898,23.438,28.320,34.668,35.645,0
16164.087,36.133,28.809,31.738,28.809,76.172,0
16164.090,20.020,34.180,35.645,19.531,29.297,0
16164.094,29.297,31.250,34.668,24.902,-30.762,0
16164.098,34.180,24.902,26.855,29.297,23.438,0
16164.102,14.160,23.926,26.855,23.438,52.246,0
16164.106,-6.348,29.785,35.156,14.160,0.977,0
16164.110,-7.324,25.391,30.762,15.625,2.930,0
16164.114,13.184,17.578,22.461,22.949,34.668,0
16164.118,28.320,20.020,23.926,18.555,25.391,0
16164.122,20.020,24.902,31.250,15.625,22.461,0
16164.126,18.066,29.297,37.598,14.160,60.059,0
16164.129,40.039,28.809,34.180,24.414,14.160,0
16164.133,45.410,27.344,31.250,32.227,-34.180,0
16164.137,30.762,29.297,33.203,20.508,-29.297,0
16164.141,30.273,34.180,38.086,15.625,-18.066,0
16164.145,48.828,30.273,32.715,27.832,-4.883,0
16164.149,56.152,24.414,24.902,28.320,30.273,0
16164.153,52.734,26.855,30.273,23.926,68.359,0
16164.157,45.898,33.203,35.645,19.043,65.918,0
16164.161,51.758,31.738,32.227,26.367,7.324,0
16164.165,70.801,28.320,31.250,39.062,6.836,0
16164.169,66.406,31.738,32.715,33.691,36.133,0
16164.172,49.316,35.645,36.621,22.461,22.461,0
16164.176,51.270,32.227,31.738,20.508,10.254,0
16164.180,69.336,27.832,25.879,30.273,-4.395,0
16164.184,75.195,32.715,30.273,36.133,-10.254,0
16164.188,54.199,38.086,36.133,26.367,-26.855,0
16164.192,46.387,36.133,38.574,20.996,13.184,0
16164.196,62.500,30.762,30.762,29.785,-6.836,0
16164.200,70.312,28.809,27.344,32.715,-31.250,0
16164.204,62.012,34.668,35.156,30.762,0.977,0
16164.208,46.875,39.062,41.016,22.949,19.043,0
16164.212,54.199,32.227,33.203,20.508,83.984,0
16164.215,67.383,27.344,26.367,29.785,88.379,0
16164.219,65.430,31.738,31.250,30.273,19.531,0
16164.223,53.223,38.574,36.621,19.043,-4.883,0
16164.227,57.129,32.715,32.227,17.578,21.973,0
16164.231,68.848,22.949,26.855,28.809,61.523,0
16164.235,67.871,30.273,30.762,37.598,48.828,0
16164.239,51.270,36.133,33.691,26.367,22.461,0
16164.243,45.410,35.156,32.715,23.926,30.762,0
16164.247,56.641,28.320,23.926,34.180,52.734,0
16164.251,52.734,23.926,19.043,26.855,76.172,0
16164.254,38.086,27.832,29.297,18.066,41.504,0
16164.258,34.668,29.785,36.621,16.113,4.395,0
16164.262,54.688,25.391,33.691,22.461,4.883,0
16164.266,55.664,24.902,31.738,25.391,-16.113,0
16164.270,41.016,29.785,37.109,28.320,7.812,0
16164.274,33.691,33.203,41.016,26.367,9.277,0
16164.278,41.992,26.367,31.250,26.855,2.441,0
16164.282,62.500,20.996,26.367,37.109,10.254,0
16164.286,61.523,23.926,32.227,37.109,47.363,0
16164.290,42.480,30.273,37.109,30.762,63.477,0
16164.294,49.805,34.180,31.738,27.344,4.395,0
16164.297,64.453,27.832,20.508,24.902,-0.977,0
16164.301,61.523,26.855,20.996,27.832,5.371,0
16164.305,52.734,37.598,31.250,21.973,45.898,0
16164.309,47.852,38.574,30.273,11.719,58.594,0
16164.313,55.176,29.785,21.973,17.578,11.719,0
16164.317,58.105,27.832,19.531,19.531,27.832,0
16164.321,53.223,34.668,23.926,15.137,-6.836,0
16164.325,48.340,40.527,27.344,10.742,-38.086,0
16164.329,61.523,35.156,20.508,20.508,26.855,0
16164.333,74.219,31.738,20.020,35.645,56.152,0
16164.337,59.082,30.273,25.879,31.250,34.668,0
16164.340,42.480,34.180,33.691,26.855,4.883,0
16164.344,53.223,38.086,30.762,28.320,16.113,0
16164.348,65.918,33.203,21.484,28.809,42.969,0
16164.352,60.547,31.250,24.902,29.785,15.625,0
16164.356,38.086,33.203,30.762,20.996,66.895,0
16164.360,35.156,32.715,31.250,20.508,90.332,0
16164.364,55.176,26.855,28.809,30.273,-8.789,0
16164.368,48.340,24.902,24.902,34.180,-25.879,0
16164.372,24.414,29.785,30.273,27.832,10.254,0
16164.376,22.461,34.180,40.039,25.391,-14.648,0
16164.379,48.828,28.320,35.156,32.227,7.324,0
16164.383,59.082,28.320,35.156,36.133,1.465,0
16164.387,43.457,37.109,41.504,32.715,5.859,0
16164.391,34.180,38.574,41.016,28.320,82.520,1
16164.395,51.758,29.297,34.180,35.156,47.363,0
16164.399,60.059,25.391,28.809,33.691,3.418,0
16164.403,44.922,32.227,30.273,30.273,0.977,0
16164.407,33.203,39.062,32.227,24.414,48.828,0
16164.411,46.387,35.645,28.320,23.926,63.965,0
16164.415,64.453,32.715,26.855,34.668,12.695,0
16164.419,56.152,38.086,29.785,37.109,20.508,0
16164.422,36.133,41.992,37.109,26.855,43.457,0
16164.426,31.250,36.133,36.133,19.043,53.711,0
16164.430,44.922,26.367,24.902,26.367,15.137,0
16164.434,46.875,25.879,21.484,27.832,38.086,0
16164.438,33.691,31.250,28.320,20.996,17.578,0
16164.442,23.438,32.227,32.227,19.043,-31.250,0
16164.446,34.180,25.879,28.320,24.902,36.621,0
16164.450,45.410,20.996,27.344,33.691,10.254,0
16164.454,33.691,23.438,33.203,26.855,-22.461,0
16164.458,18.066,31.250,37.598,18.066,29.297,0
16164.462,39.551,31.738,34.180,29.297,72.754,0
16164.465,56.152,27.344,31.250,36.621,41.016,0
16164.469,39.551,28.320,35.156,31.250,-13.672,0
16164.473,21.973,32.227,40.527,25.391,9.277,0
16164.477,27.344,25.879,32.227,23.438,44.922,0
16164.481,41.504,20.020,25.391,27.344,66.895,0
16164.485,37.109,24.902,29.785,28.320,53.223,0
16164.489,18.555,29.297,32.715,17.578,-20.020,0
16164.493,17.090,28.320,30.273,10.254,20.020,0
16164.497,35.645,23.438,23.926,19.531,75.195,0
16164.501,43.945,26.367,23.926,30.273,95.703,0
16164.504,33.203,32.715,26.855,27.344,115.723,0
16164.508,24.414,32.715,27.344,22.949,99.609,0
16164.512,35.645,27.832,23.438,25.391,64.941,0
16164.516,43.457,29.785,21.973,28.809,45.410,0
16164.520,30.762,36.621,30.762,27.344,51.758,0
16164.524,18.066,39.062,36.621,19.043,62.012,0
16164.528,28.320,32.715,31.738,24.902,39.062,0
16164.532,44.922,29.785,30.762,37.109,27.344,0
16164.536,45.898,33.691,34.180,35.156,74.219,0
16164.540,26.855,37.598,36.133,23.438,92.773,0
16164.544,35.645,37.109,32.715,21.973,55.664,0
16164.547,55.664,32.227,26.855,27.344,15.137,0
16164.551,52.246,28.320,23.926,27.832,31.250,0
16164.555,41.016,33.203,29.785,26.367,11.230,0
16164.559,33.691,37.598,34.668,22.949,37.109,0
16164.563,49.316,31.738,29.297,28.809,73.730,0
16164.567,54.199,29.785,29.785,40.527,-2.930,0
16164.571,38.574,36.621,38.574,39.551,-26.367,0
16164.575,31.738,39.062,39.551,32.715,56.641,0
16164.579,46.387,31.250,33.203,39.062,56.641,0
16164.583,59.082,28.809,34.180,50.293,-4.883,0
16164.587,47.852,33.203,37.109,41.992,16.113,0
16164.590,34.668,36.621,41.992,32.227,25.391,0
16164.594,41.992,34.668,35.645,37.598,-35.645,0
16164.598,56.152,31.738,30.273,41.016,-43.945,0
16164.602,54.199,33.203,34.180,40.527,48.828,0
16164.606,36.621,36.133,37.598,26.367,12.695,0
16164.610,36.621,35.645,32.715,22.461,-43.945,0
16164.614,50.781,29.785,26.367,38.574,-36.621,0
16164.618,45.898,23.926,26.855,38.574,14.160,0
16164.622,33.691,27.344,35.645,26.855,90.820,0
16164.626,34.668,33.691,39.062,26.367,48.828,0
16164.629,50.781,30.273,28.809,33.691,38.086,0
16164.633,58.105,29.297,27.344,33.691,41.016,0
16164.637,45.898,36.133,36.621,29.785,24.414,0
16164.641,34.180,39.062,44.434,26.855,33.203,0
16164.645,44.434,29.785,38.086,30.762,47.363,0
16164.649,56.152,27.344,31.738,29.785,41.016,0
16164.653,45.410,31.250,35.645,25.391,19.043,0
16164.657,30.273,34.668,39.551,21.973,20.508,0
16164.661,37.598,32.715,35.645,22.461,39.551,0
16164.665,52.246,25.391,30.273,35.156,40.039,0
16164.669,45.898,25.879,31.250,41.504,53.223,0
16164.672,27.832,33.691,35.645,31.250,62.012,0
16164.676,28.320,30.273,37.109,27.832,39.062,0
16164.680,44.922,20.996,28.320,34.180,2.930,0
16164.684,49.805,22.461,31.738,39.062,-14.648,0
16164.688,32.715,26.855,38.574,32.227,3.418,0
16164.692,23.926,29.297,35.645,22.461,14.160,0
16164.696,44.434,24.414,32.715,29.785,-27.344,0
16164.700,45.898,20.996,32.715,34.668,-24.414,0
16164.704,35.156,27.344,36.133,32.715,-16.113,0
16164.708,26.855,34.180,37.598,26.367,-29.297,0
16164.712,41.016,30.273,32.715,32.227,-13.184,0
16164.715,55.664,25.391,30.273,42.969,-26.367,0
16164.719,41.992,24.414,32.715,35.156,-28.320,0
16164.723,27.344,31.250,36.133,24.902,12.695,0
16164.727,37.109,32.715,29.785,22.461,11.719,0
16164.731,53.711,22.949,22.949,26.855,50.781,0
16164.735,43.457,25.879,25.391,26.855,67.383,0
16164.739,25.879,37.109,33.203,20.020,19.531,0
16164.743,27.344,37.598,33.203,16.113,-2.441,0
16164.747,42.480,31.738,25.391,25.391,10.742,0
16164.751,45.410,30.762,30.273,34.668,14.160,0
16164.754,30.762,33.691,35.645,28.320,19.043,0
16164.758,18.555,34.180,35.156,19.043,31.250,0
16164.762,33.691,25.879,29.785,27.344,23.926,0
16164.766,43.457,21.484,25.879,34.668,47.363,0
16164.770,30.273,25.391,27.832,27.832,52.246,0
16164.774,21.973,29.785,32.227,21.973,11.230,0
16164.778,40.039,27.344,32.227,26.855,5.371,0
16164.782,58.105,24.414,29.785,34.668,59.570,0
16164.786,45.410,25.879,31.250,33.203,61.035,0
16164.790,20.996,29.785,35.156,22.461,8.301,0
16164.794,26.367,31.250,31.250,22.949,-11.719,0
16164.797,44.434,26.367,23.926,29.785,-3.906,0
16164.801,43.457,25.391,27.832,28.320,37.109,0
16164.805,36.133,33.203,33.691,18.555,51.758,0
16164.809,28.320,32.715,30.762,15.137,32.715,0
16164.813,46.387,25.879,24.902,29.297,61.035,0
16164.817,60.059,27.832,29.297,40.039,49.805,0
16164.821,42.969,34.668,39.062,32.715,27.832,0
16164.825,29.785,38.086,39.062,30.762,23.438,0
16164.829,48.828,35.645,31.738,41.504,20.020,0
16164.833,64.941,34.180,29.297,40.039,30.273,0
16164.837,48.828,38.574,31.250,33.203,35.645,0
16164.840,31.250,43.945,36.133,27.344,41.992,0
16164.844,41.016,37.598,32.227,35.156,74.707,0
16164.848,55.176,30.762,27.832,45.410,65.430,0
16164.852,47.852,27.832,31.250,36.621,-15.625,0
16164.856,27.832,30.273,35.156,21.484,-16.602,0
16164.860,28.320,33.691,34.180,23.438,34.180,0
16164.864,48.828,30.273,28.809,37.109,43.945,0
16164.868,49.805,32.227,31.250,34.180,7.812,0
16164.872,34.180,39.551,37.109,24.414,-18.066,0
16164.876,30.762,40.039,37.109,19.043,21.484,0
16164.879,45.410,33.691,30.762,26.367,5.859,0
16164.883,53.711,30.762,32.227,35.645,-0.488,0
16164.887,47.363,35.645,37.109,31.250,47.363,0
16164.891,37.109,38.574,36.133,18.066,21.484,0
16164.895,42.969,29.297,29.785,19.043,-5.371,0
16164.899,53.711,25.391,26.855,30.762,14.160,0
16164.903,45.410,33.691,34.180,28.809,34.668,0
16164.907,27.832,38.086,41.992,15.137,24.902,0
16164.911,35.156,28.809,35.645,19.531,38.574,0
16164.915,57.617,24.414,27.344,31.738,44.434,0
16164.919,53.711,32.227,30.762,32.715,41.504,0
16164.922,29.297,40.527,33.691,25.391,4.395,0
16164.926,28.320,38.086,29.297,23.926,-41.016,0
16164.930,48.340,29.297,27.832,32.715,-42.969,0
16164.934,50.781,30.273,31.250,35.156,2.441,0
16164.938,39.062,34.668,36.621,29.297,6.836,0
16164.942,37.109,34.180,39.551,27.344,30.762,0
16164.946,54.688,32.715,35.645,37.109,33.203,0
16164.950,62.012,30.273,32.715,41.016,22.949,0
16164.954,49.805,33.203,37.598,31.250,10.254,0
16164.958,36.133,38.086,42.480,25.391,15.137,0
16164.962,47.852,34.668,35.645,27.344,44.434,0
16164.965,62.012,26.855,26.855,27.344,37.109,0
16164.969,51.758,23.926,28.320,26.367,34.668,0
16164.973,35.156,32.227,36.621,21.484,-5.859,0
16164.977,41.992,34.668,31.250,19.531,8.789,0
16164.981,50.293,29.785,26.855,27.344,51.270,0
16164.985,49.316,31.738,35.645,34.180,46.875,0
16164.989,38.574,39.551,41.016,34.668,25.879,0
16164.993,27.832,35.645,39.551,33.691,-10.254,0
16164.997,39.062,27.344,33.203,33.203,12.207,0
16165.001,45.410,30.762,30.273,29.785,12.695,0
16165.004,38.086,34.668,34.180,23.926,5.371,0
16165.008,30.762,30.762,35.156,18.066,12.695,0
16165.012,49.316,28.320,31.250,26.855,3.906,0
16165.016,60.059,32.227,29.297,36.621,28.809,0
16165.020,48.340,39.062,32.227,30.762,38.086,0
16165.024,42.480,42.480,39.551,25.391,-7.812,0
16165.028,51.270,39.551,34.180,30.762,-11.230,0
16165.032,59.082,32.227,26.855,35.645,26.367,0
16165.036,49.316,33.203,32.227,32.227,56.152,0
16165.040,30.273,38.574,35.645,23.438,84.473,0
16165.044,38.574,37.109,29.785,27.344,21.973,0
16165.047,53.223,29.297,25.879,36.133,24.902,0
16165.051,44.922,27.832,25.879,31.250,24.414,0
16165.055,29.297,34.180,30.273,21.973,-18.555,0
16165.059,26.855,35.156,30.762,19.531,3.906,0
16165.063,43.945,26.855,25.879,27.832,24.414,0
16165.067,42.969,20.508,24.902,29.297,44.922,0
16165.071,28.320,26.855,27.344,20.508,40.527,0
16165.075,22.461,33.691,28.320,15.137,-27.832,0
16165.079,37.598,28.809,21.973,21.484,-7.324,1
16165.083,53.711,26.367,22.949,32.227,40.039,0
16165.087,41.992,31.250,28.320,23.438,44.434,0
16165.090,22.461,33.691,29.785,9.277,46.387,0
16165.094,31.738,28.320,23.926,17.090,23.926,0
16165.098,44.922,24.902,17.578,28.320,30.273,0
16165.102,42.969,28.809,24.902,32.715,20.996,0
16165.106,33.691,32.715,33.691,27.832,36.621,0
16165.110,27.344,27.832,34.180,24.414,24.902,0
16165.114,39.551,23.438,29.297,35.156,8.301,0
16165.118,44.922,28.320,29.297,38.574,41.992,0
16165.122,34.180,37.598,35.156,33.203,66.406,0
16165.126,31.738,41.992,35.645,27.832,36.621,0
16165.129,43.457,33.203,27.832,21.484,21.484,0
16165.133,42.969,28.320,24.902,29.297,39.062,0
16165.137,28.809,33.203,31.738,33.203,90.820,0
16165.141,22.461,35.645,37.109,24.902,30.273,0
16165.145,40.039,32.715,32.715,26.855,-7.812,0
16165.149,53.223,29.297,28.320,28.320,7.324,0
16165.153,39.062,29.297,30.273,24.902,-10.742,0
16165.157,22.949,32.715,33.691,16.113,20.020,0
16165.161,33.203,31.738,29.785,14.160,10.742,0
16165.165,50.293,28.320,26.367,22.949,7.324,0
16165.169,44.922,27.832,30.273,22.461,9.766,0
16165.172,26.855,34.180,40.039,21.484,-22.949,0
16165.176,23.438,33.203,38.086,22.949,-38.574,0
16165.180,38.574,25.391,29.297,32.715,3.418,0
16165.184,39.551,28.320,31.250,38.574,31.738,0
16165.188,23.926,36.133,38.086,33.203,22.949,0
16165.192,15.625,35.645,35.645,20.996,15.625,0
16165.196,29.297,27.344,22.461,18.066,22.461,0
16165.200,41.504,25.391,20.508,28.320,75.195,0
16165.204,34.668,33.203,31.738,23.438,23.926,0
16165.208,18.066,34.668,37.109,15.625,21.973,0
16165.212,28.320,29.297,32.715,27.832,31.738,0
16165.215,47.852,24.414,29.785,35.645,33.203,0
16165.219,46.387,26.855,33.203,31.738,113.770,0
16165.223,36.133,37.109,38.086,22.461,59.082,0
16165.227,39.062,35.645,32.715,21.484,35.156,0
16165.231,52.734,24.902,26.855,34.668,59.082,0
16165.235,47.852,27.344,32.227,34.180,61.523,0
16165.239,22.949,36.133,38.574,24.414,80.566,0
16165.243,21.973,33.691,38.086,20.996,38.086,0
16165.247,39.551,29.297,34.180,28.320,6.836,0
16165.251,44.434,32.715,35.156,36.133,14.160,0
16165.254,33.691,37.598,42.480,34.668,12.695,0
16165.258,22.949,39.551,42.969,27.832,52.734,0
16165.262,38.086,30.762,35.645,27.832,28.320,0
16165.266,48.340,22.949,33.691,33.203,20.020,0
16165.270,38.086,32.715,38.086,29.785,-4.883,0
16165.274,23.926,41.504,39.062,17.578,-43.945,0
16165.278,32.715,36.133,31.250,24.414,21.484,0
16165.282,48.340,34.668,25.391,37.598,40.039,0
16165.286,37.598,38.574,30.273,33.691,-10.254,0
16165.290,14.160,40.039,37.598,22.949,39.062,0
16165.294,23.926,37.109,33.691,27.832,65.918,0
16165.297,46.387,32.715,28.320,39.062,-17.090,0
16165.301,49.316,32.227,31.738,40.527,-14.648,0
16165.305,32.227,34.180,35.156,31.250,33.203,0
16165.309,26.855,38.086,34.180,24.414,49.805,0
16165.313,46.875,34.668,29.785,33.203,25.391,0
16165.317,51.270,35.645,32.715,41.504,-12.695,0
16165.321,33.691,39.551,36.133,37.598,-13.672,0
16165.325,22.461,39.551,37.598,24.414,36.133,0
16165.329,34.180,33.691,33.691,28.320,1.953,0
16165.333,45.410,30.273,31.250,40.039,51.270,0
16165.337,39.551,34.668,32.715,33.691,84.961,0
16165.340,23.438,37.598,36.133,18.555,59.570,0
16165.344,31.250,36.133,36.133,23.926,82.520,0
16165.348,47.363,28.809,31.250,34.180,40.039,0
16165.352,43.945,25.391,32.227,29.297,49.805,0
16165.356,32.715,33.203,37.598,21.973,12.207,0
16165.360,30.762,36.133,37.109,21.973,-5.859,0
16165.364,45.898,31.738,31.250,33.691,33.203,0
16165.368,51.270,32.227,27.832,32.227,11.719,0
16165.372,35.156,37.109,32.715,22.461,-7.812,0
16165.376,30.762,36.133,35.645,23.926,31.738,0
16165.379,48.828,25.879,26.367,33.691,22.949,0
16165.383,57.129,24.414,24.414,39.062,41.016,0
16165.387,44.922,32.227,30.762,31.738,15.137,0
16165.391,34.180,37.598,34.668,22.949,-9.277,0
16165.395,49.805,32.715,32.715,29.297,-1.953,0
16165.399,61.035,27.344,31.738,39.551,6.348,0
16165.403,48.828,33.203,35.156,33.203,54.688,0
16165.407,31.250,39.551,37.598,20.020,24.414,0
16165.411,39.062,36.133,35.156,26.367,-7.812,0
16165.415,52.734,30.273,31.738,37.109,23.438,0
16165.419,46.875,31.250,31.250,33.203,25.391,0
16165.422,28.809,37.109,35.156,28.320,26.855,0
16165.426,30.273,36.133,35.645,24.902,42.480,0
16165.430,42.969,26.367,27.344,23.438,50.293,0
16165.434,37.598,26.855,24.902,29.297,17.090,0
16165.438,27.344,35.645,30.273,22.949,-11.719,0
16165.442,23.926,36.133,28.320,14.648,35.156,0
16165.446,42.480,25.879,21.973,23.438,31.250,0
16165.450,53.223,20.508,22.949,31.250,15.625,0
16165.454,39.551,31.250,31.738,29.297,52.246,0
16165.458,29.785,39.062,36.133,21.484,37.109,0
16165.462,41.504,31.250,30.762,26.367,41.992,0
16165.465,54.199,25.879,25.879,34.668,41.016,0
16165.469,43.457,30.762,26.855,30.273,4.883,0
16165.473,26.367,37.109,36.133,21.973,30.762,0
16165.477,33.691,32.715,33.203,19.043,1.953,0
16165.481,52.246,28.809,20.508,26.855,8.301,0
16165.485,49.805,29.297,22.949,36.133,13.672,0
16165.489,34.668,35.645,30.273,30.762,8.789,0
16165.493,37.598,34.668,30.762,28.809,-41.504,0
16165.497,52.734,22.949,23.926,36.621,-24.414,0
16165.501,52.734,26.855,26.367,41.504,68.848,0
16165.504,41.016,36.133,34.180,32.715,40.039,0
16165.508,30.762,40.039,36.133,24.414,20.996,0
16165.512,40.039,34.668,30.762,31.738,53.223,0
16165.516,48.340,31.250,28.809,41.016,62.012,0
16165.520,34.668,33.691,35.645,37.598,93.262,0
16165.524,19.043,37.109,41.504,29.297,66.895,0
16165.528,27.832,32.715,32.715,27.344,-8.301,0
16165.532,42.480,25.391,21.973,29.785,-12.207,0
16165.536,35.156,28.320,25.879,35.156,-8.301,0
16165.540,21.484,33.691,37.109,30.273,3.418,0
16165.544,25.391,29.785,34.180,26.855,50.293,0
16165.547,45.410,24.902,28.320,39.551,45.410,0
16165.551,45.898,26.367,27.344,40.039,5.859,0
16165.555,22.461,31.250,30.273,24.414,14.160,0
16165.559,22.949,30.273,30.762,26.367,71.777,0
16165.563,44.922,24.902,24.902,38.086,74.707,0
16165.567,47.363,26.855,24.902,40.039,41.016,0
16165.571,30.273,31.738,31.738,37.109,51.270,0
16165.575,22.949,35.156,35.156,28.809,75.195,0
16165.579,36.133,31.738,28.320,34.180,77.637,0
16165.583,45.410,28.809,28.320,44.434,54.688,0
16165.587,34.180,31.250,36.133,36.621,-0.488,0
16165.590,24.414,34.668,40.527,31.738,-34.668,0
16165.594,40.039,33.691,33.691,43.457,19.043,0
16165.598,48.828,26.367,28.320,46.875,45.898,0
16165.602,39.551,25.391,31.250,42.480,15.137,1
16165.606,26.855,35.645,40.039,32.715,25.879,0
16165.610,26.367,37.109,38.574,27.344,56.641,0
16165.614,38.086,28.320,29.785,37.109,34.668,0
16165.618,40.039,29.297,29.297,34.668,21.484,0
16165.622,28.809,38.086,32.227,30.273,30.762,0
16165.626,25.391,39.062,34.180,34.668,57.617,0
16165.629,47.363,36.621,31.738,43.945,17.578,0
16165.633,53.223,36.621,32.227,41.016,-37.109,0
16165.637,36.621,37.598,35.645,29.785,0.488,0
16165.641,25.391,41.016,37.109,25.391,25.879,0
16165.645,37.598,33.203,33.691,32.227,-0.488,0
16165.649,46.875,25.879,29.297,36.133,2.441,0
16165.653,34.180,33.691,30.762,30.273,7.324,0
16165.657,19.043,40.527,32.715,20.020,-1.953,0
16165.661,25.879,34.668,29.297,20.996,29.297,0
16165.665,42.480,28.809,26.855,31.250,-5.371,0
16165.669,37.109,30.762,26.855,24.414,-26.367,0
16165.672,17.090,35.645,31.250,12.695,25.879,0
16165.676,17.090,32.227,29.297,12.695,7.324,0
16165.680,39.551,22.461,22.949,20.996,-30.762,0
16165.684,44.922,22.949,25.391,24.414,-11.719,0
16165.688,26.855,33.691,30.273,15.137,13.672,0
16165.692,15.137,35.156,29.297,9.766,19.043,0
16165.696,31.250,22.949,23.926,17.090,15.137,0
16165.700,35.156,20.996,23.438,26.367,5.371,0
16165.704,26.855,32.227,31.738,28.809,-27.832,0
16165.708,22.461,39.062,37.598,20.996,-50.293,0
16165.712,32.227,31.250,28.809,23.438,35.645,0
16165.715,46.875,24.902,22.949,29.785,71.777,0
16165.719,38.086,27.832,28.809,23.926,47.363,0
16165.723,20.996,34.668,35.645,15.625,54.199,0
16165.727,33.203,32.715,30.273,20.508,45.898,0
16165.731,51.758,26.855,24.414,30.762,10.742,0
16165.735,46.875,29.297,29.297,31.738,8.789,0
16165.739,35.156,38.086,34.180,22.461,7.812,0
16165.743,35.156,38.086,33.203,21.484,62.988,0
16165.747,47.852,32.227,28.809,26.367,108.887,0
16165.751,56.152,33.203,28.320,32.227,40.527,0
16165.754,42.969,39.551,34.180,26.855,44.434,0
16165.758,36.133,38.574,37.109,17.578,20.996,0
16165.762,52.246,33.203,30.762,23.926,30.273,0
16165.766,53.711,36.621,28.320,29.297,60.547,0
16165.770,42.480,40.527,32.715,25.879,-6.348,0
16165.774,28.320,40.039,35.156,18.555,33.691,0
16165.778,33.203,33.691,28.809,23.926,59.082,0
16165.782,44.434,27.832,24.902,28.320,36.133,0
16165.786,38.086,32.227,27.832,22.461,32.227,0
16165.790,20.996,38.574,35.156,13.672,9.277,0
16165.794,24.414,34.668,38.086,18.555,-4.883,0
16165.797,36.621,28.809,33.691,28.320,22.461,0
16165.801,27.344,30.762,36.133,33.203,33.691,0
16165.805,3.906,33.691,40.039,22.461,34.668,0
16165.809,-8.301,29.297,36.621,14.648,37.598,0
16165.813,0.488,24.414,29.297,26.855,23.926,0
16165.817,1.953,25.391,27.344,29.297,2.441,0
16165.821,-11.719,34.180,31.738,24.414,10.254,0
16165.825,-18.066,41.504,31.738,24.414,91.797,0
16165.829,-4.883,33.203,26.855,27.344,58.594,0
16165.833,-4.395,29.785,28.809,33.203,25.391,0
16165.837,-20.996,33.691,34.668,33.203,31.250,0
16165.840,-42.969,34.668,38.086,24.902,9.277,0
16165.844,-41.016,31.738,34.668,32.227,32.715,0
16165.848,-27.832,30.273,29.297,38.086,39.551,0
16165.852,-38.574,30.762,30.762,34.180,-2.930,0
16165.856,-57.617,35.156,35.645,27.344,17.090,0
16165.860,-57.129,32.227,30.273,21.484,39.062,0
16165.864,-45.410,30.273,25.391,27.832,17.090,0
16165.868,-47.363,32.715,26.855,25.879,54.199,0
16165.872,-57.617,32.227,32.227,17.090,86.426,0
16165.876,-60.059,31.738,36.133,10.742,26.855,0
16165.879,-47.363,22.461,27.344,21.484,21.973,0
16165.883,-41.504,20.996,26.855,27.832,73.730,0
16165.887,-50.293,27.344,32.715,14.160,20.508,0
16165.891,-61.035,26.367,33.203,7.812,-11.719,0
16165.895,-48.340,21.973,28.809,14.160,-6.348,0
16165.899,-39.062,20.020,24.414,20.996,-17.578,0
16165.903,-59.082,24.414,29.785,20.020,43.945,0
16165.907,-74.707,28.809,36.621,16.113,24.902,0
16165.911,-60.059,26.367,35.156,27.832,-4.883,0
16165.915,-42.480,25.391,31.738,34.668,-11.230,0
16165.919,-50.293,24.902,29.297,25.391,-60.547,0
16165.922,-68.359,28.320,34.668,17.578,-45.898,0
16165.926,-66.895,29.785,33.691,19.531,-4.883,0
16165.930,-50.781,26.367,27.344,26.855,-24.414,0
16165.934,-51.270,29.297,25.879,27.832,-35.645,0
16165.938,-67.871,35.156,31.738,25.391,-6.348,0
16165.942,-75.684,34.180,37.109,24.414,2.930,0
16165.946,-57.617,30.273,33.203,39.062,37.109,0
16165.950,-51.758,29.297,35.645,45.410,77.148,0
16165.954,-66.895,33.203,38.574,32.227,39.551,0
16165.958,-73.730,39.551,39.062,30.273,-2.441,0
16165.962,-62.500,35.156,30.273,30.273,46.387,0
16165.965,-52.246,30.762,23.438,30.762,38.086,0
16165.969,-62.500,33.691,32.715,30.762,37.598,0
16165.973,-80.566,36.621,37.109,21.484,59.082,0
16165.977,-69.336,34.180,29.785,21.484,37.598,0
16165.981,-51.758,29.297,25.391,32.715,54.199,0
16165.985,-64.941,28.809,29.785,39.062,70.801,0
16165.989,-80.566,32.227,35.645,31.250,63.477,0
16165.993,-70.312,34.180,35.156,22.949,-5.371,0
16165.997,-45.410,34.180,29.785,34.180,-16.602,0
16166.001,-44.434,31.250,29.785,44.434,47.363,0
16166.004,-59.570,36.133,35.645,36.133,54.688,0
16166.008,-64.453,38.086,36.621,28.320,-9.766,0
16166.012,-51.270,29.297,30.273,36.621,-19.043,0
16166.016,-41.504,29.785,29.785,42.480,60.059,0
16166.020,-45.410,36.621,34.180,36.133,-25.391,0
16166.024,-50.293,40.527,39.062,27.344,-35.156,0
16166.028,-37.109,33.691,33.203,32.227,46.387,0
16166.032,-25.391,23.926,30.273,40.039,37.598,0
16166.036,-38.574,25.879,37.109,40.527,-10.254,0
16166.040,-54.199,36.621,41.992,34.668,20.996,0
16166.044,-47.363,36.621,38.086,26.855,28.809,0
16166.047,-34.180,32.227,27.832,28.809,-14.648,0
16166.051,-31.250,34.668,27.344,30.762,24.902,0
16166.055,-40.039,39.062,33.203,26.367,53.223,0
16166.059,-42.480,38.574,33.203,27.344,16.602,0
16166.063,-22.461,30.762,31.250,36.133,20.020,0
16166.067,-16.602,28.320,31.738,38.574,41.992,0
16166.071,-33.691,35.156,35.645,31.250,55.664,0
16166.075,-45.898,35.156,37.598,23.438,47.363,0
16166.079,-36.133,25.391,32.227,27.344,24.414,0
16166.083,-27.832,22.949,30.273,30.762,36.621,0
16166.087,-38.574,25.391,35.156,28.809,60.547,0
16166.090,-53.711,33.203,38.086,26.367,-1.465,0
16166.094,-39.062,35.156,30.762,28.809,-0.977,0
16166.098,-23.926,31.250,24.414,27.832,75.684,0
16166.102,-35.156,33.691,28.809,25.391,33.203,0
16166.106,-48.340,38.574,35.156,18.555,-10.254,0
16166.110,-41.504,32.227,32.227,14.160,47.852,0
16166.114,-20.020,25.391,25.391,24.902,44.922,0
16166.118,-15.625,26.855,24.902,27.832,32.715,0
16166.122,-29.785,32.715,29.785,19.531,35.645,0
16166.126,-37.109,32.227,30.273,19.531,24.414,0
16166.129,-22.461,23.438,22.949,25.391,19.043,0
16166.133,-20.508,18.555,22.949,27.344,34.180,0
16166.137,-34.180,24.902,28.809,22.949,27.344,0
16166.141,-42.480,32.715,33.691,13.672,43.945,0
16166.145,-25.391,27.832,28.320,18.555,55.664,0
16166.149,-9.766,25.391,24.902,26.855,63.965,0
16166.153,-17.090,33.203,30.273,20.996,89.355,0
16166.157,-31.250,39.551,35.645,14.648,53.711,0
16166.161,-22.461,35.645,31.738,24.902,37.598,0
16166.165,-2.930,31.738,28.809,36.621,36.621,0
16166.169,-11.719,33.203,34.180,40.039,43.945,0
16166.172,-30.762,35.645,38.574,33.691,61.523,0
16166.176,-26.855,34.668,36.133,28.809,19.043,0
16166.180,-7.324,28.320,27.832,37.598,9.766,0
16166.184,-8.301,29.785,25.879,42.969,82.520,0
16166.188,-26.855,34.180,31.738,29.297,30.273,0
16166.192,-30.762,32.227,32.227,16.602,27.344,0
16166.196,-4.883,31.250,26.855,27.344,30.762,0
16166.200,6.348,37.109,22.461,40.039,10.742,0
16166.204,-19.043,39.551,26.367,35.645,16.602,0
16166.208,-42.480,35.645,31.738,18.555,32.715,0
16166.212,-30.273,30.273,23.926,18.066,32.715,0
16166.215,-9.277,28.809,18.555,27.832,32.227,0
16166.219,-10.742,32.715,23.438,26.855,23.926,0
16166.223,-22.461,39.062,27.832,20.020,-31.250,0
16166.227,-13.672,32.715,20.996,20.508,-8.789,1
16166.231,-2.441,24.414,16.113,29.297,41.016,0
16166.235,-5.859,27.344,20.020,30.762,43.457,0
16166.239,-16.602,38.086,26.855,29.297,28.320,0
16166.243,-16.113,38.574,27.344,28.809,7.812,0
16166.247,-4.395,30.762,22.461,32.715,32.715,0
16166.251,-7.324,28.320,24.902,39.062,15.625,0
16166.254,-22.461,25.879,29.785,26.855,-2.930,0
16166.258,-25.391,26.855,27.832,17.578,49.316,0
16166.262,3.418,35.645,28.809,38.574,45.898,0
16166.266,11.230,31.738,26.367,42.480,-26.367,0
16166.270,-9.766,26.367,20.020,18.555,-4.883,0
16166.274,-15.137,34.180,23.926,14.160,-29.785,0
16166.278,0.488,26.855,18.066,23.438,-16.602,0
16166.282,12.207,24.414,14.648,31.250,82.031,0
16166.286,7.324,33.203,25.879,33.691,80.078,0
16166.290,-7.324,37.109,31.250,23.926,25.391,0
16166.294,7.324,42.480,32.227,30.273,-17.090,0
16166.297,20.996,40.527,31.738,46.875,-24.414,0
16166.301,0.977,27.344,20.996,33.691,57.617,0
16166.305,-19.043,26.367,29.297,23.438,73.242,0
16166.309,-2.930,41.016,46.875,36.133,8.789,0
16166.313,16.113,40.527,37.109,42.969,35.156,0
16166.317,-8.301,24.414,17.090,31.250,39.551,0
16166.321,-25.391,27.344,22.461,24.414,8.301,0
16166.325,-23.926,36.621,29.785,20.508,-3.906,0
16166.329,-9.277,30.762,22.461,23.926,-25.391,0
16166.333,4.395,28.320,19.043,25.391,24.902,0
16166.337,-4.883,33.691,22.461,25.879,42.480,0
16166.340,-17.578,38.086,30.273,22.461,71.777,0
16166.344,-0.488,32.227,28.320,25.391,53.711,0
16166.348,12.695,24.902,25.391,38.086,11.230,0
16166.352,7.812,32.227,31.738,37.109,24.902,0
16166.356,-2.930,39.551,36.133,28.809,8.789,0
16166.360,1.465,35.156,29.785,29.297,15.625,0
16166.364,18.555,28.320,24.414,37.109,16.113,0
16166.368,20.508,26.855,25.879,32.227,22.949,0
16166.372,5.859,30.273,29.297,21.484,50.781,0
16166.376,3.418,31.250,30.273,19.043,62.988,0
16166.379,21.484,27.344,23.926,24.902,30.762,0
16166.383,28.809,25.391,21.484,33.691,-12.207,0
16166.387,17.578,28.809,26.367,27.832,4.883,0
16166.391,4.395,31.250,31.250,23.438,-4.395,0
16166.395,14.160,31.250,27.344,29.297,4.395,0
16166.399,17.578,29.785,21.973,28.809,-10.254,0
16166.403,8.789,31.250,26.367,28.320,-2.930,0
16166.407,2.930,39.062,33.691,25.879,28.320,0
16166.411,3.418,34.180,28.809,26.855,-17.578,0
16166.415,14.160,26.855,25.879,33.691,-28.809,0
16166.419,10.742,30.762,29.297,32.715,47.852,0
16166.422,-2.441,36.133,32.715,19.531,52.246,0
16166.426,6.348,37.109,30.273,20.020,0.488,0
16166.430,22.461,34.180,25.879,32.715,14.648,0
16166.434,23.438,33.691,29.785,34.180,43.457,0
16166.438,12.695,38.574,35.645,29.785,13.184,0
16166.442,10.254,40.039,32.715,27.832,55.664,0
16166.446,29.785,36.133,25.391,34.668,32.715,0
16166.450,35.156,35.645,27.344,40.527,-20.508,0
16166.454,16.602,38.574,34.180,30.273,41.504,0
16166.458,5.859,40.527,36.133,20.508,11.719,0
16166.462,16.113,37.109,30.762,30.273,-1.953,0
16166.465,26.855,33.203,28.809,36.621,28.320,0
16166.469,21.484,34.180,31.250,36.133,-38.574,0
16166.473,2.930,39.551,34.668,25.879,-44.922,0
16166.477,5.859,35.645,36.621,24.414,-15.137,0
16166.481,25.391,30.762,34.180,35.156,-4.883,0
16166.485,19.043,34.668,30.273,33.691,-9.277,0
16166.489,0.000,38.086,32.227,22.461,22.461,0
16166.493,2.441,35.156,32.715,16.113,30.273,0
16166.497,19.043,31.738,27.832,23.926,14.648,0
16166.501,15.625,31.738,28.809,34.180,75.195,0
16166.504,5.859,38.086,39.062,30.762,64.453,0
16166.508,4.395,41.016,40.039,21.484,27.832,0
16166.512,14.160,29.297,23.438,23.438,51.758,0
16166.516,19.043,24.902,19.531,35.156,41.016,0
16166.520,0.000,30.762,26.855,30.273,36.133,0
16166.524,-14.160,35.645,30.273,19.043,10.742,0
16166.528,1.465,33.203,25.391,26.855,0.000,0
16166.532,22.949,31.738,24.902,39.062,43.457,0
16166.536,18.066,35.156,29.785,36.133,6.348,0
16166.540,-3.418,37.109,33.691,25.879,-3.906,0
16166.544,0.488,33.203,30.762,28.809,82.520,0
16166.547,20.508,30.273,25.879,36.621,46.875,0
16166.551,15.137,34.668,28.320,35.156,20.508,0
16166.555,-5.859,41.504,34.668,27.344,33.691,0
16166.559,-4.883,37.109,34.668,24.902,-5.859,0
16166.563,8.789,26.855,28.320,32.715,18.066,0
16166.567,7.324,28.320,31.250,38.574,27.344,0
16166.571,-7.812,31.738,33.691,25.879,24.414,0
16166.575,-11.230,30.762,33.691,18.066,13.672,0
16166.579,7.324,32.227,30.762,31.250,51.270,0
16166.583,20.020,33.691,29.785,36.133,57.617,0
16166.587,8.789,33.691,34.180,26.855,29.297,0
16166.590,-8.301,32.227,34.180,18.555,57.129,0
16166.594,5.859,27.832,29.297,24.414,24.414,0
16166.598,23.438,25.391,25.879,33.203,0.977,0
16166.602,18.555,24.902,31.250,31.738,80.566,0
16166.606,8.789,34.668,47.363,29.785,43.457,0
16166.610,12.207,41.016,51.270,33.203,-37.598,0
16166.614,13.184,27.832,29.297,27.344,-44.434,0
16166.618,9.277,24.414,22.461,26.367,23.926,0
16166.622,0.488,32.227,33.691,17.578,64.453,0
16166.626,-2.930,31.250,35.645,13.184,29.785,0
16166.629,15.137,26.367,27.832,20.508,21.484,0
16166.633,18.066,25.391,26.367,22.949,34.180,0
16166.637,3.418,28.809,34.668,23.926,17.578,0
16166.641,-7.324,30.273,39.551,19.043,27.832,0
16166.645,7.324,26.855,31.250,20.996,60.059,0
16166.649,22.461,27.832,27.832,24.414,41.992,0
16166.653,8.789,32.715,31.250,18.555,32.715,0
16166.657,-1.465,37.598,35.156,12.695,24.414,0
16166.661,16.113,32.715,30.762,18.555,23.926,0
16166.665,33.203,24.414,24.414,23.438,47.852,0
16166.669,22.461,26.367,28.809,21.484,35.645,0
16166.672,-0.488,32.227,38.574,19.043,-1.465,0
16166.676,3.418,30.273,36.133,16.113,20.020,0
16166.680,22.949,25.391,26.367,22.461,7.812,0
16166.684,27.832,27.344,30.273,24.902,-17.578,0
16166.688,15.137,33.203,34.668,21.484,-11.719,0
16166.692,8.301,35.645,31.250,14.648,5.371,0
16166.696,26.367,32.227,26.855,15.137,40.039,0
16166.700,30.273,31.250,28.809,20.996,33.203,0
16166.704,20.508,35.645,36.621,19.531,-13.672,0
16166.708,12.695,40.527,40.527,12.695,-2.930,0
16166.712,24.414,37.109,36.133,16.113,54.199,0
16166.715,37.598,31.250,31.250,31.250,29.785,0
16166.719,25.879,29.785,30.762,27.832,3.418,0
16166.723,7.812,32.715,36.621,12.695,15.137,0
16166.727,13.672,35.645,35.645,13.672,18.066,0
16166.731,23.926,31.250,31.250,20.020,61.035,0
16166.735,18.066,28.809,33.691,25.391,71.777,0
16166.739,0.000,33.203,39.062,16.602,39.551,0
16166.743,1.465,34.668,41.016,17.578,17.578,0
16166.747,22.949,30.762,39.551,33.203,-30.273,0
16166.751,23.926,28.809,37.598,33.203,-17.090,0
16166.754,6.836,35.645,40.039,31.738,-3.906,0
16166.758,1.465,38.086,40.039,26.855,-0.488,0
16166.762,15.137,27.344,29.785,23.926,-2.930,0
16166.766,20.020,24.414,25.879,26.367,-5.371,0
16166.770,4.883,32.227,30.273,28.809,29.297,0
16166.774,-6.348,37.109,35.645,21.484,-0.488,0
16166.778,12.207,34.668,31.738,21.973,1.465,0
16166.782,30.762,32.227,27.832,32.227,72.266,0
16166.786,26.855,34.180,33.691,31.250,96.191,0
16166.790,10.254,36.621,37.109,13.672,82.520,0
16166.794,19.043,37.109,30.273,16.113,45.898,0
16166.797,35.645,33.691,23.926,26.367,6.348,0
16166.801,27.344,34.180,25.879,26.855,18.066,0
16166.805,7.324,36.133,32.715,20.996,92.773,0
16166.809,4.883,32.715,32.715,14.160,99.121,0
16166.813,24.414,29.297,29.297,26.367,17.578,0
16166.817,29.297,32.715,26.855,31.738,-10.742,0
16166.821,10.254,35.645,30.762,24.414,-8.789,0
16166.825,-1.953,34.668,38.086,16.602,-30.762,0
16166.829,20.508,31.250,31.738,25.391,26.367,0
16166.833,38.086,31.738,26.855,33.203,17.578,0
16166.837,30.273,36.133,33.203,26.855,-20.020,0
16166.840,18.555,36.133,37.109,17.578,22.949,0
16166.844,20.020,27.832,30.273,20.996,80.078,0
16166.848,23.926,21.484,23.926,27.832,67.871,0
16166.852,17.578,27.832,28.320,26.367,5.859,0
16166.856,7.812,36.133,35.645,20.996,25.879,2
16166.860,16.602,34.668,35.156,18.555,46.387,0
16166.864,26.855,28.320,28.809,23.438,51.758,0
16166.868,25.879,28.809,32.227,28.320,58.105,0
16166.872,16.113,36.133,41.016,26.367,11.230,0
16166.876,12.695,34.180,38.086,25.391,19.531,0
16166.879,27.832,20.508,28.320,30.273,85.449,0
16166.883,33.203,24.902,29.785,33.691,30.273,0
16166.887,17.090,34.180,36.133,30.762,3.906,0
16166.891,10.254,32.227,39.551,22.949,0.977,0
16166.895,27.832,28.809,35.156,26.855,-35.156,0
16166.899,34.180,30.273,31.250,35.645,3.906,0
16166.903,21.973,36.621,34.668,32.227,-16.113,0
16166.907,9.277,39.062,35.645,22.461,-6.836,0
16166.911,23.438,30.273,32.715,25.391,37.109,0
16166.915,37.598,24.902,30.762,36.133,9.766,0
16166.919,26.367,28.320,33.691,36.133,18.555,0
16166.922,10.742,36.621,42.480,21.484,64.453,0
16166.926,10.254,34.180,40.039,17.090,34.668,0
16166.930,24.902,25.879,24.902,24.902,28.320,0
16166.934,27.832,30.273,23.926,29.297,40.039,0
16166.938,13.672,37.109,31.738,25.391,55.664,0
16166.942,11.230,35.156,31.738,25.879,103.516,0
16166.946,27.832,27.344,24.414,34.180,72.754,0
16166.950,35.156,22.949,24.902,38.086,25.879,0
16166.954,26.367,31.250,35.156,36.621,34.668,0
16166.958,9.766,36.621,39.062,28.809,80.078,0
16166.962,21.973,30.762,30.273,33.691,51.758,0
16166.965,41.016,27.832,26.855,39.062,53.223,0
16166.969,29.297,33.203,31.738,33.203,82.031,0
16166.973,8.789,36.621,33.203,20.508,35.645,0
16166.977,16.602,31.738,25.879,22.949,68.848,0
16166.981,34.668,27.344,23.926,32.715,94.238,0
16166.985,30.273,29.297,26.367,27.344,83.496,0
16166.989,15.625,31.250,30.762,18.555,70.801,0
16166.993,13.672,32.715,28.809,17.578,41.016,0
16166.997,27.832,31.738,21.973,23.438,73.242,0
16167.001,30.273,30.273,24.414,29.297,98.633,0
16167.004,17.090,34.668,30.762,29.297,26.855,0
16167.008,6.836,36.621,30.762,20.020,12.207,0
16167.012,16.113,27.832,26.367,23.438,60.059,0
16167.016,28.320,24.902,29.785,33.691,41.504,0
16167.020,19.043,31.738,39.551,31.738,19.043,0
16167.024,3.906,37.598,39.062,15.137,-4.883,0
16167.028,16.602,31.738,29.297,17.090,-49.316,0
16167.032,24.414,24.414,23.438,24.902,0.488,0
16167.036,15.137,27.344,26.855,22.949,-8.789,0
16167.040,3.906,33.203,35.156,18.555,-26.855,0
16167.044,13.672,28.320,30.762,21.484,32.227,0
16167.047,35.645,25.391,27.344,33.691,46.387,0
16167.051,34.180,30.762,31.250,33.203,40.039,0
16167.055,15.137,33.203,36.621,27.344,57.617,0
16167.059,18.555,29.785,34.668,25.879,35.645,0
16167.063,46.875,27.832,28.320,37.109,55.664,0
16167.067,53.711,32.227,33.691,43.945,77.637,0
16167.071,31.738,39.062,36.133,32.227,-6.836,0
16167.075,19.043,37.109,30.273,23.438,13.184,0
16167.079,38.574,30.273,25.391,32.227,30.273,0
16167.083,50.293,31.250,30.762,41.504,-8.301,0
16167.087,37.598,32.227,35.645,40.039,-39.062,0
16167.090,32.227,34.668,35.156,31.250,-26.367,0
16167.094,46.387,32.715,26.855,32.227,-4.395,0
16167.098,52.246,28.809,23.438,39.062,-33.203,0
16167.102,43.945,32.715,32.227,38.086,-8.789,0
16167.106,29.785,36.133,39.062,21.973,39.551,0
16167.110,42.480,33.691,31.738,16.113,75.195,0
16167.114,61.523,28.320,21.973,27.832,14.160,0
16167.118,54.199,28.809,25.391,27.832,-42.969,0
16167.122,37.598,36.133,31.250,16.602,-13.184,0
16167.126,40.527,33.203,29.785,15.137,-19.531,0
16167.129,63.477,24.902,24.414,23.926,-6.836,0
16167.133,76.172,28.320,27.832,32.227,49.805,0
16167.137,62.012,36.621,35.645,27.832,41.992,0
16167.141,48.828,37.598,35.645,20.996,9.277,0
16167.145,65.918,31.738,28.809,28.809,23.926,0
16167.149,74.707,30.762,23.438,31.738,9.277,0
16167.153,60.059,33.691,24.902,28.809,-13.672,0
16167.157,48.340,35.645,29.785,26.367,-29.785,0
16167.161,64.453,30.762,26.855,28.320,-47.363,0
16167.165,79.590,24.414,24.902,33.691,38.574,0
16167.169,71.777,28.320,29.297,32.227,36.133,0
16167.172,56.152,34.668,34.180,20.508,-40.527,0
16167.176,59.082,35.156,28.809,23.438,-33.203,0
16167.180,72.754,32.715,23.438,34.668,50.781,0
16167.184,66.895,33.691,27.832,33.691,69.336,0
16167.188,58.594,38.086,34.668,26.855,81.055,0
16167.192,60.059,37.109,33.691,24.902,59.082,0
16167.196,70.312,29.785,28.320,36.621,32.715,0
16167.200,71.777,24.902,29.297,39.062,52.734,0
16167.204,59.570,30.762,37.598,36.133,36.133,0
16167.208,46.387,37.109,41.992,26.367,20.020,0
16167.212,51.758,29.785,32.715,25.391,41.504,0
16167.215,66.895,27.832,27.832,36.621,36.133,0
16167.219,59.570,34.180,34.180,33.691,84.473,0
16167.223,41.016,35.645,38.574,24.414,102.051,0
16167.227,49.805,33.203,32.227,28.320,-2.930,0
16167.231,65.918,32.715,26.855,35.156,-0.488,0
16167.235,60.547,29.297,30.762,35.156,36.133,0
16167.239,44.434,30.273,37.598,28.809,13.184,0
16167.243,43.945,34.180,34.180,25.391,5.859,0
16167.247,58.594,32.227,24.902,29.297,13.184,0
16167.251,55.664,28.320,25.391,31.250,-10.742,0
16167.254,35.156,27.344,31.738,26.367,25.391,0
16167.258,20.020,26.855,31.250,20.020,75.684,0
16167.262,31.738,23.438,24.902,24.902,41.504,0
16167.266,39.062,22.949,27.832,32.715,0.000,0
16167.270,25.391,27.832,37.598,34.180,65.430,0
16167.274,10.742,31.250,42.480,29.297,76.172,0
16167.278,14.160,21.973,34.180,30.273,-29.297,0
16167.282,21.973,20.996,27.344,31.738,-32.715,0
16167.286,19.043,28.320,30.273,24.414,20.996,0
16167.290,9.766,32.715,28.320,7.324,20.996,0
16167.294,22.461,33.203,23.438,7.324,37.598,0
16167.297,49.316,27.832,24.902,26.367,8.789,0
16167.301,49.805,27.344,29.297,32.227,-37.598,0
16167.305,30.762,33.203,31.738,24.902,-8.301,0
16167.309,26.855,31.738,29.297,22.949,15.137,0
16167.313,42.969,23.438,27.344,32.715,30.273,0
16167.317,42.480,22.461,28.320,36.133,70.801,0
16167.321,27.344,30.762,32.715,34.180,51.758,0
16167.325,28.809,37.598,33.691,35.645,-2.441,0
16167.329,51.758,31.738,28.320,42.480,-8.789,0
16167.333,59.570,26.855,23.438,43.945,34.180,0
16167.337,50.781,32.715,29.785,40.039,57.129,0
16167.340,42.480,35.645,35.645,32.715,60.059,0
16167.344,54.199,31.738,31.250,38.574,26.367,0
16167.348,64.941,27.832,26.367,41.016,3.906,0
16167.352,50.781,26.855,27.832,34.180,63.477,0
16167.356,29.297,29.297,34.668,32.227,33.203,0
16167.360,24.902,28.809,32.227,36.621,1.465,0
16167.364,35.645,23.926,26.855,38.574,57.129,0
16167.368,36.133,24.414,25.879,29.785,65.430,0
16167.372,21.973,29.297,30.273,23.438,65.430,0
16167.376,20.508,30.273,30.762,25.391,74.219,0
16167.379,40.527,23.438,21.484,29.785,20.508,0
16167.383,48.340,23.926,23.438,30.762,-38.574,0
16167.387,41.016,30.762,29.297,27.344,21.484,0
16167.391,27.344,29.297,29.785,17.090,31.250,0
16167.395,33.691,26.855,26.855,23.438,23.438,0
16167.399,51.270,28.320,27.344,34.668,64.941,0
16167.403,41.504,29.297,36.621,31.738,47.363,0
16167.407,27.344,34.668,38.574,21.484,-22.461,0
16167.411,43.457,37.598,28.320,22.461,-15.625,0
16167.415,51.758,33.203,23.438,32.227,32.715,0
16167.419,39.551,32.715,29.785,33.691,33.691,0
16167.422,24.902,37.109,38.086,20.508,38.574,0
16167.426,22.949,34.180,33.691,18.066,33.691,0
16167.430,43.945,27.344,25.879,31.250,-4.395,0
16167.434,47.852,30.762,29.297,39.062,13.184,0
16167.438,22.461,32.715,33.203,29.297,66.406,0
16167.442,13.184,30.762,32.227,21.973,68.848,0
16167.446,30.762,30.762,25.391,31.250,30.762,0
16167.450,37.109,31.250,20.996,28.320,5.371,0
16167.454,20.508,34.180,27.344,20.508,15.137,0
16167.458,6.348,37.109,35.645,21.484,-6.836,0
16167.462,18.066,30.762,28.809,32.715,-5.859,0
16167.465,28.809,27.344,25.391,40.527,-7.324,0
16167.469,24.414,33.203,31.738,38.574,-22.949,0
16167.473,19.043,38.086,35.156,33.691,5.371,0
16167.477,31.738,30.762,25.879,34.180,18.555,0
16167.481,47.363,23.926,18.555,38.086,0.000,0
16167.485,39.062,31.250,24.902,31.738,20.996,0
16167.489,15.625,41.992,28.809,18.555,80.566,0
16167.493,24.414,41.016,22.949,20.996,47.852,0
16167.497,39.551,33.691,16.113,29.297,6.348,1
16167.501,35.156,33.691,16.113,28.809,-0.488,0
16167.504,20.996,36.621,21.484,20.996,47.363,0
16167.508,13.184,36.621,23.926,16.113,67.871,0
16167.512,31.250,31.738,21.484,24.902,-22.461,0
16167.516,39.551,31.738,20.996,32.715,-6.348,0
16167.520,22.949,32.715,24.902,22.949,30.762,0
16167.524,9.766,32.227,31.738,13.184,18.066,0
16167.528,25.391,26.855,28.320,18.066,30.273,0
16167.532,40.527,26.367,20.996,25.879,12.207,0
16167.536,29.785,34.668,25.391,27.832,44.922,0
16167.540,9.766,36.621,31.250,20.020,73.242,0
16167.544,11.719,32.227,28.320,20.020,57.617,0
16167.547,24.414,25.879,20.996,30.762,34.180,0
16167.551,18.066,30.273,20.508,34.668,21.973,0
16167.555,8.789,39.551,29.785,26.855,21.484,0
