timestamps,TP9,AF7,AF8,TP10,Right AUX,Marker0
16597.247,27.832,31.738,33.203,28.809,75.195,0
16597.251,40.527,27.344,32.715,45.898,94.238,0
16597.254,31.250,25.879,29.785,36.133,15.137,0
16597.258,17.578,26.855,31.250,10.254,13.184,0
16597.262,28.809,26.367,31.738,14.648,3.418,0
16597.266,53.711,28.809,33.203,40.527,-10.254,0
16597.270,50.781,33.203,35.645,45.898,-32.715,0
16597.274,23.926,31.738,31.738,29.297,-23.926,0
16597.278,22.949,29.785,32.227,26.855,20.508,0
16597.282,54.199,31.738,32.715,40.039,31.738,0
16597.286,57.129,34.668,29.785,45.410,43.457,0
16597.290,27.832,34.668,26.367,24.414,29.297,0
16597.294,11.719,34.668,24.902,7.324,26.855,0
16597.297,30.273,36.133,25.879,27.832,45.898,0
16597.301,45.410,35.156,31.250,46.875,27.344,0
16597.305,29.785,33.691,32.227,36.133,18.066,0
16597.309,17.578,35.645,32.227,21.484,20.996,0
16597.313,40.527,39.062,33.691,19.531,6.836,0
16597.317,60.059,34.180,28.809,37.109,33.203,0
16597.321,46.387,30.273,28.320,36.621,66.406,0
16597.325,25.391,30.762,31.250,13.672,15.625,0
16597.329,25.391,29.785,31.250,24.902,-25.879,0
16597.333,50.781,21.973,30.273,50.781,9.277,0
16597.337,50.781,19.531,31.738,47.363,7.324,0
16597.340,17.090,26.855,31.738,28.809,-14.160,0
16597.344,6.348,30.273,35.156,23.438,13.672,0
16597.348,35.156,28.809,35.645,41.016,13.184,0
16597.352,58.594,31.250,30.273,47.363,63.965,0
16597.356,38.574,34.668,32.227,31.250,100.098,0
16597.360,8.789,32.715,35.156,12.695,41.016,0
16597.364,22.461,30.273,31.738,28.809,-2.930,0
16597.368,47.363,31.738,31.738,60.059,34.668,0
16597.372,38.086,36.133,30.273,35.645,56.641,0
16597.376,16.602,34.668,28.809,8.301,28.809,0
16597.379,22.461,34.668,26.367,9.766,76.660,0
16597.383,42.480,34.668,26.367,33.203,86.426,0
16597.387,40.527,32.715,31.250,38.574,36.133,0
16597.391,32.715,31.738,26.855,12.695,20.996,0
16597.395,25.879,30.762,23.438,16.113,21.973,0
16597.399,29.297,29.297,23.438,31.250,-19.531,0
16597.403,39.062,30.762,25.391,42.969,-19.531,0
16597.407,17.578,33.203,26.855,30.762,25.391,0
16597.411,9.766,32.715,27.344,19.531,24.414,0
16597.415,34.180,33.203,25.879,37.109,23.438,0
16597.419,41.504,37.109,26.367,43.457,15.625,0
16597.422,28.809,37.109,32.227,23.438,39.551,0
16597.426,18.555,34.668,31.250,4.395,10.254,0
16597.430,27.344,35.156,26.367,22.949,12.207,0
16597.434,50.781,34.668,31.250,46.387,36.621,0
16597.438,37.598,30.273,30.762,34.668,-13.672,0
16597.442,1.953,28.320,26.367,12.695,-16.113,0
16597.446,8.789,30.762,28.320,21.484,5.859,0
16597.450,38.086,29.785,30.762,42.969,22.461,0
16597.454,30.273,26.855,32.715,47.363,24.902,0
16597.458,1.465,30.273,33.691,33.203,14.160,0
16597.462,9.766,35.645,34.180,17.578,1.953,0
16597.465,40.527,37.598,33.691,31.250,33.691,0
16597.469,40.527,39.062,35.645,40.039,66.406,0
16597.473,19.531,38.574,34.668,18.555,19.531,0
16597.477,17.090,37.109,35.645,8.301,33.691,0
16597.481,32.715,36.133,33.203,30.273,47.852,0
16597.485,44.922,34.180,31.250,47.363,63.965,0
16597.489,38.574,34.180,34.668,31.250,97.168,0
16597.493,20.020,35.645,36.133,11.719,116.211,0
16597.497,31.738,37.109,31.250,19.531,77.148,0
16597.501,64.453,36.133,30.762,42.969,36.133,0
16597.504,50.293,33.203,34.180,39.062,69.336,0
16597.508,19.043,39.062,38.086,18.555,87.891,0
16597.512,32.227,44.434,42.480,21.484,0.000,0
16597.516,60.059,38.574,37.598,47.852,24.414,0
16597.520,47.363,36.621,35.645,48.340,34.180,0
16597.524,13.672,37.109,36.133,9.766,-8.301,0
16597.528,14.648,36.621,34.668,-2.441,37.109,0
16597.532,34.180,35.156,34.668,26.855,31.250,0
16597.536,36.133,34.668,35.156,47.363,26.367,0
16597.540,25.391,33.691,33.203,29.785,14.648,0
16597.544,17.578,32.715,36.133,11.230,-12.695,0
16597.547,31.250,31.738,38.574,25.879,8.789,0
16597.551,46.875,30.762,36.621,48.340,5.859,0
16597.555,34.180,29.297,35.156,39.551,20.508,0
16597.559,13.184,29.785,36.133,20.020,15.137,0
16597.563,22.461,30.273,36.133,34.668,12.207,0
16597.567,51.270,29.785,34.668,59.570,79.102,0
16597.571,46.875,29.785,36.621,47.363,80.566,0
16597.575,21.484,32.227,34.180,3.418,9.277,0
16597.579,29.297,35.645,35.156,2.930,15.137,0
16597.583,45.410,37.109,35.156,33.691,40.527,0
16597.587,39.551,35.645,30.762,36.621,20.020,0
16597.590,20.996,31.738,29.297,14.648,23.926,0
16597.594,11.719,30.273,25.879,5.859,28.809,0
16597.598,27.344,31.250,21.973,27.832,-7.324,0
16597.602,46.387,30.762,23.926,48.828,-31.738,0
16597.606,27.832,31.250,28.809,27.344,-5.371,0
16597.610,5.371,32.715,31.738,-0.977,-0.977,0
16597.614,20.508,29.785,28.320,22.461,53.711,0
16597.618,44.922,31.738,29.297,56.641,14.160,0
16597.622,41.504,35.156,33.691,42.969,-8.301,0
16597.626,19.531,35.156,31.250,14.160,23.438,0
16597.629,22.461,32.715,27.832,19.531,11.230,0
16597.633,43.945,29.785,27.832,45.410,59.570,0
16597.637,32.715,29.785,28.809,39.062,54.199,0
16597.641,14.648,27.344,28.320,17.578,56.641,0
16597.645,26.367,28.809,29.297,22.949,69.824,0
16597.649,53.711,26.855,32.227,40.527,36.621,0
16597.653,51.758,26.855,33.203,40.527,-0.488,0
16597.657,24.414,30.762,31.738,23.926,12.695,0
16597.661,20.020,31.738,30.273,15.625,24.414,0
16597.665,38.574,29.297,28.320,31.738,17.090,0
16597.669,48.340,28.320,29.297,49.316,58.105,0
16597.672,31.250,31.738,28.320,30.762,56.641,0
16597.676,10.254,32.715,26.855,7.324,22.461,0
16597.680,21.484,32.227,27.344,29.785,15.625,0
16597.684,43.457,29.297,28.809,49.316,25.391,1
16597.688,36.133,31.738,31.738,33.203,24.414,0
16597.692,19.531,34.180,34.180,21.484,10.742,0
16597.696,21.973,28.320,26.855,28.809,8.301,0
16597.700,51.270,26.367,22.949,39.551,-20.508,0
16597.704,62.500,26.855,25.391,35.645,29.297,0
16597.708,43.945,29.785,27.832,19.531,51.270,0
16597.712,37.598,30.762,26.367,23.438,-5.371,0
16597.715,52.734,26.367,25.391,44.922,19.531,0
16597.719,52.734,25.879,28.809,41.016,64.453,0
16597.723,34.668,26.367,30.273,29.297,41.992,0
16597.727,31.250,26.855,32.715,25.391,7.324,0
16597.731,48.340,26.367,33.691,33.691,29.785,0
16597.735,62.500,21.973,29.785,49.316,32.227,0
16597.739,36.621,22.949,32.227,32.715,0.488,0
16597.743,2.930,26.855,34.180,18.555,22.461,0
16597.747,20.020,31.250,29.785,32.715,13.184,0
16597.751,38.574,32.227,29.785,49.805,40.527,0
16597.754,25.391,29.297,28.320,37.598,84.473,0
16597.758,10.742,33.203,25.879,3.418,65.918,0
16597.762,17.090,37.109,25.879,8.789,12.207,0
16597.766,38.086,35.156,23.926,37.109,-11.230,0
16597.770,39.551,31.250,20.020,38.574,21.484,0
16597.774,23.926,30.762,19.043,12.695,29.297,0
16597.778,20.508,33.691,21.973,11.230,31.250,0
16597.782,36.133,30.273,20.996,35.645,17.090,0
16597.786,51.270,27.344,18.066,40.527,17.090,0
16597.790,38.086,27.344,17.090,18.066,60.547,0
16597.794,22.461,29.297,18.555,4.883,32.227,0
16597.797,25.391,33.691,19.043,32.227,-6.836,0
16597.801,32.715,35.156,19.531,54.688,7.812,0
16597.805,23.926,34.180,23.438,26.855,3.906,0
16597.809,15.625,34.668,26.367,4.883,8.301,0
16597.813,31.738,33.691,25.879,20.020,5.859,0
16597.817,54.688,33.203,28.809,38.574,30.273,0
16597.821,41.992,36.621,31.250,32.227,23.438,0
16597.825,12.207,40.039,33.203,18.066,82.520,0
16597.829,21.973,39.062,35.156,24.902,79.590,0
16597.833,43.457,33.203,32.715,45.898,29.785,0
16597.837,41.504,32.227,31.738,48.828,66.895,0
16597.840,20.508,31.738,29.785,30.273,24.902,0
16597.844,4.395,28.809,29.785,19.043,8.789,0
16597.848,24.414,29.785,33.203,31.738,26.367,0
16597.852,50.781,31.738,33.691,42.480,46.387,0
16597.856,41.992,33.203,31.738,23.926,15.625,0
16597.860,17.578,33.691,29.785,10.742,-12.207,0
16597.864,21.484,32.715,29.297,28.809,6.836,0
16597.868,47.363,33.691,28.320,45.898,4.395,0
16597.872,41.992,37.598,30.762,38.574,-5.371,0
16597.876,12.207,38.574,33.691,17.090,21.484,0
16597.879,13.672,34.180,32.715,21.973,55.176,0
16597.883,39.551,29.297,31.738,41.992,38.086,0
16597.887,40.039,26.855,34.180,35.645,22.461,0
16597.891,16.113,25.879,36.621,14.160,4.883,0
16597.895,4.395,28.809,33.691,16.602,9.277,0
16597.899,25.391,32.715,30.762,37.598,-12.695,0
16597.903,36.621,30.762,32.715,40.527,3.418,0
16597.907,22.949,31.250,32.715,17.578,37.109,0
16597.911,22.461,30.762,27.832,13.672,-12.695,0
16597.915,41.504,30.762,24.414,38.086,-43.945,0
16597.919,42.480,33.203,29.785,50.293,-37.109,0
16597.922,18.066,34.180,32.227,28.320,3.418,0
16597.926,4.395,33.203,31.250,10.254,17.578,0
16597.930,21.973,29.297,31.250,27.832,20.508,0
16597.934,36.621,23.926,27.344,47.363,29.297,0
16597.938,25.391,24.414,24.902,35.645,25.391,0
16597.942,9.766,27.832,26.855,16.113,-27.344,0
16597.946,20.508,27.344,31.738,29.297,-21.484,0
16597.950,45.410,27.832,31.738,52.246,57.617,0
16597.954,45.898,28.320,29.297,38.574,46.387,0
16597.958,17.090,28.320,32.715,18.066,2.930,0
16597.962,3.418,28.320,30.273,17.578,39.551,0
16597.965,23.926,24.414,28.320,30.762,27.832,0
16597.969,41.016,20.508,31.738,45.410,9.766,0
16597.973,25.391,22.949,31.250,36.133,48.340,0
16597.977,14.648,26.855,27.832,27.832,22.461,0
16597.981,42.480,33.203,25.391,31.738,-2.930,0
16597.985,56.641,33.203,24.902,46.875,51.758,0
16597.989,37.109,29.297,24.414,32.227,85.449,0
16597.993,16.602,30.273,23.926,2.441,57.617,0
16597.997,22.949,27.344,21.484,13.184,19.531,0
16598.001,46.387,25.391,22.461,44.922,50.293,0
16598.004,43.457,27.344,24.902,47.363,86.914,0
16598.008,23.438,27.344,26.855,24.414,77.637,0
16598.012,20.020,25.391,23.926,22.949,41.992,0
16598.016,37.598,23.438,23.438,47.363,5.859,0
16598.020,41.992,23.438,29.785,42.969,7.812,0
16598.024,19.043,24.414,32.715,13.672,10.742,0
16598.028,13.184,29.785,35.156,18.555,33.203,0
16598.032,39.062,33.203,30.762,53.223,38.086,0
16598.036,41.016,27.832,24.414,61.035,-38.574,0
16598.040,21.973,24.902,22.461,25.391,-11.719,0
16598.044,19.531,27.344,24.414,14.160,65.918,0
16598.047,31.738,28.320,26.855,31.738,61.035,0
16598.051,46.875,26.367,24.902,39.551,21.973,0
16598.055,39.551,28.320,23.926,26.367,-16.602,0
16598.059,13.672,34.180,25.879,10.742,-3.418,0
16598.063,19.531,33.203,26.855,19.043,-2.441,0
16598.067,41.992,31.738,25.879,35.156,22.949,0
16598.071,33.691,34.180,25.879,33.691,33.203,0
16598.075,20.508,35.156,25.391,15.137,-19.531,0
16598.079,27.832,35.156,23.926,22.461,-3.906,0
16598.083,47.852,31.738,26.367,43.945,16.602,0
16598.087,48.340,34.180,33.691,42.969,24.902,0
16598.090,19.531,36.133,37.598,35.156,58.105,0
16598.094,2.930,32.715,34.668,16.602,27.832,0
16598.098,33.203,31.250,33.691,25.391,21.973,0
16598.102,59.082,35.645,32.715,53.223,43.945,0
16598.106,38.086,33.691,31.250,38.086,41.992,0
16598.110,17.578,26.367,33.203,10.254,32.227,0
16598.114,29.785,26.367,27.832,24.902,32.227,0
16598.118,39.551,30.762,24.902,57.617,29.297,0
16598.122,24.902,31.250,26.855,41.504,24.414,0
16598.126,13.184,30.762,28.809,10.254,43.457,0
16598.129,24.902,34.668,32.227,18.066,4.883,0
16598.133,49.805,36.133,32.227,42.969,-57.129,0
16598.137,47.363,37.598,30.273,41.992,-25.391,0
16598.141,25.879,38.086,28.320,22.949,28.320,0
16598.145,26.855,34.180,26.855,22.949,68.848,0
16598.149,48.828,32.715,23.926,45.898,61.035,0
16598.153,62.012,31.250,25.391,52.246,1.953,0
16598.157,49.805,29.785,29.785,20.996,-2.441,0
16598.161,28.809,32.227,27.832,17.578,-14.648,0
16598.165,29.297,33.203,25.879,41.504,21.484,0
16598.169,35.645,33.691,26.855,42.480,82.520,0
16598.172,25.391,31.738,28.809,27.832,79.102,0
16598.176,22.461,31.738,28.809,6.836,56.152,0
16598.180,26.367,28.320,23.926,10.742,5.371,0
16598.184,35.156,24.414,21.484,41.992,-10.742,0
16598.188,31.738,25.879,24.902,34.180,20.996,0
16598.192,9.766,27.832,26.855,11.230,71.289,0
16598.196,15.625,28.320,23.926,17.090,31.250,0
16598.200,32.715,26.855,25.879,35.156,41.016,0
16598.204,33.691,27.832,32.227,38.086,16.602,0
16598.208,20.996,31.250,35.156,22.949,-34.180,0
16598.212,13.184,32.715,34.668,14.648,31.738,0
16598.215,29.297,27.832,32.227,30.273,58.594,0
16598.219,41.504,27.832,30.273,46.387,16.113,0
16598.223,24.414,28.809,27.344,19.043,14.160,0
16598.227,13.184,30.762,28.809,1.953,37.598,0
16598.231,35.645,31.738,29.785,23.438,50.781,0
16598.235,65.430,30.762,29.785,42.969,30.273,0
16598.239,45.898,31.738,32.227,24.414,-6.348,0
16598.243,9.766,38.086,33.691,-2.930,-20.020,0
16598.247,27.832,39.551,30.762,16.113,-5.859,0
16598.251,54.688,36.133,30.762,48.340,28.809,2
16598.254,43.945,35.645,32.715,40.527,62.988,0
16598.258,19.043,31.738,30.273,12.695,18.555,0
16598.262,15.137,26.855,28.809,15.137,23.926,0
16598.266,34.668,28.809,30.273,41.504,61.035,0
16598.270,37.598,32.715,30.273,44.434,29.785,0
16598.274,12.695,30.273,27.344,22.461,35.156,0
16598.278,6.348,31.250,28.320,16.602,23.438,0
16598.282,29.785,33.691,30.762,42.969,6.836,0
16598.286,41.504,31.250,30.762,49.316,24.902,0
16598.290,22.461,28.320,31.250,15.625,32.715,0
16598.294,16.602,29.785,32.715,2.930,16.602,0
16598.297,39.551,33.691,28.320,20.996,0.000,0
16598.301,51.758,35.156,22.461,39.551,9.766,0
16598.305,41.016,36.133,23.438,36.133,-14.160,0
16598.309,25.879,37.109,26.855,18.066,-0.488,0
16598.313,33.203,35.156,26.855,23.438,14.160,0
16598.317,48.340,32.715,29.785,46.387,29.297,0
16598.321,42.480,35.156,36.133,44.922,39.062,0
16598.325,18.555,35.156,32.715,23.438,28.320,0
16598.329,22.461,30.762,27.344,22.461,49.805,0
16598.333,48.828,29.785,26.855,32.227,89.355,0
16598.337,45.410,29.785,26.855,44.922,27.344,0
16598.340,28.809,30.762,25.879,32.227,-12.207,0
16598.344,21.484,32.715,29.785,6.836,11.230,0
16598.348,36.621,32.227,33.203,25.391,34.668,0
16598.352,43.945,33.203,28.809,51.270,38.574,0
16598.356,24.902,32.715,26.367,38.086,58.105,0
16598.360,11.230,30.273,29.785,18.555,46.387,0
16598.364,24.414,27.832,31.250,29.785,31.738,0
16598.368,48.828,27.832,29.297,47.852,26.855,0
16598.372,42.480,28.320,29.785,38.086,12.207,0
16598.376,20.508,26.367,29.785,11.719,-3.906,0
16598.379,27.344,28.809,28.320,20.508,18.555,0
16598.383,45.898,33.691,28.809,52.734,72.754,0
16598.387,46.875,33.203,34.180,52.246,59.570,0
16598.391,25.879,32.715,32.227,20.996,20.996,0
16598.395,15.625,32.227,27.832,20.508,22.461,0
16598.399,35.645,27.344,27.344,46.387,41.016,0
16598.403,41.992,28.809,23.926,48.340,70.312,0
16598.407,20.996,31.250,20.508,20.508,80.566,0
16598.411,14.648,30.762,24.414,6.348,6.348,0
16598.415,37.598,24.414,27.344,30.762,36.133,0
16598.419,55.664,24.902,30.273,55.664,62.500,0
16598.422,35.156,30.762,31.738,28.320,56.641,0
16598.426,10.742,32.715,31.738,-0.488,81.543,0
16598.430,21.973,32.227,29.785,20.996,28.320,0
16598.434,48.828,32.715,25.391,56.152,-2.930,0
16598.438,47.852,33.203,26.855,49.316,29.297,0
16598.442,31.250,32.227,27.832,13.672,29.785,0
16598.446,41.504,33.203,25.391,10.742,45.898,0
16598.450,49.316,34.180,24.902,32.715,50.781,0
16598.454,31.250,33.203,28.809,48.340,-1.953,0
16598.458,15.625,33.203,31.250,30.762,21.484,0
16598.462,17.090,36.621,29.785,16.602,61.035,0
16598.465,37.109,33.691,27.344,49.805,20.508,0
16598.469,44.922,28.809,29.785,55.176,-6.836,0
16598.473,28.809,29.297,29.785,25.391,14.160,0
16598.477,18.066,32.227,28.320,12.207,7.812,0
16598.481,30.273,33.203,26.855,22.461,18.066,0
16598.485,47.852,31.738,25.879,53.223,25.391,0
16598.489,40.527,32.715,28.809,46.387,102.539,0
16598.493,25.391,36.621,30.273,18.066,67.383,0
16598.497,38.574,30.762,28.320,31.250,23.438,0
16598.501,56.641,27.832,27.832,45.410,68.359,0
16598.504,33.203,27.832,25.391,35.156,19.043,0
16598.508,5.371,23.438,26.855,18.555,6.836,0
16598.512,12.207,20.020,28.809,16.113,17.090,0
16598.516,41.992,24.414,29.297,45.898,47.852,0
16598.520,42.969,30.273,29.297,54.199,3.906,0
16598.524,12.695,29.297,25.879,26.367,8.789,0
16598.528,12.695,31.250,26.367,20.996,30.273,0
16598.532,34.668,28.320,29.785,41.016,22.461,0
16598.536,44.434,26.367,34.180,46.875,52.734,0
16598.540,30.273,31.250,37.109,35.156,47.363,0
16598.544,8.789,27.344,34.668,12.207,34.668,0
16598.547,20.996,23.438,33.203,22.461,46.875,0
16598.551,27.832,25.879,34.180,42.969,8.789,0
16598.555,13.184,27.344,33.203,32.227,-20.020,0
16598.559,12.207,24.414,32.715,19.043,-13.672,0
16598.563,27.344,22.461,32.227,13.184,-22.461,0
16598.567,36.621,27.344,28.809,25.879,19.043,0
16598.571,29.297,33.691,30.273,35.645,26.367,0
16598.575,6.836,35.645,33.203,20.508,9.766,0
16598.579,6.348,37.109,33.203,27.344,30.273,0
16598.583,38.574,36.133,33.691,45.898,41.016,0
16598.587,45.410,31.738,32.227,42.480,3.418,0
16598.590,25.391,29.297,31.250,21.973,37.598,0
16598.594,17.090,29.297,32.715,7.324,14.160,0
16598.598,32.227,25.879,31.250,23.438,2.441,0
16598.602,50.293,25.879,32.715,49.805,55.664,0
16598.606,41.504,30.273,31.738,32.715,55.176,0
16598.610,18.555,33.691,30.762,10.254,45.898,0
16598.614,30.273,37.598,34.180,24.902,18.066,0
16598.618,49.316,36.133,35.156,49.805,-14.160,0
16598.622,30.762,31.738,32.227,41.504,-38.086,0
16598.626,1.953,31.250,29.297,11.230,70.801,0
16598.629,7.324,31.738,29.785,17.090,83.984,0
16598.633,32.715,31.250,34.180,41.504,20.020,0
16598.637,27.344,29.785,30.762,45.898,30.762,0
16598.641,2.930,26.855,24.414,14.648,22.949,0
16598.645,10.254,29.297,29.785,-1.465,26.855,0
16598.649,34.668,31.738,36.133,33.203,-2.441,0
16598.653,33.203,31.738,34.668,46.387,16.602,0
16598.657,29.297,38.086,30.762,27.344,40.039,0
16598.661,16.602,39.062,33.203,17.090,-18.066,0
16598.665,17.090,29.297,35.645,25.391,16.113,0
16598.669,36.133,27.832,33.691,39.551,74.219,0
16598.672,26.367,34.668,34.180,33.203,36.621,0
16598.676,12.207,37.109,32.715,14.648,-9.766,0
16598.680,21.973,34.668,33.691,17.090,-8.301,0
16598.684,46.387,34.180,32.227,42.969,10.254,0
16598.688,35.645,38.086,30.762,45.410,58.594,0
16598.692,3.906,34.668,32.227,20.508,12.695,0
16598.696,11.719,29.297,28.809,11.719,-54.688,0
16598.700,33.203,28.809,27.344,34.668,-2.930,0
16598.704,20.020,31.250,25.879,39.062,26.855,0
16598.708,7.812,32.715,29.297,18.066,7.812,0
16598.712,9.766,32.227,33.203,11.230,30.762,0
16598.715,17.090,32.715,26.855,26.855,60.059,0
16598.719,30.273,33.691,26.367,49.805,70.801,0
16598.723,24.414,34.180,30.273,37.598,-8.789,0
16598.727,6.348,35.156,31.738,21.973,-31.738,0
16598.731,17.090,33.691,30.273,40.039,5.859,0
16598.735,38.086,32.227,26.855,49.805,66.406,0
16598.739,29.785,29.297,22.461,32.715,83.008,0
16598.743,28.809,19.531,24.414,18.066,30.762,0
16598.747,42.480,11.719,21.973,26.855,14.160,0
16598.751,40.527,22.461,15.137,49.316,30.273,0
16598.754,32.715,45.410,34.180,54.199,42.480,0
16598.758,13.672,48.828,49.316,20.996,40.039,0
16598.762,0.488,36.133,36.621,1.953,16.602,1
16598.766,23.438,34.180,29.297,27.344,47.852,0
16598.770,31.738,41.504,31.250,33.691,75.684,0
16598.774,10.742,40.039,27.832,14.160,47.852,0
16598.778,6.348,34.668,25.391,5.859,17.090,0
16598.782,34.180,33.691,27.832,19.043,0.000,0
16598.786,46.387,33.691,30.273,42.969,68.848,0
16598.790,23.926,34.668,31.250,37.109,28.320,0
16598.794,7.324,37.598,34.180,16.602,-38.086,0
16598.797,20.020,37.109,33.203,20.508,6.348,0
16598.801,31.250,34.668,29.785,44.922,49.805,0
16598.805,25.391,34.180,34.180,44.434,38.574,0
16598.809,18.066,28.809,38.086,29.785,27.344,0
16598.813,22.949,27.832,33.203,31.738,9.766,0
16598.817,32.227,31.738,28.809,31.738,37.598,0
16598.821,24.902,33.691,24.902,29.297,74.219,0
16598.825,5.371,33.203,24.902,16.602,44.434,0
16598.829,17.090,35.156,28.809,17.090,25.879,0
16598.833,40.527,32.715,28.320,42.969,42.480,0
16598.837,39.062,29.297,26.855,51.270,36.133,0
16598.840,23.926,29.785,29.297,38.086,41.504,0
16598.844,19.531,32.715,31.250,18.066,20.996,0
16598.848,50.293,38.086,27.832,22.949,13.672,0
16598.852,67.871,39.062,25.391,45.898,42.480,0
16598.856,42.969,33.691,23.438,30.273,3.418,0
16598.860,19.531,33.203,23.926,14.160,8.789,0
16598.864,26.367,33.203,29.297,31.738,81.055,0
16598.868,39.551,34.668,32.227,55.664,69.824,0
16598.872,32.227,33.691,32.227,45.410,6.348,0
16598.876,18.555,32.227,33.203,12.207,2.930,0
16598.879,21.484,36.621,34.668,11.719,54.688,0
16598.883,37.109,38.574,34.180,37.598,67.383,0
16598.887,33.203,35.645,31.738,34.668,73.730,0
16598.891,17.578,36.621,33.691,14.648,48.828,0
16598.895,17.578,34.668,34.180,17.090,-23.438,0
16598.899,44.922,41.016,42.969,49.316,-2.441,0
16598.903,46.875,43.457,44.922,56.641,31.738,0
16598.907,10.742,30.762,30.762,25.879,-4.395,0
16598.911,-3.418,31.738,28.809,7.812,-17.090,0
16598.915,21.484,29.785,28.320,24.902,61.523,0
16598.919,44.434,27.832,28.320,41.016,80.078,0
16598.922,26.855,29.785,27.344,28.809,18.066,0
16598.926,1.465,29.785,27.344,16.113,31.738,0
16598.930,14.648,30.273,31.738,25.391,15.137,0
16598.934,35.156,31.738,33.691,47.852,21.484,0
16598.938,35.156,30.762,33.691,32.227,76.172,0
16598.942,23.438,29.785,34.180,5.859,37.109,0
16598.946,20.996,30.762,33.203,14.160,-29.785,0
16598.950,37.109,32.715,34.668,42.969,-3.418,0
16598.954,30.273,30.762,36.133,46.875,53.223,0
16598.958,10.742,26.367,30.273,24.414,83.984,0
16598.962,11.230,29.785,28.320,21.484,59.570,0
16598.965,27.832,29.297,26.855,40.527,45.898,0
16598.969,35.645,30.762,23.926,52.246,84.961,0
16598.973,22.461,35.156,29.785,33.203,81.543,0
16598.977,13.184,39.062,34.180,11.230,14.160,0
16598.981,26.855,35.645,34.180,23.926,-17.090,0
16598.985,50.293,29.785,34.180,44.922,21.484,0
16598.989,48.828,30.273,34.668,30.273,45.898,0
16598.993,26.367,32.227,30.762,10.254,6.348,0
16598.997,21.484,31.250,28.809,22.949,-13.672,0
16599.001,42.480,32.715,31.738,48.340,-20.508,0
16599.004,41.016,33.691,29.785,42.480,-17.578,0
16599.008,10.254,32.715,28.809,12.695,0.977,0
16599.012,8.301,36.133,29.297,17.090,21.973,0
16599.016,27.832,29.785,26.855,41.016,78.125,0
16599.020,37.598,22.949,26.855,51.270,61.523,0
16599.024,21.973,29.297,31.250,35.156,51.758,0
16599.028,15.625,33.203,30.273,20.020,-15.625,0
16599.032,51.270,29.297,28.809,40.039,1.465,0
16599.036,57.129,27.344,33.203,57.129,51.270,0
16599.040,21.484,27.832,35.645,46.875,-29.785,0
16599.044,8.789,26.855,33.691,33.691,-2.441,0
16599.047,28.809,27.344,30.273,37.598,73.242,0
16599.051,51.758,27.344,27.832,56.641,84.961,0
16599.055,41.992,27.344,29.297,48.828,42.969,0
16599.059,17.578,30.762,32.715,19.043,-21.484,0
16599.063,21.973,32.715,29.297,17.578,-13.184,0
16599.067,46.875,30.762,25.879,49.805,32.227,0
16599.071,44.434,30.273,29.785,52.246,26.367,0
16599.075,24.414,34.668,30.273,31.250,39.062,0
16599.079,16.602,39.062,29.297,30.762,-31.738,0
16599.083,36.621,36.621,25.391,43.457,-10.742,0
16599.087,43.945,32.227,24.902,37.598,60.547,0
16599.090,13.184,34.180,28.809,14.160,5.859,0
16599.094,-1.953,35.156,26.855,5.371,-26.367,0
16599.098,23.438,34.668,25.879,25.391,3.906,0
16599.102,49.316,34.180,27.344,44.922,49.805,0
16599.106,27.344,27.832,25.879,31.250,67.383,0
16599.110,-6.836,24.902,26.855,10.742,17.578,0
16599.114,-3.418,25.391,26.855,14.648,11.230,0
16599.118,24.414,25.391,27.832,42.480,-12.695,0
16599.122,21.973,27.344,26.855,37.109,-60.059,0
16599.126,-2.441,29.297,23.438,16.602,23.438,0
16599.129,8.789,31.738,28.809,24.414,55.664,0
16599.133,41.504,32.227,33.691,35.645,43.945,0
16599.137,43.945,29.297,32.227,36.133,24.414,0
16599.141,28.320,29.785,32.227,20.020,50.781,0
16599.145,22.949,31.250,31.250,19.531,81.055,0
16599.149,38.574,27.832,29.297,40.039,36.133,0
16599.153,50.293,29.785,29.297,42.969,71.777,0
16599.157,34.668,36.621,27.832,27.832,98.145,0
16599.161,20.996,34.668,29.297,20.996,19.043,0
16599.165,29.297,28.320,30.273,27.832,26.855,0
16599.169,43.457,30.762,33.691,41.016,68.359,0
16599.172,23.926,31.738,38.086,34.668,38.574,0
16599.176,4.883,29.297,35.645,18.066,-7.324,0
16599.180,13.672,27.344,30.762,24.902,22.461,0
16599.184,39.551,29.297,31.738,43.945,87.402,0
16599.188,42.969,29.297,34.180,41.504,76.660,0
16599.192,17.090,26.855,34.180,21.973,72.754,0
16599.196,7.812,26.367,33.691,19.531,51.270,0
16599.200,30.273,26.855,31.738,36.133,18.066,0
16599.204,40.527,30.762,30.762,41.992,30.762,0
16599.208,15.137,29.297,26.855,16.602,43.457,0
16599.212,7.324,27.832,27.344,9.277,27.832,0
16599.215,35.645,31.738,29.297,33.203,2.930,0
16599.219,52.246,29.785,21.973,41.016,52.734,0
16599.223,27.344,26.367,19.531,20.996,103.027,0
16599.227,6.836,26.367,23.438,4.395,63.477,0
16599.231,27.344,27.832,25.391,23.438,-4.883,0
16599.235,39.062,27.832,31.738,48.340,10.742,0
16599.239,24.902,25.879,27.832,41.992,10.742,0
16599.243,12.207,34.668,23.438,25.879,-42.969,0
16599.247,24.902,37.598,26.855,22.949,-39.062,0
16599.251,44.922,30.762,25.879,32.227,18.555,0
16599.254,39.062,31.738,20.996,30.762,24.414,0
16599.258,11.719,29.297,19.531,11.230,-0.488,0
16599.262,4.395,33.203,21.973,24.414,-6.836,0
16599.266,34.180,39.062,28.809,60.547,-11.719,0
16599.270,31.250,29.297,24.414,46.387,48.828,0
16599.274,6.348,21.973,17.578,4.883,28.809,0
16599.278,2.441,27.344,27.832,1.465,41.992,0
16599.282,30.762,33.203,40.527,39.062,38.086,0
16599.286,52.734,33.203,45.898,62.500,-9.277,0
16599.290,24.902,25.391,36.621,25.391,-10.742,0
16599.294,3.418,17.578,24.902,-1.953,-29.297,0
16599.297,20.020,18.066,21.484,17.090,7.812,0
16599.301,33.691,27.344,19.531,41.992,53.223,0
16599.305,21.484,36.133,26.367,33.203,22.461,0
16599.309,6.836,40.527,33.691,18.066,28.320,0
16599.313,17.090,39.062,31.738,19.043,28.320,0
16599.317,38.086,34.180,35.156,30.273,25.879,0
16599.321,30.762,36.133,41.016,32.715,33.203,0
16599.325,11.719,34.180,39.551,16.602,14.160,0
16599.329,13.672,30.762,39.551,18.555,30.273,0
16599.333,35.645,34.668,39.551,48.828,22.461,0
16599.337,44.434,36.621,35.645,53.223,42.969,0
16599.340,31.250,37.598,30.762,20.996,2.930,0
16599.344,26.855,39.062,28.320,14.160,-21.973,0
16599.348,52.246,38.086,25.391,34.668,21.484,0
16599.352,69.824,38.574,26.367,51.758,38.086,0
16599.356,37.109,40.527,31.250,38.574,68.359,0
16599.360,14.648,38.574,33.691,15.625,92.773,0
16599.364,38.086,32.227,33.203,24.414,49.805,0
16599.368,60.547,27.344,33.203,45.898,12.695,0
16599.372,41.992,29.297,34.668,37.109,10.742,0
16599.376,15.625,31.738,35.156,20.020,35.645,0
16599.379,20.020,33.691,28.320,21.973,34.180,0
16599.383,35.645,32.715,21.484,38.086,52.734,0
16599.387,32.715,32.715,26.367,40.039,96.191,0
16599.391,6.836,33.691,30.273,11.719,55.664,0
16599.395,-2.930,30.273,27.832,9.766,1.953,0
16599.399,18.066,27.832,25.879,35.645,-14.648,0
16599.403,32.227,31.738,29.785,55.664,-14.160,0
16599.407,16.113,32.715,31.250,36.621,2.441,0
16599.411,12.695,28.809,27.344,7.324,2.441,0
16599.415,25.879,24.414,26.855,22.949,29.297,0
16599.419,26.855,25.879,28.320,47.852,16.113,0
16599.422,22.461,29.785,25.879,36.133,28.320,0
16599.426,14.648,30.273,28.809,13.184,22.949,1
16599.430,29.297,40.039,41.016,28.809,37.598,0
16599.434,39.062,37.598,36.133,54.199,13.672,0
16599.438,22.949,25.879,26.367,32.227,-12.207,0
16599.442,6.836,28.809,31.738,0.000,55.664,0
16599.446,14.160,31.738,28.320,9.277,35.645,0
16599.450,44.434,29.297,24.902,41.992,-1.953,0
16599.454,54.199,24.414,23.926,48.340,57.129,0
16599.458,27.832,23.438,22.461,23.438,47.852,0
16599.462,5.371,25.391,23.438,13.672,23.926,0
16599.465,22.949,30.762,28.320,37.109,63.477,0
16599.469,32.715,36.621,30.273,45.410,33.203,0
16599.473,13.672,33.691,30.273,19.043,35.645,0
16599.477,8.301,35.156,31.250,4.883,26.367,0
16599.481,25.391,38.086,24.414,13.184,26.855,0
16599.485,39.062,32.227,20.020,38.086,50.781,0
16599.489,28.320,30.273,24.414,38.086,69.824,0
16599.493,7.812,34.180,29.785,9.277,-7.812,0
16599.497,13.184,34.180,27.832,8.301,-13.672,0
16599.501,38.086,36.621,29.785,42.480,58.105,0
16599.504,41.016,37.109,32.227,39.551,52.246,0
16599.508,26.367,40.039,28.809,19.531,-36.621,0
16599.512,19.043,41.992,31.250,24.414,-56.152,0
16599.516,30.762,39.062,32.227,38.574,4.883,0
16599.520,34.180,36.621,30.273,42.480,38.086,0
16599.524,14.648,33.691,32.227,21.973,13.672,0
16599.528,3.906,35.156,31.250,11.230,-25.879,0
16599.532,29.785,35.156,26.855,31.738,-10.742,0
16599.536,56.641,29.785,26.855,43.457,32.715,0
16599.540,34.668,28.320,30.762,23.438,51.758,0
16599.544,7.812,32.715,33.691,14.648,33.203,0
16599.547,20.020,31.250,34.668,32.715,53.711,0
16599.551,37.109,30.273,33.203,49.316,69.336,0
16599.555,32.227,28.320,30.762,39.551,27.344,0
16599.559,18.066,25.391,31.738,17.578,30.273,0
16599.563,19.531,29.785,26.855,21.484,29.297,0
16599.567,36.133,35.156,24.414,44.434,0.488,0
16599.571,32.715,37.598,28.809,51.270,28.320,0
16599.575,24.414,37.598,27.832,21.973,40.527,0
16599.579,18.555,35.645,28.320,3.906,8.789,0
16599.583,29.785,33.691,30.273,34.180,37.598,0
16599.587,41.016,34.180,29.785,50.781,58.105,0
16599.590,21.973,32.715,30.762,35.156,57.617,0
16599.594,16.113,35.156,28.809,23.926,93.750,0
16599.598,41.504,36.621,27.832,41.504,52.734,0
16599.602,53.711,34.180,27.344,58.105,-5.859,0
16599.606,22.949,33.691,22.461,29.297,2.930,0
16599.610,0.977,33.691,23.926,4.883,-16.113,0
16599.614,17.090,31.738,27.832,23.438,30.762,0
16599.618,33.691,31.738,29.297,45.898,84.961,0
16599.622,22.949,33.203,27.344,34.668,35.156,0
16599.626,1.953,32.715,25.391,11.230,0.977,0
16599.629,9.766,34.668,27.344,17.578,27.344,0
16599.633,44.434,33.691,26.855,41.016,39.062,0
16599.637,40.039,30.762,21.973,43.457,7.812,0
16599.641,13.184,29.785,22.949,24.414,9.766,0
16599.645,17.578,28.809,28.320,21.484,20.508,0
16599.649,35.156,30.762,27.832,42.969,39.062,0
16599.653,48.340,33.691,26.855,51.270,34.668,0
16599.657,31.250,33.203,30.273,28.320,-25.391,0
16599.661,11.719,32.227,32.227,16.113,-47.363,0
16599.665,19.531,30.762,26.855,32.227,14.648,0
16599.669,32.227,28.809,26.367,44.922,62.012,0
16599.672,18.066,28.809,30.273,30.273,44.922,0
16599.676,-1.953,28.320,29.785,12.207,8.789,0
16599.680,20.508,26.367,24.414,17.090,54.199,0
16599.684,50.293,28.809,24.902,36.621,63.477,0
16599.688,38.574,31.250,27.832,38.574,83.984,0
16599.692,20.996,28.809,31.738,18.066,40.039,0
16599.696,32.715,32.227,31.738,18.555,-67.383,0
16599.700,55.176,35.645,26.367,38.086,4.883,0
16599.704,53.223,36.621,28.320,41.992,14.160,0
16599.708,28.809,36.621,28.320,19.531,-0.977,0
16599.712,16.602,35.156,26.855,15.137,-0.977,0
16599.715,31.738,30.762,28.809,33.203,-26.855,0
16599.719,48.828,31.250,29.297,39.062,-8.789,0
16599.723,28.320,33.691,28.809,28.320,20.020,0
16599.727,0.488,35.156,27.832,14.160,61.523,0
16599.731,22.461,30.273,26.855,25.879,49.805,0
16599.735,43.457,24.902,27.832,40.527,72.266,0
16599.739,31.250,30.762,27.344,23.438,62.012,0
16599.743,10.742,35.645,33.203,11.719,-13.184,0
16599.747,10.254,27.832,34.668,25.391,37.109,0
16599.751,28.320,27.344,30.273,43.457,41.992,0
16599.754,30.762,28.809,29.297,36.621,-38.086,0
16599.758,21.484,27.344,28.809,12.207,-18.555,0
16599.762,17.578,30.762,28.809,9.766,38.574,0
16599.766,40.039,32.715,30.273,34.668,68.359,0
16599.770,48.828,35.645,34.668,45.410,54.688,0
16599.774,22.949,32.227,30.273,17.090,-18.066,0
16599.778,16.113,30.762,26.855,6.836,-17.578,0
16599.782,30.273,34.180,27.832,33.203,42.969,0
16599.786,35.645,37.109,27.344,49.805,66.895,0
16599.790,21.973,38.086,30.762,30.762,60.059,0
16599.794,13.184,38.574,28.809,22.949,9.766,0
16599.797,30.273,39.551,31.250,38.086,31.738,0
16599.801,47.363,37.109,37.109,39.551,45.410,0
16599.805,32.227,32.715,35.645,24.414,62.988,0
16599.809,14.160,33.203,33.203,10.254,85.938,0
16599.813,20.508,32.227,27.832,13.184,56.641,0
16599.817,36.621,32.227,24.414,29.297,83.496,0
16599.821,45.898,30.762,30.273,41.504,101.074,0
16599.825,31.738,28.809,37.598,21.484,27.832,0
16599.829,16.602,31.738,34.180,8.789,9.766,0
16599.833,32.715,35.645,31.738,25.391,28.809,0
16599.837,40.039,34.180,33.203,41.016,48.828,0
16599.840,17.578,31.250,37.109,27.344,95.215,0
16599.844,11.230,31.738,39.551,17.578,26.367,0
16599.848,34.180,33.691,39.062,38.086,-49.805,0
16599.852,49.805,32.715,38.086,44.922,3.906,0
16599.856,30.273,32.715,37.598,25.391,35.645,0
16599.860,10.742,35.156,34.668,11.230,31.738,0
16599.864,22.949,33.203,30.273,27.832,24.414,0
16599.868,50.781,29.785,31.250,51.270,-5.859,0
16599.872,41.504,28.320,33.691,42.480,-7.812,0
16599.876,11.719,30.762,36.133,20.020,44.434,0
16599.879,24.902,37.598,36.133,23.438,44.922,0
16599.883,52.246,38.086,34.668,46.875,-20.996,0
16599.887,47.852,34.668,35.156,44.434,-24.414,0
16599.891,26.367,35.156,32.715,26.855,-49.805,0
16599.895,19.531,35.645,30.273,17.578,13.672,0
16599.899,35.645,32.227,26.367,29.785,28.809,0
16599.903,42.480,31.738,26.367,46.875,-12.207,0
16599.907,23.438,34.668,27.344,29.785,22.461,0
16599.911,1.465,34.180,28.320,10.254,56.641,0
16599.915,24.414,31.738,30.273,27.344,28.320,0
16599.919,56.641,32.715,29.785,50.293,-52.246,0
16599.922,37.109,29.297,26.367,38.574,-34.180,0
16599.926,11.719,23.438,24.414,12.695,25.391,0
16599.930,21.973,25.879,25.391,16.113,35.156,0
16599.934,40.527,26.367,27.832,34.180,18.066,0
16599.938,33.203,27.344,34.180,34.180,5.859,0
16599.942,18.066,26.367,35.156,21.484,-17.578,0
16599.946,8.789,26.855,33.203,10.254,-0.977,0
16599.950,12.695,29.785,32.227,28.320,64.941,0
16599.954,17.090,27.344,30.762,38.574,90.820,0
16599.958,6.836,26.367,27.832,19.531,71.777,0
16599.962,14.160,26.855,25.879,15.137,18.066,0
16599.965,35.645,24.902,30.762,37.598,-6.348,0
16599.969,45.410,27.344,32.715,46.387,36.133,0
16599.973,37.109,34.668,29.297,17.090,50.781,0
16599.977,11.719,37.598,29.297,0.488,29.297,0
16599.981,16.602,32.227,26.367,21.973,-25.391,0
16599.985,41.504,31.250,27.344,47.363,2.930,0
16599.989,28.320,33.691,31.738,36.133,-4.395,0
16599.993,5.371,32.227,31.250,11.719,-38.086,0
16599.997,14.648,27.832,30.762,13.184,29.785,0
16600.001,29.297,25.879,29.297,34.180,29.297,0
16600.004,23.926,29.785,26.855,35.645,34.180,0
16600.008,11.719,30.762,27.344,20.020,9.766,0
16600.012,12.695,27.344,27.832,17.578,8.789,0
16600.016,39.551,28.320,27.344,42.480,38.086,0
16600.020,45.410,29.297,21.973,51.758,37.598,0
16600.024,18.555,26.367,20.020,16.602,17.090,0
16600.028,18.066,30.273,23.926,10.742,5.859,0
16600.032,39.551,32.227,25.391,36.133,43.457,0
16600.036,37.109,30.273,27.344,53.223,65.430,0
16600.040,15.137,29.297,30.762,41.016,66.895,0
16600.044,5.371,27.344,30.273,16.113,57.617,0
16600.047,28.809,28.809,26.367,27.832,45.898,0
16600.051,57.129,27.344,27.832,52.734,41.504,0
16600.055,40.039,22.461,27.832,39.551,55.176,0
16600.059,11.230,27.344,24.902,19.531,23.926,0
16600.063,20.020,34.180,20.996,23.438,-9.766,0
16600.067,47.363,35.645,21.973,44.922,33.691,0
16600.071,52.246,37.109,26.855,53.223,36.621,0
16600.075,31.250,38.086,26.855,30.762,3.906,0
16600.079,23.438,35.645,24.414,14.160,-6.836,0
16600.083,39.062,30.762,21.484,33.203,14.160,1
16600.087,47.363,30.273,23.926,57.617,47.363,0
16600.090,41.992,29.297,27.832,35.645,19.043,0
16600.094,22.949,28.809,28.320,19.043,11.719,0
16600.098,29.785,32.227,27.832,38.086,75.684,0
16600.102,54.199,34.668,26.855,52.246,74.707,0
16600.106,37.109,34.668,24.414,37.109,11.719,0
16600.110,19.531,32.715,27.832,20.996,16.113,0
16600.114,35.156,31.250,26.855,39.551,31.250,0
16600.118,47.363,33.203,26.367,54.688,27.344,0
16600.122,40.039,33.203,27.832,37.598,-12.695,0
16600.126,19.531,31.250,28.809,20.020,-4.883,0
16600.129,22.461,31.738,28.320,24.902,40.527,0
16600.133,45.410,31.250,26.367,46.875,6.836,0
16600.137,43.457,30.762,29.297,46.875,38.086,0
16600.141,19.043,34.668,28.809,20.996,0.977,0
16600.145,10.742,35.645,30.762,11.230,8.301,0
16600.149,33.691,32.715,31.250,28.320,-5.859,0
16600.153,46.387,29.297,25.879,43.945,-27.832,0
16600.157,30.273,30.762,26.367,26.855,18.066,0
16600.161,8.789,31.738,27.832,2.441,4.883,0
16600.165,21.973,28.809,27.344,16.602,40.039,0
16600.169,42.969,26.855,27.344,34.180,60.059,0
16600.172,31.738,29.785,31.250,20.508,76.172,0
16600.176,16.602,36.133,32.715,3.418,52.734,0
16600.180,24.902,34.180,29.785,9.277,27.832,0
16600.184,42.480,30.273,25.879,35.156,16.602,0
16600.188,37.109,31.250,24.902,39.551,14.648,0
16600.192,10.742,29.297,29.785,16.113,24.902,0
16600.196,4.883,28.320,34.668,14.160,-15.625,0
16600.200,26.855,31.250,33.691,34.668,11.230,0
16600.204,39.551,33.203,32.715,41.016,54.199,0
16600.208,26.855,30.273,31.738,30.762,35.645,0
16600.212,16.113,29.297,30.762,21.973,42.480,0
16600.215,36.133,28.320,34.668,39.551,30.273,0
16600.219,56.641,27.344,36.621,59.570,-9.766,0
16600.223,38.086,32.227,31.250,35.645,43.945,0
16600.227,22.949,36.133,29.785,13.184,41.504,0
16600.231,58.105,36.621,31.250,23.926,35.156,0
16600.235,74.219,37.598,27.344,46.875,45.410,0
16600.239,37.109,36.133,32.227,38.086,37.598,0
16600.243,17.578,32.715,30.762,6.836,100.098,0
16600.247,27.344,33.203,28.320,10.742,87.402,0
16600.251,33.691,30.273,34.180,28.320,33.691,0
16600.254,30.762,27.344,32.715,34.180,15.137,0
16600.258,7.812,30.273,26.367,7.324,46.387,0
16600.262,3.418,32.715,25.879,0.000,51.270,0
16600.266,36.621,31.250,25.391,30.762,25.391,0
16600.270,51.758,30.762,26.367,38.574,38.574,0
16600.274,32.715,29.785,28.320,18.066,63.477,0
16600.278,12.207,28.809,31.250,13.184,71.289,0
16600.282,24.414,27.832,30.762,29.785,59.082,0
16600.286,47.852,29.297,25.879,45.898,26.855,0
16600.290,30.273,29.297,27.344,33.203,-27.344,0
16600.294,8.789,28.809,28.320,4.883,41.016,0
16600.297,26.855,26.367,26.367,20.508,97.656,0
16600.301,50.781,27.832,26.855,49.316,58.105,0
16600.305,43.945,34.180,25.879,40.527,87.402,0
16600.309,17.090,35.156,26.855,23.926,30.762,0
16600.313,17.090,30.762,28.320,24.902,-9.277,0
16600.317,38.086,29.785,24.414,37.109,31.250,0
16600.321,34.180,32.715,24.414,41.016,41.016,0
16600.325,18.555,33.203,21.973,16.113,38.574,0
16600.329,28.809,31.250,21.973,5.371,-10.742,0
16600.333,48.340,29.297,24.414,25.879,-39.062,0
16600.337,48.828,25.391,22.461,39.551,-14.160,0
16600.340,21.973,23.438,27.832,18.555,64.941,0
16600.344,13.672,29.785,32.715,13.672,40.039,0
16600.348,37.109,33.691,30.273,35.645,-15.625,0
16600.352,41.992,32.227,26.367,41.992,-7.324,0
16600.356,21.973,30.273,26.367,27.344,-2.441,0
16600.360,8.789,29.297,30.762,12.695,23.438,0
16600.364,22.949,27.344,36.133,25.391,-12.207,0
16600.368,48.828,25.879,35.645,51.758,1.465,0
16600.372,49.805,27.832,30.762,48.340,22.461,0
16600.376,27.832,29.785,30.273,17.578,-17.090,0
16600.379,30.273,28.320,32.227,23.438,0.488,0
16600.383,52.734,27.832,34.180,53.223,52.734,0
16600.387,53.711,31.738,33.203,47.363,57.617,0
16600.391,35.156,33.691,28.809,26.855,-34.180,0
16600.395,30.762,36.133,26.367,31.250,23.438,0
16600.399,41.504,34.180,28.320,39.062,94.238,0
16600.403,39.551,33.203,29.785,45.410,69.336,0
16600.407,25.391,32.227,29.785,45.898,-8.301,0
16600.411,12.695,29.297,33.691,22.461,-7.324,0
16600.415,26.855,27.344,28.809,18.555,63.965,0
16600.419,45.898,25.879,24.902,52.246,53.223,0
16600.422,35.645,29.785,28.320,40.039,19.531,0
16600.426,20.508,32.227,32.715,11.719,-2.441,0
16600.430,26.855,24.902,28.320,20.996,-28.809,0
16600.434,42.969,25.391,25.391,38.086,23.926,0
16600.438,36.133,32.715,31.250,37.598,67.383,0
16600.442,7.812,32.715,31.738,20.996,20.020,0
16600.446,5.371,28.809,34.668,15.625,-20.508,0
16600.450,46.387,29.785,30.762,42.480,56.641,0
16600.454,52.246,33.691,29.297,49.316,93.750,0
16600.458,18.555,34.668,36.133,26.855,44.434,0
16600.462,8.789,33.691,35.645,20.508,19.043,0
16600.465,28.320,31.738,31.738,35.645,14.160,0
16600.469,41.016,32.227,31.738,58.105,-10.742,0
16600.473,17.578,31.250,29.297,41.016,19.531,0
16600.477,3.418,32.227,27.344,15.625,53.223,0
16600.481,20.996,35.156,27.344,26.367,29.297,0
16600.485,38.086,35.645,27.344,43.945,19.043,0
16600.489,34.180,35.645,29.297,33.203,36.621,0
16600.493,15.625,33.691,29.297,8.301,15.625,0
16600.497,27.344,34.180,27.344,19.531,0.488,0
16600.501,54.688,36.133,29.785,44.922,10.254,0
16600.504,40.039,37.598,31.250,46.387,7.812,0
16600.508,19.043,37.109,29.297,16.113,70.801,0
16600.512,26.855,34.180,27.344,5.371,41.992,0
16600.516,42.480,30.762,23.926,27.344,-22.461,0
16600.520,37.598,32.715,27.344,33.691,13.184,0
16600.524,8.789,37.109,31.738,14.648,34.180,0
16600.528,1.465,36.133,36.133,10.254,51.270,0
16600.532,31.738,33.203,36.621,32.227,45.410,0
16600.536,44.434,30.762,32.227,42.480,46.387,0
16600.540,28.320,31.250,34.180,16.113,35.156,0
16600.544,24.414,35.156,40.039,5.859,35.645,0
16600.547,33.691,36.133,39.551,29.297,9.766,0
16600.551,47.852,27.344,31.738,46.387,-24.414,0
16600.555,46.387,23.926,31.250,34.180,-16.113,0
16600.559,19.531,30.273,35.645,5.371,36.133,0
16600.563,20.996,32.227,34.668,9.277,32.715,0
16600.567,44.434,31.250,32.715,39.551,46.875,0
16600.571,40.527,29.785,37.109,49.805,65.918,0
16600.575,25.391,31.738,37.598,25.879,35.645,0
16600.579,30.762,35.645,38.574,19.043,22.949,0
16600.583,41.992,32.227,37.598,38.574,55.176,0
16600.587,38.086,30.762,35.645,42.480,72.266,0
16600.590,22.461,33.691,36.133,28.320,48.828,0
16600.594,16.602,30.762,32.227,16.113,49.805,0
16600.598,36.133,29.785,34.180,32.715,44.434,0
16600.602,47.852,32.227,36.133,50.781,25.879,0
16600.606,35.645,38.574,35.156,35.645,29.297,0
16600.610,26.855,39.551,38.574,8.789,64.941,0
16600.614,35.156,32.715,35.156,16.602,51.270,0
16600.618,49.316,30.762,29.297,43.945,12.695,0
16600.622,38.086,31.738,30.762,39.551,25.391,0
16600.626,19.531,34.180,32.715,17.578,26.367,0
16600.629,15.625,33.691,34.180,16.602,28.320,0
16600.633,34.668,29.785,35.156,37.598,36.621,0
16600.637,48.828,32.715,35.156,55.176,17.578,0
16600.641,29.297,34.668,33.203,33.203,21.484,0
16600.645,19.043,31.250,32.227,7.324,4.395,0
16600.649,34.668,29.785,31.738,21.973,-16.602,0
16600.653,38.574,32.715,28.320,41.016,6.348,0
16600.657,14.160,31.738,26.367,26.367,23.438,0
16600.661,2.930,29.785,30.273,11.230,71.289,0
16600.665,33.203,28.320,29.297,32.715,33.203,0
16600.669,50.781,28.809,25.879,52.734,17.090,0
16600.672,29.785,33.203,25.879,33.203,11.719,0
16600.676,15.625,30.762,28.320,14.160,-35.156,0
16600.680,34.668,24.902,31.738,23.926,-4.883,0
16600.684,54.199,31.250,30.273,51.270,47.363,0
16600.688,40.527,34.668,32.227,49.316,66.406,0
16600.692,16.113,32.227,31.250,19.531,63.477,0
16600.696,14.648,33.691,28.320,14.648,14.648,0
16600.700,34.668,34.180,31.250,36.621,25.391,0
16600.704,45.898,31.250,33.691,40.527,61.035,0
16600.708,29.297,29.785,32.715,18.555,23.438,0
16600.712,10.254,27.832,30.273,10.742,16.113,0
16600.715,16.602,25.391,28.320,25.391,40.039,0
16600.719,23.438,25.391,36.133,44.922,33.691,0
16600.723,11.719,24.902,39.551,23.438,52.246,0
16600.727,0.488,22.461,34.180,5.371,20.996,0
16600.731,17.090,24.902,35.156,25.391,6.836,0
16600.735,39.062,27.832,32.715,47.852,58.594,0
16600.739,24.902,26.367,30.273,33.691,36.621,0
16600.743,-0.977,27.344,33.203,9.277,26.367,0
16600.747,10.254,25.391,30.762,20.508,6.836,1
16600.751,40.527,22.949,26.367,41.992,-15.625,0
16600.754,30.273,25.391,26.367,33.203,35.645,0
16600.758,14.648,28.320,25.391,8.789,60.547,0
16600.762,19.043,23.438,20.996,11.230,36.621,0
16600.766,32.227,26.855,29.297,40.039,29.785,0
16600.770,41.016,31.250,38.086,54.688,38.086,0
16600.774,25.391,30.273,35.645,34.668,24.902,0
16600.778,9.277,31.250,33.691,20.508,32.227,0
16600.782,25.879,30.762,32.715,40.039,-18.555,0
16600.786,42.480,30.273,29.297,57.129,-34.668,0
16600.790,35.156,30.762,26.367,34.668,40.527,0
16600.794,18.066,32.227,26.855,16.602,34.668,0
16600.797,24.414,33.203,24.902,34.180,-30.762,0
16600.801,42.480,28.320,25.879,51.270,0.977,0
16600.805,26.855,27.344,28.809,37.598,36.621,0
16600.809,12.695,33.691,30.273,12.207,99.609,0
16600.813,19.531,33.691,30.762,13.672,76.172,0
16600.817,36.133,31.250,29.297,32.227,11.719,0
16600.821,36.133,30.762,28.809,40.527,19.531,0
16600.825,19.043,31.250,30.762,23.926,-13.672,0
16600.829,16.602,35.156,35.156,12.695,-31.250,0
16600.833,38.574,34.668,32.227,35.156,-23.438,0
16600.837,38.574,31.250,30.273,46.387,5.859,0
16600.840,21.484,30.273,31.738,21.973,49.805,0
16600.844,11.719,37.598,29.297,11.230,34.668,0
16600.848,24.414,41.016,28.320,31.250,7.324,0
16600.852,41.504,36.133,29.297,51.758,-7.324,0
16600.856,25.879,31.738,29.297,38.086,11.230,0
16600.860,9.277,33.203,28.809,15.625,51.270,0
16600.864,17.578,31.250,28.809,19.043,9.277,0
16600.868,30.273,31.250,27.344,29.785,0.488,0
16600.872,20.996,35.645,27.344,25.879,24.902,0
16600.876,7.324,35.156,32.227,10.742,8.789,0
16600.879,12.207,33.691,34.668,10.254,27.832,0
16600.883,26.855,27.832,28.320,36.621,60.059,0
16600.887,24.902,26.855,26.855,44.922,27.832,0
16600.891,11.719,31.738,31.250,20.996,-32.715,0
16600.895,16.602,35.156,30.762,6.348,-39.551,0
16600.899,41.504,36.133,28.809,29.297,3.418,0
16600.903,42.480,38.086,28.809,52.246,31.738,0
16600.907,24.414,39.551,29.297,31.250,14.648,0
16600.911,16.602,36.621,31.250,13.672,56.641,0
16600.915,26.855,31.250,29.785,33.691,39.062,0
16600.919,46.875,29.785,25.879,52.734,19.531,0
16600.922,39.062,32.227,28.320,34.668,10.742,0
16600.926,12.695,32.227,32.227,6.836,-3.418,0
16600.930,13.184,29.785,32.715,14.648,13.184,0
16600.934,24.902,30.762,30.273,41.016,25.879,0
16600.938,21.973,35.156,30.762,43.945,86.914,0
16600.942,10.742,38.086,32.227,21.973,100.586,0
16600.946,19.043,38.574,30.273,18.555,95.703,0
16600.950,43.945,35.645,26.855,40.039,83.008,0
16600.954,41.504,34.668,25.391,43.945,70.801,0
16600.958,18.066,33.203,25.879,17.090,7.812,0
16600.962,8.301,27.344,27.832,6.348,-6.348,0
16600.965,34.668,24.902,24.902,26.855,14.160,0
16600.969,51.270,30.273,27.344,45.410,-40.039,0
16600.973,29.297,33.203,31.250,27.832,9.277,0
16600.977,10.742,34.180,29.297,2.441,83.008,0
16600.981,28.320,36.621,28.320,22.949,54.688,0
16600.985,40.527,35.156,28.320,47.852,68.848,0
16600.989,26.367,34.668,31.738,35.645,44.434,0
16600.993,13.672,33.203,33.203,14.648,17.578,0
16600.997,18.555,29.297,25.391,14.648,39.062,0
16601.001,49.316,30.762,20.996,49.805,23.926,0
16601.004,56.641,28.320,23.438,55.664,29.785,0
16601.008,19.043,26.367,26.367,20.996,28.809,0
16601.012,9.766,31.738,27.344,16.113,28.809,0
16601.016,34.668,33.691,26.367,44.434,24.902,0
16601.020,37.109,32.715,30.762,52.734,36.621,0
16601.024,21.973,31.250,35.156,24.414,-16.113,0
16601.028,22.949,30.273,26.367,12.207,10.254,0
16601.032,39.551,30.273,24.414,32.227,61.523,0
16601.036,42.969,27.344,28.320,52.246,21.484,0
16601.040,27.832,27.344,28.320,39.551,9.766,0
16601.044,13.184,27.344,30.762,18.066,9.766,0
16601.047,20.996,25.391,34.180,26.855,40.039,0
16601.051,48.340,26.367,33.203,50.781,50.781,0
16601.055,33.691,29.785,27.832,39.551,56.152,0
16601.059,4.395,32.227,26.855,11.719,20.020,0
16601.063,27.344,33.203,25.879,16.113,-27.832,0
16601.067,59.082,33.691,27.344,34.668,30.273,0
16601.071,50.781,35.645,28.809,42.969,83.496,0
16601.075,21.484,36.621,27.832,28.809,67.871,0
16601.079,11.230,36.133,33.691,20.508,47.363,0
16601.083,32.715,34.668,31.738,36.133,15.137,0
16601.087,41.504,33.691,29.785,49.805,19.531,0
16601.090,32.227,35.645,32.227,34.668,19.531,0
16601.094,27.832,35.156,29.297,19.531,-27.832,0
16601.098,30.762,34.180,25.391,25.391,24.414,0
16601.102,39.551,34.180,25.391,40.039,51.758,0
16601.106,29.297,34.668,29.297,33.203,46.387,0
16601.110,9.766,34.668,28.320,16.602,31.738,0
16601.114,13.184,29.785,26.855,24.902,4.395,0
16601.118,37.598,27.832,28.320,45.898,28.320,0
16601.122,39.551,29.297,28.320,38.086,7.812,0
16601.126,20.020,32.227,31.250,16.602,19.531,0
16601.129,27.832,34.668,34.180,12.695,38.086,0
16601.133,52.734,31.250,29.297,38.086,18.555,0
16601.137,51.270,24.414,27.832,46.387,39.062,0
16601.141,13.184,24.414,32.227,15.137,5.859,0
16601.145,-14.648,28.809,32.715,4.883,23.926,0
16601.149,12.695,29.785,30.273,30.762,59.082,0
16601.153,37.598,27.344,22.949,49.316,44.434,0
16601.157,31.738,28.320,22.461,32.715,8.789,0
16601.161,19.531,31.738,27.832,16.602,-10.742,0
16601.165,25.879,30.273,29.785,24.902,35.156,0
16601.169,39.551,32.227,30.762,41.504,63.477,0
16601.172,28.809,28.320,31.738,32.715,57.129,0
16601.176,20.996,22.949,29.785,14.160,77.148,0
16601.180,30.273,28.320,28.320,14.648,41.016,0
16601.184,41.016,32.715,30.273,38.086,43.945,0
16601.188,33.691,35.156,33.691,45.898,52.734,0
16601.192,11.719,36.621,32.227,18.555,-23.926,0
16601.196,12.695,32.715,30.273,14.648,-0.488,0
16601.200,36.621,28.809,30.273,34.668,22.949,0
16601.204,36.621,31.738,30.762,38.086,42.480,0
16601.208,17.090,34.180,31.738,22.461,61.523,0
16601.212,11.719,33.691,31.738,14.160,-1.465,0
16601.215,28.320,27.832,27.832,29.785,-8.789,0
16601.219,34.668,21.973,30.762,42.969,23.926,0
16601.223,17.090,25.879,34.668,30.762,-17.578,0
16601.227,3.418,30.273,32.715,15.625,-39.062,0
16601.231,20.020,28.809,31.250,22.461,-7.324,0
16601.235,40.039,27.832,34.180,41.992,29.297,0
16601.239,32.715,25.879,40.039,33.691,62.500,0
16601.243,16.602,22.949,37.109,14.648,51.270,0
16601.247,26.367,23.926,36.133,27.832,36.621,0
16601.251,49.316,25.391,38.086,48.340,3.906,0
16601.254,39.551,28.320,33.691,39.551,42.480,0
16601.258,15.625,32.715,33.203,16.602,36.621,0
16601.262,10.742,33.203,34.668,14.160,-69.824,0
16601.266,35.156,33.203,31.738,33.203,-23.926,0
16601.270,45.898,31.738,35.156,48.828,58.594,0
16601.274,20.020,30.273,34.668,34.180,52.246,0
16601.278,13.672,30.273,32.227,16.113,-20.996,0
16601.282,30.273,23.438,29.297,27.832,-2.930,1
16601.286,38.086,22.461,25.879,44.434,30.273,0
16601.290,28.320,30.762,29.785,33.691,23.926,0
16601.294,20.020,32.227,31.250,16.113,98.145,0
16601.297,39.551,31.250,32.227,29.785,81.543,0
16601.301,57.617,34.180,31.250,52.734,-10.742,0
16601.305,43.457,34.668,27.832,34.668,37.109,0
16601.309,20.996,30.273,34.180,4.395,44.922,0
16601.313,20.020,28.320,33.203,8.789,23.438,0
16601.317,48.340,31.250,28.809,35.156,87.891,0
16601.321,42.969,33.203,29.785,47.363,98.145,0
16601.325,9.766,31.250,29.297,24.902,60.547,0
16601.329,8.789,27.344,29.297,14.648,24.414,0
16601.333,32.227,26.367,24.902,37.598,-38.574,0
16601.337,42.969,27.832,24.902,46.387,0.488,0
16601.340,25.391,25.879,28.809,33.691,29.297,0
16601.344,12.695,27.344,27.832,22.949,-14.160,0
16601.348,38.086,31.738,29.297,30.762,-8.301,0
16601.352,62.988,32.715,36.133,49.316,28.809,0
16601.356,41.992,31.250,34.180,36.133,34.668,0
16601.360,22.949,33.203,31.738,16.602,29.785,0
16601.364,28.809,29.785,31.250,27.832,38.574,0
16601.368,48.828,25.879,28.809,48.340,44.922,0
16601.372,41.504,25.391,29.785,49.805,47.363,0
16601.376,14.648,26.367,33.691,29.785,35.645,0
16601.379,21.484,27.344,33.691,24.414,12.207,0
16601.383,44.922,25.879,31.738,49.805,-2.441,0
16601.387,51.758,33.203,35.156,63.965,53.223,0
16601.391,36.621,39.062,31.738,40.039,55.176,0
16601.395,20.020,36.621,23.926,23.926,12.695,0
16601.399,33.203,32.715,24.414,33.691,4.883,0
16601.403,46.875,29.785,26.855,41.016,-12.207,0
16601.407,33.203,30.273,28.809,26.367,30.762,0
16601.411,12.695,30.762,32.227,17.090,36.621,0
16601.415,29.785,28.320,32.227,32.715,8.301,0
16601.419,60.059,25.391,32.227,59.082,63.965,0
16601.422,40.039,25.391,34.180,50.293,75.684,0
16601.426,1.465,26.367,33.203,14.160,49.316,0
16601.430,16.602,28.320,30.273,17.578,53.223,0
16601.434,41.504,28.320,28.320,44.922,46.875,0
16601.438,30.273,30.762,31.738,47.852,17.090,0
16601.442,14.160,34.668,33.691,30.273,-21.484,0
16601.446,11.719,34.180,32.715,18.066,24.414,0
16601.450,36.133,35.156,31.738,33.203,66.895,0
16601.454,47.852,34.180,30.273,44.434,30.273,0
16601.458,35.645,35.645,33.691,23.926,-11.719,0
16601.462,21.973,34.668,31.250,3.906,20.020,0
16601.465,30.762,31.250,25.879,18.066,68.848,0
16601.469,38.574,29.785,25.879,40.039,20.020,0
16601.473,21.973,28.809,22.461,23.926,40.527,0
16601.477,13.184,32.715,24.902,3.418,62.012,0
16601.481,27.344,32.715,29.297,21.484,49.316,0
16601.485,44.922,34.180,25.879,39.062,86.914,0
16601.489,29.297,32.227,26.855,30.273,46.875,0
16601.493,1.953,28.809,29.297,8.301,-16.602,0
16601.497,19.043,31.738,25.391,9.277,-17.090,0
16601.501,36.621,34.180,20.996,32.715,48.828,0
16601.504,32.715,36.133,24.902,37.109,-12.207,0
16601.508,20.020,34.668,28.320,21.484,-56.641,0
16601.512,20.020,33.691,29.297,22.461,31.250,0
16601.516,48.828,36.133,31.250,40.039,85.938,0
16601.520,52.246,37.109,26.855,47.363,20.020,0
16601.524,26.367,35.645,27.344,32.227,-9.277,0
16601.528,19.043,32.227,30.273,20.508,25.879,0
16601.532,37.598,33.691,26.367,36.621,-27.832,0
16601.536,59.082,38.086,25.391,43.945,-3.418,0
16601.540,46.875,41.016,29.297,32.227,42.969,0
16601.544,20.508,42.969,31.250,20.020,40.527,0
16601.547,26.855,41.992,28.809,28.320,36.621,0
16601.551,46.387,37.598,25.879,46.875,29.785,0
16601.555,41.016,34.180,24.902,41.992,71.289,0
16601.559,18.555,34.668,28.320,19.043,41.992,0
16601.563,24.902,36.133,27.344,19.531,-10.742,0
16601.567,53.711,32.227,26.367,45.898,3.418,0
16601.571,46.387,29.297,28.809,44.922,45.410,0
16601.575,21.973,37.598,29.785,26.367,37.109,0
16601.579,25.879,41.016,31.738,18.555,-43.457,0
16601.583,37.109,36.621,34.180,34.180,-52.734,0
16601.587,35.156,37.109,36.621,59.570,10.742,0
16601.590,16.602,39.551,36.621,40.527,57.129,0
16601.594,0.000,37.109,33.203,9.766,45.410,0
16601.598,16.602,35.156,27.832,27.832,-20.508,0
16601.602,36.621,35.645,27.832,50.781,-3.906,0
16601.606,26.367,34.180,29.297,32.227,41.992,0
16601.610,13.672,32.715,31.250,10.742,28.809,0
16601.614,32.715,34.668,32.715,18.555,28.320,0
16601.618,46.875,38.086,34.180,41.016,58.105,0
16601.622,33.691,39.062,33.691,33.691,83.496,0
16601.626,11.719,37.109,33.691,15.137,37.109,0
16601.629,12.695,36.621,34.180,24.414,26.855,0
16601.633,34.668,35.645,33.691,43.457,61.035,0
16601.637,38.086,36.621,35.645,41.016,34.180,0
16601.641,25.879,31.738,33.203,20.020,61.035,0
16601.645,17.090,26.855,32.227,11.230,47.852,0
16601.649,34.668,31.738,34.180,31.738,-24.902,0
16601.653,43.945,35.156,33.203,46.875,26.855,0
16601.657,19.043,34.668,30.762,28.809,35.645,0
16601.661,1.953,34.180,26.367,4.883,17.578,0
16601.665,25.879,31.738,22.949,13.672,25.391,0
16601.669,44.922,30.762,24.902,45.410,-0.977,0
16601.672,25.879,29.785,29.785,41.016,11.230,0
16601.676,15.137,28.320,34.668,20.996,13.184,0
16601.680,27.344,30.273,37.109,29.297,31.738,0
16601.684,48.828,31.738,33.691,52.734,47.852,0
16601.688,38.086,29.785,31.250,43.457,60.547,0
16601.692,4.883,27.832,32.227,20.508,23.438,0
16601.696,5.859,33.203,33.691,26.855,-6.836,0
16601.700,43.945,34.668,34.180,46.387,-3.906,0
16601.704,54.199,27.832,32.227,49.805,23.926,0
16601.708,21.973,26.855,32.227,30.273,26.367,0
16601.712,0.000,28.809,29.785,19.531,-4.883,0
16601.715,16.602,28.320,24.414,24.414,57.617,0
16601.719,32.227,29.785,26.367,40.527,84.473,0
16601.723,20.020,29.785,28.809,26.367,20.020,0
16601.727,5.371,31.250,27.344,14.160,19.043,0
16601.731,17.578,32.715,27.344,28.809,40.527,0
16601.735,39.062,29.785,26.367,39.062,-3.418,0
16601.739,31.250,25.879,26.855,33.691,50.293,0
16601.743,14.160,24.902,28.320,13.184,36.133,0
16601.747,19.043,26.855,29.785,9.277,-32.227,0
16601.751,31.738,26.367,27.344,31.250,2.930,0
16601.754,35.156,29.297,29.297,41.504,6.836,0
16601.758,21.484,34.180,32.227,26.855,-23.926,0
16601.762,1.953,36.133,27.344,22.949,9.277,0
16601.766,14.160,32.227,28.320,43.945,34.668,0
16601.770,35.645,30.273,32.227,50.293,29.297,0
16601.774,19.531,31.738,34.668,27.832,78.613,0
16601.778,10.742,32.715,35.645,16.602,33.203,0
16601.782,36.621,34.668,31.250,28.320,33.691,0
16601.786,52.246,35.645,28.809,39.551,56.152,0
16601.790,33.691,35.645,31.250,29.297,41.504,0
16601.794,4.395,35.645,33.691,24.902,29.297,0
16601.797,21.973,33.691,33.203,34.180,23.926,0
16601.801,50.293,32.227,33.691,43.457,20.996,0
16601.805,33.691,36.133,39.551,44.922,7.324,0
16601.809,8.301,35.645,33.691,24.902,-2.930,0
16601.813,19.531,29.297,25.391,20.996,-2.441,0
16601.817,55.176,26.855,27.344,47.363,52.734,0
16601.821,47.363,25.879,31.250,64.941,66.406,0
16601.825,15.625,25.879,34.180,33.691,16.602,0
16601.829,10.742,28.320,36.621,15.625,4.395,0
16601.833,27.832,28.320,37.109,34.668,-18.066,0
16601.837,34.180,25.879,33.203,43.945,20.508,0
16601.840,15.137,28.320,35.645,25.391,19.043,0
16601.844,-2.441,33.203,38.086,18.555,16.602,0
16601.848,11.230,33.203,33.203,36.621,39.551,0
16601.852,37.109,29.785,30.762,41.016,15.625,0
16601.856,28.809,31.250,32.715,26.855,-1.465,0
16601.860,14.648,33.203,32.227,15.137,30.273,0
16601.864,16.602,34.668,28.320,23.926,20.996,0
16601.868,28.320,32.227,25.879,46.387,-5.859,0
16601.872,33.691,26.855,33.203,42.969,1.953,0
16601.876,9.766,33.203,39.062,16.602,-22.461,0
16601.879,6.348,37.598,33.691,11.719,10.742,0
16601.883,37.598,32.227,29.785,41.992,75.684,0
16601.887,40.527,28.809,28.809,56.641,69.824,0
16601.891,20.996,26.367,31.250,29.297,77.148,0
16601.895,7.812,26.367,35.645,12.695,19.043,1
16601.899,27.344,27.832,33.691,23.438,-44.434,0
16601.903,45.410,30.273,36.621,43.945,20.020,0
16601.907,27.832,30.273,42.480,39.551,66.406,0
16601.911,16.602,31.738,42.480,17.090,52.246,0
16601.915,27.344,34.180,37.109,21.484,30.762,0
16601.919,39.551,32.227,33.691,48.828,83.008,0
16601.922,25.391,31.738,31.250,46.875,21.484,0
16601.926,7.812,31.250,32.715,20.996,-51.758,0
16601.930,23.438,29.785,37.109,27.832,50.781,0
16601.934,44.434,29.297,40.039,55.176,90.332,0
16601.938,33.691,31.250,36.621,49.805,24.902,0
16601.942,9.277,36.133,32.227,24.414,-11.230,0
16601.946,18.555,39.062,32.227,20.020,9.277,0
16601.950,40.039,35.156,29.297,36.133,63.965,0
16601.954,43.457,33.691,31.250,49.316,33.691,0
16601.958,24.902,32.715,35.156,30.273,-5.371,0
16601.962,9.277,32.715,34.668,8.789,24.902,0
16601.965,27.832,34.668,32.227,23.438,18.066,0
16601.969,43.457,34.668,34.180,41.992,40.527,0
16601.973,25.879,31.250,32.715,35.156,10.742,0
16601.977,7.324,26.855,25.879,20.508,-18.066,0
16601.981,35.645,39.062,29.785,38.086,-0.977,0
16601.985,68.848,46.875,32.715,58.105,21.484,0
16601.989,48.828,36.133,27.344,37.109,70.801,0
16601.993,11.230,32.715,30.762,7.324,69.824,0
16601.997,3.906,30.762,30.273,13.672,43.945,0
16602.001,29.785,30.273,26.855,43.945,34.668,0
16602.004,31.738,29.785,34.180,43.457,82.520,0
16602.008,14.648,27.832,34.180,21.484,103.516,0
16602.012,12.695,29.297,28.809,12.695,0.488,0
16602.016,24.902,30.273,29.297,29.297,0.488,0
16602.020,31.250,34.180,31.738,46.387,73.730,0
16602.024,15.137,32.227,35.645,36.621,6.836,0
16602.028,-7.812,27.832,31.250,16.602,-57.129,0
16602.032,3.906,25.879,23.926,24.902,15.137,0
16602.036,28.320,24.902,27.344,41.992,74.219,0
16602.040,17.578,26.855,29.785,25.879,41.016,0
16602.044,5.371,30.273,26.367,13.672,30.273,0
16602.047,26.367,30.762,27.832,24.414,9.766,0
16602.051,36.621,28.320,32.227,31.250,3.906,0
16602.055,26.367,26.367,32.715,18.066,16.113,0
16602.059,21.973,31.250,32.227,4.883,59.082,0
16602.063,24.414,34.180,28.809,11.719,28.320,0
16602.067,32.227,32.227,25.879,32.715,62.012,0
16602.071,37.109,31.250,28.809,36.621,88.379,0
16602.075,17.578,28.809,29.785,19.043,53.223,0
16602.079,0.977,27.832,26.855,6.348,38.574,0
16602.083,15.137,27.344,25.879,21.484,44.922,0
16602.087,17.578,26.855,30.273,45.410,30.762,0
16602.090,-5.859,27.344,30.762,20.508,8.789,0
16602.094,-5.371,29.297,29.785,3.906,25.391,0
16602.098,19.531,27.344,32.227,30.273,29.785,0
16602.102,28.809,25.391,30.273,42.969,68.848,0
16602.106,15.137,34.668,26.855,28.320,15.625,0
16602.110,-3.418,39.551,29.785,17.578,-7.324,0
16602.114,7.324,36.133,32.227,23.438,54.688,0
16602.118,40.527,37.598,30.273,41.016,11.230,0
16602.122,32.715,38.574,29.785,38.574,11.719,0
16602.126,-7.324,36.133,31.738,12.695,20.020,0
16602.129,-9.277,36.133,29.297,9.766,45.410,0
16602.133,21.973,38.574,27.344,35.645,70.801,0
16602.137,27.832,36.133,30.273,45.898,71.289,0
16602.141,11.719,30.273,33.203,26.855,70.801,0
16602.145,5.371,31.738,37.598,20.508,59.082,0
16602.149,32.715,37.598,37.109,29.785,10.742,0
16602.153,22.461,34.668,32.227,32.227,-43.945,0
16602.157,-17.578,29.297,29.297,17.090,4.395,0
16602.161,-24.902,28.320,30.762,7.812,9.277,0
16602.165,-9.277,27.344,28.809,14.160,9.766,0
16602.169,22.461,29.297,31.738,39.062,44.434,0
16602.172,9.277,29.297,36.621,42.969,37.109,0
16602.176,-17.578,29.785,36.621,29.297,-15.625,0
16602.180,-3.906,28.809,35.645,34.668,-14.648,0
16602.184,23.926,25.391,33.691,45.898,-4.883,0
16602.188,25.391,30.273,33.691,44.434,14.648,0
16602.192,-1.953,33.203,30.762,20.508,41.016,0
16602.196,-5.859,31.250,30.762,5.859,6.348,0
16602.200,25.391,33.691,32.715,28.809,47.852,0
16602.204,37.109,33.203,33.691,40.039,98.633,0
16602.208,1.953,31.738,34.180,18.555,76.660,0
16602.212,-9.277,35.156,33.691,6.348,5.859,0
16602.215,24.414,36.133,32.227,37.598,-19.043,0
16602.219,29.785,35.156,34.180,61.035,54.199,0
16602.223,12.695,32.715,35.645,34.668,43.457,0
16602.227,2.930,31.738,37.598,18.555,-5.371,0
16602.231,9.766,32.227,36.621,29.785,23.438,0
16602.235,27.344,28.809,35.156,51.758,63.965,0
16602.239,20.020,26.855,35.156,44.434,85.938,0
16602.243,-5.859,27.832,34.668,22.461,43.457,0
16602.247,-2.930,26.855,36.621,24.414,-2.441,0
16602.251,26.855,28.809,38.574,42.969,41.504,0
16602.254,34.180,26.855,32.715,46.875,35.156,0
16602.258,8.789,26.367,29.297,23.926,0.977,0
16602.262,0.000,32.227,33.203,13.672,19.531,0
16602.266,32.227,33.203,33.203,36.621,62.988,0
16602.270,44.434,32.715,34.668,44.434,95.703,0
16602.274,22.949,27.832,34.180,28.809,98.633,0
16602.278,5.371,28.320,27.832,11.230,15.625,0
16602.282,7.812,31.250,25.391,20.996,-4.883,0
16602.286,24.414,29.785,26.367,48.828,69.824,0
16602.290,13.672,28.809,29.297,37.598,39.062,0
16602.294,-7.812,27.832,30.762,6.348,-3.418,0
16602.297,-0.488,24.414,27.344,5.859,23.926,0
16602.301,18.555,24.414,23.438,34.180,44.922,0
16602.305,12.695,28.320,27.832,41.016,52.246,0
16602.309,-6.348,28.809,34.180,11.230,27.832,0
16602.313,4.395,29.785,30.273,4.883,-47.363,0
16602.317,38.574,29.785,24.902,31.738,-23.438,0
16602.321,35.645,26.855,28.320,33.203,28.320,0
16602.325,8.301,24.902,31.738,14.648,29.785,0
16602.329,4.883,28.809,31.738,4.395,38.574,0
16602.333,27.344,30.273,29.785,20.996,65.430,0
16602.337,39.551,30.762,30.762,45.898,59.570,0
16602.340,20.020,33.203,33.203,40.039,89.355,0
16602.344,-0.488,34.180,34.668,24.902,32.715,0
16602.348,9.277,33.203,36.621,23.438,-30.762,0
16602.352,22.461,30.762,35.156,37.109,31.738,0
16602.356,8.789,30.273,32.715,33.691,46.875,0
16602.360,0.488,30.762,31.250,14.648,7.812,0
16602.364,17.578,30.273,29.297,22.949,-42.969,0
16602.368,31.738,28.320,30.273,43.457,0.000,0
16602.372,33.691,29.785,29.785,42.480,20.020,0
16602.376,21.973,31.738,32.227,21.484,-34.668,0
16602.379,6.348,33.203,36.621,27.344,-11.719,0
16602.383,20.996,34.180,37.598,50.293,54.688,0
16602.387,30.273,30.762,35.645,41.016,32.715,0
16602.391,8.301,32.227,33.691,14.160,-7.324,0
16602.395,1.953,30.762,33.203,8.301,30.273,0
16602.399,22.461,26.367,34.668,27.344,27.832,0
16602.403,32.227,27.832,37.598,47.363,-1.465,0
16602.407,22.949,26.855,35.156,39.062,14.648,0
16602.411,8.789,25.879,32.227,16.113,1.465,0
16602.415,23.438,30.273,29.785,17.578,33.691,0
16602.419,46.387,34.668,30.273,31.738,42.480,0
16602.422,32.227,34.180,33.691,29.785,-19.531,0
16602.426,6.348,33.203,35.645,15.137,-36.621,0
16602.430,21.484,31.250,34.668,11.230,-35.645,0
16602.434,43.457,30.273,31.250,27.832,-22.949,0
16602.438,29.785,30.762,28.320,39.551,35.156,0
16602.442,6.836,27.832,32.715,24.414,44.922,0
16602.446,12.207,29.785,37.598,20.996,10.742,0
16602.450,48.828,33.203,34.668,43.457,32.227,1
16602.454,58.105,32.227,31.250,50.293,-2.441,0
16602.458,24.414,34.180,30.273,30.273,-19.043,0
16602.462,7.324,36.133,29.785,12.207,-21.484,0
16602.465,29.297,31.250,25.879,25.391,8.789,0
16602.469,41.504,30.273,28.320,44.922,88.867,0
16602.473,17.578,30.762,33.203,31.250,50.781,0
16602.477,1.465,29.297,30.762,9.277,-4.883,0
16602.481,14.648,28.809,24.414,20.020,28.809,0
16602.485,40.039,31.738,23.926,47.852,84.961,0
16602.489,43.945,34.668,27.832,46.387,91.797,0
16602.493,20.020,30.273,24.902,16.602,5.859,0
16602.497,11.719,27.344,24.902,17.578,-8.789,0
16602.501,40.039,32.227,30.762,45.410,1.465,0
16602.504,48.340,35.645,32.715,53.223,29.785,0
16602.508,29.297,34.668,32.227,24.902,57.129,0
16602.512,23.926,35.156,31.250,11.719,29.785,0
16602.516,43.945,36.133,28.320,40.039,60.547,0
16602.520,44.434,36.621,27.344,52.734,78.613,0
16602.524,12.695,37.598,30.762,32.715,78.613,0
16602.528,10.742,42.969,34.668,23.926,47.363,0
16602.532,34.180,41.016,36.133,43.457,-7.324,0
16602.536,44.434,35.156,35.156,54.688,28.809,0
16602.540,35.156,35.156,34.180,41.992,5.859,0
16602.544,21.484,39.062,35.156,25.391,8.301,0
16602.547,28.809,40.527,37.109,25.879,66.406,0
16602.551,47.852,33.691,32.715,42.480,61.035,0
16602.555,47.363,35.645,30.273,38.574,29.297,0
16602.559,19.531,41.016,32.227,18.555,13.672,0
16602.563,17.578,39.551,34.180,19.043,-15.625,0
16602.567,48.828,39.551,35.645,40.527,34.668,0
16602.571,46.387,37.598,32.715,45.898,57.617,0
16602.575,13.184,30.273,27.832,16.602,20.996,0
16602.579,2.930,29.297,28.809,4.395,47.363,0
16602.583,26.367,32.227,29.297,21.973,41.504,0
16602.587,36.621,32.227,33.203,38.086,28.320,0
16602.590,13.184,33.203,36.133,27.832,68.359,0
16602.594,0.000,35.645,30.762,12.695,75.684,0
16602.598,32.715,34.668,28.809,17.578,57.129,0
16602.602,56.152,31.250,31.738,35.156,30.762,0
16602.606,25.879,33.691,33.203,41.016,-14.648,0
16602.610,1.465,35.156,33.691,29.785,7.324,0
16602.614,9.766,32.227,31.250,22.949,16.113,0
16602.618,28.320,29.785,30.273,42.480,72.266,0
16602.622,25.391,26.367,32.715,46.875,67.871,0
16602.626,10.254,27.832,32.715,21.973,40.039,0
16602.629,19.531,32.715,35.645,18.066,44.434,0
16602.633,31.738,34.180,31.738,39.551,0.000,0
16602.637,21.973,31.250,28.320,49.805,-9.766,0
16602.641,8.789,33.691,29.785,23.926,-8.789,0
16602.645,7.324,35.645,31.250,16.113,27.832,0
16602.649,37.109,34.668,33.203,41.016,37.109,0
16602.653,42.480,34.180,33.691,50.781,22.949,0
16602.657,2.930,30.273,34.180,34.180,84.961,0
16602.661,-13.184,30.762,33.203,22.461,62.012,0
16602.665,2.930,32.227,33.203,34.668,40.527,0
16602.669,22.461,32.227,31.738,54.688,55.176,0
16602.672,11.719,35.645,28.320,45.410,14.648,0
16602.676,-10.254,34.668,26.855,17.090,20.020,0
16602.680,-1.465,35.156,31.250,19.043,-22.461,0
16602.684,26.855,39.062,28.809,42.969,-29.785,0
16602.688,30.273,37.109,25.879,48.828,13.672,0
16602.692,3.418,35.645,28.320,31.250,-0.977,0
16602.696,-1.465,35.156,29.785,29.297,39.551,0
16602.700,27.344,32.227,24.414,49.316,12.207,0
16602.704,34.180,32.715,25.391,55.664,19.043,0
16602.708,7.324,30.762,30.762,40.527,-5.859,0
16602.712,-6.348,27.344,29.297,39.062,-45.898,0
16602.715,15.625,29.785,26.367,41.992,54.199,0
16602.719,34.180,34.180,26.855,49.805,81.055,0
16602.723,20.020,36.133,27.832,41.992,56.641,0
16602.727,3.418,34.668,27.344,27.832,75.684,0
16602.731,14.648,34.180,24.414,35.645,73.730,0
16602.735,27.832,30.762,24.902,54.688,52.246,0
16602.739,20.508,27.832,28.320,48.828,46.875,0
16602.743,-2.930,30.762,28.320,20.508,49.316,0
16602.747,-5.371,28.809,24.414,18.066,62.500,0
16602.751,22.949,28.320,29.785,38.574,76.172,0
16602.754,18.066,34.180,32.715,38.086,43.945,0
16602.758,-20.020,32.715,27.832,13.184,21.484,0
16602.762,-21.484,31.250,30.762,11.719,-18.555,0
16602.766,12.695,29.785,30.273,39.551,2.930,0
16602.770,24.902,28.320,28.320,51.758,55.176,0
16602.774,10.742,30.762,27.832,18.066,-7.324,0
16602.778,-4.883,31.738,29.785,5.371,-0.977,0
16602.782,1.465,30.762,34.668,21.484,42.969,0
16602.786,23.438,29.785,33.203,41.504,32.227,0
16602.790,20.020,28.320,33.203,34.668,46.875,0
16602.794,0.977,28.809,36.133,18.066,53.711,0
16602.797,8.301,30.273,36.621,29.297,23.438,0
16602.801,31.738,31.738,35.645,50.781,1.953,0
16602.805,23.438,32.227,35.156,38.086,19.043,0
16602.809,4.395,32.227,36.133,7.812,8.789,0
16602.813,8.301,28.809,32.227,11.230,-17.090,0
16602.817,25.391,24.414,26.367,40.527,47.363,0
16602.821,20.996,25.391,28.809,47.852,54.688,0
16602.825,0.000,29.785,31.738,22.461,4.883,0
16602.829,0.000,34.180,33.691,10.742,-1.953,0
16602.833,23.926,31.250,31.250,29.785,26.855,0
16602.837,33.203,26.855,29.785,43.457,62.500,0
16602.840,9.277,22.461,32.715,21.484,41.992,0
16602.844,-3.906,24.902,35.156,5.371,-31.250,0
16602.848,15.625,30.762,32.715,20.996,-17.578,0
16602.852,23.926,28.809,28.809,39.062,20.020,0
16602.856,-0.977,27.344,29.785,27.832,-18.066,0
16602.860,-11.230,32.715,29.785,2.441,-12.695,0
16602.864,10.742,32.227,28.809,10.742,13.672,0
16602.868,36.133,30.273,31.738,42.969,39.551,0
16602.872,36.133,29.297,32.715,43.945,55.664,0
16602.876,4.395,25.879,27.344,10.254,36.133,0
16602.879,-1.465,24.902,24.902,-2.441,-1.465,0
16602.883,28.320,25.391,27.344,25.879,63.965,0
16602.887,29.297,31.738,30.762,39.551,82.520,0
16602.891,8.789,35.156,31.738,16.113,9.766,0
16602.895,1.953,33.691,31.250,14.160,-37.109,0
16602.899,21.973,31.250,26.367,35.156,48.828,0
16602.903,43.945,31.738,28.320,46.875,93.262,0
16602.907,25.391,34.668,32.227,32.227,1.465,0
16602.911,-5.371,35.156,33.203,9.277,28.809,0
16602.915,8.789,35.156,29.785,16.113,17.578,0
16602.919,30.762,34.180,26.855,37.598,17.090,0
16602.922,18.066,27.832,26.367,32.227,15.625,0
16602.926,0.977,27.344,24.902,11.719,-28.809,0
16602.930,2.441,34.180,24.414,19.043,7.324,0
16602.934,18.555,31.738,23.926,43.945,61.035,0
16602.938,22.949,27.344,25.879,45.898,75.684,0
16602.942,9.277,30.273,29.785,20.996,66.406,0
16602.946,1.953,33.691,27.344,12.207,-7.324,0
16602.950,15.625,33.203,24.902,32.715,39.551,0
16602.954,27.344,33.691,30.273,47.852,14.160,0
16602.958,7.324,36.133,31.250,32.227,-1.953,0
16602.962,-5.371,35.645,30.762,17.578,34.180,0
16602.965,20.508,30.762,26.855,35.645,19.043,0
16602.969,33.691,30.273,24.414,55.664,46.875,0
16602.973,12.695,28.320,31.250,33.691,36.133,0
16602.977,-6.348,25.879,33.203,-1.465,60.059,0
16602.981,1.465,29.785,25.879,12.695,51.758,0
16602.985,15.137,32.227,26.855,38.574,-0.977,1
16602.989,16.113,33.203,35.645,35.645,37.598,0
16602.993,-5.371,33.691,31.738,16.113,22.461,0
16602.997,-14.648,30.762,34.180,18.066,0.977,0
16603.001,9.277,27.832,35.645,42.480,37.109,0
16603.004,13.184,26.367,21.484,38.086,72.754,0
16603.008,-1.953,29.785,25.879,15.625,87.891,0
16603.012,-1.465,33.203,37.109,12.207,65.918,0
16603.016,21.973,26.367,34.180,34.180,-1.953,0
16603.020,32.227,21.484,29.297,52.246,-24.414,0
16603.024,13.184,26.367,31.250,31.738,-57.129,0
16603.028,3.418,31.250,36.621,13.184,-24.902,0
16603.032,16.602,33.203,38.086,31.738,35.645,0
16603.036,26.367,31.250,33.203,38.574,50.781,0
16603.040,17.578,30.762,34.180,22.949,115.723,0
16603.044,1.953,29.297,36.621,8.789,13.184,0
16603.047,22.949,28.320,31.738,22.461,-33.691,0
16603.051,54.199,29.297,30.273,56.152,9.277,0
16603.055,34.180,29.297,24.902,46.875,-8.789,0
16603.059,-1.953,27.832,26.367,9.277,21.484,0
16603.063,0.977,23.438,27.344,9.277,47.852,0
16603.067,24.414,25.391,23.438,31.250,77.637,0
16603.071,20.996,30.273,27.832,30.762,20.020,0
16603.075,-5.371,30.762,29.785,20.996,-20.996,0
16603.079,-11.719,29.297,28.320,21.484,22.461,0
16603.083,14.648,29.297,26.367,38.574,41.992,0
16603.087,33.203,28.809,26.367,48.340,47.363,0
16603.090,14.648,26.855,30.273,30.762,35.645,0
16603.094,-0.977,27.832,31.738,25.879,15.137,0
16603.098,19.043,27.344,30.762,43.945,49.316,0
16603.102,33.203,28.809,30.762,47.363,88.379,0
16603.106,27.344,30.762,32.715,35.645,26.367,0
16603.110,8.789,32.227,28.809,18.066,-16.602,0
16603.114,4.395,30.273,23.926,21.484,21.973,0
16603.118,23.438,27.344,28.320,45.410,43.457,0
16603.122,21.484,29.785,32.715,49.316,9.766,0
16603.126,-2.930,31.250,38.574,25.391,1.953,0
16603.129,4.395,29.297,37.109,25.879,30.273,0
16603.133,20.996,25.879,29.785,46.387,21.484,0
16603.137,17.578,28.320,29.297,40.527,-5.859,0
16603.141,9.277,31.250,29.785,19.531,4.883,0
16603.145,9.766,30.273,27.832,15.625,33.203,0
16603.149,35.156,32.715,27.832,38.086,44.434,0
16603.153,41.992,34.180,28.320,46.387,24.902,0
16603.157,20.996,32.227,27.832,28.809,38.574,0
16603.161,9.766,34.180,25.391,17.090,57.129,0
16603.165,24.414,34.668,26.367,24.414,8.789,0
16603.169,55.664,35.156,28.809,42.480,-9.277,0
16603.172,48.828,36.621,33.691,39.551,13.184,0
16603.176,7.812,34.668,33.691,15.137,10.742,0
16603.180,-1.953,35.645,30.762,20.508,3.906,0
16603.184,23.438,34.180,30.273,48.340,23.926,0
16603.188,26.367,30.762,32.715,41.992,21.484,0
16603.192,-4.395,32.227,34.180,13.184,-13.184,0
16603.196,-11.230,35.156,32.227,17.090,5.859,0
16603.200,13.672,33.203,32.227,41.504,42.969,0
16603.204,16.602,31.250,31.250,41.504,51.758,0
16603.208,-1.953,34.668,34.180,24.414,83.984,0
16603.212,-16.113,37.109,37.109,15.625,22.949,0
16603.215,4.395,36.621,36.621,29.297,36.133,0
16603.219,24.414,34.668,36.621,51.270,58.105,0
16603.223,12.695,34.180,35.645,40.527,-5.371,0
16603.227,4.883,32.715,36.133,26.367,-18.066,0
16603.231,10.742,31.738,35.645,33.203,22.461,0
16603.235,25.879,34.180,33.691,45.898,53.223,0
16603.239,21.484,33.691,30.762,40.039,38.086,0
16603.243,-7.812,29.785,29.785,18.555,30.762,0
16603.247,-6.836,30.762,30.762,20.020,30.762,0
16603.251,23.438,36.133,30.273,44.434,50.781,0
16603.254,25.879,35.645,34.180,51.270,29.297,0
16603.258,12.695,36.621,36.621,37.598,1.953,0
16603.262,5.371,36.621,32.227,22.949,32.227,0
16603.266,7.324,32.227,29.785,31.250,16.602,0
16603.270,18.066,33.691,30.762,55.176,62.012,0
16603.274,14.648,36.133,32.715,41.016,78.613,0
16603.278,0.488,34.668,34.180,20.508,3.418,0
16603.282,4.883,34.180,32.715,26.855,-58.594,0
16603.286,15.137,28.809,31.738,50.781,36.133,0
16603.290,4.883,27.344,33.691,39.551,125.977,0
16603.294,-17.090,33.691,37.109,7.812,70.801,0
16603.297,-10.742,37.109,34.668,24.902,49.316,0
16603.301,11.719,33.691,26.855,49.316,14.160,0
16603.305,11.719,28.809,28.809,41.504,-36.133,0
16603.309,-4.883,28.809,31.250,14.160,22.461,0
16603.313,-4.883,33.691,32.715,18.555,24.414,0
16603.317,13.184,34.180,32.227,50.293,-78.125,0
16603.321,17.090,32.227,29.785,50.781,-48.828,0
16603.325,1.953,32.715,29.297,20.020,20.996,0
16603.329,-14.648,30.273,29.785,10.254,38.574,0
16603.333,6.348,28.809,32.227,36.133,19.531,0
16603.337,27.832,30.273,33.203,58.594,7.324,0
16603.340,8.301,32.227,30.273,38.086,51.758,0
16603.344,-1.465,32.715,28.320,11.719,25.879,0
16603.348,20.508,31.738,27.344,26.367,2.930,0
16603.352,34.180,32.715,26.855,55.664,37.109,0
16603.356,19.531,34.180,25.879,42.969,56.641,0
16603.360,-2.441,30.762,28.320,7.324,36.621,0
16603.364,3.906,27.344,26.855,13.672,10.742,0
16603.368,33.203,29.297,22.949,44.434,38.574,0
16603.372,34.668,28.320,25.879,44.434,25.879,0
16603.376,1.953,28.320,29.297,13.184,-6.348,0
16603.379,-16.113,29.785,31.738,5.371,26.367,0
16603.383,8.301,30.273,34.668,33.691,86.426,0
16603.387,17.090,30.273,35.156,41.016,53.223,0
16603.391,0.488,28.809,31.250,21.973,-1.465,0
16603.395,-11.719,27.344,30.273,13.672,1.465,0
16603.399,11.230,27.832,28.809,25.391,7.324,0
16603.403,40.527,26.855,27.344,42.480,28.809,0
16603.407,22.461,27.832,29.297,29.785,34.180,0
16603.411,0.977,32.715,31.250,9.766,49.805,0
16603.415,16.602,34.180,30.762,18.555,24.414,0
16603.419,39.062,31.738,28.320,45.898,-19.531,0
16603.422,35.156,28.809,26.855,42.480,39.551,0
16603.426,15.137,28.809,28.809,12.207,56.641,0
16603.430,13.184,29.297,29.785,18.555,36.621,0
16603.434,38.574,31.738,27.344,43.457,22.461,0
16603.438,33.203,32.715,28.809,43.457,1.953,0
16603.442,12.695,30.762,29.785,13.672,-18.066,0
16603.446,17.090,31.738,30.273,1.953,-16.602,0
16603.450,33.691,28.320,29.297,27.832,0.488,0
16603.454,32.227,27.344,30.273,42.969,53.223,0
16603.458,13.672,32.715,30.762,29.297,25.391,0
16603.462,4.883,31.738,27.832,17.090,23.926,0
16603.465,20.996,28.320,28.809,30.762,60.547,0
16603.469,40.039,27.832,33.691,47.852,4.883,0
16603.473,23.926,25.879,35.156,28.809,47.363,0
16603.477,11.719,26.855,35.645,8.789,32.715,0
16603.481,37.109,30.762,32.227,19.531,9.277,0
16603.485,60.547,26.855,27.832,41.992,79.102,0
16603.489,44.434,24.414,25.879,45.898,54.199,0
16603.493,2.930,24.902,25.879,15.137,35.645,0
16603.497,2.930,22.949,28.809,9.277,-5.371,0
16603.501,34.668,21.973,26.855,38.574,-23.438,0
16603.504,41.992,21.973,23.926,42.969,5.371,0
16603.508,27.832,26.367,27.344,16.113,11.719,0
16603.512,25.391,31.738,26.367,5.371,-11.230,0
16603.516,45.898,28.809,25.879,33.203,-24.414,0
16603.520,50.293,27.832,30.762,53.223,-8.789,0
16603.524,23.438,29.785,30.762,29.297,-2.930,0
16603.528,7.812,30.762,28.320,14.648,20.020,0
16603.532,29.785,29.785,27.344,34.668,52.734,0
16603.536,45.898,28.320,31.250,47.363,39.062,0
16603.540,31.250,27.832,31.250,27.832,-10.254,0
16603.544,14.160,27.344,28.809,8.789,12.695,0
16603.547,24.414,27.344,29.785,26.367,62.500,0
16603.551,47.363,27.832,28.809,43.457,50.781,0
16603.555,49.316,28.809,25.879,37.109,14.648,0
16603.559,26.367,27.832,23.438,19.531,11.230,0
16603.563,16.113,26.855,25.391,16.602,21.973,0
16603.567,34.180,27.832,27.344,34.180,36.133,0
16603.571,36.621,26.367,27.832,40.039,0.977,0
16603.575,14.160,26.367,26.855,23.438,2.441,0
16603.579,5.371,27.344,25.879,0.488,24.902,0
16603.583,37.109,24.414,27.344,20.020,21.484,0
16603.587,53.223,22.949,27.344,47.363,47.852,0
16603.590,32.227,23.438,24.902,31.738,70.312,0
16603.594,15.625,23.438,24.414,9.277,9.766,0
16603.598,17.578,22.461,27.344,23.926,1.953,0
16603.602,31.738,21.484,31.738,51.758,21.973,0
16603.606,33.691,22.461,31.250,41.016,42.969,0
16603.610,24.414,26.855,29.297,21.484,36.133,0
16603.614,23.438,26.855,27.832,27.832,-16.113,0
16603.618,39.551,24.414,27.344,31.738,72.754,0
16603.622,44.922,23.438,28.320,24.414,89.844,0
16603.626,20.508,20.508,29.297,12.695,4.395,0
16603.629,17.578,26.367,28.320,19.531,61.523,0
16603.633,52.246,34.668,29.297,45.410,48.828,0
16603.637,64.453,29.785,30.273,55.176,-0.977,0
16603.641,44.434,27.832,27.344,36.621,50.293,1
16603.645,20.508,28.320,25.879,21.484,65.918,0
16603.649,34.180,25.879,28.809,38.574,2.930,0
16603.653,53.711,26.855,29.785,51.270,22.949,0
16603.657,41.504,25.879,28.320,34.180,64.941,0
16603.661,29.785,23.438,30.273,18.066,-0.488,0
16603.665,39.062,24.414,32.227,33.691,-3.906,0
16603.669,54.688,27.344,33.203,52.246,1.465,0
16603.672,53.223,26.367,32.715,40.527,85.449,0
16603.676,40.039,26.367,32.227,27.344,104.492,0
16603.680,33.691,26.367,29.785,25.391,27.832,0
16603.684,49.805,26.367,27.344,42.969,85.938,0
16603.688,55.176,31.250,31.250,53.711,106.934,0
16603.692,31.738,31.738,35.156,28.320,23.438,0
16603.696,20.996,28.320,35.156,21.973,-6.348,0
16603.700,42.480,25.391,36.133,40.527,24.414,0
16603.704,55.176,22.461,35.645,49.316,84.473,0
16603.708,42.969,30.762,35.645,33.203,74.219,0
16603.712,26.855,37.109,35.156,18.555,20.020,0
16603.715,37.109,32.227,33.203,32.227,56.641,0
16603.719,60.547,29.297,30.762,58.594,126.465,0
16603.723,45.898,29.785,29.297,42.480,62.012,0
16603.727,24.902,30.273,29.785,4.395,32.715,0
16603.731,41.992,30.762,29.297,8.301,45.410,0
16603.735,64.941,28.809,31.250,36.621,25.391,0
16603.739,54.199,28.320,30.762,35.645,74.707,0
16603.743,32.227,30.762,31.250,18.555,51.270,0
16603.747,35.156,28.320,32.715,20.020,41.504,0
16603.751,58.594,29.785,32.715,38.574,63.477,0
16603.754,59.082,30.762,34.668,49.805,21.484,0
16603.758,32.715,29.297,33.691,28.320,-7.324,0
16603.762,29.785,29.297,31.250,20.020,-18.066,0
16603.766,47.363,25.879,33.203,42.969,3.906,0
16603.770,49.805,22.949,32.227,46.387,9.766,0
16603.774,41.016,25.879,29.297,26.367,47.852,0
16603.778,30.273,27.344,31.250,11.719,60.547,0
16603.782,38.574,26.855,34.180,23.438,27.344,0
16603.786,54.688,22.949,34.668,48.340,10.254,0
16603.790,48.340,20.020,35.156,49.805,26.855,0
16603.794,32.715,25.879,33.691,16.113,38.086,0
16603.797,45.410,30.762,25.879,5.859,31.738,0
16603.801,69.824,31.250,26.367,37.109,51.270,0
16603.805,59.570,28.809,30.273,38.574,27.344,0
16603.809,27.344,28.809,30.762,19.043,25.391,0
16603.813,20.508,29.297,32.227,16.602,25.879,0
16603.817,45.898,26.367,28.320,35.645,-1.953,0
16603.821,55.664,23.926,26.855,46.875,-17.578,0
16603.825,35.645,25.391,30.273,31.738,45.898,0
16603.829,30.273,30.273,34.180,19.531,73.730,0
16603.833,51.270,27.832,35.156,22.949,40.039,0
16603.837,60.547,23.926,33.203,34.180,41.504,0
16603.840,39.551,23.438,33.691,21.973,33.691,0
16603.844,27.344,23.438,33.203,3.418,20.508,0
16603.848,46.387,26.367,31.738,13.184,1.465,0
16603.852,70.801,26.367,31.250,26.367,50.781,0
16603.856,57.617,25.391,31.250,24.414,57.129,0
16603.860,28.809,27.832,30.273,10.254,-46.387,0
16603.864,39.062,25.879,25.391,1.953,-16.113,0
16603.868,63.477,21.484,27.832,20.996,51.758,0
16603.872,53.223,26.855,34.180,32.715,33.203,0
16603.876,36.133,32.227,34.668,26.367,17.578,0
16603.879,28.809,29.785,31.738,21.484,25.391,0
16603.883,53.711,26.855,29.785,24.414,49.805,0
16603.887,66.895,27.832,31.250,39.062,79.102,0
16603.891,37.598,26.367,31.250,19.531,8.301,0
16603.895,21.484,22.949,29.297,0.977,-27.344,0
16603.899,45.898,23.438,27.344,22.949,-10.254,0
16603.903,62.500,25.391,29.297,35.156,-36.621,0
16603.907,45.410,24.414,34.180,20.020,30.273,0
16603.911,27.344,23.926,38.574,6.836,34.180,0
16603.915,34.180,24.414,35.645,30.762,16.113,0
16603.919,52.734,25.391,34.180,56.641,71.777,0
16603.922,40.527,28.320,36.133,37.109,2.441,0
16603.926,17.090,26.855,38.086,12.207,-25.391,0
16603.930,22.461,26.855,39.551,12.695,-80.566,0
16603.934,52.734,28.320,39.551,33.203,-79.102,0
16603.938,50.781,22.949,36.621,37.109,13.672,0
16603.942,21.973,20.020,32.715,19.531,31.738,0
16603.946,20.996,21.973,32.715,15.625,42.969,0
16603.950,41.992,22.949,34.180,30.762,75.195,0
16603.954,51.270,27.344,31.250,35.645,45.898,0
16603.958,36.621,29.297,28.320,19.043,7.324,0
16603.962,19.531,25.879,26.855,10.254,8.789,0
16603.965,30.762,27.832,25.879,25.879,2.930,0
16603.969,51.758,26.367,29.297,42.480,-11.719,0
16603.973,38.574,25.879,28.809,36.133,18.555,0
16603.977,23.926,28.809,25.391,13.184,15.137,0
16603.981,44.922,27.832,27.832,13.672,18.066,0
16603.985,57.129,25.879,30.273,47.852,47.852,0
16603.989,37.109,24.414,32.715,46.875,80.566,0
16603.993,13.184,27.344,34.668,16.113,55.664,0
16603.997,15.625,29.785,31.250,10.742,62.012,0
16604.001,52.246,31.250,28.809,39.062,63.477,0
16604.004,49.316,31.738,32.227,53.711,31.738,0
16604.008,21.484,31.250,32.227,28.809,96.680,0
16604.012,29.297,31.738,31.738,10.742,103.516,0
16604.016,42.480,29.297,30.762,29.785,12.207,0
16604.020,47.363,28.320,29.785,46.875,4.883,0
16604.024,31.738,27.832,30.762,35.156,17.578,0
16604.028,18.555,27.832,35.156,19.043,8.301,0
16604.032,46.875,30.762,35.156,31.250,21.484,0
16604.036,62.500,32.715,30.273,44.922,34.668,0
16604.040,40.039,33.691,28.809,30.273,9.277,0
16604.044,25.879,31.250,29.785,19.043,10.742,0
16604.047,32.715,26.367,27.832,20.996,57.129,0
16604.051,52.734,28.809,27.344,41.016,25.391,0
16604.055,43.945,29.785,26.855,41.016,46.875,0
16604.059,10.742,26.367,25.391,15.625,63.477,0
16604.063,14.648,26.855,28.809,13.672,0.000,0
16604.067,49.316,27.832,31.738,34.668,6.348,0
16604.071,51.758,31.738,33.203,45.898,28.320,0
16604.075,21.973,29.297,32.715,33.691,12.207,0
16604.079,14.160,29.297,35.645,22.949,36.621,0
16604.083,30.762,32.227,31.250,28.809,-5.371,0
16604.087,38.086,30.762,25.879,49.316,15.625,0
16604.090,31.738,29.785,27.344,30.762,75.195,0
16604.094,16.602,33.203,27.344,2.441,15.137,0
16604.098,24.414,32.715,27.832,19.043,-21.973,0
16604.102,47.852,28.809,29.785,42.969,44.434,0
16604.106,43.945,26.367,30.762,33.691,40.039,0
16604.110,30.762,30.273,32.227,18.066,-18.066,0
16604.114,32.227,29.297,32.227,21.973,48.340,0
16604.118,51.270,24.414,31.738,42.480,73.242,0
16604.122,44.922,26.367,31.250,46.875,-32.227,0
16604.126,22.461,27.344,30.762,17.090,-41.504,0
16604.129,27.832,27.344,33.691,7.812,20.508,0
16604.133,46.875,29.297,33.203,32.227,58.105,0
16604.137,40.527,30.273,31.250,38.574,61.523,0
16604.141,24.902,31.738,33.691,17.578,34.180,0
16604.145,20.996,32.227,35.645,14.160,12.695,0
16604.149,38.086,30.273,34.668,29.785,2.441,0
16604.153,56.641,26.367,33.691,45.410,-4.395,0
16604.157,36.133,25.879,33.203,33.691,17.578,0
16604.161,15.625,27.832,32.227,10.742,69.824,0
16604.165,30.762,28.320,27.344,18.066,40.039,0
16604.169,58.594,30.762,24.902,47.363,43.945,0
16604.172,45.898,28.809,31.250,44.922,50.293,0
16604.176,17.578,28.320,32.227,5.371,14.648,0
16604.180,26.855,32.227,28.809,16.113,14.648,0
16604.184,52.734,32.227,27.832,52.246,46.875,0
16604.188,66.895,32.715,29.785,49.805,102.051,0
16604.192,45.410,30.762,32.715,23.438,62.012,0
16604.196,20.020,28.809,33.203,13.672,-5.859,0
16604.200,34.668,27.832,30.762,32.715,2.930,0
16604.204,44.922,24.902,28.320,43.457,72.266,0
16604.208,32.227,28.809,30.273,20.996,54.199,0
16604.212,20.996,35.645,32.227,7.324,-0.977,0
16604.215,28.809,33.691,32.227,30.273,-22.949,1
16604.219,37.598,30.273,32.715,51.758,-28.809,0
16604.223,23.926,30.762,32.227,30.762,-15.625,0
16604.227,15.625,29.297,30.762,12.695,64.941,0
16604.231,36.133,30.762,28.320,18.555,48.340,0
16604.235,49.805,32.227,25.391,43.945,8.789,0
16604.239,41.016,32.227,30.273,50.781,46.387,0
16604.243,24.414,27.832,34.180,19.043,22.949,0
16604.247,22.949,27.832,32.715,14.160,6.836,0
16604.251,52.246,34.668,32.227,32.715,45.410,0
16604.254,45.410,31.250,30.762,41.504,69.336,0
16604.258,13.184,26.855,24.902,21.484,55.176,0
16604.262,16.113,30.762,30.762,19.043,97.656,0
16604.266,41.992,30.273,37.109,52.246,138.184,0
16604.270,55.176,27.344,38.086,62.012,45.410,0
16604.274,33.691,26.367,38.574,28.809,-12.695,0
16604.278,7.324,27.344,31.738,11.230,-4.883,0
16604.282,25.879,26.855,31.738,28.320,53.711,0
16604.286,50.293,27.344,33.691,50.781,63.477,0
16604.290,40.039,34.180,29.785,45.898,37.598,0
16604.294,26.855,37.598,30.762,20.020,32.227,0
16604.297,43.457,36.133,32.715,20.996,12.695,0
16604.301,61.523,35.156,33.203,44.922,-11.230,0
16604.305,39.551,34.668,31.738,40.039,-3.906,0
16604.309,9.766,33.691,31.250,13.672,46.875,0
16604.313,11.230,32.715,28.809,10.742,30.273,0
16604.317,31.250,30.273,24.414,34.668,1.465,0
16604.321,39.551,26.367,29.785,43.457,52.734,0
16604.325,20.508,26.855,35.156,22.461,62.012,0
16604.329,0.977,30.273,33.203,9.277,50.293,0
16604.333,19.531,30.273,29.785,25.391,51.758,0
16604.337,41.992,30.273,28.320,42.480,28.320,0
16604.340,25.879,32.715,26.367,22.949,35.645,0
16604.344,1.465,35.645,26.367,0.000,43.945,0
16604.348,10.254,35.156,26.855,8.301,0.977,0
16604.352,35.645,30.762,27.344,30.762,17.090,0
16604.356,32.227,26.367,30.762,27.344,45.898,0
16604.360,9.277,25.879,30.273,7.812,42.969,0
16604.364,15.137,25.879,29.297,9.277,-5.859,0
16604.368,35.156,23.926,31.738,28.809,4.883,0
16604.372,34.668,27.344,32.227,39.551,12.695,0
16604.376,17.578,32.715,33.203,18.555,20.508,0
16604.379,13.184,37.109,33.203,7.324,12.695,0
16604.383,30.273,35.645,30.762,29.785,-42.969,0
16604.387,43.945,33.203,34.180,47.363,0.488,0
16604.391,28.809,33.691,35.156,34.668,37.598,0
16604.395,8.789,25.879,28.320,12.695,29.297,0
16604.399,27.832,21.484,25.879,31.738,12.207,0
16604.403,48.340,25.391,26.855,52.734,49.316,0
16604.407,40.527,31.250,31.738,32.227,55.664,0
16604.411,22.949,33.203,33.203,10.742,0.000,0
16604.415,23.438,28.320,28.809,16.113,-0.977,0
16604.419,35.645,25.391,27.832,36.621,2.930,0
16604.422,26.855,24.902,29.297,34.668,38.574,0
16604.426,15.137,23.438,32.227,15.137,55.176,0
16604.430,16.602,20.508,34.668,14.648,4.395,0
16604.434,26.367,20.020,33.691,46.875,64.453,0
16604.438,26.367,22.461,32.715,53.223,84.473,0
16604.442,11.719,27.344,31.250,23.438,39.062,0
16604.446,8.789,30.762,29.785,21.484,1.465,0
16604.450,32.715,29.785,31.250,34.180,-5.859,0
16604.454,45.898,28.320,35.645,36.621,12.207,0
16604.458,27.344,25.391,33.203,24.902,-6.836,0
16604.462,9.277,26.367,31.250,17.578,10.742,0
16604.465,20.996,29.785,34.668,41.504,26.367,0
16604.469,38.086,32.715,31.250,58.594,94.727,0
16604.473,22.949,30.273,26.855,37.598,62.500,0
16604.477,6.348,27.344,27.344,15.137,6.836,0
16604.481,9.766,27.832,30.273,19.043,31.250,0
16604.485,23.438,29.297,30.762,45.898,59.082,0
16604.489,17.090,29.297,29.785,53.711,11.230,0
16604.493,-3.906,25.879,26.855,26.855,-6.836,0
16604.497,2.930,26.855,26.367,20.508,40.039,0
16604.501,29.297,26.855,26.367,41.016,16.602,0
16604.504,28.809,27.344,24.902,48.340,21.484,0
16604.508,13.184,28.809,25.391,24.902,-0.488,0
16604.512,10.742,29.785,26.855,8.789,-30.273,0
16604.516,23.438,29.297,29.785,26.855,-7.812,0
16604.520,38.086,25.879,33.203,41.504,17.578,0
16604.524,28.320,24.414,31.738,23.926,80.566,0
16604.528,11.719,27.832,30.273,16.113,34.668,0
16604.532,35.156,31.250,30.762,40.527,-50.293,0
16604.536,56.152,31.738,26.855,49.805,40.039,0
16604.540,38.574,31.738,28.809,26.855,51.270,0
16604.544,11.230,29.297,25.391,11.230,2.930,0
16604.547,13.184,26.367,23.438,26.367,41.992,0
16604.551,41.016,25.391,32.227,41.504,111.816,0
16604.555,41.504,25.391,35.156,30.273,74.707,0
16604.559,19.043,22.461,33.691,15.625,-0.977,0
16604.563,21.484,24.414,32.227,18.066,-26.367,0
16604.567,46.387,30.273,33.203,38.574,-4.395,0
16604.571,34.180,31.738,34.668,47.852,4.395,0
16604.575,0.977,28.809,31.250,24.902,-20.996,0
16604.579,0.977,31.250,35.645,15.625,-14.648,0
16604.583,24.414,31.738,38.574,34.668,4.395,0
16604.587,34.668,31.250,34.180,53.711,48.340,0
16604.590,20.996,31.738,34.668,51.758,68.359,0
16604.594,8.789,28.320,34.668,30.273,45.410,0
16604.598,22.949,26.855,31.250,21.484,42.969,0
16604.602,41.992,30.273,31.250,39.551,13.184,0
16604.606,29.785,30.273,29.785,38.086,40.527,0
16604.610,2.930,27.344,27.344,13.184,44.922,0
16604.614,12.207,25.879,33.203,25.391,38.086,0
16604.618,31.250,25.879,36.621,46.387,76.660,0
16604.622,20.020,27.344,31.250,40.039,41.016,0
16604.626,-1.465,25.391,26.855,20.020,7.812,0
16604.629,-6.348,24.414,28.320,16.602,2.930,0
16604.633,20.508,23.438,30.273,35.156,28.809,0
16604.637,34.180,24.902,26.855,46.875,26.367,0
16604.641,14.160,29.297,28.809,32.715,2.930,0
16604.645,4.883,31.250,33.203,12.207,-7.324,0
16604.649,23.438,34.180,34.180,29.785,9.766,0
16604.653,37.109,34.180,33.691,49.805,91.309,0
16604.657,18.066,27.832,30.762,34.180,31.250,0
16604.661,3.418,27.832,29.297,16.602,-12.695,0
16604.665,20.020,30.762,28.320,26.367,11.719,0
16604.669,41.016,31.250,28.320,42.480,18.555,0
16604.672,37.109,29.785,31.738,33.691,43.457,0
16604.676,16.113,31.250,30.273,22.461,15.625,0
16604.680,11.719,33.691,27.344,23.438,38.574,0
16604.684,40.527,30.273,27.832,56.641,31.738,0
16604.688,41.016,31.250,32.227,72.266,13.184,0
16604.692,8.301,30.762,28.809,25.879,35.645,0
16604.696,12.207,25.391,23.926,3.906,27.832,0
16604.700,42.969,25.391,27.344,29.785,21.484,0
16604.704,41.992,28.809,27.832,46.387,18.066,0
16604.708,18.555,31.738,27.832,30.273,15.625,0
16604.712,8.301,33.203,30.273,11.719,33.691,0
16604.715,25.391,28.320,28.320,22.949,54.199,0
16604.719,41.992,27.832,27.832,46.875,7.324,0
16604.723,27.832,30.762,31.738,43.945,-29.297,0
16604.727,8.301,32.227,35.156,15.137,19.531,0
16604.731,21.484,32.227,32.715,25.391,79.590,0
16604.735,49.316,28.809,30.762,49.316,98.145,0
16604.739,41.016,26.855,30.762,30.762,51.270,0
16604.743,14.648,24.902,26.855,3.418,35.645,0
16604.747,23.438,30.273,24.902,3.906,74.707,0
16604.751,41.504,32.227,33.203,27.832,-4.395,0
16604.754,38.086,29.785,36.133,36.133,-28.320,0
16604.758,23.438,32.715,30.273,17.090,7.812,0
16604.762,24.902,33.203,28.809,14.648,-2.930,0
16604.766,45.410,31.250,29.785,25.391,64.453,0
16604.770,54.199,30.273,34.668,30.273,49.316,0
16604.774,31.250,26.367,35.156,26.367,30.273,0
16604.778,6.836,24.902,31.250,11.230,63.965,0
16604.782,26.855,28.809,29.785,15.625,70.801,0
16604.786,51.758,29.785,28.809,36.621,77.148,0
16604.790,47.363,33.203,33.203,35.156,11.719,1
16604.794,17.578,30.762,34.668,12.207,-39.062,0
16604.797,9.277,26.367,29.297,18.066,-3.418,0
16604.801,48.340,28.320,28.320,42.969,9.766,0
16604.805,58.105,31.738,32.715,41.016,31.738,0
16604.809,29.297,29.785,37.598,25.879,44.434,0
16604.813,20.508,25.879,36.133,24.902,39.062,0
16604.817,47.852,23.926,31.250,34.180,47.852,0
16604.821,60.059,29.297,28.320,41.504,4.395,0
16604.825,39.062,32.715,24.414,26.367,-11.719,0
16604.829,19.531,33.691,28.320,12.207,-13.672,0
16604.833,34.668,34.180,30.762,28.320,-34.668,0
16604.837,60.547,33.691,28.320,46.875,3.418,0
16604.840,43.457,34.668,30.273,32.227,42.480,0
16604.844,20.508,37.109,29.297,18.066,41.016,0
16604.848,31.738,33.691,26.367,28.320,-22.949,0
16604.852,56.152,28.320,27.344,45.410,27.344,0
16604.856,59.570,27.832,29.785,37.598,52.246,0
16604.860,32.715,30.273,30.762,4.395,26.855,0
16604.864,26.367,34.668,28.809,10.254,22.461,0
16604.868,42.480,31.738,29.297,37.109,-11.230,0
16604.872,42.480,30.762,31.250,39.551,20.508,0
16604.876,28.320,28.809,29.785,18.555,70.801,0
16604.879,28.809,29.785,30.762,11.230,61.523,0
16604.883,51.270,28.320,32.227,30.762,51.270,0
16604.887,56.641,25.879,34.668,50.781,78.613,0
16604.891,33.203,25.879,34.668,43.945,44.434,0
16604.895,17.578,25.879,29.785,28.320,64.453,0
16604.899,38.086,29.785,27.832,21.973,102.539,0
16604.903,64.941,33.691,28.809,35.156,65.430,0
16604.907,58.105,32.715,29.785,36.621,-1.465,0
16604.911,31.738,30.762,29.297,14.160,16.113,0
16604.915,36.133,30.762,27.344,15.137,65.918,0
16604.919,54.199,28.320,26.367,37.109,69.824,0
16604.922,46.875,26.367,24.902,37.598,83.008,0
16604.926,25.391,26.367,25.879,23.926,90.332,0
16604.930,30.273,25.391,23.926,22.461,50.293,0
16604.934,50.781,24.902,22.461,33.691,26.855,0
16604.938,50.781,32.715,28.320,44.434,55.176,0
16604.942,37.598,37.109,33.203,36.621,16.602,0
16604.946,29.297,32.715,28.320,22.949,22.949,0
16604.950,44.434,29.785,22.949,35.156,13.184,0
16604.954,58.594,26.855,24.902,45.410,22.949,0
16604.958,42.480,23.438,27.344,33.691,6.836,0
16604.962,29.785,26.855,27.832,27.344,-38.574,0
16604.965,48.340,25.391,24.414,31.738,26.367,0
16604.969,74.707,23.438,21.973,43.457,55.176,0
16604.973,61.523,29.785,26.367,33.203,43.945,0
16604.977,33.691,38.086,30.273,14.160,12.207,0
16604.981,40.039,36.133,29.297,23.438,-1.465,0
16604.985,63.965,30.762,27.832,40.527,27.832,0
16604.989,61.035,32.715,25.391,38.086,-16.113,0
16604.993,34.180,32.715,20.020,15.625,18.066,0
16604.997,30.273,31.738,20.996,12.695,48.828,0
16605.001,52.734,27.832,23.438,29.785,45.410,0
16605.004,56.641,27.832,22.461,36.133,84.961,0
16605.008,39.062,31.738,21.484,21.484,64.453,0
16605.012,26.855,32.715,24.414,12.207,27.344,0
16605.016,48.340,34.180,27.344,35.156,17.578,0
16605.020,67.383,34.180,25.879,51.270,25.391,0
16605.024,47.363,33.691,22.461,39.551,32.715,0
16605.028,25.879,33.691,28.809,16.602,8.789,0
16605.032,42.969,32.227,33.203,16.113,12.695,0
16605.036,63.965,28.320,30.273,44.922,10.254,0
16605.040,60.059,26.855,29.297,45.898,7.812,0
16605.044,51.758,34.180,34.180,26.367,9.766,0
16605.047,49.316,33.691,34.668,27.832,4.395,0
16605.051,60.547,29.785,32.715,51.270,8.789,0
16605.055,62.012,33.691,32.227,47.363,31.738,0
16605.059,46.875,34.668,28.320,14.160,21.973,0
16605.063,43.457,30.762,27.344,8.301,1.465,0
16605.067,66.895,27.832,29.297,27.832,24.902,0
16605.071,75.195,30.762,33.203,48.340,32.715,0
16605.075,36.621,31.250,35.156,30.762,-12.695,0
16605.079,19.043,29.785,36.133,18.555,-18.555,0
16605.083,45.898,28.809,35.645,41.992,-44.922,0
16605.087,57.129,29.785,40.039,60.547,-18.066,0
16605.090,51.758,32.227,38.574,49.805,10.254,0
16605.094,38.574,29.297,28.809,20.020,-13.184,0
16605.098,40.039,25.879,25.879,28.809,0.000,0
16605.102,56.641,27.832,27.832,49.316,16.113,0
16605.106,54.688,30.273,31.250,26.367,27.344,0
16605.110,31.250,31.738,30.273,6.348,14.648,0
16605.114,23.438,32.227,26.367,12.207,19.531,0
16605.118,40.527,31.250,27.832,44.434,62.988,0
16605.122,48.828,31.738,27.832,47.363,63.965,0
16605.126,39.551,34.668,28.320,17.578,29.297,0
16605.129,39.062,36.621,25.879,13.672,-0.977,0
16605.133,61.035,31.738,22.461,41.504,19.531,0
16605.137,69.336,29.785,27.832,61.035,43.457,0
16605.141,50.293,32.715,33.203,33.691,30.273,0
16605.145,39.062,32.715,34.180,11.230,19.043,0
16605.149,53.223,29.785,30.762,30.273,4.883,0
16605.153,63.965,28.809,30.273,44.434,57.129,0
16605.157,41.016,26.855,32.715,28.809,55.176,0
16605.161,20.508,27.344,35.645,12.695,1.465,0
16605.165,40.039,29.785,32.227,26.855,47.852,0
16605.169,61.523,29.297,28.320,45.410,69.824,0
16605.172,47.363,24.902,28.320,34.668,29.297,0
16605.176,20.020,25.391,32.227,21.484,14.648,0
16605.180,11.230,28.320,34.180,20.996,-1.465,0
16605.184,36.621,29.785,30.273,40.527,91.309,0
16605.188,50.293,27.832,30.273,54.199,110.352,0
16605.192,34.668,23.926,29.785,32.227,61.523,0
16605.196,20.508,26.855,30.273,14.160,47.363,0
16605.200,37.109,29.297,31.738,33.691,20.020,0
16605.204,61.523,27.832,32.227,49.316,24.414,0
16605.208,44.434,27.832,31.738,30.273,24.414,0
16605.212,14.160,29.297,28.809,20.020,46.875,0
16605.215,31.738,28.809,23.926,29.785,74.219,0
16605.219,56.152,28.320,24.414,48.828,22.461,0
16605.223,34.180,26.855,24.902,35.645,4.883,0
16605.227,16.113,24.902,26.855,1.953,28.320,0
16605.231,31.250,26.367,29.297,11.719,41.016,0
16605.235,44.434,28.320,32.227,35.645,21.973,0
16605.239,36.133,32.227,34.668,37.109,61.523,0
16605.243,22.949,30.762,31.250,20.508,76.172,0
16605.247,26.855,30.273,33.203,21.973,4.883,0
16605.251,42.969,29.785,31.738,38.574,30.762,0
16605.254,45.410,27.344,28.320,37.109,48.340,0
16605.258,35.645,26.855,32.227,15.625,21.973,0
16605.262,28.809,29.785,32.715,12.695,0.000,0
16605.266,34.180,24.414,30.762,27.832,25.391,0
16605.270,49.805,21.484,35.156,38.086,18.066,0
16605.274,44.434,26.855,38.086,30.762,-5.859,0
16605.278,23.438,33.203,38.086,17.090,10.742,0
16605.282,31.250,33.691,35.156,30.762,39.062,0
16605.286,52.246,30.762,31.250,50.781,26.855,0
16605.290,48.828,30.762,29.297,40.039,-0.977,0
16605.294,32.715,26.855,32.227,24.414,3.418,0
16605.297,29.785,25.879,34.180,23.438,31.250,0
16605.301,53.711,31.250,33.691,33.203,39.551,0
16605.305,50.293,35.645,37.109,44.922,59.082,0
16605.309,20.508,33.203,37.109,30.762,83.008,0
16605.313,17.090,27.832,34.668,24.414,21.484,0
16605.317,33.203,23.926,31.250,45.410,-27.344,0
16605.321,42.480,25.879,29.297,54.688,56.152,0
16605.325,39.062,26.367,32.715,32.227,45.410,0
16605.329,26.855,29.297,33.203,17.090,-15.625,0
16605.333,36.621,28.320,30.273,31.250,21.484,0
16605.337,53.223,24.414,32.227,40.039,11.230,0
16605.340,40.039,27.832,36.621,26.367,0.000,0
16605.344,25.391,30.273,37.598,14.648,39.551,0
16605.348,32.715,28.809,33.203,24.902,10.254,0
16605.352,43.945,29.297,28.809,42.480,-0.488,0
16605.356,35.645,29.297,30.762,37.109,19.043,0
16605.360,19.531,27.832,33.203,4.883,36.621,0
16605.364,28.809,27.344,30.762,0.977,62.500,0
16605.368,52.246,30.273,32.715,29.297,18.066,0
16605.372,56.641,35.156,37.598,41.016,-18.555,0
16605.376,33.691,34.180,36.133,23.926,43.945,0
16605.379,16.602,30.762,33.691,17.090,54.688,0
16605.383,35.156,27.832,29.785,35.645,37.598,0
16605.387,52.246,31.738,30.273,45.410,44.922,0
16605.391,44.922,31.738,34.668,22.949,-0.977,0
16605.395,31.250,28.320,33.691,15.137,6.348,0
16605.399,46.875,27.344,32.227,30.273,42.480,0
16605.403,58.105,26.855,29.785,44.922,47.363,0
16605.407,41.016,27.832,31.250,42.969,18.066,0
16605.411,28.320,32.715,33.203,20.996,-1.953,0
16605.415,34.180,35.645,33.203,22.461,-10.254,0
16605.419,44.434,35.645,36.133,40.527,50.293,0
16605.422,41.016,34.668,35.645,38.574,42.969,0
16605.426,24.902,33.691,32.227,20.020,-25.391,0
16605.430,26.367,33.691,25.879,16.602,-25.879,0
16605.434,56.152,31.738,16.602,47.363,27.832,0
16605.438,72.754,33.691,20.020,61.035,59.570,0
16605.442,52.246,36.133,29.297,32.715,-3.906,0
16605.446,29.785,36.621,15.137,15.625,3.418,0
16605.450,39.551,35.645,-3.906,32.715,49.805,0
16605.454,65.430,42.969,12.695,52.734,74.707,0
16605.458,54.199,41.016,34.668,36.133,26.367,0
16605.462,20.508,28.809,38.086,17.578,16.113,0
16605.465,34.668,26.855,36.133,28.809,-0.977,0
16605.469,57.129,29.297,44.922,49.316,7.324,0
16605.473,33.691,28.809,60.059,40.039,57.617,0
16605.477,11.719,24.902,48.828,3.418,41.504,1
16605.481,31.250,29.297,31.738,7.812,27.344,0
16605.485,52.246,28.320,37.109,42.480,35.645,0
16605.489,57.617,33.203,52.246,48.340,18.066,0
16605.493,40.039,35.645,60.547,23.926,4.395,0
16605.497,24.414,23.926,45.898,8.301,6.836,0
16605.501,46.387,26.367,36.133,27.832,16.113,0
16605.504,48.340,32.227,37.598,42.969,55.176,0
16605.508,27.344,33.691,29.785,20.996,63.477,0
16605.512,22.461,36.621,24.414,9.766,57.617,0
16605.516,39.062,39.551,28.320,34.668,53.711,0
16605.520,55.176,38.574,28.809,43.457,50.293,0
16605.524,42.969,34.180,30.273,28.809,3.906,0
16605.528,19.531,36.133,37.109,18.555,-32.227,0
16605.532,23.926,33.203,40.039,29.297,3.418,0
16605.536,41.016,28.809,31.250,48.828,7.324,0
16605.540,33.203,31.738,26.855,32.227,3.418,0
16605.544,18.555,34.668,33.203,7.324,15.625,0
16605.547,27.832,35.645,35.156,19.043,-12.695,0
16605.551,48.828,33.691,29.785,42.969,42.969,0
16605.555,48.340,29.785,27.832,41.016,68.359,0
16605.559,26.367,30.762,28.809,22.949,17.090,0
16605.563,21.484,36.621,31.250,18.066,0.977,0
16605.567,39.551,34.180,32.227,35.645,19.043,0
16605.571,38.574,27.344,33.691,41.992,50.781,0
16605.575,25.879,27.344,34.180,26.367,9.766,0
16605.579,21.973,32.227,29.297,23.926,16.602,0
16605.583,38.086,36.133,27.344,35.645,13.184,0
16605.587,56.641,35.156,33.203,50.781,-11.230,0
16605.590,38.574,33.691,32.227,40.527,-11.719,0
16605.594,18.066,35.156,30.273,19.043,-10.254,0
16605.598,30.762,34.668,28.809,33.203,37.598,0
16605.602,46.387,32.227,31.250,52.246,85.449,0
16605.606,43.457,34.668,33.203,34.668,81.055,0
16605.610,26.855,34.668,33.203,13.184,20.020,0
16605.614,26.855,31.250,32.715,17.578,-4.883,0
16605.618,52.734,34.668,29.297,41.992,50.781,0
16605.622,42.969,35.645,30.273,52.246,8.301,0
16605.626,15.137,34.180,28.809,38.574,0.000,0
16605.629,22.949,36.133,31.250,24.902,19.043,0
16605.633,46.875,35.645,34.668,32.227,-4.883,0
16605.637,57.617,34.180,34.180,44.434,47.363,0
16605.641,41.016,34.180,35.645,24.902,35.645,0
16605.645,13.672,34.668,35.645,10.742,0.000,0
16605.649,20.508,31.738,31.738,24.902,65.430,0
16605.653,46.387,31.738,29.297,44.434,28.320,0
16605.657,40.527,30.273,29.785,39.551,-20.020,0
16605.661,15.625,30.762,33.691,14.648,18.555,0
16605.665,19.043,35.645,35.156,11.230,42.480,0
16605.669,44.434,36.621,32.227,42.969,66.406,0
16605.672,45.410,36.621,30.762,47.363,85.449,0
16605.676,21.484,37.109,30.762,16.113,38.574,0
16605.680,18.555,33.691,28.809,17.090,41.016,0
16605.684,41.016,31.738,29.785,44.922,48.828,0
16605.688,40.039,29.297,30.762,42.969,20.020,0
16605.692,36.621,27.832,31.738,23.438,27.832,0
16605.696,25.391,29.297,35.156,18.066,13.184,0
16605.700,21.484,29.785,33.691,26.855,52.734,0
16605.704,38.574,28.320,34.668,48.340,74.219,0
16605.708,42.969,30.273,38.086,39.551,36.621,0
16605.712,31.250,36.133,37.598,18.066,78.613,0
16605.715,22.461,34.180,33.203,21.973,98.145,0
16605.719,42.969,30.762,29.297,40.527,73.242,0
16605.723,40.039,32.227,27.344,41.992,62.012,0
16605.727,17.090,29.785,28.320,20.996,-0.977,0
16605.731,25.879,28.320,29.785,13.672,16.113,0
16605.735,54.199,30.273,32.715,41.992,82.031,0
16605.739,57.129,28.320,33.203,45.410,40.039,0
16605.743,41.016,27.344,30.762,21.484,-19.531,0
16605.747,35.156,32.227,32.715,28.809,11.230,0
16605.751,43.945,36.133,33.691,51.758,43.457,0
16605.754,47.363,35.645,36.133,56.641,43.945,0
16605.758,41.504,37.598,36.133,37.109,8.789,0
16605.762,34.180,35.645,30.273,24.414,-5.371,0
16605.766,45.898,33.203,28.809,38.086,10.254,0
16605.770,52.734,35.645,27.832,54.199,17.090,0
16605.774,30.762,35.645,28.320,37.598,-9.766,0
16605.778,18.066,31.738,28.809,11.719,-20.996,0
16605.782,35.156,27.344,25.391,24.902,9.277,0
16605.786,50.293,22.949,24.414,45.410,34.668,0
16605.790,43.457,26.367,25.879,33.691,-8.301,0
16605.794,24.414,31.250,27.832,17.578,-23.438,0
16605.797,22.461,33.691,29.297,21.484,-15.137,0
16605.801,39.551,28.809,26.367,39.551,-8.789,0
16605.805,42.480,24.414,26.855,42.969,-0.977,0
16605.809,33.203,29.785,32.715,19.531,3.906,0
16605.813,28.809,28.809,34.668,9.766,48.828,0
16605.817,32.227,25.391,33.203,31.738,60.547,0
16605.821,36.621,25.879,31.738,47.852,21.973,0
16605.825,26.367,25.879,31.250,35.156,20.996,0
16605.829,10.254,28.809,26.855,9.766,-15.625,0
16605.833,29.297,31.250,26.367,8.301,-0.488,0
16605.837,49.805,32.227,30.273,34.668,19.043,0
16605.840,30.762,33.203,35.156,40.039,8.301,0
16605.844,9.766,36.133,39.062,23.926,20.020,0
16605.848,30.273,39.551,36.133,29.785,28.320,0
16605.852,69.336,46.387,42.480,65.918,42.480,0
16605.856,50.293,34.668,41.504,53.711,84.961,0
16605.860,20.020,22.949,34.180,18.066,46.387,0
16605.864,27.344,29.785,34.668,26.855,54.688,0
16605.868,41.504,32.227,35.645,42.969,103.516,0
16605.872,39.062,30.762,33.691,35.645,41.504,0
16605.876,24.414,29.297,30.273,20.508,40.527,0
16605.879,10.254,30.762,32.715,22.461,40.527,0
16605.883,24.414,32.227,33.691,39.551,42.480,0
16605.887,42.969,32.227,32.715,43.945,88.379,0
16605.891,25.879,32.227,31.738,33.691,80.078,0
16605.895,4.883,32.715,29.297,23.926,49.805,0
16605.899,17.578,29.297,29.297,26.367,27.832,0
16605.903,29.785,24.414,27.832,41.992,3.418,0
16605.907,15.137,26.367,26.855,27.832,-0.488,0
16605.911,7.324,32.227,28.320,4.883,-21.973,0
16605.915,23.438,34.668,27.344,7.812,-48.828,0
16605.919,38.086,32.227,25.391,25.879,9.766,0
16605.922,26.855,33.691,26.855,30.273,44.922,0
16605.926,0.000,35.645,28.320,13.672,29.785,0
16605.930,2.930,31.250,28.320,11.719,20.996,0
16605.934,30.273,27.344,27.832,32.715,56.641,0
16605.938,32.715,27.344,22.949,43.457,34.668,0
16605.942,19.043,28.809,21.484,18.066,41.016,0
16605.946,18.555,31.738,30.273,11.230,44.434,0
16605.950,41.992,36.621,27.832,40.039,18.066,0
16605.954,47.363,34.180,21.973,47.852,28.320,0
16605.958,29.297,31.250,27.832,27.832,51.270,0
16605.962,19.043,34.180,24.902,20.996,91.309,0
16605.965,29.785,33.691,14.648,33.691,43.945,0
16605.969,52.246,34.180,21.484,48.340,14.648,0
16605.973,47.852,33.691,44.922,45.410,2.930,0
16605.977,15.625,24.902,50.781,22.461,-14.160,0
16605.981,14.160,22.949,39.551,16.602,38.086,0
16605.985,36.133,28.320,41.016,44.922,43.945,0
16605.989,34.668,27.832,46.875,49.316,43.945,0
16605.993,15.625,27.344,43.945,25.391,28.320,0
16605.997,8.301,27.344,40.527,16.113,15.137,0
16606.001,34.668,27.344,36.133,36.621,25.879,0
16606.004,44.434,26.855,32.227,48.828,27.344,0
16606.008,30.762,26.367,30.273,26.367,20.508,0
16606.012,20.996,25.879,33.203,13.184,55.664,0
16606.016,35.156,28.809,38.086,39.062,13.672,0
16606.020,54.199,32.227,36.621,61.035,-1.465,2
16606.024,41.504,30.273,33.691,29.785,40.039,0
16606.028,13.672,30.762,35.645,12.695,36.621,0
16606.032,14.648,30.273,35.156,24.902,5.371,0
16606.036,38.574,28.809,29.297,39.062,42.480,0
16606.040,31.250,25.879,29.785,42.969,53.711,0
16606.044,9.277,24.414,33.203,23.926,62.988,0
16606.047,25.391,27.344,30.762,21.973,33.203,0
16606.051,48.340,25.879,30.273,41.504,-1.953,0
16606.055,39.062,21.973,34.668,41.016,94.727,0
16606.059,13.184,24.414,35.156,22.949,89.844,0
16606.063,3.418,25.879,31.250,14.648,23.926,0
16606.067,20.996,24.414,27.344,30.273,24.414,0
16606.071,31.738,30.273,32.227,47.852,59.570,0
16606.075,13.184,31.250,34.180,28.320,46.387,0
16606.079,4.883,28.809,32.227,11.719,32.715,0
16606.083,29.785,28.809,37.109,33.691,64.453,0
16606.087,37.109,25.391,39.062,48.828,53.223,0
16606.090,20.508,24.902,36.621,28.320,37.598,0
16606.094,3.906,26.367,33.691,-3.418,-1.953,0
16606.098,4.395,26.855,29.785,-2.930,-12.207,0
16606.102,20.996,24.902,28.809,28.320,40.527,0
16606.106,20.020,24.414,28.809,37.109,16.113,0
16606.110,6.836,26.855,28.320,20.508,-14.160,0
16606.114,2.930,27.832,27.832,20.020,-18.555,0
16606.118,16.602,27.832,31.738,46.387,-25.391,0
16606.122,29.785,29.297,35.645,65.918,17.578,0
16606.126,13.672,25.879,35.645,39.551,20.996,0
16606.129,6.836,25.391,33.203,12.695,47.363,0
16606.133,33.203,31.250,31.250,23.438,59.082,0
16606.137,45.410,35.156,30.273,39.551,-2.930,0
16606.141,17.090,33.203,26.367,21.973,-2.930,0
16606.145,-1.465,28.809,27.832,7.812,22.949,0
16606.149,20.996,26.367,31.738,20.508,54.199,0
16606.153,42.480,27.344,31.250,31.738,8.789,0
16606.157,25.391,26.855,28.320,23.926,2.441,0
16606.161,-2.930,24.414,28.320,7.812,19.531,0
16606.165,8.301,25.391,29.297,13.672,11.230,0
16606.169,28.320,27.832,26.367,35.156,86.914,0
16606.172,24.414,25.879,23.438,32.715,59.082,0
16606.176,7.812,29.297,21.484,5.371,2.930,0
16606.180,2.930,32.715,17.578,-0.977,10.742,0
16606.184,18.555,28.809,16.602,17.578,67.871,0
16606.188,30.762,32.227,20.020,28.320,54.688,0
16606.192,16.602,33.691,24.414,13.184,-23.438,0
16606.196,-4.395,25.391,24.414,4.883,10.742,0
16606.200,12.207,21.484,23.926,21.973,24.902,0
16606.204,34.668,26.855,24.414,36.133,49.316,0
16606.208,15.625,29.785,25.391,22.949,29.297,0
16606.212,-0.977,31.250,26.855,7.324,17.090,0
16606.215,14.648,33.691,23.926,20.020,78.613,0
16606.219,31.250,33.691,24.414,45.410,18.066,0
16606.223,25.391,32.715,29.297,34.668,27.344,0
16606.227,8.789,29.297,31.738,9.766,23.926,0
16606.231,14.648,31.250,32.715,14.160,-43.457,0
16606.235,36.133,30.762,26.855,39.551,3.906,0
16606.239,33.203,27.344,27.344,41.016,87.891,0
16606.243,11.230,27.832,32.715,15.625,101.074,0
16606.247,8.789,29.785,31.250,8.789,54.688,0
16606.251,39.551,33.691,31.250,28.809,26.367,0
16606.254,53.711,34.180,33.691,45.410,12.207,0
16606.258,34.668,36.621,32.715,34.180,-38.574,0
16606.262,27.832,39.551,33.203,24.902,-54.688,0
16606.266,36.621,36.133,32.715,41.992,-11.719,0
16606.270,40.527,34.180,36.133,61.523,34.180,0
16606.274,32.227,32.227,34.668,44.434,8.301,0
16606.278,16.113,30.273,27.832,19.043,11.719,0
16606.282,30.762,31.738,30.273,34.180,14.160,0
16606.286,54.199,38.086,31.250,54.688,-2.441,0
16606.290,42.969,37.109,33.203,48.828,53.711,0
16606.294,19.531,30.273,35.645,26.367,65.430,0
16606.297,24.414,28.809,30.273,18.066,4.883,0
16606.301,50.293,31.738,29.297,41.016,47.363,0
16606.305,46.387,36.133,29.297,48.828,72.754,0
16606.309,30.273,36.133,30.762,27.832,29.785,0
16606.313,17.090,34.180,32.715,14.648,9.277,0
16606.317,25.879,36.133,31.738,30.273,-9.766,0
16606.321,41.504,37.598,34.668,50.293,-12.695,0
16606.325,26.855,36.133,33.203,33.203,0.977,0
16606.329,12.695,34.668,31.738,13.184,-21.973,0
16606.333,28.809,33.203,33.691,26.855,30.762,0
16606.337,42.480,28.809,34.668,44.922,131.836,0
16606.340,25.879,26.367,32.227,37.109,64.453,0
16606.344,5.859,29.297,30.273,16.602,-21.973,0
16606.348,12.207,25.879,33.691,14.648,-7.812,0
16606.352,34.180,20.020,30.762,39.062,5.371,0
16606.356,31.738,24.414,30.762,45.410,15.625,0
16606.360,13.672,28.809,36.133,25.391,19.531,0
16606.364,19.043,28.320,37.109,18.066,-25.391,0
16606.368,39.551,28.320,33.691,38.574,6.836,0
16606.372,42.480,31.738,35.645,51.270,30.273,0
16606.376,22.949,30.762,36.133,27.344,-3.906,0
16606.379,20.996,31.738,34.180,17.578,7.324,0
16606.383,38.086,32.227,35.156,29.297,20.508,0
16606.387,50.781,34.180,36.133,52.246,36.133,0
16606.391,38.574,32.715,31.738,41.992,21.484,0
16606.395,21.484,31.250,29.297,21.973,16.113,0
16606.399,35.156,31.738,29.785,32.715,65.918,0
16606.403,58.105,30.273,31.738,50.293,69.336,0
16606.407,46.875,32.227,35.156,35.645,46.875,0
16606.411,14.160,34.668,38.086,19.531,54.199,0
16606.415,21.484,30.273,39.062,29.297,1.465,0
16606.419,46.875,29.297,35.156,43.457,-12.695,0
16606.422,41.016,32.715,32.227,44.922,21.484,0
16606.426,21.484,33.691,37.598,19.531,38.574,0
16606.430,19.531,35.645,37.598,13.672,52.734,0
16606.434,42.480,31.738,31.738,41.016,7.324,0
16606.438,54.199,30.762,32.227,52.734,17.090,0
16606.442,36.133,31.250,35.156,38.574,2.930,0
16606.446,25.879,30.273,34.668,35.645,-39.062,0
16606.450,46.875,31.738,30.762,37.598,4.883,0
16606.454,65.430,32.227,31.250,37.598,71.289,0
16606.458,45.410,31.738,29.785,28.809,50.293,0
16606.462,33.691,31.738,31.250,15.625,18.555,0
16606.465,50.293,32.715,31.250,23.926,50.781,0
16606.469,51.270,34.668,34.180,49.316,23.438,0
16606.473,34.668,36.133,35.156,49.805,15.625,0
16606.477,17.090,34.668,32.227,21.973,85.938,0
16606.481,22.949,34.668,31.738,16.113,11.719,0
16606.485,42.480,30.762,25.391,39.062,-1.953,0
16606.489,31.738,28.320,25.879,44.434,36.133,0
16606.493,5.371,30.762,24.414,19.531,-30.762,0
16606.497,7.324,32.227,22.949,7.324,-20.508,0
16606.501,41.992,33.203,30.273,26.367,8.789,0
16606.504,55.664,36.133,29.785,41.992,2.930,0
16606.508,16.602,35.156,28.320,18.066,32.715,0
16606.512,4.883,35.645,34.668,4.395,45.898,0
16606.516,26.855,26.855,30.762,29.297,31.738,0
16606.520,34.180,20.020,25.879,42.480,53.223,0
16606.524,19.531,27.832,28.809,29.785,21.973,0
16606.528,2.930,32.715,26.855,20.508,-3.418,0
16606.532,13.184,31.250,25.879,19.531,41.016,0
16606.536,39.062,32.227,26.855,42.480,82.031,0
16606.540,39.062,33.203,26.855,42.480,83.496,0
16606.544,21.484,30.273,28.320,18.066,56.152,0
16606.547,20.996,29.297,27.344,24.414,39.551,0
16606.551,37.598,31.738,26.855,36.621,49.316,0
16606.555,43.457,31.250,27.832,40.039,1.953,0
16606.559,24.902,27.832,28.320,25.391,2.441,0
16606.563,11.719,28.320,29.297,14.648,-49.316,0
16606.567,27.344,30.762,32.715,40.527,-38.574,0
16606.571,38.574,29.785,34.668,51.270,48.340,0
16606.575,22.949,29.785,31.738,25.391,20.508,0
16606.579,6.836,30.762,30.273,16.113,41.016,0
16606.583,22.949,29.297,29.785,31.738,41.504,0
16606.587,40.039,30.273,29.297,51.270,59.570,0
16606.590,27.832,32.715,32.715,42.480,42.969,0
16606.594,8.301,30.273,32.715,19.531,16.602,0
16606.598,10.254,27.344,29.785,18.555,8.789,0
16606.602,31.250,25.879,29.297,31.738,30.273,0
16606.606,25.391,28.320,27.832,21.973,83.008,0
16606.610,3.418,31.738,29.785,3.906,56.152,0
16606.614,2.441,30.273,29.785,2.930,82.031,0
16606.618,22.461,29.297,25.391,20.996,104.004,0
16606.622,19.531,29.785,27.832,27.344,64.453,0
16606.626,-5.371,25.879,32.227,-0.488,59.570,0
16606.629,-9.277,21.973,30.762,0.488,15.625,0
16606.633,11.719,22.461,26.855,24.902,15.625,0
16606.637,19.043,20.508,27.832,34.180,100.098,0
16606.641,3.418,20.508,28.809,24.902,91.309,0
16606.645,-9.766,27.344,28.320,8.789,33.203,0
16606.649,13.184,27.832,26.367,22.949,21.484,0
16606.653,41.992,28.809,27.832,42.480,39.551,0
16606.657,30.273,31.738,27.344,28.320,81.055,0
16606.661,4.883,30.273,25.879,9.277,-4.395,0
16606.665,11.230,30.762,28.320,16.602,-48.828,0
16606.669,33.691,33.691,26.855,41.992,39.551,0
16606.672,30.762,28.809,24.414,41.016,37.598,0
16606.676,11.719,29.785,30.762,22.461,37.109,0
16606.680,16.602,36.133,32.715,21.484,21.484,0
16606.684,33.203,33.691,23.926,43.457,-8.301,0
16606.688,38.574,32.227,25.879,45.898,35.156,0
16606.692,23.438,31.738,31.738,19.043,54.199,0
16606.696,3.418,31.738,28.320,15.625,18.066,1
16606.700,27.832,30.762,26.367,38.574,-4.883,0
16606.704,41.504,26.855,34.668,63.477,18.066,0
16606.708,20.020,25.879,36.133,44.434,46.875,0
16606.712,4.883,28.809,35.156,20.508,27.344,0
16606.715,6.836,29.297,36.621,41.504,57.129,0
16606.719,27.832,24.902,33.203,59.082,82.520,0
16606.723,33.691,24.902,35.156,42.480,28.320,0
16606.727,12.695,27.344,33.691,30.273,34.180,0
16606.731,18.066,28.320,28.809,28.809,62.012,0
16606.735,54.688,32.227,32.715,41.992,13.184,0
16606.739,45.410,32.227,34.668,47.852,23.926,0
16606.743,11.230,29.785,32.715,24.414,91.309,0
16606.747,9.277,30.273,34.668,15.137,52.734,0
16606.751,35.645,32.715,35.645,39.062,-15.137,0
16606.754,38.574,28.320,28.320,55.176,-33.691,0
16606.758,15.625,21.484,23.438,37.109,7.324,0
16606.762,4.883,20.508,24.414,12.207,42.480,0
16606.766,17.578,24.902,22.461,31.738,46.875,0
16606.770,43.457,33.691,22.461,49.316,22.461,0
16606.774,35.645,36.133,26.855,26.367,57.617,0
16606.778,8.301,34.180,27.344,13.184,31.250,0
16606.782,16.602,33.203,25.391,33.203,7.812,0
16606.786,43.945,30.273,24.414,55.176,106.934,0
16606.790,37.598,33.203,25.879,39.551,60.547,0
16606.794,3.418,34.668,26.855,16.602,-42.480,0
16606.797,-4.883,33.203,25.879,21.484,-41.504,0
16606.801,22.949,36.133,31.250,45.410,10.742,0
16606.805,33.691,37.598,30.273,50.781,11.230,0
16606.809,16.113,35.156,24.902,27.832,-8.789,0
16606.813,6.348,34.668,23.926,12.695,-12.695,0
16606.817,16.113,34.668,24.414,24.414,60.059,0
16606.821,25.879,30.762,27.832,43.457,128.906,0
16606.825,12.695,29.785,28.320,31.738,61.035,0
16606.829,-6.836,33.691,29.297,16.602,-14.648,0
16606.833,7.812,31.738,28.809,26.855,-7.812,0
16606.837,28.809,31.250,26.367,34.668,24.902,0
16606.840,13.184,28.809,32.227,27.344,68.359,0
16606.844,-17.090,26.367,33.203,6.348,19.043,0
16606.848,-20.508,27.344,25.879,3.906,29.297,0
16606.852,8.301,25.879,24.902,26.367,82.031,0
16606.856,4.883,25.391,26.855,26.855,21.973,0
16606.860,-28.320,27.344,30.273,9.277,-30.273,0
16606.864,-34.180,29.785,33.691,11.230,15.137,0
16606.868,-10.254,30.273,33.691,29.785,32.715,0
16606.872,-3.418,27.344,32.715,34.668,57.129,0
16606.876,-20.508,24.902,28.320,17.090,57.129,0
16606.879,-25.879,28.809,25.391,5.859,-15.625,0
16606.883,-0.977,29.785,21.484,20.996,-20.996,0
16606.887,13.672,27.344,20.508,38.574,-1.465,0
16606.891,0.977,30.762,26.855,23.438,58.105,0
16606.895,-7.812,33.691,32.715,1.465,55.664,0
16606.899,-2.441,30.762,31.738,15.137,8.301,0
16606.903,-6.348,28.320,33.691,38.574,10.254,0
16606.907,-21.484,25.879,33.691,26.367,6.836,0
16606.911,-36.621,24.902,27.344,12.207,9.277,0
16606.915,-23.438,26.855,26.855,25.391,40.527,0
16606.919,4.395,26.855,24.902,46.875,73.242,0
16606.922,4.883,26.855,28.809,49.805,72.754,0
16606.926,-14.648,30.762,35.156,25.879,0.488,0
16606.930,-18.555,32.227,33.203,12.207,10.254,0
16606.934,12.695,31.738,33.203,34.668,56.641,0
16606.938,20.508,29.785,34.668,51.758,20.996,0
16606.942,-18.066,31.250,29.297,34.668,14.160,0
16606.946,-32.227,34.668,27.344,17.578,5.371,0
16606.950,3.418,33.691,27.832,31.738,4.395,0
16606.954,23.438,32.715,26.855,47.852,61.035,0
16606.958,2.930,35.645,27.344,35.645,36.133,0
16606.962,-16.113,36.621,29.785,17.090,-26.367,0
16606.965,-6.348,34.180,28.320,27.344,48.340,0
16606.969,9.766,34.180,28.809,46.875,10.742,0
16606.973,-6.348,33.691,30.762,35.156,-3.906,0
16606.977,-27.832,33.203,32.227,14.648,15.625,0
16606.981,-21.973,34.668,33.203,18.066,1.953,0
16606.985,6.348,33.203,28.320,35.645,-10.254,0
16606.989,10.254,34.668,27.344,45.410,-10.742,0
16606.993,-16.113,36.133,28.809,33.691,17.578,0
16606.997,-28.809,30.762,27.344,13.184,52.734,0
16607.001,-9.766,26.367,25.391,17.578,79.590,0
16607.004,11.230,30.762,26.367,41.504,40.527,0
16607.008,-4.395,31.250,27.344,23.926,6.836,0
16607.012,-27.344,31.250,30.762,12.207,-11.230,0
16607.016,-10.742,33.203,33.691,26.855,26.367,0
16607.020,14.648,34.668,35.156,40.039,26.855,0
16607.024,4.395,36.133,34.180,28.320,26.855,0
16607.028,-13.672,34.180,35.156,4.883,9.766,0
16607.032,-5.859,30.273,39.551,17.090,-24.902,0
16607.036,12.695,27.832,37.598,42.480,25.391,0
16607.040,0.488,25.879,32.227,35.645,61.523,0
16607.044,-19.043,28.809,34.180,10.254,33.691,0
16607.047,-8.301,33.691,36.621,17.578,33.691,0
16607.051,9.766,30.762,32.715,39.062,71.289,0
16607.055,11.230,30.762,31.738,36.621,37.598,0
16607.059,2.930,35.156,35.645,18.066,-20.020,0
16607.063,-1.465,34.180,34.180,12.207,43.457,0
16607.067,12.695,31.738,31.738,26.855,40.527,0
16607.071,29.785,31.738,31.250,48.828,17.090,0
16607.075,19.531,33.203,31.250,31.738,46.387,0
16607.079,4.883,33.691,28.320,21.484,45.410,0
16607.083,17.090,33.691,30.273,37.598,49.805,0
16607.087,32.715,34.180,32.715,41.016,60.547,0
16607.090,20.020,32.715,27.344,30.273,36.621,0
16607.094,2.441,32.715,23.926,8.789,13.672,0
16607.098,9.277,31.250,26.367,14.648,-49.805,0
16607.102,28.320,29.297,26.855,38.086,-28.809,0
16607.106,27.344,30.762,27.344,27.832,34.668,0
16607.110,16.113,35.156,28.320,11.230,-19.043,0
16607.114,19.531,37.109,26.855,17.090,-9.766,0
16607.118,34.668,38.086,31.250,29.785,9.277,0
16607.122,32.715,35.156,33.203,41.504,10.254,0
16607.126,7.324,30.762,26.367,16.602,39.062,0
16607.129,-5.371,29.785,25.879,-3.906,20.020,0
16607.133,10.254,26.367,27.832,18.066,-19.531,0
16607.137,26.367,25.391,28.809,34.180,41.016,0
16607.141,14.648,26.367,30.273,23.438,60.547,0
16607.145,-3.418,26.855,26.855,1.465,2.930,0
16607.149,10.742,28.809,25.879,11.230,-11.230,0
16607.153,30.762,30.273,24.414,36.621,13.184,0
16607.157,15.137,31.250,22.461,28.809,97.656,0
16607.161,-1.465,33.203,21.484,9.766,99.121,0
16607.165,12.207,33.203,23.438,20.020,19.043,0
16607.169,37.598,34.180,25.391,41.016,-14.648,0
16607.172,32.227,32.715,22.949,40.527,15.137,0
16607.176,2.441,28.809,25.391,17.578,32.227,0
16607.180,-3.418,27.344,26.367,6.836,0.977,0
16607.184,17.090,25.391,27.832,31.250,-10.254,0
16607.188,26.367,22.461,26.855,47.363,72.754,0
16607.192,13.672,25.879,24.414,26.855,74.219,0
16607.196,8.301,31.738,29.785,14.160,41.016,0
16607.200,22.949,32.715,30.762,31.738,68.359,0
16607.204,30.762,33.203,29.785,51.758,33.691,0
16607.208,20.508,32.227,33.203,38.574,-2.441,0
16607.212,3.906,31.738,32.227,18.555,4.395,0
16607.215,22.461,31.738,32.715,29.785,17.090,0
16607.219,41.504,29.297,34.180,48.340,34.180,0
16607.223,20.508,24.414,31.250,43.945,40.527,0
16607.227,0.488,22.949,33.203,21.484,33.203,0
16607.231,5.859,29.297,34.668,20.020,7.324,0
16607.235,32.227,29.297,30.762,41.016,41.016,0
16607.239,32.715,29.297,29.785,41.992,41.016,0
