timestamps,TP9,AF7,AF8,TP10,Right AUX,Marker0
15930.169,-4.395,37.109,28.320,27.344,41.504,0
15930.172,-1.953,36.621,28.809,25.391,42.969,0
15930.176,-0.488,39.062,33.691,20.508,21.973,0
15930.180,7.324,41.504,34.668,25.879,59.570,0
15930.184,17.090,39.551,31.250,35.645,36.621,0
15930.188,22.461,39.551,29.297,38.574,6.348,0
15930.192,14.160,41.016,28.320,29.297,-20.996,0
15930.196,1.953,39.062,28.809,19.043,-8.301,0
15930.200,10.254,38.086,31.738,28.320,31.250,0
15930.204,18.555,41.504,29.297,31.250,-28.809,0
15930.208,13.184,43.457,24.902,20.996,-20.996,0
15930.212,6.836,45.898,29.297,14.648,22.949,0
15930.215,16.113,45.898,32.715,22.461,34.180,0
15930.219,32.715,42.480,37.109,33.691,42.969,0
15930.223,27.832,39.062,38.574,27.344,41.016,0
15930.227,14.160,37.598,36.133,32.715,-0.488,0
15930.231,10.742,34.180,39.062,33.691,-16.113,0
15930.235,17.090,29.785,38.086,28.809,-4.395,0
15930.239,18.066,36.133,33.691,24.414,57.129,0
15930.243,6.348,43.457,32.715,9.766,69.824,0
15930.247,9.766,43.457,37.109,5.371,12.207,0
15930.251,30.273,42.969,40.039,21.973,-8.301,1
15930.254,42.969,43.457,36.133,31.738,2.441,0
15930.258,24.902,40.527,34.180,17.090,37.109,0
15930.262,10.742,40.527,35.645,18.066,-6.836,0
15930.266,17.090,39.062,33.691,33.203,-9.277,0
15930.270,32.227,38.086,28.809,29.785,44.434,0
15930.274,37.598,36.621,28.809,23.438,49.316,0
15930.278,29.297,36.133,33.691,22.461,-6.836,0
15930.282,34.180,41.016,36.621,24.414,-62.500,0
15930.286,44.434,43.457,32.715,30.762,0.977,0
15930.290,43.945,44.434,30.273,34.180,28.320,0
15930.294,39.062,45.898,31.738,29.785,8.789,0
15930.297,39.551,47.363,30.762,20.996,18.555,0
15930.301,34.180,45.898,27.832,26.855,40.039,0
15930.305,20.508,40.527,22.461,21.973,45.410,0
15930.309,17.090,39.062,23.926,8.789,35.156,0
15930.313,21.484,36.621,27.832,17.578,-7.812,0
15930.317,21.973,31.738,25.879,23.926,-31.250,0
15930.321,23.926,36.621,21.484,27.832,61.523,0
15930.325,21.484,42.480,25.879,31.738,60.059,0
15930.329,20.996,43.945,36.621,28.320,15.625,0
15930.333,20.996,39.062,32.715,36.133,5.371,0
15930.337,23.438,32.715,26.367,29.785,-13.184,0
15930.340,21.484,28.809,28.809,24.414,34.668,0
15930.344,15.625,27.832,30.762,25.391,92.773,0
15930.348,15.625,26.855,29.785,31.738,62.500,0
15930.352,20.020,25.391,24.414,39.062,32.227,0
15930.356,20.996,23.926,23.438,31.250,3.906,0
15930.360,13.672,24.902,27.344,23.926,-64.453,0
15930.364,6.836,30.273,28.320,22.461,29.297,0
15930.368,18.066,31.738,26.855,31.250,109.863,0
15930.372,29.297,29.297,25.879,35.645,25.391,0
15930.376,27.832,34.180,30.762,28.320,41.504,0
15930.379,24.414,37.598,34.668,20.020,56.641,0
15930.383,24.902,32.715,32.227,19.043,16.602,0
15930.387,21.973,27.344,27.832,27.832,67.871,0
15930.391,17.578,26.367,29.785,21.973,58.105,0
15930.395,11.719,25.879,32.715,19.531,9.766,0
15930.399,13.672,24.902,30.273,20.020,40.039,0
15930.403,24.902,26.855,28.809,24.414,18.555,0
15930.407,22.949,31.738,28.809,36.133,18.555,0
15930.411,18.066,33.203,28.809,24.414,16.113,0
15930.415,20.508,35.156,31.250,22.461,7.812,0
15930.419,26.367,38.574,29.297,34.180,-26.855,0
15930.422,30.273,38.574,30.273,33.203,-49.316,0
15930.426,24.902,39.062,37.598,34.668,-11.719,0
15930.430,21.973,36.621,39.551,37.598,5.371,0
15930.434,30.762,33.691,38.086,41.992,-1.953,0
15930.438,41.016,29.785,39.062,39.551,44.434,0
15930.442,36.133,32.227,41.504,26.367,97.656,0
15930.446,22.949,39.062,41.504,24.414,42.480,0
15930.450,29.785,37.598,39.551,35.156,19.043,0
15930.454,38.086,34.180,37.109,40.039,80.566,0
15930.458,25.879,32.715,37.109,31.250,123.047,0
15930.462,20.508,34.668,37.109,13.672,100.098,0
15930.465,28.809,37.598,35.645,14.648,4.883,0
15930.469,35.156,35.645,36.133,34.180,-12.695,0
15930.473,34.668,31.738,36.621,29.785,28.320,0
15930.477,25.391,35.156,33.691,17.578,59.570,0
15930.481,22.949,39.551,34.668,30.762,11.719,0
15930.485,30.273,39.062,35.156,41.504,14.648,0
15930.489,26.855,38.086,31.738,34.668,38.574,0
15930.493,19.531,36.621,31.250,22.461,-2.930,0
15930.497,16.113,35.645,32.715,16.113,-22.461,0
15930.501,20.996,33.691,29.785,23.926,-7.324,0
15930.504,22.461,34.180,28.809,21.973,-19.043,0
15930.508,16.113,35.156,32.715,12.207,-1.953,0
15930.512,14.160,34.668,32.227,13.672,-23.438,0
15930.516,13.184,28.320,29.785,20.020,3.906,0
15930.520,21.973,25.391,29.297,29.785,74.707,0
15930.524,21.973,32.715,28.320,29.297,14.160,0
15930.528,13.184,35.156,29.785,20.996,1.953,0
15930.532,20.020,32.715,32.227,25.391,40.039,0
15930.536,35.156,31.738,27.832,36.133,37.598,0
15930.540,29.785,31.738,26.855,46.875,45.898,0
15930.544,15.137,31.738,32.715,34.668,46.875,0
15930.547,15.137,34.668,34.180,28.320,-12.695,0
15930.551,28.320,31.250,30.762,34.180,3.418,0
15930.555,35.156,25.391,29.297,29.297,13.672,0
15930.559,24.902,32.227,35.645,24.902,-37.598,0
15930.563,22.949,41.016,38.574,23.438,6.348,0
15930.567,28.320,39.551,36.133,32.715,51.758,0
15930.571,33.203,35.645,35.645,38.086,25.879,0
15930.575,29.297,37.109,37.598,37.598,35.645,0
15930.579,20.508,43.945,41.992,25.879,24.414,0
15930.583,27.344,40.039,42.480,18.555,44.434,0
15930.587,33.691,32.227,36.621,25.391,61.523,0
15930.590,28.320,35.156,32.227,33.691,41.504,0
15930.594,25.391,37.598,33.691,29.785,-17.578,0
15930.598,25.391,35.645,39.551,22.461,-44.922,0
15930.602,26.855,32.227,36.621,26.855,2.441,0
15930.606,21.973,31.250,29.785,25.879,32.715,0
15930.610,15.137,33.203,29.297,19.043,25.391,0
15930.614,22.949,31.738,31.250,15.625,25.391,0
15930.618,32.715,30.762,33.203,30.273,51.758,0
15930.622,32.227,32.227,32.227,31.250,58.105,0
15930.626,28.320,29.785,27.832,18.555,43.945,0
15930.629,13.672,32.227,29.785,22.461,-2.930,0
15930.633,3.906,34.668,32.227,22.461,14.160,0
15930.637,9.766,32.715,29.785,28.809,20.996,0
15930.641,5.859,32.227,30.273,34.180,-1.953,0
15930.645,5.859,35.645,34.668,26.855,58.105,0
15930.649,14.648,35.645,35.156,34.668,83.008,0
15930.653,15.625,30.762,30.273,34.668,62.500,0
15930.657,7.324,28.809,29.785,30.762,52.246,0
15930.661,-1.953,30.273,32.715,25.879,30.762,0
15930.665,0.977,25.391,30.273,16.602,9.766,0
15930.669,5.371,20.996,25.879,29.297,-16.602,0
15930.672,-7.324,24.902,25.879,34.668,9.277,0
15930.676,-16.113,28.809,31.738,26.855,29.785,0
15930.680,-12.695,32.715,34.668,20.508,43.457,0
15930.684,-5.859,34.180,33.203,30.273,28.320,0
15930.688,6.348,34.180,28.809,32.227,36.133,0
15930.692,12.695,34.668,29.785,14.160,36.133,0
15930.696,-0.977,32.715,31.250,24.902,36.133,0
15930.700,-3.906,30.273,28.809,33.203,53.711,0
15930.704,2.441,28.320,31.250,31.738,37.109,0
15930.708,-7.812,28.809,30.273,32.227,49.805,0
15930.712,-11.719,32.227,30.273,22.461,2.441,0
15930.715,1.953,32.227,30.762,20.996,-48.828,0
15930.719,19.043,33.203,29.785,21.973,7.324,0
15930.723,24.414,41.016,31.738,22.949,21.484,0
15930.727,17.578,42.969,32.715,30.762,31.738,0
15930.731,26.367,38.574,35.645,39.551,12.207,0
15930.735,37.598,37.109,36.621,33.203,-1.465,0
15930.739,31.250,34.668,36.133,33.691,38.574,0
15930.743,22.461,30.762,34.668,36.133,0.977,0
15930.747,19.043,32.715,36.133,24.902,-21.484,0
15930.751,24.414,38.086,33.203,24.902,-3.906,0
15930.754,25.879,38.574,27.344,24.902,15.137,0
15930.758,20.996,36.621,32.715,24.414,6.836,0
15930.762,25.879,40.039,35.156,22.461,-13.184,0
15930.766,31.738,38.574,32.715,32.227,-28.320,0
15930.770,34.180,36.133,35.645,39.551,-20.996,0
15930.774,31.250,34.180,37.598,37.598,22.949,0
15930.778,24.414,29.297,41.504,37.598,1.465,0
15930.782,25.391,28.320,41.992,35.156,-20.020,0
15930.786,31.250,30.762,37.598,23.438,39.551,0
15930.790,34.180,32.715,38.086,30.762,21.484,0
15930.794,27.344,33.691,36.621,33.691,21.484,0
15930.797,30.762,36.133,41.016,24.902,18.555,0
15930.801,44.434,35.645,43.457,41.992,10.742,0
15930.805,42.969,33.203,40.527,40.527,7.812,0
15930.809,38.086,31.738,39.062,21.484,-37.109,0
15930.813,29.785,33.691,35.645,18.066,1.465,0
15930.817,25.391,34.668,33.203,26.855,43.945,0
15930.821,38.086,27.832,28.320,37.598,5.371,0
15930.825,33.691,26.367,26.367,38.086,11.230,0
15930.829,21.973,33.691,28.809,27.832,28.809,0
15930.833,31.250,38.574,26.855,25.391,20.020,0
15930.837,42.969,39.062,27.832,36.133,-10.254,0
15930.840,37.598,39.062,30.273,42.969,-18.555,0
15930.844,30.273,40.039,30.762,36.621,-0.977,0
15930.848,36.621,36.133,29.785,32.227,-12.207,0
15930.852,33.203,30.273,24.414,28.809,11.719,0
15930.856,33.691,30.273,25.879,30.762,-14.160,0
15930.860,35.156,33.691,31.738,31.738,-8.789,0
15930.864,28.809,29.785,29.785,20.996,36.133,0
15930.868,28.320,21.484,25.879,22.949,1.465,0
15930.872,29.297,22.461,24.902,37.109,28.809,0
15930.876,26.855,28.320,25.879,32.227,69.824,0
15930.879,20.996,31.250,28.809,19.531,34.180,0
15930.883,31.250,26.367,31.250,24.414,51.758,0
15930.887,33.691,21.484,34.668,33.203,79.102,0
15930.891,22.949,21.973,37.109,32.715,50.293,0
15930.895,24.902,25.391,34.180,32.715,-5.859,0
15930.899,27.344,25.391,31.250,27.832,7.812,0
15930.903,29.785,18.066,29.785,23.438,47.363,0
15930.907,37.598,16.602,25.879,20.020,51.270,0
15930.911,33.203,26.367,30.762,24.902,41.992,0
15930.915,23.438,29.297,34.668,27.832,23.438,1
15930.919,24.414,26.855,32.715,29.785,23.926,0
15930.922,25.879,25.879,35.156,32.715,15.137,0
15930.926,16.602,25.879,35.156,23.926,13.672,0
15930.930,11.230,23.926,32.715,29.785,35.645,0
15930.934,22.461,19.043,28.320,33.203,80.078,0
15930.938,31.250,23.438,27.832,19.531,20.020,0
15930.942,24.414,28.320,31.250,13.184,11.230,0
15930.946,18.066,29.785,29.785,10.254,19.043,0
15930.950,22.461,28.320,25.879,23.926,18.555,0
15930.954,27.832,24.414,21.973,39.062,42.480,0
15930.958,23.926,24.414,24.414,36.621,-12.695,0
15930.962,15.137,24.414,29.297,29.785,-14.160,0
15930.965,24.414,25.879,31.250,25.879,32.227,0
15930.969,36.133,28.320,33.203,21.973,-1.465,0
15930.973,34.668,27.832,32.227,30.273,-28.809,0
15930.977,25.879,28.320,31.250,33.203,-31.738,0
15930.981,22.461,26.855,28.320,25.879,15.137,0
15930.985,25.391,24.414,26.367,24.414,23.926,0
15930.989,26.855,24.414,25.879,24.902,11.719,0
15930.993,25.391,26.367,28.809,24.902,40.039,0
15930.997,29.785,23.926,30.762,26.855,22.461,0
15931.001,36.621,22.949,29.297,30.762,7.324,0
15931.004,28.320,25.879,30.273,28.809,-6.348,0
15931.008,18.066,26.367,32.227,22.461,-46.387,0
15931.012,21.973,26.855,36.133,14.648,12.695,0
15931.016,25.391,22.949,37.109,26.367,22.949,0
15931.020,31.250,22.461,33.203,39.062,-7.324,0
15931.024,36.621,26.855,31.250,26.367,16.113,0
15931.028,38.574,24.902,31.250,20.508,59.082,0
15931.032,41.016,23.926,35.645,31.250,49.316,0
15931.036,42.480,25.879,36.621,42.480,0.000,0
15931.040,34.668,28.809,34.668,35.156,21.484,0
15931.044,24.902,28.320,34.668,29.785,20.508,0
15931.047,29.785,25.391,33.691,30.273,-2.441,0
15931.051,34.180,23.926,30.762,23.438,7.812,0
15931.055,35.645,21.973,29.297,18.555,76.172,0
15931.059,38.086,20.996,29.785,13.672,50.781,0
15931.063,27.832,19.531,28.809,10.254,-3.906,0
15931.067,24.414,20.508,27.344,23.438,2.441,0
15931.071,33.203,24.902,25.879,33.691,-0.488,0
15931.075,29.785,27.344,27.832,31.250,12.695,0
15931.079,15.625,27.344,28.320,37.109,30.762,0
15931.083,20.996,27.344,27.832,44.922,75.195,0
15931.087,32.227,25.391,25.391,31.738,62.988,0
15931.090,26.855,24.902,21.973,31.250,41.992,0
15931.094,28.320,24.902,23.926,31.250,23.438,0
15931.098,37.598,25.879,22.461,26.855,79.590,0
15931.102,40.039,22.461,19.531,30.762,82.520,0
15931.106,33.691,19.043,18.555,35.645,14.648,0
15931.110,30.273,25.879,21.484,37.598,41.992,0
15931.114,30.762,27.832,23.926,36.133,4.883,0
15931.118,36.621,25.391,23.926,41.016,-0.488,0
15931.122,41.504,24.902,24.902,38.086,43.457,0
15931.126,30.273,24.902,25.391,34.180,-18.555,0
15931.129,24.902,25.391,27.344,26.855,-18.555,0
15931.133,37.598,23.926,26.367,30.273,25.879,0
15931.137,47.363,23.926,24.902,43.457,55.664,0
15931.141,51.270,28.320,28.809,37.598,37.598,0
15931.145,44.434,24.902,34.180,31.250,16.113,0
15931.149,29.785,24.414,38.086,30.273,26.855,0
15931.153,32.227,30.762,34.180,33.203,34.668,0
15931.157,35.156,29.785,31.250,38.086,43.457,0
15931.161,27.344,31.738,35.156,29.785,0.977,0
15931.165,22.461,31.738,32.715,23.438,-34.180,0
15931.169,25.391,26.367,29.297,30.273,7.812,0
15931.172,31.250,25.391,29.785,40.527,-4.883,0
15931.176,31.250,28.320,30.762,32.227,-25.391,0
15931.180,35.645,35.156,33.691,24.414,41.016,0
15931.184,38.086,35.645,27.344,31.738,46.387,0
15931.188,37.598,29.785,23.926,27.832,89.355,0
15931.192,39.551,28.320,25.879,22.949,59.082,0
15931.196,29.297,32.227,24.414,25.879,5.371,0
15931.200,24.414,32.715,26.367,25.879,8.301,0
15931.204,34.180,29.785,24.414,30.762,-2.441,0
15931.208,29.785,31.250,21.973,25.879,-12.695,0
15931.212,23.926,33.203,24.902,22.949,-21.973,0
15931.215,41.016,28.320,27.344,27.832,1.953,0
15931.219,51.758,26.367,32.227,34.668,-4.883,0
15931.223,43.457,33.203,34.668,41.992,-30.762,0
15931.227,25.879,36.621,36.133,29.297,-20.508,0
15931.231,29.785,37.109,36.621,21.973,-23.438,0
15931.235,40.527,34.180,33.691,34.180,10.254,0
15931.239,34.668,31.738,34.180,35.645,48.340,0
15931.243,27.832,34.668,36.133,26.855,56.641,0
15931.247,24.902,36.133,39.062,21.973,42.969,0
15931.251,30.273,28.809,36.621,25.879,-11.230,0
15931.254,32.227,23.438,31.738,32.715,31.738,0
15931.258,37.598,31.738,33.691,26.367,51.758,0
15931.262,39.062,37.109,36.621,14.648,-29.785,0
15931.266,32.227,31.738,35.645,18.555,15.137,0
15931.270,34.180,27.832,32.227,21.973,24.414,0
15931.274,32.715,26.367,32.715,20.996,-46.387,0
15931.278,29.785,26.367,38.086,22.461,27.344,0
15931.282,25.879,26.855,38.086,27.344,65.430,0
15931.286,24.902,27.832,34.180,29.785,69.824,0
15931.290,33.691,29.297,34.668,36.621,30.762,0
15931.294,25.391,29.297,38.574,40.039,1.465,0
15931.297,14.160,30.273,39.062,29.297,37.598,0
15931.301,20.996,31.738,36.621,27.832,58.105,0
15931.305,27.832,32.715,34.668,26.367,21.484,0
15931.309,24.414,37.109,36.621,23.438,3.418,0
15931.313,19.043,37.109,40.527,19.531,70.312,0
15931.317,19.531,31.250,39.062,24.414,59.570,0
15931.321,35.645,33.203,41.504,41.992,40.527,0
15931.325,33.691,34.180,41.504,39.551,33.691,0
15931.329,20.508,27.832,41.504,21.484,13.672,0
15931.333,26.367,26.855,40.039,23.438,33.691,0
15931.337,39.551,34.180,36.621,37.109,-13.184,0
15931.340,48.340,36.621,41.504,39.551,-23.438,0
15931.344,41.992,42.480,41.504,29.297,20.020,0
15931.348,38.574,76.172,38.574,39.551,-31.250,0
15931.352,41.016,105.957,36.133,45.410,-3.418,0
15931.356,40.527,115.723,35.156,34.180,52.734,0
15931.360,41.992,123.535,40.527,26.367,21.973,0
15931.364,43.945,125.977,40.039,29.297,-19.531,0
15931.368,41.504,117.676,34.180,37.598,-14.648,0
15931.372,36.621,112.793,33.691,29.785,7.324,0
15931.376,27.832,115.234,34.668,29.785,44.922,0
15931.379,22.461,114.258,35.645,37.598,97.168,0
15931.383,21.973,109.375,34.668,37.109,43.945,0
15931.387,22.949,102.051,32.227,25.879,25.879,0
15931.391,26.367,96.191,31.250,16.602,81.543,0
15931.395,23.926,94.238,34.180,19.531,66.406,0
15931.399,33.691,89.355,33.691,29.785,28.320,0
15931.403,42.480,81.543,33.203,38.086,4.883,0
15931.407,37.109,83.008,40.039,39.062,-12.695,0
15931.411,29.785,88.379,41.992,36.621,12.695,0
15931.415,32.715,87.891,40.039,32.227,57.129,0
15931.419,43.457,82.520,38.086,32.227,60.547,0
15931.422,41.504,78.125,36.621,31.250,-5.859,0
15931.426,33.203,74.707,35.645,25.879,23.438,0
15931.430,30.762,69.824,35.156,31.738,38.086,0
15931.434,33.691,65.430,32.227,39.062,11.230,0
15931.438,34.668,62.012,30.273,40.039,77.148,0
15931.442,38.574,62.988,34.180,35.156,40.039,0
15931.446,40.527,66.406,39.062,27.344,-39.062,0
15931.450,37.598,63.965,35.645,35.156,-16.602,0
15931.454,40.527,60.059,30.762,43.945,1.953,0
15931.458,44.922,61.035,29.785,40.527,-20.508,0
15931.462,29.297,59.082,32.715,30.273,-49.316,0
15931.465,27.832,49.316,33.203,31.738,-20.508,0
15931.469,43.457,42.969,33.203,40.039,4.395,0
15931.473,42.480,44.922,31.250,37.109,49.805,0
15931.477,45.410,50.781,34.668,30.762,54.199,0
15931.481,45.410,51.270,38.574,27.832,20.996,0
15931.485,35.645,45.410,37.598,33.203,27.832,0
15931.489,39.062,42.969,38.086,44.434,20.996,0
15931.493,29.785,41.992,35.645,38.574,16.602,0
15931.497,20.508,41.016,32.715,20.508,39.062,0
15931.501,30.762,42.480,32.227,20.996,41.992,0
15931.504,27.344,41.016,31.250,21.484,13.672,0
15931.508,23.438,39.062,32.715,24.902,25.879,0
15931.512,29.297,42.969,35.645,28.320,-21.973,0
15931.516,38.086,43.457,34.180,25.391,-22.461,0
15931.520,35.645,41.016,33.691,41.504,61.035,0
15931.524,29.785,40.527,32.715,43.945,60.547,0
15931.528,27.832,41.016,29.785,22.949,22.949,0
15931.532,26.367,37.598,31.738,20.508,3.418,0
15931.536,37.109,35.645,34.180,29.297,52.246,0
15931.540,38.574,36.133,36.133,31.738,42.969,0
15931.544,21.973,35.645,36.621,26.855,45.898,0
15931.547,20.020,35.156,36.621,24.414,77.148,0
15931.551,34.668,33.203,35.156,41.016,43.945,0
15931.555,37.598,34.180,28.809,44.434,48.828,1
15931.559,33.691,37.598,26.855,17.578,59.082,0
15931.563,30.273,35.156,28.320,6.836,78.125,0
15931.567,25.879,32.227,29.785,20.996,96.191,0
15931.571,29.785,31.738,29.785,20.996,67.871,0
15931.575,22.461,30.762,31.738,23.438,24.414,0
15931.579,18.555,34.668,36.621,26.855,29.297,0
15931.583,29.785,32.715,33.203,18.066,5.859,0
15931.587,33.691,32.227,25.391,23.438,15.137,0
15931.590,20.020,35.156,24.414,24.902,-0.977,0
15931.594,11.230,35.156,27.344,23.926,-8.301,0
15931.598,20.996,32.715,31.250,29.297,16.113,0
15931.602,30.273,30.273,28.320,30.273,14.648,0
15931.606,29.785,29.297,23.438,30.762,41.504,0
15931.610,25.391,31.738,26.367,24.414,20.508,0
15931.614,24.902,34.668,30.762,16.113,20.996,0
15931.618,26.855,34.668,27.832,31.738,9.277,0
15931.622,21.973,31.738,25.879,36.621,-36.621,0
15931.626,18.555,29.785,27.832,32.227,8.301,0
15931.629,12.695,31.738,27.832,18.066,25.879,0
15931.633,17.578,32.227,24.902,7.324,41.504,0
15931.637,34.180,29.297,24.902,27.344,86.426,0
15931.641,30.273,26.367,28.320,29.785,61.035,0
15931.645,12.695,27.344,32.227,15.137,21.484,0
15931.649,17.090,27.344,33.203,26.367,26.367,0
15931.653,22.461,26.367,30.762,33.203,25.879,0
15931.657,22.461,29.297,32.227,27.832,-13.184,0
15931.661,15.625,30.762,32.227,29.297,-13.672,0
15931.665,6.836,31.250,27.344,23.438,31.250,0
15931.669,17.090,29.297,26.367,23.926,49.316,0
15931.672,20.020,26.367,28.809,20.508,72.266,0
15931.676,12.695,30.762,30.273,13.672,13.184,0
15931.680,13.184,33.691,29.785,21.973,-25.879,0
15931.684,19.043,30.762,28.809,31.250,34.668,0
15931.688,21.484,30.273,27.832,26.855,39.062,0
15931.692,19.043,26.367,29.297,13.184,56.152,0
15931.696,8.789,22.949,28.809,11.719,17.090,0
15931.700,12.207,32.227,24.414,28.809,-27.344,0
15931.704,25.391,38.574,24.414,33.203,-11.719,0
15931.708,27.832,36.133,27.832,19.531,-13.184,0
15931.712,19.531,37.109,27.344,10.254,-28.809,0
15931.715,13.184,39.062,25.391,18.066,-13.672,0
15931.719,22.461,38.086,26.855,32.227,-10.254,0
15931.723,24.414,36.133,27.832,33.691,21.484,0
15931.727,22.949,36.621,29.297,29.297,56.152,0
15931.731,27.832,33.691,28.320,23.438,94.727,0
15931.735,28.809,29.297,25.391,29.297,74.707,0
15931.739,23.926,33.203,28.320,33.203,30.762,0
15931.743,13.672,38.086,30.762,28.320,58.594,0
15931.747,9.766,36.133,28.809,17.090,15.137,0
15931.751,22.949,34.180,27.832,11.230,0.488,0
15931.754,21.973,34.180,23.438,16.602,60.547,0
15931.758,14.648,36.621,24.414,20.020,-18.555,0
15931.762,17.090,37.598,30.762,7.324,0.488,0
15931.766,26.367,33.203,29.297,5.859,26.367,0
15931.770,24.414,27.344,26.367,16.602,-78.613,0
15931.774,12.695,26.367,28.320,11.230,-45.410,0
15931.778,16.602,28.320,31.250,9.277,-18.555,0
15931.782,24.902,29.785,32.227,15.625,-11.230,0
15931.786,35.645,32.227,27.832,13.672,0.977,0
15931.790,37.598,34.668,27.832,24.414,-4.883,0
15931.794,24.414,36.133,31.250,27.344,29.297,0
15931.797,24.902,37.598,32.227,26.367,44.922,0
15931.801,38.574,37.598,28.809,32.227,88.379,0
15931.805,31.250,35.156,26.367,23.926,87.891,0
15931.809,17.578,30.762,26.855,23.926,51.270,0
15931.813,8.789,27.344,25.391,30.762,22.949,0
15931.817,0.977,27.344,23.926,34.180,59.570,0
15931.821,12.207,30.273,22.461,30.273,64.453,0
15931.825,20.996,32.227,22.949,22.461,-39.062,0
15931.829,21.973,37.109,29.785,20.020,-90.332,0
15931.833,31.738,37.598,30.273,21.973,-20.020,0
15931.837,45.898,32.715,26.855,27.344,51.270,0
15931.840,43.457,32.715,26.855,31.738,21.484,0
15931.844,27.832,35.156,25.879,23.926,4.395,0
15931.848,25.879,32.715,21.973,22.461,13.672,0
15931.852,35.156,27.344,17.090,34.180,20.996,0
15931.856,47.852,31.250,22.949,36.133,10.254,0
15931.860,48.340,40.039,31.738,31.738,8.301,0
15931.864,42.480,37.109,31.738,30.273,16.113,0
15931.868,41.504,35.156,26.855,42.969,39.062,0
15931.872,40.527,36.621,28.809,47.363,18.066,0
15931.876,34.668,34.668,29.785,31.250,5.859,0
15931.879,35.156,36.133,28.320,27.344,17.578,0
15931.883,44.434,35.645,28.320,39.062,2.441,0
15931.887,41.504,32.715,25.391,40.039,21.484,0
15931.891,38.086,31.738,29.297,35.645,51.758,0
15931.895,37.109,27.344,36.621,26.367,17.090,0
15931.899,30.273,26.855,37.598,30.762,5.859,0
15931.903,36.133,29.785,35.645,48.828,62.012,0
15931.907,38.086,32.715,33.203,37.598,29.785,0
15931.911,33.203,35.645,34.668,21.973,-35.156,0
15931.915,36.621,34.180,37.109,22.461,22.461,0
15931.919,41.016,31.250,34.668,30.762,68.848,0
15931.922,39.062,32.227,35.645,39.551,67.383,0
15931.926,35.156,35.156,37.598,31.738,40.039,0
15931.930,34.180,36.621,36.133,26.855,28.320,0
15931.934,35.645,35.645,33.203,36.621,47.852,0
15931.938,36.621,31.738,34.180,48.340,42.480,0
15931.942,28.809,31.250,36.133,35.156,51.270,0
15931.946,20.020,34.180,29.785,18.555,45.898,0
15931.950,21.484,36.133,26.367,24.414,47.852,0
15931.954,27.344,35.156,27.344,30.762,-32.227,0
15931.958,22.461,34.668,26.367,32.715,5.859,0
15931.962,19.531,33.203,25.879,41.016,64.453,0
15931.965,31.250,30.762,28.320,41.016,8.301,0
15931.969,41.016,32.227,29.297,37.598,1.465,0
15931.973,31.738,31.738,27.832,37.598,-10.254,0
15931.977,20.996,27.344,29.297,30.273,43.457,0
15931.981,33.203,31.738,30.762,26.367,17.578,0
15931.985,41.504,32.715,27.344,29.297,-51.270,0
15931.989,37.109,30.273,27.344,37.598,-0.977,0
15931.993,27.832,32.715,28.809,38.574,35.645,0
15931.997,21.484,38.086,27.832,38.574,42.969,0
15932.001,33.203,39.062,26.367,40.527,21.484,0
15932.004,31.738,31.738,24.414,33.203,6.836,0
15932.008,16.602,28.320,24.414,22.949,42.480,0
15932.012,21.973,32.227,25.879,26.367,-1.953,0
15932.016,38.574,27.344,24.902,34.180,-0.488,0
15932.020,42.969,24.902,20.996,32.227,60.547,0
15932.024,31.250,33.203,20.508,33.203,48.828,0
15932.028,25.391,37.109,25.391,30.273,-24.902,0
15932.032,27.832,37.598,28.809,29.297,-12.695,0
15932.036,33.691,37.109,24.902,33.203,48.340,0
15932.040,35.156,35.645,25.391,32.715,65.918,0
15932.044,26.367,35.156,28.809,24.902,51.758,0
15932.047,18.066,32.715,27.832,17.578,32.227,0
15932.051,29.785,29.785,23.438,29.785,38.086,0
15932.055,36.133,33.203,20.508,38.086,17.090,0
15932.059,26.367,36.621,20.508,27.344,24.414,0
15932.063,18.066,35.156,20.996,20.020,81.055,0
15932.067,30.273,30.762,21.484,22.949,16.113,0
15932.071,40.039,29.297,23.926,36.621,-30.762,0
15932.075,31.250,32.227,30.273,35.645,47.363,0
15932.079,26.367,38.086,32.715,26.367,47.852,0
15932.083,24.414,35.645,31.250,30.273,14.648,0
15932.087,27.832,26.855,29.297,34.180,20.508,0
15932.090,33.203,26.855,29.785,29.297,-0.488,0
15932.094,17.090,33.203,31.738,21.484,-16.602,0
15932.098,3.906,30.762,32.227,17.090,-16.113,0
15932.102,13.184,27.344,28.809,21.973,9.277,0
15932.106,21.973,32.715,27.344,32.227,24.414,0
15932.110,15.625,34.180,32.715,27.344,71.289,0
15932.114,11.230,32.227,33.691,20.020,47.852,2
15932.118,26.367,29.297,28.320,25.879,27.832,0
15932.122,26.855,30.762,25.879,29.785,4.395,0
15932.126,20.996,33.691,25.391,15.137,-43.945,0
15932.129,19.531,31.250,29.297,9.766,5.371,0
15932.133,21.484,28.320,32.715,23.438,23.926,0
15932.137,23.438,24.902,33.691,24.902,9.766,0
15932.141,8.789,29.297,33.691,20.020,69.336,0
15932.145,16.113,34.180,33.691,14.160,58.105,0
15932.149,31.250,30.762,35.156,14.160,34.180,0
15932.153,26.855,27.344,35.645,24.414,40.039,0
15932.157,18.066,28.320,35.645,33.691,11.230,0
15932.161,9.277,27.832,34.668,33.691,-8.301,0
15932.165,8.789,24.902,34.668,26.367,3.906,0
15932.169,21.484,21.973,34.668,30.762,21.973,0
15932.172,31.738,22.461,32.227,30.762,63.477,0
15932.176,22.461,30.762,33.691,25.879,58.594,0
15932.180,10.254,38.574,38.086,24.902,28.809,0
15932.184,15.137,33.691,34.180,22.949,5.371,0
15932.188,18.066,27.832,31.250,31.250,-41.504,0
15932.192,15.137,27.832,33.203,33.203,30.762,0
15932.196,11.719,25.879,34.180,20.020,83.496,0
15932.200,14.160,26.367,33.203,22.461,23.926,0
15932.204,23.438,23.438,29.297,29.297,13.184,0
15932.208,24.902,25.391,29.297,32.227,28.809,0
15932.212,15.137,28.320,31.250,25.879,12.207,0
15932.215,12.695,26.367,27.344,26.855,33.203,0
15932.219,29.297,30.273,27.832,30.762,51.270,0
15932.223,27.832,37.109,29.297,39.551,6.348,0
15932.227,15.137,41.504,29.297,31.250,-3.906,0
15932.231,16.113,37.109,28.320,9.277,-30.762,0
15932.235,20.020,32.227,24.902,20.508,-34.668,0
15932.239,20.996,32.227,23.438,28.320,49.805,0
15932.243,17.090,33.691,27.832,34.180,65.430,0
15932.247,16.602,32.715,32.715,32.715,-9.277,0
15932.251,27.344,29.297,29.785,36.133,-27.832,0
15932.254,34.180,26.855,28.809,42.969,14.160,0
15932.258,37.598,31.250,32.715,30.762,24.414,0
15932.262,32.715,38.574,32.715,27.344,-3.906,0
15932.266,23.438,35.156,30.762,33.203,-7.324,0
15932.270,31.738,31.250,28.320,40.039,25.391,0
15932.274,34.180,33.203,26.367,39.062,-15.137,0
15932.278,24.902,38.086,29.297,29.785,-3.418,0
15932.282,18.066,36.621,27.832,18.066,20.020,0
15932.286,16.602,24.902,21.973,30.273,28.320,0
15932.290,11.230,24.414,21.973,47.852,67.383,0
15932.294,2.441,31.250,25.391,24.902,41.016,0
15932.297,7.324,34.668,25.879,13.184,-33.691,0
15932.301,20.020,36.621,23.926,29.297,-3.418,0
15932.305,24.414,35.645,21.973,31.738,34.668,0
15932.309,19.043,34.180,22.949,22.461,4.883,0
15932.313,8.789,30.762,24.414,12.695,-9.277,0
15932.317,21.484,26.367,26.367,22.949,0.977,0
15932.321,40.527,24.902,23.926,43.945,42.480,0
15932.325,29.297,25.879,24.414,41.504,91.797,0
15932.329,20.508,23.926,29.297,32.715,20.996,0
15932.333,22.949,20.020,29.297,35.645,-9.766,0
15932.337,25.391,21.973,30.273,31.250,-21.973,0
15932.340,26.855,28.809,32.715,31.250,-40.527,0
15932.344,23.926,32.227,30.273,26.855,57.617,0
15932.348,20.508,30.762,29.297,23.438,39.551,0
15932.352,22.949,28.809,26.855,32.715,19.043,0
15932.356,24.902,27.832,21.973,31.250,73.730,0
15932.360,24.414,27.832,25.879,25.879,54.199,0
15932.364,27.832,26.367,31.738,28.809,56.641,0
15932.368,35.645,27.832,26.367,35.156,73.242,0
15932.372,32.715,28.809,20.508,33.203,13.672,0
15932.376,25.391,27.832,23.926,29.785,20.508,0
15932.379,24.414,30.762,28.809,23.926,41.504,0
15932.383,29.785,33.203,29.297,24.414,54.199,0
15932.387,38.086,30.273,25.879,31.738,48.340,0
15932.391,36.133,27.832,25.391,38.574,14.160,0
15932.395,24.902,28.809,28.320,29.785,31.738,0
15932.399,23.438,29.297,25.879,26.367,33.203,0
15932.403,37.109,25.879,22.461,29.297,27.344,0
15932.407,32.715,21.973,24.902,17.090,30.273,0
15932.411,19.043,28.320,30.762,11.719,61.523,0
15932.415,21.973,37.109,33.691,27.344,63.477,0
15932.419,31.250,32.227,31.738,44.434,28.320,0
15932.422,29.785,25.879,30.762,36.133,26.855,0
15932.426,19.043,26.367,33.203,19.043,40.527,0
15932.430,22.949,26.855,35.156,24.414,-35.156,0
15932.434,22.949,24.414,30.273,31.250,-31.738,0
15932.438,18.555,24.414,28.320,26.367,63.477,0
15932.442,22.949,28.809,32.715,22.461,38.086,0
15932.446,12.695,23.438,30.273,22.949,19.531,0
15932.450,10.742,20.996,29.785,27.832,1.953,0
15932.454,15.625,28.320,30.762,28.320,21.484,0
15932.458,7.812,32.227,27.832,20.508,-5.371,0
15932.462,6.836,34.180,28.809,19.531,-32.715,0
15932.465,12.695,33.203,26.855,23.438,31.250,0
15932.469,22.461,30.273,23.438,29.297,71.777,0
15932.473,31.738,29.785,23.926,23.438,91.797,0
15932.477,23.926,32.227,26.367,13.184,4.395,0
15932.481,19.043,31.250,23.438,11.719,21.484,0
15932.485,24.902,28.809,21.973,22.949,54.688,0
15932.489,28.809,34.180,27.344,26.855,12.695,0
15932.493,29.297,41.016,31.738,25.879,8.789,0
15932.497,32.715,43.945,29.785,26.367,6.836,0
15932.501,41.016,41.504,27.832,33.203,51.270,0
15932.504,39.062,36.133,27.832,37.598,47.852,0
15932.508,23.438,36.621,25.391,19.531,17.090,0
15932.512,11.719,36.133,24.414,12.695,68.359,0
15932.516,17.090,30.273,24.902,23.926,78.125,0
15932.520,31.738,30.273,24.414,29.785,39.062,0
15932.524,25.879,30.762,26.367,29.297,-23.926,0
15932.528,19.531,28.809,32.715,29.297,-34.180,0
15932.532,24.902,30.762,33.691,31.250,16.602,0
15932.536,20.020,31.250,29.297,35.156,11.719,0
15932.540,17.090,33.203,28.320,27.344,-2.441,0
15932.544,17.090,35.156,27.344,18.555,10.742,0
15932.547,20.508,34.668,21.973,19.531,12.207,0
15932.551,23.438,34.180,17.090,23.438,6.348,0
15932.555,23.438,35.156,20.508,18.066,24.902,0
15932.559,26.855,37.598,28.320,12.207,-0.488,0
15932.563,28.809,36.133,30.762,12.207,-46.387,0
15932.567,33.691,29.785,27.832,21.973,40.039,0
15932.571,35.645,27.832,23.438,26.367,54.688,0
15932.575,31.250,34.180,24.902,16.113,20.508,0
15932.579,29.785,38.574,28.320,16.602,19.043,0
15932.583,37.598,35.645,21.973,17.578,27.344,0
15932.587,36.621,34.180,14.648,19.043,47.363,0
15932.590,35.645,37.109,19.531,23.926,25.879,0
15932.594,25.879,36.621,26.367,27.832,3.906,0
15932.598,21.484,36.621,26.855,32.715,-11.230,0
15932.602,30.762,36.133,23.438,36.133,59.570,0
15932.606,38.086,35.645,23.438,38.086,73.730,0
15932.610,29.785,38.086,25.879,27.344,-1.465,0
15932.614,17.090,33.691,27.344,20.020,-22.461,0
15932.618,24.414,33.691,27.344,40.039,20.020,0
15932.622,27.832,37.598,25.391,45.410,47.852,0
15932.626,20.996,39.062,26.855,28.809,54.688,0
15932.629,19.043,41.016,28.320,21.973,21.484,0
15932.633,26.367,39.551,22.461,25.879,-15.137,0
15932.637,36.133,40.527,22.461,29.297,42.480,0
15932.641,32.227,43.945,28.320,29.785,83.008,0
15932.645,21.973,41.016,28.320,24.902,39.062,0
15932.649,17.090,35.645,26.367,29.297,-25.879,0
15932.653,28.809,35.156,20.996,37.598,-1.953,0
15932.657,25.391,41.504,19.531,29.785,72.754,0
15932.661,11.719,43.457,28.320,23.438,82.520,0
15932.665,21.973,40.039,31.250,23.926,75.684,0
15932.669,27.832,37.109,29.297,26.855,64.941,0
15932.672,21.973,37.598,28.809,30.762,-9.277,0
15932.676,16.602,38.086,28.320,22.461,-6.836,0
15932.680,20.020,37.598,31.738,23.438,34.668,0
15932.684,24.902,31.250,29.297,27.832,45.410,0
15932.688,23.438,26.367,22.461,25.879,31.250,0
15932.692,16.602,31.738,23.926,22.461,40.039,0
15932.696,20.996,35.645,26.855,23.926,13.672,0
15932.700,36.621,34.180,27.832,29.297,10.254,0
15932.704,38.574,34.668,27.344,28.809,-17.578,0
15932.708,32.715,34.668,24.902,26.855,-60.547,0
15932.712,25.879,35.156,23.926,21.484,15.625,0
15932.715,28.320,35.645,23.926,26.367,18.555,0
15932.719,38.574,33.203,23.926,30.273,-26.855,0
15932.723,38.086,27.344,23.438,22.949,-27.344,0
15932.727,31.738,28.320,23.926,26.367,39.551,0
15932.731,35.156,33.203,23.926,18.066,27.832,0
15932.735,40.527,33.203,19.531,14.648,-12.207,0
15932.739,39.551,36.133,19.043,23.926,-9.766,0
15932.743,30.273,41.016,23.926,19.531,-7.324,0
15932.747,28.320,38.574,27.832,18.555,17.578,0
15932.751,38.574,33.203,29.785,36.621,27.832,0
15932.754,49.805,33.691,30.273,46.875,10.742,0
15932.758,41.016,32.227,29.297,26.367,-35.645,0
15932.762,23.438,31.250,28.320,17.090,-18.555,0
15932.766,27.344,35.645,28.320,32.227,34.180,0
15932.770,35.645,37.598,28.809,54.688,35.156,0
15932.774,40.527,38.574,31.250,48.340,1.465,0
15932.778,40.527,41.016,35.645,32.715,0.000,0
15932.782,39.062,38.574,36.133,29.297,27.832,0
15932.786,42.480,37.598,32.227,41.992,49.316,0
15932.790,46.875,37.598,30.762,48.828,12.695,0
15932.794,48.340,36.133,32.715,30.273,-22.949,0
15932.797,44.434,32.227,33.691,29.297,-0.977,0
15932.801,42.969,30.273,30.762,42.969,51.270,0
15932.805,43.945,35.156,28.809,44.434,52.734,0
15932.809,42.969,40.527,30.273,36.621,48.828,0
15932.813,40.527,40.039,31.738,36.133,50.781,0
15932.817,36.133,36.133,29.785,33.203,-5.859,1
15932.821,37.598,35.156,25.879,22.949,-18.555,0
15932.825,35.645,34.180,24.414,24.414,17.578,0
15932.829,21.484,36.621,27.832,24.902,30.273,0
15932.833,19.043,35.156,28.809,29.297,78.125,0
15932.837,25.391,29.785,26.855,34.668,92.285,0
15932.840,22.949,28.320,24.902,28.320,52.246,0
15932.844,21.973,33.691,23.926,18.066,-3.906,0
15932.848,21.484,38.086,26.367,25.391,-51.758,0
15932.852,29.297,34.180,30.762,39.062,-24.902,0
15932.856,37.598,30.273,31.250,34.180,39.551,0
15932.860,30.273,30.273,29.297,23.926,63.965,0
15932.864,29.297,30.762,30.762,28.320,62.988,0
15932.868,36.133,30.762,29.785,41.016,35.156,0
15932.872,38.086,28.809,28.320,36.621,-4.883,0
15932.876,41.016,31.250,28.809,28.320,-41.504,0
15932.879,37.598,36.133,30.762,27.344,0.488,0
15932.883,41.016,35.645,29.785,39.551,42.480,0
15932.887,47.363,34.668,26.367,39.551,16.113,0
15932.891,37.109,35.645,28.809,35.156,52.734,0
15932.895,29.785,35.645,28.320,25.391,44.922,0
15932.899,34.668,34.180,25.879,27.344,-3.418,0
15932.903,42.480,34.180,26.367,42.969,74.219,0
15932.907,49.316,35.156,25.391,45.898,76.660,0
15932.911,40.039,34.180,24.902,45.898,-17.090,0
15932.915,36.621,30.762,24.902,30.273,-22.461,0
15932.919,48.828,32.715,26.855,26.855,-22.949,0
15932.922,46.387,34.668,28.809,27.832,-17.578,0
15932.926,33.691,37.109,27.832,21.484,-38.086,0
15932.930,25.879,37.109,26.855,18.066,-84.473,0
15932.934,30.762,33.691,25.879,28.320,26.367,0
15932.938,33.203,34.668,29.297,36.621,86.426,0
15932.942,20.996,38.574,33.203,23.438,34.180,0
15932.946,17.090,37.598,35.645,21.484,32.227,0
15932.950,28.320,38.086,35.645,26.855,34.668,0
15932.954,36.621,32.227,32.227,32.715,38.574,0
15932.958,31.250,28.320,31.250,34.668,61.035,0
15932.962,27.832,39.551,35.645,26.367,56.641,0
15932.965,30.762,38.574,29.785,18.066,84.473,0
15932.969,37.109,30.762,24.902,31.250,95.703,0
15932.973,34.668,29.785,26.855,38.086,17.090,0
15932.977,24.902,33.691,31.738,25.391,-7.812,0
15932.981,20.020,33.203,34.180,24.414,4.395,0
15932.985,24.902,28.809,28.320,27.344,41.504,0
15932.989,29.785,28.320,23.926,26.367,48.340,0
15932.993,21.484,29.297,25.879,22.461,-14.160,0
15932.997,13.184,32.715,30.273,28.320,23.438,0
15933.001,20.508,27.832,27.344,31.250,26.367,0
15933.004,28.320,23.438,22.949,24.414,-3.906,0
15933.008,26.855,31.250,25.879,25.879,8.301,0
15933.012,22.949,35.645,27.344,19.531,27.344,0
15933.016,22.949,29.297,27.344,20.996,-28.320,0
15933.020,29.297,28.809,30.762,35.156,-42.480,0
15933.024,25.391,33.203,33.203,30.273,34.668,0
15933.028,13.184,35.156,27.832,12.207,20.996,0
15933.032,11.230,31.250,23.438,20.508,28.320,0
15933.036,15.137,25.879,26.367,33.203,40.527,0
15933.040,19.531,32.227,26.855,28.320,9.766,0
15933.044,23.926,39.062,30.273,20.020,14.648,0
15933.047,26.855,38.574,29.785,19.043,-32.715,0
15933.051,33.203,36.621,24.414,33.691,-7.812,0
15933.055,32.227,34.668,23.926,38.086,22.949,0
15933.059,21.973,34.668,25.391,21.973,-24.414,0
15933.063,14.648,36.621,25.391,15.625,29.785,0
15933.067,15.625,35.156,24.902,18.066,19.531,0
15933.071,21.973,33.203,23.438,16.113,14.160,0
15933.075,18.066,33.203,22.461,26.367,9.277,0
15933.079,16.602,38.086,27.344,28.320,21.973,0
15933.083,34.668,41.016,28.320,23.926,-8.789,0
15933.087,38.574,41.992,23.926,25.391,9.277,0
15933.090,28.809,40.039,23.438,24.414,126.465,0
15933.094,25.391,38.574,32.227,28.320,61.035,0
15933.098,29.785,42.969,35.645,36.621,6.836,0
15933.102,40.527,39.062,29.297,36.621,66.895,0
15933.106,31.738,34.180,23.926,27.832,67.383,0
15933.110,22.461,35.645,24.414,16.602,3.906,0
15933.114,26.855,31.738,24.414,19.043,1.953,0
15933.118,34.668,30.273,27.344,27.344,6.348,0
15933.122,37.598,33.691,29.297,33.203,21.973,0
15933.126,27.344,34.180,27.832,32.227,28.809,0
15933.129,19.531,33.691,24.902,13.672,31.738,0
15933.133,24.902,34.180,22.461,15.625,40.527,0
15933.137,31.738,34.668,24.902,26.367,35.645,0
15933.141,28.809,31.738,27.344,20.020,35.156,0
15933.145,20.508,30.273,28.320,17.090,56.641,0
15933.149,17.578,29.297,27.344,23.926,41.992,0
15933.153,21.484,28.320,24.902,26.855,18.066,0
15933.157,16.602,32.227,23.438,24.902,-14.648,0
15933.161,8.301,32.715,25.391,17.090,-63.477,0
15933.165,3.906,25.879,22.949,2.930,4.883,0
15933.169,8.789,27.344,16.113,12.207,23.926,0
15933.172,10.254,34.180,18.066,27.832,21.973,0
15933.176,-9.766,36.621,21.484,24.902,10.742,0
15933.180,-17.090,36.133,22.461,15.625,39.062,0
15933.184,-8.789,32.227,19.531,18.555,96.680,0
15933.188,-12.207,30.762,16.602,33.691,33.691,0
15933.192,-27.832,32.715,17.578,26.367,17.090,0
15933.196,-29.785,32.715,20.020,10.254,24.902,0
15933.200,-21.484,32.227,18.555,16.602,-8.789,0
15933.204,-22.461,29.297,14.648,20.508,24.902,0
15933.208,-17.578,29.297,17.090,27.832,34.668,0
15933.212,-20.020,29.785,20.508,24.414,8.301,0
15933.215,-25.879,26.367,18.555,13.184,-17.578,0
15933.219,-17.578,27.344,15.137,16.113,-28.320,0
15933.223,-13.184,31.738,16.113,32.227,45.898,0
15933.227,-13.672,35.156,20.020,25.391,56.641,0
15933.231,0.488,33.691,23.438,12.207,0.000,0
15933.235,14.648,31.250,21.484,26.367,17.090,0
15933.239,9.277,31.738,19.043,27.832,17.578,0
15933.243,3.418,34.180,21.484,16.602,47.852,0
15933.247,8.789,34.668,24.414,24.414,58.105,0
15933.251,16.602,28.320,24.902,40.527,17.090,0
15933.254,16.113,25.879,20.996,35.156,43.945,0
15933.258,3.906,31.250,17.578,34.668,47.363,0
15933.262,-3.418,33.691,20.508,23.926,11.719,0
15933.266,9.277,29.785,21.484,15.137,19.043,0
15933.270,16.602,27.344,16.113,25.879,19.531,0
15933.274,17.578,29.297,16.113,21.973,44.434,0
15933.278,16.113,33.203,21.484,26.855,15.625,0
15933.282,19.531,37.598,26.367,27.344,-2.930,0
15933.286,22.949,37.598,25.879,22.949,15.625,0
15933.290,15.137,35.156,22.949,25.879,55.176,0
15933.294,16.113,31.738,25.391,24.902,61.523,0
15933.297,22.461,32.227,25.391,20.996,20.996,0
15933.301,28.809,34.668,22.949,22.949,-52.734,0
15933.305,25.391,34.668,19.531,22.461,-19.043,0
15933.309,21.484,36.621,22.949,24.902,15.137,0
15933.313,21.484,35.645,28.320,27.832,8.789,0
15933.317,28.320,32.715,28.320,35.645,41.016,0
15933.321,29.785,35.156,30.273,36.133,77.148,0
15933.325,16.602,36.133,28.809,16.113,78.613,0
15933.329,10.254,33.691,29.785,12.207,44.434,0
15933.333,21.484,35.156,30.273,22.949,49.316,0
15933.337,30.273,39.551,25.879,37.109,24.902,0
15933.340,26.367,43.945,25.391,35.156,5.859,1
15933.344,10.742,42.969,24.414,24.414,7.324,0
15933.348,7.324,40.527,25.391,23.926,15.137,0
15933.352,20.508,41.504,25.391,32.715,13.184,0
15933.356,24.902,41.016,23.926,29.785,69.824,0
15933.360,18.555,41.992,25.879,19.531,30.273,0
15933.364,19.531,44.434,27.344,18.555,-62.012,0
15933.368,36.621,41.016,22.949,29.297,-9.277,0
15933.372,38.086,32.715,23.926,35.156,8.789,0
15933.376,26.855,32.715,30.762,24.414,-5.371,0
15933.379,30.273,41.992,32.715,20.508,-5.859,0
15933.383,35.645,43.457,30.273,26.367,25.879,0
15933.387,40.527,39.551,26.855,36.133,34.668,0
15933.391,40.527,41.504,25.391,28.320,-17.578,0
15933.395,33.203,44.922,27.832,18.066,8.789,0
15933.399,38.086,46.387,29.785,30.762,43.457,0
15933.403,41.992,41.504,26.855,43.457,57.617,0
15933.407,44.922,38.086,23.438,25.879,32.227,0
15933.411,41.992,40.039,24.414,17.090,-26.855,0
15933.415,32.227,34.668,22.461,27.832,-14.648,0
15933.419,33.691,35.156,20.996,33.691,-6.836,0
15933.422,31.250,38.086,22.949,32.227,-33.691,0
15933.426,23.926,36.133,24.414,20.020,43.945,0
15933.430,24.902,38.574,26.367,12.695,49.316,0
15933.434,26.855,38.574,26.855,23.438,67.871,0
15933.438,36.621,35.645,28.320,28.320,41.016,0
15933.442,34.668,36.133,27.832,23.438,19.043,0
15933.446,19.043,37.598,23.926,21.973,39.551,0
15933.450,28.320,34.668,20.020,20.996,-36.133,0
15933.454,36.133,29.297,16.602,21.973,33.203,0
15933.458,27.344,31.250,19.531,20.508,86.426,0
15933.462,20.996,38.086,24.414,18.066,-1.953,0
15933.465,26.367,38.086,22.461,26.367,-15.137,0
15933.469,36.621,37.109,21.973,27.344,26.855,0
15933.473,28.320,37.109,22.461,22.949,30.762,0
15933.477,26.855,36.621,26.367,28.809,-16.602,0
15933.481,29.785,33.203,29.297,28.320,-2.930,0
15933.485,28.320,28.809,23.926,24.414,42.480,0
15933.489,29.297,31.738,22.461,35.156,4.395,0
15933.493,23.926,35.645,24.902,33.203,39.551,0
15933.497,21.484,33.203,27.344,23.438,51.758,0
15933.501,36.133,33.691,26.367,30.273,16.113,0
15933.504,42.969,37.598,25.879,36.621,12.207,0
15933.508,27.832,37.598,25.879,19.531,14.160,0
15933.512,18.066,35.156,20.508,-0.977,-9.766,0
15933.516,31.738,35.156,20.508,11.230,-0.977,0
15933.520,42.969,38.086,22.461,24.414,61.523,0
15933.524,32.715,39.062,22.461,26.855,52.734,0
15933.528,27.832,38.086,28.809,24.902,14.160,0
15933.532,40.527,36.133,31.250,22.949,-7.324,0
15933.536,39.062,32.715,28.320,26.367,24.414,0
15933.540,28.809,32.227,30.273,29.785,40.527,0
15933.544,29.785,33.203,29.785,32.227,3.418,0
15933.547,32.227,38.086,27.832,23.926,-9.766,0
15933.551,41.504,38.574,25.879,29.297,16.602,0
15933.555,45.898,35.156,24.902,31.738,30.762,0
15933.559,36.621,36.621,25.391,28.809,7.812,0
15933.563,32.227,38.086,24.414,32.227,-7.324,0
15933.567,35.645,36.133,23.438,34.668,16.602,0
15933.571,32.715,34.180,21.973,41.992,21.484,0
15933.575,17.578,34.668,21.484,24.902,31.738,0
15933.579,14.648,37.598,21.973,8.301,30.273,0
15933.583,21.484,34.668,20.508,18.066,33.691,0
15933.587,27.832,28.809,17.578,34.668,27.344,0
15933.590,29.785,32.227,20.508,41.504,-9.277,0
15933.594,23.438,33.203,21.973,34.668,9.277,0
15933.598,21.973,32.715,22.461,30.762,36.133,0
15933.602,27.832,33.691,22.949,24.902,11.230,0
15933.606,33.203,31.250,22.461,25.879,-6.836,0
15933.610,32.715,32.227,22.949,20.996,15.625,0
15933.614,33.691,35.645,23.926,18.555,33.691,0
15933.618,36.133,30.273,22.949,31.738,13.672,0
15933.622,45.898,26.367,24.414,43.457,-12.207,0
15933.626,42.480,28.320,26.855,32.227,-14.648,0
15933.629,27.344,29.785,26.367,25.879,36.621,0
15933.633,25.391,26.367,22.461,40.039,23.438,0
15933.637,29.785,23.926,18.555,35.156,13.672,0
15933.641,29.785,27.344,21.484,25.391,53.711,0
15933.645,28.809,29.785,19.531,20.508,44.922,0
15933.649,32.715,28.809,17.578,22.949,5.371,0
15933.653,37.109,27.832,20.020,28.809,-1.465,0
15933.657,34.180,27.832,18.555,23.438,39.551,0
15933.661,31.738,31.738,20.508,28.320,63.477,0
15933.665,29.785,28.809,22.949,34.668,30.762,0
15933.669,35.645,21.973,18.066,19.531,30.273,0
15933.672,42.480,25.391,14.160,15.137,62.500,0
15933.676,28.320,28.320,14.648,22.461,96.191,0
15933.680,27.832,28.809,15.625,15.137,49.805,0
15933.684,34.180,26.367,14.160,19.043,-20.020,0
15933.688,37.598,22.461,14.648,33.691,-8.301,0
15933.692,44.434,25.391,16.113,30.762,19.043,0
15933.696,31.738,29.785,15.625,20.508,54.688,0
15933.700,28.320,27.832,14.160,18.066,30.762,0
15933.704,41.992,27.832,11.719,29.297,18.555,0
15933.708,40.039,30.273,11.230,30.273,2.441,0
15933.712,25.879,28.809,14.160,19.043,2.930,0
15933.715,16.602,27.344,16.113,24.414,-0.488,0
15933.719,27.832,27.344,17.090,35.156,11.230,0
15933.723,28.809,27.832,17.090,22.949,62.012,0
15933.727,21.973,29.297,12.695,13.672,22.461,0
15933.731,24.414,30.762,10.254,20.508,63.965,0
15933.735,19.531,29.785,9.277,17.090,36.621,0
15933.739,26.855,32.227,14.160,21.973,11.230,0
15933.743,30.762,37.109,18.555,19.531,74.707,0
15933.747,23.926,35.645,17.090,8.789,14.160,0
15933.751,30.762,31.250,16.113,19.043,-10.742,0
15933.754,32.715,27.832,14.160,24.902,-16.602,0
15933.758,14.648,29.785,16.602,18.066,2.441,0
15933.762,15.137,36.621,22.949,18.066,43.945,0
15933.766,20.508,36.621,20.508,24.414,16.602,0
15933.770,25.879,34.180,18.555,26.855,-39.062,0
15933.774,14.648,35.156,20.996,24.902,-2.441,0
15933.778,5.371,38.574,22.949,17.578,33.203,0
15933.782,19.043,39.551,24.414,18.066,8.301,0
15933.786,33.691,37.598,26.367,25.879,-0.977,0
15933.790,40.039,39.062,28.809,22.949,-7.324,0
15933.794,24.902,39.062,29.297,18.066,54.199,0
15933.797,13.184,35.156,30.762,20.508,78.125,0
15933.801,22.949,33.691,27.344,21.973,-18.555,0
15933.805,31.738,34.180,21.484,18.555,-32.715,0
15933.809,23.926,40.039,23.926,15.137,11.719,0
15933.813,10.254,39.551,26.367,12.695,-3.906,0
15933.817,16.113,37.598,23.926,28.809,21.973,0
15933.821,30.273,38.086,23.926,35.645,44.434,0
15933.825,25.879,35.645,25.879,29.785,18.066,0
15933.829,24.902,36.621,27.832,24.902,27.832,0
15933.833,32.227,31.738,25.391,10.254,26.367,0
15933.837,37.109,26.855,21.973,19.531,42.480,0
15933.840,25.879,30.762,22.461,24.414,76.660,0
15933.844,16.113,34.180,25.391,20.996,59.570,0
15933.848,23.926,34.180,26.855,27.832,-10.254,0
15933.852,29.785,30.273,21.484,36.621,27.832,2
15933.856,27.832,30.273,18.555,27.832,108.398,0
15933.860,25.879,35.156,22.949,21.973,71.777,0
15933.864,31.738,33.691,23.438,25.391,14.160,0
15933.868,39.062,33.203,19.531,22.461,-24.414,0
15933.872,33.691,33.203,19.531,21.973,-20.996,0
15933.876,23.926,26.367,20.508,18.066,9.766,0
15933.879,11.230,28.320,25.391,13.672,-20.020,0
15933.883,17.090,34.180,25.879,29.297,-63.965,0
15933.887,31.250,36.133,26.855,38.574,-20.996,0
15933.891,26.855,37.598,29.785,36.133,-49.316,0
15933.895,16.113,37.109,25.879,31.738,-69.336,0
15933.899,23.438,39.062,25.391,29.297,29.297,0
15933.903,34.668,39.551,24.902,32.227,45.898,0
15933.907,31.250,34.668,23.926,24.414,22.949,0
15933.911,27.344,35.645,28.320,20.508,69.336,0
15933.915,28.320,35.645,30.273,27.832,90.332,0
15933.919,34.668,29.785,29.297,32.227,79.590,0
15933.922,30.273,29.785,27.344,16.113,82.520,0
15933.926,18.066,34.180,26.855,7.812,40.039,0
15933.930,19.531,36.133,27.344,15.137,23.926,0
15933.934,25.879,33.203,25.879,21.484,74.219,0
15933.938,28.809,31.250,27.832,29.297,61.523,0
15933.942,25.391,34.180,35.645,29.785,6.836,0
15933.946,21.973,35.156,36.133,18.066,43.945,0
15933.950,28.809,32.227,31.250,20.020,-3.906,0
15933.954,36.621,27.344,26.855,24.414,-57.617,0
15933.958,32.227,23.926,24.902,22.949,23.438,0
15933.962,24.902,28.809,26.855,20.996,45.898,0
15933.965,27.832,31.250,28.320,26.367,4.395,0
15933.969,27.832,31.250,29.297,25.879,18.555,0
15933.973,27.344,35.645,30.273,27.832,9.277,0
15933.977,21.484,37.109,29.297,29.297,-17.578,0
15933.981,17.578,32.227,29.297,32.715,43.945,0
15933.985,30.273,27.832,29.297,33.203,57.129,0
15933.989,39.551,27.344,28.809,22.949,-3.418,0
15933.993,28.809,31.250,32.227,17.090,11.719,0
15933.997,15.137,32.715,33.691,14.160,29.297,0
15934.001,22.949,32.227,28.320,17.578,-2.441,0
15934.004,22.461,27.344,25.879,16.113,-13.672,0
15934.008,15.137,20.508,28.809,7.812,-14.160,0
15934.012,19.043,22.461,33.203,7.324,26.855,0
15934.016,24.902,28.809,31.738,18.555,51.758,0
15934.020,33.203,38.574,29.785,35.156,5.859,0
15934.024,22.949,41.016,33.203,33.691,50.781,0
15934.028,14.648,37.109,34.180,17.090,100.098,0
15934.032,19.043,40.039,32.227,18.555,59.082,0
15934.036,22.461,38.574,26.367,29.297,59.082,0
15934.040,23.438,37.598,25.879,35.645,70.312,0
15934.044,17.578,41.504,32.227,30.762,55.176,0
15934.047,21.973,38.086,28.809,21.484,44.922,0
15934.051,23.926,34.180,27.344,34.180,29.297,0
15934.055,11.230,35.156,22.949,33.691,18.066,0
15934.059,9.766,36.133,26.855,18.066,38.086,0
15934.063,9.766,36.133,36.133,20.996,99.121,0
15934.067,14.160,37.109,36.133,38.574,69.824,0
15934.071,25.391,38.574,33.203,41.992,62.500,0
15934.075,23.438,42.480,31.738,34.668,100.586,0
15934.079,21.484,47.363,36.133,30.762,29.297,0
15934.083,27.832,44.922,37.109,22.461,-57.129,0
15934.087,27.832,38.574,32.715,24.414,-54.688,0
15934.090,20.508,42.480,33.691,25.391,29.785,0
15934.094,9.277,44.922,33.203,18.066,23.438,0
15934.098,11.719,42.480,33.203,18.555,27.832,0
15934.102,22.949,40.527,30.762,26.367,80.566,0
15934.106,23.438,36.621,27.832,24.902,40.527,0
15934.110,20.996,36.133,31.738,17.578,-1.465,0
15934.114,16.113,36.621,33.691,23.926,-3.906,0
15934.118,18.555,34.668,30.273,26.367,3.906,0
15934.122,24.414,35.156,28.809,22.949,31.250,0
15934.126,19.531,34.668,31.738,27.832,65.430,0
15934.129,17.090,33.203,36.133,26.367,47.363,0
15934.133,25.391,30.762,37.109,39.062,-21.973,0
15934.137,31.250,27.832,33.691,31.250,35.156,0
15934.141,22.461,29.297,30.762,9.277,52.734,0
15934.145,19.043,28.320,30.273,9.277,-0.977,0
15934.149,30.762,29.785,26.367,13.184,-12.207,0
15934.153,36.133,32.715,23.438,23.926,11.230,0
15934.157,28.320,34.668,27.832,27.344,13.672,0
15934.161,24.414,38.574,30.762,14.160,6.836,0
15934.165,27.832,36.133,28.320,20.508,43.945,0
15934.169,33.203,34.668,28.809,29.785,69.824,0
15934.172,38.086,35.645,30.762,27.344,23.438,0
15934.176,26.855,34.668,31.250,25.879,0.488,0
15934.180,22.949,35.156,34.668,21.484,-33.691,0
15934.184,34.668,34.180,34.180,21.973,-28.809,0
15934.188,33.203,34.668,30.762,26.855,13.184,0
15934.192,19.043,39.062,32.715,21.484,-18.066,0
15934.196,12.207,41.016,36.133,27.344,-41.992,0
15934.200,26.855,36.133,34.180,31.250,-18.555,0
15934.204,29.785,28.320,30.273,23.438,-48.828,0
15934.208,22.949,28.809,32.227,27.832,-2.930,0
15934.212,20.508,32.715,35.156,19.043,71.777,0
15934.215,17.090,27.832,33.691,22.949,26.855,0
15934.219,25.391,25.879,33.203,27.344,18.555,0
15934.223,26.367,29.785,32.715,21.973,24.414,0
15934.227,13.184,31.738,32.227,12.695,2.441,0
15934.231,14.648,33.691,32.227,15.625,-11.230,0
15934.235,24.414,32.227,30.273,25.391,-33.691,0
15934.239,30.762,32.227,31.250,23.438,-0.488,0
15934.243,28.320,32.715,32.227,24.414,56.152,0
15934.247,19.531,28.809,32.227,26.855,70.801,0
15934.251,31.738,22.949,29.297,25.391,37.598,0
15934.254,46.875,27.344,23.438,25.879,49.805,0
15934.258,36.621,36.133,26.367,26.367,27.832,0
15934.262,20.020,38.574,28.809,25.879,-4.395,0
15934.266,28.809,37.598,22.949,28.320,-5.371,0
15934.270,38.574,38.574,20.996,35.645,-20.020,0
15934.274,28.320,37.598,24.902,40.039,3.418,0
15934.278,24.902,37.109,28.320,31.738,61.523,0
15934.282,24.414,38.574,24.902,29.297,54.688,0
15934.286,28.809,37.109,22.949,27.832,25.879,0
15934.290,30.273,36.133,26.855,26.367,34.180,0
15934.294,22.461,36.133,27.344,32.227,34.180,0
15934.297,29.785,36.133,29.297,34.668,12.695,0
15934.301,39.551,36.621,28.809,31.250,17.578,0
15934.305,38.574,38.086,26.855,26.367,15.625,0
15934.309,31.250,38.086,29.297,24.902,11.230,0
15934.313,27.832,39.062,33.203,22.461,60.547,0
15934.317,32.227,37.598,33.691,25.879,66.895,0
15934.321,42.969,32.227,34.180,37.109,67.871,0
15934.325,36.133,31.250,32.715,38.574,47.852,0
15934.329,14.648,37.109,30.762,18.555,17.578,0
15934.333,22.949,37.598,28.320,15.625,1.465,0
15934.337,34.668,35.645,24.902,33.691,-24.414,0
15934.340,27.344,37.598,25.391,40.039,-3.418,0
15934.344,16.113,36.621,25.879,29.785,22.461,0
15934.348,12.695,31.250,25.879,14.160,18.066,0
15934.352,24.414,26.855,27.344,24.414,-19.531,0
15934.356,26.367,27.344,28.320,32.227,13.184,0
15934.360,16.113,31.250,26.855,15.625,81.055,0
15934.364,11.719,32.227,25.879,8.301,80.078,0
15934.368,22.461,26.367,24.414,20.996,40.039,0
15934.372,35.645,27.832,23.926,31.250,34.668,0
15934.376,29.297,27.832,26.855,28.809,55.176,0
15934.379,19.043,26.855,31.250,26.855,57.129,0
15934.383,19.043,29.785,28.809,23.926,-7.812,0
15934.387,19.531,29.297,24.902,26.367,-26.367,0
15934.391,17.578,28.320,29.297,28.809,17.578,2
15934.395,18.555,31.738,32.715,15.137,6.836,0
15934.399,20.020,29.785,33.691,17.090,7.812,0
15934.403,23.926,24.414,35.156,22.949,19.531,0
15934.407,19.043,22.461,36.621,17.090,44.922,0
15934.411,8.789,23.926,34.668,23.438,79.590,0
15934.415,11.719,26.855,32.227,25.391,49.805,0
15934.419,10.742,25.391,39.062,11.719,11.719,0
15934.422,16.113,24.902,39.062,18.555,18.066,0
15934.426,12.695,29.297,34.180,13.184,14.648,0
15934.430,3.418,28.320,33.691,1.465,41.992,0
15934.434,20.020,23.438,28.809,18.066,54.688,0
15934.438,29.297,23.926,26.367,28.809,61.523,0
15934.442,19.043,22.949,26.855,16.602,117.676,0
15934.446,14.648,19.531,30.762,7.324,48.340,0
15934.450,19.531,19.531,34.668,29.785,6.836,0
15934.454,28.320,23.926,29.785,47.363,21.973,0
15934.458,29.785,28.809,28.809,36.133,27.832,0
15934.462,19.531,28.809,31.250,24.414,34.180,0
15934.465,19.531,24.902,29.297,29.785,-13.184,0
15934.469,27.344,22.949,28.320,31.738,-47.852,0
15934.473,30.273,24.902,25.391,22.461,-1.465,0
15934.477,26.855,26.367,31.738,23.438,15.137,0
15934.481,32.227,26.367,35.645,19.043,5.371,0
15934.485,39.062,26.367,29.297,27.344,16.113,0
15934.489,30.273,29.297,29.785,39.551,11.719,0
15934.493,18.066,31.250,28.809,23.438,11.719,0
15934.497,15.625,29.785,32.715,20.996,-25.391,0
15934.501,24.414,29.297,36.133,32.715,-39.062,0
15934.504,30.762,27.344,33.691,34.180,0.977,0
15934.508,24.414,22.949,33.691,33.203,15.625,0
15934.512,21.973,28.809,37.598,26.367,19.531,0
15934.516,35.645,32.227,32.715,19.531,12.695,0
15934.520,35.645,30.762,25.391,17.578,51.270,0
15934.524,29.785,32.227,25.879,20.020,40.527,0
15934.528,31.738,32.227,32.715,13.672,60.547,0
15934.532,34.668,31.250,39.551,18.555,96.191,0
15934.536,37.109,28.320,37.109,33.691,43.945,0
15934.540,38.574,26.367,34.180,32.715,62.500,0
15934.544,24.902,23.926,32.227,21.484,-18.066,0
15934.547,20.020,27.344,30.273,16.602,-33.203,0
15934.551,27.832,27.344,28.809,21.484,4.395,0
15934.555,21.973,22.949,27.344,21.484,15.137,0
15934.559,9.277,26.855,29.785,25.391,41.016,0
15934.563,4.395,30.762,33.691,30.273,19.531,0
15934.567,17.090,28.809,34.180,32.227,-46.387,0
15934.571,24.414,24.414,32.227,36.133,-62.012,0
15934.575,22.461,18.555,33.203,31.738,-28.320,0
15934.579,28.320,24.902,34.668,33.203,5.859,0
15934.583,32.227,29.785,31.250,28.320,36.621,0
15934.587,28.809,28.320,28.320,22.461,94.238,0
15934.590,20.996,28.320,25.879,27.832,61.523,0
15934.594,19.043,30.273,29.785,23.926,14.160,0
15934.598,22.461,30.273,32.227,28.809,53.711,0
15934.602,20.996,29.297,31.250,33.691,86.426,0
15934.606,20.996,27.344,29.785,27.344,79.102,0
15934.610,22.949,23.438,30.273,16.602,36.133,0
15934.614,24.902,26.855,28.809,16.602,27.832,0
15934.618,28.809,28.320,24.414,23.438,57.617,0
15934.622,29.785,28.320,21.973,22.461,56.152,0
15934.626,26.367,34.180,23.438,20.020,48.340,0
15934.629,26.855,36.133,29.785,19.531,66.406,0
15934.633,26.367,32.715,31.738,23.438,74.707,0
15934.637,23.926,30.273,30.273,26.367,88.867,0
15934.641,25.391,30.762,32.715,28.809,17.578,0
15934.645,23.926,33.691,33.691,12.207,42.969,0
15934.649,19.043,35.156,28.809,5.859,48.828,0
15934.653,23.926,33.203,27.832,14.160,-21.973,0
15934.657,25.879,31.738,28.320,23.438,-0.488,0
15934.661,19.043,34.180,28.320,22.949,-6.348,0
15934.665,26.855,37.598,28.809,16.113,-65.918,0
15934.669,33.691,36.133,26.855,21.484,-8.301,0
15934.672,27.832,32.715,24.902,28.320,41.992,0
15934.676,22.461,36.621,27.832,24.902,12.207,0
15934.680,24.414,35.645,28.809,12.695,27.832,0
15934.684,36.133,25.879,25.879,33.691,5.859,0
15934.688,36.133,24.902,27.344,46.387,-27.832,0
15934.692,29.297,34.180,29.297,33.691,-17.578,0
15934.696,31.250,36.621,26.855,19.043,-0.488,0
15934.700,40.039,30.762,26.855,20.996,22.461,0
15934.704,48.828,27.832,29.297,39.551,1.953,0
15934.708,43.457,26.367,27.832,41.504,9.277,0
15934.712,14.648,25.879,29.785,30.762,53.711,0
15934.715,2.441,17.090,29.785,25.391,32.227,0
15934.719,21.484,15.625,25.879,25.879,13.672,0
15934.723,28.809,21.484,22.949,28.809,11.230,0
15934.727,20.508,25.879,27.832,24.902,16.113,0
15934.731,19.531,28.809,30.762,18.555,63.477,0
15934.735,26.367,27.832,28.320,30.273,60.059,0
15934.739,34.180,29.297,32.715,40.527,-1.953,0
15934.743,32.715,29.297,31.738,30.273,-18.555,0
15934.747,25.879,25.391,29.785,20.996,2.441,0
15934.751,31.250,20.508,28.809,30.762,62.012,0
15934.754,36.621,21.973,26.855,51.758,57.129,0
15934.758,22.461,28.320,29.297,40.527,-21.973,0
15934.762,20.996,31.250,31.738,14.648,11.719,0
15934.766,33.203,28.809,30.762,25.391,14.648,0
15934.770,33.691,27.344,24.902,34.180,14.160,0
15934.774,26.367,28.809,24.902,29.297,31.250,0
15934.778,21.484,32.227,30.762,20.996,15.625,0
15934.782,19.043,28.320,31.738,25.391,5.371,0
15934.786,22.461,23.926,30.273,34.180,-4.883,0
15934.790,22.461,26.855,30.762,32.715,35.156,0
15934.794,19.531,29.785,31.250,32.715,-30.273,0
15934.797,26.367,34.180,36.133,28.320,-39.062,0
15934.801,35.645,34.180,35.156,22.461,65.918,0
15934.805,43.457,33.203,30.762,30.273,56.152,0
15934.809,38.574,33.691,35.156,33.203,3.418,0
15934.813,35.645,35.156,40.527,26.855,-27.344,0
15934.817,43.457,38.574,42.969,34.668,-36.621,0
15934.821,49.805,35.156,41.016,44.922,-26.855,0
15934.825,40.039,28.809,39.551,39.062,13.672,0
15934.829,28.320,31.250,40.039,25.879,11.719,0
15934.833,35.156,39.062,38.086,32.715,-17.578,0
15934.837,43.945,39.551,36.133,41.992,52.246,0
15934.840,39.551,39.551,39.551,36.621,66.895,0
15934.844,32.715,39.062,41.504,27.344,18.555,0
15934.848,34.668,36.621,39.551,29.785,31.250,0
15934.852,41.504,36.621,36.621,48.340,-39.551,0
15934.856,37.109,32.715,34.668,43.945,-63.477,0
15934.860,39.551,33.203,37.598,28.320,-7.324,0
15934.864,41.992,37.109,35.156,23.438,33.691,0
15934.868,35.645,33.203,33.203,32.715,47.852,0
15934.872,35.645,31.250,36.133,41.016,15.625,0
15934.876,28.809,33.203,38.574,32.227,-0.488,0
15934.879,23.438,33.691,40.039,27.832,-7.812,0
15934.883,30.273,33.203,36.133,28.809,6.348,0
15934.887,33.203,31.738,35.156,29.785,15.137,0
15934.891,22.461,29.297,38.086,37.598,40.039,0
15934.895,13.672,32.227,39.551,40.527,30.273,0
15934.899,16.602,37.109,40.527,28.809,-3.418,0
15934.903,23.438,32.227,37.109,14.648,28.320,0
15934.907,21.973,27.832,32.227,13.184,60.059,0
15934.911,19.531,30.762,37.598,21.973,57.617,0
15934.915,21.484,28.809,40.527,33.691,47.363,0
15934.919,35.156,26.367,40.039,40.039,27.344,0
15934.922,41.016,26.367,41.504,43.457,10.254,0
15934.926,23.926,28.320,41.992,37.109,1.465,0
15934.930,22.461,27.344,42.969,33.203,10.742,0
15934.934,34.668,21.973,39.062,43.945,12.695,0
15934.938,36.621,24.902,36.133,35.645,4.883,0
15934.942,30.762,32.715,38.574,21.484,21.484,0
15934.946,20.996,32.227,34.668,19.043,20.508,0
15934.950,22.949,28.809,29.785,28.809,40.527,0
15934.954,35.156,27.832,30.762,33.691,105.469,0
15934.958,33.203,32.715,36.621,33.691,60.547,0
15934.962,19.043,28.809,37.109,25.391,23.438,0
15934.965,18.066,17.578,32.227,27.832,81.055,0
15934.969,28.809,20.020,29.297,43.457,38.574,0
15934.973,27.832,24.414,32.227,41.504,-16.113,0
15934.977,17.090,24.902,36.133,25.879,1.465,0
15934.981,17.578,27.832,37.598,20.996,9.277,0
15934.985,32.227,22.949,34.180,29.297,2.930,0
15934.989,34.668,16.602,33.203,23.926,-18.555,0
15934.993,27.344,21.484,36.621,30.273,-74.219,0
15934.997,28.809,26.855,39.062,42.480,-26.855,0
15935.001,32.715,27.344,34.668,34.180,5.859,0
15935.004,28.809,26.855,28.809,26.367,29.785,0
15935.008,11.719,24.414,30.762,13.184,60.059,0
15935.012,9.277,26.855,36.133,11.230,55.664,0
15935.016,23.438,26.855,37.109,22.461,0.977,0
15935.020,29.297,21.973,35.156,26.855,-20.996,0
15935.024,24.902,25.391,34.668,21.973,63.965,0
15935.028,18.066,29.297,37.598,32.227,44.922,0
15935.032,19.531,26.367,35.645,34.180,39.551,0
15935.036,26.367,23.438,32.715,24.414,100.586,0
15935.040,26.855,22.461,35.156,19.531,65.430,0
15935.044,17.578,23.438,35.645,12.695,-47.852,0
15935.047,18.066,23.926,34.668,13.672,-50.781,0
15935.051,32.227,21.484,30.273,24.414,-0.977,0
15935.055,32.227,20.020,26.855,25.391,-45.410,0
15935.059,21.484,25.879,30.762,20.508,-3.906,0
15935.063,14.648,31.738,32.715,14.160,44.434,0
15935.067,26.855,32.227,30.273,30.273,18.066,0
15935.071,41.504,29.785,26.855,24.414,20.020,0
15935.075,34.668,33.203,25.879,2.441,34.668,0
15935.079,30.762,34.180,30.762,13.672,47.363,0
15935.083,33.691,28.320,30.762,24.414,-1.465,0
15935.087,35.645,27.832,29.297,27.832,-35.645,0
15935.090,28.809,29.785,32.715,30.273,10.742,0
15935.094,18.555,25.879,32.227,20.020,27.832,2
15935.098,22.461,24.902,30.762,15.625,40.039,0
15935.102,29.297,28.320,26.367,35.645,21.973,0
15935.106,27.344,27.832,23.926,37.598,13.672,0
15935.110,20.020,30.273,29.297,18.555,22.461,0
15935.114,18.555,35.645,30.273,15.625,-4.883,0
15935.118,27.832,33.691,27.832,27.832,26.367,0
15935.122,30.273,31.250,26.855,38.086,68.359,0
15935.126,23.438,31.250,24.414,33.203,59.570,0
15935.129,17.578,26.367,22.461,26.855,7.324,0
15935.133,24.414,20.508,21.484,32.715,-0.488,0
15935.137,35.156,26.855,23.926,27.832,25.391,0
15935.141,22.461,32.715,27.832,23.926,17.090,0
15935.145,20.020,31.250,29.785,21.973,34.668,0
15935.149,25.879,30.762,29.785,18.066,36.133,0
15935.153,26.855,27.832,27.832,22.461,79.590,0
15935.157,27.832,28.809,30.762,22.949,110.352,0
15935.161,20.508,34.668,35.645,20.996,7.812,0
15935.165,20.508,27.832,34.180,25.391,-22.949,0
15935.169,22.949,19.531,32.715,29.785,18.555,0
15935.172,23.926,25.879,32.715,31.250,33.203,0
15935.176,20.020,33.203,35.156,28.320,53.223,0
15935.180,16.113,30.762,39.551,23.926,60.547,0
15935.184,20.996,27.832,41.504,31.738,70.801,0
15935.188,23.438,28.809,41.016,41.016,48.340,0
15935.192,10.742,28.320,42.969,20.020,60.059,0
15935.196,14.160,25.879,44.922,8.789,32.227,0
15935.200,30.762,22.461,41.992,25.879,16.602,0
15935.204,30.762,20.020,39.062,33.203,33.691,0
15935.208,21.484,20.996,38.086,28.809,-8.301,0
15935.212,15.137,23.926,38.086,22.949,-0.488,0
15935.215,13.184,24.414,37.598,22.461,34.668,0
15935.219,21.484,27.832,38.086,31.738,39.062,0
15935.223,25.391,29.785,37.598,32.227,53.223,0
15935.227,14.648,27.344,31.250,24.414,39.551,0
15935.231,16.602,25.391,29.297,23.438,31.738,0
15935.235,27.832,20.020,26.367,30.273,51.758,0
15935.239,26.855,16.113,22.949,29.785,48.828,0
15935.243,18.555,19.043,25.879,12.207,2.930,0
15935.247,21.973,23.438,28.320,12.695,12.695,0
15935.251,31.250,25.391,30.762,24.414,62.012,0
15935.254,36.133,26.367,35.156,28.320,25.879,0
15935.258,31.250,27.344,36.621,23.926,-11.719,0
15935.262,18.066,27.832,38.574,25.879,13.672,0
15935.266,17.578,25.391,35.645,36.621,-26.367,0
15935.270,27.344,18.555,29.297,36.621,-10.742,0
15935.274,28.320,17.090,29.297,28.320,69.336,0
15935.278,23.926,23.438,36.133,16.113,21.973,0
15935.282,22.461,25.879,34.668,20.020,-21.973,0
15935.286,22.949,25.391,26.855,30.762,-3.906,0
15935.290,21.484,26.855,26.367,37.109,-6.348,0
15935.294,17.090,26.855,28.320,25.879,37.598,0
15935.297,15.625,26.367,29.785,17.578,40.527,0
15935.301,23.438,20.508,34.180,35.156,3.906,0
15935.305,28.809,19.531,35.645,42.480,-1.953,0
15935.309,24.414,21.973,36.133,32.715,6.836,0
15935.313,18.555,21.973,36.133,25.391,50.293,0
15935.317,22.949,31.738,35.645,29.297,21.973,0
15935.321,29.785,36.133,35.156,36.621,-5.371,0
15935.325,21.973,32.715,33.691,23.438,-16.113,0
15935.329,13.672,30.762,33.691,13.184,3.418,0
15935.333,18.066,28.320,33.691,27.832,7.324,0
15935.337,29.297,26.367,28.320,31.738,38.574,0
15935.340,28.320,24.902,25.879,21.973,61.035,0
15935.344,19.531,22.949,29.297,11.230,47.363,0
15935.348,26.855,23.438,27.832,9.766,38.574,0
15935.352,34.668,26.367,25.879,18.555,43.945,0
15935.356,32.715,27.832,29.785,29.785,16.602,0
15935.360,20.996,28.320,34.180,25.391,-21.484,0
15935.364,13.184,26.855,29.785,19.043,14.648,0
15935.368,18.066,22.461,25.391,28.320,36.133,0
15935.372,24.902,20.508,24.414,26.855,10.254,0
15935.376,17.578,18.066,23.438,19.043,-14.648,0
15935.379,10.742,19.043,27.344,17.578,-3.418,0
15935.383,16.113,20.508,29.297,25.879,65.918,0
15935.387,16.602,22.949,28.809,37.109,114.746,0
15935.391,17.578,26.855,31.738,29.297,81.055,0
15935.395,20.508,25.391,35.645,20.508,-21.973,0
15935.399,21.484,22.461,34.668,21.973,3.906,0
15935.403,32.227,21.973,29.785,23.926,26.855,0
15935.407,29.785,22.461,28.809,18.066,-23.438,0
15935.411,18.555,20.020,31.250,14.648,-55.664,0
15935.415,21.973,21.484,32.227,16.113,-69.824,0
15935.419,34.668,27.344,30.762,30.762,-12.207,0
15935.422,40.039,30.762,31.738,46.875,2.441,0
15935.426,31.738,31.738,35.156,41.992,0.977,0
15935.430,26.855,31.738,35.645,24.902,24.902,0
15935.434,32.227,27.832,31.738,21.973,26.855,0
15935.438,37.598,27.832,31.250,35.645,-0.977,0
15935.442,33.691,27.832,36.133,30.762,18.066,0
15935.446,23.926,23.926,36.133,11.230,-12.695,0
15935.450,24.414,26.367,33.691,18.066,-8.789,0
15935.454,27.832,31.250,32.715,36.621,56.641,0
15935.458,19.531,34.668,34.180,33.691,41.016,0
15935.462,7.812,34.668,37.109,27.832,49.805,0
15935.465,6.348,31.250,37.598,35.156,27.344,0
15935.469,7.812,27.832,34.180,34.668,36.621,0
15935.473,2.930,25.879,31.738,28.809,54.688,0
15935.477,-8.789,25.879,34.180,25.391,25.879,0
15935.481,-9.766,19.043,32.715,15.137,48.828,0
15935.485,0.977,15.137,28.809,27.344,28.809,0
15935.489,-0.488,21.484,29.297,44.434,31.250,0
15935.493,-7.324,27.344,28.809,34.180,37.598,0
15935.497,-4.883,26.855,26.855,26.367,59.570,0
15935.501,-4.883,24.414,26.855,43.457,66.406,0
15935.504,0.000,24.902,25.391,36.133,69.336,0
15935.508,1.953,25.879,24.902,18.066,43.945,0
15935.512,-2.441,21.484,26.855,13.184,-7.812,0
15935.516,-2.441,17.578,23.438,21.484,44.434,0
15935.520,5.371,20.996,21.484,34.180,81.543,0
15935.524,11.230,24.414,20.020,32.715,84.961,0
15935.528,6.836,25.879,22.949,22.949,62.012,0
15935.532,11.719,22.949,27.832,24.414,14.160,0
15935.536,21.973,20.020,25.391,32.715,7.324,0
15935.540,24.902,20.996,25.879,24.902,9.277,0
15935.544,21.973,22.461,30.273,20.020,-1.953,0
15935.547,20.508,21.484,31.250,36.133,-14.648,0
15935.551,14.648,20.508,26.367,49.316,18.066,0
15935.555,10.254,25.391,25.879,50.293,5.371,0
15935.559,14.160,32.227,34.180,49.805,-28.320,0
15935.563,11.230,32.715,35.645,37.598,-17.090,0
15935.567,8.789,28.320,29.785,32.227,-8.301,0
15935.571,15.625,24.902,28.809,47.852,31.250,0
15935.575,19.043,23.438,31.250,51.758,81.543,0
15935.579,16.113,24.902,35.645,34.180,16.602,0
15935.583,29.785,21.973,32.715,35.156,9.766,0
15935.587,40.039,20.020,28.809,44.922,23.926,0
15935.590,31.250,22.461,29.785,41.504,6.836,0
15935.594,20.996,19.043,31.250,32.715,49.805,0
15935.598,8.301,20.996,32.715,36.621,55.176,0
15935.602,19.043,25.391,29.785,47.363,3.418,0
15935.606,27.344,24.414,27.832,33.691,-7.812,0
15935.610,18.066,25.391,31.250,20.020,46.875,0
15935.614,10.742,28.809,32.227,19.531,41.992,0
15935.618,18.066,26.855,33.691,37.109,-10.254,0
15935.622,23.438,24.902,34.180,47.363,-20.020,0
15935.626,22.461,24.902,36.133,26.367,-29.297,0
15935.629,17.578,20.996,36.133,16.113,0.488,0
15935.633,14.160,20.996,34.180,21.973,7.812,0
15935.637,7.324,19.531,31.250,26.855,25.391,0
15935.641,1.465,24.902,33.691,39.551,32.715,0
15935.645,0.977,26.855,38.086,28.320,-29.785,0
15935.649,1.953,20.020,32.715,16.602,27.344,0
15935.653,14.160,22.461,25.879,23.926,53.711,0
15935.657,22.461,25.391,26.367,23.438,25.391,0
15935.661,5.859,24.414,25.879,19.531,39.062,0
15935.665,6.348,22.461,22.949,22.461,10.742,0
15935.669,16.602,16.602,24.414,30.273,41.016,0
15935.672,20.020,17.090,26.855,33.691,60.547,0
15935.676,18.066,24.902,25.391,15.625,49.805,0
15935.680,8.301,28.320,24.414,6.836,15.625,0
15935.684,7.812,26.367,23.926,16.113,7.812,1
15935.688,8.789,25.879,21.973,24.902,48.340,0
15935.692,10.742,27.832,22.461,28.320,3.418,0
15935.696,5.859,30.762,24.902,17.090,-20.996,0
15935.700,6.348,28.320,25.391,21.973,41.992,0
15935.704,18.555,21.484,24.902,33.203,58.594,0
15935.708,20.508,18.555,25.879,21.973,14.160,0
15935.712,19.531,24.902,27.344,15.625,-11.719,0
15935.715,30.273,29.785,28.320,23.926,49.805,0
15935.719,33.203,31.250,31.250,24.414,41.504,0
15935.723,26.367,28.809,32.227,26.855,23.926,0
15935.727,15.137,27.832,32.715,32.227,21.484,0
15935.731,15.137,29.785,31.738,31.738,-16.602,0
15935.735,27.344,26.855,30.273,31.250,12.207,0
15935.739,27.344,22.949,32.715,29.785,24.902,0
15935.743,17.578,20.020,33.203,25.391,7.812,0
15935.747,13.672,21.973,28.809,22.461,39.062,0
15935.751,16.602,22.949,29.297,28.809,57.617,0
15935.754,15.137,24.902,32.715,31.250,40.039,0
15935.758,17.578,27.344,37.109,21.484,52.734,0
15935.762,23.438,26.855,37.109,21.484,48.340,0
15935.766,16.602,25.391,33.691,27.344,40.527,0
15935.770,4.395,22.461,32.227,28.320,-18.066,0
15935.774,3.418,22.949,29.297,22.461,7.812,0
15935.778,6.836,24.414,28.320,20.020,53.711,0
15935.782,9.277,26.367,29.785,37.109,41.016,0
15935.786,20.508,29.297,30.762,48.340,62.012,0
15935.790,19.043,29.785,28.320,21.484,46.387,0
15935.794,12.207,30.762,26.367,5.371,0.488,0
15935.797,25.391,31.738,27.832,21.484,16.113,0
15935.801,38.086,28.320,28.320,34.668,34.180,0
15935.805,38.086,25.391,28.809,27.344,8.789,0
15935.809,24.414,24.414,28.320,20.996,-12.695,0
15935.813,14.648,25.391,29.785,21.484,3.418,0
15935.817,20.508,21.973,30.273,24.902,39.551,0
15935.821,24.414,19.531,28.809,30.273,-19.043,0
15935.825,22.461,23.438,33.203,36.133,12.695,0
15935.829,18.066,28.320,34.668,30.762,36.621,0
15935.833,21.973,29.297,32.227,17.578,20.996,0
15935.837,28.320,26.367,33.691,28.320,-12.695,0
15935.840,19.043,20.996,35.645,32.227,-9.766,0
15935.844,5.859,20.020,34.668,22.949,2.441,0
15935.848,2.930,21.484,33.691,30.273,-31.250,0
15935.852,15.625,20.508,30.273,44.922,-4.395,0
15935.856,25.879,24.414,30.762,32.715,10.254,0
15935.860,13.184,25.391,36.133,22.461,-8.789,0
15935.864,8.301,24.902,36.133,37.598,-19.043,0
15935.868,15.137,22.949,34.180,40.527,20.508,0
15935.872,12.695,20.508,33.203,32.227,24.902,0
15935.876,8.301,20.508,32.715,30.762,13.184,0
15935.879,10.254,21.973,33.691,21.484,16.602,0
15935.883,21.973,22.461,33.203,21.973,12.695,0
15935.887,34.668,21.484,30.273,29.785,9.766,0
15935.891,30.273,19.531,30.273,26.367,12.207,0
15935.895,17.578,20.020,36.133,28.320,13.184,0
15935.899,26.855,23.926,40.527,36.621,-8.789,0
15935.903,37.109,25.391,40.527,38.086,41.504,0
15935.907,26.367,23.926,39.551,34.668,69.336,0
15935.911,9.766,22.461,41.016,23.438,-3.906,0
15935.915,14.160,23.926,39.551,25.879,-1.953,0
15935.919,21.484,24.414,38.574,45.410,25.391,0
15935.922,22.461,22.461,41.016,45.898,-4.883,0
15935.926,17.578,22.461,37.109,28.320,-31.738,0
15935.930,14.160,20.996,32.715,20.020,-27.832,0
15935.934,29.785,18.555,32.715,37.598,0.977,0
15935.938,29.297,21.973,34.180,48.340,49.805,0
15935.942,21.973,24.414,34.180,32.227,40.527,0
15935.946,24.414,24.902,32.715,25.391,-6.836,0
15935.950,22.949,21.484,33.691,39.062,-3.906,0
15935.954,20.020,20.508,33.691,37.598,39.062,0
15935.958,20.020,19.531,31.738,27.344,42.969,0
15935.962,15.625,19.043,31.250,28.809,28.320,0
15935.965,22.461,19.043,34.668,28.320,42.969,0
15935.969,37.598,18.555,35.645,34.180,78.125,0
15935.973,35.645,24.902,33.691,35.645,17.578,0
15935.977,24.902,30.273,33.691,24.414,-0.977,0
15935.981,24.414,28.809,35.645,25.879,53.711,0
15935.985,28.809,23.438,30.273,20.508,46.875,0
15935.989,26.855,20.508,25.879,15.625,28.320,0
15935.993,22.949,22.461,30.762,22.949,72.266,0
15935.997,22.949,23.926,34.180,23.438,41.992,0
15936.001,30.762,19.531,34.180,29.785,-5.371,0
15936.004,34.180,12.695,31.738,39.062,-17.090,0
15936.008,19.531,15.625,27.832,29.297,67.871,0
15936.012,10.742,21.973,24.414,20.996,74.707,0
15936.016,26.367,20.996,24.414,36.621,-3.418,0
15936.020,31.250,19.043,28.320,32.715,34.668,0
15936.024,27.344,19.531,27.344,21.973,62.988,0
15936.028,25.391,18.555,27.832,27.832,67.383,0
15936.032,28.809,19.043,30.273,25.879,20.508,0
15936.036,40.039,17.578,29.297,33.691,-5.859,0
15936.040,43.945,15.625,30.762,33.691,58.105,0
15936.044,34.180,20.996,30.762,27.344,47.852,0
15936.047,27.832,24.414,27.832,33.203,-16.113,0
15936.051,32.227,19.043,24.414,29.297,-34.668,0
15936.055,35.156,14.648,21.973,20.996,-23.438,0
15936.059,36.621,19.531,25.879,25.879,-17.090,0
15936.063,38.086,24.902,31.250,34.668,-3.418,0
15936.067,40.039,20.996,26.855,27.344,24.902,0
15936.071,42.480,17.578,21.973,22.949,39.062,0
15936.075,38.086,19.043,23.926,30.762,58.105,0
15936.079,38.574,20.020,26.855,22.949,47.852,0
15936.083,43.457,20.020,24.414,27.832,53.223,0
15936.087,47.852,21.484,19.531,22.949,69.336,0
15936.090,43.945,20.020,21.484,14.648,54.688,0
15936.094,31.250,20.508,23.926,19.531,24.902,0
15936.098,34.180,22.949,23.438,24.902,43.457,0
15936.102,48.828,22.949,21.484,30.762,41.504,0
15936.106,45.898,21.484,20.508,22.461,30.273,0
15936.110,41.016,19.531,23.926,9.277,38.086,0
15936.114,49.316,22.949,23.926,12.207,78.613,0
15936.118,53.223,27.832,24.902,22.461,80.566,0
15936.122,40.039,24.414,24.902,23.926,37.109,0
15936.126,23.926,21.484,23.438,19.531,-37.109,0
15936.129,24.414,20.996,26.855,11.719,-46.387,0
15936.133,33.203,19.043,27.832,22.949,23.926,0
15936.137,34.668,21.973,26.367,30.273,49.805,0
15936.141,27.832,22.949,26.855,17.090,36.621,0
15936.145,28.809,20.508,30.762,14.160,-16.113,0
15936.149,36.621,20.996,25.391,20.020,-5.371,0
15936.153,36.133,21.484,23.438,12.207,19.043,0
15936.157,31.738,20.020,30.762,10.742,-20.996,0
15936.161,25.391,19.531,35.645,11.230,-26.855,0
15936.165,20.508,20.508,34.180,12.695,-7.324,0
15936.169,27.344,17.090,30.273,13.672,1.953,0
15936.172,30.273,18.066,31.250,16.602,40.039,0
15936.176,30.762,17.578,32.715,14.648,41.016,0
15936.180,35.645,16.113,29.785,10.742,-27.832,0
15936.184,34.180,18.066,24.414,19.043,-15.625,0
15936.188,31.738,19.531,24.902,24.902,22.949,0
15936.192,28.320,21.973,30.273,26.367,-15.625,0
15936.196,26.367,23.926,32.715,16.602,29.297,0
15936.200,35.156,21.973,32.715,29.297,88.867,0
15936.204,38.086,23.438,33.691,42.480,30.273,0
15936.208,29.785,24.902,35.156,36.621,30.762,0
15936.212,25.879,21.484,35.645,29.785,33.691,0
15936.215,36.133,21.973,35.156,17.578,-49.805,0
15936.219,41.504,24.414,33.203,26.367,-28.809,0
15936.223,26.855,22.461,33.691,34.180,7.812,0
15936.227,21.484,24.414,35.645,21.973,-3.906,0
15936.231,28.320,26.855,37.109,21.484,-8.301,0
15936.235,43.457,28.809,36.133,37.109,5.371,0
15936.239,41.992,30.273,34.180,43.457,78.125,0
15936.243,34.668,34.180,34.668,22.949,38.086,0
15936.247,40.039,33.691,32.715,8.789,0.977,0
15936.251,38.574,28.320,34.668,20.020,15.625,0
15936.254,43.457,30.762,33.203,25.879,20.020,0
15936.258,48.340,34.668,32.715,16.602,35.156,0
15936.262,36.133,33.691,32.227,12.695,41.992,0
15936.266,29.297,31.250,31.250,20.508,42.969,0
15936.270,34.668,31.738,29.785,42.480,39.062,0
15936.274,28.320,29.297,27.344,47.363,52.246,0
15936.278,20.020,29.297,25.391,18.555,29.785,0
15936.282,24.414,27.832,23.926,20.020,-1.465,0
15936.286,36.621,22.461,26.367,36.133,-41.504,0
15936.290,42.969,21.973,29.297,29.297,-53.711,0
15936.294,34.180,25.391,28.320,23.438,34.668,0
15936.297,33.203,29.297,27.344,27.832,57.617,0
15936.301,40.527,33.203,25.391,36.133,7.812,0
15936.305,33.203,32.715,25.391,37.598,-34.180,0
15936.309,24.414,30.762,29.297,26.367,-0.488,0
15936.313,23.438,28.809,27.344,15.625,13.184,0
15936.317,30.762,28.320,25.879,26.855,-16.113,0
15936.321,34.180,23.926,26.367,41.992,-15.625,0
15936.325,31.250,19.531,25.391,19.531,10.254,0
15936.329,32.715,28.809,27.344,9.277,54.688,0
15936.333,35.645,33.203,24.414,25.879,21.484,1
15936.337,35.645,27.832,19.531,34.180,22.949,0
15936.340,32.715,26.367,20.020,27.344,61.523,0
15936.344,26.855,24.414,21.973,19.043,26.367,0
15936.348,29.297,20.508,21.484,19.531,-1.465,0
15936.352,31.250,18.555,20.508,28.809,-6.348,0
15936.356,32.227,21.973,21.484,28.809,-16.113,0
15936.360,27.344,25.879,23.926,20.020,27.344,0
15936.364,15.625,23.926,25.391,15.137,53.711,0
15936.368,22.949,22.949,28.320,27.344,25.879,0
15936.372,32.715,20.020,31.250,31.250,35.645,0
15936.376,27.832,18.066,33.203,26.367,18.555,0
15936.379,25.391,23.438,36.621,34.180,-9.766,0
15936.383,29.785,21.973,33.691,34.180,6.348,0
15936.387,36.621,17.090,25.391,24.414,41.992,0
15936.391,36.133,13.184,27.344,19.531,34.668,0
15936.395,27.344,16.602,34.180,20.020,17.578,0
15936.399,31.738,24.414,35.645,32.715,18.066,0
15936.403,34.180,20.996,32.715,35.156,11.719,0
15936.407,37.598,18.555,29.785,19.043,8.301,0
15936.411,34.668,20.996,30.273,16.113,30.273,0
15936.415,25.391,20.508,33.691,24.902,92.285,0
15936.419,33.203,21.484,34.668,27.832,65.430,0
15936.422,38.574,22.949,31.738,23.926,-22.461,0
15936.426,27.832,25.391,31.250,20.508,-15.137,0
15936.430,18.066,24.902,29.785,18.555,20.020,0
15936.434,20.508,20.508,29.785,20.996,-36.133,0
15936.438,23.926,26.855,28.320,22.461,-25.879,0
15936.442,20.996,32.227,27.832,16.113,26.367,0
15936.446,16.602,28.320,29.785,11.719,8.301,0
15936.450,22.949,26.855,29.297,24.902,24.902,0
15936.454,26.855,26.367,27.344,32.715,32.227,0
15936.458,24.414,28.320,29.297,29.785,10.742,0
15936.462,26.367,30.762,29.297,32.227,25.391,0
15936.465,26.367,24.414,24.414,24.902,45.898,0
15936.469,32.227,20.020,24.414,22.461,60.547,0
15936.473,36.621,24.414,24.414,34.180,39.062,0
15936.477,24.902,28.809,27.344,28.809,51.758,0
15936.481,24.414,32.227,30.762,28.809,-2.441,0
15936.485,36.621,30.273,25.879,36.133,-8.789,0
15936.489,41.016,28.320,27.344,35.645,90.332,0
15936.493,33.203,32.715,32.227,34.668,33.691,0
15936.497,27.832,31.250,28.320,29.297,-36.133,0
15936.501,35.645,23.926,24.902,32.227,-2.441,0
15936.504,37.598,19.043,22.949,37.109,2.930,0
15936.508,32.715,25.879,27.832,25.391,13.672,0
15936.512,34.180,31.250,33.203,15.137,45.898,0
15936.516,38.574,27.344,32.227,33.691,15.137,0
15936.520,44.922,24.902,30.273,35.645,-5.371,0
15936.524,41.016,25.391,30.762,21.484,7.324,0
15936.528,31.250,27.344,33.203,20.020,-21.973,0
15936.532,26.367,25.879,33.691,23.926,-6.348,0
15936.536,27.344,17.578,30.273,36.133,46.387,0
15936.540,28.809,18.555,26.855,29.297,34.668,0
15936.544,23.926,24.414,28.809,15.137,-25.879,0
15936.547,23.926,23.926,32.715,22.461,-15.137,0
15936.551,37.109,24.414,29.785,21.973,19.043,0
15936.555,44.922,25.391,26.367,26.855,100.098,0
15936.559,32.227,30.273,29.785,30.762,76.172,0
15936.563,26.855,34.180,30.762,22.949,10.254,0
15936.567,36.621,25.879,26.855,27.344,11.719,0
15936.571,33.691,16.602,23.438,20.508,-1.465,0
15936.575,31.250,19.043,24.902,15.625,21.484,0
15936.579,30.273,27.344,26.367,18.066,19.043,0
15936.583,28.809,29.785,26.855,24.902,-44.922,0
15936.587,32.227,26.855,25.879,33.691,0.000,0
15936.590,32.715,26.855,26.855,35.156,65.430,0
15936.594,28.320,24.414,30.762,25.879,38.086,0
15936.598,29.297,24.902,31.250,33.203,-17.578,0
15936.602,31.738,25.879,27.344,33.203,-1.465,0
15936.606,29.297,22.461,28.320,24.414,73.730,0
15936.610,26.367,20.508,30.762,21.973,97.656,0
15936.614,30.273,24.902,34.668,22.461,85.938,0
15936.618,40.527,30.762,35.645,41.016,9.766,0
15936.622,44.434,33.203,33.691,50.293,-41.504,0
15936.626,35.645,30.762,34.668,37.109,25.879,0
15936.629,30.762,30.273,39.551,33.203,69.824,0
15936.633,44.434,32.715,39.551,51.758,52.246,0
15936.637,44.434,30.762,37.598,49.805,57.617,0
15936.641,35.156,29.785,41.016,28.809,57.617,0
15936.645,25.391,31.738,41.992,26.855,32.715,0
15936.649,14.160,33.691,36.133,30.273,18.555,0
15936.653,20.508,33.203,31.250,30.762,55.176,0
15936.657,24.902,32.227,34.668,30.762,55.664,0
15936.661,17.578,34.180,39.062,25.879,11.230,0
15936.665,18.066,32.227,33.691,26.855,45.410,0
15936.669,26.855,24.414,27.344,36.133,51.758,0
15936.672,30.762,24.414,29.297,32.715,-18.555,0
15936.676,21.484,29.297,30.273,27.832,-53.711,0
15936.680,15.137,33.691,31.250,24.902,-26.855,0
15936.684,20.508,31.250,28.809,26.855,5.859,0
15936.688,34.668,29.785,27.344,43.945,28.320,0
15936.692,38.086,33.691,33.203,41.016,63.965,0
15936.696,28.809,33.203,40.039,22.461,30.273,0
15936.700,31.738,30.762,35.645,26.855,14.160,0
15936.704,37.598,33.691,33.203,34.668,29.297,0
15936.708,27.832,35.645,35.645,23.438,2.441,0
15936.712,22.949,38.086,35.156,29.785,22.949,0
15936.715,25.879,37.598,33.691,30.273,34.180,0
15936.719,27.344,33.203,34.668,29.297,9.277,0
15936.723,26.367,28.320,35.156,37.109,1.953,0
15936.727,17.090,27.344,38.574,26.367,2.441,0
15936.731,13.184,28.809,39.551,20.508,-9.277,0
15936.735,24.902,29.785,36.621,28.320,-27.832,0
15936.739,34.668,30.273,38.574,22.461,8.789,0
15936.743,26.855,34.180,38.086,19.531,0.977,0
15936.747,21.973,37.598,38.086,30.762,32.715,0
15936.751,33.203,37.598,41.016,32.715,65.430,0
15936.754,37.598,36.133,36.621,37.109,36.621,0
15936.758,31.738,32.715,36.621,36.621,74.219,0
15936.762,25.391,34.180,41.504,32.227,46.387,0
15936.766,22.949,30.273,37.598,34.668,50.293,0
15936.770,25.391,26.367,35.645,45.410,67.871,0
15936.774,27.832,26.855,36.133,40.527,47.852,0
15936.778,29.297,29.785,37.109,24.414,25.391,0
15936.782,32.227,25.391,35.156,31.250,28.809,0
15936.786,35.156,19.043,31.250,37.598,70.312,0
15936.790,37.598,23.926,31.738,28.320,59.570,0
15936.794,29.297,28.320,37.109,22.461,68.359,0
15936.797,28.320,26.855,41.016,32.227,48.828,0
15936.801,34.180,29.297,38.086,30.762,-4.883,0
15936.805,34.668,31.250,37.598,22.949,-1.953,0
15936.809,29.785,28.320,38.086,27.344,55.176,0
15936.813,20.996,29.297,34.180,31.250,66.406,0
15936.817,23.438,29.297,32.227,27.832,45.898,0
15936.821,28.320,25.391,31.738,19.531,27.344,0
15936.825,28.320,23.926,30.762,19.043,50.781,0
15936.829,23.926,30.273,32.715,16.113,42.969,0
15936.833,28.320,32.227,31.738,16.602,-12.695,0
15936.837,36.133,29.297,30.762,27.344,-27.344,0
15936.840,35.156,31.250,31.250,34.180,-6.836,0
15936.844,27.344,33.203,32.227,33.691,-3.418,0
15936.848,29.297,29.785,29.297,33.691,25.391,0
15936.852,33.203,26.855,22.461,35.645,58.105,0
15936.856,25.879,25.879,20.996,29.297,57.129,0
15936.860,18.066,26.367,26.855,18.066,56.641,1
15936.864,15.625,26.855,29.297,13.184,64.453,0
15936.868,27.832,23.438,25.391,20.996,83.984,0
15936.872,40.039,19.531,22.949,35.645,53.223,0
15936.876,37.598,22.949,24.414,28.809,48.828,0
15936.879,22.949,29.297,30.762,14.160,68.359,0
15936.883,27.344,27.832,31.250,23.926,35.156,0
15936.887,35.156,24.414,27.344,24.902,-16.602,0
15936.891,29.785,26.855,29.297,21.973,-33.691,0
15936.895,14.160,27.344,25.391,26.855,6.348,0
15936.899,12.695,23.926,22.949,24.902,46.387,0
15936.903,24.414,21.484,23.438,20.020,16.113,0
15936.907,26.855,19.043,20.996,11.719,15.625,0
15936.911,19.043,22.949,22.461,4.395,-5.371,0
15936.915,16.602,27.832,24.414,12.695,-36.621,0
15936.919,24.414,28.809,24.902,17.578,23.438,0
15936.922,20.020,24.902,23.926,13.184,-9.277,0
15936.926,13.184,22.461,24.902,12.695,-48.828,0
15936.930,12.207,23.926,28.320,18.555,-28.320,0
15936.934,21.484,22.949,28.809,31.250,-8.301,0
15936.938,40.039,25.391,28.320,35.645,11.230,0
15936.942,33.691,30.273,29.785,26.367,15.137,0
15936.946,13.184,29.785,31.250,18.066,28.809,0
15936.950,20.508,23.438,28.809,23.926,-2.441,0
15936.954,29.785,18.066,26.855,27.832,-8.301,0
15936.958,24.902,21.973,29.297,22.949,19.043,0
15936.962,20.020,25.391,31.738,18.066,13.184,0
15936.965,17.090,20.996,30.273,17.090,-41.016,0
15936.969,23.926,19.043,28.320,28.809,-10.254,0
15936.973,25.391,19.043,28.809,27.344,72.266,0
15936.977,17.090,20.508,31.250,19.531,57.617,0
15936.981,17.578,23.438,32.715,18.066,33.691,0
15936.985,32.715,25.391,31.738,21.484,-34.180,0
15936.989,43.945,23.438,27.344,24.414,6.836,0
15936.993,26.855,20.996,23.926,21.973,51.270,0
15936.997,10.254,24.902,29.785,28.809,2.930,0
15937.001,18.555,25.391,33.203,28.809,29.785,0
15937.004,21.973,21.973,30.273,12.207,71.777,0
15937.008,15.137,23.926,28.809,2.930,13.184,0
15937.012,16.602,27.344,29.785,4.883,-33.203,0
15937.016,25.391,27.344,30.273,21.973,20.508,0
15937.020,31.738,25.391,29.785,27.832,26.367,0
15937.024,25.879,24.414,28.320,19.043,-15.625,0
15937.028,16.113,24.902,28.320,16.113,-15.137,0
15937.032,19.043,22.949,27.832,26.367,38.574,0
15937.036,23.926,23.438,25.879,41.504,35.645,0
15937.040,23.438,27.344,27.344,35.645,9.277,0
15937.044,20.020,28.809,29.297,14.648,12.695,0
15937.047,7.812,26.855,26.855,5.371,-25.391,0
15937.051,12.695,23.438,27.344,17.090,-38.574,0
15937.055,21.973,22.461,32.227,30.762,71.777,0
15937.059,19.531,24.902,39.062,29.785,104.004,0
15937.063,14.648,24.414,35.645,24.414,39.062,0
15937.067,20.508,22.949,31.738,25.879,12.207,0
15937.071,22.461,19.043,31.738,23.438,6.348,0
15937.075,16.602,16.113,28.320,23.926,48.828,0
15937.079,13.672,24.414,33.203,14.160,-2.441,0
15937.083,16.602,28.809,32.715,10.254,1.465,0
15937.087,23.438,26.367,25.879,31.738,43.457,0
15937.090,24.902,27.344,26.367,27.832,1.953,0
15937.094,25.879,27.344,26.855,14.160,6.348,0
15937.098,37.109,27.344,24.414,23.438,-32.715,0
15937.102,37.109,24.902,23.926,22.461,-17.578,0
15937.106,26.367,22.949,24.902,10.742,23.926,0
15937.110,16.602,24.902,24.902,0.977,-48.340,0
15937.114,15.625,21.973,27.832,-1.953,-4.883,0
15937.118,29.297,19.043,32.227,15.137,60.059,0
15937.122,28.809,14.160,32.715,27.344,48.340,0
15937.126,16.602,17.090,33.691,21.973,60.547,0
15937.129,14.160,20.996,32.227,9.277,45.898,0
15937.133,12.695,16.113,26.855,1.465,30.762,0
15937.137,19.531,13.184,26.367,4.883,52.734,0
15937.141,27.832,17.090,32.715,11.230,30.762,0
15937.145,26.367,19.531,35.156,6.836,16.602,0
15937.149,27.832,21.973,31.250,6.836,20.020,0
15937.153,26.367,21.973,26.855,9.277,0.977,0
15937.157,20.996,16.113,26.367,6.836,8.301,0
15937.161,19.043,12.207,25.879,12.695,73.242,0
15937.165,21.484,11.230,25.879,18.066,117.676,0
15937.169,25.879,15.625,24.414,16.113,74.219,0
15937.172,24.414,22.949,24.414,19.043,-13.184,0
15937.176,22.461,25.391,25.391,10.254,-19.531,0
15937.180,29.785,26.367,29.297,-1.953,-21.484,0
15937.184,39.062,24.902,28.320,8.301,-32.715,0
15937.188,35.156,22.461,23.926,16.602,20.508,0
15937.192,24.414,24.414,28.320,15.625,42.480,0
15937.196,20.020,25.879,27.344,11.230,53.711,0
15937.200,25.879,23.926,25.391,15.137,63.965,0
15937.204,33.203,21.484,26.855,11.719,-16.113,0
15937.208,33.691,23.926,28.809,20.020,-24.414,0
15937.212,26.855,29.785,32.715,17.090,43.457,0
15937.215,33.203,29.785,35.645,9.277,68.848,0
15937.219,42.969,28.320,37.598,18.555,54.688,0
15937.223,30.762,29.785,35.645,17.578,82.520,0
15937.227,20.996,27.344,32.715,14.648,81.543,0
15937.231,28.320,27.344,31.250,17.090,24.902,0
15937.235,33.203,27.344,29.785,19.531,26.855,0
15937.239,33.691,24.902,27.832,17.578,49.316,0
15937.243,28.320,23.926,26.855,13.184,37.109,0
15937.247,24.414,20.996,27.344,6.836,-18.555,0
15937.251,27.344,18.066,26.367,11.719,2.441,0
15937.254,26.855,23.438,24.902,20.020,26.367,0
15937.258,19.043,28.320,30.762,13.184,-14.648,0
15937.262,9.766,28.809,30.273,7.812,-41.016,0
15937.266,12.207,30.273,23.926,18.555,-62.500,0
15937.270,19.531,27.832,23.926,23.926,-11.230,0
15937.274,20.996,26.367,25.879,21.973,3.906,0
15937.278,16.602,26.367,28.320,10.742,-39.062,0
15937.282,31.738,31.250,37.598,5.859,-26.367,0
15937.286,41.504,30.762,34.180,16.113,-8.789,0
15937.290,32.227,21.484,24.414,13.184,63.477,0
15937.294,31.738,20.020,28.320,4.395,72.754,0
15937.297,25.391,20.020,29.297,11.230,20.020,0
15937.301,24.902,22.949,26.855,20.508,9.277,0
15937.305,29.297,27.832,24.414,23.438,-2.441,0
15937.309,19.043,28.320,24.414,16.602,56.641,0
15937.313,16.602,25.879,24.902,1.465,30.762,0
15937.317,30.762,26.855,21.973,2.441,-22.461,0
15937.321,36.621,29.785,21.484,19.531,-40.039,0
15937.325,24.414,28.809,24.902,24.902,4.883,0
15937.329,16.113,25.879,28.809,12.207,48.340,0
15937.333,27.344,21.973,30.762,12.695,36.133,0
15937.337,34.180,19.043,28.320,21.973,31.250,0
15937.340,32.715,23.438,28.809,13.672,-2.930,0
15937.344,25.879,27.344,31.738,10.742,6.836,0
15937.348,25.391,28.809,34.180,23.438,49.316,0
15937.352,34.668,28.320,34.668,32.227,32.715,0
15937.356,33.691,26.855,33.203,24.902,9.766,0
15937.360,29.297,29.785,33.203,17.578,0.977,0
15937.364,28.809,29.297,33.691,13.672,46.387,0
15937.368,28.809,21.973,27.344,15.137,68.359,0
15937.372,25.879,19.043,26.855,23.926,55.664,0
15937.376,19.531,20.020,33.691,21.973,39.551,0
15937.379,21.484,22.949,35.645,16.602,1.465,0
15937.383,33.203,24.414,33.203,15.137,7.324,0
15937.387,35.156,26.855,28.320,6.348,56.152,0
15937.391,25.391,27.832,25.391,-2.930,63.965,0
15937.395,21.484,27.832,27.832,-0.977,-7.324,0
15937.399,29.785,27.344,28.809,11.719,-3.418,0
15937.403,35.156,25.391,26.855,11.230,28.320,0
15937.407,34.668,20.020,27.344,18.555,27.344,0
15937.411,27.832,21.484,31.738,24.902,43.457,0
15937.415,21.973,29.297,30.762,7.324,0.000,0
15937.419,26.855,31.738,28.320,12.207,4.883,0
15937.422,30.273,31.738,32.227,23.926,28.320,0
15937.426,25.879,31.250,33.203,21.484,-14.160,0
15937.430,20.996,29.785,34.180,14.648,2.930,0
15937.434,19.531,21.973,32.227,13.672,9.277,0
15937.438,26.855,20.508,31.250,19.043,19.043,0
15937.442,24.414,25.391,31.738,20.508,42.969,0
15937.446,12.695,26.855,28.809,12.695,-0.488,0
15937.450,16.113,24.902,26.855,28.809,-20.020,0
15937.454,22.461,21.973,25.391,28.320,-13.184,1
15937.458,17.090,26.855,25.391,1.465,27.832,0
15937.462,13.184,34.668,30.273,1.465,21.973,0
15937.465,21.973,35.156,27.344,8.789,7.324,0
15937.469,26.367,33.203,20.508,13.184,3.418,0
15937.473,18.066,33.691,22.949,11.719,-15.137,0
15937.477,18.066,34.180,27.832,7.324,-7.812,0
15937.481,21.973,34.180,27.344,7.324,-14.648,0
15937.485,23.926,26.855,23.438,8.301,41.504,0
15937.489,22.461,28.320,22.461,7.324,103.027,0
15937.493,20.996,38.086,24.414,4.883,80.078,0
15937.497,28.809,41.016,26.855,4.395,62.988,0
15937.501,35.156,37.598,28.320,15.137,66.895,0
15937.504,33.691,36.133,28.320,20.508,-5.371,0
15937.508,26.855,37.598,26.855,16.113,3.906,0
15937.512,20.996,33.691,27.344,16.602,43.457,0
15937.516,28.809,30.273,26.855,21.484,16.602,0
15937.520,31.738,36.133,28.809,34.180,-16.602,0
15937.524,21.484,40.039,28.809,16.602,2.930,0
15937.528,18.066,39.551,26.367,5.859,49.805,0
15937.532,24.414,35.645,27.832,20.020,62.988,0
15937.536,29.785,34.180,28.320,24.902,15.625,0
15937.540,27.832,37.598,25.879,27.832,21.973,0
15937.544,20.508,37.598,24.414,22.461,103.516,0
15937.547,27.344,37.598,25.879,17.090,36.133,0
15937.551,38.574,33.691,25.879,30.273,12.695,0
15937.555,27.832,33.691,28.320,23.926,39.551,0
15937.559,19.043,42.480,34.180,12.695,19.531,0
15937.563,23.926,44.434,37.598,15.137,18.066,0
15937.567,26.855,39.062,34.668,20.996,-2.441,0
15937.571,31.250,34.180,31.738,36.621,-4.883,0
15937.575,26.855,34.668,34.668,35.156,20.996,0
15937.579,20.508,36.133,36.133,21.484,26.367,0
15937.583,25.879,31.738,33.691,21.973,21.484,0
15937.587,36.133,26.367,32.227,39.062,47.363,0
15937.590,40.527,29.785,33.691,31.250,43.945,0
15937.594,36.133,39.062,42.480,23.438,-20.508,0
15937.598,31.250,39.551,44.922,34.180,-18.555,0
15937.602,31.738,33.691,39.062,26.367,62.500,0
15937.606,28.809,34.180,35.156,22.949,82.031,0
15937.610,21.973,36.621,33.203,18.555,82.031,0
15937.614,13.184,35.156,33.203,18.066,14.160,0
15937.618,20.996,35.156,37.109,33.203,-18.555,0
15937.622,25.391,34.668,38.574,32.227,13.672,0
15937.626,17.090,30.762,38.086,18.066,29.785,0
15937.629,24.414,35.645,40.039,28.320,11.230,0
15937.633,31.250,39.062,41.504,34.668,-11.719,0
15937.637,29.297,33.691,42.480,27.832,-21.484,0
15937.641,24.414,33.203,44.434,30.273,-37.598,0
15937.645,9.277,33.691,41.016,22.949,13.672,0
15937.649,15.137,32.715,39.551,20.508,11.230,0
15937.653,35.645,32.715,38.574,28.809,-30.762,0
15937.657,34.180,30.762,34.668,34.180,-11.230,0
15937.661,23.926,33.203,38.086,33.691,42.969,0
15937.665,26.855,33.691,42.969,38.086,-0.977,0
15937.669,36.133,27.832,42.480,46.387,-50.293,0
15937.672,35.156,29.297,41.504,41.992,43.457,0
15937.676,26.855,32.227,42.480,29.297,38.086,0
15937.680,24.414,29.297,40.527,31.738,-21.484,0
15937.684,35.156,27.344,34.180,39.062,60.059,0
15937.688,37.109,26.855,36.133,34.180,77.637,0
15937.692,22.949,26.855,40.039,23.926,51.758,0
15937.696,26.855,29.297,41.504,21.973,37.598,0
15937.700,37.109,33.203,44.434,41.992,11.719,0
15937.704,36.133,31.250,38.086,32.715,-13.184,0
15937.708,26.855,28.320,34.668,16.113,-33.691,0
15937.712,19.531,32.227,41.016,14.648,-4.395,0
15937.715,18.555,33.203,40.527,24.902,16.602,0
15937.719,29.785,32.227,39.551,34.668,21.484,0
15937.723,31.250,27.832,40.039,25.391,23.438,0
15937.727,22.949,26.855,40.039,24.902,-12.695,0
15937.731,30.273,31.738,40.527,29.785,7.812,0
15937.735,38.574,32.715,41.016,28.320,-18.555,0
15937.739,28.320,30.762,43.457,27.344,16.602,0
15937.743,16.113,30.273,42.480,29.785,52.734,0
15937.747,16.602,25.391,39.062,23.926,50.781,0
15937.751,31.738,23.926,38.086,29.297,57.129,0
15937.754,34.668,29.297,36.133,32.715,23.926,0
15937.758,22.949,33.691,40.527,31.250,23.438,0
15937.762,17.578,35.156,44.434,29.785,63.965,0
15937.766,25.879,33.203,39.551,21.484,12.695,0
15937.770,32.227,35.156,36.133,24.414,-32.227,0
15937.774,30.273,37.598,36.621,36.133,-11.719,0
15937.778,22.461,37.109,38.086,17.578,-5.859,0
15937.782,17.578,36.621,36.621,3.906,-21.973,0
15937.786,26.367,30.273,33.203,19.531,46.387,0
15937.790,26.855,30.273,30.762,13.672,31.738,0
15937.794,19.531,37.109,33.691,3.418,3.906,0
15937.797,26.855,37.598,36.133,13.184,65.430,0
15937.801,38.574,37.109,35.156,26.855,44.434,0
15937.805,31.250,37.598,33.203,28.320,59.082,0
15937.809,14.648,36.133,32.715,17.578,78.125,0
15937.813,14.160,40.527,34.180,5.371,31.738,0
15937.817,24.414,39.551,32.227,16.113,26.367,0
15937.821,22.461,29.785,29.785,24.414,34.668,0
15937.825,15.625,30.762,29.297,15.137,28.809,0
15937.829,12.695,36.621,30.273,17.578,26.367,0
15937.833,18.555,33.691,26.855,17.090,10.254,0
15937.837,27.832,33.203,23.926,15.625,25.879,0
15937.840,28.320,36.133,31.250,16.113,24.902,0
15937.844,24.902,36.621,30.273,6.348,24.902,0
15937.848,28.320,36.621,25.391,4.883,53.223,0
15937.852,29.297,34.180,26.367,20.020,8.789,0
15937.856,23.926,33.691,30.273,26.367,-26.855,0
15937.860,21.973,33.691,31.738,7.812,-61.035,0
15937.864,25.391,33.203,33.691,9.277,-31.738,0
15937.868,29.785,35.156,30.273,21.973,7.324,0
15937.872,29.297,39.062,29.785,18.555,24.902,0
15937.876,26.367,43.945,38.086,15.137,36.133,0
15937.879,26.367,46.875,41.016,10.254,39.062,0
15937.883,28.320,43.945,36.621,20.996,66.895,0
15937.887,32.715,39.062,32.715,31.250,39.062,0
15937.891,30.273,39.551,32.715,26.367,20.508,0
15937.895,28.320,43.457,33.203,25.879,12.207,0
15937.899,32.227,40.039,33.691,28.320,19.043,0
15937.903,33.203,31.738,35.645,35.645,42.480,0
15937.907,30.273,32.227,35.156,32.227,43.457,0
15937.911,21.973,39.062,37.598,11.719,68.848,0
15937.915,21.973,41.016,35.645,11.230,68.359,0
15937.919,31.738,38.086,26.855,23.438,11.230,0
15937.922,30.762,34.180,23.438,18.555,-38.086,0
15937.926,25.391,29.785,27.832,6.836,-3.418,0
15937.930,26.367,28.320,32.715,6.836,65.918,0
15937.934,30.762,27.832,34.180,28.809,35.645,0
15937.938,36.133,25.879,32.715,33.691,-5.859,0
15937.942,29.785,25.391,33.203,19.043,-2.441,0
15937.946,20.996,31.738,36.133,14.160,0.488,0
15937.950,29.297,35.156,29.785,26.855,-22.949,0
15937.954,33.203,30.762,24.902,37.598,-24.414,0
15937.958,18.066,31.250,29.297,21.973,8.789,0
15937.962,11.719,34.668,30.273,10.254,31.250,0
15937.965,18.066,33.203,27.832,10.742,20.020,0
15937.969,24.902,28.320,25.391,20.020,11.230,0
15937.973,27.832,27.344,25.879,27.832,55.664,0
15937.977,27.832,35.156,31.738,31.250,40.527,0
15937.981,29.785,41.016,35.156,23.438,17.578,0
15937.985,25.879,34.668,28.320,16.602,38.086,0
15937.989,19.531,30.273,21.973,19.043,1.953,0
15937.993,17.090,31.738,23.438,10.254,-33.691,0
15937.997,17.578,32.227,24.902,6.348,-62.012,0
15938.001,23.438,30.273,25.391,15.137,-8.789,0
15938.004,33.203,23.926,22.461,27.832,51.758,0
15938.008,25.879,26.855,25.879,29.785,38.574,0
15938.012,7.324,33.691,37.109,6.836,44.434,0
15938.016,13.184,34.180,36.621,6.348,49.316,0
15938.020,27.344,35.645,32.715,22.461,27.832,0
15938.024,22.949,36.133,32.715,20.996,22.949,0
15938.028,14.160,38.086,33.691,19.531,24.902,1
15938.032,18.066,39.551,33.691,31.250,31.250,0
15938.036,24.414,32.227,29.297,27.832,45.410,0
15938.040,25.391,27.832,29.297,18.066,21.973,0
15938.044,12.695,29.297,30.762,15.137,3.418,0
15938.047,14.160,33.691,27.832,18.066,17.090,0
15938.051,29.297,33.691,27.344,32.715,5.371,0
15938.055,27.344,31.250,30.762,34.668,29.785,0
15938.059,24.414,38.086,33.691,40.039,48.828,0
15938.063,25.879,39.062,32.227,40.527,-19.043,0
15938.067,29.297,35.645,24.414,31.250,5.371,0
15938.071,30.273,37.109,21.484,23.926,95.215,0
15938.075,24.902,36.621,26.855,14.648,68.848,0
15938.079,26.367,39.551,32.715,20.020,-9.277,0
15938.083,30.273,37.598,32.227,31.250,24.902,0
15938.087,33.691,32.227,27.832,38.574,62.500,0
15938.090,38.574,37.109,31.738,40.039,32.715,0
15938.094,26.367,41.504,33.691,38.086,45.410,0
15938.098,14.648,33.691,29.785,34.180,53.223,0
15938.102,32.227,32.227,24.414,28.809,41.992,0
15938.106,38.574,39.062,22.949,31.250,38.574,0
15938.110,33.203,39.062,24.414,34.180,20.020,0
15938.114,31.738,34.180,22.461,27.832,38.574,0
15938.118,32.715,34.180,19.043,21.973,53.711,0
15938.122,41.016,38.574,24.414,26.367,8.789,0
15938.126,36.133,37.109,25.879,23.438,-15.137,0
15938.129,24.414,32.715,22.461,26.855,45.410,0
15938.133,27.344,29.785,22.949,51.270,54.688,0
15938.137,31.738,26.367,25.391,36.621,20.996,0
15938.141,34.180,28.809,24.902,7.812,3.418,0
15938.145,30.762,35.156,24.902,8.789,0.488,0
15938.149,26.367,33.691,25.879,19.043,26.855,0
15938.153,28.809,27.832,25.391,35.645,33.691,0
15938.157,33.203,26.855,29.785,46.387,6.348,0
15938.161,31.250,29.785,32.715,30.762,-36.133,0
15938.165,26.367,28.320,25.391,20.508,30.762,0
15938.169,31.738,22.949,25.391,23.926,79.102,0
15938.172,32.715,28.809,31.250,25.879,34.180,0
15938.176,24.414,34.668,35.156,19.531,-28.320,0
15938.180,25.879,35.645,37.109,11.719,-35.156,0
15938.184,30.762,36.133,31.738,9.277,-8.301,0
15938.188,31.250,32.715,30.273,16.602,-10.742,0
15938.192,31.250,32.715,35.156,23.926,9.766,0
15938.196,27.832,35.645,37.598,24.414,44.434,0
15938.200,22.949,32.227,36.133,28.320,34.180,0
15938.204,23.438,29.297,29.785,28.320,21.484,0
15938.208,25.879,35.156,28.809,24.414,37.109,0
15938.212,25.391,41.992,29.785,22.949,24.414,0
15938.215,24.902,38.086,26.367,18.555,-11.230,0
15938.219,30.762,33.691,24.902,9.277,-19.043,0
15938.223,33.691,37.598,28.320,13.672,40.527,0
15938.227,21.484,32.715,30.273,9.277,49.805,0
15938.231,11.230,24.902,28.320,11.230,5.371,0
15938.235,20.020,27.832,27.344,20.996,9.766,0
15938.239,27.832,32.715,28.809,25.879,27.344,0
15938.243,13.184,32.715,31.738,20.996,21.484,0
15938.247,13.672,31.250,34.180,22.461,0.488,0
15938.251,24.902,26.855,32.227,33.691,26.367,0
15938.254,22.461,22.461,26.367,19.531,30.273,0
15938.258,22.461,23.926,29.297,18.555,54.199,0
15938.262,16.113,26.855,39.551,26.367,33.691,0
15938.266,14.160,29.785,38.086,24.414,-9.766,0
15938.270,21.484,29.785,33.691,29.785,2.441,0
15938.274,18.555,24.414,36.133,30.273,33.203,0
15938.278,21.973,26.367,42.480,23.926,27.832,0
15938.282,30.273,27.344,44.434,19.043,19.043,0
15938.286,27.344,24.902,40.527,25.879,11.719,0
15938.290,20.508,30.762,38.574,32.227,9.766,0
15938.294,17.090,34.668,39.062,24.902,13.672,0
15938.297,22.949,29.785,42.969,24.902,5.371,0
15938.301,31.250,25.879,42.969,30.762,49.805,0
15938.305,31.250,29.785,39.551,20.996,53.223,0
15938.309,19.531,32.715,41.504,11.230,-11.719,0
15938.313,12.695,33.691,41.992,11.719,5.371,0
15938.317,21.484,30.762,41.016,26.367,24.414,0
15938.321,27.344,27.344,38.574,28.809,24.414,0
15938.325,29.297,29.785,38.574,18.066,44.922,0
15938.329,27.832,35.645,39.551,17.578,17.090,0
15938.333,31.250,35.156,39.551,24.414,41.992,0
15938.337,40.039,31.738,39.551,31.738,62.012,0
15938.340,39.551,35.645,39.551,35.645,30.273,0
15938.344,28.320,40.527,40.039,21.973,26.855,0
15938.348,21.973,41.016,37.598,10.742,-36.133,0
15938.352,26.855,38.574,34.668,21.973,-24.902,0
15938.356,29.785,36.133,35.645,26.367,5.859,0
15938.360,23.926,38.086,40.039,20.508,21.484,0
15938.364,20.996,35.645,42.480,22.461,-8.789,0
15938.368,29.785,37.598,42.969,26.855,-26.367,0
15938.372,35.645,34.668,41.992,31.738,26.367,0
15938.376,26.855,28.809,39.062,20.996,12.207,0
15938.379,17.578,34.668,38.086,16.602,-0.488,0
15938.383,24.902,37.598,35.156,31.250,9.766,0
15938.387,32.715,35.645,31.738,40.039,21.973,0
15938.391,30.762,35.156,33.691,32.227,45.898,0
15938.395,28.320,35.156,37.109,17.090,31.250,0
15938.399,31.250,35.156,37.598,18.066,29.297,0
15938.403,33.203,33.691,35.156,26.367,30.273,0
15938.407,31.250,34.180,32.715,34.668,-20.996,0
15938.411,26.855,32.715,33.203,21.484,-35.156,0
15938.415,22.461,27.832,34.180,15.625,-6.348,0
15938.419,26.855,28.809,32.227,28.320,8.301,0
15938.422,30.273,33.691,26.367,33.691,14.160,0
15938.426,24.902,39.551,29.297,31.250,68.359,0
15938.430,23.438,41.016,32.715,25.391,65.430,0
15938.434,31.738,38.086,29.785,35.156,-44.922,0
15938.438,34.180,38.086,27.344,34.180,-35.645,0
15938.442,20.996,40.527,26.855,13.672,6.348,0
15938.446,15.625,39.062,28.809,9.766,24.902,0
15938.450,29.297,33.203,28.809,23.926,45.410,0
15938.454,35.645,33.203,29.785,38.574,25.391,0
15938.458,24.414,37.598,31.250,31.250,-4.395,0
15938.462,19.043,40.039,34.180,21.484,20.020,0
15938.465,25.391,41.016,34.668,28.809,32.227,0
15938.469,27.344,39.062,29.785,26.855,38.086,0
15938.473,27.344,37.598,28.320,20.508,31.738,0
15938.477,26.855,39.551,34.668,21.484,15.137,0
15938.481,25.879,35.156,34.668,30.273,32.227,0
15938.485,37.109,32.715,31.738,32.227,61.523,0
15938.489,33.203,36.133,30.762,28.320,52.734,0
15938.493,21.484,38.086,31.250,24.414,39.551,0
15938.497,26.367,41.016,34.180,30.273,61.523,0
15938.501,33.203,40.527,33.203,35.156,39.062,0
15938.504,32.227,35.645,28.320,23.438,24.414,0
15938.508,26.367,31.250,29.785,22.949,59.082,0
15938.512,17.578,30.762,30.273,18.066,2.441,0
15938.516,25.879,33.691,31.738,14.648,-29.785,0
15938.520,30.273,34.180,35.645,22.949,17.578,0
15938.524,23.926,32.227,39.551,22.461,41.504,0
15938.528,27.344,33.691,44.434,27.344,53.223,0
15938.532,24.902,33.203,40.527,36.621,52.246,0
15938.536,19.043,28.320,33.691,37.109,28.320,0
15938.540,17.578,25.879,34.668,29.785,36.133,0
15938.544,6.836,28.809,40.039,17.090,20.508,0
15938.547,10.254,32.227,39.062,20.996,-19.043,0
15938.551,26.367,32.227,37.598,34.180,-15.137,0
15938.555,26.367,31.250,38.086,35.156,8.301,0
15938.559,15.137,33.691,39.062,22.949,69.824,0
15938.563,23.926,36.621,41.992,20.508,67.871,0
15938.567,39.062,36.621,35.645,30.273,32.227,0
15938.571,30.762,32.227,28.809,33.691,36.621,0
15938.575,17.578,30.273,31.738,28.809,15.137,0
15938.579,15.625,37.109,35.156,19.531,6.348,0
15938.583,23.438,40.039,34.180,22.949,-10.742,0
15938.587,27.832,36.133,32.227,34.180,-22.949,0
15938.590,17.578,34.668,31.738,30.273,41.504,0
15938.594,7.324,36.133,36.133,20.508,42.969,0
15938.598,15.625,36.133,38.086,24.902,-29.297,0
15938.602,29.785,34.180,31.738,24.414,-26.855,0
15938.606,32.227,34.180,31.250,20.020,-23.926,0
15938.610,21.484,35.645,33.691,17.578,-11.719,0
15938.614,18.555,34.668,33.203,21.484,11.230,0
15938.618,25.391,31.738,32.715,33.691,13.672,0
15938.622,24.902,30.762,31.738,35.645,12.207,0
15938.626,18.555,34.180,30.762,22.949,-33.691,0
15938.629,19.043,34.668,32.227,20.508,-54.688,0
15938.633,26.855,33.691,34.668,26.367,-1.953,0
15938.637,33.203,34.668,35.156,31.250,27.344,0
15938.641,25.391,34.180,34.180,34.180,31.250,0
15938.645,19.043,33.691,33.691,24.902,7.812,0
15938.649,29.785,37.598,31.250,22.949,-31.250,0
15938.653,37.109,36.621,28.320,27.344,-0.977,0
15938.657,31.250,34.180,30.762,25.391,67.383,0
15938.661,16.602,33.691,36.133,23.438,91.309,0
15938.665,19.531,31.738,34.668,27.344,19.043,0
15938.669,29.297,29.785,31.250,28.320,0.488,0
15938.672,29.297,30.762,29.785,15.625,27.344,0
15938.676,28.320,35.645,30.273,6.836,17.090,0
15938.680,22.461,33.691,29.785,7.324,-14.648,1
15938.684,17.578,26.855,25.879,14.160,9.766,0
15938.688,17.578,30.273,24.902,20.996,17.090,0
15938.692,17.090,35.645,27.344,22.461,18.066,0
15938.696,13.184,35.156,25.879,22.461,63.965,0
15938.700,19.531,32.227,25.391,14.648,85.449,0
15938.704,23.926,33.691,25.391,12.695,77.637,0
15938.708,21.973,38.086,28.809,19.043,66.895,0
15938.712,20.508,35.645,30.273,6.836,54.199,0
15938.715,19.043,32.715,26.855,12.207,0.000,0
15938.719,24.414,35.645,27.344,29.785,12.207,0
15938.723,25.391,37.598,27.832,29.785,75.684,0
15938.727,19.531,36.621,25.391,23.926,49.316,0
15938.731,20.996,33.691,25.391,23.438,-9.766,0
15938.735,23.438,28.320,27.344,30.273,-15.137,0
15938.739,32.715,25.391,31.250,33.691,-32.715,0
15938.743,33.203,30.762,33.203,26.855,-64.941,0
15938.747,19.043,32.227,32.715,17.090,-33.691,0
15938.751,24.902,29.785,28.320,24.414,-12.207,0
15938.754,28.809,32.227,23.438,21.973,35.156,0
15938.758,23.438,34.180,29.297,15.625,46.875,0
15938.762,27.344,36.133,32.715,21.973,25.879,0
15938.766,34.180,32.227,29.785,24.414,20.508,0
15938.770,34.180,27.832,28.809,24.902,16.602,0
15938.774,24.414,31.738,29.785,19.531,23.926,0
15938.778,18.066,32.715,31.738,16.113,42.969,0
15938.782,21.973,28.320,34.668,23.438,15.625,0
15938.786,22.461,23.438,32.227,23.438,-51.270,0
15938.790,23.926,25.391,28.809,27.344,-0.977,0
15938.794,19.043,32.715,35.156,18.066,55.176,0
15938.797,19.043,33.691,34.668,10.254,38.574,0
15938.801,32.715,33.203,29.785,21.973,6.836,0
15938.805,33.203,31.738,31.738,38.086,17.578,0
15938.809,15.137,30.762,33.691,29.785,5.371,0
15938.813,9.766,27.832,32.715,13.184,-8.789,0
15938.817,24.414,26.855,29.785,29.785,30.273,0
15938.821,25.879,33.203,30.762,38.574,22.461,0
15938.825,15.137,34.668,30.273,20.996,16.113,0
15938.829,9.277,32.715,29.785,11.230,5.859,0
15938.833,13.184,30.273,27.344,20.020,11.719,0
15938.837,19.531,27.344,28.809,26.367,23.926,0
15938.840,20.020,30.273,37.598,20.508,58.105,0
15938.844,14.160,34.668,39.551,22.461,77.148,0
15938.848,16.113,33.691,36.621,28.320,16.602,0
15938.852,27.832,28.320,32.715,26.367,37.598,0
15938.856,29.785,26.367,28.809,29.297,27.344,0
15938.860,20.020,33.691,31.738,23.926,-3.906,0
15938.864,15.137,37.109,30.273,16.113,41.992,0
15938.868,18.066,33.203,25.879,21.484,24.414,0
15938.872,26.855,34.180,29.297,24.902,22.461,0
15938.876,29.297,39.062,34.668,22.949,17.090,0
15938.879,22.461,39.551,35.645,17.090,36.621,0
15938.883,25.879,31.738,30.273,21.484,-0.488,0
15938.887,35.156,26.367,27.832,28.809,-17.090,0
15938.891,30.762,31.250,26.855,21.484,50.293,0
15938.895,18.555,34.668,27.344,12.207,62.500,0
15938.899,19.043,33.203,27.832,27.832,-1.953,0
15938.903,24.414,32.227,28.809,36.133,-15.625,0
15938.907,23.926,33.203,30.273,22.949,51.270,0
15938.911,21.973,35.645,33.691,22.461,62.988,0
15938.915,26.367,36.133,33.203,22.949,18.066,0
15938.919,34.668,35.156,32.227,35.645,-28.320,0
15938.922,30.273,31.738,35.156,33.691,-21.973,0
15938.926,19.531,32.715,33.691,15.137,-3.418,0
15938.930,18.066,32.227,30.762,17.090,1.953,0
15938.934,23.438,28.320,28.320,27.832,28.320,0
15938.938,25.879,34.180,29.297,31.738,68.848,0
15938.942,15.137,38.574,33.691,18.066,27.832,0
15938.946,12.695,40.039,34.668,9.277,24.414,0
15938.950,22.461,36.621,32.715,24.902,62.500,0
15938.954,34.180,32.227,31.738,24.414,46.387,0
15938.958,33.203,34.668,31.738,15.625,-2.930,0
15938.962,20.996,36.621,36.133,9.277,30.273,0
15938.965,15.625,32.715,35.156,4.883,35.645,0
15938.969,27.832,33.203,32.227,21.973,-18.066,0
15938.973,33.203,34.180,30.762,26.367,11.719,0
15938.977,23.926,35.645,32.227,18.066,18.066,0
15938.981,26.855,40.039,38.574,43.457,45.898,0
15938.985,30.273,36.133,39.062,45.898,82.031,0
15938.989,30.273,29.297,38.574,18.555,30.762,0
15938.993,21.973,34.180,37.109,15.137,-35.156,0
15938.997,19.531,38.574,37.109,17.578,-39.551,0
15939.001,34.180,34.180,37.598,22.461,7.324,0
15939.004,33.691,32.715,38.086,27.832,18.555,0
15939.008,19.531,34.668,40.039,20.996,41.016,0
15939.012,14.160,37.109,41.992,24.902,72.266,0
15939.016,25.391,38.086,40.527,29.297,58.105,0
15939.020,33.203,33.691,40.527,24.902,19.043,0
15939.024,21.484,32.227,40.527,31.738,9.277,0
15939.028,12.695,34.668,41.016,32.715,25.879,0
15939.032,18.066,32.715,44.434,25.391,23.438,0
15939.036,25.391,28.320,42.480,27.832,25.879,0
15939.040,23.438,26.855,41.992,28.809,-9.277,0
15939.044,12.695,28.809,44.922,17.578,-34.668,0
15939.047,15.625,28.809,43.457,19.531,-15.137,0
15939.051,32.715,31.250,42.969,32.715,14.648,0
15939.055,33.203,35.156,41.504,40.527,33.691,0
15939.059,26.855,33.203,41.992,30.762,28.809,0
15939.063,25.879,30.273,43.457,20.996,41.016,0
15939.067,23.926,28.809,37.598,32.227,39.551,0
15939.071,29.297,31.250,35.156,43.945,27.344,0
15939.075,24.902,33.691,36.621,42.969,39.551,0
15939.079,14.160,32.227,36.621,42.480,52.246,0
15939.083,18.555,33.203,37.598,43.945,18.555,0
15939.087,26.367,30.762,36.621,40.527,-29.785,0
15939.090,26.855,30.273,33.691,34.668,-6.348,0
15939.094,26.855,29.785,35.156,20.508,-29.785,0
15939.098,28.320,26.855,35.645,28.809,-33.691,0
15939.102,28.320,30.273,32.715,39.551,68.848,0
15939.106,24.414,33.691,30.273,40.039,104.492,0
15939.110,17.578,33.691,34.180,31.250,49.316,0
15939.114,19.531,33.203,35.645,23.438,35.156,0
15939.118,30.273,31.738,32.227,42.480,28.320,0
15939.122,33.203,31.738,34.180,43.457,44.434,0
15939.126,24.414,31.250,40.039,41.016,55.176,0
15939.129,20.996,32.227,44.922,45.410,-12.207,0
15939.133,26.367,25.879,40.527,34.668,-15.137,0
15939.137,34.180,15.137,33.203,28.809,31.738,0
15939.141,32.227,20.020,33.203,24.902,54.688,0
15939.145,25.879,30.762,34.668,16.113,26.367,0
15939.149,22.949,28.320,30.762,19.531,-3.906,0
15939.153,23.926,25.391,32.227,29.785,3.418,0
15939.157,22.949,26.367,36.133,27.344,65.430,0
15939.161,17.090,26.855,38.574,16.113,64.941,0
15939.165,18.066,27.344,35.156,20.996,31.738,0
15939.169,18.555,20.020,29.297,29.785,3.418,0
15939.172,17.090,18.066,29.297,23.926,10.254,0
15939.176,17.578,25.879,26.855,13.672,52.734,0
15939.180,19.531,29.297,30.273,26.367,55.664,0
15939.184,22.949,27.344,32.715,33.203,2.441,1
15939.188,23.926,30.273,33.203,24.414,-19.043,0
15939.192,23.926,35.645,35.645,23.926,54.688,0
15939.196,17.090,35.645,35.645,19.531,68.848,0
15939.200,18.066,37.109,30.762,28.320,52.246,0
15939.204,27.832,34.180,26.367,35.645,49.805,0
15939.208,21.973,28.320,27.344,32.715,49.805,0
15939.212,12.695,27.344,30.762,33.691,21.973,0
15939.215,19.043,32.715,33.691,38.086,39.062,0
15939.219,32.715,36.133,32.227,37.109,52.246,0
15939.223,38.574,37.598,30.273,25.879,17.578,0
15939.227,41.504,40.527,35.156,21.973,-12.695,0
15939.231,44.922,39.062,35.645,35.645,48.828,0
15939.235,44.922,37.598,31.738,49.316,93.262,0
15939.239,45.410,39.551,34.668,47.852,4.883,0
15939.243,32.715,38.574,36.133,36.133,22.461,0
15939.247,19.043,33.691,34.180,12.207,42.969,0
15939.251,19.531,33.203,28.320,12.695,33.691,0
15939.254,24.902,37.598,27.344,34.668,20.996,0
15939.258,26.367,41.992,33.691,31.738,24.414,0
15939.262,23.438,41.992,35.156,19.043,57.617,0
15939.266,28.809,39.062,35.156,26.367,36.133,0
15939.270,42.969,40.527,32.715,33.691,12.695,0
15939.274,34.180,41.504,32.227,29.297,36.621,0
15939.278,23.926,38.574,36.621,24.902,25.391,0
15939.282,33.203,33.203,34.668,24.414,8.789,0
15939.286,34.180,31.738,28.809,30.762,40.527,0
15939.290,29.785,37.598,29.297,31.250,44.434,0
15939.294,19.531,42.480,31.738,30.273,4.883,0
15939.297,14.648,42.480,30.273,30.762,-7.812,0
15939.301,26.855,41.992,32.715,24.414,25.879,0
15939.305,29.297,37.598,32.227,28.320,-19.531,0
15939.309,23.438,37.109,33.691,26.855,16.113,0
15939.313,23.926,38.086,36.621,22.461,31.738,0
15939.317,30.762,34.180,34.180,32.715,6.836,0
15939.321,39.062,25.391,32.227,35.156,25.879,0
15939.325,29.297,24.902,27.832,27.832,17.090,0
15939.329,25.391,32.227,29.297,29.297,28.809,0
15939.333,29.785,32.715,30.762,32.227,24.902,0
15939.337,22.949,31.250,24.902,24.414,23.438,0
15939.340,20.508,34.180,29.785,23.438,65.430,0
15939.344,16.602,35.645,34.668,9.277,71.289,0
15939.348,20.020,29.785,30.762,5.371,-6.348,0
15939.352,30.273,22.461,32.227,19.043,-20.508,0
15939.356,26.855,28.809,33.203,18.555,-7.812,0
15939.360,23.926,37.109,32.227,9.277,-9.277,0
15939.364,29.785,34.180,30.273,3.906,-11.230,0
15939.368,32.715,29.785,27.832,16.113,-14.648,0
15939.372,29.297,30.273,29.785,24.902,28.809,0
15939.376,21.484,31.250,29.785,16.113,0.977,0
15939.379,17.090,30.762,34.180,11.719,-28.320,0
15939.383,24.414,27.832,36.133,32.227,-35.645,0
15939.387,29.785,21.484,32.227,35.645,-46.875,0
15939.391,25.391,26.367,32.227,25.391,18.555,0
15939.395,22.461,34.180,35.645,20.996,5.859,0
15939.399,24.414,33.203,37.598,19.043,32.715,0
15939.403,34.668,32.715,37.598,28.809,12.207,0
15939.407,34.180,33.203,38.086,36.133,2.441,0
15939.411,22.949,34.668,39.551,38.086,-13.184,0
15939.415,28.320,35.156,37.109,33.691,-9.277,0
15939.419,28.809,28.809,34.668,33.203,89.355,0
15939.422,20.508,29.297,33.203,34.180,72.754,0
15939.426,17.090,37.109,36.133,30.762,-6.348,0
15939.430,23.438,40.039,41.504,32.227,-7.324,0
15939.434,32.227,35.156,38.086,28.320,75.684,0
15939.438,30.762,34.668,35.645,28.809,81.055,0
15939.442,22.949,36.133,35.645,25.391,35.645,0
15939.446,20.508,38.086,38.086,24.414,-3.906,0
15939.450,23.926,35.156,41.016,34.668,-15.625,0
15939.454,24.414,28.320,33.691,38.574,-8.789,0
15939.458,27.344,33.203,33.203,26.367,-20.020,0
15939.462,18.066,35.645,40.527,17.090,30.762,0
15939.465,17.578,33.691,38.574,24.902,46.387,0
15939.469,30.273,32.227,35.645,36.133,52.734,0
15939.473,29.785,30.273,34.668,39.062,93.262,0
15939.477,23.926,36.621,36.133,33.203,77.637,0
15939.481,28.320,41.016,38.086,23.926,14.160,0
15939.485,34.668,35.645,34.180,24.902,1.465,0
15939.489,29.785,33.203,28.809,30.273,12.695,0
15939.493,25.879,33.691,30.273,22.949,-5.859,0
15939.497,25.391,34.180,32.715,22.461,33.203,0
15939.501,29.785,33.203,29.297,37.109,47.363,0
15939.504,29.297,32.227,26.367,36.133,38.574,0
15939.508,17.578,33.203,27.832,22.461,51.758,0
15939.512,13.672,34.180,28.809,4.883,35.645,0
15939.516,24.902,31.738,26.367,8.301,20.020,0
15939.520,39.062,35.156,23.926,26.855,21.484,0
15939.524,44.922,41.504,27.832,21.484,20.996,0
15939.528,28.320,39.062,31.250,3.906,26.367,0
15939.532,15.137,36.621,26.855,5.371,28.320,0
15939.536,27.832,35.645,23.926,20.508,-14.160,0
15939.540,27.344,34.180,24.414,20.508,5.859,0
15939.544,22.461,35.156,28.320,8.789,23.926,0
15939.547,33.691,40.039,33.691,17.090,5.859,0
15939.551,38.574,41.016,33.691,24.414,-37.109,0
15939.555,29.297,31.738,31.738,10.742,4.395,0
15939.559,17.578,29.297,33.691,15.625,40.039,0
15939.563,20.996,34.668,32.715,14.648,-22.461,0
15939.567,33.203,35.156,31.738,11.719,-11.230,0
15939.571,40.527,34.180,31.250,21.973,20.020,0
15939.575,30.273,34.180,33.203,24.902,40.039,0
15939.579,20.996,38.086,38.086,30.273,40.039,0
15939.583,28.809,39.551,37.109,33.691,55.176,0
15939.587,30.273,30.273,33.203,32.227,31.738,0
15939.590,25.391,28.320,34.180,32.715,8.789,0
15939.594,18.555,36.133,34.180,22.949,8.789,0
15939.598,20.996,37.598,37.109,15.137,-9.766,0
15939.602,27.832,33.691,37.598,36.133,27.344,0
15939.606,25.879,32.715,39.551,33.203,31.738,0
15939.610,20.508,36.621,43.457,10.742,11.230,0
15939.614,21.973,34.668,39.062,9.766,28.320,0
15939.618,31.738,33.203,36.133,22.461,29.297,0
15939.622,34.180,36.133,37.598,31.738,-23.438,0
15939.626,26.367,35.645,35.156,25.391,-13.672,0
15939.629,33.203,36.133,36.133,28.320,8.301,0
15939.633,41.504,36.621,38.574,32.715,-2.441,0
15939.637,33.691,33.203,36.133,37.598,24.414,0
15939.641,24.414,32.227,35.156,31.738,7.324,0
15939.645,22.461,33.691,35.645,16.113,-0.977,0
15939.649,25.879,30.762,34.180,19.043,81.055,0
15939.653,25.879,26.855,34.180,18.555,39.551,0
15939.657,20.020,31.250,38.086,16.113,-34.180,0
15939.661,14.648,34.180,38.086,17.578,41.992,0
15939.665,18.555,26.855,33.203,24.414,68.848,0
15939.669,23.926,24.902,32.715,30.273,19.043,0
15939.672,19.531,30.762,34.180,28.809,16.602,0
15939.676,9.766,32.227,38.086,22.949,37.109,0
15939.680,14.160,31.738,41.504,19.531,63.477,0
15939.684,27.832,32.227,38.086,24.902,25.879,0
15939.688,22.949,27.832,34.180,18.066,-21.973,0
15939.692,10.742,27.832,37.598,11.719,41.016,0
15939.696,6.836,30.762,41.504,18.066,45.898,0
15939.700,15.137,29.297,39.062,25.879,31.250,1
15939.704,26.367,29.297,35.156,33.203,21.484,0
15939.708,23.438,32.227,35.156,31.250,8.301,0
15939.712,16.602,30.762,34.180,22.461,29.297,0
15939.715,21.973,22.461,32.715,20.020,22.949,0
15939.719,24.414,24.414,32.227,27.832,68.848,0
15939.723,15.137,31.250,32.227,31.250,63.477,0
15939.727,7.324,33.203,32.715,25.391,19.043,0
15939.731,17.578,33.203,30.762,25.879,45.410,0
15939.735,28.809,31.738,28.809,23.438,61.523,0
15939.739,32.715,33.691,29.297,20.020,38.086,0
15939.743,26.855,37.598,30.762,20.996,10.254,0
15939.747,13.672,35.645,31.738,8.789,-3.906,0
15939.751,19.531,26.855,28.809,8.301,8.789,0
15939.754,24.902,23.438,27.344,23.926,14.160,0
15939.758,17.090,28.320,31.738,26.855,34.180,0
15939.762,20.508,33.691,35.156,21.973,76.660,0
15939.766,22.949,28.809,29.785,23.926,51.758,0
15939.770,22.949,25.879,29.785,33.203,25.391,0
15939.774,24.414,27.832,35.156,37.598,-6.348,0
15939.778,18.555,30.273,38.574,21.973,8.789,0
15939.782,21.973,28.809,37.109,19.043,65.918,0
15939.786,30.273,24.414,29.297,35.645,45.898,0
15939.790,25.879,26.367,29.785,41.504,45.410,0
15939.794,21.973,24.902,31.738,30.273,37.109,0
15939.797,31.250,26.367,30.273,20.996,-2.930,0
15939.801,35.156,30.762,33.691,28.809,27.344,0
15939.805,36.133,31.250,33.691,30.273,16.602,0
15939.809,28.809,30.762,32.227,26.855,-14.648,0
15939.813,21.484,30.762,31.738,29.785,17.090,0
15939.817,26.855,29.297,26.855,33.691,34.180,0
15939.821,28.320,26.367,27.344,28.809,22.461,0
15939.825,28.809,29.785,32.227,29.297,7.324,0
15939.829,29.297,30.273,34.180,31.250,15.137,0
15939.833,27.832,21.484,31.738,25.879,17.090,0
15939.837,35.156,23.926,29.297,31.738,-13.672,0
15939.840,35.156,30.762,33.691,34.668,-5.859,0
15939.844,23.926,31.250,35.645,28.320,9.277,0
15939.848,24.414,27.344,30.762,18.555,-1.953,0
15939.852,31.738,23.926,26.367,20.508,3.418,0
15939.856,33.203,23.926,23.926,27.344,14.160,0
15939.860,23.438,25.391,27.344,18.066,0.977,0
15939.864,12.695,24.414,28.809,17.090,73.730,0
15939.868,15.137,20.508,26.367,20.996,107.422,0
15939.872,20.508,18.066,28.809,21.973,4.883,0
15939.876,18.555,19.043,34.668,22.949,-5.859,0
15939.879,18.066,27.344,37.109,17.090,52.246,0
15939.883,26.367,31.250,32.227,15.625,21.973,0
15939.887,32.227,26.855,27.344,23.926,48.828,0
15939.891,29.785,22.949,29.297,28.809,29.785,0
15939.895,24.902,21.484,28.320,21.973,-29.297,0
15939.899,26.367,23.438,23.438,30.273,-2.930,0
15939.903,30.273,24.902,24.902,37.109,0.000,0
15939.907,24.902,25.391,25.879,19.531,0.000,0
15939.911,16.113,25.879,26.367,20.020,-6.348,0
15939.915,24.414,22.461,28.320,25.391,14.648,0
15939.919,40.039,27.344,29.785,24.414,7.812,0
15939.922,38.086,35.645,33.203,27.832,83.008,0
15939.926,29.297,37.598,36.133,22.949,102.051,0
15939.930,25.391,36.621,34.180,18.555,24.414,0
15939.934,30.273,34.668,30.762,28.320,0.000,0
15939.938,34.180,35.645,32.715,36.621,8.301,0
15939.942,29.297,38.574,37.598,34.180,21.484,0
15939.946,25.879,35.645,39.062,25.391,-17.090,0
15939.950,23.926,33.691,36.133,22.461,-53.711,0
15939.954,21.973,35.645,33.203,20.020,-46.875,0
15939.958,22.949,40.527,33.203,18.555,-32.227,0
15939.962,21.973,43.945,31.738,27.832,22.461,0
15939.965,32.715,40.039,31.250,34.180,-10.742,0
15939.969,40.039,39.062,32.227,34.180,22.949,0
15939.973,28.809,40.039,34.180,19.531,29.785,0
15939.977,20.020,43.457,35.156,11.230,-49.805,0
15939.981,23.926,43.457,36.133,22.949,-18.066,0
15939.985,33.691,39.551,38.086,27.832,-15.137,0
15939.989,29.785,43.457,35.156,24.902,9.766,0
15939.993,25.391,49.316,37.598,24.902,42.480,0
15939.997,27.832,46.875,39.062,23.926,54.688,0
15940.001,29.297,42.480,33.203,24.414,54.199,0
15940.004,26.855,41.504,29.297,26.367,15.137,0
15940.008,16.113,39.062,30.273,24.414,22.949,0
15940.012,13.672,39.551,31.738,20.996,-20.020,0
15940.016,20.020,38.086,32.227,22.461,-41.504,0
15940.020,27.832,36.621,32.227,34.180,43.945,0
15940.024,30.762,37.598,32.227,24.902,60.547,0
15940.028,24.414,39.551,32.715,12.695,-22.949,0
15940.032,25.879,41.992,33.203,19.531,-4.395,0
15940.036,28.809,40.039,31.738,24.414,50.781,0
15940.040,25.879,40.039,30.762,27.344,44.434,0
15940.044,20.020,44.434,29.297,21.973,32.227,0
15940.047,15.625,43.945,29.297,23.438,10.254,0
15940.051,25.391,39.551,35.645,32.715,43.945,0
15940.055,36.133,39.551,39.551,34.180,60.547,0
15940.059,24.902,34.180,39.062,31.738,34.180,0
15940.063,20.508,33.203,37.109,26.367,-7.812,0
15940.067,31.738,37.109,34.180,28.809,-6.836,0
15940.071,37.109,35.645,31.738,24.902,43.945,0
15940.075,30.273,37.109,30.762,21.484,33.691,0
15940.079,21.484,40.527,34.668,21.484,41.504,0
15940.083,28.809,40.039,37.109,24.414,17.090,0
15940.087,37.109,35.645,34.668,32.715,-10.742,0
15940.090,27.344,36.133,38.086,30.762,20.020,0
15940.094,14.648,38.086,41.016,19.531,0.977,0
15940.098,16.113,34.180,41.016,19.043,-15.625,0
15940.102,26.367,32.227,41.016,27.832,19.531,0
15940.106,26.367,34.180,38.574,28.320,4.883,0
15940.110,16.113,38.086,39.062,27.832,2.441,0
15940.114,15.625,38.574,39.062,34.180,3.906,0
15940.118,33.203,37.109,34.668,33.691,-6.348,0
15940.122,36.133,38.574,32.715,26.367,-9.277,0
15940.126,24.414,40.527,38.086,28.809,-4.395,0
15940.129,19.531,41.016,41.016,29.297,94.727,0
15940.133,21.484,32.227,35.645,31.738,90.820,0
