timestamps,TP9,AF7,AF8,TP10,Right AUX,Marker0
15801.684,16.602,33.203,31.250,-18.555,-8.789,0
15801.688,23.926,30.273,27.344,-15.137,-7.812,0
15801.692,29.785,28.320,24.902,-13.184,-20.020,0
15801.696,23.926,30.273,27.832,-14.648,5.859,0
15801.700,18.555,30.273,30.762,-19.531,72.754,0
15801.704,29.297,30.762,34.668,-12.695,21.973,0
15801.708,36.621,34.668,31.738,-6.348,-19.531,0
15801.712,29.785,33.203,26.367,-8.301,21.484,0
15801.715,23.438,30.762,29.785,-11.719,35.156,0
15801.719,24.414,29.297,25.391,-16.602,-26.855,0
15801.723,38.086,28.320,19.531,-1.953,-30.762,0
15801.727,36.133,30.762,24.414,-1.953,-22.949,0
15801.731,20.996,33.203,28.809,-17.578,9.277,0
15801.735,20.996,30.273,27.344,-17.578,79.102,0
15801.739,25.879,28.809,24.902,-3.418,37.109,0
15801.743,27.344,29.297,24.902,8.789,62.500,0
15801.747,26.367,30.762,28.320,4.883,56.641,0
15801.751,23.926,34.668,33.691,0.977,-25.391,0
15801.754,33.691,34.180,32.715,11.230,-8.301,0
15801.758,50.781,34.668,31.738,17.090,43.457,1
15801.762,37.598,34.668,30.273,4.883,35.645,0
15801.766,9.766,32.715,31.250,-12.207,-5.371,0
15801.770,10.254,28.320,31.250,-16.113,-17.578,0
15801.774,21.484,24.902,27.832,-8.789,28.320,0
15801.778,18.555,28.320,28.809,-6.348,28.320,0
15801.782,10.254,30.762,28.809,-18.555,0.000,0
15801.786,12.207,30.273,31.250,-19.043,38.574,0
15801.790,19.043,29.297,33.203,-10.742,23.926,0
15801.794,16.113,28.809,32.227,-13.184,2.930,0
15801.797,12.695,30.273,32.715,-24.414,-16.113,0
15801.801,17.090,30.762,30.273,-39.551,-34.180,0
15801.805,25.879,27.832,27.832,-35.645,24.414,0
15801.809,32.715,30.762,31.738,-26.367,52.246,0
15801.813,28.809,32.715,34.180,-35.156,8.301,0
15801.817,21.973,33.691,36.621,-51.270,2.930,0
15801.821,26.367,33.691,36.621,-53.711,4.395,0
15801.825,30.273,34.180,33.691,-45.410,11.719,0
15801.829,22.949,34.668,34.180,-46.387,42.969,0
15801.833,20.020,37.598,39.551,-57.129,45.410,0
15801.837,21.973,37.109,38.574,-60.547,49.805,0
15801.840,26.855,34.668,33.691,-61.035,51.758,0
15801.844,28.320,34.180,29.785,-72.754,34.668,0
15801.848,21.484,32.227,31.738,-83.008,40.527,0
15801.852,21.973,33.691,35.645,-83.496,-7.812,0
15801.856,24.902,34.180,36.133,-86.426,-42.480,0
15801.860,25.391,32.227,32.227,-95.215,-38.574,0
15801.864,17.578,32.227,32.227,-102.539,-2.930,0
15801.868,7.324,36.621,38.574,-104.492,21.973,0
15801.872,14.648,32.715,35.156,-101.562,35.645,0
15801.876,29.297,30.273,35.156,-99.121,0.000,0
15801.879,27.344,34.668,40.039,-99.609,-108.887,0
15801.883,19.531,34.180,39.062,-110.352,-65.918,0
15801.887,28.320,32.715,33.203,-113.281,8.789,0
15801.891,31.250,28.809,30.273,-107.910,27.344,0
15801.895,15.137,27.832,31.250,-112.305,39.062,0
15801.899,4.395,30.762,32.715,-115.723,-1.465,0
15801.903,12.207,28.809,30.273,-106.445,0.488,0
15801.907,24.414,30.762,28.809,-100.098,34.668,0
15801.911,29.297,34.668,32.715,-100.098,26.855,0
15801.915,21.484,33.203,36.621,-103.516,29.297,0
15801.919,17.090,32.227,35.645,-97.168,-24.902,0
15801.922,19.531,28.809,31.738,-88.379,-44.434,0
15801.926,20.508,28.320,35.156,-83.008,19.531,0
15801.930,9.766,28.809,36.621,-83.008,23.438,0
15801.934,1.465,27.832,33.691,-84.473,-9.766,0
15801.938,18.066,29.297,30.762,-61.523,-3.418,0
15801.942,29.297,30.273,28.809,-46.875,-24.414,0
15801.946,20.508,31.250,33.691,-46.875,2.930,0
15801.950,12.207,33.691,40.039,-43.457,41.016,0
15801.954,20.020,32.227,38.574,-30.762,23.438,0
15801.958,26.367,27.832,35.156,-17.578,31.738,0
15801.962,20.996,27.832,35.156,-13.672,37.598,0
15801.965,8.301,28.320,34.668,-20.996,3.418,0
15801.969,12.695,26.855,28.809,-12.695,-0.977,0
15801.973,25.391,27.344,22.949,3.418,62.012,0
15801.977,18.066,28.809,27.832,0.488,65.430,0
15801.981,12.695,29.297,32.715,-17.090,3.906,0
15801.985,21.973,29.297,35.156,-20.020,-17.578,0
15801.989,34.668,32.715,39.551,-12.695,-11.230,0
15801.993,26.855,33.203,33.691,-18.066,2.930,0
15801.997,19.043,33.203,28.320,-27.344,47.852,0
15802.001,16.602,34.668,31.250,-39.551,24.414,0
15802.004,20.020,34.668,26.367,-36.133,45.898,0
15802.008,27.832,34.180,24.414,-26.855,20.020,0
15802.012,18.066,32.227,30.273,-28.809,-5.859,0
15802.016,6.836,33.203,35.645,-35.156,17.578,0
15802.020,14.648,35.156,35.156,-29.297,0.488,0
15802.024,30.273,35.156,32.227,-18.066,5.859,0
15802.028,28.320,33.203,32.715,-22.461,18.066,0
15802.032,18.066,37.109,30.762,-38.574,5.371,0
15802.036,20.020,40.039,29.785,-36.621,-6.348,0
15802.040,31.738,36.133,28.809,-27.832,0.977,0
15802.044,29.297,33.203,25.879,-21.973,30.762,0
15802.047,14.648,33.203,32.227,-19.043,0.488,0
15802.051,12.695,34.180,35.156,-15.137,-20.020,0
15802.055,21.484,29.297,31.738,0.488,9.277,0
15802.059,22.949,29.297,31.250,5.859,1.465,0
15802.063,19.531,37.109,33.691,-1.953,11.230,0
15802.067,20.020,40.039,34.180,-5.859,-4.883,0
15802.071,26.855,36.133,33.691,-0.977,0.977,0
15802.075,31.250,33.203,35.156,5.859,-4.395,0
15802.079,23.926,31.738,36.621,4.883,3.418,0
15802.083,16.113,32.715,34.668,-4.395,64.453,0
15802.087,19.531,34.668,33.691,0.000,34.180,0
15802.090,23.438,30.273,31.738,12.695,33.691,0
15802.094,23.438,28.320,31.738,21.973,52.734,0
15802.098,13.672,30.273,33.203,20.508,-28.320,0
15802.102,14.160,30.273,31.738,8.301,-48.340,0
15802.106,28.320,30.273,30.273,20.996,-12.695,0
15802.110,31.738,28.809,30.273,31.250,0.977,0
15802.114,31.250,29.785,34.180,25.879,50.781,0
15802.118,26.855,34.180,38.086,26.855,47.363,0
15802.122,24.902,34.668,39.551,34.668,2.441,0
15802.126,33.691,31.250,39.062,37.109,0.488,0
15802.129,30.273,32.715,37.109,21.973,-14.160,0
15802.133,21.973,37.598,38.086,13.672,7.812,0
15802.137,28.320,39.062,37.109,12.207,-19.531,0
15802.141,30.762,36.133,33.691,-0.977,-10.742,0
15802.145,25.879,37.109,37.598,-27.344,44.922,0
15802.149,22.949,41.016,39.551,-59.082,20.996,0
15802.153,24.414,40.527,35.645,-69.336,19.043,0
15802.157,32.715,36.133,32.227,-69.824,15.137,0
15802.161,40.527,38.086,29.785,-81.055,24.414,0
15802.165,30.273,41.992,33.203,-98.145,43.457,0
15802.169,22.461,42.480,36.621,-105.957,27.344,0
15802.172,35.156,41.992,36.133,-101.074,30.273,0
15802.176,39.551,40.527,35.645,-106.445,3.906,0
15802.180,32.227,41.016,35.645,-124.023,47.852,0
15802.184,26.855,43.457,39.062,-131.348,76.172,0
15802.188,31.250,42.969,37.598,-126.465,48.828,0
15802.192,31.250,38.574,30.273,-129.395,36.621,0
15802.196,20.508,36.621,33.203,-131.836,27.832,0
15802.200,15.625,37.109,37.109,-133.301,37.109,0
15802.204,27.832,39.062,36.133,-122.070,12.207,0
15802.208,38.086,39.062,35.156,-99.121,-4.395,0
15802.212,31.738,38.574,37.109,-101.562,-32.227,0
15802.215,23.438,38.086,41.504,-126.953,-22.461,0
15802.219,23.926,38.086,43.945,-132.324,11.230,0
15802.223,28.320,37.598,40.527,-118.652,14.160,0
15802.227,29.785,39.551,40.039,-119.629,-42.480,0
15802.231,19.531,38.574,42.480,-129.395,-51.270,0
15802.235,13.672,35.645,40.527,-129.883,11.719,0
15802.239,29.297,34.668,39.551,-115.234,45.898,0
15802.243,29.297,33.691,39.551,-102.051,-11.719,0
15802.247,16.602,37.109,40.039,-103.027,-54.688,0
15802.251,12.695,40.039,40.039,-108.398,-38.574,0
15802.254,20.020,36.133,37.109,-92.285,-18.555,0
15802.258,32.715,35.645,35.156,-74.219,18.066,0
15802.262,29.785,41.016,39.062,-73.730,-9.277,0
15802.266,21.484,44.434,45.410,-78.613,28.320,0
15802.270,20.020,41.504,40.039,-78.125,52.734,0
15802.274,26.855,35.645,32.227,-76.172,-8.301,0
15802.278,21.973,34.668,36.133,-68.359,9.277,0
15802.282,13.184,37.598,38.574,-68.848,1.953,0
15802.286,10.254,40.039,35.156,-62.988,-17.090,0
15802.290,14.648,38.574,32.227,-45.898,-27.832,0
15802.294,22.461,37.109,33.203,-39.062,0.488,0
15802.297,16.113,40.039,36.133,-39.551,15.137,0
15802.301,15.625,41.992,38.086,-44.922,10.254,0
15802.305,26.855,41.504,38.574,-38.086,55.176,0
15802.309,29.297,39.551,38.574,-32.227,45.410,0
15802.313,20.996,39.062,41.992,-41.016,37.598,0
15802.317,19.531,40.527,42.480,-45.410,48.828,0
15802.321,22.461,36.133,37.109,-35.156,19.043,1
15802.325,28.809,31.250,34.668,-33.203,20.996,0
15802.329,33.203,36.621,35.156,-38.574,5.859,0
15802.333,27.832,44.434,38.086,-45.410,-16.113,0
15802.337,26.855,42.969,38.574,-37.109,-42.480,0
15802.340,27.832,39.062,34.668,-26.367,-69.336,0
15802.344,24.902,41.504,34.668,-27.832,-3.418,0
15802.348,20.508,42.480,38.574,-30.762,18.066,0
15802.352,23.926,41.504,41.504,-30.273,-0.977,0
15802.356,33.691,38.086,40.527,-19.531,-0.488,0
15802.360,32.715,34.668,39.551,-18.555,8.789,0
15802.364,20.996,34.668,39.551,-25.391,-14.648,0
15802.368,14.648,35.156,36.133,-22.461,2.441,0
15802.372,26.367,35.156,34.180,-17.090,39.062,0
15802.376,35.156,39.062,37.598,-10.254,2.930,0
15802.379,24.902,37.598,37.109,-7.812,0.000,0
15802.383,20.020,35.645,37.109,-10.254,24.902,0
15802.387,28.809,36.133,36.133,-3.418,-2.930,0
15802.391,28.320,30.762,29.785,-3.906,-9.766,0
15802.395,20.508,28.809,28.320,-3.906,-16.113,0
15802.399,16.602,29.297,32.227,-4.395,19.043,0
15802.403,18.066,28.320,32.227,-0.977,48.340,0
15802.407,34.180,29.297,30.762,6.836,27.344,0
15802.411,40.527,31.738,32.227,6.836,17.578,0
15802.415,20.020,32.715,33.691,0.000,35.156,0
15802.419,13.672,34.180,34.180,-2.441,14.648,0
15802.422,29.297,32.227,33.691,6.348,-3.906,0
15802.426,35.645,35.645,38.086,13.672,1.465,0
15802.430,23.926,40.039,39.551,11.719,-35.645,0
15802.434,14.648,37.109,34.668,8.789,40.039,0
15802.438,27.344,32.715,32.227,16.113,103.516,0
15802.442,34.668,35.156,36.133,25.879,42.969,0
15802.446,21.973,38.574,37.598,22.461,34.668,0
15802.450,14.160,38.086,37.598,12.207,19.531,0
15802.454,21.484,37.109,36.621,15.625,-25.879,0
15802.458,31.250,33.691,33.203,21.973,-27.344,0
15802.462,30.762,33.691,33.691,17.578,-0.488,0
15802.465,18.066,39.062,35.156,8.789,33.691,0
15802.469,18.555,41.016,36.621,16.602,12.207,0
15802.473,31.250,34.668,34.180,22.949,-1.953,0
15802.477,36.133,32.227,35.156,18.066,28.320,0
15802.481,21.973,33.691,34.180,12.695,-5.371,0
15802.485,8.301,31.250,32.715,14.648,-26.855,0
15802.489,24.414,29.785,34.180,26.855,-6.348,0
15802.493,33.691,31.250,33.691,29.297,16.602,0
15802.497,23.438,33.691,35.645,27.832,35.645,0
15802.501,19.043,34.180,37.109,32.715,43.457,0
15802.504,30.273,37.598,37.109,51.758,71.289,0
15802.508,35.645,38.574,34.668,56.641,63.477,0
15802.512,22.949,35.645,29.785,42.969,12.695,0
15802.516,18.555,35.156,30.273,35.156,-3.418,0
15802.520,23.438,33.203,31.738,36.133,37.109,0
15802.524,22.461,31.250,33.203,41.016,-3.418,0
15802.528,21.484,31.738,31.250,41.016,-13.672,0
15802.532,18.555,31.738,30.273,35.156,44.434,0
15802.536,17.578,31.250,33.691,29.785,18.555,0
15802.540,24.414,29.785,28.809,28.320,25.391,0
15802.544,24.414,30.273,27.832,28.809,36.133,0
15802.547,19.531,32.227,32.227,35.156,35.645,0
15802.551,15.625,30.762,32.715,38.574,21.973,0
15802.555,20.020,28.320,28.809,45.410,-30.762,0
15802.559,29.297,28.809,25.879,60.059,-13.184,0
15802.563,29.297,33.203,28.809,57.129,-46.875,0
15802.567,21.484,36.133,32.227,57.129,-50.781,0
15802.571,23.438,36.133,32.715,74.219,0.488,0
15802.575,29.297,33.203,30.762,82.520,8.301,0
15802.579,22.461,32.715,32.715,80.078,-9.766,0
15802.583,14.160,34.180,32.227,73.730,-3.906,0
15802.587,15.137,32.715,30.273,77.148,12.207,0
15802.590,25.879,32.715,34.668,84.961,6.836,0
15802.594,27.344,34.180,39.062,86.914,24.414,0
15802.598,13.672,35.156,40.527,87.402,22.461,0
15802.602,11.230,33.203,39.062,85.938,-12.207,0
15802.606,21.973,30.762,34.668,89.355,-20.020,0
15802.610,22.461,26.855,32.227,93.262,-35.156,0
15802.614,16.113,29.297,33.203,86.426,-63.477,0
15802.618,10.254,35.645,34.180,80.566,-20.508,0
15802.622,7.324,34.180,29.785,91.309,-17.090,0
15802.626,10.742,32.227,30.273,105.957,25.391,0
15802.629,7.812,31.250,35.156,101.074,73.242,0
15802.633,-0.977,30.273,36.133,87.891,31.250,0
15802.637,10.254,30.273,37.598,97.656,34.180,0
15802.641,19.043,28.809,39.062,119.629,70.312,0
15802.645,18.555,34.668,37.598,122.559,49.805,0
15802.649,16.602,38.574,39.551,105.469,16.602,0
15802.653,18.066,35.156,40.527,104.492,-35.645,0
15802.657,31.738,32.227,36.621,118.652,3.906,0
15802.661,32.715,33.203,35.645,118.652,33.203,0
15802.665,26.367,38.086,40.527,114.746,39.551,0
15802.669,28.320,37.598,40.527,111.328,61.035,0
15802.672,36.133,34.668,35.645,117.188,27.832,0
15802.676,41.504,36.621,36.133,125.000,36.133,0
15802.680,31.250,33.691,37.109,113.281,68.359,0
15802.684,24.414,35.645,38.574,101.562,11.719,0
15802.688,32.715,42.480,40.527,111.328,-0.977,0
15802.692,33.691,39.062,35.645,118.164,1.465,0
15802.696,28.320,39.062,34.180,106.934,-12.695,0
15802.700,30.762,41.504,38.574,99.609,0.000,0
15802.704,39.551,36.133,38.574,104.980,-0.488,0
15802.708,43.457,38.086,35.645,109.863,45.898,0
15802.712,39.062,45.410,37.109,104.004,16.602,0
15802.715,29.785,46.875,37.109,97.168,-51.270,0
15802.719,26.367,42.969,34.180,104.004,-31.250,0
15802.723,33.691,41.016,33.691,109.863,11.719,0
15802.727,29.297,39.551,33.691,98.145,15.625,0
15802.731,18.555,39.062,35.645,88.379,0.977,0
15802.735,25.879,42.480,38.574,94.238,-27.832,0
15802.739,36.133,42.969,33.203,102.051,-6.836,0
15802.743,33.203,38.574,30.273,101.074,34.668,0
15802.747,28.320,37.598,37.598,90.332,11.230,0
15802.751,31.250,42.480,42.480,83.984,-5.859,0
15802.754,37.598,43.945,42.480,86.426,14.648,0
15802.758,31.250,39.551,36.133,95.215,37.598,0
15802.762,21.973,37.109,35.645,84.473,23.926,0
15802.766,21.973,40.039,42.480,65.918,-27.344,0
15802.770,25.391,38.086,40.039,79.590,-43.457,0
15802.774,32.227,31.250,37.109,83.008,2.930,0
15802.778,30.762,29.297,38.574,71.777,36.621,0
15802.782,10.742,31.738,40.039,66.895,5.859,0
15802.786,8.789,36.133,41.504,66.406,11.230,0
15802.790,24.414,34.668,38.574,72.754,31.250,0
15802.794,26.855,28.320,36.621,74.707,46.875,0
15802.797,23.438,32.715,41.016,62.012,24.414,0
15802.801,23.438,39.062,41.992,54.688,6.836,0
15802.805,22.949,36.621,39.062,68.359,29.297,0
15802.809,23.926,33.203,36.133,78.125,25.879,0
15802.813,23.438,34.668,33.691,65.918,8.301,0
15802.817,18.555,32.715,37.109,52.246,10.742,0
15802.821,22.949,31.738,37.598,58.594,-5.371,0
15802.825,24.902,33.691,34.668,66.406,-5.859,0
15802.829,17.578,32.715,32.227,63.477,49.805,0
15802.833,14.160,37.109,34.668,59.082,3.906,0
15802.837,23.438,37.109,38.086,63.477,4.883,0
15802.840,33.203,31.738,33.691,69.824,80.566,0
15802.844,28.320,33.691,34.668,68.848,41.504,0
15802.848,26.855,39.551,42.969,62.988,17.090,0
15802.852,31.250,37.598,43.457,61.523,-0.977,0
15802.856,33.691,35.645,37.109,63.477,8.301,0
15802.860,32.227,37.109,37.598,65.918,46.875,0
15802.864,22.949,40.527,41.992,61.523,28.809,0
15802.868,20.996,42.969,43.457,58.105,6.348,0
15802.872,28.809,43.945,40.527,70.801,4.883,0
15802.876,37.109,46.875,41.016,79.102,-4.883,0
15802.879,33.203,46.387,43.457,74.707,-12.207,0
15802.883,24.414,44.434,43.945,65.918,11.719,0
15802.887,29.297,43.457,42.480,66.406,0.977,0
15802.891,32.227,39.062,38.086,72.266,-1.953,0
15802.895,21.973,36.621,42.969,64.453,15.137,0
15802.899,14.160,38.574,45.898,52.246,33.691,0
15802.903,21.973,37.598,41.504,50.293,37.109,0
15802.907,34.668,37.109,34.668,52.734,-16.113,0
15802.911,34.668,40.039,33.203,48.340,-9.766,0
15802.915,26.367,41.016,34.180,36.133,13.672,0
15802.919,26.855,42.480,34.668,38.086,1.953,0
15802.922,35.156,41.992,36.621,55.664,-19.043,0
15802.926,38.086,40.039,40.527,66.406,20.996,0
15802.930,27.344,37.598,40.039,52.734,48.340,0
15802.934,20.020,36.621,36.133,42.969,-23.438,0
15802.938,23.926,33.203,35.645,53.223,-19.043,0
15802.942,23.438,27.832,35.645,57.617,42.480,0
15802.946,20.020,30.762,38.086,52.246,12.207,0
15802.950,14.648,34.180,39.062,46.387,30.273,0
15802.954,17.090,30.762,35.645,52.734,49.316,0
15802.958,20.996,30.273,31.738,60.547,1.465,1
15802.962,12.695,32.227,35.645,63.965,19.531,0
15802.965,9.766,34.180,45.410,61.035,23.926,0
15802.969,17.578,39.062,48.340,60.547,17.578,0
15802.973,22.949,35.156,44.922,69.336,35.156,0
15802.977,20.996,31.738,43.457,68.359,1.953,0
15802.981,15.625,35.156,42.969,59.082,-50.293,0
15802.985,19.531,38.086,41.504,56.152,-47.363,0
15802.989,29.785,32.227,41.016,67.383,-12.695,0
15802.993,29.297,26.367,41.504,73.730,-10.254,0
15802.997,22.949,29.785,40.527,62.500,22.949,0
15803.001,16.602,35.156,38.086,52.734,-12.695,0
15803.004,18.066,35.156,37.109,58.594,5.371,0
15803.008,24.414,33.691,37.109,63.965,28.809,0
15803.012,24.902,34.180,36.133,59.570,7.324,0
15803.016,14.648,37.109,35.645,51.270,35.156,0
15803.020,19.043,34.668,32.715,51.758,1.953,0
15803.024,30.762,30.762,30.762,57.129,0.000,0
15803.028,24.414,33.203,32.715,53.223,42.480,0
15803.032,11.719,33.203,34.180,47.852,55.176,0
15803.036,6.836,31.738,33.691,45.410,73.730,0
15803.040,23.438,32.227,32.715,49.316,55.176,0
15803.044,27.344,32.715,35.645,53.711,69.336,0
15803.047,14.648,35.156,40.527,52.246,45.410,0
15803.051,9.277,35.156,42.480,54.688,6.836,0
15803.055,17.090,33.691,40.039,62.988,6.348,0
15803.059,20.508,32.715,35.156,66.406,13.672,0
15803.063,17.090,34.668,35.645,69.824,4.883,0
15803.067,22.949,38.574,41.504,66.895,-24.902,0
15803.071,29.297,38.086,41.992,69.336,2.930,0
15803.075,28.320,34.668,37.598,76.660,38.086,0
15803.079,29.297,36.621,36.133,70.312,44.922,0
15803.083,23.438,41.504,40.039,66.406,5.859,0
15803.087,23.438,38.086,39.062,68.848,1.953,0
15803.090,35.156,34.180,35.156,73.730,19.043,0
15803.094,32.715,36.133,33.203,74.219,24.902,0
15803.098,23.438,38.086,33.203,67.383,47.852,0
15803.102,28.320,40.039,31.250,75.195,6.348,0
15803.106,39.551,42.969,28.320,92.773,-0.488,0
15803.110,41.504,44.434,31.738,95.703,45.410,0
15803.114,34.668,44.434,36.621,84.473,9.277,0
15803.118,30.762,41.992,34.668,76.660,-1.953,0
15803.122,36.621,39.062,34.668,91.309,26.855,0
15803.126,46.875,40.527,37.598,103.516,40.039,0
15803.129,46.387,43.457,38.086,96.191,19.531,0
15803.133,40.039,40.527,34.668,88.867,39.551,0
15803.137,41.992,38.574,29.785,97.168,44.922,0
15803.141,40.039,36.133,29.785,106.934,-9.277,0
15803.145,36.133,40.527,37.598,105.469,-28.320,0
15803.149,29.297,47.852,42.480,94.238,-30.273,0
15803.153,24.902,45.410,37.598,95.703,-19.531,0
15803.157,34.180,41.016,33.691,109.863,-49.316,0
15803.161,35.156,41.504,35.645,109.375,-62.012,0
15803.165,32.227,45.898,38.574,96.191,-5.371,0
15803.169,32.715,43.945,40.527,96.680,22.949,0
15803.172,28.809,37.109,35.156,101.562,45.898,0
15803.176,26.367,35.156,30.762,97.656,24.902,0
15803.180,21.973,38.086,36.133,99.121,-5.371,0
15803.184,20.996,42.969,41.504,104.004,-4.883,0
15803.188,30.762,41.016,37.109,110.840,-23.926,0
15803.192,34.668,39.062,31.738,112.305,11.719,0
15803.196,23.438,41.504,35.156,110.840,8.301,0
15803.200,15.625,40.039,39.062,106.445,-71.289,0
15803.204,21.973,39.062,40.039,103.516,-35.156,0
15803.208,31.250,41.504,39.062,110.840,5.859,0
15803.212,35.156,39.551,39.062,110.840,37.598,0
15803.215,27.344,39.062,37.598,100.098,34.668,0
15803.219,18.066,38.574,33.691,89.355,-18.555,0
15803.223,24.414,34.180,31.738,95.703,-5.859,0
15803.227,35.156,34.180,32.227,100.098,60.059,0
15803.231,22.949,34.668,34.668,90.820,40.527,0
15803.235,11.719,33.203,35.156,83.496,26.367,0
15803.239,18.066,32.227,32.227,91.797,54.199,0
15803.243,20.996,34.180,32.227,95.703,37.598,0
15803.247,16.113,39.062,34.668,87.402,12.695,0
15803.251,20.020,38.574,35.645,86.914,15.137,0
15803.254,28.320,36.621,36.621,89.355,39.062,0
15803.258,33.691,35.645,36.133,93.262,8.789,0
15803.262,30.273,36.133,34.668,91.309,19.531,0
15803.266,21.484,36.133,38.086,82.520,47.852,0
15803.270,27.832,34.668,38.574,85.938,-13.184,0
15803.274,36.133,33.203,32.715,99.609,-29.785,0
15803.278,31.738,33.691,33.691,104.492,22.461,0
15803.282,25.879,36.621,39.062,97.656,89.355,0
15803.286,17.578,34.180,38.574,91.309,42.480,0
15803.290,19.531,30.762,35.156,96.680,-42.480,0
15803.294,27.832,32.227,35.645,98.145,8.789,0
15803.297,20.508,32.715,38.086,84.961,41.504,0
15803.301,13.184,28.809,34.668,80.078,-12.207,0
15803.305,17.578,28.320,30.762,84.961,-17.578,0
15803.309,24.414,30.762,33.203,90.332,4.883,0
15803.313,16.113,29.785,34.180,80.566,-4.395,0
15803.317,5.859,30.273,35.645,74.707,10.742,0
15803.321,19.531,29.297,35.156,86.914,-4.395,0
15803.325,38.574,30.762,37.109,91.797,-59.082,0
15803.329,24.902,31.250,38.574,85.938,-4.395,0
15803.333,5.859,32.715,38.086,73.242,-17.578,0
15803.337,7.812,35.156,37.109,71.289,2.441,0
15803.340,20.996,33.691,34.668,78.613,51.758,0
15803.344,22.949,30.762,34.668,76.660,-16.113,0
15803.348,11.230,31.738,35.645,69.336,-14.160,0
15803.352,8.789,34.668,34.668,64.453,22.949,0
15803.356,22.461,36.621,34.180,76.172,44.434,0
15803.360,27.832,35.156,32.715,81.543,84.473,0
15803.364,18.066,33.691,29.297,70.312,44.922,0
15803.368,8.789,33.691,31.250,62.988,1.953,0
15803.372,9.766,32.715,28.320,69.336,-21.973,0
15803.376,13.672,35.156,25.391,67.383,32.227,0
15803.379,10.254,38.086,28.320,54.688,98.145,0
15803.383,13.184,40.039,31.250,50.293,52.734,0
15803.387,19.043,38.574,31.738,57.617,23.438,0
15803.391,26.855,38.086,31.250,64.941,-4.395,0
15803.395,23.438,41.016,32.227,65.430,26.367,0
15803.399,13.672,41.504,30.762,59.082,23.926,0
15803.403,18.066,41.016,30.273,63.477,4.883,0
15803.407,29.785,39.062,31.250,72.266,30.762,0
15803.411,27.344,35.156,33.691,62.988,34.180,0
15803.415,15.137,34.668,35.156,53.223,-2.930,0
15803.419,12.207,37.109,34.668,58.105,-27.832,0
15803.422,25.391,33.203,33.691,62.500,-4.395,0
15803.426,24.414,34.180,32.227,61.523,29.297,0
15803.430,13.184,38.086,35.156,61.523,41.504,0
15803.434,11.719,36.133,35.645,49.805,2.441,0
15803.438,18.066,32.715,33.203,51.758,-7.812,0
15803.442,23.438,30.273,30.762,63.477,18.555,0
15803.446,20.020,28.320,33.691,65.430,2.930,0
15803.450,15.137,32.715,37.598,63.477,-3.418,0
15803.454,14.160,31.738,30.273,57.617,10.254,0
15803.458,19.531,28.809,30.273,62.988,30.762,0
15803.462,24.902,34.180,39.551,66.406,44.922,0
15803.465,24.414,40.527,42.480,57.617,-7.324,0
15803.469,31.738,39.062,38.086,57.129,-31.738,0
15803.473,40.039,33.691,34.668,62.500,32.227,0
15803.477,30.762,34.180,36.133,61.523,5.371,0
15803.481,21.484,39.551,39.551,54.688,-30.273,0
15803.485,19.043,42.480,42.969,53.223,11.230,0
15803.489,25.391,40.039,39.551,60.059,15.625,0
15803.493,28.809,37.598,31.250,57.617,4.395,0
15803.497,16.602,38.574,31.738,47.852,-16.113,0
15803.501,8.301,37.598,37.598,44.434,-28.320,0
15803.504,17.090,35.156,36.621,55.176,-16.602,0
15803.508,20.508,32.715,32.227,58.105,-6.348,0
15803.512,8.301,28.809,34.668,46.875,-34.180,0
15803.516,4.395,29.297,38.574,40.527,4.883,0
15803.520,15.625,32.715,34.668,42.480,27.832,0
15803.524,25.391,30.762,31.250,45.410,-19.043,0
15803.528,19.043,30.273,35.645,44.922,42.480,0
15803.532,14.648,37.109,40.527,46.875,37.109,0
15803.536,18.555,39.551,40.039,49.805,-3.418,0
15803.540,20.020,36.133,34.668,57.129,-5.371,0
15803.544,23.438,35.645,35.645,62.500,23.438,0
15803.547,20.020,36.621,40.527,53.711,48.340,0
15803.551,10.254,35.645,38.574,41.504,36.621,0
15803.555,18.555,36.133,38.574,52.246,56.152,0
15803.559,23.926,37.109,37.598,63.965,-10.254,0
15803.563,16.602,38.086,37.598,56.152,-47.363,0
15803.567,15.137,41.016,41.504,49.805,8.789,0
15803.571,21.973,39.551,42.969,59.082,-27.344,0
15803.575,23.926,40.039,39.551,68.359,-16.602,0
15803.579,17.090,41.016,38.086,69.336,51.758,0
15803.583,8.789,38.086,39.551,62.988,57.617,0
15803.587,11.719,42.969,40.039,64.941,51.270,1
15803.590,21.484,48.340,39.551,75.195,26.367,0
15803.594,17.090,45.410,37.109,77.148,0.977,0
15803.598,3.906,38.574,42.480,64.453,-33.203,0
15803.602,8.301,40.527,46.387,63.477,-80.566,0
15803.606,7.812,52.734,42.969,64.941,-0.488,0
15803.610,-4.883,51.758,45.410,61.035,67.871,0
15803.614,-18.066,39.062,51.270,53.711,-5.371,0
15803.618,-43.457,27.832,46.875,29.297,-32.227,0
15803.622,-40.527,37.598,43.457,31.250,19.531,0
15803.626,-43.457,42.969,54.688,36.621,33.691,0
15803.629,-79.102,36.133,56.641,17.578,21.973,0
15803.633,-103.027,42.480,45.410,-7.324,25.391,0
15803.637,-104.004,42.969,46.875,-10.254,50.781,0
15803.641,-115.723,36.133,48.828,-11.719,55.176,0
15803.645,-147.949,37.109,46.387,-23.926,40.039,0
15803.649,-167.480,40.039,49.316,-43.945,8.789,0
15803.653,-187.012,33.691,51.758,-65.430,58.594,0
15803.657,-202.637,26.855,49.805,-73.730,73.242,0
15803.661,-218.750,27.344,49.316,-89.355,13.672,0
15803.665,-243.164,26.367,51.758,-108.398,-3.418,0
15803.669,-261.719,21.484,52.246,-112.793,11.230,0
15803.672,-268.066,21.484,55.176,-98.633,39.551,0
15803.676,-260.254,21.973,56.641,-88.867,71.777,0
15803.680,-258.789,20.508,57.617,-95.215,62.500,0
15803.684,-254.395,22.461,62.012,-91.309,9.766,0
15803.688,-222.656,23.926,63.965,-70.801,-5.859,0
15803.692,-184.082,22.461,59.570,-51.758,9.277,0
15803.696,-170.410,28.809,59.082,-42.480,17.090,0
15803.700,-150.879,33.203,57.617,-35.645,-21.484,0
15803.704,-125.977,31.738,51.270,-18.066,-18.555,0
15803.708,-110.352,32.715,50.781,6.836,17.578,0
15803.712,-96.680,34.180,50.781,22.461,30.273,0
15803.715,-87.891,35.156,48.340,30.762,37.109,0
15803.719,-65.918,37.598,50.293,47.852,28.809,0
15803.723,-50.781,35.156,49.805,68.359,7.324,0
15803.727,-41.992,35.156,46.875,80.566,-26.855,0
15803.731,-34.668,41.016,44.922,83.984,-7.324,0
15803.735,-35.156,39.551,44.434,87.402,10.254,0
15803.739,-39.062,35.645,40.039,104.492,-3.418,0
15803.743,-50.293,34.668,30.762,117.676,14.160,0
15803.747,-65.918,38.086,28.809,115.234,0.488,0
15803.751,-83.984,40.039,30.273,112.793,-5.371,0
15803.754,-70.312,39.062,35.156,129.395,-12.695,0
15803.758,-60.059,38.574,36.621,140.137,-28.809,0
15803.762,-87.891,40.527,34.180,133.789,-0.977,0
15803.766,-111.328,40.527,34.180,125.977,50.293,0
15803.770,-106.445,36.621,29.785,128.418,61.035,0
15803.774,-84.961,36.133,25.391,133.301,3.418,0
15803.778,-61.523,36.621,26.855,127.930,-32.715,0
15803.782,-55.664,38.574,28.320,110.352,-4.883,0
15803.786,-31.738,39.551,30.273,106.934,-2.930,0
15803.790,22.461,37.598,32.227,117.188,-23.438,0
15803.794,58.105,36.133,27.344,112.305,-22.461,0
15803.797,78.125,39.062,30.273,106.445,-34.668,0
15803.801,90.820,41.016,35.156,103.027,18.066,0
15803.805,104.492,40.039,29.785,106.445,42.969,0
15803.809,104.492,40.527,30.273,115.234,44.434,0
15803.813,92.773,41.016,34.180,105.469,60.059,0
15803.817,77.637,43.457,32.227,92.285,-4.395,0
15803.821,68.848,42.480,31.738,97.656,-46.387,0
15803.825,59.570,43.457,34.668,97.168,30.273,0
15803.829,44.434,42.480,38.086,89.844,29.785,0
15803.833,39.062,35.645,38.086,81.055,-0.977,0
15803.837,46.875,36.133,37.598,83.984,63.965,0
15803.840,59.570,38.574,36.621,93.750,39.062,0
15803.844,65.918,37.598,36.621,93.750,34.180,0
15803.848,62.500,39.062,39.551,87.402,21.484,0
15803.852,71.777,39.062,39.551,86.914,-26.367,0
15803.856,98.145,35.645,37.598,94.238,18.066,0
15803.860,115.723,36.133,41.016,103.027,13.672,0
15803.864,118.164,39.551,45.410,102.539,-20.996,0
15803.868,118.652,38.574,41.504,89.355,20.508,0
15803.872,125.000,37.598,34.180,84.961,-16.602,0
15803.876,134.277,38.086,31.738,87.402,-38.086,0
15803.879,132.324,39.062,32.715,83.008,17.090,0
15803.883,117.188,39.062,37.109,69.336,-26.855,0
15803.887,125.488,38.086,35.645,68.359,-49.805,0
15803.891,133.301,37.109,28.320,81.055,30.762,0
15803.895,129.883,41.016,33.691,82.031,59.082,0
15803.899,126.953,41.992,39.062,72.754,54.199,0
15803.903,125.488,40.527,36.133,71.777,35.156,0
15803.907,126.465,40.039,31.738,80.566,-51.758,0
15803.911,124.512,38.086,29.297,81.543,-16.113,0
15803.915,117.676,38.086,30.762,69.336,19.531,0
15803.919,111.816,40.527,34.668,63.965,-5.371,0
15803.922,115.723,40.039,32.715,69.824,20.508,0
15803.926,120.117,41.016,33.691,75.195,-8.301,0
15803.930,110.840,43.945,35.645,72.266,-5.371,0
15803.934,98.145,46.387,38.574,67.871,25.391,0
15803.938,97.168,42.969,39.062,79.102,36.621,0
15803.942,100.586,41.016,36.133,82.520,-18.066,0
15803.946,91.797,41.504,37.109,72.754,10.742,0
15803.950,81.543,40.527,40.527,68.848,36.621,0
15803.954,90.820,40.039,44.434,75.684,13.672,0
15803.958,98.633,35.156,37.109,74.219,22.461,0
15803.962,92.285,31.250,34.180,64.453,-31.738,0
15803.965,82.520,34.180,37.598,62.500,-1.465,0
15803.969,79.590,39.062,38.574,62.500,28.320,0
15803.973,85.938,37.109,39.551,63.965,0.000,0
15803.977,87.402,36.133,38.574,62.012,31.738,0
15803.981,74.219,36.133,39.062,53.711,29.785,0
15803.985,68.359,38.086,41.016,51.758,-4.395,0
15803.989,79.102,36.133,38.086,63.965,14.648,0
15803.993,82.520,30.273,33.691,63.477,-8.301,0
15803.997,70.312,32.715,32.227,52.734,-16.602,0
15804.001,59.570,37.109,35.156,50.781,-5.859,0
15804.004,67.383,37.109,35.156,60.059,16.113,0
15804.008,79.102,38.574,36.621,65.918,8.789,0
15804.012,64.453,38.086,37.109,58.105,9.277,0
15804.016,52.734,36.133,34.668,50.781,72.266,0
15804.020,60.059,35.156,31.250,56.152,42.480,0
15804.024,64.941,31.250,27.344,59.082,-15.625,0
15804.028,59.570,29.785,30.273,50.781,-1.465,0
15804.032,49.316,32.227,31.738,39.551,27.344,0
15804.036,47.852,34.668,34.668,42.480,4.395,0
15804.040,59.570,33.203,34.180,53.711,5.371,0
15804.044,62.988,33.691,29.297,54.199,60.059,0
15804.047,59.570,35.645,32.227,51.758,32.227,0
15804.051,57.617,35.645,33.203,48.340,-5.859,0
15804.055,58.105,32.227,26.367,52.734,7.812,0
15804.059,61.035,30.762,24.414,59.082,8.301,0
15804.063,55.664,33.691,31.250,57.129,-20.020,0
15804.067,51.758,38.574,35.645,46.875,32.715,0
15804.071,56.152,40.039,31.250,48.340,45.898,0
15804.075,62.012,36.621,26.367,57.129,-16.602,0
15804.079,60.059,37.109,31.250,52.734,-8.301,0
15804.083,47.363,36.621,33.691,46.387,8.789,0
15804.087,44.922,33.691,32.715,50.781,36.621,0
15804.090,57.129,31.250,34.668,59.570,4.395,0
15804.094,53.711,31.738,35.156,62.500,-4.883,0
15804.098,42.969,33.203,35.645,59.570,-38.086,0
15804.102,40.039,34.668,33.203,44.434,-18.555,0
15804.106,49.316,37.109,32.227,46.875,26.855,0
15804.110,53.223,36.621,34.180,50.781,0.488,0
15804.114,40.527,34.668,31.738,40.039,14.648,0
15804.118,40.039,34.668,32.227,41.992,6.348,0
15804.122,46.875,35.156,30.762,44.922,-17.090,0
15804.126,49.805,34.180,24.414,42.480,9.277,0
15804.129,41.016,33.691,23.438,39.062,13.184,0
15804.133,32.715,33.691,26.367,37.109,3.906,0
15804.137,43.945,35.645,24.414,41.504,20.996,0
15804.141,51.758,34.668,22.949,48.340,34.668,0
15804.145,51.270,31.738,27.832,45.898,34.668,0
15804.149,37.109,34.180,33.203,35.645,37.598,0
15804.153,30.762,32.715,33.691,40.527,-40.039,0
15804.157,46.387,28.809,35.645,52.246,-59.082,0
15804.161,43.457,30.762,33.691,46.387,3.906,0
15804.165,27.344,29.785,30.762,30.762,67.383,1
15804.169,20.996,24.902,28.809,27.832,2.441,0
15804.172,29.297,27.832,24.414,43.457,-8.301,0
15804.176,34.668,30.762,25.879,50.781,20.508,0
15804.180,25.879,30.762,29.297,42.969,17.578,0
15804.184,23.438,40.527,40.039,43.945,17.578,0
15804.188,24.414,36.133,38.574,42.969,-9.277,0
15804.192,24.902,28.320,29.785,37.598,6.348,0
15804.196,23.438,29.785,30.762,32.715,38.086,0
15804.200,18.555,28.809,35.156,26.367,41.992,0
15804.204,16.602,30.273,31.738,26.367,4.883,0
15804.208,26.855,32.715,28.809,34.180,-2.930,0
15804.212,33.691,35.645,31.738,38.086,18.066,0
15804.215,23.926,37.109,33.691,31.738,3.906,0
15804.219,24.414,35.645,29.785,29.785,-37.598,0
15804.223,36.621,36.621,26.855,41.016,-11.230,0
15804.227,42.480,38.086,30.273,47.852,57.617,0
15804.231,41.504,36.621,33.691,41.504,14.160,0
15804.235,36.621,33.691,31.738,36.621,-64.941,0
15804.239,35.645,29.785,30.762,41.992,-79.590,0
15804.243,37.598,28.320,31.250,51.270,-62.012,0
15804.247,33.203,29.785,34.668,49.316,-21.484,0
15804.251,33.691,36.133,36.621,36.621,-0.977,0
15804.254,48.828,46.387,41.016,51.270,26.855,0
15804.258,45.410,35.645,34.668,52.734,35.156,0
15804.262,28.809,25.391,25.879,42.969,23.926,0
15804.266,23.438,33.691,34.180,47.363,28.320,0
15804.270,17.578,31.738,32.715,38.086,20.020,0
15804.274,24.902,28.320,27.832,38.574,42.969,0
15804.278,29.785,31.250,28.809,42.480,84.473,0
15804.282,18.066,30.762,33.203,37.109,0.000,0
15804.286,16.113,31.738,33.203,32.227,-37.109,0
15804.290,25.391,32.227,29.297,34.668,19.531,0
15804.294,32.227,27.832,33.203,36.133,10.742,0
15804.297,23.438,26.855,34.668,31.250,-23.438,0
15804.301,16.113,29.297,33.203,25.391,35.156,0
15804.305,25.879,24.414,30.273,29.785,45.410,0
15804.309,27.832,22.949,29.297,39.551,37.109,0
15804.313,20.020,27.344,29.785,32.715,71.777,0
15804.317,20.996,31.738,31.738,27.344,55.176,0
15804.321,33.203,31.250,32.227,36.133,28.809,0
15804.325,40.527,29.785,29.297,40.527,6.836,0
15804.329,36.621,32.227,29.297,42.480,-12.207,0
15804.333,30.273,36.621,32.715,39.062,-2.930,0
15804.337,29.785,40.527,34.180,40.039,34.668,0
15804.340,37.109,36.621,34.668,50.293,63.477,0
15804.344,35.645,32.715,35.156,48.828,53.711,0
15804.348,32.715,33.691,33.691,37.109,16.602,0
15804.352,34.668,32.227,34.668,34.180,-13.184,0
15804.356,37.109,31.250,34.668,43.945,34.668,0
15804.360,31.738,31.250,30.762,50.293,69.336,0
15804.364,17.578,30.273,32.715,46.387,33.203,0
15804.368,14.648,33.203,35.156,38.574,5.859,0
15804.372,28.809,32.715,32.227,47.363,29.297,0
15804.376,32.715,31.738,38.086,58.594,21.973,0
15804.379,22.461,37.109,46.387,53.223,-16.113,0
15804.383,12.207,37.598,41.016,39.062,0.000,0
15804.387,20.996,36.133,35.645,40.527,23.438,0
15804.391,31.250,35.645,33.691,45.898,-17.578,0
15804.395,23.926,32.715,29.785,41.016,-42.969,0
15804.399,18.066,31.738,33.203,32.227,-6.348,0
15804.403,24.414,33.203,36.621,28.809,29.297,0
15804.407,39.551,34.668,32.715,40.527,50.293,0
15804.411,40.039,38.574,32.715,43.945,68.848,0
15804.415,30.273,42.969,35.156,27.832,40.527,0
15804.419,26.855,42.480,34.180,19.531,-27.344,0
15804.422,36.133,38.574,30.762,28.809,-6.836,0
15804.426,42.480,41.504,31.250,40.527,2.441,0
15804.430,30.273,40.039,33.203,34.668,18.555,0
15804.434,20.996,35.645,32.715,29.297,48.828,0
15804.438,32.715,40.527,34.668,43.945,13.672,0
15804.442,38.574,36.621,29.785,46.875,31.250,0
15804.446,30.762,32.227,29.297,41.992,23.926,0
15804.450,20.996,38.086,33.203,38.086,23.438,0
15804.454,22.461,36.621,28.320,38.574,58.594,0
15804.458,26.367,32.227,29.297,44.434,43.945,0
15804.462,17.578,33.203,32.715,41.992,-4.395,0
15804.465,10.254,34.668,36.133,35.156,8.789,0
15804.469,16.113,36.621,41.016,37.598,-0.488,0
15804.473,22.461,35.156,35.645,48.340,-16.113,0
15804.477,22.949,32.715,30.273,51.270,-1.953,0
15804.481,14.648,34.668,34.180,39.062,28.320,0
15804.485,16.602,39.062,40.527,29.297,-5.371,0
15804.489,31.738,39.551,39.551,37.598,5.371,0
15804.493,33.203,37.109,35.156,41.992,29.297,0
15804.497,32.227,39.551,35.645,37.598,2.930,0
15804.501,21.973,40.039,34.668,27.832,35.156,0
15804.504,20.996,38.086,30.762,30.762,-2.441,0
15804.508,32.227,37.598,31.250,41.992,-14.648,0
15804.512,26.855,39.551,32.227,40.039,6.348,0
15804.516,13.672,40.039,32.715,30.762,-10.742,0
15804.520,17.090,34.180,34.668,33.691,-20.996,0
15804.524,33.203,33.691,34.668,40.039,40.527,0
15804.528,36.621,41.992,38.086,41.016,59.082,0
15804.532,21.484,43.457,40.527,36.133,27.344,0
15804.536,21.973,41.504,40.039,30.762,-0.977,0
15804.540,32.715,39.551,36.621,33.203,16.113,0
15804.544,31.738,38.574,31.250,36.621,28.320,0
15804.547,24.414,41.504,33.203,36.133,14.160,0
15804.551,15.625,42.969,39.062,36.133,-7.812,0
15804.555,20.508,41.992,40.039,40.039,-32.227,0
15804.559,25.879,39.551,40.527,39.062,-7.324,0
15804.563,18.066,38.086,40.527,34.180,-45.410,0
15804.567,9.766,37.598,39.062,29.297,-38.574,0
15804.571,18.555,32.715,34.668,28.320,32.227,0
15804.575,26.855,28.320,33.203,32.227,21.973,0
15804.579,21.973,29.785,33.203,32.227,7.324,0
15804.583,20.996,36.133,38.086,30.762,4.395,0
15804.587,22.949,35.645,38.086,31.250,1.953,0
15804.590,30.762,31.250,31.250,37.598,17.578,0
15804.594,31.738,32.227,34.180,43.457,28.320,0
15804.598,20.996,34.668,38.574,39.551,38.574,0
15804.602,20.508,34.668,37.109,31.738,-7.812,0
15804.606,33.203,32.715,35.156,30.762,-6.836,0
15804.610,40.527,32.715,33.203,38.574,-6.836,0
15804.614,31.738,38.086,32.715,32.715,48.828,0
15804.618,23.926,38.574,35.645,27.832,56.641,0
15804.622,33.203,34.668,31.250,42.480,36.621,0
15804.626,42.969,35.156,32.227,51.270,54.688,0
15804.629,35.645,39.062,39.551,40.527,30.762,0
15804.633,19.531,40.039,41.504,26.855,16.602,0
15804.637,21.484,38.574,39.551,23.926,-20.996,0
15804.641,27.344,35.156,34.668,29.297,6.836,0
15804.645,24.414,32.227,34.668,36.133,39.551,0
15804.649,23.926,34.668,39.062,30.762,7.812,0
15804.653,24.414,39.062,41.504,31.738,24.414,0
15804.657,29.297,37.598,38.086,41.992,-15.137,0
15804.661,26.855,36.621,34.180,43.457,-29.785,0
15804.665,20.020,40.039,40.039,39.062,13.184,0
15804.669,19.531,40.527,42.969,34.180,16.113,0
15804.672,18.555,33.203,35.156,36.133,15.137,0
15804.676,23.438,31.250,31.738,40.039,-2.441,0
15804.680,23.926,33.691,37.109,39.062,-24.902,0
15804.684,17.090,34.180,41.504,37.109,15.137,0
15804.688,23.438,33.203,40.527,42.969,43.945,0
15804.692,33.203,32.715,40.527,43.457,7.324,0
15804.696,29.297,33.691,41.504,39.062,-3.418,0
15804.700,21.973,35.645,39.062,37.109,5.859,0
15804.704,27.344,37.109,38.086,46.875,36.621,0
15804.708,39.062,36.621,36.621,54.199,57.617,0
15804.712,33.203,35.645,35.645,45.410,21.973,0
15804.715,26.855,36.133,33.691,34.180,-23.926,0
15804.719,30.273,36.621,31.250,36.133,-11.719,0
15804.723,41.504,35.645,32.227,45.898,27.832,0
15804.727,41.016,36.133,36.133,48.340,-2.441,0
15804.731,27.832,36.133,38.574,39.062,5.859,0
15804.735,23.926,36.133,39.062,31.250,0.488,0
15804.739,34.180,36.133,37.598,38.574,11.719,0
15804.743,44.922,38.574,37.109,52.246,23.438,0
15804.747,41.992,41.016,40.527,47.852,12.207,0
15804.751,35.156,41.016,39.551,35.645,-38.086,0
15804.754,41.504,40.039,35.156,45.410,-14.648,0
15804.758,46.387,39.062,34.668,52.734,-18.555,0
15804.762,36.133,40.039,36.621,44.922,-8.789,0
15804.766,25.391,37.598,40.527,37.598,6.348,0
15804.770,33.691,33.203,41.016,44.434,-26.855,0
15804.774,42.969,32.227,37.598,51.758,10.742,0
15804.778,38.086,33.691,39.551,53.711,-6.348,0
15804.782,30.762,36.621,43.945,46.875,-25.391,0
15804.786,29.785,35.645,46.387,42.969,2.441,0
15804.790,37.109,30.762,43.457,56.152,39.062,0
15804.794,34.180,27.344,38.086,56.641,35.645,0
15804.797,23.438,27.344,39.551,41.016,12.207,0
15804.801,22.949,29.785,42.480,33.691,26.367,0
15804.805,29.785,29.785,40.039,39.551,29.297,0
15804.809,35.645,29.297,37.109,41.992,5.859,0
15804.813,29.297,31.250,37.109,40.527,26.367,0
15804.817,24.414,35.645,34.180,32.715,31.250,0
15804.821,26.855,33.691,30.762,28.809,-14.160,0
15804.825,29.785,30.762,27.344,33.691,25.879,0
15804.829,26.367,33.203,26.367,33.203,41.504,0
15804.833,13.672,36.621,32.715,25.391,17.578,0
15804.837,12.695,37.598,35.645,21.484,4.883,2
15804.840,24.414,35.645,36.133,36.133,22.461,0
15804.844,29.785,35.156,37.598,40.039,21.973,0
15804.848,16.113,34.668,33.691,19.531,-41.504,0
15804.852,5.371,33.203,29.297,10.742,-25.879,0
15804.856,15.137,30.273,28.320,16.602,20.020,0
15804.860,24.414,29.297,27.832,23.438,52.734,0
15804.864,17.090,33.691,32.715,23.438,32.715,0
15804.868,15.137,38.574,38.574,24.902,-11.719,0
15804.872,20.996,32.715,34.668,32.715,36.621,0
15804.876,17.578,28.320,32.715,36.133,51.758,0
15804.879,6.348,27.832,34.180,33.691,-8.301,0
15804.883,0.000,27.344,35.645,25.391,-17.090,0
15804.887,9.277,29.297,38.086,35.156,12.695,0
15804.891,14.648,28.320,33.691,49.805,24.414,0
15804.895,16.602,27.832,30.762,48.828,22.949,0
15804.899,14.648,33.203,38.574,44.922,29.785,0
15804.903,16.113,38.086,42.969,41.992,48.828,0
15804.907,32.227,34.180,39.062,50.293,71.777,0
15804.911,33.691,31.738,34.180,50.781,16.602,0
15804.915,19.531,34.668,30.762,43.945,22.461,0
15804.919,17.578,35.645,32.227,39.062,0.000,0
15804.922,30.273,33.691,26.367,41.016,3.906,0
15804.926,34.668,34.668,22.949,48.340,64.453,0
15804.930,28.809,34.180,29.785,46.875,2.441,0
15804.934,28.320,35.156,32.715,34.180,-14.160,0
15804.938,32.227,36.133,31.250,36.133,16.602,0
15804.942,33.203,32.715,27.832,36.621,15.137,0
15804.946,29.297,34.180,27.832,35.645,44.434,0
15804.950,23.926,38.086,30.273,28.809,-33.203,0
15804.954,23.926,34.180,29.297,27.344,-28.809,0
15804.958,24.902,33.203,25.391,31.738,41.504,0
15804.962,19.043,31.738,22.949,30.762,29.297,0
15804.965,11.719,31.250,24.414,27.832,19.043,0
15804.969,13.184,34.180,29.297,25.879,-14.160,0
15804.973,26.367,33.691,30.762,35.156,-26.855,0
15804.977,27.832,30.762,28.320,39.062,-11.230,0
15804.981,16.602,29.785,27.832,31.250,5.859,0
15804.985,14.648,28.320,26.855,20.508,25.391,0
15804.989,21.973,23.926,25.391,26.367,17.578,0
15804.993,21.484,20.508,20.020,31.738,1.953,0
15804.997,12.207,20.508,19.531,28.809,29.297,0
15805.001,7.324,24.414,22.949,29.297,0.488,0
15805.004,19.531,25.879,24.414,35.645,-18.066,0
15805.008,34.180,25.391,24.902,39.062,22.949,0
15805.012,28.320,25.879,26.855,37.598,20.508,0
15805.016,21.484,21.484,27.344,31.738,-13.184,0
15805.020,26.855,20.996,27.832,30.762,12.695,0
15805.024,32.227,22.949,25.879,41.016,22.949,0
15805.028,34.668,25.879,21.484,46.875,-33.691,0
15805.032,26.367,28.809,26.367,38.574,-22.949,0
15805.036,26.855,30.273,32.715,38.086,6.836,0
15805.040,36.133,27.344,29.297,45.898,23.438,0
15805.044,32.715,25.391,26.367,46.387,16.113,0
15805.047,21.484,32.715,33.203,45.410,-44.434,0
15805.051,16.113,34.180,33.691,36.621,-49.316,0
15805.055,23.926,29.785,29.297,37.109,-2.441,0
15805.059,26.855,26.855,27.832,37.598,29.785,0
15805.063,17.578,27.344,29.785,35.645,34.668,0
15805.067,11.719,31.250,30.273,30.273,44.434,0
15805.071,14.648,29.297,29.785,29.297,21.484,0
15805.075,23.438,26.855,27.344,37.598,36.621,0
15805.079,24.414,31.738,25.391,41.504,47.363,0
15805.083,17.578,34.668,31.250,33.691,23.926,0
15805.087,22.461,31.738,34.180,31.250,60.059,0
15805.090,33.203,30.273,29.785,38.086,81.543,0
15805.094,27.832,29.785,26.367,35.156,58.594,0
15805.098,12.207,29.785,28.320,25.391,40.039,0
15805.102,7.324,30.273,32.715,29.297,-14.160,0
15805.106,16.113,28.320,33.203,41.992,-13.184,0
15805.110,24.414,26.855,28.320,35.156,-8.301,0
15805.114,20.996,30.762,26.367,26.855,26.367,0
15805.118,15.625,35.645,30.273,25.391,62.500,0
15805.122,20.508,35.156,25.879,32.715,13.672,0
15805.126,29.785,34.668,27.344,39.551,-40.039,0
15805.129,28.809,35.645,33.691,34.668,-24.414,0
15805.133,20.996,35.645,34.668,29.297,22.949,0
15805.137,21.973,34.668,35.156,33.691,5.859,0
15805.141,27.832,34.180,33.691,40.039,6.348,0
15805.145,27.344,36.133,33.691,35.156,1.953,0
15805.149,20.996,35.645,34.668,25.879,-33.691,0
15805.153,24.414,38.086,34.668,22.461,15.625,0
15805.157,33.691,38.574,31.250,27.832,-0.488,0
15805.161,30.762,34.668,31.250,36.133,-18.555,0
15805.165,23.438,37.598,34.180,33.203,9.277,0
15805.169,19.531,39.062,32.715,25.879,14.160,0
15805.172,30.273,38.574,34.668,44.434,-18.555,0
15805.176,35.156,38.086,37.598,53.223,-30.762,0
15805.180,23.926,35.156,39.062,41.016,33.203,0
15805.184,31.738,39.551,46.875,44.922,16.602,0
15805.188,40.039,39.062,43.945,48.340,34.180,0
15805.192,32.227,32.715,36.621,47.363,30.273,0
15805.196,26.855,34.668,38.574,51.758,-1.465,0
15805.200,20.508,36.621,42.480,46.875,23.926,0
15805.204,23.438,38.086,41.504,50.293,-4.395,0
15805.208,35.645,36.133,40.039,60.059,38.574,0
15805.212,34.668,37.109,42.480,53.223,85.938,0
15805.215,27.344,41.504,41.016,44.922,42.969,0
15805.219,28.320,41.016,42.480,42.480,4.395,0
15805.223,33.203,39.551,41.992,47.363,-3.418,0
15805.227,41.016,41.016,39.551,52.246,55.664,0
15805.231,41.992,43.457,39.551,47.363,64.941,0
15805.235,33.203,43.945,41.016,41.992,14.648,0
15805.239,34.180,42.480,41.992,48.340,26.855,0
15805.243,36.621,39.062,41.016,55.664,66.406,0
15805.247,34.180,42.480,41.016,48.828,59.082,0
15805.251,35.156,46.387,44.922,50.293,13.184,0
15805.254,35.645,39.551,42.969,61.523,-40.527,0
15805.258,34.668,35.156,39.062,55.176,-28.809,0
15805.262,31.250,39.062,41.016,41.504,20.996,0
15805.266,26.367,42.969,44.434,36.133,16.113,0
15805.270,23.438,39.062,38.574,34.668,2.441,0
15805.274,23.438,34.180,35.645,39.551,20.508,0
15805.278,20.020,36.133,37.598,41.504,14.160,0
15805.282,19.043,39.551,41.992,35.156,-9.766,0
15805.286,26.367,40.527,47.852,34.180,-7.812,0
15805.290,36.133,40.039,43.945,43.457,-21.973,0
15805.294,39.551,39.551,40.039,48.340,-41.016,0
15805.297,31.250,39.062,42.480,42.969,0.000,0
15805.301,26.367,41.016,44.434,40.039,37.109,0
15805.305,34.180,39.551,42.480,43.945,-1.953,0
15805.309,40.039,35.156,41.992,45.410,-48.340,0
15805.313,37.109,38.574,43.945,46.387,-27.344,0
15805.317,22.949,37.109,41.016,40.527,31.250,0
15805.321,21.973,34.180,41.504,34.668,12.207,0
15805.325,35.645,37.109,44.434,43.457,-5.371,0
15805.329,37.109,41.504,41.992,44.434,13.184,0
15805.333,22.461,41.504,40.039,23.926,33.691,0
15805.337,16.602,38.086,39.551,18.555,-3.906,0
15805.340,27.832,32.715,37.598,26.367,-12.207,0
15805.344,27.832,31.738,39.062,30.273,15.137,0
15805.348,19.531,35.156,39.551,22.949,3.906,0
15805.352,20.996,38.086,37.598,18.066,-50.781,0
15805.356,33.203,38.574,36.133,31.250,36.621,0
15805.360,37.598,36.133,37.109,38.086,57.617,0
15805.364,23.926,33.203,38.574,28.320,-18.066,0
15805.368,15.625,33.691,42.969,19.043,-37.109,0
15805.372,22.461,31.250,39.062,23.926,3.418,0
15805.376,24.902,27.344,32.715,30.762,-7.324,0
15805.379,18.555,25.879,35.645,25.879,-30.762,0
15805.383,14.648,28.320,34.668,19.043,-19.043,0
15805.387,16.602,32.715,33.203,21.484,-10.254,0
15805.391,21.484,31.738,31.250,32.227,-6.836,0
15805.395,17.578,28.809,28.809,29.297,8.301,0
15805.399,9.766,32.715,35.156,22.461,12.207,0
15805.403,15.625,35.156,40.527,33.203,-34.180,0
15805.407,29.297,30.273,36.133,42.969,-21.484,0
15805.411,30.273,30.273,34.180,43.457,28.809,0
15805.415,20.996,32.715,37.109,35.156,39.062,0
15805.419,18.555,33.203,39.062,29.297,-17.090,0
15805.422,22.461,32.227,35.645,39.062,-6.836,0
15805.426,26.367,34.668,38.086,46.875,41.504,0
15805.430,19.043,36.621,36.621,33.691,63.477,0
15805.434,14.160,37.109,31.738,21.973,18.555,0
15805.438,32.227,40.527,38.086,30.273,-32.715,0
15805.442,43.945,39.551,41.992,45.410,-10.254,0
15805.446,34.180,36.621,40.039,45.410,-11.719,0
15805.450,16.113,36.133,40.039,30.762,8.789,0
15805.454,16.113,35.156,37.598,33.203,37.598,0
15805.458,29.297,32.715,33.691,49.805,8.789,0
15805.462,30.273,32.715,33.203,44.922,-0.977,0
15805.465,24.414,37.109,35.156,30.273,63.477,0
15805.469,24.902,37.598,36.621,28.809,75.195,0
15805.473,33.691,33.691,35.156,42.969,40.527,0
15805.477,34.180,33.691,37.109,41.992,73.242,0
15805.481,22.461,35.156,40.039,31.738,48.340,0
15805.485,18.555,35.156,42.480,32.227,14.160,0
15805.489,22.461,31.250,37.598,34.668,75.684,0
15805.493,22.949,29.785,34.180,39.062,46.387,0
15805.497,16.602,29.785,34.180,37.598,35.156,0
15805.501,13.184,30.273,35.645,34.668,-42.480,0
15805.504,28.320,34.180,34.668,37.598,-11.230,0
15805.508,37.109,36.133,31.250,42.969,82.520,1
15805.512,31.250,38.574,33.203,39.062,24.414,0
15805.516,20.996,40.527,40.527,26.367,24.902,0
15805.520,16.602,39.062,40.527,27.832,43.457,0
15805.524,28.320,36.133,33.203,31.738,12.207,0
15805.528,30.273,36.621,32.715,29.785,-1.953,0
15805.532,15.137,35.156,34.668,25.391,-23.926,0
15805.536,8.301,34.668,35.156,24.414,-7.324,0
15805.540,12.207,36.621,29.297,32.715,75.195,0
15805.544,17.578,38.086,26.367,34.668,79.590,0
15805.547,17.578,40.527,33.203,29.785,1.953,0
15805.551,12.207,42.480,39.062,24.902,-4.395,0
15805.555,20.020,38.574,34.180,31.250,32.227,0
15805.559,30.273,35.156,33.203,40.527,-21.484,0
15805.563,25.391,34.668,35.645,35.645,-30.762,0
15805.567,21.973,36.133,37.598,20.996,-25.879,0
15805.571,23.438,37.598,36.133,23.438,3.418,0
15805.575,26.367,32.227,30.273,34.180,25.879,0
15805.579,26.367,31.738,26.855,30.762,52.246,0
15805.583,20.996,34.668,30.273,30.273,24.902,0
15805.587,27.344,35.645,31.250,28.809,-23.926,0
15805.590,33.691,32.227,26.367,27.832,34.180,0
15805.594,30.273,34.180,32.715,34.668,49.805,0
15805.598,29.297,41.016,40.527,31.738,4.395,0
15805.602,31.738,40.039,39.551,31.250,-0.488,0
15805.606,37.598,35.645,39.062,43.457,-10.254,0
15805.610,37.598,35.645,38.086,47.363,45.410,0
15805.614,24.902,35.156,38.086,38.086,21.973,0
15805.618,19.043,31.250,40.039,33.203,-12.695,0
15805.622,28.809,35.645,36.621,43.457,45.898,0
15805.626,38.086,39.551,34.180,44.434,20.508,0
15805.629,31.250,39.062,35.156,35.645,-31.738,0
15805.633,17.090,39.062,37.109,26.367,-14.160,0
15805.637,15.625,39.551,35.156,21.484,6.348,0
15805.641,24.902,42.480,33.691,37.109,5.371,0
15805.645,29.297,42.969,36.133,47.852,42.969,0
15805.649,19.043,43.457,39.062,34.180,17.090,0
15805.653,17.090,42.969,39.062,26.855,5.371,0
15805.657,25.879,36.621,35.156,35.645,51.270,0
15805.661,19.531,35.156,32.227,39.062,55.176,0
15805.665,16.113,40.039,34.180,33.203,-41.504,0
15805.669,14.160,40.527,37.598,24.902,-50.293,0
15805.672,15.137,36.621,37.109,34.180,-7.812,0
15805.676,20.996,35.645,37.109,38.574,-21.973,0
15805.680,17.090,35.156,35.645,29.297,-22.461,0
15805.684,12.695,35.156,36.133,24.902,18.066,0
15805.688,15.625,33.691,38.574,28.809,15.137,0
15805.692,21.973,29.297,37.598,34.180,-24.414,0
15805.696,21.973,31.738,37.598,35.156,-7.812,0
15805.700,13.672,32.715,41.504,28.320,11.719,0
15805.704,11.230,29.297,40.039,28.320,-6.348,0
15805.708,20.020,32.715,36.621,34.668,-25.879,0
15805.712,23.438,32.227,35.156,32.715,7.812,0
15805.715,16.602,30.762,35.645,32.715,39.551,0
15805.719,16.602,33.691,35.156,31.738,-24.902,0
15805.723,32.227,32.227,29.785,33.203,-4.883,0
15805.727,36.621,31.250,30.273,41.016,0.488,0
15805.731,24.414,34.668,34.668,35.156,-35.156,0
15805.735,22.949,36.133,38.086,24.902,-66.406,0
15805.739,26.367,32.227,34.668,35.156,-34.180,0
15805.743,34.180,31.250,32.715,48.340,17.578,0
15805.747,39.062,36.621,36.133,47.852,35.645,0
15805.751,24.414,38.574,35.645,36.133,80.566,0
15805.754,19.531,32.715,26.855,29.297,48.828,0
15805.758,30.273,30.762,22.949,35.645,27.344,0
15805.762,31.738,35.156,29.785,37.598,54.199,0
15805.766,20.996,34.180,35.645,33.691,42.969,0
15805.770,17.090,30.762,33.691,35.156,60.059,0
15805.774,28.320,29.297,28.320,40.527,48.340,0
15805.778,30.273,28.809,26.855,40.527,23.926,0
15805.782,16.113,30.273,30.762,30.762,-11.719,0
15805.786,13.184,31.250,31.250,26.855,-13.184,0
15805.790,27.344,30.762,27.832,33.203,12.207,0
15805.794,29.785,27.344,24.902,37.109,58.105,0
15805.797,21.484,25.391,23.926,33.691,65.430,0
15805.801,12.695,21.973,25.391,20.996,11.719,0
15805.805,15.137,19.043,22.949,22.949,19.043,0
15805.809,25.391,24.414,20.508,29.297,33.691,0
15805.813,25.391,30.762,25.391,27.832,0.000,0
15805.817,19.043,34.180,28.809,21.973,-7.324,0
15805.821,19.531,32.715,25.391,26.855,-28.320,0
15805.825,29.297,32.715,24.902,37.109,8.789,0
15805.829,31.738,34.180,26.855,33.203,54.688,0
15805.833,18.066,36.133,28.320,29.297,30.273,0
15805.837,14.160,30.762,27.344,27.344,40.527,0
15805.840,20.020,23.438,18.555,29.297,50.781,0
15805.844,18.066,21.973,20.020,34.180,1.953,0
15805.848,10.254,22.461,31.250,31.250,-37.109,0
15805.852,8.301,24.902,33.203,21.973,-25.391,0
15805.856,16.113,24.902,28.809,24.414,-25.879,0
15805.860,20.508,23.438,29.785,30.762,20.020,0
15805.864,25.391,28.809,35.645,35.156,10.254,0
15805.868,23.926,33.203,38.574,33.691,7.324,0
15805.872,21.973,31.250,34.180,34.668,28.320,0
15805.876,29.297,28.809,33.203,46.387,-7.324,0
15805.879,27.832,27.344,32.715,45.898,-6.348,0
15805.883,19.043,33.203,34.180,37.109,2.441,0
15805.887,27.832,37.598,35.645,39.551,4.883,0
15805.891,36.621,37.109,31.738,45.410,-15.137,0
15805.895,24.902,34.180,31.250,48.828,-58.105,0
15805.899,14.648,33.203,35.156,41.504,-41.504,0
15805.903,18.066,36.133,35.645,39.062,3.418,0
15805.907,27.344,34.668,35.156,48.828,-10.254,0
15805.911,27.344,31.738,37.109,44.922,49.316,0
15805.915,21.484,34.668,40.039,36.133,29.785,0
15805.919,11.719,34.180,39.551,27.832,-9.277,0
15805.922,16.602,31.738,38.086,32.715,28.809,0
15805.926,30.273,33.203,34.180,36.621,34.180,0
15805.930,21.973,33.203,31.738,26.855,12.207,0
15805.934,12.695,32.715,34.180,17.578,-2.441,0
15805.938,23.926,32.227,36.133,23.438,-47.852,0
15805.942,30.273,33.203,35.156,36.133,0.488,0
15805.946,27.832,32.715,34.668,35.156,10.742,0
15805.950,14.648,27.832,32.227,26.855,-16.602,0
15805.954,19.043,30.273,30.762,33.691,9.766,0
15805.958,35.156,36.133,32.715,40.039,2.930,0
15805.962,29.297,34.180,35.645,34.668,14.160,0
15805.965,15.137,34.180,36.621,27.344,14.648,0
15805.969,16.113,37.598,39.551,30.762,-39.062,0
15805.973,25.879,36.621,38.086,33.691,41.992,0
15805.977,31.738,38.086,35.645,30.762,90.332,0
15805.981,31.250,41.992,35.645,35.156,-19.043,0
15805.985,25.879,42.480,40.039,38.574,11.230,0
15805.989,33.691,38.086,44.922,41.992,15.625,0
15805.993,37.598,34.180,38.574,36.621,51.758,0
15805.997,29.785,32.227,36.133,32.715,101.074,0
15806.001,22.461,33.203,40.039,25.391,51.758,0
15806.004,23.438,35.645,43.945,28.809,-11.230,0
15806.008,29.785,33.203,42.480,39.062,10.742,0
15806.012,30.273,36.621,42.969,41.992,44.922,0
15806.016,17.578,37.598,45.898,34.180,1.953,0
15806.020,13.672,34.668,44.434,28.320,5.859,0
15806.024,21.484,31.738,38.086,36.621,29.785,0
15806.028,20.020,30.273,36.133,35.645,20.508,0
15806.032,19.531,33.203,37.109,30.273,-39.062,0
15806.036,17.578,35.156,37.109,27.832,-2.441,0
15806.040,25.391,36.621,37.109,32.715,19.043,0
15806.044,35.645,36.621,37.109,34.668,-2.930,0
15806.047,22.461,37.109,38.574,26.855,12.207,0
15806.051,19.531,39.551,41.016,29.297,-14.648,0
15806.055,30.762,36.621,43.945,39.551,-1.953,0
15806.059,33.203,33.691,41.992,40.039,9.277,0
15806.063,29.785,37.109,38.086,34.180,20.996,0
15806.067,18.555,39.551,41.016,31.738,-16.113,0
15806.071,14.160,34.668,43.457,34.180,-35.645,0
15806.075,20.020,30.273,39.062,35.156,-1.953,0
15806.079,21.973,29.785,36.133,31.738,36.133,0
15806.083,21.973,34.180,37.598,31.738,64.941,0
15806.087,23.438,37.109,39.551,40.527,30.273,0
15806.090,22.461,33.203,37.598,38.086,47.852,0
15806.094,20.508,32.227,32.715,20.508,17.578,0
15806.098,16.113,34.668,33.203,18.555,-5.371,0
15806.102,12.207,35.156,33.203,26.855,23.438,0
15806.106,21.973,35.156,29.785,28.320,1.953,0
15806.110,33.203,36.133,32.227,27.832,14.160,0
15806.114,24.902,35.156,33.691,25.391,18.066,0
15806.118,13.184,34.668,34.180,23.926,25.879,0
15806.122,19.043,35.156,33.691,30.762,-7.324,0
15806.126,32.227,35.156,34.668,41.504,-13.672,0
15806.129,26.855,33.691,37.109,39.062,-25.391,1
15806.133,15.625,36.133,36.133,25.391,-24.414,0
15806.137,22.949,38.086,37.598,26.367,-15.137,0
15806.141,31.738,35.645,34.668,38.574,-62.500,0
15806.145,32.227,38.574,33.203,44.434,24.902,0
15806.149,25.391,37.109,36.621,33.691,11.719,0
15806.153,22.949,35.645,38.086,29.785,-28.809,0
15806.157,32.715,33.691,35.156,43.945,1.465,0
15806.161,41.016,31.738,31.738,42.480,-16.602,0
15806.165,34.668,33.691,35.156,31.738,16.113,0
15806.169,34.180,36.621,40.527,32.715,49.805,0
15806.172,38.086,35.156,40.039,37.109,41.992,0
15806.176,31.738,31.250,39.062,45.410,60.059,0
15806.180,20.996,30.273,39.062,49.316,0.000,0
15806.184,17.090,33.691,42.480,39.551,-32.715,0
15806.188,21.973,36.133,41.992,38.574,-0.977,0
15806.192,29.297,32.715,36.133,40.039,-2.441,0
15806.196,24.902,29.785,36.133,38.574,20.508,0
15806.200,15.625,32.715,39.062,37.598,13.672,0
15806.204,18.555,37.598,38.574,39.062,-16.602,0
15806.208,30.273,39.551,32.715,41.016,19.531,0
15806.212,29.297,40.527,30.273,42.969,36.133,0
15806.215,18.066,40.527,33.203,34.180,1.465,0
15806.219,18.066,38.086,34.180,33.203,-0.488,0
15806.223,31.250,37.109,36.133,41.504,29.297,0
15806.227,33.203,39.551,40.527,41.992,-1.953,0
15806.231,17.090,36.621,41.992,30.762,8.789,0
15806.235,14.160,37.109,41.992,21.484,35.156,0
15806.239,22.949,36.133,34.668,26.367,2.441,0
15806.243,22.949,32.715,26.855,32.227,-7.324,0
15806.247,18.555,34.668,26.367,32.715,0.977,0
15806.251,15.625,36.133,29.785,21.484,-17.578,0
15806.254,25.391,35.156,32.227,21.973,8.789,0
15806.258,30.273,34.180,31.250,33.203,39.551,0
15806.262,18.066,32.715,29.785,28.320,19.531,0
15806.266,10.254,38.574,36.133,23.438,35.156,0
15806.270,11.230,38.574,36.133,30.762,50.781,0
15806.274,16.602,29.785,27.344,35.156,13.184,0
15806.278,25.879,33.691,28.809,41.992,-14.160,0
15806.282,23.926,39.062,33.691,33.691,3.906,0
15806.286,22.949,38.574,34.668,23.926,20.020,0
15806.290,32.227,36.621,30.762,34.180,16.602,0
15806.294,33.203,32.227,28.809,37.109,74.707,0
15806.297,27.832,35.156,35.645,38.086,47.363,0
15806.301,21.484,37.598,39.062,30.762,36.621,0
15806.305,24.414,36.621,37.598,36.133,46.875,0
15806.309,35.156,38.574,33.203,49.316,-0.488,0
15806.313,25.879,37.109,27.344,36.133,13.672,0
15806.317,14.648,37.109,32.715,26.367,-54.688,0
15806.321,20.020,37.598,34.668,26.367,-44.434,0
15806.325,32.227,36.133,33.203,36.133,-2.441,0
15806.329,30.762,32.227,29.297,41.016,-38.574,0
15806.333,15.625,32.227,31.738,33.203,20.508,0
15806.337,18.066,35.156,34.180,25.879,1.465,0
15806.340,31.250,37.109,32.715,35.156,-3.418,0
15806.344,33.203,38.086,39.062,51.270,60.547,0
15806.348,27.832,38.574,42.969,42.480,18.555,0
15806.352,21.484,39.551,41.504,34.180,5.371,0
15806.356,25.879,39.062,40.527,45.410,68.848,0
15806.360,33.691,38.086,39.551,43.945,47.363,0
15806.364,24.414,39.062,40.527,37.598,29.297,0
15806.368,8.789,39.062,41.992,32.227,26.367,0
15806.372,19.043,37.598,41.016,28.809,25.879,0
15806.376,31.250,38.574,38.574,33.203,30.762,0
15806.379,26.367,40.527,40.527,37.109,46.875,0
15806.383,20.020,41.992,47.363,33.691,78.613,0
15806.387,24.902,40.527,44.434,33.691,46.875,0
15806.391,35.645,39.551,39.551,40.527,-10.254,0
15806.395,29.297,39.062,40.039,44.434,16.113,0
15806.399,21.973,40.039,38.574,35.156,6.348,0
15806.403,24.414,40.527,39.062,31.250,-20.020,0
15806.407,28.320,40.039,37.598,42.969,3.906,0
15806.411,28.809,37.109,33.691,37.109,-0.977,0
15806.415,25.879,35.156,33.691,25.391,24.414,0
15806.419,24.414,39.062,37.598,28.320,53.711,0
15806.422,28.320,39.062,38.574,35.645,7.324,0
15806.426,29.297,38.086,36.133,44.434,0.977,0
15806.430,16.113,37.109,38.086,38.574,0.977,0
15806.434,11.719,36.621,40.039,23.926,-6.348,0
15806.438,23.926,37.598,40.039,35.645,18.066,0
15806.442,28.320,34.180,37.598,44.922,24.902,0
15806.446,22.461,33.203,38.086,37.598,16.602,0
15806.450,18.555,34.180,39.062,31.250,29.785,0
15806.454,19.043,32.715,36.133,31.738,11.719,0
15806.458,17.578,27.832,34.180,32.227,14.648,0
15806.462,14.160,25.879,32.227,22.461,37.109,0
15806.465,14.648,34.668,34.668,27.832,48.828,0
15806.469,20.020,39.062,34.668,27.832,26.367,0
15806.473,25.391,33.203,26.855,27.832,7.812,0
15806.477,27.344,31.738,26.855,37.109,7.812,0
15806.481,20.996,35.645,35.645,36.133,11.719,0
15806.485,18.555,38.086,40.527,34.668,-16.113,0
15806.489,26.367,37.598,37.598,41.504,-41.504,0
15806.493,25.879,33.203,31.738,44.434,21.973,0
15806.497,22.949,33.203,30.762,33.203,0.977,0
15806.501,14.160,34.180,30.762,22.461,-35.645,0
15806.504,13.672,35.645,30.762,30.273,-5.859,0
15806.508,25.879,34.180,30.762,36.133,-3.906,0
15806.512,23.926,30.762,28.809,28.809,-11.230,0
15806.516,14.160,28.809,30.273,22.461,-31.250,0
15806.520,16.113,27.344,31.250,21.973,11.230,0
15806.524,25.879,31.250,30.273,35.156,30.762,0
15806.528,34.180,39.062,32.227,42.969,-94.727,0
15806.532,30.273,42.480,34.668,38.086,-118.652,0
15806.536,25.391,39.551,33.691,31.250,-40.039,0
15806.540,29.297,35.156,31.250,33.203,15.137,0
15806.544,34.180,34.180,29.785,45.410,50.781,0
15806.547,40.039,39.551,34.668,44.922,12.695,0
15806.551,36.621,42.480,38.574,28.809,34.668,0
15806.555,36.133,38.574,34.668,30.273,52.246,0
15806.559,41.016,37.109,31.250,37.598,11.230,0
15806.563,37.598,37.109,31.738,34.180,-42.480,0
15806.567,29.297,36.133,31.250,29.785,-48.828,0
15806.571,23.438,35.645,32.227,30.762,-35.156,0
15806.575,29.785,34.180,32.227,38.574,-20.020,0
15806.579,33.691,33.203,27.344,40.527,-5.371,0
15806.583,28.809,36.621,30.762,36.621,26.855,0
15806.587,25.879,37.598,36.621,33.691,58.594,0
15806.590,32.227,38.086,37.598,41.504,24.902,0
15806.594,30.273,36.133,31.738,34.180,48.828,0
15806.598,18.555,35.645,28.809,24.414,26.855,0
15806.602,16.113,35.645,30.762,21.484,-5.371,0
15806.606,25.879,33.203,29.785,32.227,12.695,0
15806.610,34.180,32.715,29.785,46.387,-8.301,0
15806.614,20.996,31.738,31.738,35.156,45.410,0
15806.618,12.207,34.180,32.715,21.484,53.223,0
15806.622,27.344,38.086,28.809,32.227,-7.812,0
15806.626,34.180,38.086,30.762,42.969,19.043,0
15806.629,27.344,36.621,35.645,41.016,79.102,0
15806.633,19.531,38.086,36.133,30.762,3.906,0
15806.637,22.949,37.109,32.227,25.391,-16.113,0
15806.641,33.691,33.203,28.809,37.598,42.969,0
15806.645,30.762,33.203,29.297,41.504,11.230,0
15806.649,19.043,32.715,28.809,27.344,5.371,0
15806.653,20.508,33.203,30.762,21.973,30.762,0
15806.657,31.250,32.227,32.715,36.133,25.879,0
15806.661,37.109,34.180,29.785,37.598,15.137,0
15806.665,37.109,38.574,32.715,38.086,15.625,0
15806.669,25.879,39.062,36.133,36.621,-45.898,2
15806.672,20.020,37.109,30.762,27.344,-0.977,0
15806.676,26.855,35.156,29.785,33.691,52.246,0
15806.680,22.461,35.156,31.250,34.180,9.766,0
15806.684,14.160,36.133,33.203,23.438,4.883,0
15806.688,21.973,39.062,36.621,34.180,25.391,0
15806.692,28.320,37.109,33.203,41.016,9.766,0
15806.696,20.508,34.668,30.273,38.086,19.043,0
15806.700,12.207,34.180,31.738,32.227,-22.461,0
15806.704,18.066,34.180,31.250,30.762,-9.277,0
15806.708,27.832,33.691,29.297,36.621,14.160,0
15806.712,25.391,32.227,31.738,37.109,14.648,0
15806.715,21.484,34.180,36.133,36.133,11.719,0
15806.719,24.902,34.180,35.645,27.344,-14.648,0
15806.723,32.715,27.344,33.691,30.273,38.086,0
15806.727,33.691,29.785,32.227,35.645,40.039,0
15806.731,22.949,39.062,33.203,28.809,-7.812,0
15806.735,15.137,41.016,35.156,28.320,-18.066,0
15806.739,22.461,36.621,31.250,30.273,20.508,0
15806.743,33.691,33.203,28.809,34.180,17.578,0
15806.747,30.762,33.691,31.738,32.227,-7.812,0
15806.751,23.926,34.668,34.180,18.555,13.184,0
15806.754,24.902,33.691,34.668,22.461,20.020,0
15806.758,29.297,31.738,32.715,27.832,55.664,0
15806.762,32.227,31.738,31.250,26.367,11.719,0
15806.766,18.555,35.645,35.645,26.855,1.953,0
15806.770,15.137,35.156,37.598,24.414,70.312,0
15806.774,23.438,31.738,36.133,28.320,28.320,0
15806.778,20.996,28.809,31.738,37.598,-6.348,0
15806.782,15.137,28.320,33.203,28.809,12.695,0
15806.786,14.648,31.738,38.086,23.926,1.953,0
15806.790,23.438,32.715,36.621,36.133,-19.043,0
15806.794,29.297,31.738,33.691,34.180,27.344,0
15806.797,26.855,37.109,36.621,33.203,27.344,0
15806.801,22.461,42.480,40.527,33.203,-38.086,0
15806.805,29.297,39.062,38.086,37.109,-18.066,0
15806.809,37.109,34.668,34.668,42.480,36.621,0
15806.813,33.203,36.621,36.621,32.227,25.879,0
15806.817,19.531,39.062,40.527,20.020,6.348,0
15806.821,16.113,39.551,40.039,28.320,29.785,0
15806.825,26.367,39.551,36.133,35.645,42.480,0
15806.829,27.832,40.527,35.645,32.715,58.594,0
15806.833,23.438,42.969,40.527,33.691,72.266,0
15806.837,26.367,41.016,41.016,32.715,17.090,0
15806.840,32.227,37.109,37.109,36.621,-26.855,0
15806.844,33.691,34.668,38.086,42.969,-51.758,0
15806.848,28.320,33.691,37.109,31.250,-5.859,0
15806.852,31.738,37.598,36.621,26.367,55.664,0
15806.856,41.016,37.598,38.574,48.340,56.152,0
15806.860,45.410,33.691,42.480,58.105,32.715,0
15806.864,38.574,36.621,45.410,48.340,45.898,0
15806.868,28.320,39.551,44.922,38.574,41.016,0
15806.872,28.809,36.621,41.504,36.133,6.836,0
15806.876,30.762,34.180,37.109,39.551,-47.363,0
15806.879,20.508,34.668,36.133,39.062,-32.227,0
15806.883,12.695,36.621,35.645,33.203,-16.602,0
15806.887,17.090,34.668,35.645,36.133,-26.855,0
15806.891,21.973,31.738,35.645,41.016,3.418,0
15806.895,18.555,34.668,36.133,35.156,-11.719,0
15806.899,12.207,35.156,38.086,32.227,-14.160,0
15806.903,17.090,34.180,39.551,36.621,-18.066,0
15806.907,31.738,34.180,37.598,37.598,-20.996,0
15806.911,41.504,37.598,39.551,34.668,50.293,0
15806.915,37.598,43.945,38.574,26.367,53.711,0
15806.919,25.391,44.922,34.668,24.902,22.949,0
15806.922,29.785,37.598,34.668,38.086,52.246,0
15806.926,41.504,35.645,34.180,44.922,27.344,0
15806.930,30.273,39.062,34.668,43.457,21.484,0
15806.934,17.090,39.551,30.762,35.645,24.902,0
15806.938,24.414,36.621,31.738,31.738,0.488,0
15806.942,39.062,38.574,38.086,37.109,30.762,0
15806.946,35.156,40.039,38.574,31.738,37.109,0
15806.950,22.461,38.086,37.598,23.438,-4.883,0
15806.954,20.996,36.133,36.133,32.227,-17.090,0
15806.958,20.996,32.715,34.668,37.109,-13.184,0
15806.962,15.625,29.297,31.250,25.391,-0.977,0
15806.965,15.137,33.203,29.297,19.043,68.359,0
15806.969,21.484,37.598,31.250,20.996,4.395,0
15806.973,22.461,35.156,31.250,26.367,-50.781,0
15806.977,17.578,31.250,30.762,29.785,-14.648,0
15806.981,16.113,32.227,32.715,23.438,-26.855,0
15806.985,15.137,39.062,32.227,14.160,-50.293,0
15806.989,18.066,38.086,30.273,20.020,-17.578,0
15806.993,24.414,36.133,28.809,27.344,7.324,0
15806.997,18.555,39.062,28.320,20.508,20.996,0
15807.001,10.254,39.551,33.203,16.602,34.668,0
15807.004,15.625,40.039,37.598,23.926,8.789,0
15807.008,31.250,40.527,37.109,30.273,-4.883,0
15807.012,27.344,39.062,36.133,27.832,11.230,0
15807.016,11.719,36.621,38.086,20.020,12.695,0
15807.020,7.812,36.133,37.598,16.113,17.090,0
15807.024,20.996,34.668,34.668,32.715,27.832,0
15807.028,26.855,32.715,30.762,40.527,12.695,0
15807.032,14.648,36.133,31.250,24.414,20.508,0
15807.036,4.395,37.109,35.156,21.484,5.859,0
15807.040,16.602,34.180,35.156,29.785,-59.570,0
15807.044,31.250,35.645,37.109,34.180,-31.738,0
15807.047,23.926,35.156,38.086,30.762,16.113,0
15807.051,11.719,35.645,35.645,23.926,-4.395,0
15807.055,14.160,38.574,33.691,21.484,-18.555,0
15807.059,24.414,39.062,31.250,36.621,-40.527,0
15807.063,23.926,35.645,31.250,40.039,28.809,0
15807.067,20.508,39.062,39.062,23.438,57.617,0
15807.071,24.414,40.039,40.527,23.438,3.906,0
15807.075,27.344,33.203,33.203,26.855,20.020,0
15807.079,27.832,36.621,34.180,28.809,13.672,0
15807.083,23.438,39.062,37.109,28.320,19.531,0
15807.087,19.531,33.691,37.598,25.391,18.066,0
15807.090,25.879,31.250,35.156,33.203,14.160,0
15807.094,27.832,32.227,36.133,36.133,18.555,0
15807.098,16.602,32.227,38.574,32.227,16.602,0
15807.102,8.789,31.250,37.598,29.297,10.254,0
15807.106,16.113,33.691,34.668,32.227,18.066,0
15807.110,24.902,32.227,35.156,33.691,12.207,0
15807.114,18.066,29.785,34.668,24.902,-14.160,0
15807.118,10.254,33.691,37.598,19.043,-20.020,0
15807.122,21.973,34.180,39.551,25.879,15.137,0
15807.126,31.738,32.715,38.086,41.504,42.969,0
15807.129,29.785,35.645,37.109,43.945,28.320,0
15807.133,19.531,40.039,40.039,21.973,-15.625,0
15807.137,16.113,37.598,41.992,20.508,-1.465,0
15807.141,28.320,36.133,40.039,45.410,64.453,0
15807.145,32.715,38.574,37.598,44.434,25.391,0
15807.149,25.391,39.062,37.598,22.461,-15.137,0
15807.153,20.020,35.156,35.645,18.066,-1.953,0
15807.157,28.320,33.203,35.156,34.668,30.273,0
15807.161,30.273,32.227,34.180,35.645,6.836,0
15807.165,23.926,32.227,33.203,32.227,-20.020,0
15807.169,24.902,37.109,34.180,33.691,-41.016,0
15807.172,24.414,39.062,35.645,35.156,-15.625,0
15807.176,23.438,33.203,37.598,40.039,24.902,0
15807.180,20.020,30.762,37.598,44.434,30.273,0
15807.184,13.672,31.738,38.086,32.715,53.711,0
15807.188,19.531,27.832,36.621,26.367,-1.465,0
15807.192,25.391,27.832,33.691,32.715,-41.016,0
15807.196,17.578,33.203,34.180,22.461,0.977,0
15807.200,8.301,33.203,37.598,18.555,11.230,0
15807.204,11.719,30.273,34.668,24.414,49.316,0
15807.208,23.926,32.715,33.691,32.227,29.785,0
15807.212,27.832,34.180,34.180,32.227,7.812,0
15807.215,17.090,32.715,33.691,23.438,53.711,0
15807.219,14.648,32.227,34.180,19.531,41.504,0
15807.223,22.461,30.762,30.762,20.020,-3.418,0
15807.227,26.855,30.762,28.809,20.996,-7.812,0
15807.231,26.855,34.668,30.273,16.602,19.531,0
15807.235,23.926,34.180,33.203,12.695,15.625,0
15807.239,24.414,30.273,31.738,24.414,49.805,0
15807.243,25.879,32.715,33.691,33.203,41.016,0
15807.247,21.973,38.086,37.109,29.297,22.949,0
15807.251,9.277,37.109,34.668,20.996,1.953,0
15807.254,9.277,33.203,31.250,21.973,-32.227,0
15807.258,22.461,31.250,28.809,37.109,48.340,0
15807.262,16.602,29.785,31.738,39.062,90.332,0
15807.266,5.859,32.227,36.621,26.367,22.949,0
15807.270,12.207,34.668,35.645,25.879,10.254,0
15807.274,24.414,29.785,32.227,38.574,10.254,1
15807.278,32.227,32.715,37.109,47.363,27.344,0
15807.282,23.438,40.039,41.992,41.016,74.219,0
15807.286,13.184,41.016,42.969,29.297,9.766,0
15807.290,22.949,38.574,38.574,32.715,-31.250,0
15807.294,27.344,35.645,33.203,34.668,43.945,0
15807.297,15.137,38.574,34.668,29.297,7.324,0
15807.301,13.184,42.480,35.156,21.973,-34.180,0
15807.305,27.832,41.504,35.156,27.344,-14.648,0
15807.309,33.203,41.016,31.738,33.203,-19.531,0
15807.313,31.250,41.992,30.762,30.273,1.465,0
15807.317,24.414,41.016,36.133,30.762,-1.465,0
15807.321,22.949,41.504,39.551,30.273,-11.230,0
15807.325,36.621,40.527,37.109,36.133,19.043,0
15807.329,40.527,41.504,34.668,37.109,42.480,0
15807.333,29.297,44.922,33.691,28.809,23.438,0
15807.337,26.855,41.016,32.227,28.320,-7.812,0
15807.340,37.109,39.062,28.809,31.738,3.418,0
15807.344,37.598,41.016,28.809,41.992,-14.648,0
15807.348,35.156,44.434,35.645,45.898,-28.809,0
15807.352,37.598,44.434,36.621,38.574,22.461,0
15807.356,39.551,38.574,33.691,38.574,-16.113,0
15807.360,40.527,34.668,30.762,33.203,-21.973,0
15807.364,35.156,36.621,32.227,36.133,63.965,0
15807.368,24.902,37.109,33.691,31.250,41.016,0
15807.372,34.668,36.621,36.133,31.250,15.137,0
15807.376,44.434,37.598,36.621,48.828,40.039,0
15807.379,35.645,35.645,31.738,44.434,20.020,0
15807.383,28.809,37.109,34.668,26.367,0.488,0
15807.387,25.879,35.156,36.621,20.996,-20.996,0
15807.391,31.250,29.297,31.250,24.414,-8.301,0
15807.395,32.715,30.762,27.832,25.391,4.883,0
15807.399,24.902,35.645,32.227,26.367,11.719,0
15807.403,23.926,35.156,34.668,25.391,12.207,0
15807.407,28.809,32.227,29.785,33.203,-2.930,0
15807.411,25.391,30.762,28.809,28.320,28.320,0
15807.415,16.602,27.344,29.297,16.113,54.688,0
15807.419,12.695,29.297,29.297,18.555,54.199,0
15807.422,18.066,35.156,30.273,20.508,22.949,0
15807.426,21.484,36.621,30.273,24.902,-11.230,0
15807.430,22.461,35.645,30.762,31.738,-12.207,0
15807.434,18.555,33.203,29.297,21.973,-14.160,0
15807.438,20.020,31.738,27.344,15.625,-27.344,0
15807.442,27.344,32.715,24.902,25.879,21.484,0
15807.446,23.438,33.691,27.832,30.273,49.805,0
15807.450,15.625,35.156,34.180,22.949,11.719,0
15807.454,17.090,36.133,29.785,22.949,16.602,0
15807.458,25.391,32.715,26.367,34.180,57.129,0
15807.462,23.926,32.227,31.738,34.668,82.031,0
15807.465,12.695,35.156,32.715,24.414,57.617,0
15807.469,11.719,36.133,35.156,16.113,5.859,0
15807.473,21.973,32.227,33.203,21.973,20.996,0
15807.477,26.855,28.809,29.785,31.738,44.922,0
15807.481,20.020,32.227,30.762,27.344,-25.879,0
15807.485,10.742,36.133,37.109,21.484,-7.812,0
15807.489,12.695,33.203,39.062,28.809,47.363,0
15807.493,24.902,32.227,29.297,33.203,5.859,0
15807.497,27.832,33.691,28.809,31.250,-8.789,0
15807.501,20.508,36.133,33.691,27.344,10.254,0
15807.504,21.484,37.598,30.273,26.855,30.762,0
15807.508,26.855,34.180,25.879,33.691,42.969,0
15807.512,24.902,35.645,29.785,32.227,54.688,0
15807.516,16.602,37.598,34.668,19.043,9.277,0
15807.520,10.742,34.668,32.715,16.113,55.664,0
15807.524,17.578,32.227,30.762,22.461,79.590,0
15807.528,24.902,34.180,36.133,27.344,20.508,0
15807.532,12.207,34.668,34.668,20.508,53.223,0
15807.536,6.836,35.645,31.738,16.113,24.414,0
15807.540,17.578,35.156,30.762,24.414,8.301,0
15807.544,19.043,31.738,26.367,21.973,20.020,0
15807.547,19.043,34.668,29.297,20.508,59.082,0
15807.551,20.508,38.086,35.156,20.508,8.789,0
15807.555,21.973,33.203,33.203,20.020,-62.012,0
15807.559,22.949,29.785,33.691,22.461,35.156,0
15807.563,11.719,30.762,33.203,17.090,16.602,0
15807.567,2.441,32.715,33.203,9.277,-68.848,0
15807.571,6.348,31.738,32.715,4.883,-81.543,0
15807.575,16.113,28.320,27.832,16.113,-1.465,0
15807.579,17.578,29.297,29.785,25.879,-6.348,0
15807.583,3.906,30.273,29.297,5.371,11.230,0
15807.587,3.418,30.273,28.320,-5.371,20.508,0
15807.590,17.578,33.203,31.250,13.184,-31.250,0
15807.594,20.020,34.180,30.762,24.414,26.855,0
15807.598,10.742,34.180,34.180,11.230,55.664,0
15807.602,5.371,34.668,36.621,9.766,3.418,0
15807.606,20.996,31.250,34.180,22.461,-46.387,0
15807.610,33.691,29.785,33.203,25.879,5.859,0
15807.614,24.902,31.250,36.133,22.949,43.457,0
15807.618,11.230,33.203,40.527,16.602,19.531,0
15807.622,15.625,34.180,39.062,11.230,-14.160,0
15807.626,29.297,35.156,33.691,19.531,-0.977,0
15807.629,29.785,34.668,30.762,29.297,-2.930,0
15807.633,23.438,34.668,31.250,18.555,-3.906,0
15807.637,23.438,31.250,31.738,16.113,20.996,0
15807.641,32.227,27.344,27.832,23.926,2.930,0
15807.645,39.062,33.203,30.273,24.414,-3.418,0
15807.649,31.250,39.551,36.133,18.555,38.574,0
15807.653,29.785,40.527,37.109,13.672,18.555,0
15807.657,43.457,39.551,38.086,25.879,30.762,0
15807.661,41.016,38.086,37.598,32.227,32.715,0
15807.665,26.855,36.133,37.109,24.414,17.090,0
15807.669,16.602,34.668,38.574,17.578,-15.625,0
15807.672,18.555,30.762,32.227,15.137,29.785,0
15807.676,27.344,30.273,27.344,15.625,25.391,0
15807.680,19.043,34.668,31.250,17.578,-17.578,0
15807.684,9.766,36.133,35.645,11.230,-21.484,0
15807.688,19.531,35.645,34.668,13.184,-10.742,0
15807.692,28.809,34.668,32.227,24.902,36.621,0
15807.696,25.879,34.180,35.645,25.879,3.906,0
15807.700,16.113,33.691,38.086,12.207,0.488,0
15807.704,20.020,35.645,39.551,12.207,38.086,0
15807.708,37.109,37.598,43.945,27.832,33.203,0
15807.712,43.945,38.574,40.527,26.855,9.766,0
15807.715,28.320,38.574,37.598,17.090,4.395,0
15807.719,13.672,38.086,39.551,16.113,8.301,0
15807.723,26.855,34.180,39.551,20.508,7.812,0
15807.727,31.738,26.367,36.133,17.578,24.414,0
15807.731,21.484,27.832,36.133,10.742,29.785,0
15807.735,18.555,34.668,41.016,13.184,14.160,0
15807.739,27.344,35.156,38.574,12.207,-40.527,0
15807.743,34.180,35.156,36.621,15.625,-41.016,0
15807.747,29.297,33.691,39.062,19.531,63.477,0
15807.751,26.367,38.086,42.969,14.648,28.320,0
15807.754,27.344,35.645,41.992,13.184,3.418,0
15807.758,29.297,27.344,36.621,18.555,63.965,0
15807.762,27.832,29.297,36.133,17.578,50.293,0
15807.766,23.438,39.551,42.480,7.812,26.855,0
15807.770,20.508,41.504,41.504,0.488,12.695,0
15807.774,23.438,35.645,33.691,0.488,-0.977,0
15807.778,30.273,34.668,32.715,0.977,17.578,0
15807.782,23.926,36.133,35.156,-2.441,-28.809,0
15807.786,15.137,35.645,37.109,-4.395,-30.273,0
15807.790,21.973,34.180,35.156,0.977,34.668,0
15807.794,26.855,33.691,32.227,10.742,23.438,0
15807.797,15.137,31.250,35.156,15.625,51.758,0
15807.801,12.695,33.691,38.574,5.371,-0.488,0
15807.805,28.809,37.109,40.039,8.789,-22.949,0
15807.809,37.109,36.133,38.086,20.996,41.504,0
15807.813,30.762,35.156,34.668,20.996,27.344,0
15807.817,24.902,36.133,36.621,14.160,-33.691,0
15807.821,24.902,35.645,38.086,9.766,-31.738,0
15807.825,25.391,32.715,37.598,10.254,-1.465,0
15807.829,19.531,34.668,36.133,11.719,6.836,0
15807.833,16.113,39.551,35.645,13.184,-41.016,0
15807.837,18.555,38.574,34.668,11.230,-42.480,0
15807.840,23.926,35.156,33.691,12.695,26.855,0
15807.844,26.855,36.621,33.691,10.254,43.457,0
15807.848,18.066,38.574,34.668,4.883,74.707,0
15807.852,5.859,38.574,34.180,-2.930,49.805,0
15807.856,12.695,37.109,29.297,0.977,33.691,0
15807.860,30.273,35.645,26.855,14.160,41.016,0
15807.864,31.250,35.645,30.762,20.020,33.691,0
15807.868,19.043,38.086,31.738,11.719,24.414,0
15807.872,19.531,36.621,28.809,13.672,35.156,0
15807.876,30.762,37.598,31.738,21.484,41.016,0
15807.879,30.273,42.480,34.180,19.043,17.090,0
15807.883,17.090,40.039,34.668,14.160,-0.488,0
15807.887,14.648,39.551,38.086,12.695,2.441,0
15807.891,24.902,38.086,33.691,20.996,60.059,0
15807.895,25.391,34.668,32.227,26.367,77.148,0
15807.899,14.648,36.621,34.668,16.602,47.852,0
15807.903,9.277,36.621,36.133,10.742,47.363,0
15807.907,22.461,35.156,38.574,24.414,20.020,0
15807.911,28.320,32.227,38.086,28.320,-5.859,0
15807.915,15.137,30.762,39.062,25.879,55.664,0
15807.919,9.766,33.203,41.504,16.602,73.242,0
15807.922,15.137,33.691,39.551,11.230,25.391,0
15807.926,24.414,32.227,36.133,22.949,27.832,0
15807.930,22.461,32.227,35.645,15.137,57.129,0
15807.934,12.695,38.086,37.109,-0.488,35.645,0
15807.938,15.137,38.086,38.086,10.254,32.715,0
15807.942,26.367,33.691,35.156,15.137,23.926,1
15807.946,34.668,36.133,35.156,9.766,-54.199,0
15807.950,22.461,36.133,40.527,9.766,-9.766,0
15807.954,15.137,36.133,42.969,11.719,36.133,0
15807.958,34.180,38.086,40.039,26.855,26.855,0
15807.962,40.039,35.156,37.109,28.809,38.086,0
15807.965,27.344,28.809,36.133,15.137,26.367,0
15807.969,20.508,30.762,36.621,15.625,19.043,0
15807.973,31.738,37.598,35.645,18.555,-8.789,0
15807.977,33.203,38.086,34.180,11.719,-3.906,0
15807.981,24.902,38.574,34.180,8.789,43.457,0
15807.985,25.879,40.039,35.645,9.766,28.320,0
15807.989,33.203,38.086,34.668,9.277,22.949,0
15807.993,42.480,37.109,31.738,9.766,7.812,0
15807.997,23.438,37.109,29.297,7.812,-35.645,0
15808.001,4.883,38.574,30.762,1.953,-25.879,0
15808.004,12.695,38.574,38.574,-0.488,-32.227,0
15808.008,20.508,36.133,40.039,0.488,-66.895,0
15808.012,29.297,36.621,35.156,7.324,-12.207,0
15808.016,22.949,39.062,34.180,1.953,15.137,0
15808.020,10.254,38.086,35.156,-1.465,8.789,0
15808.024,21.484,36.621,34.668,11.719,15.137,0
15808.028,27.832,37.598,35.645,14.648,3.906,0
15808.032,18.066,36.133,34.180,4.395,13.672,0
15808.036,11.230,35.645,32.715,0.000,-0.977,0
15808.040,18.066,35.156,30.273,3.906,47.852,0
15808.044,25.879,34.668,30.273,9.766,53.223,0
15808.047,20.020,37.598,35.645,10.254,6.348,0
15808.051,11.719,38.086,38.086,0.488,-26.855,0
15808.055,12.695,37.109,36.621,4.883,-36.621,0
15808.059,23.438,36.621,34.180,26.367,63.477,0
15808.063,24.902,38.574,35.156,20.996,57.129,0
15808.067,16.602,37.109,42.480,7.812,-21.484,0
15808.071,13.672,30.762,41.016,11.230,15.625,0
15808.075,22.461,32.227,30.762,23.438,25.391,0
15808.079,26.855,32.227,29.297,24.414,25.879,0
15808.083,14.648,32.227,36.133,19.531,42.480,0
15808.087,3.418,33.691,43.945,10.254,35.645,0
15808.090,14.160,30.762,41.504,12.207,-1.953,0
15808.094,26.855,27.344,37.109,22.461,-4.883,0
15808.098,16.602,30.762,41.992,21.484,29.785,0
15808.102,9.766,34.668,44.922,17.578,8.301,0
15808.106,19.531,34.180,43.457,20.508,18.555,0
15808.110,27.832,29.297,38.086,30.762,39.062,0
15808.114,24.414,28.320,40.039,30.762,49.805,0
15808.118,13.672,30.273,40.527,13.184,75.195,0
15808.122,23.926,32.715,34.180,13.184,35.645,0
15808.126,40.039,31.738,35.156,28.809,-19.043,0
15808.129,33.203,32.227,38.086,26.855,-7.812,0
15808.133,22.461,35.645,37.598,12.695,-5.859,0
15808.137,24.902,34.668,35.156,11.719,31.738,0
15808.141,28.809,32.715,30.273,21.484,50.781,0
15808.145,28.320,34.180,27.344,24.414,6.348,0
15808.149,18.555,34.668,30.273,9.766,-4.883,0
15808.153,15.137,28.809,34.668,2.930,-18.066,0
15808.157,26.367,25.879,32.227,19.531,-27.832,0
15808.161,22.949,32.227,31.250,20.508,-20.020,0
15808.165,19.531,38.086,36.621,14.648,0.977,0
15808.169,19.043,39.551,41.992,15.137,-23.926,0
15808.172,16.113,35.645,40.039,15.137,-48.828,0
15808.176,21.973,32.227,34.668,10.254,19.531,0
15808.180,18.555,28.809,33.203,10.254,10.254,0
15808.184,3.418,28.320,37.109,10.742,2.441,0
15808.188,5.371,31.250,39.551,13.184,67.871,0
15808.192,17.090,31.738,36.621,26.367,70.801,0
15808.196,17.090,30.762,33.203,25.391,39.062,0
15808.200,17.090,33.691,36.621,20.508,-3.418,0
15808.204,22.461,34.668,38.086,20.996,23.438,0
15808.208,24.414,30.762,37.109,27.344,5.859,0
15808.212,22.949,29.297,36.133,31.250,-10.742,0
15808.215,16.602,30.273,37.598,20.508,1.953,0
15808.219,10.254,31.738,37.598,21.484,1.953,0
15808.223,20.508,31.738,35.156,39.062,24.414,0
15808.227,32.715,33.691,37.109,40.039,7.812,0
15808.231,21.973,34.668,37.598,34.180,-26.367,0
15808.235,13.672,36.133,35.645,19.531,0.488,0
15808.239,18.555,35.156,34.180,19.043,27.344,0
15808.243,26.855,31.250,34.668,28.809,-19.043,0
15808.247,25.391,29.297,34.180,28.809,-18.555,0
15808.251,15.137,30.273,32.715,28.809,48.828,0
15808.254,23.926,33.691,33.203,29.297,16.113,0
15808.258,34.668,35.156,31.250,35.645,16.602,0
15808.262,27.832,31.738,33.691,36.621,-1.953,0
15808.266,18.555,33.691,39.551,31.738,-38.574,0
15808.270,16.602,36.133,38.574,29.297,12.695,0
15808.274,29.785,34.668,34.180,30.762,64.453,0
15808.278,36.133,33.691,33.691,33.691,60.547,0
15808.282,20.996,29.785,33.691,32.227,49.805,0
15808.286,13.184,26.855,33.691,27.832,12.695,0
15808.290,24.902,30.762,32.715,32.715,-58.105,0
15808.294,34.668,31.250,30.273,42.969,-5.859,0
15808.297,28.809,30.762,30.273,37.109,57.617,0
15808.301,22.461,33.691,34.180,29.297,27.832,0
15808.305,30.273,35.156,36.621,34.668,15.625,0
15808.309,37.598,35.645,33.691,41.016,10.742,0
15808.313,35.645,33.691,31.738,35.645,-2.441,0
15808.317,23.438,32.715,35.645,28.320,-12.695,0
15808.321,18.066,36.133,33.203,29.297,16.113,0
15808.325,26.367,34.668,30.762,39.551,67.871,0
15808.329,25.879,31.738,30.762,44.922,29.297,0
15808.333,12.695,32.227,31.738,35.156,-5.371,0
15808.337,15.625,30.762,36.133,24.902,12.207,0
15808.340,27.832,30.762,33.691,31.250,23.926,0
15808.344,23.926,33.691,31.250,29.785,61.523,0
15808.348,15.137,34.668,32.227,19.043,51.270,0
15808.352,8.789,32.715,33.691,14.648,-19.531,0
15808.356,18.066,32.227,32.715,20.996,6.348,0
15808.360,31.250,31.738,30.762,21.973,52.734,0
15808.364,25.879,32.227,30.762,11.719,25.391,0
15808.368,21.973,37.109,31.738,5.859,14.160,0
15808.372,25.879,37.109,29.785,9.277,39.551,0
15808.376,30.273,28.809,23.926,10.742,12.207,0
15808.379,31.738,30.762,25.391,15.625,5.859,0
15808.383,22.461,36.133,30.273,10.742,42.969,0
15808.387,12.207,35.156,30.273,3.418,16.602,0
15808.391,17.090,30.273,26.855,14.648,34.180,0
15808.395,28.809,28.320,27.832,23.926,39.062,0
15808.399,25.391,32.715,33.691,14.648,-4.883,0
15808.403,17.578,33.691,33.691,0.977,7.324,0
15808.407,30.273,34.668,34.180,16.602,55.176,0
15808.411,35.645,36.621,32.227,20.996,57.617,0
15808.415,30.273,36.133,30.762,11.230,16.602,0
15808.419,32.227,39.551,38.086,11.719,16.602,0
15808.422,37.598,38.086,40.527,15.137,32.715,0
15808.426,33.691,33.203,37.109,20.508,6.348,0
15808.430,21.484,33.203,38.574,19.531,-6.348,0
15808.434,15.625,36.133,40.039,13.672,30.762,0
15808.438,24.414,35.645,40.039,17.090,25.391,0
15808.442,38.574,35.156,35.645,22.949,-22.949,0
15808.446,41.016,37.109,33.203,19.043,18.066,0
15808.450,32.715,37.598,37.598,12.207,26.367,0
15808.454,29.297,37.109,37.598,7.812,9.766,0
15808.458,37.109,36.133,35.645,16.602,18.555,0
15808.462,39.551,35.645,36.133,28.809,19.531,0
15808.465,32.715,39.551,42.969,23.438,-38.086,0
15808.469,31.250,36.133,43.457,16.602,-73.242,0
15808.473,38.574,30.273,36.621,19.043,-16.113,0
15808.477,44.434,31.738,36.133,22.461,25.879,0
15808.481,35.156,34.180,35.645,24.414,11.230,0
15808.485,31.738,36.621,35.645,22.949,-25.391,0
15808.489,36.133,34.668,39.062,25.391,0.000,0
15808.493,41.016,34.180,38.086,28.320,9.277,0
15808.497,32.227,35.156,36.133,20.996,19.043,0
15808.501,21.484,33.691,35.645,13.672,17.578,0
15808.504,22.949,36.133,35.156,12.207,-20.508,0
15808.508,28.320,37.598,38.086,16.602,-52.246,0
15808.512,30.762,33.691,38.086,14.648,-20.996,0
15808.516,26.855,35.156,40.039,11.719,39.062,0
15808.520,29.297,38.574,41.992,14.160,-16.602,0
15808.524,32.227,38.574,39.551,24.414,-13.672,0
15808.528,35.156,40.527,38.574,36.621,52.246,0
15808.532,33.691,44.922,40.039,24.414,39.062,0
15808.536,29.297,45.898,41.016,10.254,33.203,0
15808.540,30.762,41.016,37.109,18.555,4.883,0
15808.544,29.297,36.621,34.668,21.484,5.859,0
15808.547,25.879,39.062,34.180,10.742,61.035,0
15808.551,24.902,41.016,36.133,5.859,45.898,1
15808.555,24.414,36.621,37.109,8.789,-21.484,0
15808.559,30.762,35.156,34.668,20.996,-6.836,0
15808.563,30.762,39.062,33.691,23.926,-8.301,0
15808.567,21.484,43.945,38.574,9.766,-81.055,0
15808.571,32.715,44.434,39.062,7.812,-70.801,0
15808.575,41.016,39.062,31.738,15.137,-4.395,0
15808.579,37.109,37.598,31.250,15.137,1.465,0
15808.583,37.109,40.039,39.551,7.324,-1.465,0
15808.587,37.109,44.434,43.945,4.395,-19.531,0
15808.590,42.480,44.434,41.992,6.348,10.742,0
15808.594,38.574,40.039,41.016,7.812,28.809,0
15808.598,22.949,37.109,41.504,6.836,-24.414,0
15808.602,15.137,39.551,43.945,3.418,3.418,0
15808.606,22.949,41.992,46.387,10.742,45.410,0
15808.610,27.344,37.109,44.922,20.020,97.656,0
15808.614,25.879,33.691,41.992,14.160,85.449,0
15808.618,15.625,37.598,41.504,-3.906,-9.766,0
15808.622,13.184,37.109,39.062,-7.324,-28.809,0
15808.626,26.367,32.715,36.133,-0.977,-29.785,0
15808.629,27.344,32.227,37.109,-5.371,1.953,0
15808.633,16.602,33.203,39.062,-9.766,13.184,0
15808.637,15.137,35.645,40.039,-4.395,9.277,0
15808.641,23.926,37.598,39.551,1.953,11.230,0
15808.645,21.484,36.621,40.527,4.395,2.930,0
15808.649,8.789,34.180,41.016,-2.441,-20.508,0
15808.653,1.465,32.715,38.086,-17.578,-61.035,0
15808.657,14.160,29.297,33.691,-5.859,-44.434,0
15808.661,27.344,28.320,34.180,3.906,18.066,0
15808.665,27.832,30.762,39.062,-3.418,53.711,0
15808.669,21.484,31.738,39.062,-8.789,48.828,0
15808.672,17.578,31.738,37.109,-6.348,13.184,0
15808.676,24.414,30.762,36.133,5.371,28.320,0
15808.680,25.391,30.273,34.180,1.465,38.086,0
15808.684,17.090,30.273,34.668,-9.766,26.855,0
15808.688,13.184,28.809,35.156,-7.812,4.883,0
15808.692,13.672,27.832,33.691,-6.348,3.906,0
15808.696,8.301,25.391,32.227,-6.836,53.711,0
15808.700,0.000,27.344,34.668,-9.277,29.785,0
15808.704,8.789,33.691,39.062,-7.324,-23.926,0
15808.708,15.625,31.738,39.062,2.930,21.484,0
15808.712,13.184,28.320,36.133,-1.953,41.016,0
15808.715,10.742,33.203,37.109,-1.953,-23.926,0
15808.719,8.789,38.086,40.527,0.000,-7.324,0
15808.723,23.438,38.086,37.109,1.953,-6.348,0
15808.727,23.926,32.715,33.691,8.789,-7.324,0
15808.731,8.789,29.297,35.645,6.836,37.598,0
15808.735,4.395,35.156,39.551,2.441,34.180,0
15808.739,9.766,35.645,36.621,10.254,32.715,0
15808.743,13.184,32.227,30.273,19.043,49.316,0
15808.747,11.230,37.109,31.250,26.855,32.715,0
15808.751,8.301,36.621,35.156,36.133,46.387,0
15808.754,8.789,32.227,35.645,39.551,46.387,0
15808.758,13.184,33.203,36.621,47.852,-28.320,0
15808.762,14.648,33.203,35.645,53.223,0.000,0
15808.766,17.090,35.156,36.621,49.316,41.992,0
15808.770,13.672,34.180,39.551,47.363,20.508,0
15808.774,20.020,32.715,36.621,52.734,-30.273,0
15808.778,27.832,31.738,35.156,58.594,-34.180,0
15808.782,17.090,29.785,36.621,54.688,-15.625,0
15808.786,7.812,35.156,39.551,55.664,-22.949,0
15808.790,19.043,36.621,39.551,68.359,18.066,0
15808.794,24.902,31.250,37.109,76.172,48.340,0
15808.797,16.602,31.250,33.691,68.359,-19.531,0
15808.801,12.695,32.715,33.691,50.293,-44.922,0
15808.805,15.625,32.227,32.227,58.105,34.668,0
15808.809,20.020,32.227,30.273,68.359,20.996,0
15808.813,16.113,31.250,34.180,47.852,-25.879,0
15808.817,9.277,28.809,36.621,27.832,-28.320,0
15808.821,10.742,31.738,38.086,30.762,0.488,0
15808.825,24.902,34.180,37.598,47.363,-12.207,0
15808.829,28.320,34.668,34.668,41.016,1.953,0
15808.833,14.648,33.203,33.203,21.484,55.664,0
15808.837,14.160,33.691,33.691,21.484,67.383,0
15808.840,29.785,34.668,31.738,28.809,0.488,0
15808.844,28.809,32.227,35.156,32.227,-36.133,0
15808.848,19.043,33.691,42.969,30.273,14.160,0
15808.852,22.949,35.645,42.480,15.137,29.785,0
15808.856,24.414,32.715,38.086,16.602,29.785,0
15808.860,26.367,33.203,38.574,30.762,4.395,0
15808.864,26.367,36.133,43.945,27.832,10.254,0
15808.868,15.625,36.133,44.922,22.461,5.859,0
15808.872,18.555,34.668,39.551,23.438,9.277,0
15808.876,31.250,37.598,36.133,38.086,16.113,0
15808.879,35.156,40.527,33.203,49.805,-1.465,0
15808.883,25.391,37.598,33.203,42.969,10.742,0
15808.887,21.973,36.621,35.645,42.480,7.812,0
15808.891,32.227,37.109,32.227,42.480,30.273,0
15808.895,29.297,37.598,32.715,45.410,30.762,0
15808.899,23.438,36.133,35.156,48.828,36.133,0
15808.903,20.996,34.180,34.668,42.969,12.207,0
15808.907,31.738,39.062,37.109,46.387,-25.391,0
15808.911,38.574,41.504,36.621,47.363,-1.465,0
15808.915,26.367,40.039,37.598,44.922,-17.578,0
15808.919,21.484,40.527,41.992,44.922,-14.648,0
15808.922,25.879,36.621,39.062,50.293,26.855,0
15808.926,35.645,37.109,34.180,65.430,24.902,0
15808.930,40.039,41.504,35.645,69.336,-14.160,0
15808.934,28.809,39.551,35.645,48.340,-61.035,0
15808.938,24.902,38.086,33.691,43.457,-26.855,0
15808.942,34.180,37.109,28.809,49.805,-9.766,0
15808.946,26.367,35.645,29.297,45.410,-33.203,0
15808.950,14.648,35.156,33.203,45.410,-78.125,0
15808.954,12.695,35.645,36.621,44.434,-61.523,0
15808.958,20.996,32.227,34.668,45.410,18.555,0
15808.962,32.227,31.250,33.691,46.875,15.625,0
15808.965,21.973,36.621,37.598,39.551,42.480,0
15808.969,14.648,37.598,39.551,29.297,46.387,0
15808.973,27.832,34.668,36.133,31.250,6.836,0
15808.977,37.109,32.227,35.156,35.156,23.438,0
15808.981,39.551,32.227,35.645,25.879,58.105,0
15808.985,25.391,36.133,37.109,17.578,14.648,0
15808.989,28.320,36.621,40.039,21.973,-20.508,0
15808.993,37.598,36.133,35.156,24.414,28.320,0
15808.997,31.738,40.039,35.156,20.020,51.270,0
15809.001,20.020,41.504,38.574,14.160,90.332,0
15809.004,14.160,38.574,38.574,17.090,65.918,0
15809.008,29.785,36.133,37.598,30.273,31.738,0
15809.012,38.086,36.133,34.668,29.785,34.668,0
15809.016,29.785,35.156,35.156,22.461,39.551,0
15809.020,20.020,33.691,37.598,22.461,41.992,0
15809.024,29.297,34.180,38.086,35.645,-20.508,0
15809.028,35.645,37.109,37.598,43.945,-11.230,0
15809.032,22.949,40.527,40.039,36.133,7.812,0
15809.036,17.578,39.062,41.504,26.855,-19.043,0
15809.040,22.461,36.621,38.574,35.645,-9.277,0
15809.044,24.902,36.621,35.156,48.828,50.781,0
15809.047,15.137,35.156,35.156,41.016,69.336,0
15809.051,8.301,32.715,35.645,32.715,1.953,0
15809.055,14.160,33.203,33.691,37.598,-49.805,0
15809.059,22.461,31.738,31.738,41.016,-14.648,0
15809.063,25.879,32.227,33.691,46.387,32.227,0
15809.067,18.066,38.086,37.598,40.527,30.273,0
15809.071,25.879,41.504,39.551,37.109,8.789,0
15809.075,36.133,38.086,37.109,48.340,29.785,0
15809.079,31.250,38.086,33.203,45.898,-20.508,0
15809.083,24.902,37.598,33.203,33.203,4.883,0
15809.087,22.949,33.691,34.180,33.691,33.691,0
15809.090,31.738,31.250,30.762,38.086,9.766,0
15809.094,44.922,35.645,33.203,37.598,37.598,0
15809.098,37.109,39.062,36.133,32.227,39.062,0
15809.102,26.367,40.039,39.551,28.320,42.480,0
15809.106,30.273,41.504,38.574,28.320,33.203,0
15809.110,32.227,38.574,31.250,30.273,46.875,0
15809.114,25.391,34.668,32.715,21.973,21.973,0
15809.118,16.113,35.156,38.574,4.395,-22.461,0
15809.122,11.719,35.645,37.109,0.488,-21.973,0
15809.126,24.414,32.715,34.180,9.766,18.066,0
15809.129,30.273,35.156,35.156,14.648,42.969,0
15809.133,20.020,39.062,37.109,6.348,-6.836,0
15809.137,20.508,40.527,40.527,3.906,-24.414,0
15809.141,27.344,38.086,37.109,11.230,24.414,0
15809.145,29.785,34.668,37.109,9.766,14.160,0
15809.149,22.949,37.598,40.527,0.488,34.180,0
15809.153,20.508,38.086,39.062,-9.277,74.219,0
15809.157,40.527,35.645,37.598,-5.859,28.320,0
15809.161,41.016,34.668,35.645,11.230,25.879,0
15809.165,21.484,35.156,37.109,15.137,55.176,0
15809.169,15.137,37.598,41.016,1.953,50.781,0
15809.172,24.902,35.645,40.039,1.465,-10.254,0
15809.176,36.133,29.297,39.062,16.113,-42.969,0
15809.180,26.367,28.320,39.062,15.137,-37.109,1
15809.184,18.066,32.715,40.527,2.441,19.531,0
15809.188,18.555,33.691,41.504,2.441,61.523,0
15809.192,24.414,30.273,33.691,11.230,51.758,0
15809.196,35.156,34.180,30.273,9.277,47.363,0
15809.200,28.320,37.598,33.691,5.371,40.039,0
15809.204,20.996,39.062,34.180,5.371,51.270,0
15809.208,27.344,39.551,30.762,7.324,90.820,0
15809.212,31.738,37.109,28.809,15.137,55.664,0
15809.215,20.996,35.645,32.227,10.254,-26.855,0
15809.219,9.277,34.180,30.762,-2.930,5.859,0
15809.223,13.184,32.715,26.855,-2.441,52.246,0
15809.227,22.949,30.762,28.320,6.836,0.977,0
15809.231,23.438,31.738,27.344,2.930,19.531,0
15809.235,19.531,35.156,27.344,-0.977,21.484,0
15809.239,23.438,33.691,29.297,8.789,-46.387,0
15809.243,29.785,32.715,30.762,17.578,-32.227,0
15809.247,24.902,33.691,32.227,10.254,-0.977,0
15809.251,19.043,32.227,33.203,-0.488,-16.113,0
15809.254,20.996,30.273,34.668,-1.953,-11.230,0
15809.258,28.809,29.297,30.762,-2.441,8.301,0
15809.262,37.598,25.391,29.785,-1.953,12.207,0
15809.266,37.598,25.391,33.691,-0.488,-52.734,0
15809.270,29.785,29.785,31.250,-5.859,-67.871,0
15809.274,28.320,28.809,27.832,-1.465,20.996,0
15809.278,21.484,29.785,29.785,3.418,46.875,0
15809.282,14.648,29.785,31.250,0.977,37.109,0
15809.286,16.602,28.320,30.273,1.953,26.855,0
15809.290,20.508,29.785,29.785,6.836,16.602,0
15809.294,24.902,32.715,28.320,9.766,13.184,0
15809.297,20.020,35.156,26.367,5.859,8.789,0
15809.301,12.695,35.156,27.344,1.953,3.418,0
15809.305,23.438,33.203,30.273,4.883,-24.414,0
15809.309,37.109,34.668,31.738,9.277,0.488,0
15809.313,24.414,32.715,28.809,2.930,15.625,0
15809.317,15.137,33.691,31.738,-4.883,-3.906,0
15809.321,20.508,37.598,32.715,-6.348,-0.977,0
15809.325,28.320,39.062,26.367,0.488,38.086,0
15809.329,23.438,35.645,25.879,9.766,75.684,0
15809.333,16.602,34.668,32.227,8.789,25.879,0
15809.337,16.113,37.109,36.133,5.371,11.230,0
15809.340,22.461,35.156,35.156,14.648,24.414,0
15809.344,32.227,34.180,35.156,15.137,-15.137,0
15809.348,27.832,38.574,37.598,8.301,16.602,0
15809.352,18.555,41.016,35.645,10.254,43.945,0
15809.356,22.949,35.156,34.180,18.066,37.109,0
15809.360,29.297,28.320,34.668,18.066,12.695,0
15809.364,22.949,29.297,32.227,18.066,-13.672,0
15809.368,20.508,32.227,36.621,19.043,5.371,0
15809.372,26.367,31.738,39.551,20.020,4.395,0
15809.376,34.668,33.691,35.156,28.320,-16.602,0
15809.379,30.273,36.133,33.203,27.344,12.695,0
15809.383,26.367,39.551,37.109,16.113,-24.902,0
15809.387,23.926,41.992,40.527,9.766,-59.570,0
15809.391,26.367,39.062,40.527,19.531,-70.801,0
15809.395,32.227,37.598,38.574,29.297,-20.508,0
15809.399,24.902,40.039,39.062,28.809,15.625,0
15809.403,19.043,40.039,41.016,23.438,-24.414,0
15809.407,30.762,40.527,40.039,24.414,-0.977,0
15809.411,37.109,41.016,39.062,28.320,30.762,0
15809.415,28.809,38.574,36.133,26.855,13.672,0
15809.419,17.578,37.598,36.133,15.137,-3.906,0
15809.422,20.508,37.109,36.621,9.277,32.227,0
15809.426,34.180,39.062,34.180,19.043,61.523,0
15809.430,28.809,38.574,35.156,16.602,50.781,0
15809.434,23.438,38.086,36.621,8.301,14.648,0
15809.438,25.391,39.062,34.668,15.625,13.672,0
15809.442,28.809,36.621,34.180,20.996,46.387,0
15809.446,27.832,35.645,36.133,24.414,22.461,0
15809.450,18.555,39.551,34.180,23.926,1.953,0
15809.454,14.648,37.598,32.227,14.648,63.965,0
15809.458,25.391,33.203,30.273,22.949,71.289,0
15809.462,29.297,35.645,28.809,30.273,-39.062,0
15809.465,22.461,36.621,37.598,26.855,-44.922,0
15809.469,22.949,37.598,44.434,18.555,-17.578,0
15809.473,31.738,37.598,40.527,23.438,27.344,0
15809.477,31.250,37.109,37.598,27.344,84.961,0
15809.481,27.344,37.598,38.086,20.508,56.152,0
15809.485,23.926,43.457,41.992,15.625,-35.156,0
15809.489,25.391,43.945,43.457,13.672,-65.430,0
15809.493,31.738,38.086,40.527,20.508,0.000,0
15809.497,28.320,39.062,42.969,26.367,-29.785,0
15809.501,23.438,43.945,45.898,23.438,-54.199,0
15809.504,32.227,45.898,48.340,24.414,17.578,0
15809.508,43.457,41.016,48.828,31.738,22.949,0
15809.512,35.156,37.109,44.922,36.621,-25.879,0
15809.516,20.508,38.086,47.363,30.762,18.066,0
15809.520,20.020,39.551,48.828,15.137,42.969,0
15809.524,28.809,40.527,45.898,22.461,35.156,0
15809.528,41.016,41.992,44.434,35.156,41.504,0
15809.532,38.574,40.527,42.480,33.691,15.137,0
15809.536,32.227,41.992,45.898,26.367,-22.461,0
15809.540,37.109,44.922,45.410,27.344,34.668,0
15809.544,35.645,43.457,41.992,39.551,63.477,0
15809.547,33.691,42.969,48.340,42.969,29.297,0
15809.551,29.785,41.992,49.805,27.344,47.852,0
15809.555,27.832,39.551,41.992,25.391,81.055,0
15809.559,30.273,38.574,37.109,45.898,73.242,0
15809.563,29.297,39.062,40.527,47.363,52.734,0
15809.567,33.203,43.457,45.410,39.062,28.320,0
15809.571,34.668,42.969,44.434,42.480,24.414,0
15809.575,34.180,38.574,39.062,46.387,11.719,0
15809.579,34.668,37.109,37.109,42.480,1.465,0
15809.583,26.367,33.203,36.621,28.809,49.316,0
15809.587,23.926,35.645,37.598,25.391,56.152,0
15809.590,31.738,37.109,37.109,38.574,48.340,0
15809.594,34.668,32.227,35.645,43.457,20.508,0
15809.598,31.250,34.180,40.039,35.645,5.371,0
15809.602,15.625,32.227,38.086,22.949,8.789,0
15809.606,19.531,35.156,35.156,24.902,24.902,0
15809.610,38.574,40.527,37.598,29.785,24.902,0
15809.614,35.156,39.551,36.133,29.785,14.160,0
15809.618,20.996,37.598,33.691,24.902,-11.230,0
15809.622,23.438,34.180,32.227,20.996,-3.906,0
15809.626,31.250,30.273,35.645,22.949,56.152,0
15809.629,34.180,31.250,36.133,24.414,45.410,0
15809.633,27.344,33.691,32.227,15.625,8.301,0
15809.637,25.879,34.668,33.691,3.906,-17.578,0
15809.641,36.133,34.668,31.250,10.254,11.719,0
15809.645,33.203,36.621,30.273,12.695,6.836,0
15809.649,15.625,36.133,33.203,0.488,-36.133,0
15809.653,5.859,33.203,35.156,-8.301,56.641,0
15809.657,16.113,35.156,33.691,-0.977,15.137,0
15809.661,23.926,35.645,28.320,4.883,-44.434,0
15809.665,21.484,33.691,31.250,-3.906,10.254,0
15809.669,13.184,36.621,38.086,-14.160,24.902,0
15809.672,20.508,37.598,35.645,-11.719,-8.301,0
15809.676,35.645,39.062,34.668,-3.906,-18.066,0
15809.680,28.320,36.621,33.203,-5.859,-0.977,0
15809.684,17.090,36.621,33.691,-15.625,-23.438,0
15809.688,20.508,40.527,37.109,-18.066,-28.320,0
15809.692,23.438,35.156,33.691,-12.695,-38.086,0
15809.696,18.555,33.691,27.832,-24.902,-66.895,0
15809.700,16.113,34.180,28.320,-41.992,-50.781,0
15809.704,19.043,33.203,35.156,-40.527,-24.902,0
15809.708,26.367,32.715,35.156,-36.621,-11.230,0
15809.712,25.879,32.227,30.273,-35.156,-5.371,0
15809.715,15.625,35.156,33.691,-34.668,-7.812,0
15809.719,12.695,38.086,38.086,-28.809,2.930,0
15809.723,19.531,33.203,34.668,-23.926,16.113,0
15809.727,25.879,30.762,33.691,-24.902,11.719,0
15809.731,25.879,32.227,34.668,-23.926,-13.672,0
15809.735,20.996,29.785,31.738,-30.762,1.953,0
15809.739,27.832,32.227,30.762,-34.668,-28.320,0
15809.743,37.109,34.668,33.691,-18.555,-16.602,0
15809.747,31.738,31.738,33.691,-11.719,59.570,0
15809.751,23.438,32.715,35.645,-11.230,2.930,0
15809.754,20.996,37.109,39.551,1.465,4.395,0
15809.758,19.531,33.691,37.598,-8.301,85.938,0
15809.762,21.973,32.227,31.250,-10.254,45.410,0
15809.766,16.113,36.621,30.762,0.977,53.711,0
15809.770,10.742,35.645,34.668,-1.465,41.504,0
15809.774,19.043,30.762,29.785,10.742,-22.461,0
15809.778,30.762,27.344,27.832,19.531,21.973,0
15809.782,24.902,31.250,31.250,15.625,56.641,0
15809.786,14.160,38.086,35.645,23.926,63.477,0
15809.790,18.066,40.039,36.621,37.109,76.172,0
15809.794,30.273,37.109,37.109,45.898,32.227,0
15809.797,33.691,33.691,36.621,49.805,34.668,0
15809.801,20.996,35.156,33.203,47.363,48.828,0
15809.805,22.461,35.645,32.715,47.363,12.695,0
15809.809,38.086,29.785,31.250,51.758,10.254,0
15809.813,33.691,30.762,30.762,59.570,1.953,0
15809.817,18.555,35.156,32.227,61.035,-25.391,0
15809.821,14.648,33.691,29.785,57.617,-32.227,1
15809.825,19.531,30.273,29.785,58.594,-28.320,0
15809.829,24.414,29.297,32.227,60.547,-31.738,0
15809.833,20.508,26.367,30.273,58.105,9.277,0
15809.837,15.137,27.344,26.855,50.293,30.273,0
15809.840,22.949,28.320,24.902,57.617,25.391,0
15809.844,27.344,25.391,25.391,71.289,24.902,0
15809.848,19.043,29.297,29.785,65.430,16.113,0
15809.852,15.625,32.715,32.227,56.641,21.484,0
15809.856,19.531,31.250,28.809,63.965,30.273,0
15809.860,18.066,31.250,27.344,73.242,-4.883,0
15809.864,11.719,33.691,28.320,67.383,-44.434,0
15809.868,3.418,37.109,33.691,43.457,-50.293,0
15809.872,6.348,34.668,31.250,26.855,-19.043,0
15809.876,19.531,32.227,24.902,39.062,-4.883,0
15809.879,19.043,35.156,29.785,42.480,-7.812,0
15809.883,11.719,34.668,28.809,17.090,-15.625,0
15809.887,11.719,32.227,26.855,14.160,8.789,0
15809.891,20.020,31.250,27.344,28.320,40.039,0
15809.895,21.973,30.762,23.926,21.484,8.301,0
15809.899,9.766,28.809,25.391,8.789,-4.395,0
15809.903,11.719,28.809,29.785,14.160,5.371,0
15809.907,20.508,31.738,29.297,27.832,45.410,0
15809.911,20.996,33.203,26.855,28.320,23.926,0
15809.915,12.695,35.645,28.809,20.020,-27.832,0
15809.919,5.859,39.062,31.738,20.508,-3.418,0
15809.922,12.695,36.133,30.762,30.762,2.930,0
15809.926,17.578,32.715,27.832,34.180,-13.672,0
15809.930,12.695,31.738,28.320,31.250,37.598,0
15809.934,3.906,33.203,30.762,19.043,44.434,0
15809.938,0.977,31.250,30.762,12.207,22.949,0
15809.942,9.277,27.344,27.832,20.508,56.152,0
15809.946,15.625,27.832,28.320,20.996,17.578,0
15809.950,7.812,31.738,29.297,7.324,28.320,0
15809.954,0.977,35.645,27.832,-1.465,14.160,0
15809.958,4.395,31.738,24.414,2.441,-47.852,0
15809.962,8.789,28.809,24.414,6.348,-23.926,0
15809.965,7.324,29.785,25.391,2.441,14.160,0
15809.969,-2.930,32.715,24.414,-12.207,3.906,0
15809.973,1.465,32.715,25.879,-5.371,41.992,0
15809.977,13.672,32.715,29.297,1.953,95.215,0
15809.981,9.766,33.691,30.762,-10.742,17.090,0
15809.985,3.418,35.156,33.203,-20.020,21.973,0
15809.989,9.277,35.156,34.668,-9.277,58.594,0
15809.993,17.090,30.273,31.738,-0.977,-30.762,0
15809.997,15.625,28.320,30.762,-9.277,-19.531,0
15810.001,13.672,30.762,34.668,-9.766,-17.090,0
15810.004,20.996,34.180,35.156,-8.789,-17.578,0
15810.008,36.621,38.086,35.645,-2.930,-19.043,0
15810.012,34.668,36.621,35.156,-1.465,-11.719,0
15810.016,23.438,36.133,37.109,-4.395,25.391,0
15810.020,27.832,38.086,40.527,-11.719,-28.809,0
15810.024,33.203,34.180,39.062,-13.184,-23.438,0
15810.028,31.738,30.762,37.598,-13.184,-12.695,0
15810.032,28.809,33.203,36.621,-21.973,-10.742,0
15810.036,25.879,35.156,37.598,-32.715,-12.695,0
15810.040,33.691,32.715,37.598,-23.926,-7.812,0
15810.044,40.039,32.227,35.645,-7.812,57.617,0
15810.047,28.320,32.715,33.691,-13.672,31.250,0
15810.051,20.996,39.062,39.062,-20.508,-37.598,0
15810.055,23.438,39.551,40.039,-23.438,14.160,0
15810.059,33.691,33.203,38.086,-26.367,57.129,0
15810.063,30.762,33.203,38.086,-28.809,11.719,0
15810.067,22.461,37.598,37.598,-29.297,22.949,0
15810.071,20.508,41.016,36.621,-29.785,92.285,0
15810.075,24.902,39.062,32.227,-25.391,63.477,0
15810.079,29.785,38.086,33.691,-18.066,2.930,0
15810.083,27.344,39.062,38.086,-18.555,30.273,0
15810.087,23.438,36.621,40.039,-27.344,49.316,0
15810.090,30.273,35.156,37.598,-22.461,46.875,0
15810.094,33.203,34.668,34.668,-9.766,26.367,0
15810.098,29.297,33.203,34.668,-20.020,8.301,0
15810.102,26.855,35.156,32.715,-35.156,-28.809,0
15810.106,28.320,38.086,33.203,-28.320,-5.859,0
15810.110,28.320,34.180,31.738,-17.090,63.965,0
15810.114,21.973,31.738,28.320,-20.996,43.457,0
15810.118,16.113,37.109,28.809,-30.273,55.176,0
15810.122,21.973,39.551,31.250,-22.461,25.391,0
15810.126,37.109,37.598,32.715,-4.883,25.391,0
15810.129,39.062,38.574,34.668,-4.883,34.668,0
15810.133,29.785,41.992,38.574,-7.324,-0.488,0
15810.137,22.461,42.480,38.086,-7.812,54.199,0
15810.141,27.832,38.574,32.227,-10.254,62.500,0
15810.145,27.832,36.133,30.762,-11.230,30.273,0
15810.149,20.996,36.621,32.715,-17.090,-2.930,0
15810.153,16.602,33.203,33.203,-22.949,-9.766,0
15810.157,20.996,30.762,33.203,-16.602,20.020,0
15810.161,24.902,32.227,35.156,-8.301,3.418,0
15810.165,22.461,33.203,37.109,-2.441,-5.859,0
15810.169,13.672,28.320,38.574,-8.789,-19.531,0
15810.172,9.277,26.367,33.203,-12.207,17.578,0
15810.176,15.625,33.203,30.762,6.348,27.832,0
15810.180,16.113,35.645,34.668,15.625,-16.602,0
15810.184,14.648,36.133,37.598,6.836,-2.441,0
15810.188,24.902,38.574,37.598,12.695,-14.648,0
15810.192,40.039,36.133,33.203,20.020,-18.555,0
15810.196,36.133,33.203,31.738,17.090,0.488,0
15810.200,27.344,34.668,33.691,7.324,15.625,0
15810.204,26.367,37.109,31.738,2.441,17.578,0
15810.208,31.250,35.645,31.250,15.625,43.945,0
15810.212,32.715,30.762,32.227,10.742,40.527,0
15810.215,22.949,32.715,31.738,-5.371,-13.672,0
15810.219,18.555,35.645,27.832,-4.883,-5.859,0
15810.223,24.902,35.645,30.273,-0.977,36.133,0
15810.227,37.109,36.133,35.156,5.859,22.949,0
15810.231,36.621,36.621,34.668,13.184,30.762,0
15810.235,23.438,37.598,38.086,12.695,43.945,0
15810.239,21.484,31.738,39.062,14.160,-15.625,0
15810.243,33.203,26.855,33.691,15.625,-21.484,0
15810.247,32.227,36.621,33.691,11.719,-3.906,0
15810.251,20.508,43.457,34.668,5.859,-27.832,0
15810.254,22.461,40.527,32.715,7.812,-2.930,0
15810.258,37.109,38.086,30.762,20.020,18.066,0
15810.262,34.668,36.133,29.297,22.461,15.137,0
15810.266,21.973,36.133,31.250,17.578,34.180,0
15810.270,21.484,34.668,32.227,8.301,18.066,0
15810.274,25.391,33.203,29.785,4.883,28.809,0
15810.278,32.715,30.273,27.832,17.578,25.391,0
15810.282,28.809,28.809,27.344,21.484,21.484,0
15810.286,23.438,35.156,33.203,15.137,23.926,0
15810.290,34.180,38.574,38.086,29.785,38.086,0
15810.294,41.992,34.668,28.320,42.480,50.293,0
15810.297,34.180,34.180,24.414,39.062,42.480,0
15810.301,16.602,30.273,32.715,37.109,52.734,0
15810.305,19.043,29.297,37.598,48.828,38.574,0
15810.309,35.156,32.227,36.621,61.035,10.742,0
15810.313,38.086,35.156,35.156,57.617,36.621,0
15810.317,19.043,39.551,36.621,47.852,83.984,0
15810.321,10.254,38.574,37.598,48.340,5.859,0
15810.325,25.879,36.621,36.621,59.082,-12.207,0
15810.329,28.809,34.180,35.156,62.988,32.227,0
15810.333,14.648,33.203,35.645,67.383,10.254,0
15810.337,14.160,32.227,35.645,62.988,-10.742,0
15810.340,29.297,32.227,35.156,52.246,20.996,0
15810.344,33.203,33.691,33.203,54.688,63.965,0
15810.348,31.738,36.133,34.668,57.617,59.570,0
15810.352,18.555,36.621,37.598,48.340,22.461,0
15810.356,23.926,31.738,33.691,50.293,-8.789,0
15810.360,32.715,30.273,29.785,62.988,32.227,0
15810.364,21.484,35.156,33.691,58.594,-0.488,0
15810.368,17.578,35.156,36.621,52.246,-20.020,0
15810.372,20.508,32.227,34.668,52.734,13.672,0
15810.376,32.227,31.738,33.203,60.547,0.977,0
15810.379,34.180,34.668,29.297,61.035,21.484,0
15810.383,26.855,39.551,26.855,50.293,-27.344,0
15810.387,24.414,39.062,33.203,47.363,-83.496,0
15810.391,31.738,36.133,36.133,53.223,2.441,0
15810.395,38.086,35.156,33.691,60.059,41.992,0
15810.399,27.344,35.645,30.273,55.664,-12.207,0
15810.403,16.113,34.668,27.832,47.852,-11.719,0
15810.407,18.066,30.762,23.438,54.688,37.598,0
15810.411,23.926,29.785,21.484,63.965,47.852,0
15810.415,24.902,30.273,26.367,73.242,18.066,0
15810.419,18.555,33.203,33.203,74.219,54.688,0
15810.422,16.602,35.156,32.715,71.777,57.617,0
15810.426,32.715,38.574,29.785,75.684,-12.695,0
15810.430,34.668,38.086,26.367,74.707,-33.203,0
15810.434,23.438,33.203,23.926,70.312,-28.320,0
15810.438,20.508,31.250,25.391,70.801,-7.812,0
15810.442,25.391,31.250,24.902,80.078,26.367,0
15810.446,31.250,35.156,25.391,87.402,-22.949,0
15810.450,24.902,38.086,30.273,78.613,-31.738,0
15810.454,19.043,37.598,34.180,72.266,13.184,0
15810.458,26.855,34.180,26.855,77.148,26.855,0
15810.462,32.715,33.203,20.508,86.914,-19.531,0
15810.465,25.879,34.668,24.902,86.426,-51.758,0
15810.469,17.578,37.598,32.227,69.824,-22.461,0
15810.473,20.996,38.086,32.715,62.988,-12.207,0
15810.477,33.203,36.133,29.297,69.824,28.809,1
15810.481,34.668,36.133,31.738,82.031,18.555,0
15810.485,19.043,40.527,39.551,77.637,-23.926,0
15810.489,15.137,39.062,42.480,65.430,31.250,0
15810.493,24.414,32.227,36.621,68.359,27.344,0
15810.497,21.973,30.273,33.203,68.359,-47.363,0
15810.501,9.277,30.273,33.691,60.547,-46.387,0
15810.504,13.672,32.715,34.180,66.406,-4.883,0
15810.508,24.414,34.180,35.645,80.566,56.641,0
15810.512,26.855,33.203,38.086,78.125,85.449,0
15810.516,19.043,34.668,42.480,62.988,52.734,0
15810.520,7.812,34.180,43.457,55.176,23.438,0
15810.524,17.090,34.180,38.574,63.965,40.039,0
15810.528,26.367,37.109,39.062,65.918,46.875,0
15810.532,20.996,39.551,40.039,59.082,0.000,0
15810.536,17.090,37.598,35.645,38.086,-35.156,0
15810.540,20.508,33.691,31.738,33.203,-10.742,0
15810.544,22.949,31.738,32.715,56.641,11.719,0
15810.547,18.066,30.762,34.668,47.363,-7.812,0
15810.551,11.719,30.762,34.668,13.672,32.227,0
15810.555,17.578,32.715,32.227,13.184,25.879,0
15810.559,29.785,31.250,30.273,26.855,-13.672,0
15810.563,27.344,29.785,32.715,19.531,45.410,0
15810.567,19.531,33.203,34.668,8.789,23.438,0
15810.571,21.484,33.203,34.668,6.348,-44.922,0
15810.575,26.367,27.832,32.227,8.301,5.371,0
15810.579,24.902,28.320,31.250,12.207,2.930,0
15810.583,18.066,29.297,33.691,7.812,-28.809,0
15810.587,17.578,32.715,36.133,1.465,24.414,0
15810.590,27.832,36.133,35.156,9.766,23.438,0
15810.594,35.645,30.273,34.668,16.602,16.113,0
15810.598,28.320,30.273,35.645,7.324,12.207,0
15810.602,21.484,33.691,37.109,-6.836,43.457,0
15810.606,25.391,34.180,35.156,-3.906,65.430,0
15810.610,27.344,38.086,32.715,0.000,53.711,0
15810.614,20.020,36.621,31.250,-2.441,36.621,0
15810.618,13.184,34.180,34.668,-9.766,-16.113,0
15810.622,16.602,32.227,37.109,-13.184,-28.320,0
15810.626,31.738,32.227,37.109,-0.488,-9.277,0
15810.629,31.738,33.691,32.227,1.465,11.230,0
15810.633,18.066,34.180,34.180,-10.742,48.340,0
15810.637,17.578,35.156,41.504,-9.766,36.133,0
15810.641,26.367,29.785,40.039,0.000,17.578,0
15810.645,37.109,28.809,38.574,8.789,36.621,0
15810.649,24.414,35.156,40.527,4.395,0.977,0
15810.653,15.137,37.109,43.457,-7.324,-81.543,0
15810.657,28.809,35.645,44.434,3.418,-54.199,0
15810.661,40.527,36.133,41.016,18.555,-3.906,0
15810.665,42.969,38.574,41.992,20.508,14.160,0
15810.669,26.855,41.504,47.363,12.207,-0.488,0
15810.672,16.602,38.086,41.992,13.672,5.371,0
15810.676,25.391,33.203,34.668,26.855,51.758,0
15810.680,23.926,32.227,37.598,27.344,27.832,0
15810.684,18.555,32.227,39.551,28.320,0.000,0
15810.688,23.926,32.715,39.062,35.645,-20.020,0
15810.692,33.691,36.133,41.992,41.992,26.855,0
15810.696,34.180,36.133,41.992,43.945,63.965,0
15810.700,28.320,38.086,43.457,44.434,-20.020,0
15810.704,23.438,37.598,46.387,39.551,-33.691,0
15810.708,28.809,34.668,43.457,38.086,-10.254,0
15810.712,25.879,34.180,36.621,33.691,-27.344,0
15810.715,9.277,28.809,33.691,20.996,17.090,0
15810.719,4.883,32.227,38.574,16.113,52.246,0
15810.723,15.625,38.574,37.109,23.926,10.742,0
15810.727,25.391,35.156,32.715,27.344,-12.695,0
15810.731,20.508,32.715,32.227,19.043,-28.320,0
15810.735,19.043,35.645,37.109,13.672,-6.836,0
15810.739,21.973,39.551,40.039,13.672,-6.836,0
15810.743,25.879,41.016,37.598,21.973,-12.695,0
15810.747,27.832,39.062,35.645,26.855,7.812,0
15810.751,16.113,38.086,39.551,18.555,18.066,0
15810.754,11.230,35.645,38.086,11.719,14.160,0
15810.758,21.484,32.227,31.250,19.531,14.648,0
15810.762,25.391,33.203,28.809,21.484,26.855,0
15810.766,23.926,38.086,31.738,25.391,24.414,0
15810.770,24.414,38.086,38.086,29.785,22.949,0
15810.774,28.809,36.133,41.016,31.738,15.625,0
15810.778,34.668,33.203,36.133,28.809,24.414,0
15810.782,33.691,39.062,37.598,22.949,42.480,0
15810.786,29.785,45.410,43.457,18.066,50.781,0
15810.790,34.668,42.480,41.992,21.484,23.926,0
15810.794,29.297,38.574,41.016,36.621,39.551,0
15810.797,15.137,38.574,40.039,41.992,35.645,0
15810.801,12.695,36.621,41.016,27.832,-7.812,0
15810.805,11.230,34.668,42.480,16.602,-17.090,0
15810.809,10.742,35.645,37.598,25.879,-3.418,0
15810.813,12.695,34.180,38.086,26.367,22.949,0
15810.817,7.324,33.691,40.039,11.719,30.762,0
15810.821,-3.418,37.598,39.551,17.090,38.574,0
15810.825,10.254,37.109,42.969,33.203,48.340,0
15810.829,22.949,33.203,40.039,29.785,-7.812,0
15810.833,8.789,32.715,37.109,20.996,-13.184,0
15810.837,8.789,35.645,40.039,17.090,29.297,0
15810.840,23.438,35.645,42.969,29.297,0.977,0
15810.844,21.973,34.668,43.945,32.227,14.648,0
15810.848,15.625,37.598,44.434,24.414,43.945,0
15810.852,7.324,38.574,41.016,20.020,-2.441,0
15810.856,2.441,35.645,36.133,19.043,5.859,0
15810.860,8.789,33.203,33.203,30.762,50.781,0
15810.864,5.371,33.691,32.227,33.691,68.848,0
15810.868,-0.488,37.598,36.621,22.949,67.383,0
15810.872,-0.488,37.109,39.551,24.414,35.645,0
15810.876,5.859,37.598,36.621,37.109,14.648,0
15810.879,8.789,40.527,38.574,34.180,-36.133,0
15810.883,-1.953,39.062,40.527,32.715,16.113,0
15810.887,16.113,43.945,41.016,37.109,43.457,0
15810.891,36.133,44.922,41.504,41.016,16.113,0
15810.895,30.762,35.645,37.109,40.039,25.879,0
15810.899,29.297,35.645,35.156,35.156,17.578,0
15810.903,29.297,41.504,41.504,34.668,47.363,0
15810.907,37.109,41.504,44.434,45.410,42.969,0
15810.911,43.457,42.969,42.969,60.547,-10.254,0
15810.915,36.621,42.969,43.457,55.664,-76.172,0
15810.919,25.879,39.551,41.016,41.016,-51.270,0
15810.922,24.902,38.086,37.598,38.574,27.832,0
15810.926,32.227,35.156,39.062,48.340,-10.742,0
15810.930,37.598,32.715,40.039,43.457,15.625,0
15810.934,26.855,33.203,37.598,32.715,32.227,0
15810.938,21.973,35.156,36.133,38.574,-9.766,0
15810.942,33.203,35.645,36.133,47.363,33.691,0
15810.946,37.109,34.668,37.598,48.828,80.566,0
15810.950,29.297,35.156,38.086,35.156,19.531,0
15810.954,22.461,34.668,35.645,20.020,5.859,0
15810.958,22.461,34.668,30.273,20.020,16.113,0
15810.962,16.113,30.762,27.344,22.461,10.254,0
15810.965,9.277,27.344,29.297,24.902,70.801,0
15810.969,8.301,30.762,32.715,25.879,-13.184,0
15810.973,12.695,29.297,31.250,22.949,-48.340,0
15810.977,19.043,26.367,24.902,30.273,36.133,0
15810.981,18.555,29.297,23.926,29.297,22.949,0
15810.985,6.348,28.320,29.297,11.719,24.414,0
15810.989,5.859,28.809,32.715,12.207,25.391,0
15810.993,18.555,29.297,29.785,23.926,-2.930,0
15810.997,23.438,30.273,23.926,23.926,0.488,0
15811.001,18.066,32.227,22.461,10.254,-18.555,0
15811.004,15.625,33.691,25.391,4.395,-27.832,0
15811.008,20.508,32.715,24.414,18.066,-7.812,0
15811.012,20.020,24.902,20.020,20.508,-8.301,0
15811.016,12.695,23.926,20.996,12.695,-4.395,0
15811.020,4.883,27.344,24.414,10.254,25.879,0
15811.024,12.695,27.344,23.438,23.926,28.320,0
15811.028,25.391,27.344,22.461,42.969,-19.531,0
15811.032,23.438,26.367,23.926,43.457,20.020,0
15811.036,16.113,27.344,26.855,36.133,17.578,0
15811.040,19.531,29.297,31.738,39.062,1.465,0
15811.044,27.344,26.855,32.715,48.828,20.996,0
15811.047,27.832,26.367,34.180,56.152,17.090,0
15811.051,20.020,27.832,37.598,50.781,-15.625,0
15811.055,20.020,31.250,38.574,50.781,-20.020,0
15811.059,30.762,30.273,33.203,61.523,13.184,0
15811.063,36.621,29.297,32.715,67.871,40.527,0
15811.067,28.809,29.785,33.691,65.918,36.621,0
15811.071,34.180,41.992,40.527,66.406,15.625,0
15811.075,56.152,46.875,43.457,76.172,11.230,0
15811.079,48.340,34.668,30.273,74.707,25.391,0
15811.083,25.879,33.203,29.785,72.754,12.695,0
15811.087,23.438,40.039,36.621,70.801,10.742,0
15811.090,28.809,40.039,33.203,70.801,7.324,0
15811.094,29.785,34.180,27.832,72.266,7.812,0
15811.098,31.738,33.203,33.203,70.312,14.160,0
15811.102,32.715,37.109,38.574,62.012,-26.855,0
15811.106,32.227,38.086,40.527,66.895,65.430,0
15811.110,36.133,36.133,40.527,73.730,78.613,2
15811.114,31.250,35.156,36.133,62.500,5.371,0
15811.118,20.996,32.715,38.574,56.641,-16.113,0
15811.122,19.531,27.344,41.016,61.035,-11.230,0
15811.126,27.832,29.297,37.598,72.754,69.336,0
15811.129,31.250,34.668,40.527,73.242,84.961,0
15811.133,21.973,35.156,38.574,61.523,30.762,0
15811.137,20.508,34.180,31.738,49.805,-11.230,0
15811.141,27.832,34.180,34.180,45.898,-38.086,0
15811.145,36.133,34.668,40.039,59.570,4.883,0
15811.149,28.809,33.691,43.457,61.523,5.859,0
15811.153,25.879,34.668,41.504,48.340,-43.457,0
15811.157,33.691,35.645,37.598,47.363,8.789,0
15811.161,30.273,35.156,38.086,57.129,11.719,0
15811.165,30.273,37.598,39.551,59.082,0.488,0
15811.169,24.902,38.574,41.504,57.129,0.000,0
15811.172,18.066,33.691,38.574,55.664,-16.602,0
15811.176,30.762,33.203,36.133,57.129,24.414,0
15811.180,32.227,38.086,37.598,52.734,98.633,0
15811.184,26.855,41.016,39.551,42.969,88.867,0
15811.188,24.414,41.504,43.457,39.551,10.254,0
15811.192,22.461,32.227,41.992,42.969,-4.883,0
15811.196,22.949,29.297,36.133,44.922,68.848,0
15811.200,22.949,37.598,35.156,43.945,20.508,0
15811.204,16.113,39.551,37.598,41.992,-15.625,0
15811.208,16.602,39.551,38.086,52.246,22.461,0
15811.212,27.832,37.109,34.668,63.477,18.555,0
15811.215,30.273,36.133,33.203,55.664,32.715,0
15811.219,21.973,37.109,35.645,39.551,21.973,0
15811.223,18.066,37.598,37.109,45.410,4.395,0
15811.227,26.855,38.574,37.598,59.082,1.465,0
15811.231,20.996,38.574,36.621,49.316,29.297,0
15811.235,6.348,34.668,32.227,38.086,-15.137,0
15811.239,13.184,32.715,36.133,43.945,-52.246,0
15811.243,31.250,34.668,41.016,60.059,4.395,0
15811.247,37.109,36.133,37.598,61.523,16.602,0
15811.251,24.414,33.691,34.668,45.898,-46.387,0
15811.254,18.555,31.738,35.156,43.945,4.883,0
15811.258,27.832,35.156,34.668,57.129,87.891,0
15811.262,27.344,35.645,30.762,56.152,79.102,0
15811.266,24.414,34.180,32.227,49.316,59.082,0
15811.270,18.555,35.645,36.621,40.039,7.812,0
15811.274,17.090,32.715,34.180,42.969,-59.082,0
15811.278,24.414,28.320,31.250,56.641,-71.289,0
15811.282,25.391,26.855,31.738,54.688,-34.668,0
15811.286,19.043,29.785,37.109,49.316,2.441,0
15811.290,13.672,30.762,35.645,52.246,-24.902,0
15811.294,18.066,26.855,29.297,52.246,29.785,0
15811.297,21.484,28.320,31.250,53.711,56.152,0
15811.301,22.949,33.203,32.715,52.246,23.926,0
15811.305,25.391,34.180,32.715,51.758,-2.930,0
15811.309,32.227,34.180,31.250,56.152,-16.602,0
15811.313,34.180,34.180,31.250,53.223,24.902,0
15811.317,20.996,27.344,33.203,47.852,-11.719,0
15811.321,13.184,25.391,34.180,43.945,-75.684,0
15811.325,18.066,31.250,36.621,47.363,-44.922,0
15811.329,22.949,32.715,37.109,55.664,45.898,0
15811.333,22.949,33.203,38.086,56.152,59.570,0
15811.337,17.090,36.621,41.016,47.363,14.648,0
15811.340,21.973,36.133,39.062,47.363,-0.977,0
15811.344,32.227,32.715,36.621,52.734,-36.133,0
15811.348,27.832,31.250,36.621,58.105,-0.488,0
15811.352,15.137,31.738,39.062,51.270,11.230,0
15811.356,10.742,33.691,39.062,46.387,33.203,0
15811.360,24.414,30.762,39.062,52.734,20.020,0
15811.364,30.273,27.832,41.504,63.965,-17.578,0
15811.368,22.461,31.738,41.992,64.941,14.160,0
15811.372,22.949,36.621,40.527,62.988,-3.906,0
15811.376,30.273,38.086,38.086,72.266,6.348,0
15811.379,33.203,38.086,34.668,68.359,39.062,0
15811.383,25.391,36.621,35.156,56.641,21.484,0
15811.387,20.020,37.109,37.109,50.781,46.875,0
15811.391,32.715,40.039,36.133,60.059,-3.906,0
15811.395,38.086,40.527,34.180,63.477,-42.480,0
15811.399,29.785,39.551,36.621,53.711,20.020,0
15811.403,26.367,40.039,41.504,47.852,17.090,0
15811.407,27.344,39.062,42.969,58.594,14.648,0
15811.411,30.762,36.621,38.574,62.012,-38.086,0
15811.415,28.809,35.156,35.645,57.617,-34.180,0
15811.419,22.949,38.574,42.969,62.988,17.578,0
15811.422,31.738,41.016,45.410,55.176,25.879,0
15811.426,39.551,38.574,41.016,50.781,20.996,0
15811.430,32.227,37.598,39.062,60.547,24.414,0
15811.434,23.438,36.621,41.504,57.129,-4.883,0
15811.438,22.461,37.598,41.992,45.410,-22.461,0
15811.442,35.156,35.156,39.062,52.246,47.363,0
15811.446,41.016,37.109,44.434,61.035,95.215,0
15811.450,26.367,40.527,45.898,53.711,-2.930,0
15811.454,18.066,40.039,41.992,43.457,-50.781,0
15811.458,26.855,38.574,38.086,46.387,30.762,0
15811.462,34.668,34.668,32.715,48.340,16.602,0
15811.465,34.180,37.598,37.109,43.945,20.996,0
15811.469,24.414,41.992,41.992,45.410,66.895,0
15811.473,18.066,37.598,39.551,44.434,-1.953,0
15811.477,27.344,31.738,39.062,52.246,0.977,0
15811.481,36.133,31.738,42.480,60.547,63.965,0
15811.485,27.832,38.086,45.410,49.805,50.293,0
15811.489,21.973,41.992,41.504,43.457,0.977,0
15811.493,32.227,38.574,34.180,53.223,24.414,0
15811.497,37.109,36.621,37.109,56.152,24.902,0
15811.501,29.297,40.039,40.039,52.734,32.227,0
15811.504,32.227,37.598,38.086,52.246,57.617,0
15811.508,41.992,35.645,40.527,57.129,18.066,0
15811.512,41.504,38.086,42.480,58.594,10.254,0
15811.516,32.227,39.551,41.992,54.199,41.504,0
15811.520,31.250,39.062,40.527,49.805,-9.766,0
15811.524,34.180,34.668,36.621,55.664,-17.090,0
15811.528,34.668,33.203,31.250,55.176,4.883,0
15811.532,31.738,37.109,34.668,46.875,31.738,0
15811.536,21.484,40.039,38.574,40.039,82.520,0
15811.540,26.855,40.527,36.621,45.410,22.949,0
15811.544,29.297,39.062,32.715,49.805,3.418,0
15811.547,26.367,39.551,36.133,46.875,23.438,0
15811.551,22.949,41.992,41.504,47.852,1.465,0
15811.555,25.391,39.551,38.574,40.527,0.000,0
15811.559,37.109,38.086,33.203,42.480,58.594,0
15811.563,32.715,38.574,32.227,48.828,54.199,0
15811.567,24.902,40.039,38.086,41.992,7.324,0
15811.571,28.320,42.969,40.527,40.039,-3.906,0
15811.575,35.645,42.480,37.109,43.945,5.859,0
15811.579,38.574,36.133,35.156,41.016,34.668,0
15811.583,37.598,34.180,35.156,42.969,27.344,0
15811.587,34.668,39.551,37.109,42.480,0.488,0
15811.590,29.785,37.109,36.133,46.387,12.207,0
15811.594,29.297,35.156,36.133,51.758,13.672,0
15811.598,25.879,38.086,39.551,44.434,-25.879,0
15811.602,14.648,39.062,34.180,39.062,9.277,0
15811.606,19.043,41.016,34.180,53.223,20.020,0
15811.610,29.785,39.062,39.062,59.570,-2.441,0
15811.614,24.414,36.133,37.598,50.781,31.738,0
15811.618,15.625,37.598,39.062,44.922,20.508,0
