timestamps,TP9,AF7,AF8,TP10,Right AUX,Marker0
3868.936,158.203,36.621,33.203,46.387,83.984,0
3868.940,-239.746,42.969,44.434,-25.879,44.922,0
3868.943,-154.297,38.574,42.480,-11.719,10.254,0
3868.947,253.418,32.227,33.203,55.176,-0.977,0
3868.951,241.211,34.180,37.109,62.988,16.602,0
3868.955,-174.805,40.039,45.898,0.977,40.039,0
3868.959,-235.840,35.645,42.480,-20.020,29.785,0
3868.963,145.020,30.273,32.227,37.109,-1.953,0
3868.967,310.059,29.785,30.273,70.312,63.965,0
3868.971,-50.781,39.551,42.480,12.207,123.535,0
3868.975,-268.555,42.969,45.410,-32.227,54.688,0
3868.979,40.527,35.645,37.598,20.508,-0.488,0
3868.983,338.867,33.691,37.109,78.125,11.230,0
3868.986,64.941,36.621,46.387,37.598,22.949,0
3868.990,-272.949,42.480,50.293,-27.344,12.207,0
3868.994,-71.289,38.574,39.062,-0.488,20.508,0
3868.998,315.918,29.785,30.762,64.453,49.316,0
3869.002,176.758,35.156,40.527,48.340,50.781,0
3869.006,-236.816,42.480,49.316,-19.043,28.809,0
3869.010,-169.922,38.086,46.875,-20.996,14.648,0
3869.014,240.234,32.715,39.062,51.270,65.430,0
3869.018,266.602,36.133,39.551,70.312,75.195,0
3869.022,-143.555,48.828,52.246,-1.465,-29.297,0
3869.026,-239.746,51.270,51.270,-29.785,-25.391,0
3869.029,136.719,39.551,36.133,29.297,41.016,0
3869.033,334.961,37.598,32.715,68.848,52.246,0
3869.037,-15.625,45.410,44.434,18.555,89.844,0
3869.041,-261.230,47.363,50.781,-20.020,101.074,0
3869.045,22.949,42.969,46.875,21.484,84.961,0
3869.049,343.262,38.086,40.039,60.059,79.590,0
3869.053,102.539,39.551,45.410,28.809,56.641,0
3869.057,-266.602,44.434,51.270,-24.902,18.555,0
3869.061,-108.887,41.504,46.387,-2.441,-0.488,0
3869.065,280.762,32.227,40.039,61.523,38.086,0
3869.068,180.664,38.574,37.109,45.898,74.219,0
3869.072,-230.469,45.898,41.504,-22.461,35.156,0
3869.076,-202.148,37.598,40.527,-21.484,-0.488,0
3869.080,200.684,31.250,32.715,43.945,-4.395,0
3869.084,278.809,32.715,33.203,57.129,20.020,0
3869.088,-120.117,41.992,41.504,-3.418,44.922,0
3869.092,-264.648,43.457,44.434,-25.879,4.395,0
3869.096,88.379,35.156,37.598,30.273,20.996,0
3869.100,319.824,33.203,34.668,75.684,37.598,1
3869.104,-1.465,40.527,41.992,19.531,22.949,0
3869.108,-282.715,43.457,42.480,-37.598,55.176,0
3869.111,-22.949,35.645,33.203,7.812,29.297,0
3869.115,330.078,29.785,27.344,70.801,-11.719,0
3869.119,120.605,37.598,34.668,38.086,27.832,0
3869.123,-264.160,42.480,42.480,-25.879,10.254,0
3869.127,-142.578,31.250,34.180,-13.184,21.973,0
3869.131,261.719,22.461,23.926,56.641,62.500,0
3869.135,211.914,28.809,28.809,59.082,39.551,0
3869.139,-211.426,39.062,39.551,-14.648,38.086,0
3869.143,-225.098,42.969,41.504,-16.602,30.762,0
3869.147,176.270,35.156,36.133,56.152,59.570,0
3869.151,291.992,28.320,31.738,71.289,-6.836,0
3869.154,-93.262,38.086,36.621,1.953,-30.762,0
3869.158,-262.695,44.434,41.992,-24.902,34.668,0
3869.162,67.383,32.715,35.645,29.297,30.273,0
3869.166,325.684,28.320,29.785,69.336,35.645,0
3869.170,40.527,37.109,40.039,29.785,31.738,0
3869.174,-269.043,37.598,46.387,-23.438,65.430,0
3869.178,-39.062,30.273,38.574,0.000,43.945,0
3869.182,327.148,28.320,32.227,65.918,44.434,0
3869.186,149.902,34.668,41.016,47.852,45.898,0
3869.190,-240.723,45.410,51.270,-20.020,-6.836,0
3869.193,-142.578,43.945,46.875,-2.441,-17.090,0
3869.197,264.160,32.227,35.156,63.477,10.254,0
3869.201,253.906,36.621,40.039,63.965,45.410,0
3869.205,-167.969,43.945,50.293,-9.766,34.668,0
3869.209,-229.980,39.062,43.945,-24.414,-2.441,0
3869.213,160.645,31.738,33.691,39.551,-4.883,0
3869.217,309.082,32.227,34.668,66.406,75.684,0
3869.221,-59.082,44.922,44.922,17.090,74.707,0
3869.225,-270.508,50.293,42.480,-22.461,43.945,0
3869.229,37.109,39.551,32.227,14.648,78.125,0
3869.233,336.914,36.621,30.762,70.801,56.152,0
3869.236,62.500,47.363,41.016,34.668,30.273,0
3869.240,-265.137,52.734,47.852,-21.484,31.250,0
3869.244,-59.570,46.875,41.504,7.324,13.184,0
3869.248,307.129,39.062,28.809,59.082,26.367,0
3869.252,164.062,42.969,31.738,42.480,5.371,0
3869.256,-240.723,48.340,41.992,-21.484,-20.020,0
3869.260,-171.387,43.945,39.551,-13.672,10.742,0
3869.264,241.211,39.551,28.320,68.359,-35.645,0
3869.268,265.625,38.574,29.297,78.125,3.418,0
3869.272,-153.320,40.527,45.898,-7.324,116.211,0
3869.276,-261.230,36.621,48.828,-38.086,6.348,0
3869.279,104.980,27.832,38.574,30.762,-47.363,0
3869.283,306.641,27.344,39.062,75.195,49.805,0
3869.287,-32.715,36.133,48.340,23.438,49.805,0
3869.291,-276.855,36.133,46.875,-32.715,31.738,0
3869.295,5.859,26.367,36.133,-3.418,52.734,0
3869.299,324.707,24.902,33.691,66.895,33.203,0
3869.303,86.914,37.109,42.480,51.270,73.242,0
3869.307,-272.461,41.992,44.922,-20.020,62.988,0
3869.311,-106.445,32.227,35.645,-6.348,-0.977,0
3869.315,299.316,25.879,29.785,70.312,59.082,0
3869.318,197.754,31.738,37.598,58.594,55.664,0
3869.322,-224.121,41.016,47.852,-16.113,11.719,0
3869.326,-197.266,35.645,44.434,-15.625,-10.742,0
3869.330,211.426,27.832,37.109,55.664,-1.953,0
3869.334,276.367,27.832,38.574,74.219,68.848,0
3869.338,-131.836,35.156,45.410,0.488,38.086,0
3869.342,-256.348,36.621,44.434,-25.879,-11.230,0
3869.346,102.539,25.879,35.645,33.691,52.246,0
3869.350,324.219,21.973,35.156,77.637,85.449,0
3869.354,-1.465,31.250,46.387,27.832,61.523,0
3869.358,-277.344,38.086,50.293,-32.227,16.602,0
3869.361,-17.578,31.250,44.434,11.719,48.340,0
3869.365,331.055,26.367,40.039,70.801,28.809,0
3869.369,119.629,33.203,44.922,31.738,-16.602,0
3869.373,-258.789,35.156,48.828,-32.227,46.875,0
3869.377,-122.559,32.715,43.457,-11.719,25.391,0
3869.381,277.344,31.250,38.086,62.988,-31.250,0
3869.385,221.680,32.227,41.016,55.176,26.367,0
3869.389,-206.543,38.086,45.898,-32.227,34.180,0
3869.393,-232.422,34.668,42.969,-37.598,-26.367,0
3869.397,170.410,29.297,34.180,35.156,-19.531,0
3869.401,284.668,32.715,37.109,50.781,13.184,0
3869.404,-102.539,38.086,44.434,-12.695,17.578,0
3869.408,-278.320,42.969,41.504,-41.016,-40.039,0
3869.412,60.059,38.086,34.668,11.719,21.484,0
3869.416,324.219,34.668,30.273,60.059,73.730,0
3869.420,12.695,43.457,39.062,18.555,80.566,0
3869.424,-291.992,48.828,44.922,-36.133,75.195,0
3869.428,-46.875,41.504,32.227,-10.742,39.062,0
3869.432,325.684,34.180,22.461,50.781,40.039,0
3869.436,149.414,42.480,36.133,41.016,29.785,0
3869.440,-236.328,51.270,45.410,-20.020,2.441,0
3869.443,-134.766,46.875,37.109,-14.648,21.484,0
3869.447,277.344,40.039,29.785,54.199,59.082,0
3869.451,253.418,44.434,35.156,66.406,-3.906,0
3869.455,-182.129,47.852,44.434,-0.488,14.160,0
3869.459,-226.074,42.480,42.480,-20.020,88.867,0
3869.463,162.598,39.551,38.574,41.504,39.551,0
3869.467,304.199,41.992,35.645,69.824,35.645,0
3869.471,-57.617,48.828,40.039,6.348,70.312,0
3869.475,-257.324,45.410,41.016,-27.344,45.410,0
3869.479,57.617,39.062,31.738,20.508,-5.859,0
3869.483,343.262,41.016,31.738,72.266,-10.742,0
3869.486,54.199,41.992,39.551,31.738,12.207,0
3869.490,-280.273,40.039,39.062,-32.715,41.992,0
3869.494,-63.965,36.621,30.762,5.371,49.316,0
3869.498,320.312,29.785,29.297,68.848,1.953,0
3869.502,170.410,31.738,37.109,52.734,26.855,0
3869.506,-233.887,41.504,42.969,-16.113,32.227,0
3869.510,-171.387,37.598,40.527,-13.672,21.973,0
3869.514,237.305,30.762,34.668,62.012,48.828,0
3869.518,257.812,36.621,38.086,68.359,12.695,0
3869.522,-151.855,41.016,44.434,-10.742,15.625,0
3869.526,-241.699,36.133,40.527,-39.062,49.316,0
3869.529,134.277,27.344,32.715,27.344,-29.785,0
3869.533,323.242,28.320,33.691,67.383,-53.223,0
3869.537,-41.016,36.133,41.016,4.883,56.152,0
3869.541,-289.551,38.086,42.480,-38.086,35.156,0
3869.545,4.883,30.762,32.715,10.742,-37.598,0
3869.549,326.172,24.414,23.438,68.359,-13.672,0
3869.553,79.590,33.203,31.738,40.039,42.969,0
3869.557,-275.879,39.551,40.527,-30.273,38.574,0
3869.561,-91.797,34.668,37.598,-12.207,36.621,0
3869.565,312.988,31.738,31.250,60.059,59.082,0
3869.568,199.707,34.668,31.738,52.246,20.020,0
3869.572,-224.609,41.016,42.480,-20.508,14.160,0
3869.576,-185.059,39.551,42.480,-28.809,-16.113,0
3869.580,228.516,35.645,34.668,52.246,-26.855,0
3869.584,280.273,39.062,33.691,75.195,29.297,0
3869.588,-127.441,43.945,38.574,-6.348,0.488,0
3869.592,-260.742,41.504,41.992,-34.180,-16.602,0
3869.596,104.492,31.738,32.227,27.344,31.738,0
3869.600,344.238,31.738,30.273,64.941,63.477,0
3869.604,9.277,40.039,37.598,15.137,95.215,0
3869.608,-271.973,41.504,39.062,-31.250,70.312,0
3869.611,0.488,36.133,37.109,19.531,-22.949,0
3869.615,347.168,31.738,29.297,80.078,11.230,0
3869.619,125.977,39.062,31.738,44.922,41.504,0
3869.623,-253.906,45.898,42.969,-19.531,13.672,0
3869.627,-103.516,38.086,37.109,-7.324,37.109,0
3869.631,296.387,30.762,27.832,66.406,42.969,0
3869.635,223.145,36.133,31.738,61.523,62.988,0
3869.639,-195.312,42.480,40.039,-8.301,6.836,0
3869.643,-216.797,38.086,39.551,-15.625,4.395,0
3869.647,186.523,32.227,30.273,51.270,19.531,0
3869.651,296.387,34.180,27.832,80.566,32.227,0
3869.654,-100.586,44.922,34.668,5.371,42.480,0
3869.658,-259.277,42.969,38.086,-32.227,-19.043,0
3869.662,93.262,33.203,33.691,31.738,23.926,0
3869.666,342.285,32.227,26.367,74.707,64.453,0
3869.670,25.879,39.062,31.738,31.738,41.992,0
3869.674,-274.902,43.945,41.016,-25.391,50.781,0
3869.678,-41.016,36.133,31.738,2.441,58.594,0
3869.682,323.730,31.738,28.809,82.031,62.500,0
3869.686,146.484,37.109,39.062,67.383,10.742,0
3869.690,-240.234,38.574,38.574,-23.926,32.715,0
3869.693,-128.418,37.109,32.227,-19.531,39.062,0
3869.697,277.344,35.156,28.809,65.430,39.551,0
3869.701,240.723,36.133,33.203,68.359,44.434,0
3869.705,-198.730,42.480,41.016,-9.766,26.367,0
3869.709,-240.723,42.969,40.527,-26.367,10.742,0
3869.713,153.809,34.180,35.156,46.387,-4.883,0
3869.717,296.387,34.668,34.180,77.637,-36.621,0
3869.721,-75.684,48.340,45.410,14.648,-38.574,0
3869.725,-289.062,47.363,47.363,-25.391,-10.742,1
3869.729,40.527,37.109,37.109,32.715,-2.441,0
3869.733,343.262,36.133,33.691,98.145,12.207,0
3869.736,59.570,44.922,41.016,50.781,30.762,0
3869.740,-273.438,50.781,46.387,-18.066,41.992,0
3869.744,-60.059,44.434,39.551,10.254,-9.766,0
3869.748,313.477,34.668,32.227,77.148,37.109,0
3869.752,158.691,40.039,38.086,57.129,28.320,0
3869.756,-239.258,47.852,43.945,-15.625,-10.742,0
3869.760,-166.016,43.945,40.039,-9.277,30.762,0
3869.764,249.512,36.621,37.598,74.219,35.156,0
3869.768,271.484,36.621,39.062,82.520,25.391,0
3869.772,-130.859,45.898,47.363,12.695,10.742,0
3869.776,-203.613,45.410,44.922,-13.672,0.488,0
3869.779,155.273,37.598,36.621,55.176,18.066,0
3869.783,310.059,39.551,37.109,104.980,57.617,0
3869.787,-51.758,47.852,45.898,37.109,36.621,0
3869.791,-284.180,46.875,48.340,-13.184,-6.348,0
3869.795,15.625,38.574,38.574,31.738,41.504,0
3869.799,321.777,38.086,37.598,102.051,54.688,0
3869.803,61.035,42.969,51.758,64.941,36.133,0
3869.807,-280.762,43.457,55.664,-0.977,15.625,0
3869.811,-90.820,42.480,41.016,23.926,15.625,0
3869.815,307.617,37.598,35.156,84.473,15.625,0
3869.818,187.988,42.480,43.945,71.777,57.129,0
3869.822,-236.816,50.781,47.852,-3.906,67.871,0
3869.826,-191.895,42.969,42.480,-9.766,3.906,0
3869.830,216.309,33.203,36.621,65.918,53.223,0
3869.834,266.602,33.691,38.086,74.219,100.098,0
3869.838,-126.465,41.992,49.805,-0.488,64.941,0
3869.842,-243.652,45.410,51.758,-20.020,39.551,0
3869.846,103.027,40.039,39.062,42.480,52.734,0
3869.850,322.754,37.109,36.621,87.402,36.621,0
3869.854,-4.883,45.898,47.363,32.715,18.066,0
3869.858,-278.320,49.316,51.270,-19.043,14.160,0
3869.861,-1.465,40.039,43.457,20.020,16.113,0
3869.865,343.262,35.156,37.109,81.055,9.277,0
3869.869,109.375,43.457,43.457,49.805,29.297,0
3869.873,-261.719,48.828,51.758,-14.160,22.949,0
3869.877,-104.980,41.504,47.363,17.090,7.812,0
3869.881,284.180,38.574,43.457,75.195,2.441,0
3869.885,213.867,46.875,45.898,62.012,53.711,0
3869.889,-203.125,51.270,50.781,-0.977,61.035,0
3869.893,-213.379,44.434,50.781,-7.324,10.254,0
3869.897,193.359,36.133,38.086,63.477,89.844,0
3869.901,288.574,39.062,37.109,85.449,116.699,0
3869.904,-92.285,47.363,49.805,26.367,31.738,0
3869.908,-246.582,48.340,46.387,-20.996,11.719,0
3869.912,73.730,42.480,32.715,15.625,5.371,0
3869.916,305.176,38.086,30.273,58.105,-16.113,0
3869.920,1.953,42.969,39.551,15.625,-5.371,0
3869.924,-285.645,42.480,42.969,-37.598,50.781,0
3869.928,-35.645,34.180,36.621,4.883,26.367,0
3869.932,317.383,26.855,30.762,74.707,16.602,0
3869.936,124.512,33.203,36.133,40.039,56.152,0
3869.940,-245.605,38.574,45.410,-27.344,30.273,0
3869.943,-131.348,32.227,39.062,-17.090,-9.766,0
3869.947,250.000,25.879,23.926,49.805,18.555,0
3869.951,208.984,31.738,28.320,54.199,62.012,0
3869.955,-208.496,38.086,38.574,-18.555,38.086,0
3869.959,-239.258,33.691,33.203,-28.320,22.461,0
3869.963,146.973,27.344,27.832,40.039,95.703,0
3869.967,262.695,28.320,35.645,73.730,43.945,0
3869.971,-101.562,33.203,46.875,14.160,-79.102,0
3869.975,-272.949,31.738,39.551,-24.902,15.137,0
3869.979,41.992,28.320,31.250,30.273,98.633,0
3869.983,307.617,27.344,33.203,78.613,59.082,0
3869.986,30.762,36.621,37.109,40.039,-21.973,0
3869.990,-270.996,39.551,41.016,-1.953,-12.695,0
3869.994,-47.852,33.203,32.715,20.020,29.785,0
3869.998,304.688,28.320,24.414,72.266,32.715,0
3870.002,139.160,37.109,37.598,58.594,10.254,0
3870.006,-236.328,43.945,45.410,-2.930,17.090,0
3870.010,-140.625,37.109,33.691,3.418,3.906,0
3870.014,248.047,34.180,30.273,68.848,-5.859,0
3870.018,241.699,40.039,41.016,81.543,48.828,0
3870.022,-146.973,48.828,48.828,22.461,21.484,0
3870.026,-203.125,45.898,41.016,-7.812,-4.883,0
3870.029,148.926,41.504,32.227,44.434,19.531,0
3870.033,290.527,43.457,34.668,73.242,70.801,0
3870.037,-46.875,43.457,41.504,20.508,97.656,0
3870.041,-254.395,39.551,47.363,-9.277,21.484,0
3870.045,32.715,35.645,41.016,38.574,-0.488,0
3870.049,315.918,30.762,30.273,83.008,37.109,0
3870.053,71.777,38.086,36.133,41.504,65.918,0
3870.057,-250.000,41.016,41.504,-17.578,45.410,0
3870.061,-71.289,36.621,40.039,15.625,-10.742,0
3870.065,289.551,30.762,32.227,78.125,17.090,0
3870.068,163.086,34.668,31.738,51.758,33.691,0
3870.072,-219.727,39.062,42.480,-4.395,37.109,0
3870.076,-167.480,28.809,39.062,-9.277,19.531,0
3870.080,219.238,22.461,33.691,50.293,12.207,0
3870.084,249.023,24.414,35.645,70.801,48.828,0
3870.088,-146.484,28.809,39.062,4.395,79.102,0
3870.092,-237.305,29.785,41.504,-16.113,59.570,0
3870.096,111.816,25.391,32.227,36.621,25.391,0
3870.100,289.062,27.832,30.273,67.383,24.902,0
3870.104,-31.250,37.598,42.969,17.578,12.695,0
3870.108,-269.043,36.133,41.016,-35.156,-23.926,0
3870.111,0.000,29.297,29.785,-2.441,29.785,0
3870.115,323.730,27.344,26.855,60.059,85.938,0
3870.119,94.727,36.133,38.086,35.645,52.246,0
3870.123,-256.836,40.527,46.875,-23.438,67.871,0
3870.127,-100.586,35.645,38.574,-5.371,49.805,0
3870.131,276.855,28.320,26.855,51.758,61.035,0
3870.135,193.359,27.832,29.785,48.340,106.934,0
3870.139,-210.449,37.109,38.574,-7.812,59.570,0
3870.143,-200.684,36.621,34.180,-13.184,-7.812,0
3870.147,185.547,27.832,23.926,45.898,-14.648,0
3870.151,266.113,27.832,25.879,68.359,-23.926,0
3870.154,-104.980,35.156,36.621,3.418,32.715,0
3870.158,-250.488,36.133,39.551,-25.391,12.207,0
3870.162,77.148,32.227,34.668,32.715,-2.441,0
3870.166,305.664,32.227,32.227,68.359,-7.324,0
3870.170,-1.465,34.668,39.062,22.949,-41.016,0
3870.174,-275.879,38.574,44.922,-25.879,-31.738,0
3870.178,-34.668,32.227,38.574,1.953,7.812,0
3870.182,311.523,27.832,35.645,70.312,39.551,0
3870.186,120.117,41.016,42.480,46.387,6.836,0
3870.190,-250.977,45.410,43.457,-30.273,0.977,0
3870.193,-126.465,35.645,38.086,-15.137,33.691,0
3870.197,263.672,27.832,33.203,65.430,28.809,0
3870.201,212.891,32.715,38.086,59.570,69.824,0
3870.205,-202.148,38.574,44.434,-18.066,90.820,0
3870.209,-220.703,33.691,41.992,-20.996,63.477,0
3870.213,178.711,26.367,33.691,42.480,30.273,0
3870.217,290.527,28.809,35.645,70.312,-8.301,0
3870.221,-98.145,42.969,47.363,16.113,-13.184,0
3870.225,-270.508,46.875,47.363,-20.508,35.156,0
3870.229,65.918,34.668,37.598,28.809,25.391,0
3870.233,333.984,27.344,32.715,78.125,3.418,0
3870.236,31.738,34.668,39.551,30.762,10.742,0
3870.240,-290.039,40.039,43.457,-37.598,-15.625,0
3870.244,-59.082,30.273,36.133,1.465,-5.371,0
3870.248,313.477,23.926,31.250,70.312,33.691,0
3870.252,146.484,33.691,38.574,57.129,42.480,0
3870.256,-242.188,39.062,46.387,-19.043,45.898,0
3870.260,-153.320,34.668,41.504,-29.297,24.414,0
3870.264,241.699,29.297,32.227,44.922,7.812,0
3870.268,235.840,30.762,33.691,58.594,20.996,0
3870.272,-168.945,36.133,41.992,-13.184,70.801,0
3870.276,-234.863,34.668,38.086,-32.227,51.758,0
3870.279,135.742,31.250,30.762,38.574,5.859,0
3870.283,304.688,32.715,32.227,71.777,-4.395,0
3870.287,-54.199,37.109,37.109,8.301,25.879,0
3870.291,-269.043,37.109,37.598,-34.668,33.691,0
3870.295,37.598,31.250,29.297,11.230,-12.207,0
3870.299,327.148,28.809,23.438,59.082,62.988,0
3870.303,61.523,35.156,36.133,22.949,106.934,0
3870.307,-271.973,37.109,42.969,-28.320,29.297,0
3870.311,-79.590,30.762,31.250,-5.371,12.695,0
3870.315,306.641,28.320,22.949,55.664,41.016,0
3870.318,175.293,36.133,30.762,42.480,17.578,0
3870.322,-229.004,40.527,44.922,-18.555,46.387,0
3870.326,-174.316,32.715,39.551,-14.160,56.641,0
3870.330,226.074,28.320,28.809,51.270,-9.277,0
3870.334,252.441,37.109,35.156,65.918,8.789,0
3870.338,-160.645,46.875,43.945,-9.277,29.785,0
3870.342,-257.324,43.457,44.434,-29.785,-24.902,0
3870.346,107.422,32.715,36.133,36.621,-15.625,0
3870.350,308.594,31.738,31.738,61.035,9.766,0
3870.354,-19.531,42.480,42.480,4.395,42.969,0
3870.358,-260.254,47.363,48.340,-36.621,62.988,0
3870.361,1.465,41.016,41.992,16.113,59.082,0
3870.365,310.059,37.109,36.133,72.266,98.145,0
3870.369,79.102,43.457,35.645,35.156,59.570,0
3870.373,-272.461,45.898,39.551,-19.531,43.945,0
3870.377,-111.328,39.062,35.156,-0.488,1.953,0
3870.381,281.250,35.156,28.320,57.617,-14.160,0
3870.385,192.383,41.504,37.109,46.875,55.176,0
3870.389,-223.145,47.852,41.504,-20.508,76.660,0
3870.393,-197.266,42.969,37.598,-21.973,10.254,0
3870.397,199.707,31.738,30.762,42.480,-23.926,0
3870.401,275.391,32.715,33.691,62.500,0.977,1
3870.404,-116.211,39.551,41.992,0.000,37.109,0
3870.408,-254.883,40.039,40.039,-21.973,45.410,0
3870.412,101.074,34.180,31.738,34.668,18.555,0
3870.416,323.730,25.879,29.297,69.824,8.301,0
3870.420,-0.977,33.203,38.086,21.973,6.836,0
3870.424,-273.926,38.574,39.062,-42.480,46.387,0
3870.428,-23.438,29.297,27.344,-8.301,48.828,0
3870.432,306.152,23.926,20.996,54.688,22.461,0
3870.436,104.492,32.227,29.297,31.250,36.621,0
3870.440,-254.395,41.016,39.062,-20.508,19.043,0
3870.443,-113.770,34.668,34.180,-5.859,-9.277,0
3870.447,290.527,27.832,24.414,55.176,55.176,0
3870.451,223.633,36.133,30.273,50.293,41.016,0
3870.455,-200.684,44.434,40.039,-10.254,-20.996,0
3870.459,-207.520,39.551,32.227,-15.625,36.133,0
3870.463,186.035,36.621,25.879,41.016,45.898,0
3870.467,296.387,39.551,28.320,64.941,-5.371,0
3870.471,-89.844,40.527,34.180,-2.930,-26.367,0
3870.475,-266.602,36.133,39.551,-31.250,-32.227,0
3870.479,62.988,31.738,33.691,34.180,-20.508,0
3870.483,322.266,30.762,28.320,73.242,14.648,0
3870.486,23.438,33.691,35.156,19.531,55.176,0
3870.490,-280.273,34.668,40.527,-29.297,70.312,0
3870.494,-43.945,28.809,32.227,3.418,88.867,0
3870.498,322.266,26.855,27.832,64.453,48.828,0
3870.502,138.184,38.086,36.621,48.828,69.824,0
3870.506,-256.348,42.969,42.969,-17.090,47.363,0
3870.510,-150.391,36.133,39.062,-5.859,-12.695,0
3870.514,257.324,34.180,32.227,68.359,28.320,0
3870.518,245.605,40.527,37.598,76.660,43.457,0
3870.522,-174.316,52.246,51.270,4.883,18.555,0
3870.526,-233.887,47.852,48.828,-12.207,54.199,0
3870.529,142.578,33.691,34.180,61.523,56.152,0
3870.533,294.434,34.668,32.227,105.957,34.180,0
3870.537,-62.500,43.457,42.969,40.039,3.418,0
3870.541,-266.113,45.410,46.875,-11.719,7.324,0
3870.545,32.715,39.062,35.645,32.715,66.406,0
3870.549,330.566,37.598,27.344,90.820,20.020,0
3870.553,71.289,44.434,33.691,52.246,-8.301,0
3870.557,-259.766,44.922,38.574,-12.695,8.301,0
3870.561,-68.359,40.527,33.203,15.137,-2.441,0
3870.565,293.457,33.691,24.902,75.684,3.906,0
3870.568,157.227,37.109,30.273,54.199,49.805,0
3870.572,-240.723,48.828,41.504,-9.766,42.969,0
3870.576,-170.898,46.875,33.203,-4.395,56.152,0
3870.580,238.770,38.574,26.367,63.965,88.379,0
3870.584,260.742,41.016,30.762,78.125,39.062,0
3870.588,-148.438,46.387,36.621,0.488,24.902,0
3870.592,-240.234,41.504,37.598,-20.996,37.598,0
3870.596,122.070,35.156,30.273,45.410,46.875,0
3870.600,307.617,36.621,33.203,76.660,81.055,0
3870.604,-34.668,44.434,45.898,25.391,19.043,0
3870.608,-270.996,44.922,44.922,-17.090,-67.871,0
3870.611,9.277,35.645,33.203,28.809,-21.973,0
3870.615,325.195,31.250,29.785,83.984,14.160,0
3870.619,86.914,40.527,40.527,46.387,-3.418,0
3870.623,-275.391,48.340,52.734,-12.207,-3.418,0
3870.627,-105.469,39.062,41.504,8.301,37.598,0
3870.631,291.992,31.250,27.344,74.219,78.125,0
3870.635,183.594,36.133,33.203,64.453,35.156,0
3870.639,-227.539,38.574,39.551,-6.348,-56.152,0
3870.643,-191.895,35.645,34.180,-2.441,3.418,0
3870.647,204.590,28.320,26.855,62.500,97.168,0
3870.651,266.602,28.320,31.738,75.684,75.684,0
3870.654,-121.582,38.086,39.062,10.254,47.363,0
3870.658,-249.512,39.551,37.598,-19.043,55.664,0
3870.662,92.285,34.668,34.668,50.781,65.430,0
3870.666,314.453,30.273,33.203,88.867,17.090,0
3870.670,-2.930,33.203,35.645,19.043,17.090,0
3870.674,-263.184,37.109,38.574,-22.461,17.578,0
3870.678,-3.906,30.273,32.715,17.090,-0.977,0
3870.682,332.520,25.879,28.809,76.660,22.949,0
3870.686,109.375,35.156,37.598,47.852,-28.809,0
3870.690,-265.137,42.480,42.969,-20.996,-0.488,0
3870.693,-125.000,30.762,29.785,-4.395,21.973,0
3870.697,275.879,21.484,19.043,61.035,-27.344,0
3870.701,209.961,28.809,27.344,55.176,23.438,0
3870.705,-208.496,33.691,33.691,-9.766,62.988,0
3870.709,-214.844,28.809,30.762,-18.555,73.242,0
3870.713,178.223,21.973,23.926,47.852,76.660,0
3870.717,294.434,22.461,26.367,72.754,86.914,0
3870.721,-87.891,35.645,38.574,9.277,29.785,0
3870.725,-262.695,39.062,36.133,-21.973,-8.301,0
3870.729,77.637,30.762,28.320,32.715,9.277,0
3870.733,335.938,27.344,29.785,81.055,24.414,0
3870.736,25.879,36.133,39.551,36.621,25.391,0
3870.740,-279.785,44.922,43.457,-16.602,2.930,0
3870.744,-45.898,38.574,32.715,17.578,6.836,0
3870.748,312.500,32.227,28.320,87.402,-16.113,0
3870.752,129.883,39.062,37.598,61.035,-30.762,0
3870.756,-256.348,43.457,42.480,-17.578,-13.672,0
3870.760,-150.391,40.527,36.621,-9.766,44.922,0
3870.764,243.164,32.715,25.391,52.734,98.633,0
3870.768,221.191,35.645,29.297,55.664,37.598,0
3870.772,-190.918,44.922,42.480,-9.277,22.461,0
3870.776,-230.469,41.992,41.992,-21.484,46.387,0
3870.779,159.668,33.691,31.738,50.781,17.578,0
3870.783,299.805,31.738,32.715,77.148,54.199,0
3870.787,-62.012,41.504,44.434,5.859,61.035,0
3870.791,-274.414,41.016,41.504,-34.668,36.133,0
3870.795,34.668,31.738,29.785,13.184,3.418,0
3870.799,327.148,28.809,28.320,62.500,4.883,0
3870.803,51.270,40.039,41.016,28.320,57.617,0
3870.807,-274.902,43.457,43.457,-29.297,34.180,0
3870.811,-74.707,36.621,36.133,-1.953,34.668,0
3870.815,303.711,36.133,30.273,59.082,31.250,0
3870.818,156.738,41.504,36.133,37.109,26.367,0
3870.822,-239.258,45.898,48.828,-27.344,27.832,0
3870.826,-165.527,40.039,42.480,-21.484,24.902,0
3870.830,240.723,31.738,31.250,52.246,11.230,0
3870.834,263.672,37.598,31.738,69.824,-10.254,0
3870.838,-154.297,43.945,37.109,-4.883,36.133,0
3870.842,-247.070,41.992,40.039,-30.762,44.434,0
3870.846,122.559,35.645,31.250,31.738,28.320,0
3870.850,309.082,32.715,31.250,78.613,60.059,0
3870.854,-34.668,40.039,41.504,21.484,36.133,0
3870.858,-273.926,43.945,42.969,-35.645,34.668,0
3870.861,9.766,38.086,37.109,17.578,26.855,0
3870.865,326.172,37.109,37.109,84.473,17.090,0
3870.869,70.801,42.480,40.039,37.598,40.039,0
3870.873,-274.414,43.945,42.480,-33.691,-1.465,0
3870.877,-96.680,40.527,43.457,-7.324,-6.836,0
3870.881,289.551,37.109,37.598,72.754,0.488,0
3870.885,191.406,40.039,40.527,69.336,-20.996,0
3870.889,-214.844,42.969,47.363,-6.348,54.199,0
3870.893,-172.363,41.016,45.898,1.465,-6.348,0
3870.897,219.727,33.203,39.062,59.082,-44.434,0
3870.901,273.438,34.668,41.016,64.453,-0.977,0
3870.904,-121.094,43.945,47.852,0.488,-10.254,0
3870.908,-255.859,45.410,44.434,-22.949,7.324,0
3870.912,100.098,40.527,36.133,43.457,11.230,0
3870.916,328.125,36.133,32.227,80.078,62.500,0
3870.920,-1.465,43.945,40.527,21.484,94.238,1
3870.924,-274.902,48.340,43.945,-34.180,53.711,0
3870.928,-13.672,38.574,33.691,4.395,-7.324,0
3870.932,321.777,31.250,27.832,61.035,-4.395,0
3870.936,102.051,38.574,35.156,31.250,30.762,0
3870.940,-263.672,44.922,44.434,-25.391,32.227,0
3870.943,-108.398,37.109,39.062,-3.906,10.742,0
3870.947,285.645,24.902,26.367,63.477,55.176,0
3870.951,201.172,31.738,31.738,55.664,74.219,0
3870.955,-210.449,41.016,40.527,-23.438,48.340,0
3870.959,-205.566,38.574,36.133,-22.461,40.039,0
3870.963,187.012,37.598,33.203,54.688,16.602,0
3870.967,284.180,38.574,32.715,72.754,41.504,0
3870.971,-109.375,42.480,36.133,6.836,41.504,0
3870.975,-276.367,42.969,35.645,-30.762,3.418,0
3870.979,67.383,28.320,25.391,22.461,5.859,0
3870.983,331.055,25.391,25.879,69.336,38.086,0
3870.986,27.344,39.062,33.691,16.113,28.809,0
3870.990,-281.738,46.387,39.062,-31.250,31.250,0
3870.994,-47.852,41.992,35.156,11.230,3.906,0
3870.998,311.035,33.203,27.344,68.359,8.301,0
3871.002,137.207,42.480,35.156,46.875,40.527,0
3871.006,-247.559,48.340,38.574,-19.531,30.273,0
3871.010,-144.531,42.969,32.227,-20.020,48.828,0
3871.014,258.789,37.598,28.320,50.293,57.129,0
3871.018,242.188,41.992,35.645,56.152,37.109,0
3871.022,-166.992,51.270,48.828,-13.184,11.230,0
3871.026,-207.520,46.875,41.504,-30.273,30.762,0
3871.029,176.758,37.109,28.809,33.203,39.551,0
3871.033,306.152,37.109,31.738,72.266,19.531,0
3871.037,-63.965,45.410,39.062,10.254,10.742,0
3871.041,-261.719,49.316,45.410,-29.297,17.578,0
3871.045,46.387,40.039,39.062,23.926,27.832,0
3871.049,341.309,33.203,33.203,75.684,25.391,0
3871.053,70.801,40.527,41.992,44.922,-36.133,0
3871.057,-270.020,44.434,43.457,-18.555,-62.500,0
3871.061,-62.012,40.039,35.156,-1.465,-35.156,0
3871.065,315.918,34.180,27.832,71.777,23.438,0
3871.068,163.574,35.645,31.738,62.988,60.547,0
3871.072,-234.375,40.039,38.574,-10.254,50.781,0
3871.076,-163.086,36.133,32.715,-1.465,37.598,0
3871.080,235.840,31.738,27.832,58.105,22.461,0
3871.084,253.906,36.133,34.180,55.664,34.668,0
3871.088,-145.996,42.969,38.574,-18.066,48.340,0
3871.092,-235.352,43.945,36.621,-34.180,0.000,0
3871.096,142.578,33.203,34.180,44.434,-40.039,0
3871.100,317.383,31.250,32.715,80.566,5.371,0
3871.104,-51.270,40.527,38.574,4.883,48.340,0
3871.108,-281.738,42.480,38.086,-43.945,37.109,0
3871.111,10.254,36.621,29.785,20.020,43.945,0
3871.115,322.754,27.832,23.926,73.730,9.766,0
3871.119,79.102,35.645,32.715,24.902,20.020,0
3871.123,-269.043,46.387,41.992,-34.668,45.898,0
3871.127,-94.238,39.062,35.156,-9.277,12.207,0
3871.131,293.457,29.785,29.297,62.500,44.922,0
3871.135,174.316,31.738,35.156,53.711,49.805,0
3871.139,-229.492,37.598,42.480,-23.926,13.672,0
3871.143,-174.805,31.738,39.062,-20.996,45.898,0
3871.147,215.332,22.949,26.855,57.129,60.547,0
3871.151,267.090,25.879,27.344,69.336,63.965,0
3871.154,-120.117,34.668,39.551,-12.207,28.320,0
3871.158,-247.559,35.156,39.551,-34.668,-61.523,0
3871.162,105.957,27.832,33.691,36.621,-29.785,0
3871.166,323.242,26.367,34.180,79.102,0.977,0
3871.170,-4.883,33.691,38.086,12.695,22.949,0
3871.174,-273.926,34.668,40.527,-38.574,64.941,0
3871.178,-1.465,30.762,36.621,9.277,33.691,0
3871.182,333.496,28.320,31.250,68.359,20.996,0
3871.186,99.121,33.691,38.086,39.062,20.020,0
3871.190,-270.020,36.621,43.945,-34.668,0.488,0
3871.193,-119.141,29.297,36.621,-20.996,28.320,0
3871.197,280.762,24.902,28.320,59.082,11.719,0
3871.201,209.473,32.227,35.156,58.594,59.570,0
3871.205,-205.566,41.992,47.852,-11.719,43.457,0
3871.209,-206.543,38.086,41.992,-19.043,18.555,0
3871.213,187.988,26.855,33.203,41.992,52.734,0
3871.217,279.297,28.320,37.598,63.965,78.613,0
3871.221,-114.258,41.016,44.922,0.000,66.406,0
3871.225,-272.949,41.992,45.898,-32.227,-8.789,0
3871.229,74.707,31.250,37.109,29.297,19.531,0
3871.233,324.707,29.297,35.156,71.777,66.406,0
3871.236,11.719,38.086,41.992,21.484,27.344,0
3871.240,-292.480,42.480,47.363,-27.344,61.035,0
3871.244,-50.781,37.109,38.086,8.301,55.664,0
3871.248,321.777,34.180,28.809,73.242,44.922,0
3871.252,128.418,41.504,38.086,39.551,67.383,0
3871.256,-273.926,43.945,44.434,-31.250,35.156,0
3871.260,-151.367,41.992,36.621,-15.137,-28.320,0
3871.264,266.113,35.645,26.855,63.965,8.789,0
3871.268,239.258,38.086,28.809,67.871,45.898,0
3871.272,-187.988,47.852,39.551,-12.695,20.996,0
3871.276,-233.887,43.457,38.086,-33.203,37.598,0
3871.279,161.133,39.551,28.320,38.574,4.395,0
3871.283,299.805,38.574,28.809,72.266,43.457,0
3871.287,-71.777,40.039,35.156,7.324,103.027,0
3871.291,-270.020,41.992,35.156,-31.738,-1.465,0
3871.295,33.203,36.621,25.879,11.230,-22.949,0
3871.299,316.406,36.621,24.414,71.289,41.016,0
3871.303,42.969,44.434,34.180,29.785,14.160,0
3871.307,-285.645,45.410,36.133,-46.875,13.672,0
3871.311,-75.195,38.086,27.832,-5.371,37.109,0
3871.315,310.059,32.715,23.438,71.777,32.227,0
3871.318,158.203,38.086,32.227,42.969,70.801,0
3871.322,-240.234,45.410,43.457,-33.203,63.477,0
3871.326,-160.156,41.992,40.039,-15.625,44.434,0
3871.330,232.910,33.691,31.738,65.430,44.434,0
3871.334,231.934,36.621,35.156,69.824,-0.488,0
3871.338,-171.875,45.898,41.504,-7.812,-18.555,0
3871.342,-237.793,45.898,38.574,-24.414,72.754,0
3871.346,143.555,40.527,28.809,48.828,57.617,0
3871.350,317.871,39.551,24.902,79.102,14.160,0
3871.354,-42.969,47.363,33.691,16.602,8.301,0
3871.358,-278.320,47.363,39.062,-33.203,26.367,0
3871.361,15.625,41.016,35.645,15.137,92.773,0
3871.365,328.125,38.574,32.715,81.055,51.758,0
3871.369,77.148,39.551,37.109,31.250,9.277,0
3871.373,-268.066,44.922,40.527,-37.109,-14.648,0
3871.377,-85.449,38.574,32.715,-7.812,6.348,0
3871.381,299.316,33.691,29.785,69.824,46.875,0
3871.385,181.641,43.457,38.574,57.129,89.355,0
3871.389,-227.539,46.875,44.434,-23.926,22.949,0
3871.393,-181.641,37.109,40.527,-16.602,-2.441,0
3871.397,214.355,30.762,27.832,51.270,83.008,0
3871.401,269.531,39.551,29.785,62.988,62.500,0
3871.404,-133.789,45.410,44.922,-0.977,2.930,0
3871.408,-263.672,41.504,42.969,-30.762,15.625,0
3871.412,103.516,37.109,33.203,22.461,15.625,0
3871.416,318.848,34.180,28.320,59.570,37.109,0
3871.420,-17.090,44.922,37.598,8.301,40.527,0
3871.424,-282.715,47.363,43.457,-39.551,39.551,0
3871.428,-1.465,36.621,32.715,1.953,61.523,0
3871.432,328.613,33.203,29.297,68.359,10.254,0
3871.436,87.891,38.574,36.621,25.879,30.762,0
3871.440,-266.113,43.457,41.992,-46.387,38.574,0
3871.443,-102.051,40.527,40.039,-13.672,-6.348,0
3871.447,285.156,33.691,32.715,50.781,33.203,0
3871.451,202.637,39.062,34.668,38.574,43.945,0
3871.455,-202.148,44.434,42.480,-38.574,-9.766,0
3871.459,-199.707,40.527,37.598,-51.758,-12.207,0
3871.463,194.336,35.645,27.344,20.020,11.719,0
3871.467,285.156,35.156,24.902,34.668,39.062,0
3871.471,-110.840,42.969,34.180,-31.738,41.504,0
3871.475,-269.043,42.969,37.598,-61.035,16.602,1
3871.479,70.312,32.715,31.250,-0.488,45.898,0
3871.483,318.359,31.738,28.320,53.711,62.500,0
3871.486,11.719,41.016,37.598,4.883,41.992,0
3871.490,-285.156,40.527,40.039,-46.875,14.648,0
3871.494,-40.039,31.738,31.250,-7.324,16.602,0
3871.498,315.430,26.367,29.785,54.688,38.574,0
3871.502,121.094,32.715,40.039,28.320,57.617,0
3871.506,-269.531,37.598,46.875,-37.598,65.430,0
3871.510,-152.344,35.645,39.062,-23.926,43.945,0
3871.514,263.672,32.227,28.809,52.246,10.254,0
3871.518,223.145,34.180,31.250,51.758,-22.461,0
3871.522,-196.777,43.457,43.945,-21.484,-9.277,0
3871.526,-222.656,41.016,43.457,-32.227,42.969,0
3871.529,160.156,31.250,31.250,33.691,26.367,0
3871.533,289.062,32.715,30.762,62.988,14.160,0
3871.537,-81.055,42.480,37.109,1.465,-6.836,0
3871.541,-266.602,45.898,40.039,-31.738,-35.156,0
3871.545,53.223,37.109,32.227,16.113,20.996,0
3871.549,333.008,30.273,25.879,70.312,56.641,0
3871.553,38.574,35.645,36.133,26.855,56.641,0
3871.557,-292.480,41.016,37.109,-38.574,60.059,0
3871.561,-61.523,40.039,29.297,-9.277,57.129,0
3871.565,316.895,34.180,28.809,60.547,64.453,0
3871.568,150.391,33.203,33.203,33.691,40.527,0
3871.572,-246.582,37.109,39.551,-46.387,5.859,0
3871.576,-165.527,32.715,35.645,-24.414,14.648,0
3871.580,237.793,27.832,30.762,48.828,42.480,0
3871.584,242.188,33.691,35.156,45.898,41.992,0
3871.588,-175.781,36.621,41.992,-19.043,58.105,0
3871.592,-235.352,36.133,41.504,-25.391,16.113,0
3871.596,142.578,33.691,36.133,46.387,-2.930,0
3871.600,304.199,31.250,37.109,70.801,66.406,0
3871.604,-41.504,41.504,45.898,10.742,2.930,0
3871.608,-280.273,40.039,43.457,-34.180,1.953,0
3871.611,13.184,27.344,34.668,10.742,14.648,0
3871.615,328.125,26.855,30.273,73.242,-16.602,0
3871.619,76.172,36.621,40.527,41.504,-33.203,0
3871.623,-267.090,38.086,46.387,-15.625,7.812,0
3871.627,-89.355,33.691,34.668,0.000,68.359,0
3871.631,295.410,29.785,26.855,63.477,101.074,0
3871.635,173.340,34.180,31.250,45.410,29.785,0
3871.639,-233.887,41.992,39.551,-22.949,-35.156,0
3871.643,-184.082,39.062,37.598,-17.090,26.367,0
3871.647,228.516,32.227,27.344,54.688,25.391,0
3871.651,276.855,34.180,27.344,70.801,-20.996,0
3871.654,-130.859,42.969,37.109,7.324,22.461,0
3871.658,-236.816,41.992,40.527,-17.090,58.105,0
3871.662,116.699,33.203,35.156,43.457,9.766,0
3871.666,316.406,28.320,30.762,77.148,19.531,0
3871.670,-27.832,31.250,36.133,11.230,12.695,0
3871.674,-294.434,32.227,40.039,-32.715,-19.531,0
3871.678,-15.625,23.438,31.738,11.719,11.230,0
3871.682,328.613,20.508,24.902,67.871,34.668,0
3871.686,96.191,29.785,30.762,32.715,26.855,0
3871.690,-276.855,37.109,37.109,-36.621,0.000,0
3871.693,-117.676,31.250,29.785,-17.090,2.441,0
3871.697,282.227,23.438,21.484,55.664,31.738,0
3871.701,197.754,35.156,36.621,58.594,38.086,0
3871.705,-218.750,44.434,44.922,-8.301,1.465,0
3871.709,-209.961,36.133,30.762,-27.832,2.441,0
3871.713,190.918,30.273,22.461,23.926,37.598,0
3871.717,284.668,29.785,28.320,52.246,72.754,0
3871.721,-109.863,36.133,45.410,-2.930,35.645,0
3871.725,-269.531,36.133,46.387,-34.668,-9.277,0
3871.729,69.824,28.320,34.180,26.367,18.066,0
3871.733,317.871,28.320,31.250,79.590,28.320,0
3871.736,5.859,36.621,39.062,27.344,26.367,0
3871.740,-289.551,39.551,44.922,-36.133,54.688,0
3871.744,-42.480,31.738,37.598,-5.371,44.922,0
3871.748,312.988,24.902,31.250,67.383,40.527,0
3871.752,115.723,32.715,38.086,43.945,94.727,0
3871.756,-266.113,38.574,44.922,-30.273,73.730,0
3871.760,-145.996,36.621,40.527,-4.395,3.906,0
3871.764,265.137,29.785,33.203,73.242,30.273,0
3871.768,224.609,30.273,36.621,57.129,71.289,0
3871.772,-191.895,37.109,45.898,-16.113,37.598,0
3871.776,-215.820,32.715,41.504,-30.273,-12.207,0
3871.779,168.945,25.391,32.227,42.480,-24.902,0
3871.783,291.016,28.320,35.645,80.078,-4.883,0
3871.787,-80.566,36.621,44.434,7.812,42.480,0
3871.791,-266.602,32.227,43.457,-34.180,88.379,0
3871.795,62.012,26.367,34.180,15.137,60.059,0
3871.799,348.145,28.809,27.832,66.406,12.207,0
3871.803,48.828,38.086,39.062,23.926,3.906,0
3871.807,-286.133,41.016,41.992,-32.227,34.668,0
3871.811,-58.594,31.738,36.133,3.418,54.688,0
3871.815,310.547,25.391,34.180,71.777,44.434,0
3871.818,135.254,32.227,38.574,44.922,38.574,0
3871.822,-254.883,41.016,47.363,-17.578,20.996,0
3871.826,-157.715,36.133,40.039,-10.254,-8.789,0
3871.830,252.930,24.902,22.949,61.035,6.836,0
3871.834,242.188,27.344,23.438,66.895,59.570,0
3871.838,-181.152,35.156,33.203,-18.066,53.223,0
3871.842,-239.258,35.645,34.180,-28.320,-26.367,0
3871.846,142.090,28.809,24.414,36.133,-42.480,0
3871.850,299.805,28.809,23.926,64.453,18.555,0
3871.854,-58.594,35.645,35.156,13.184,32.715,0
3871.858,-276.855,35.645,38.574,-30.273,14.160,0
3871.861,19.043,35.156,30.762,12.207,5.859,0
3871.865,322.754,34.180,26.855,71.289,24.414,0
3871.869,64.941,37.598,31.738,21.973,45.410,0
3871.873,-271.973,41.016,37.598,-43.457,39.551,0
3871.877,-78.125,34.668,34.180,-18.066,40.527,0
3871.881,308.105,28.320,27.832,54.688,71.289,0
3871.885,174.316,30.762,35.156,42.969,47.852,0
3871.889,-239.746,35.645,39.062,-34.668,8.301,0
3871.893,-178.711,32.227,32.715,-18.555,-27.344,0
3871.897,224.609,25.879,24.902,42.480,8.789,0
3871.901,265.137,31.250,28.320,45.898,59.082,0
3871.904,-138.672,41.504,40.039,-9.766,41.016,0
3871.908,-248.047,44.434,39.062,-32.227,-8.301,0
3871.912,115.234,36.621,30.273,29.297,-2.441,0
3871.916,320.801,32.715,30.273,73.242,43.945,0
3871.920,-16.113,40.039,41.992,20.996,53.223,0
3871.924,-280.273,41.992,44.922,-27.344,87.891,0
3871.928,9.277,35.645,35.645,16.602,53.711,0
3871.932,349.121,31.738,30.273,80.566,8.789,0
3871.936,117.188,40.039,37.109,43.945,-5.371,0
3871.940,-257.324,44.922,44.434,-23.926,13.672,0
3871.943,-113.281,37.598,39.551,-9.766,28.320,0
3871.947,291.016,28.809,30.273,60.547,-18.555,0
3871.951,198.242,32.715,33.691,59.570,-16.602,0
3871.955,-226.074,42.480,41.992,-26.367,41.016,0
3871.959,-204.590,37.109,35.156,-22.949,59.082,0
3871.963,200.195,28.809,24.902,54.199,34.668,0
3871.967,274.414,31.250,28.809,61.523,29.785,0
3871.971,-132.324,39.551,39.062,-10.742,14.648,0
3871.975,-272.949,39.551,40.527,-35.645,-7.324,0
3871.979,83.984,32.227,35.156,24.414,27.344,0
3871.983,317.383,34.180,35.645,61.035,62.988,0
3871.986,2.930,43.457,42.969,14.160,48.340,0
3871.990,-273.926,41.504,46.875,-39.551,43.457,0
3871.994,-22.949,35.156,39.551,6.348,15.625,0
3871.998,326.172,31.738,33.203,73.730,19.043,0
3872.002,121.582,38.086,41.016,41.504,6.836,0
3872.006,-263.184,42.480,43.945,-24.902,-10.742,0
3872.010,-136.230,35.156,36.133,0.000,-3.418,0
3872.014,265.137,29.297,26.855,66.895,32.715,0
3872.018,216.797,35.156,31.250,53.711,31.738,0
3872.022,-187.988,42.969,42.969,-6.348,26.855,0
3872.026,-208.984,42.969,42.969,-16.113,42.480,0
3872.029,166.016,33.203,33.203,45.410,-25.391,0
3872.033,286.621,30.273,37.109,72.266,10.742,0
3872.037,-91.309,37.598,44.922,5.371,45.410,0
3872.041,-275.879,38.086,43.457,-23.438,1.465,0
3872.045,47.852,33.691,37.109,23.438,4.395,0
3872.049,320.312,33.203,32.227,70.312,-4.883,0
3872.053,39.551,41.504,41.016,30.273,6.348,0
3872.057,-283.203,43.945,43.945,-37.109,14.648,0
3872.061,-52.734,37.109,40.039,0.488,1.953,1
3872.065,333.496,31.738,36.133,69.824,20.508,0
3872.068,152.344,37.109,40.527,50.293,26.367,0
3872.072,-259.766,41.992,45.410,-23.438,62.988,0
3872.076,-159.668,38.086,39.062,-14.648,10.254,0
3872.080,251.465,36.621,32.227,54.688,-49.316,0
3872.084,242.676,41.016,35.645,54.199,-10.742,0
3872.088,-173.340,45.898,43.457,-16.602,15.137,0
3872.092,-232.910,42.480,41.016,-35.156,-24.414,0
3872.096,146.484,36.621,30.273,35.156,48.340,0
3872.100,302.246,41.504,30.273,75.684,120.117,0
3872.104,-55.176,53.711,44.922,7.812,57.129,0
3872.108,-275.879,48.340,44.922,-40.039,38.574,0
3872.111,31.250,36.133,35.645,14.160,0.000,0
3872.115,334.961,36.621,30.762,76.660,29.785,0
3872.119,66.406,47.363,38.574,30.762,65.430,0
3872.123,-269.043,52.246,46.875,-35.156,-23.926,0
3872.127,-65.430,41.992,37.109,-2.930,13.672,0
3872.131,313.477,32.715,25.391,58.105,53.711,0
3872.135,169.434,38.086,33.691,41.504,25.879,0
3872.139,-240.234,43.945,40.039,-28.809,67.383,0
3872.143,-184.570,40.039,35.645,-28.809,62.012,0
3872.147,222.168,32.227,30.273,50.293,41.992,0
3872.151,258.301,33.691,31.250,60.547,40.039,0
3872.154,-157.227,40.039,38.086,-8.301,13.672,0
3872.158,-251.465,37.598,37.598,-19.043,10.742,0
3872.162,124.023,33.203,30.762,32.715,28.809,0
3872.166,309.570,32.227,26.855,69.336,57.617,0
3872.170,-27.832,39.062,36.133,17.578,33.203,0
3872.174,-266.113,40.039,38.086,-32.715,24.414,0
3872.178,4.395,32.715,26.855,17.090,27.832,0
3872.182,327.637,31.250,28.320,77.637,42.480,0
3872.186,100.586,37.598,39.551,43.457,92.285,0
3872.190,-262.695,36.621,43.457,-22.461,32.715,0
3872.193,-102.539,29.785,38.574,1.465,0.488,0
3872.197,298.340,27.344,26.367,67.383,81.055,0
3872.201,207.520,34.180,29.785,57.129,89.355,0
3872.205,-210.449,39.062,42.480,-9.277,6.836,0
3872.209,-192.383,35.156,39.551,-19.531,-18.066,0
3872.213,203.125,29.297,33.691,48.828,67.383,0
3872.217,275.391,34.180,40.527,72.266,80.566,0
3872.221,-113.281,45.898,48.340,-0.488,26.367,0
3872.225,-257.812,42.969,46.387,-33.203,28.809,0
3872.229,83.008,32.227,34.180,25.879,68.359,0
3872.233,316.406,30.762,32.227,74.219,32.227,0
3872.236,2.441,40.527,44.434,31.250,-36.133,0
3872.240,-277.344,41.504,48.340,-22.949,-45.410,0
3872.244,-32.227,29.297,36.621,7.324,-4.395,0
3872.248,322.266,24.414,29.785,73.730,38.086,0
3872.252,132.812,36.133,36.621,49.316,41.016,0
3872.256,-249.512,44.922,42.969,-21.484,18.555,0
3872.260,-123.047,38.086,40.039,-15.137,0.977,0
3872.264,277.832,30.762,30.762,48.828,59.570,0
3872.268,223.633,33.203,33.691,49.316,136.230,0
3872.272,-189.453,42.480,42.480,-21.973,22.949,0
3872.276,-209.961,40.039,38.574,-12.207,-49.805,0
3872.279,166.992,27.832,38.086,45.410,20.996,0
3872.283,284.180,25.879,44.922,67.383,-8.301,0
3872.287,-90.820,32.715,45.410,10.254,-4.395,0
3872.291,-274.414,34.180,40.039,-38.574,38.574,0
3872.295,62.012,29.297,32.715,20.996,36.621,0
3872.299,336.426,25.879,31.250,80.566,27.344,0
3872.303,40.527,39.062,43.457,34.668,63.965,0
3872.307,-265.625,46.387,48.340,-32.227,13.672,0
3872.311,-42.969,34.668,35.156,-1.953,2.930,0
3872.315,300.781,29.297,26.855,66.895,30.762,0
3872.318,116.211,36.133,39.062,52.246,-39.062,0
3872.322,-270.508,40.527,46.387,-15.625,13.672,0
3872.326,-166.016,35.645,38.574,-4.395,31.738,0
3872.330,231.934,29.785,32.715,71.289,76.172,0
3872.334,219.727,33.203,36.133,61.035,81.055,0
3872.338,-189.453,38.574,40.039,-20.508,-2.930,0
3872.342,-247.070,36.621,42.480,-25.879,36.621,0
3872.346,141.602,29.785,36.621,41.504,38.086,0
3872.350,298.340,27.344,29.297,68.848,25.879,0
3872.354,-72.754,36.133,38.086,9.766,57.129,0
3872.358,-282.715,37.109,41.992,-33.203,29.297,0
3872.361,35.156,29.785,34.180,10.254,-2.930,0
3872.365,316.406,26.367,32.715,66.406,22.949,0
3872.369,39.551,31.738,41.992,28.320,31.738,0
3872.373,-277.832,35.645,47.363,-34.180,5.371,0
3872.377,-71.777,31.250,38.574,-2.441,48.828,0
3872.381,304.199,21.973,30.762,71.289,72.754,0
3872.385,158.691,25.391,33.691,44.434,39.062,0
3872.389,-250.488,36.133,40.039,-36.133,54.688,0
3872.393,-182.129,34.668,39.062,-20.508,34.180,0
3872.397,221.680,25.879,31.250,43.457,29.785,0
3872.401,243.652,33.691,34.180,51.758,22.461,0
3872.404,-154.785,43.945,43.945,-6.836,47.852,0
3872.408,-236.816,35.645,39.551,-29.297,43.457,0
3872.412,118.652,27.344,29.297,35.156,-16.602,0
3872.416,299.316,29.297,29.785,75.195,-8.789,0
3872.420,-27.832,41.016,40.527,8.301,-21.484,0
3872.424,-271.484,42.969,44.922,-43.457,14.648,0
3872.428,0.000,38.086,34.668,7.324,71.777,0
3872.432,320.312,38.086,27.832,69.336,38.574,0
3872.436,84.473,40.039,35.156,40.039,36.621,0
3872.440,-268.066,46.387,44.434,-29.297,14.648,0
3872.443,-97.168,43.945,44.434,-10.254,-1.953,0
3872.447,303.711,34.180,34.668,71.289,2.441,0
3872.451,196.777,37.109,35.645,61.035,15.137,0
3872.455,-234.375,42.480,44.434,-24.902,39.062,0
3872.459,-201.172,39.062,42.969,-35.645,31.738,0
3872.463,209.473,34.180,35.156,43.457,11.230,0
3872.467,269.531,37.598,35.645,66.895,-30.762,0
3872.471,-116.211,49.805,47.852,-4.883,-7.812,0
3872.475,-238.770,49.316,48.340,-20.996,25.391,0
3872.479,106.934,41.016,35.156,45.410,-16.113,0
3872.483,332.520,44.922,35.156,74.707,-24.414,0
3872.486,2.441,51.758,46.875,18.555,4.395,0
3872.490,-276.855,49.316,46.875,-34.180,25.879,0
3872.494,-16.602,40.527,36.133,5.371,17.578,0
3872.498,324.219,33.203,27.832,70.801,12.695,0
3872.502,112.793,39.551,36.621,46.875,41.016,0
3872.506,-263.672,43.457,42.480,-39.062,30.762,0
3872.510,-124.512,37.598,34.180,-27.344,20.508,0
3872.514,278.320,29.785,26.855,58.594,45.898,0
3872.518,211.914,33.691,33.691,57.129,27.832,0
3872.522,-199.707,42.969,43.457,-19.043,21.973,0
3872.526,-207.031,40.039,34.180,-29.297,38.086,0
3872.529,188.965,30.762,23.926,49.316,24.414,0
3872.533,299.805,32.227,27.344,73.730,97.656,0
3872.537,-88.379,41.504,35.645,-1.465,39.551,0
3872.541,-260.254,43.457,38.574,-33.203,-5.859,0
3872.545,72.754,38.574,28.809,27.344,40.527,0
3872.549,328.613,31.738,21.973,71.289,2.441,0
3872.553,27.832,36.621,28.809,30.762,-6.348,0
3872.557,-274.902,40.527,33.691,-31.738,-21.484,0
3872.561,-45.898,35.645,28.809,-3.418,4.395,0
3872.565,309.570,30.273,23.438,73.242,75.195,0
3872.568,130.859,32.715,28.320,43.945,14.160,0
3872.572,-255.859,38.086,34.668,-30.762,42.969,0
3872.576,-145.020,38.574,27.832,-25.391,68.848,0
3872.580,260.254,34.180,20.508,55.664,-2.930,0
3872.584,235.840,36.621,30.762,73.730,-30.762,0
3872.588,-175.781,41.016,38.086,-13.672,-28.809,0
3872.592,-227.051,37.109,33.691,-27.344,43.457,0
3872.596,145.020,31.738,25.391,44.922,52.734,0
3872.600,300.293,31.738,25.391,71.777,36.133,0
3872.604,-65.918,37.598,35.645,21.973,32.715,0
3872.608,-279.785,38.086,34.668,-9.277,59.082,0
3872.611,46.387,32.715,28.320,28.809,80.078,0
3872.615,347.168,28.809,27.832,81.055,25.879,0
3872.619,66.406,34.180,37.598,54.199,-15.137,0
3872.623,-279.785,39.062,46.387,-6.348,-13.672,0
3872.627,-66.406,32.227,39.551,11.719,70.312,0
3872.631,315.430,25.879,26.855,75.195,101.562,0
3872.635,157.227,31.738,32.227,59.082,19.043,0
3872.639,-247.559,37.598,42.969,-13.184,-18.555,0
3872.643,-170.898,35.645,38.574,-9.277,-15.137,0
3872.647,233.887,26.855,28.320,61.035,5.371,0
3872.651,251.953,30.273,29.785,77.148,87.402,0
3872.654,-154.785,39.062,41.016,9.277,53.711,0
3872.658,-238.281,38.574,40.527,-10.742,-0.977,0
3872.662,134.277,33.691,35.645,51.270,12.207,0
3872.666,315.430,30.762,35.645,86.426,31.250,0
3872.670,-38.574,36.133,39.551,26.855,40.039,0
3872.674,-284.180,39.551,40.527,-27.344,36.133,0
3872.678,12.207,32.715,30.762,15.625,52.734,0
3872.682,334.473,25.879,27.832,81.055,62.012,0
3872.686,87.891,36.133,40.527,50.781,57.129,0
3872.690,-274.414,41.992,44.922,-25.391,35.645,0
3872.693,-99.121,34.180,34.180,0.977,25.879,0
3872.697,292.480,30.273,27.832,77.148,-19.531,0
3872.701,190.430,38.086,33.203,64.453,-39.551,0
3872.705,-225.098,42.969,41.016,-10.742,11.230,0
3872.709,-195.801,39.062,36.133,-14.160,35.156,0
3872.713,198.242,30.762,26.855,52.734,24.902,0
3872.717,248.047,31.250,29.785,67.871,7.324,0
3872.721,-149.902,41.992,40.527,6.348,-6.836,2
3872.725,-266.602,39.551,38.086,-25.391,16.113,0
3872.729,99.609,33.203,27.344,33.203,50.293,0
3872.733,318.359,32.715,24.414,73.242,82.031,0
3872.736,-3.906,39.062,33.691,11.230,21.973,0
3872.740,-281.738,44.434,40.039,-27.344,-51.270,0
3872.744,-35.645,37.109,30.273,11.719,11.719,0
3872.748,302.246,27.344,21.484,69.824,74.219,0
3872.752,92.285,34.668,32.227,47.852,27.344,0
3872.756,-279.785,41.016,40.527,-0.977,18.066,0
3872.760,-133.789,36.133,32.227,8.789,17.090,0
3872.764,276.855,32.227,19.043,46.387,39.062,0
3872.768,211.914,34.180,23.438,43.457,84.961,0
3872.772,-208.008,39.062,37.598,-20.508,72.266,0
3872.776,-210.449,35.156,39.062,-23.926,53.223,0
3872.779,183.594,31.250,32.715,49.316,36.621,0
3872.783,297.852,37.598,36.133,76.660,5.859,0
3872.787,-88.867,43.945,42.480,9.277,9.277,0
3872.791,-268.066,38.086,40.527,-25.391,-4.883,0
3872.795,87.402,28.320,32.715,34.180,-12.207,0
3872.799,347.168,32.715,31.250,79.102,26.367,0
3872.803,24.414,42.969,39.062,29.297,63.477,0
3872.807,-286.133,44.434,40.039,-19.531,57.617,0
3872.811,-53.711,37.109,32.227,11.230,44.434,0
3872.815,313.965,30.762,26.855,76.660,59.570,0
3872.818,137.207,37.109,36.133,59.570,80.078,0
3872.822,-249.023,44.922,46.875,-15.625,81.055,0
3872.826,-130.859,39.062,40.039,-1.953,32.715,0
3872.830,282.715,31.738,26.855,76.660,-2.441,0
3872.834,250.488,38.574,31.738,77.637,28.320,0
3872.838,-173.828,45.898,42.969,16.602,23.438,0
3872.842,-210.938,43.945,42.480,3.418,16.602,0
3872.846,168.457,37.598,33.691,56.641,22.461,0
3872.850,300.781,36.621,29.297,85.938,42.480,0
3872.854,-62.988,42.969,38.574,22.949,42.969,0
3872.858,-263.184,41.992,44.434,-13.184,7.812,0
3872.861,52.246,35.156,38.574,42.480,-33.691,0
3872.865,334.961,35.156,32.715,87.402,8.789,0
3872.869,55.176,40.527,41.016,38.574,26.855,0
3872.873,-264.160,45.410,45.898,-26.367,11.230,0
3872.877,-63.965,39.062,36.621,3.418,73.730,0
3872.881,301.758,30.762,32.227,75.684,76.660,0
3872.885,161.621,35.156,38.086,52.246,99.609,0
3872.889,-225.098,39.062,44.922,-9.766,49.316,0
3872.893,-161.621,39.551,40.039,-9.766,60.547,0
3872.897,220.703,37.598,25.879,44.922,72.266,0
3872.901,241.211,38.086,27.832,54.688,48.340,0
3872.904,-156.250,46.387,37.598,-17.090,83.008,0
3872.908,-247.070,45.410,34.668,-24.902,73.730,0
3872.912,120.605,36.621,27.344,42.969,54.688,0
3872.916,312.988,34.668,26.367,67.871,15.625,0
3872.920,-38.574,42.480,35.645,4.883,23.438,0
3872.924,-290.039,42.480,39.062,-37.598,36.621,0
3872.928,0.000,35.156,28.809,9.277,-8.789,0
3872.932,323.730,35.156,23.926,62.012,14.648,0
3872.936,84.473,43.457,34.668,37.598,31.738,0
3872.940,-266.602,46.875,38.574,-24.902,12.207,0
3872.943,-99.121,39.062,35.156,-2.441,48.828,0
3872.947,289.062,30.273,26.855,70.801,42.480,0
3872.951,176.758,34.668,28.320,57.617,55.176,0
3872.955,-224.121,45.410,37.109,-14.648,45.410,0
3872.959,-181.152,41.504,31.738,-2.930,-11.230,0
3872.963,211.914,30.762,24.414,69.824,29.297,0
3872.967,275.879,33.691,26.367,81.055,48.340,0
3872.971,-130.371,42.969,37.109,11.719,12.695,0
3872.975,-264.160,38.086,34.180,-19.043,-34.180,0
3872.979,104.004,28.809,26.367,42.480,-23.438,0
3872.983,332.520,28.320,31.738,84.473,43.945,0
3872.986,-4.395,40.039,41.504,29.785,30.762,0
3872.990,-284.668,44.434,42.969,-28.809,20.508,0
3872.994,-16.602,37.109,34.668,6.836,32.715,0
3872.998,321.289,32.227,25.879,71.777,49.316,0
3873.002,116.211,40.527,33.203,38.574,57.617,0
3873.006,-256.836,49.805,41.016,-37.109,73.242,0
3873.010,-119.629,41.992,33.691,-16.113,75.195,0
3873.014,289.551,32.715,25.879,64.941,10.742,0
3873.018,218.262,39.551,27.832,51.758,9.277,0
3873.022,-205.566,48.340,36.621,-21.973,30.762,0
3873.026,-214.844,40.527,36.621,-18.066,69.336,0
3873.029,189.453,33.691,32.227,45.898,59.082,0
3873.033,291.016,35.645,37.598,62.012,11.719,0
3873.037,-106.445,37.598,41.992,-4.395,37.109,0
3873.041,-263.184,37.598,38.574,-37.598,76.172,0
3873.045,80.078,33.203,28.809,20.996,52.734,0
3873.049,323.242,26.855,23.926,59.082,20.508,0
3873.053,22.949,33.691,34.668,15.137,0.488,0
3873.057,-276.367,38.574,41.992,-30.762,-26.367,0
3873.061,-40.039,34.668,35.645,-5.371,24.902,0
3873.065,326.660,36.621,35.645,69.824,66.895,0
3873.068,133.789,40.039,42.480,49.805,9.277,0
3873.072,-254.883,41.504,44.922,-22.461,-11.230,0
3873.076,-146.484,39.062,40.039,-8.789,14.160,0
3873.080,251.953,34.180,34.668,50.781,56.641,0
3873.084,228.027,40.039,38.574,52.246,88.379,0
3873.088,-179.688,47.852,45.410,-10.742,16.602,0
3873.092,-224.121,43.945,46.875,-15.137,-17.578,0
3873.096,167.480,35.156,39.062,57.129,-29.297,0
3873.100,307.129,34.668,36.133,73.730,31.250,0
3873.104,-62.988,46.387,44.434,-2.930,44.922,0
3873.108,-260.742,45.410,41.992,-42.969,-8.789,0
3873.111,54.199,37.598,34.668,14.160,9.766,0
3873.115,338.379,36.133,35.156,73.242,9.277,0
3873.119,50.781,41.504,44.434,32.227,43.457,0
3873.123,-276.367,43.945,47.363,-29.785,49.316,0
3873.127,-69.336,38.574,40.039,-4.395,18.066,0
3873.131,309.570,32.715,34.668,64.941,20.508,0
3873.135,156.738,38.086,41.016,46.387,27.832,0
3873.139,-245.117,45.898,47.852,-28.809,2.930,0
3873.143,-156.738,41.016,42.480,-19.043,6.836,0
3873.147,248.535,36.621,36.133,53.711,5.859,0
3873.151,249.023,40.039,40.527,70.801,9.277,0
3873.154,-156.738,46.875,47.852,-0.488,62.988,0
3873.158,-229.004,42.969,46.875,-30.273,50.293,0
3873.162,150.391,35.156,41.504,34.180,30.762,0
3873.166,319.824,36.133,38.086,67.871,11.230,0
3873.170,-45.410,43.945,43.945,-2.441,-12.695,0
3873.174,-275.879,43.945,46.387,-44.922,38.086,0
3873.178,23.438,35.645,34.668,15.137,84.961,0
3873.182,338.379,36.133,30.273,69.336,41.504,0
3873.186,80.566,47.852,39.062,23.926,31.250,0
3873.190,-274.414,48.828,41.504,-44.434,26.855,0
3873.193,-92.773,36.133,31.738,-20.508,-33.203,0
3873.197,304.688,27.344,23.926,56.152,20.996,0
3873.201,181.152,34.180,31.250,48.828,61.523,0
3873.205,-235.352,39.551,38.086,-37.598,76.660,0
3873.209,-176.758,38.574,32.227,-39.062,57.617,0
3873.213,213.379,31.738,26.367,35.645,-19.531,0
3873.217,260.254,30.273,30.273,59.082,7.324,0
3873.221,-124.512,40.039,43.457,-0.488,-9.277,0
3873.225,-249.023,40.527,43.457,-40.527,-24.902,0
3873.229,97.168,31.250,31.738,18.066,48.828,0
3873.233,312.012,27.344,30.762,62.500,49.805,0
3873.236,-15.137,34.668,36.621,2.441,-15.137,0
3873.240,-275.391,37.109,40.039,-48.828,7.812,0
3873.244,-12.695,30.273,33.691,-6.836,42.480,0
3873.248,316.895,25.879,23.438,59.082,29.297,0
3873.252,102.539,34.180,29.785,39.062,31.738,0
3873.256,-252.930,40.527,38.574,-35.156,31.738,0
3873.260,-104.492,37.109,33.691,-25.391,8.789,0
3873.264,282.715,33.691,27.344,51.270,32.227,0
3873.268,203.613,37.109,30.762,43.945,13.672,0
3873.272,-197.754,43.457,42.480,-27.832,-9.766,1
3873.276,-195.801,36.133,39.062,-32.715,63.477,0
3873.279,178.711,27.344,28.320,37.598,52.246,0
3873.283,269.531,31.250,31.250,68.848,80.566,0
3873.287,-119.629,40.527,42.969,-3.906,70.801,0
3873.291,-261.719,38.574,44.434,-46.387,26.855,0
3873.295,84.473,30.273,33.691,19.043,45.410,0
3873.299,325.195,30.273,32.715,64.941,10.254,0
3873.303,17.090,38.086,41.016,5.859,48.340,0
3873.307,-275.879,42.480,37.598,-54.199,70.801,0
3873.311,-27.344,34.180,30.273,-10.742,45.898,0
3873.315,321.289,28.320,25.879,64.453,71.777,0
3873.318,124.023,31.738,30.762,34.180,36.133,0
3873.322,-256.836,41.504,41.016,-41.504,72.266,0
3873.326,-130.371,33.691,35.645,-21.973,49.316,0
3873.330,279.297,26.367,29.297,57.617,24.414,0
3873.334,238.770,33.691,35.156,57.617,50.293,0
3873.338,-187.500,39.062,44.922,-15.137,11.719,0
3873.342,-226.074,40.039,45.410,-21.973,1.465,0
3873.346,166.016,36.621,34.180,49.805,-13.184,0
3873.350,296.875,35.156,28.320,64.453,4.883,0
3873.354,-84.961,40.039,35.156,-11.230,-20.996,0
3873.358,-276.855,41.016,35.645,-46.387,0.000,0
3873.361,38.086,35.156,29.785,12.695,41.992,0
3873.365,312.988,28.320,27.832,69.336,41.992,0
3873.369,32.227,34.180,35.156,20.020,37.109,0
3873.373,-271.973,40.039,37.109,-43.945,6.836,0
3873.377,-46.875,32.715,30.762,-7.812,14.648,0
3873.381,311.523,28.809,29.785,67.871,3.906,0
3873.385,150.879,34.668,41.016,50.293,-14.160,0
3873.389,-247.070,39.062,43.945,-31.738,20.020,0
3873.393,-165.527,36.621,34.668,-23.926,22.461,0
3873.397,244.629,28.809,28.320,45.898,-30.273,0
3873.401,249.512,30.762,31.738,54.688,25.879,0
3873.404,-163.574,40.527,37.109,-1.953,35.645,0
3873.408,-235.352,39.062,33.691,-29.297,34.668,0
3873.412,144.531,34.668,28.320,39.551,52.246,0
3873.416,313.477,35.645,27.832,82.031,25.391,0
3873.420,-42.969,45.410,37.109,20.508,28.809,0
3873.424,-264.648,46.387,41.504,-21.973,14.648,0
3873.428,25.879,37.109,30.762,19.043,3.418,0
3873.432,327.148,33.203,27.832,77.637,37.109,0
3873.436,74.219,38.574,39.062,45.410,25.391,0
3873.440,-268.555,42.480,43.457,-21.484,25.391,0
3873.443,-69.824,39.551,40.039,-0.977,73.730,0
3873.447,313.965,33.691,31.250,74.707,62.500,0
3873.451,183.105,37.598,28.320,51.270,-19.043,0
3873.455,-233.398,42.480,36.621,-32.715,20.508,0
3873.459,-185.059,40.527,38.574,-20.508,18.066,0
3873.463,217.285,29.785,26.367,50.293,-4.883,0
3873.467,263.184,28.320,27.832,62.988,38.574,0
3873.471,-125.488,42.480,40.527,-6.836,5.371,0
3873.475,-244.629,43.457,40.039,-32.715,9.766,0
3873.479,96.191,35.645,33.691,33.203,6.836,0
3873.483,307.129,32.715,30.762,76.660,51.270,0
3873.486,-22.461,38.086,41.992,22.461,83.008,0
3873.490,-289.551,39.551,44.922,-29.785,13.672,0
3873.494,-14.648,33.203,33.203,10.254,27.344,0
3873.498,329.102,30.762,34.180,74.707,61.523,0
3873.502,109.863,40.527,44.434,53.223,-14.160,0
3873.506,-265.137,48.828,46.875,-12.695,-10.742,0
3873.510,-111.816,43.457,42.969,4.883,9.766,0
3873.514,301.270,38.574,37.109,80.078,41.504,0
3873.518,212.402,43.457,39.062,72.266,103.516,0
3873.522,-205.078,52.246,44.922,5.859,9.766,0
3873.526,-188.965,47.852,37.109,-9.277,-15.625,0
3873.529,211.426,35.156,30.273,49.805,-8.789,0
3873.533,294.434,35.645,33.691,75.195,-40.527,0
3873.537,-109.863,42.480,39.551,9.277,8.301,0
3873.541,-266.113,44.434,42.969,-20.996,-9.766,0
3873.545,77.637,38.574,33.203,41.992,8.301,0
3873.549,325.684,35.645,29.297,75.195,82.031,0
3873.553,18.066,43.457,37.598,14.648,54.199,0
3873.557,-266.602,44.434,41.992,-42.480,-17.090,0
3873.561,-18.066,37.598,40.039,5.371,-20.508,0
3873.565,323.730,33.203,34.180,84.961,77.148,0
3873.568,116.699,36.621,39.551,45.410,65.430,0
3873.572,-263.184,42.480,45.898,-31.250,75.684,0
3873.576,-140.137,37.598,39.062,-21.484,72.754,0
3873.580,261.230,29.785,33.203,54.688,50.293,0
3873.584,213.867,33.691,37.598,62.012,46.875,0
3873.588,-195.312,41.504,44.922,-11.230,7.324,0
3873.592,-218.750,38.086,45.410,-20.020,41.992,0
3873.596,167.480,31.250,39.062,55.176,4.395,0
3873.600,298.340,33.691,38.086,81.543,4.395,0
3873.604,-70.801,44.922,47.852,13.672,38.086,0
3873.608,-262.695,41.504,47.363,-19.531,41.016,0
3873.611,51.758,31.250,36.133,34.668,54.199,0
3873.615,325.195,30.762,35.645,83.008,42.480,0
3873.619,32.227,30.273,44.922,39.551,71.289,0
3873.623,-287.109,36.133,47.852,-22.461,18.066,0
3873.627,-55.664,32.227,35.645,0.000,19.043,0
3873.631,320.312,28.809,25.879,71.777,77.148,0
3873.635,145.508,38.086,32.715,54.199,30.273,0
3873.639,-248.535,41.992,41.504,-24.902,25.879,0
3873.643,-155.762,35.156,38.086,-19.531,40.527,0
3873.647,244.629,26.367,31.250,63.477,34.668,0
3873.651,236.816,29.297,34.668,74.707,65.918,0
3873.654,-170.898,38.574,42.969,-6.348,60.059,0
3873.658,-236.328,37.109,40.527,-23.926,57.129,0
3873.662,152.832,35.156,35.645,58.105,80.566,0
3873.666,321.777,35.645,34.668,91.797,87.402,0
3873.670,-56.152,36.133,39.062,17.090,71.289,0
3873.674,-273.438,35.645,43.457,-26.855,31.250,0
3873.678,37.598,33.691,37.598,23.926,34.668,0
3873.682,337.402,33.203,33.691,90.332,33.203,0
3873.686,78.125,38.086,38.574,44.922,54.199,0
3873.690,-259.766,43.945,43.457,-23.438,54.199,0
3873.693,-79.590,36.621,36.133,7.812,46.387,0
3873.697,306.152,28.320,26.367,70.312,51.270,0
3873.701,173.340,36.133,35.156,54.688,43.457,0
3873.705,-237.305,41.504,44.922,-2.441,-9.277,0
3873.709,-172.852,34.180,37.598,2.441,-29.297,0
3873.713,230.469,29.785,31.250,59.082,-12.695,0
3873.717,261.719,34.180,35.645,75.195,-41.992,0
3873.721,-141.602,41.016,45.898,10.742,-29.785,0
3873.725,-239.258,42.969,44.922,-6.348,5.859,0
3873.729,125.977,36.133,31.250,48.828,3.418,0
3873.733,330.566,32.715,28.809,78.125,-4.883,0
3873.736,-15.625,42.969,40.527,31.738,-19.531,0
3873.740,-278.320,47.852,42.969,-12.695,-8.789,0
3873.744,11.719,39.551,31.738,24.414,17.578,0
3873.748,347.168,32.227,22.949,83.008,17.578,0
3873.752,107.422,35.156,29.785,42.480,73.242,0
3873.756,-251.953,41.016,37.598,-26.855,31.250,0
3873.760,-99.121,37.109,32.715,0.977,-24.414,0
3873.764,291.016,28.809,31.738,76.172,-3.906,0
3873.768,207.031,30.762,38.574,64.941,66.406,0
3873.772,-203.125,38.086,40.527,-14.648,80.566,0
3873.776,-198.730,30.762,33.203,-20.020,21.484,0
3873.779,191.406,21.973,26.367,51.758,50.781,0
3873.783,282.715,28.809,28.320,75.195,58.105,0
3873.787,-121.094,36.621,33.691,2.441,47.852,0
3873.791,-275.879,35.156,36.133,-34.668,59.570,0
3873.795,83.008,26.855,29.785,19.531,23.438,0
3873.799,320.312,27.832,24.414,73.730,22.461,0
3873.803,-6.348,41.504,34.180,27.832,62.988,0
3873.807,-284.668,40.039,40.039,-29.785,67.871,0
3873.811,-9.277,29.297,30.762,12.695,-4.395,0
3873.815,343.262,29.297,20.508,77.637,-22.949,0
3873.818,117.188,37.598,25.391,37.109,13.672,0
3873.822,-263.672,43.945,36.133,-26.855,17.578,0
3873.826,-129.883,39.062,34.180,-11.719,-7.324,0
3873.830,270.996,30.762,27.344,67.871,-0.977,1
3873.834,216.797,32.227,31.738,67.871,25.879,0
3873.838,-191.406,40.527,37.598,-24.414,12.207,0
3873.842,-208.496,39.062,34.668,-30.273,-9.766,0
3873.846,178.711,33.203,30.273,42.969,-22.461,0
3873.850,296.387,33.203,33.691,72.754,33.691,0
3873.854,-91.309,41.016,41.504,3.906,34.668,0
3873.858,-278.320,42.969,41.504,-32.227,1.953,0
3873.861,41.016,32.227,34.668,31.250,-3.906,0
3873.865,323.242,28.809,29.297,74.219,19.043,0
3873.869,36.133,39.551,36.133,22.461,70.801,0
3873.873,-287.598,42.969,42.480,-38.574,99.121,0
3873.877,-70.801,35.645,34.668,-4.883,27.832,0
3873.881,310.547,30.273,26.855,70.801,-11.230,0
3873.885,144.043,37.109,35.645,47.852,36.621,0
3873.889,-256.836,41.016,42.969,-29.297,47.363,0
3873.893,-156.738,34.180,34.180,-19.531,-13.184,0
3873.897,237.305,27.344,27.832,50.781,14.648,0
3873.901,230.469,32.715,33.203,61.035,91.797,0
3873.904,-159.668,41.992,39.551,-1.465,64.941,0
3873.908,-236.816,39.062,35.645,-23.438,33.691,0
3873.912,126.953,29.297,26.855,27.832,79.102,0
3873.916,303.223,31.738,27.344,64.453,78.125,0
3873.920,-57.617,41.504,37.109,5.859,93.262,0
3873.924,-275.879,41.992,38.086,-34.180,63.477,0
3873.928,35.645,33.203,30.762,21.484,-0.488,0
3873.932,326.660,27.832,28.809,69.336,35.645,0
3873.936,57.617,37.109,34.668,26.367,46.875,0
3873.940,-282.227,41.504,39.551,-34.180,86.914,0
3873.943,-91.309,33.691,35.156,-11.719,58.594,0
3873.947,295.898,26.855,27.344,57.129,-20.996,0
3873.951,160.645,33.691,34.180,40.039,-13.672,0
3873.955,-245.605,38.574,41.016,-42.480,15.625,0
3873.959,-182.617,33.203,39.062,-29.297,43.945,0
3873.963,219.238,30.762,29.297,51.270,43.457,0
3873.967,249.023,33.203,26.367,64.941,50.293,0
3873.971,-152.344,38.574,40.039,-3.906,58.105,0
3873.975,-250.977,38.086,41.504,-29.785,31.250,0
3873.979,112.305,32.715,28.320,42.969,0.000,0
3873.983,323.242,36.133,27.832,83.984,-20.508,0
3873.986,-22.949,45.410,38.086,12.207,5.371,0
3873.990,-282.227,44.922,38.086,-37.109,38.086,0
3873.994,0.977,37.109,31.738,13.672,5.371,0
3873.998,323.730,32.227,29.297,71.289,12.695,0
3874.002,87.402,43.457,40.527,42.969,34.180,0
3874.006,-276.855,48.828,45.410,-14.160,15.137,0
3874.010,-116.699,34.180,39.551,3.906,40.527,0
3874.014,285.645,27.344,36.133,68.848,37.598,0
3874.018,199.219,37.598,39.062,59.082,15.625,0
3874.022,-223.145,44.922,44.922,-12.695,5.371,0
3874.026,-209.961,38.574,40.039,-20.020,32.715,0
3874.029,200.684,34.180,32.715,46.387,54.199,0
3874.033,279.785,39.062,37.109,66.406,18.555,0
3874.037,-114.258,42.969,42.969,7.324,6.348,0
3874.041,-257.324,42.969,42.969,-24.902,39.062,0
3874.045,88.867,39.551,40.039,30.762,47.363,0
3874.049,326.660,33.691,31.250,74.219,52.734,0
3874.053,7.812,41.992,38.086,25.391,60.547,0
3874.057,-286.133,46.387,46.875,-19.043,-8.301,0
3874.061,-23.438,39.062,40.527,17.090,-15.137,0
3874.065,339.844,36.621,35.645,77.637,52.734,0
3874.068,128.418,44.922,38.086,48.340,83.984,0
3874.072,-245.117,49.805,41.992,-16.602,78.125,0
3874.076,-105.469,42.480,40.527,10.742,36.621,0
3874.080,289.062,35.645,37.109,82.520,9.766,0
3874.084,236.328,40.527,39.551,72.266,0.488,0
3874.088,-181.641,48.828,43.945,-12.207,8.301,0
3874.092,-207.520,44.434,41.504,-22.461,41.016,0
3874.096,188.965,32.715,31.250,47.363,41.016,0
3874.100,306.641,32.715,36.133,73.730,39.551,0
3874.104,-82.520,43.457,49.805,15.625,17.578,0
3874.108,-258.789,44.922,43.945,-20.996,-7.812,0
3874.111,76.172,40.039,35.156,41.992,22.461,0
3874.115,343.262,38.574,37.109,96.191,4.883,0
3874.119,41.504,43.457,42.480,32.715,31.250,0
3874.123,-266.602,48.340,47.852,-30.273,59.082,0
3874.127,-44.434,38.574,40.527,6.836,-15.137,0
3874.131,316.406,30.273,32.715,68.359,-4.883,0
3874.135,145.508,37.598,41.992,47.363,62.500,0
3874.139,-241.211,43.945,50.293,-23.438,39.551,0
3874.143,-156.250,40.527,43.457,-11.230,52.734,0
3874.147,240.234,33.691,33.691,55.664,11.230,0
3874.151,248.535,36.133,36.133,58.594,-20.508,0
3874.154,-169.922,45.898,45.410,-8.789,23.926,0
3874.158,-233.887,45.898,46.387,-23.926,25.879,0
3874.162,145.020,40.039,40.039,40.039,56.641,0
3874.166,293.945,38.574,35.645,71.289,49.316,0
3874.170,-64.453,41.016,42.969,12.695,41.992,0
3874.174,-275.391,42.969,49.316,-22.949,10.742,0
3874.178,29.297,34.180,39.062,29.297,12.695,0
3874.182,326.172,32.227,35.645,76.660,46.875,0
3874.186,50.781,43.945,41.992,34.668,54.688,0
3874.190,-272.461,46.875,41.016,-34.180,4.395,0
3874.193,-60.059,40.527,32.715,-4.883,-35.645,0
3874.197,306.641,35.645,28.809,70.312,49.805,0
3874.201,153.809,42.480,41.992,55.664,59.082,0
3874.205,-240.723,48.828,48.828,-17.090,-32.227,0
3874.209,-167.969,42.969,39.062,-22.461,-22.461,0
3874.213,230.469,38.086,33.691,42.969,13.184,0
3874.217,256.348,40.039,33.203,56.641,60.059,0
3874.221,-130.859,49.805,44.922,-4.883,73.242,0
3874.225,-230.957,49.805,46.875,-37.598,16.602,0
3874.229,125.488,37.598,33.203,20.508,3.906,0
3874.233,314.453,36.621,34.668,70.312,-7.324,0
3874.236,-38.086,44.434,44.434,11.719,-3.418,0
3874.240,-279.297,46.387,46.875,-36.133,13.672,0
3874.244,-1.953,37.109,39.062,8.789,63.965,0
3874.248,317.383,29.785,32.715,73.730,39.062,0
3874.252,80.078,35.156,43.457,47.852,58.594,0
3874.256,-274.414,37.109,49.316,-32.715,86.914,0
3874.260,-92.773,36.621,43.945,-17.090,40.527,0
3874.264,304.199,35.156,37.109,68.848,53.711,0
3874.268,199.219,36.621,37.598,56.641,33.691,0
3874.272,-205.566,43.457,45.410,-18.555,-7.324,0
3874.276,-192.871,34.668,41.992,-27.832,27.832,0
3874.279,196.777,26.855,33.691,46.875,45.410,0
3874.283,267.578,35.156,38.574,65.918,32.715,0
3874.287,-109.375,41.504,45.410,-8.789,58.105,0
3874.291,-233.398,41.504,41.992,-39.062,25.391,0
3874.295,105.469,37.598,32.227,26.855,49.316,0
3874.299,329.590,33.691,31.738,83.496,99.609,0
3874.303,3.906,42.969,45.898,33.203,36.621,0
3874.307,-273.438,45.898,48.340,-21.484,9.277,0
3874.311,-10.742,39.551,36.133,6.348,-27.344,0
3874.315,342.773,38.086,30.762,64.453,-21.973,0
3874.318,127.930,43.945,38.574,34.668,9.766,0
3874.322,-251.465,49.805,46.875,-26.367,-6.348,0
3874.326,-117.188,42.480,42.480,2.441,-17.090,0
3874.330,278.809,32.227,28.809,61.523,-1.953,0
3874.334,207.520,36.133,30.273,55.176,17.578,0
3874.338,-198.730,45.410,42.480,-6.836,-20.996,0
3874.342,-191.895,42.969,41.504,-17.578,-17.090,0
3874.346,193.848,34.180,33.691,43.457,11.230,0
3874.350,292.969,32.227,35.645,62.988,37.598,0
3874.354,-98.145,38.086,41.504,-5.859,44.434,0
3874.358,-264.648,40.039,40.039,-35.645,20.508,0
3874.361,79.590,38.574,35.645,33.691,23.926,0
3874.365,335.938,34.180,34.668,84.473,50.293,0
3874.369,26.367,39.062,41.992,18.066,9.277,0
3874.373,-278.320,43.945,42.480,-45.898,-13.184,0
3874.377,-59.082,35.156,28.809,-9.277,21.484,0
3874.381,305.176,27.832,23.926,62.988,15.137,0
3874.385,148.438,36.621,34.668,43.457,-32.715,0
3874.389,-239.746,41.016,37.109,-30.762,21.484,0
3874.393,-136.719,36.621,27.832,-20.996,70.801,0
3874.397,260.742,30.273,19.043,47.852,33.691,0
3874.401,230.469,32.227,27.832,54.688,72.754,0
3874.404,-184.082,39.551,39.551,-24.902,65.430,0
3874.408,-229.980,35.645,34.180,-34.180,-12.207,0
3874.412,151.367,26.855,27.832,40.039,-22.461,0
3874.416,294.922,28.809,26.855,73.242,16.113,0
3874.420,-71.777,41.992,37.598,7.324,-0.488,0
3874.424,-274.902,40.527,41.504,-41.504,-0.488,0
3874.428,40.527,32.715,33.691,15.625,81.543,0
3874.432,326.172,33.203,31.250,73.242,63.477,0
3874.436,52.734,40.527,37.109,33.203,10.742,0
3874.440,-277.344,39.551,41.992,-31.250,17.578,0
3874.443,-79.102,34.668,35.645,-10.254,22.461,0
3874.447,294.922,30.762,27.344,62.988,43.945,0
3874.451,142.090,31.738,31.250,48.340,27.832,0
3874.455,-251.465,39.062,38.086,-25.879,47.363,0
3874.459,-167.969,31.250,35.156,-10.254,92.773,0
3874.463,237.305,26.367,28.809,52.246,68.359,0
3874.467,262.207,36.621,26.367,61.523,-13.672,0
3874.471,-147.461,44.434,32.715,-10.742,22.461,0
3874.475,-227.051,44.922,36.133,-34.668,51.270,0
3874.479,138.672,36.133,31.250,34.180,-20.996,0
3874.483,313.477,31.250,29.785,72.266,-1.953,0
3874.486,-38.086,44.922,37.598,12.695,48.340,0
3874.490,-283.691,47.852,38.574,-46.875,31.738,0
3874.494,17.090,39.062,34.180,4.883,39.062,0
3874.498,335.449,33.203,33.203,82.031,54.199,0
3874.502,73.242,41.016,41.504,43.457,40.527,0
3874.506,-277.832,45.898,46.387,-33.691,10.742,0
3874.510,-80.566,36.133,33.691,-8.789,36.621,0
3874.514,301.270,32.715,22.949,71.777,52.734,1
3874.518,180.176,41.504,32.715,55.664,16.602,0
3874.522,-219.727,49.316,45.410,-28.809,-0.977,0
3874.526,-179.688,42.480,39.062,-20.508,32.227,0
3874.529,218.750,35.156,26.855,47.852,46.387,0
3874.533,282.715,43.457,27.344,62.988,66.406,0
3874.537,-125.488,50.293,40.527,7.812,58.594,0
3874.541,-251.953,46.387,47.363,-14.160,25.879,0
3874.545,115.234,40.527,41.992,48.340,6.836,0
3874.549,336.914,35.645,35.156,83.008,1.465,0
3874.553,7.812,44.434,39.062,26.855,11.719,0
3874.557,-265.625,46.875,41.992,-27.344,-25.391,0
3874.561,1.465,37.598,33.203,5.371,-22.461,0
3874.565,345.703,36.621,26.367,67.383,10.254,0
3874.568,116.211,44.434,34.180,32.715,-1.953,0
3874.572,-272.949,47.363,37.598,-36.133,-6.348,0
3874.576,-126.465,42.969,31.250,-7.324,-30.273,0
3874.580,278.809,34.180,27.832,75.684,28.809,0
3874.584,202.148,39.551,37.109,67.871,54.688,0
3874.588,-203.125,46.387,41.504,-18.066,-21.484,0
3874.592,-196.777,40.039,34.180,-26.367,9.766,0
3874.596,178.223,33.691,29.297,44.434,65.430,0
3874.600,279.785,34.668,33.203,69.824,22.461,0
3874.604,-96.191,43.945,41.504,1.953,10.742,0
3874.608,-266.113,40.039,39.062,-41.504,53.223,0
3874.611,78.125,32.715,30.762,10.742,90.820,0
3874.615,337.891,35.156,24.414,73.730,36.133,0
3874.619,14.648,41.504,34.668,32.715,34.668,0
3874.623,-290.527,43.457,45.410,-29.785,42.480,0
3874.627,-41.504,37.598,38.574,14.648,-7.324,0
3874.631,325.195,35.156,30.273,74.219,53.223,0
3874.635,125.977,40.039,36.133,45.410,62.988,0
3874.639,-265.625,43.457,45.410,-15.625,-10.254,0
3874.643,-142.090,36.621,41.504,-7.324,2.441,0
3874.647,257.324,28.809,31.250,69.824,12.207,0
3874.651,229.980,36.621,35.156,77.148,56.641,0
3874.654,-179.688,48.828,43.945,-1.953,47.852,0
3874.658,-209.961,44.434,40.039,-19.531,24.902,0
3874.662,176.270,36.133,38.574,54.688,17.578,0
3874.666,308.105,37.109,41.504,84.961,22.461,0
3874.670,-65.918,41.992,44.922,12.695,32.715,0
3874.674,-272.949,41.992,46.387,-27.344,38.574,0
3874.678,50.293,34.668,37.598,15.137,54.199,0
3874.682,344.238,33.691,35.156,69.824,61.035,0
3874.686,57.617,42.480,46.387,32.227,48.828,0
3874.690,-282.715,44.434,46.875,-43.457,33.203,0
3874.693,-65.430,39.062,36.621,-2.930,54.199,0
3874.697,319.336,29.785,26.855,71.777,36.133,0
3874.701,158.691,35.156,36.621,44.922,12.207,0
3874.705,-243.652,42.969,47.363,-28.320,-16.602,0
3874.709,-156.738,37.598,37.109,-23.438,-37.598,0
3874.713,252.930,32.715,27.832,53.711,9.277,0
3874.717,257.324,36.133,32.227,73.242,14.160,0
3874.721,-164.551,43.945,42.480,-2.441,1.953,0
3874.725,-247.559,39.551,40.527,-20.508,21.484,0
3874.729,121.094,25.879,30.762,34.180,35.645,0
3874.733,304.199,32.227,28.320,62.500,47.363,0
3874.736,-46.875,42.480,34.180,13.672,-11.230,0
3874.740,-286.133,38.574,41.504,-43.945,-57.617,0
3874.744,23.926,30.273,36.133,2.441,-11.719,0
3874.748,334.961,23.926,28.320,70.801,16.113,0
3874.752,58.105,31.738,36.133,29.297,2.441,0
3874.756,-277.832,38.086,41.016,-35.156,-3.418,0
3874.760,-78.125,33.203,36.133,1.465,-2.930,0
3874.764,300.293,28.320,31.738,63.477,66.406,0
3874.768,177.734,32.715,37.109,53.711,37.109,0
3874.772,-226.562,35.645,40.527,-5.371,-5.371,0
3874.776,-194.824,27.832,35.645,-15.625,14.648,0
3874.779,208.496,20.996,28.320,48.340,25.391,0
3874.783,279.297,28.320,30.273,62.500,69.824,0
3874.787,-127.930,38.574,39.551,-3.906,49.316,0
3874.791,-256.348,36.133,41.992,-21.973,15.137,0
3874.795,104.492,28.809,34.668,37.598,93.750,0
3874.799,331.543,29.297,30.762,92.773,84.961,0
3874.803,-7.324,37.109,42.480,39.551,6.348,0
3874.807,-287.598,37.109,42.480,-38.574,20.996,0
3874.811,-13.672,28.809,28.320,-2.930,10.742,0
3874.815,323.242,24.414,25.391,73.730,16.113,0
3874.818,104.492,31.738,31.738,47.363,9.766,0
3874.822,-252.930,36.621,38.086,-27.832,31.250,0
3874.826,-112.793,27.832,30.762,-16.113,97.168,0
3874.830,264.648,21.484,21.973,57.129,96.191,0
3874.834,201.660,26.855,31.738,50.781,60.059,0
3874.838,-196.777,34.180,41.504,-10.254,-6.348,0
3874.842,-203.125,33.691,42.480,-5.859,-68.359,0
3874.846,183.105,28.809,34.180,49.805,-36.621,0
3874.850,276.367,29.297,29.297,65.430,60.059,0
3874.854,-114.258,36.133,41.016,1.953,54.199,0
3874.858,-268.555,33.203,40.527,-17.578,34.668,0
3874.861,71.289,28.320,32.227,33.691,51.270,0
3874.865,312.012,28.809,32.715,67.871,29.785,0
3874.869,3.418,33.691,36.133,19.043,52.246,0
3874.873,-281.738,41.016,39.551,-33.203,110.840,0
3874.877,-43.945,35.156,34.180,-3.906,24.902,0
3874.881,306.152,27.832,30.273,61.035,-6.348,0
3874.885,117.676,36.133,36.621,39.062,60.059,0
3874.889,-268.555,41.504,41.016,-39.551,18.555,0
3874.893,-149.414,34.668,37.598,-15.625,6.836,0
3874.897,254.395,32.227,32.715,52.734,0.000,0
3874.901,220.215,39.062,41.992,65.430,-7.812,0
3874.904,-194.824,41.992,47.852,-9.277,38.086,0
3874.908,-223.633,39.062,42.969,-38.086,54.199,0
3874.912,168.457,35.156,37.598,40.039,1.953,0
3874.916,294.434,34.180,33.203,75.684,7.324,0
3874.920,-86.426,41.016,39.551,19.531,-19.531,0
3874.924,-274.902,43.945,43.457,-30.762,-10.742,0
3874.928,51.270,32.227,30.273,4.883,53.223,0
3874.932,329.590,27.344,22.949,62.500,13.672,0
3874.936,44.434,34.668,34.180,20.508,-36.621,0
3874.940,-269.043,39.062,40.039,-27.344,-18.555,0
3874.943,-60.547,35.156,31.738,11.719,23.438,0
3874.947,314.453,29.785,26.855,59.082,21.973,0
3874.951,157.715,36.133,34.668,34.180,52.246,0
3874.955,-251.953,42.480,44.434,-24.414,40.527,0
3874.959,-155.762,36.133,37.109,-13.184,27.832,0
3874.963,246.582,28.320,25.879,55.176,64.941,0
3874.967,242.188,29.785,31.250,70.801,56.152,0
3874.971,-166.992,33.203,39.551,-4.883,14.648,0
3874.975,-234.863,34.180,37.598,-23.926,-30.273,0
3874.979,136.719,28.809,28.809,48.828,-27.832,0
3874.983,296.387,29.297,25.879,74.219,73.242,0
3874.986,-51.758,39.062,34.668,1.953,87.402,0
3874.990,-272.461,37.598,41.504,-34.668,56.641,0
3874.994,25.879,30.273,34.668,22.461,63.965,0
3874.998,332.031,27.344,27.344,70.312,34.180,0
3875.002,63.965,33.203,34.668,41.016,30.762,0
3875.006,-282.227,36.133,41.016,-20.508,60.059,0
3875.010,-91.797,29.297,32.715,-16.602,69.336,0
3875.014,297.363,23.438,24.414,56.152,31.738,0
3875.018,170.898,29.785,31.738,44.922,16.113,0
3875.022,-244.141,41.016,41.504,-33.691,1.953,0
3875.026,-188.965,34.668,37.109,-19.043,-11.230,0
3875.029,215.820,25.879,29.297,54.199,38.574,0
3875.033,253.906,30.273,32.227,56.152,71.777,0
3875.037,-141.113,38.086,40.527,-13.672,78.125,0
3875.041,-250.000,36.133,43.457,-38.086,22.461,0
3875.045,107.910,26.855,36.133,25.879,7.324,0
3875.049,317.383,25.879,31.738,73.242,30.762,0
3875.053,-14.160,36.133,40.039,22.461,8.301,0
3875.057,-287.598,40.039,41.992,-33.691,10.742,0
3875.061,-20.020,36.621,36.621,10.254,-13.672,0
3875.065,313.965,33.203,35.156,67.871,-11.230,0
3875.068,84.473,40.039,39.551,37.598,23.438,0
3875.072,-279.297,47.363,41.992,-15.625,-26.367,0
3875.076,-111.816,39.551,36.133,-2.441,31.738,0
3875.080,291.992,33.691,31.250,67.383,66.895,0
3875.084,201.172,39.551,38.574,55.664,-30.273,0
3875.088,-217.773,40.527,44.922,-19.043,-34.180,0
3875.092,-211.426,33.691,40.039,-22.949,27.832,0
3875.096,199.219,30.273,36.133,50.781,41.016,0
3875.100,284.180,32.227,36.621,80.566,9.277,0
3875.104,-116.211,39.062,41.992,3.418,-36.621,0
3875.108,-261.230,35.645,40.527,-37.109,-25.879,0
3875.111,76.660,27.344,31.250,21.484,40.039,0
3875.115,318.359,25.879,29.785,68.359,45.898,0
3875.119,6.348,32.227,39.062,23.438,4.395,0
3875.123,-283.203,38.574,40.527,-33.691,13.672,0
3875.127,-29.785,33.203,30.762,8.301,9.277,0
3875.131,325.684,27.832,25.879,71.777,49.805,1
3875.135,115.234,35.156,35.156,51.758,59.570,0
3875.139,-282.715,39.062,41.504,-27.344,44.434,0
3875.143,-150.391,33.203,38.574,-29.297,40.527,0
3875.147,263.184,29.297,30.762,49.805,29.785,0
3875.151,223.145,33.691,33.203,51.270,32.715,0
3875.154,-203.613,36.621,45.410,-19.531,49.805,0
3875.158,-232.422,31.250,42.480,-36.133,38.086,0
3875.162,164.062,30.762,33.691,35.645,40.527,0
3875.166,291.992,33.691,29.297,63.965,44.434,0
3875.170,-88.379,37.598,33.203,-12.207,-11.230,0
3875.174,-279.785,37.109,39.551,-52.246,5.371,0
3875.178,48.828,28.809,34.180,4.395,49.316,0
3875.182,314.941,27.832,31.738,63.477,41.504,0
3875.186,24.414,37.109,38.574,15.137,74.707,0
3875.190,-276.855,43.457,43.457,-40.039,42.480,0
3875.193,-53.223,38.086,37.598,4.883,-30.762,0
3875.197,300.293,27.832,25.879,66.895,46.387,0
3875.201,135.254,33.691,32.715,45.410,71.777,0
3875.205,-252.441,42.969,42.969,-21.484,-10.742,0
3875.209,-168.945,35.156,35.156,-21.973,-78.125,0
3875.213,249.512,30.762,24.902,40.039,-43.457,0
3875.217,250.977,32.715,27.344,51.758,62.988,0
3875.221,-166.504,40.039,39.062,-6.836,31.250,0
3875.225,-227.051,40.527,38.086,-26.367,-14.648,0
3875.229,152.832,33.691,28.320,34.668,65.430,0
3875.233,307.129,33.691,30.273,67.871,56.152,0
3875.236,-58.105,39.551,39.551,7.324,-37.598,0
3875.240,-264.648,42.969,44.434,-26.855,-52.246,0
3875.244,37.109,36.621,36.621,24.902,-16.602,0
3875.248,329.590,26.855,27.832,68.359,26.367,0
3875.252,62.012,31.738,35.645,27.344,73.242,0
3875.256,-272.461,38.086,41.504,-27.344,70.801,0
3875.260,-77.148,33.691,32.227,-4.395,57.129,0
3875.264,318.848,30.273,26.855,58.594,42.969,0
3875.268,181.152,34.180,35.156,53.223,13.672,0
3875.272,-234.863,39.551,42.969,-19.043,12.695,0
3875.276,-173.828,40.039,38.574,-20.996,40.527,0
3875.279,218.262,35.156,30.273,54.688,41.992,0
3875.283,265.137,39.062,35.645,65.430,-30.762,0
3875.287,-121.582,42.969,41.992,3.906,2.930,0
3875.291,-241.211,41.992,39.551,-15.137,65.918,0
3875.295,105.957,36.133,32.715,23.926,53.711,0
3875.299,303.711,32.227,27.344,46.387,83.496,0
3875.303,-41.504,43.945,37.598,-8.301,38.086,0
3875.307,-291.016,46.875,40.039,-47.363,-24.414,0
3875.311,-6.836,36.621,28.809,0.000,13.184,0
3875.315,324.707,30.273,31.250,66.406,17.578,0
3875.318,90.820,33.203,42.969,31.738,-1.953,0
3875.322,-275.391,35.645,47.852,-34.180,18.555,0
3875.326,-107.422,35.156,44.434,-7.812,27.344,0
3875.330,289.062,30.762,39.551,62.012,20.996,0
3875.334,192.871,31.738,40.039,46.387,46.875,0
3875.338,-217.773,44.434,47.363,-21.484,72.266,0
3875.342,-198.242,45.898,47.852,-15.137,67.871,0
3875.346,208.984,42.480,42.969,54.688,42.969,0
3875.350,299.316,46.387,44.434,80.078,19.531,0
3875.354,-99.609,41.504,45.410,9.766,-6.348,0
3875.358,-249.023,36.133,41.504,-20.020,37.109,0
3875.361,89.844,35.645,36.621,43.457,71.289,0
3875.365,320.312,34.180,34.668,81.055,78.125,0
3875.369,3.906,39.551,38.574,25.879,24.902,0
3875.373,-279.785,44.922,39.551,-31.250,21.484,0
3875.377,-28.320,38.086,34.668,10.742,46.875,0
3875.381,327.148,32.715,37.598,83.984,2.441,0
3875.385,125.977,38.086,46.387,55.176,3.906,0
3875.389,-255.859,41.016,43.457,-15.625,10.742,0
3875.393,-123.535,38.086,34.668,2.441,-32.715,0
3875.397,278.809,35.156,30.762,59.570,-32.227,0
3875.401,220.215,38.086,36.621,56.641,-5.859,0
3875.404,-188.477,43.457,46.387,-3.418,-47.363,0
3875.408,-202.637,40.039,41.016,-16.113,-52.246,0
3875.412,177.246,30.762,31.738,49.805,10.742,0
3875.416,291.016,32.715,33.203,84.473,8.301,0
3875.420,-82.031,44.434,35.645,22.461,7.324,0
3875.424,-256.348,43.457,38.086,-30.762,8.789,0
3875.428,75.684,33.691,31.738,24.414,-5.859,0
3875.432,337.402,34.180,26.855,70.312,30.762,0
3875.436,41.992,42.969,35.645,18.555,61.035,0
3875.440,-266.602,46.875,42.480,-25.391,58.105,0
3875.443,-46.875,43.457,42.480,8.301,6.348,0
3875.447,324.707,35.156,35.156,81.543,71.777,0
3875.451,148.438,39.551,37.109,64.941,69.336,0
3875.455,-250.000,49.805,41.504,-11.230,7.812,0
3875.459,-153.809,43.457,37.598,2.441,60.059,0
3875.463,253.906,37.109,34.180,66.895,113.281,0
3875.467,252.930,42.480,37.598,64.453,94.238,0
3875.471,-153.320,51.758,49.316,-1.465,-7.812,0
3875.475,-228.027,49.316,49.316,-21.484,-15.625,0
3875.479,151.367,40.039,39.062,48.828,-7.324,0
3875.483,316.406,44.922,40.527,85.938,-29.297,0
3875.486,-53.711,52.246,47.363,16.602,33.203,0
3875.490,-270.020,46.875,43.457,-32.715,70.312,0
3875.494,34.180,40.039,35.156,17.090,84.473,0
3875.498,329.590,38.574,32.715,74.707,95.215,0
3875.502,62.500,46.875,42.480,41.992,20.020,0
3875.506,-275.391,50.293,44.434,-26.855,-11.719,0
3875.510,-75.684,42.969,33.691,-5.859,11.230,0
3875.514,328.125,33.691,31.250,71.289,50.293,0
3875.518,183.105,42.480,38.086,58.105,33.691,0
3875.522,-240.723,55.176,45.898,-10.742,-22.461,0
3875.526,-180.176,48.828,44.434,-14.160,-23.438,0
3875.529,222.656,40.527,32.227,47.363,-2.930,0
3875.533,266.602,43.945,33.203,59.082,25.391,0
3875.537,-142.090,46.875,42.480,-3.906,15.625,0
3875.541,-248.047,43.457,42.969,-23.438,15.137,0
3875.545,124.023,41.992,38.574,35.156,12.207,0
3875.549,328.613,48.340,42.480,89.355,0.977,0
3875.553,-10.254,49.316,47.852,23.438,25.879,0
3875.557,-270.996,48.828,41.992,-47.363,49.805,0
3875.561,3.906,47.852,38.086,12.207,42.480,0
3875.565,328.125,38.574,35.156,74.707,28.809,0
3875.568,77.637,44.922,39.062,29.785,44.922,0
3875.572,-291.504,48.828,48.340,-55.664,21.484,0
3875.576,-126.953,48.340,37.598,-47.852,-14.160,0
3875.580,249.023,43.457,28.809,8.301,2.441,0
3875.584,125.000,41.992,35.645,-29.785,50.293,0
3875.588,-303.223,47.852,38.574,-106.445,67.383,0
3875.592,-287.109,42.480,41.504,-104.492,59.570,0
3875.596,105.957,38.574,34.180,-47.852,25.879,0
3875.600,158.691,40.527,30.273,-52.246,14.160,0
3875.604,-260.742,45.898,41.016,-134.277,46.875,0
3875.608,-408.203,45.898,42.480,-168.945,64.453,0
3875.611,-60.059,37.598,36.621,-115.723,23.438,0
3875.615,166.504,35.645,32.227,-73.730,19.043,0
3875.619,-158.691,37.598,35.156,-143.555,81.543,0
3875.623,-448.242,38.574,41.992,-212.891,70.312,0
3875.627,-185.547,34.668,34.180,-172.363,25.391,0
3875.631,161.133,29.297,21.484,-108.887,23.438,0
3875.635,-71.777,34.180,30.762,-135.742,-2.930,0
3875.639,-449.707,40.527,41.992,-198.242,24.414,0
3875.643,-291.992,38.086,36.621,-180.664,72.266,0
3875.647,118.164,33.203,28.809,-109.375,39.062,0
3875.651,73.730,36.133,36.621,-87.891,33.691,0
3875.654,-320.312,44.434,46.387,-131.836,59.082,0
3875.658,-313.477,41.992,44.922,-121.582,96.191,0
3875.662,91.309,31.738,39.062,-38.086,42.480,0
3875.666,222.168,31.738,34.180,4.395,-26.855,0
3875.670,-134.766,37.598,38.086,-61.035,-5.859,0
3875.674,-293.457,36.133,40.039,-85.449,54.199,0
3875.678,57.617,26.367,36.621,-2.441,44.434,0
3875.682,321.777,25.391,32.227,61.523,43.945,0
3875.686,28.809,35.156,34.180,37.109,-0.488,0
3875.690,-264.160,36.133,35.156,-8.301,4.395,0
3875.693,-13.672,31.250,30.762,25.879,40.039,0
3875.697,363.770,28.809,30.762,103.516,29.297,0
3875.701,186.035,34.180,39.062,91.797,-24.902,0
3875.705,-196.777,40.039,47.852,24.414,16.602,0
3875.709,-86.426,36.621,40.527,36.133,65.918,0
3875.713,314.453,31.250,29.785,115.723,-10.254,0
3875.717,291.992,32.715,33.203,127.930,-4.883,0
3875.721,-112.305,40.527,40.527,59.570,26.855,0
3875.725,-165.039,36.133,38.086,41.504,19.043,0
3875.729,214.844,24.902,26.367,100.586,41.992,0
3875.733,368.164,30.273,21.484,127.930,39.551,0
3875.736,3.418,43.457,28.320,70.801,5.371,0
3875.740,-199.707,43.945,36.133,34.668,27.832,0
3875.744,111.816,37.109,31.250,89.355,-2.930,0
3875.748,391.113,32.227,23.438,136.719,48.828,0
3875.752,116.699,37.598,34.668,88.379,32.715,0
3875.756,-195.801,44.922,41.016,35.645,-5.371,0
3875.760,22.461,41.504,30.762,57.617,21.484,0
3875.764,394.043,37.598,26.367,125.000,44.922,0
3875.768,230.957,42.969,33.203,115.723,57.129,0
3875.772,-174.316,49.316,39.551,41.504,-1.465,0
3875.776,-108.398,42.480,33.203,50.781,-12.207,0
3875.779,295.410,33.203,26.367,120.117,30.273,0
3875.783,327.148,37.598,34.668,129.395,48.340,0
3875.787,-85.449,45.410,46.387,53.223,-14.160,0
3875.791,-179.199,40.527,41.504,27.832,-38.086,0
3875.795,183.594,32.715,31.250,86.426,29.785,0
3875.799,365.723,35.645,33.203,126.953,29.297,0
3875.803,14.160,41.992,44.434,83.496,22.949,0
3875.807,-229.980,41.016,42.969,26.367,8.301,2
3875.811,62.012,33.203,31.250,53.711,27.832,0
3875.815,373.535,26.855,25.879,104.492,61.523,0
3875.818,118.652,35.156,36.621,71.777,55.664,0
3875.822,-231.445,41.016,46.875,10.254,32.715,0
3875.826,-46.875,33.203,40.039,33.203,6.348,0
3875.830,339.844,29.297,25.391,101.562,-6.836,0
3875.834,225.098,37.598,25.879,86.914,-2.441,0
3875.838,-183.105,41.016,37.109,13.672,36.621,0
3875.842,-152.344,37.109,37.598,16.602,52.734,0
3875.846,236.816,36.133,35.156,86.914,18.555,0
3875.850,303.223,38.086,36.133,106.934,33.203,0
3875.854,-91.309,42.969,40.039,38.086,37.109,0
3875.858,-218.262,41.504,41.016,5.859,20.020,0
3875.861,136.230,38.574,38.574,57.129,18.066,0
3875.865,353.027,36.621,36.133,98.633,7.324,0
3875.869,24.414,36.621,38.574,48.828,7.324,0
3875.873,-250.977,40.039,40.527,-11.719,8.301,0
3875.877,12.207,33.203,33.691,20.508,4.883,0
3875.881,353.027,27.832,29.297,82.520,43.945,0
3875.885,133.301,39.551,35.645,55.176,48.340,0
3875.889,-238.770,44.922,43.945,-5.371,28.320,0
3875.893,-93.262,39.062,39.062,15.625,51.758,0
3875.897,320.312,33.691,29.785,90.332,37.109,0
3875.901,250.000,39.062,34.180,81.055,19.531,0
3875.904,-182.129,43.945,42.969,-5.859,30.273,0
3875.908,-205.078,37.109,37.598,-18.066,2.441,0
3875.912,177.246,28.320,31.250,57.129,13.184,0
3875.916,301.758,32.715,29.785,84.961,67.383,0
3875.920,-75.195,43.945,39.551,22.461,16.113,0
3875.924,-259.766,41.016,43.945,-11.719,4.883,0
3875.928,84.473,34.180,33.691,40.527,25.879,0
3875.932,345.215,34.180,32.227,85.449,41.016,0
3875.936,34.668,41.016,42.480,45.898,30.762,0
3875.940,-264.648,43.945,45.898,-6.836,41.992,0
3875.943,-30.762,40.039,41.992,17.578,75.195,0
3875.947,332.520,36.621,32.715,86.426,29.785,0
3875.951,147.949,36.133,31.738,62.988,29.785,0
3875.955,-243.652,37.598,41.992,-23.438,53.223,0
3875.959,-144.531,37.109,36.133,-7.324,43.945,0
3875.963,262.695,35.645,26.367,77.637,69.824,0
3875.967,242.676,41.504,33.691,79.102,6.348,0
3875.971,-175.781,51.758,43.945,8.301,-7.324,0
3875.975,-215.332,46.387,43.945,-19.043,75.195,0
3875.979,162.109,33.691,36.621,41.992,70.312,0
3875.983,301.758,33.203,36.133,85.449,15.625,0
3875.986,-62.012,43.457,46.387,29.785,68.848,0
3875.990,-267.578,44.922,43.457,-24.414,81.543,0
3875.994,46.387,37.109,33.203,22.949,-0.977,0
3875.998,337.402,33.203,34.180,81.055,26.367,0
3876.002,52.246,41.992,45.898,39.062,33.691,0
3876.006,-274.902,45.410,49.316,-17.578,-6.348,0
3876.010,-59.082,37.109,39.551,12.207,-17.090,0
3876.014,317.383,32.227,31.250,70.312,27.832,0
3876.018,171.387,38.574,35.156,58.105,61.035,0
3876.022,-223.633,42.480,44.922,-14.160,-17.090,0
3876.026,-154.785,36.621,38.574,-20.020,5.859,0
3876.029,243.164,33.691,28.809,64.941,55.176,0
3876.033,270.020,39.062,35.645,81.055,13.184,0
3876.037,-132.324,44.434,43.945,-2.441,-9.277,0
3876.041,-229.492,41.992,40.039,-20.508,38.086,0
3876.045,129.883,32.715,29.297,49.805,44.922,0
3876.049,322.266,31.250,26.367,79.102,19.531,0
3876.053,-27.832,44.434,36.133,11.230,1.465,0
3876.057,-275.879,46.387,36.621,-39.062,8.789,0
3876.061,20.020,35.156,28.320,13.672,53.711,0
3876.065,336.426,33.203,28.809,82.520,-21.973,0
3876.068,90.332,44.922,40.527,52.734,-35.156,0
3876.072,-263.184,49.805,44.922,-19.531,-1.953,0
3876.076,-82.520,42.969,36.621,4.395,-39.062,0
3876.080,312.988,34.668,27.832,79.102,3.906,0
3876.084,192.871,40.527,35.645,59.570,55.664,0
3876.088,-223.633,45.898,42.480,-18.555,84.961,0
3876.092,-188.965,38.574,37.598,-12.695,87.891,0
3876.096,207.031,32.227,27.344,47.852,79.102,0
3876.100,262.207,33.203,28.320,58.105,41.504,0
3876.104,-135.742,40.039,41.992,3.418,50.293,0
3876.108,-248.535,41.992,40.039,-26.367,62.012,0
3876.111,114.258,34.180,29.785,38.086,36.133,0
3876.115,328.613,29.297,30.273,72.754,20.996,0
3876.119,-11.230,38.574,37.598,7.324,44.922,0
3876.123,-295.410,41.504,38.086,-39.551,64.941,0
3876.127,-20.996,31.738,33.691,3.418,27.832,0
3876.131,325.684,26.855,32.227,67.383,23.926,0
3876.135,92.773,34.668,33.203,33.203,3.906,0
3876.139,-279.785,42.480,36.621,-36.133,30.762,0
3876.143,-122.559,40.527,34.668,-15.137,20.020,0
3876.147,273.926,35.156,29.297,61.523,39.551,0
3876.151,202.637,38.574,37.109,60.547,23.438,0
3876.154,-205.566,45.410,45.898,-18.066,-21.973,0
3876.158,-211.426,41.016,42.480,-35.645,20.508,0
3876.162,185.059,30.762,35.645,41.992,43.457,0
3876.166,281.738,32.715,33.691,70.801,39.062,0
3876.170,-101.562,41.504,41.504,6.348,47.852,0
3876.174,-258.789,43.457,41.504,-31.738,39.551,0
3876.178,71.289,34.668,28.809,9.277,70.801,0
3876.182,326.660,31.250,26.367,66.406,56.641,0
3876.186,24.902,42.480,35.645,22.949,17.090,0
3876.190,-275.391,48.340,37.109,-45.898,57.617,0
3876.193,-38.086,41.016,29.785,-8.789,38.086,0
3876.197,321.289,31.738,26.855,63.965,47.852,0
3876.201,134.277,38.574,37.109,44.922,90.332,0
3876.205,-262.207,43.945,42.480,-31.250,99.609,0
3876.209,-159.668,36.621,37.598,-21.484,47.852,0
3876.213,252.930,31.738,32.227,51.758,-4.883,0
3876.217,223.633,32.227,31.250,49.805,11.230,0
3876.221,-194.824,42.480,41.504,-17.578,16.113,0
3876.225,-225.586,45.898,44.434,-27.344,34.180,0
3876.229,165.527,36.133,31.250,43.945,35.645,0
3876.233,302.246,37.598,26.367,64.941,22.949,0
3876.236,-76.660,45.898,35.156,-4.395,10.254,0
3876.240,-269.531,46.387,44.434,-30.273,6.348,0
3876.244,48.340,40.039,35.156,28.809,8.301,0
3876.248,325.195,34.668,26.367,74.219,-20.020,0
3876.252,39.551,41.016,35.156,23.926,33.691,0
3876.256,-277.832,44.922,40.039,-39.551,75.684,0
3876.260,-57.129,38.086,34.668,-1.465,47.852,0
3876.264,318.359,33.203,30.762,73.730,56.641,0
3876.268,165.527,42.480,36.621,54.688,37.109,0
3876.272,-240.234,47.852,44.922,-18.066,68.359,0
3876.276,-156.250,41.504,41.504,-17.090,22.949,0
3876.279,259.766,37.598,31.738,48.340,24.414,0
3876.283,266.113,43.945,39.062,64.453,27.344,0
3876.287,-153.809,48.340,46.387,-2.441,-26.855,0
3876.291,-229.980,40.527,41.016,-31.738,-37.109,0
3876.295,137.695,34.668,33.691,40.039,-10.254,0
3876.299,306.152,37.109,31.738,78.125,30.273,0
3876.303,-47.363,43.457,40.527,13.672,-35.645,0
3876.307,-282.715,40.039,39.062,-39.062,-27.344,0
3876.311,23.926,35.156,35.645,14.648,56.152,0
3876.315,340.332,37.598,36.621,77.637,35.645,0
3876.318,71.777,41.992,37.598,25.879,17.578,0
3876.322,-274.902,44.434,41.504,-43.457,25.879,0
3876.326,-81.543,40.527,36.133,-11.230,14.648,0
3876.330,299.805,33.203,27.344,62.012,28.320,0
3876.334,174.805,34.668,33.203,44.922,58.594,0
3876.338,-228.516,43.457,36.133,-23.438,32.227,0
3876.342,-184.570,42.969,35.645,-11.719,28.809,0
3876.346,208.008,30.762,33.691,54.199,50.293,0
3876.350,265.625,30.273,28.809,58.594,30.762,0
3876.354,-130.371,45.410,34.180,-13.672,-0.977,0
3876.358,-248.535,46.875,35.645,-34.668,27.344,0
3876.361,113.281,42.969,29.297,41.504,69.824,0
3876.365,324.219,41.016,28.320,75.195,58.105,0
3876.369,-25.391,41.992,34.180,11.230,48.340,0
3876.373,-291.016,41.992,35.156,-33.691,11.230,0
3876.377,-7.324,37.109,29.297,4.395,-59.082,1
3876.381,322.266,33.203,24.414,64.941,-50.781,0
3876.385,96.680,41.016,32.715,32.715,12.207,0
3876.389,-267.578,46.875,38.574,-29.785,38.574,0
3876.393,-116.211,40.039,31.738,-4.883,73.730,0
3876.397,288.574,33.203,24.902,55.664,118.164,0
3876.401,210.938,38.086,30.762,46.875,27.832,0
3876.404,-217.773,44.434,40.039,-25.879,-54.688,0
3876.408,-202.148,40.527,37.109,-28.320,3.906,0
3876.412,202.148,35.156,27.832,47.852,4.883,0
3876.416,282.715,37.598,26.367,65.430,47.852,0
3876.420,-114.258,46.387,37.598,3.418,63.477,0
3876.424,-270.996,46.387,42.480,-21.484,7.324,0
3876.428,78.125,33.203,29.785,25.391,9.766,0
3876.432,328.125,32.227,23.926,65.918,35.645,0
3876.436,12.207,40.039,33.691,19.043,63.965,0
3876.440,-285.156,42.969,37.598,-34.180,-0.488,0
3876.443,-34.180,40.527,33.691,1.465,-49.316,0
3876.447,316.895,35.645,28.809,62.500,-15.137,0
3876.451,115.723,41.992,31.250,28.809,-13.672,0
3876.455,-261.230,48.828,39.551,-32.715,31.250,0
3876.459,-132.812,44.434,38.086,-11.719,31.250,0
3876.463,271.484,41.016,30.762,59.570,30.762,0
3876.467,226.074,44.922,34.668,66.895,18.066,0
3876.471,-186.523,44.922,44.434,0.488,-14.648,0
3876.475,-218.750,41.992,42.969,-12.695,41.016,0
3876.479,166.992,38.574,33.203,45.898,52.734,0
3876.483,306.152,41.504,34.180,68.359,29.297,0
3876.486,-66.895,50.781,40.527,-2.441,-18.066,0
3876.490,-267.090,45.898,39.062,-43.457,15.625,0
3876.494,56.641,37.109,32.227,11.719,71.777,0
3876.498,326.172,34.668,31.250,64.453,22.461,0
3876.502,34.180,41.504,38.574,23.438,12.207,0
3876.506,-281.250,43.945,36.621,-39.551,57.617,0
3876.510,-62.500,35.645,29.297,-3.906,3.418,0
3876.514,308.594,28.809,26.367,65.918,0.977,0
3876.518,147.461,34.668,33.203,45.898,55.176,0
3876.522,-240.723,43.945,42.480,-21.484,66.406,0
3876.526,-147.461,40.527,38.574,-23.926,33.691,0
3876.529,260.742,33.691,30.273,54.199,1.465,0
3876.533,256.348,37.598,35.645,66.406,18.555,0
3876.537,-165.039,47.363,44.434,-12.207,9.766,0
3876.541,-226.074,44.434,45.410,-19.043,-10.254,0
3876.545,144.043,33.203,34.668,55.664,38.086,0
3876.549,301.758,37.109,30.273,78.125,-24.902,0
3876.553,-47.363,45.410,41.504,4.883,-2.930,0
3876.557,-269.043,40.527,42.969,-33.203,57.129,0
3876.561,25.879,36.133,37.598,33.203,53.711,0
3876.565,331.055,42.969,39.062,84.961,69.336,0
3876.568,72.266,50.781,44.922,45.898,47.363,0
3876.572,-261.719,47.852,41.992,-14.648,81.055,0
3876.576,-74.707,43.457,29.785,1.953,65.430,0
3876.580,305.664,41.992,24.414,74.707,16.602,0
3876.584,177.246,46.387,34.668,53.711,36.621,0
3876.588,-239.746,50.781,42.480,-25.879,6.836,0
3876.592,-189.453,45.898,37.109,-18.555,37.598,0
3876.596,217.285,35.645,29.297,54.199,47.363,0
3876.600,253.418,39.062,33.691,71.777,64.453,0
3876.604,-153.320,48.828,42.480,1.465,76.172,0
3876.608,-254.883,45.410,40.527,-19.531,40.039,0
3876.611,115.234,35.645,34.180,39.551,31.250,0
3876.615,314.453,31.738,31.738,66.406,37.109,0
3876.619,-22.461,40.527,35.645,19.043,6.836,0
3876.623,-275.879,50.293,41.992,-15.625,2.930,0
3876.627,16.113,38.574,41.504,22.461,2.441,0
3876.631,342.285,27.344,32.715,78.125,-42.969,0
3876.635,93.262,37.598,36.133,58.105,22.461,0
3876.639,-260.742,42.480,43.945,-17.578,82.031,0
3876.643,-99.609,39.551,44.434,-9.277,59.082,0
3876.647,288.086,34.668,36.621,73.730,43.457,0
3876.651,198.242,35.156,36.621,65.918,13.184,0
3876.654,-216.797,40.527,43.945,-12.695,-0.977,0
3876.658,-203.613,36.133,39.062,-16.113,38.086,0
3876.662,199.707,29.297,34.668,48.340,38.086,0
3876.666,281.250,34.180,38.086,66.406,14.648,0
3876.670,-117.676,40.527,43.457,5.859,25.391,0
3876.674,-256.348,41.504,43.457,-26.855,28.809,0
3876.678,84.473,35.156,32.227,30.273,-15.625,0
3876.682,320.801,33.691,30.273,72.754,21.973,0
3876.686,15.137,42.969,41.504,18.555,56.641,0
3876.690,-268.066,45.410,44.434,-29.297,46.875,0
3876.693,-16.602,39.062,39.062,7.812,44.434,0
3876.697,329.102,36.621,32.715,63.965,29.785,0
3876.701,120.117,48.340,39.062,47.363,29.785,0
3876.705,-257.812,52.734,46.387,-17.578,23.926,0
3876.709,-127.441,40.039,36.621,-14.160,-13.184,0
3876.713,278.320,34.180,28.320,64.453,21.484,0
3876.717,223.145,38.574,31.738,62.500,66.406,0
3876.721,-197.754,45.898,41.504,-13.184,21.484,0
3876.725,-216.797,45.410,40.039,-15.625,-19.531,0
3876.729,171.387,37.109,25.879,45.410,-11.230,0
3876.733,290.527,38.574,25.879,70.801,15.137,0
3876.736,-86.426,48.828,40.039,13.184,42.480,0
3876.740,-268.066,49.316,42.480,-28.809,31.738,0
3876.744,50.293,43.457,33.203,15.137,38.574,0
3876.748,318.359,39.062,27.344,62.012,6.836,0
3876.752,29.297,42.480,36.621,25.879,-10.254,0
3876.756,-281.738,44.434,42.969,-29.297,29.297,0
3876.760,-58.594,37.598,38.086,-5.371,-15.625,0
3876.764,305.176,34.668,32.715,62.500,-12.695,0
3876.768,138.184,39.062,34.668,43.457,72.754,0
3876.772,-254.883,45.898,40.527,-27.344,10.742,0
3876.776,-154.297,42.969,38.574,-28.809,-47.852,0
3876.779,265.137,36.133,30.762,48.340,15.625,0
3876.783,244.629,43.457,35.156,62.988,27.832,0
3876.787,-177.734,48.828,42.969,-16.113,19.531,0
3876.791,-228.516,41.016,39.551,-29.297,1.953,0
3876.795,151.855,34.180,32.227,31.250,22.461,0
3876.799,307.129,34.180,32.227,60.547,37.109,0
3876.803,-65.430,41.992,40.039,5.371,-18.555,0
3876.807,-287.598,42.480,40.039,-42.480,-6.348,0
3876.811,23.438,34.180,29.785,8.789,42.969,0
3876.815,321.289,29.297,25.879,69.824,62.988,0
3876.818,54.199,36.133,37.109,25.879,41.016,0
3876.822,-272.461,41.504,39.551,-27.344,34.180,0
3876.826,-81.543,35.156,30.762,2.441,15.625,0
3876.830,291.016,29.785,28.809,65.430,4.395,0
3876.834,170.898,37.109,40.039,48.828,41.016,0
3876.838,-231.445,44.434,44.434,-32.227,9.277,0
3876.842,-179.199,41.992,40.039,-24.902,-20.020,0
3876.846,225.098,38.086,37.598,55.664,-2.441,0
3876.850,255.859,38.086,32.227,65.918,38.086,0
3876.854,-154.297,41.504,36.621,-7.812,54.199,0
3876.858,-252.930,37.109,37.598,-33.691,45.410,0
3876.861,110.352,35.156,31.250,26.367,43.457,0
3876.865,310.059,36.621,30.273,59.570,-7.324,0
3876.869,-18.066,42.480,37.598,2.930,2.441,0
3876.873,-278.809,46.387,40.039,-44.922,32.715,0
3876.877,-13.184,37.598,33.203,-4.883,50.293,0
3876.881,326.172,35.156,33.203,63.965,55.176,0
3876.885,88.867,43.945,40.527,33.203,5.371,0
3876.889,-277.832,46.387,40.527,-35.156,23.438,0
3876.893,-113.770,40.039,31.250,-18.555,32.715,0
3876.897,282.227,35.156,24.414,54.688,38.574,0
3876.901,188.477,39.062,30.273,56.152,58.594,0
3876.904,-220.215,43.457,36.621,-20.020,50.781,0
3876.908,-197.754,36.621,34.180,-24.902,28.320,0
3876.912,194.824,29.785,28.809,40.039,55.176,0
3876.916,266.602,30.762,28.809,54.688,58.105,0
3876.920,-128.906,38.086,37.598,-9.766,28.320,0
3876.924,-249.512,37.109,41.504,-39.551,38.086,0
3876.928,100.098,32.227,32.227,27.344,19.531,0
3876.932,310.547,32.227,26.855,78.613,14.648,0
3876.936,-11.719,36.621,34.668,13.672,54.688,0
3876.940,-277.344,44.922,38.086,-37.109,62.988,0
3876.943,-11.230,40.039,31.250,15.137,60.059,2
3876.947,333.496,32.227,21.973,70.801,20.996,0
3876.951,112.305,38.086,28.320,40.039,42.480,0
3876.955,-270.996,41.504,38.574,-25.879,22.461,0
3876.959,-126.465,36.621,33.691,-8.789,31.250,0
3876.963,280.762,34.668,31.738,70.312,46.387,0
3876.967,238.281,41.016,38.086,63.477,25.879,0
3876.971,-183.105,43.945,42.969,-14.160,29.297,0
3876.975,-220.215,35.156,37.109,-14.160,-6.836,0
3876.979,166.016,26.855,27.344,53.223,-3.906,0
3876.983,287.109,32.227,30.762,78.125,10.254,0
3876.986,-89.844,39.551,39.062,11.230,22.949,0
3876.990,-265.625,39.551,39.551,-29.297,61.035,0
3876.994,67.383,32.227,31.738,34.668,36.133,0
3876.998,328.613,30.273,27.344,84.473,12.207,0
3877.002,31.250,42.969,39.062,33.203,7.324,0
3877.006,-278.809,44.922,47.363,-22.949,-43.457,0
3877.010,-49.805,30.762,36.621,7.812,-64.453,0
3877.014,312.988,26.855,30.762,70.801,18.555,0
3877.018,142.578,37.598,37.598,42.480,61.523,0
3877.022,-244.629,41.992,44.922,-39.551,1.465,0
3877.026,-145.020,36.133,40.527,-22.461,29.785,0
3877.029,256.836,29.297,33.203,55.176,48.828,0
3877.033,247.559,34.180,38.574,59.570,51.758,0
3877.037,-159.180,46.875,43.457,-10.742,57.129,0
3877.041,-213.867,46.387,40.039,-23.438,39.551,0
3877.045,156.250,39.062,30.762,46.875,69.824,0
3877.049,291.992,38.086,30.273,76.660,13.184,0
3877.053,-65.918,46.875,39.062,9.766,6.348,0
3877.057,-276.855,48.340,37.598,-38.086,41.992,0
3877.061,35.156,40.527,30.273,18.066,-2.441,0
3877.065,329.590,35.156,26.367,67.383,11.230,0
3877.068,51.758,40.527,34.668,29.297,32.227,0
3877.072,-280.273,46.387,36.621,-32.227,29.297,0
3877.076,-80.078,41.992,27.344,-13.184,25.879,0
3877.080,302.246,34.668,26.367,67.383,25.879,0
3877.084,161.621,40.039,35.156,62.012,37.109,0
3877.088,-241.699,46.875,36.621,-22.461,55.664,0
3877.092,-166.992,42.480,29.297,-28.320,43.945,0
3877.096,242.188,35.156,24.414,45.410,45.410,0
3877.100,253.418,37.598,28.809,64.941,37.109,0
3877.104,-163.574,42.969,39.062,0.977,-24.902,0
3877.108,-247.559,40.527,35.645,-28.809,7.812,0
3877.111,121.582,35.645,26.367,32.227,73.242,0
3877.115,314.941,31.738,24.902,69.824,54.199,0
3877.119,-41.016,37.109,34.180,8.301,29.297,0
3877.123,-286.133,40.039,43.945,-33.691,59.082,0
3877.127,7.812,31.738,35.645,-2.441,42.480,0
3877.131,323.242,30.273,27.832,46.875,-5.371,0
3877.135,77.637,40.039,35.645,25.391,-24.902,0
3877.139,-269.531,42.480,40.527,-31.738,-34.668,0
3877.143,-89.355,42.480,39.062,-1.953,-33.203,0
3877.147,286.133,35.156,29.785,67.871,3.418,0
3877.151,168.945,30.762,31.250,52.246,1.953,0
3877.154,-239.746,35.156,41.504,-29.785,-5.859,0
3877.158,-203.613,32.715,33.203,-41.016,20.020,0
3877.162,196.289,29.297,26.855,41.016,39.062,0
3877.166,253.906,31.738,30.762,70.801,63.477,0
3877.170,-141.602,34.668,36.621,-4.883,33.203,0
3877.174,-261.719,33.691,33.691,-41.992,13.184,0
3877.178,93.262,28.809,24.902,17.578,17.090,0
3877.182,322.266,30.273,24.902,70.801,35.645,0
3877.186,0.000,36.621,32.227,21.973,-6.836,0
3877.190,-280.273,38.574,35.156,-39.062,-11.719,0
3877.193,-21.973,33.691,29.297,-0.977,15.625,0
3877.197,317.871,27.344,27.344,66.406,-6.348,0
3877.201,111.328,32.227,38.086,47.363,31.250,0
3877.205,-264.160,40.039,45.898,-21.973,3.906,0
3877.209,-134.277,35.156,39.551,-9.277,-48.828,0
3877.213,272.461,27.832,28.809,62.500,16.113,0
3877.217,217.773,33.691,31.250,58.594,58.594,0
3877.221,-192.383,42.969,44.922,-11.719,27.344,0
3877.225,-206.543,40.527,46.875,-17.578,52.246,0
3877.229,177.734,30.762,36.621,38.574,25.879,0
3877.233,287.598,30.273,36.621,63.965,11.230,0
3877.236,-89.844,39.062,43.945,0.977,15.137,0
3877.240,-258.301,40.039,43.945,-40.527,30.273,0
3877.244,78.613,32.715,35.645,31.250,70.312,0
3877.248,338.867,29.785,30.762,84.473,26.855,0
3877.252,21.484,39.062,40.039,17.090,30.762,0
3877.256,-287.598,42.969,43.457,-37.598,103.027,0
3877.260,-52.246,35.645,32.715,7.324,87.891,0
3877.264,321.777,33.691,30.762,67.871,41.992,0
3877.268,145.508,41.016,36.133,37.109,41.504,0
3877.272,-258.301,43.457,39.551,-31.250,25.391,0
3877.276,-145.020,39.551,37.109,-10.742,5.859,0
3877.279,260.254,36.621,31.738,65.430,13.672,0
3877.283,227.051,39.062,35.645,50.293,52.734,0
3877.287,-180.664,49.316,41.016,-28.809,29.785,0
3877.291,-227.539,46.387,41.992,-26.367,32.227,0
3877.295,152.832,37.109,35.156,39.062,43.457,0
3877.299,299.805,38.086,33.203,65.918,23.926,0
3877.303,-68.848,46.875,43.945,4.883,27.344,0
3877.307,-273.926,41.504,46.875,-48.828,32.227,0
3877.311,35.156,29.297,37.598,7.812,46.387,0
3877.315,332.520,30.762,32.227,65.430,20.996,0
3877.318,53.223,37.109,38.086,16.113,-11.719,0
3877.322,-283.203,37.109,43.945,-41.992,-20.508,0
3877.326,-71.777,31.250,34.668,-12.695,-36.621,0
3877.330,304.688,27.832,24.414,54.199,-7.812,0
3877.334,161.621,33.691,33.691,45.410,59.570,0
3877.338,-249.512,41.504,42.480,-10.742,66.895,0
3877.342,-180.176,41.016,37.109,-14.160,26.367,0
3877.346,232.910,35.156,32.715,52.734,46.387,0
3877.350,250.000,35.156,35.645,71.777,29.297,0
3877.354,-163.574,41.504,40.527,-14.648,-29.297,0
3877.358,-245.605,39.551,40.527,-42.969,-42.969,0
3877.361,124.512,35.645,35.156,35.156,6.348,0
3877.365,306.152,34.180,35.645,71.777,-2.441,0
3877.369,-39.062,35.645,39.551,13.672,19.531,0
3877.373,-272.949,38.086,45.410,-25.391,49.316,0
3877.377,17.578,33.203,40.527,20.508,9.766,0
3877.381,325.195,31.250,32.227,75.684,2.930,0
3877.385,83.496,35.645,40.039,45.410,12.207,0
3877.389,-261.230,39.062,43.945,-12.695,34.180,0
3877.393,-88.867,34.668,38.574,-2.441,45.410,0
3877.397,299.805,27.832,31.250,62.500,19.043,0
3877.401,192.871,37.598,34.668,58.105,20.020,0
3877.404,-224.121,46.875,47.852,-13.672,-27.344,0
3877.408,-187.988,37.598,41.504,-15.137,-43.457,0
3877.412,211.914,29.297,29.297,59.082,7.812,0
3877.416,268.066,33.203,32.715,70.801,-10.254,0
3877.420,-124.512,41.504,42.969,-8.301,32.715,0
3877.424,-244.629,38.574,42.480,-31.250,10.742,0
3877.428,102.051,27.344,34.668,29.785,-13.672,0
3877.432,306.641,28.320,34.180,66.406,61.523,0
3877.436,-18.555,39.551,41.992,19.043,45.898,0
3877.440,-285.645,41.504,43.945,-31.738,62.012,0
3877.443,-22.949,35.645,36.133,1.953,61.035,0
3877.447,322.754,27.832,30.273,66.406,14.648,0
3877.451,106.445,32.227,36.621,34.180,-7.324,0
3877.455,-270.996,38.086,43.945,-33.203,-42.480,0
3877.459,-122.559,31.250,37.109,-10.254,-0.488,0
3877.463,283.691,30.273,31.250,64.941,41.016,0
3877.467,226.074,35.645,33.691,62.500,75.684,0
3877.471,-193.848,38.086,39.551,-13.184,39.551,0
3877.475,-208.984,35.645,36.621,-26.367,-17.578,0
3877.479,180.664,28.809,27.344,47.363,57.129,0
3877.483,283.203,29.297,28.809,75.684,24.414,0
3877.486,-97.656,35.645,41.016,14.648,-6.348,0
3877.490,-259.766,33.203,46.875,-24.414,30.762,2
3877.494,79.590,27.344,36.133,31.738,32.227,0
3877.498,326.660,26.855,28.809,79.590,25.391,0
3877.502,21.973,37.109,38.574,22.461,8.789,0
3877.506,-274.414,42.480,39.062,-38.574,20.020,0
3877.510,-35.156,32.227,27.832,-6.836,-8.301,0
3877.514,328.613,24.902,21.973,62.988,7.324,0
3877.518,138.184,33.203,28.320,41.992,74.219,0
3877.522,-253.418,40.527,40.527,-20.020,40.039,0
3877.526,-142.578,34.668,36.621,-10.254,-26.367,0
3877.529,259.766,28.320,24.902,55.664,-3.906,0
3877.533,233.398,32.715,30.273,59.570,72.266,0
3877.537,-181.152,38.086,38.574,-16.113,27.832,0
3877.541,-240.234,37.109,38.086,-25.391,20.508,0
3877.545,145.996,28.809,29.785,37.109,55.176,0
3877.549,292.480,27.344,24.414,55.176,67.383,0
3877.553,-78.125,33.691,35.645,0.977,119.629,0
3877.557,-279.297,33.691,39.062,-38.086,62.500,0
3877.561,41.016,31.738,29.785,20.020,18.555,0
3877.565,329.590,28.320,25.879,73.242,-20.996,0
3877.568,34.180,28.320,28.320,13.672,-15.137,0
3877.572,-287.109,30.273,31.250,-43.457,-0.488,0
3877.576,-66.895,25.391,30.273,-1.953,28.809,0
3877.580,309.570,25.391,28.320,64.941,68.359,0
3877.584,148.926,37.109,35.645,43.457,58.105,0
3877.588,-257.812,43.457,40.039,-43.457,31.738,0
3877.592,-167.480,32.227,31.738,-35.645,6.836,0
3877.596,255.371,23.926,28.320,62.012,32.715,0
3877.600,261.230,33.203,33.203,70.801,32.715,0
3877.604,-172.852,42.480,37.598,-8.789,2.441,0
3877.608,-255.859,37.109,34.180,-30.762,31.250,0
3877.611,125.488,27.832,27.344,29.297,75.195,0
3877.615,304.199,29.785,24.414,68.848,73.730,0
3877.619,-45.410,41.504,33.691,16.113,72.266,0
3877.623,-277.832,45.410,38.086,-37.598,1.465,0
3877.627,15.625,35.156,28.809,-1.465,-5.371,0
3877.631,334.961,30.762,22.461,62.500,46.875,0
3877.635,81.055,40.039,29.297,32.227,23.438,0
3877.639,-284.180,44.434,34.668,-33.691,39.062,0
3877.643,-100.586,39.062,32.715,-3.418,61.035,0
3877.647,299.316,33.691,24.902,58.105,23.438,0
3877.651,177.246,36.621,28.320,40.039,22.949,0
3877.654,-230.469,41.016,37.109,-31.250,77.148,0
3877.658,-180.664,33.203,33.691,-30.762,47.363,0
3877.662,216.309,27.832,28.809,43.457,-7.812,0
3877.666,267.578,29.785,30.762,63.477,15.625,0
3877.670,-135.742,34.668,35.645,-17.090,33.691,0
3877.674,-265.137,36.133,34.668,-48.828,-19.043,0
3877.678,106.445,26.855,27.832,34.180,23.438,0
3877.682,331.055,29.297,29.297,82.031,87.891,0
3877.686,-1.953,39.551,37.109,17.578,50.293,0
3877.690,-274.902,37.598,37.598,-36.133,0.488,0
3877.693,-9.766,34.668,26.855,5.371,-29.785,0
3877.697,332.031,31.250,22.461,61.035,41.992,0
3877.701,97.656,36.621,35.156,32.715,77.148,0
3877.705,-277.832,41.504,40.039,-27.832,48.340,0
3877.709,-122.559,35.156,31.250,-16.113,40.527,0
3877.713,272.949,29.785,25.391,57.129,29.785,0
3877.717,190.430,32.715,31.738,56.152,35.156,0
3877.721,-216.309,40.039,39.551,-22.949,21.484,0
3877.725,-203.613,36.133,33.203,-36.133,57.129,0
3877.729,194.824,29.785,28.320,35.156,27.344,0
3877.733,285.645,32.715,33.203,61.035,-9.277,0
3877.736,-103.027,38.574,39.551,-0.977,26.855,0
3877.740,-254.883,38.574,42.480,-37.109,28.809,0
3877.744,79.102,33.203,33.691,17.578,55.176,0
3877.748,314.941,32.715,26.367,69.336,7.324,0
3877.752,4.395,39.062,34.668,16.113,29.785,0
3877.756,-290.527,41.504,40.039,-48.828,50.293,0
3877.760,-43.945,35.645,33.203,-8.301,4.883,0
3877.764,317.383,30.762,28.320,61.035,13.672,0
3877.768,110.840,35.645,36.133,37.598,35.645,0
3877.772,-272.461,43.945,43.457,-34.180,0.000,0
3877.776,-141.113,40.527,36.133,-26.855,-58.594,0
3877.779,258.301,33.203,29.785,55.664,-1.465,0
3877.783,229.004,37.109,38.574,57.129,73.730,0
3877.787,-180.664,41.504,45.898,-17.578,58.594,0
3877.791,-230.469,36.133,38.086,-27.832,-1.465,0
3877.795,150.879,28.809,28.320,33.691,2.930,0
3877.799,288.086,27.832,30.273,61.523,46.387,0
3877.803,-84.473,36.133,39.062,1.953,7.812,0
3877.807,-268.555,40.527,38.574,-21.973,-40.527,0
3877.811,55.176,33.203,32.715,39.062,-13.184,0
3877.815,321.289,28.320,35.645,84.473,68.848,0
3877.818,34.668,35.645,42.480,31.738,54.688,0
3877.822,-282.227,42.969,48.828,-40.039,-35.156,0
3877.826,-75.684,35.156,42.969,-1.953,-40.039,0
3877.830,296.387,23.926,32.227,66.406,20.020,0
3877.834,161.621,33.691,40.039,50.293,36.133,0
3877.838,-227.539,45.898,43.945,-20.996,9.277,0
3877.842,-170.410,37.109,39.062,-14.648,9.277,0
3877.846,221.680,27.344,31.250,56.152,-38.086,0
3877.850,235.840,29.785,30.762,62.012,-3.418,0
3877.854,-174.805,38.086,42.969,1.953,39.551,0
3877.858,-244.629,38.574,43.457,-24.414,16.113,0
3877.861,146.973,34.668,37.109,37.109,21.973,0
3877.865,315.918,34.668,38.574,86.426,33.691,0
3877.869,-56.641,38.574,40.527,11.230,33.203,0
3877.873,-283.203,39.062,39.062,-38.086,68.359,0
3877.877,22.949,31.250,34.180,15.137,47.363,0
3877.881,319.824,28.320,28.809,61.035,59.570,0
3877.885,62.012,36.621,33.691,27.344,52.734,0
3877.889,-280.762,37.598,37.598,-28.320,32.715,0
3877.893,-104.492,31.738,31.738,-12.207,30.762,0
3877.897,283.691,27.344,25.391,51.758,41.016,0
3877.901,173.340,33.691,33.691,43.945,63.477,0
3877.904,-235.352,41.016,43.457,-19.531,5.859,0
3877.908,-195.801,38.086,38.086,-20.996,8.789,0
3877.912,212.891,30.273,31.250,47.363,63.965,0
3877.916,264.160,33.203,32.227,64.453,42.969,0
3877.920,-150.879,42.480,43.945,-12.207,25.879,0
3877.924,-265.137,43.945,45.898,-38.574,19.043,0
3877.928,94.727,34.668,33.691,25.391,-4.883,0
3877.932,306.641,29.785,28.809,82.520,37.598,0
3877.936,-25.879,38.086,39.062,23.438,36.621,0
3877.940,-283.203,39.062,44.922,-42.480,46.387,0
3877.943,-2.930,30.762,37.109,0.977,76.660,0
3877.947,332.520,24.902,29.297,62.988,18.555,0
3877.951,105.469,32.715,36.133,31.738,78.613,0
3877.955,-257.812,40.527,46.875,-24.902,65.430,0
3877.959,-102.539,33.691,41.016,0.000,-42.480,0
3877.963,285.645,27.344,32.715,66.406,-2.930,0
3877.967,201.660,30.762,36.621,50.781,67.383,0
3877.971,-210.938,35.156,42.480,-27.344,65.918,0
3877.975,-192.871,33.691,38.086,-26.367,7.324,0
3877.979,208.984,30.762,32.227,45.410,-16.113,0
3877.983,292.969,36.621,32.227,69.336,30.273,0
3877.986,-105.957,42.969,36.621,-3.418,42.969,0
3877.990,-266.113,39.062,38.574,-35.645,25.391,0
3877.994,73.242,32.227,32.715,29.297,8.789,0
3877.998,315.918,29.297,33.203,60.547,41.504,0
3878.002,5.371,38.086,43.945,16.113,77.148,0
3878.006,-279.785,41.992,45.898,-39.062,21.484,0
3878.010,-25.391,34.180,35.156,-3.418,8.789,0
3878.014,335.449,33.203,27.832,78.125,61.523,0
3878.018,143.066,39.551,32.227,45.410,90.332,0
3878.022,-256.348,44.922,40.527,-26.367,45.410,0
3878.026,-141.113,42.480,41.504,-7.812,1.953,0
3878.029,270.508,34.180,33.203,55.664,0.977,0
3878.033,224.121,35.156,36.133,54.688,46.387,0
3878.037,-189.941,42.969,43.457,-16.113,70.801,0
3878.041,-213.379,43.457,38.086,-28.809,13.672,0
3878.045,166.504,32.227,27.832,43.945,-23.926,0
3878.049,287.109,27.832,26.855,60.059,9.766,0
3878.053,-82.520,36.621,36.621,-5.859,-8.789,0
3878.057,-276.855,30.273,35.645,-35.645,37.109,0
3878.061,43.945,24.414,31.738,0.488,45.898,0
3878.065,324.707,29.297,31.738,63.477,18.555,0
3878.068,40.527,36.621,36.621,35.156,61.035,0
3878.072,-275.391,42.969,41.992,-33.691,34.668,0
3878.076,-57.617,38.086,36.621,-5.371,5.371,0
3878.080,311.035,34.668,31.738,67.871,62.012,0
3878.084,144.531,43.457,41.504,52.734,65.430,0
3878.088,-245.117,47.363,45.898,-17.578,-11.719,0
3878.092,-144.531,42.480,40.039,-1.953,-13.672,0
3878.096,255.371,35.645,34.180,64.941,26.855,0
3878.100,250.488,34.668,34.180,65.430,46.875,0
3878.104,-160.645,44.434,46.387,5.859,21.484,0
3878.108,-234.375,38.574,42.480,-24.902,-3.418,0
3878.111,145.020,27.832,30.762,26.855,46.387,0
3878.115,299.805,31.250,34.668,72.266,90.820,0
3878.119,-61.035,39.062,42.969,12.695,81.055,0
3878.123,-275.879,41.504,44.922,-29.297,22.461,0
3878.127,31.738,35.156,38.086,26.855,8.789,0
3878.131,334.473,31.250,35.156,77.637,6.348,0
3878.135,65.430,38.086,43.457,31.250,0.977,0
3878.139,-272.461,41.992,45.898,-33.691,27.832,0
3878.143,-78.125,37.109,40.527,-3.906,61.035,0
3878.147,307.129,30.273,34.668,70.312,20.020,0
3878.151,176.758,35.156,40.039,60.059,23.438,0
3878.154,-233.887,42.480,48.340,-21.973,28.320,0
3878.158,-174.805,38.574,44.922,-12.695,-9.277,0
3878.162,221.191,31.738,37.109,61.523,16.113,0
3878.166,253.906,35.156,36.133,61.523,37.109,0
3878.170,-141.113,44.922,40.527,-13.184,15.625,1
3878.174,-239.746,42.480,39.551,-35.156,24.414,0
3878.178,117.188,33.691,31.738,34.668,44.434,0
3878.182,311.523,31.250,32.227,73.730,33.691,0
3878.186,-29.785,38.574,39.062,25.391,-1.465,0
3878.190,-279.297,38.086,40.527,-24.902,-6.348,0
3878.193,4.883,31.250,36.133,4.883,16.602,0
3878.197,330.078,29.297,30.273,74.707,-26.367,0
3878.201,90.332,35.645,41.504,44.922,6.836,0
3878.205,-276.367,41.992,49.316,-25.391,78.613,0
3878.209,-105.957,34.668,38.574,-2.441,49.805,0
3878.213,285.645,27.832,31.738,63.477,54.688,0
3878.217,181.641,30.273,36.133,56.152,41.504,0
3878.221,-226.562,37.598,41.016,-13.672,8.789,0
3878.225,-196.289,35.645,35.645,-19.043,56.641,0
3878.229,213.379,27.832,26.855,45.410,1.465,0
3878.233,294.434,32.227,26.367,63.965,-14.160,0
3878.236,-109.863,40.527,32.715,2.441,12.207,0
3878.240,-256.836,40.527,37.598,-30.273,2.930,0
3878.244,79.102,32.227,31.250,32.227,14.160,0
3878.248,303.711,27.832,29.785,73.730,61.523,0
3878.252,-5.371,38.086,41.992,16.602,16.113,0
3878.256,-278.320,40.039,41.504,-33.203,-4.395,0
3878.260,-26.367,31.250,30.273,5.859,39.551,0
3878.264,321.289,31.738,28.320,68.848,29.297,0
3878.268,118.164,38.086,31.738,39.062,45.410,0
3878.272,-256.348,38.574,33.691,-37.598,18.555,0
3878.276,-129.395,31.250,27.344,-24.902,27.344,0
3878.279,257.812,24.414,20.508,49.316,43.457,0
3878.283,211.914,27.344,30.273,48.828,77.148,0
3878.287,-189.941,32.227,41.016,-23.438,58.594,0
3878.291,-208.008,32.715,36.133,-35.156,-6.348,0
3878.295,181.152,28.320,28.320,41.992,17.578,0
3878.299,295.410,27.832,28.320,68.359,-4.395,0
3878.303,-84.473,33.691,36.621,3.418,-9.766,0
3878.307,-251.465,32.227,37.109,-29.785,39.062,0
3878.311,74.707,24.414,28.320,20.508,46.875,0
3878.315,332.520,24.414,28.809,79.102,51.758,0
3878.318,41.992,38.086,38.574,32.227,12.695,0
3878.322,-269.043,41.016,39.551,-33.691,45.410,0
3878.326,-46.387,31.738,37.109,6.836,62.012,0
3878.330,313.965,26.367,30.762,72.754,16.602,0
3878.334,148.438,33.203,33.203,40.527,19.531,0
3878.338,-235.840,41.992,43.457,-22.949,67.383,0
3878.342,-145.020,39.551,40.039,-11.230,68.359,0
3878.346,250.977,35.645,33.203,54.688,27.832,0
3878.350,233.887,32.227,33.203,62.500,0.977,0
3878.354,-178.711,35.156,39.551,-12.207,12.207,0
3878.358,-233.398,34.180,33.691,-29.297,28.809,0
3878.361,143.555,30.273,24.902,40.039,18.555,0
3878.365,296.875,34.180,30.762,60.059,46.875,0
3878.369,-54.688,41.992,41.016,0.488,41.992,0
3878.373,-271.973,44.922,39.551,-34.180,8.789,0
3878.377,12.695,36.133,29.785,3.906,6.348,0
3878.381,309.570,31.250,29.297,60.547,70.312,0
3878.385,53.223,42.480,38.574,29.785,51.758,0
3878.389,-276.855,45.410,40.039,-39.551,-16.113,0
3878.393,-79.590,36.133,33.203,-12.207,-14.648,0
3878.397,293.457,30.762,29.297,59.570,2.930,0
3878.401,151.855,38.086,35.645,46.875,66.895,0
3878.404,-244.629,45.410,45.410,-15.137,56.641,0
3878.408,-184.570,43.945,41.992,-15.625,33.691,0
3878.412,208.984,37.109,34.180,50.293,30.762,0
3878.416,247.070,33.691,34.668,62.988,11.230,0
3878.420,-145.508,40.527,42.480,-5.859,14.648,0
3878.424,-244.141,41.504,44.922,-25.391,-0.977,0
3878.428,111.816,31.738,38.086,40.039,18.555,0
3878.432,306.641,29.297,34.180,71.289,36.133,0
3878.436,-20.508,39.551,39.062,13.672,39.551,0
3878.440,-264.648,43.945,43.945,-30.762,86.914,0
3878.443,3.906,40.527,40.039,16.602,56.641,0
3878.447,320.801,34.668,29.785,85.938,87.402,0
3878.451,89.844,36.621,34.668,44.922,62.012,0
3878.455,-261.230,41.992,42.969,-30.762,47.852,0
3878.459,-93.750,41.016,38.086,2.930,53.711,0
3878.463,295.898,38.086,29.785,76.660,-3.418,0
3878.467,197.266,41.016,34.180,65.918,40.039,0
3878.471,-213.867,47.363,42.969,2.441,35.645,0
3878.475,-196.289,39.551,37.109,-18.066,65.430,0
3878.479,194.824,31.738,26.367,37.598,60.059,0
3878.483,280.273,38.086,28.809,63.477,56.641,0
3878.486,-105.469,45.410,38.086,1.465,60.059,0
3878.490,-260.742,41.992,38.574,-20.996,22.461,0
3878.494,80.078,35.645,31.250,40.527,27.344,0
3878.498,308.594,34.668,27.832,85.449,80.078,0
3878.502,-6.836,46.387,36.133,29.785,44.434,0
3878.506,-275.391,53.223,42.480,-19.043,32.715,0
3878.510,-20.508,42.969,35.156,14.648,19.531,0
3878.514,322.266,35.645,24.902,72.754,20.020,0
3878.518,114.746,41.016,30.762,51.758,46.387,0
3878.522,-259.277,46.387,43.945,-22.461,-5.859,0
3878.526,-121.582,38.574,38.086,-9.277,47.363,0
3878.529,280.762,31.250,27.344,62.988,45.410,0
3878.533,217.285,38.086,32.227,64.941,27.344,0
3878.537,-211.426,42.480,39.551,-10.742,-13.184,0
3878.541,-224.121,39.551,37.598,-35.156,-22.461,0
3878.545,178.711,35.645,30.273,35.645,-16.113,0
3878.549,292.969,34.180,31.250,62.988,15.625,0
3878.553,-89.355,40.527,43.457,0.488,9.766,0
3878.557,-262.695,41.016,41.992,-26.855,-10.254,0
3878.561,64.453,32.715,30.273,19.531,45.898,0
3878.565,312.988,30.273,34.180,69.336,-47.363,0
3878.568,17.090,37.109,43.945,23.438,-104.492,0
3878.572,-273.438,37.109,42.480,-31.738,2.441,0
3878.576,-41.016,27.344,33.203,1.953,60.059,0
3878.580,328.613,24.902,30.273,62.500,26.855,0
3878.584,151.855,32.227,40.527,44.922,20.508,0
3878.588,-243.652,38.086,45.898,-26.367,54.199,0
3878.592,-149.414,35.645,42.480,-12.695,0.977,0
3878.596,250.000,28.809,34.180,56.152,-3.418,0
3878.600,235.352,31.250,38.574,57.617,22.461,0
3878.604,-181.152,39.062,44.922,-10.742,14.160,0
3878.608,-232.422,36.621,39.062,-26.855,42.969,0
3878.611,152.344,29.785,33.691,42.969,43.457,0
3878.615,297.852,28.809,30.273,76.172,41.504,0
3878.619,-72.754,34.180,38.086,5.859,44.922,0
3878.623,-278.809,40.039,45.898,-28.320,-3.418,0
3878.627,35.645,32.715,31.738,18.555,-20.508,0
3878.631,322.754,28.809,21.973,55.664,12.207,0
3878.635,49.805,37.598,32.715,20.508,-13.184,0
3878.639,-273.926,40.039,39.062,-35.645,43.457,0
3878.643,-72.754,36.621,35.645,-4.883,60.547,0
3878.647,302.246,34.180,27.832,64.941,32.227,0
3878.651,157.227,39.062,30.273,54.199,-17.090,0
3878.654,-233.887,44.434,37.598,-20.020,-29.297,0
3878.658,-160.156,42.480,32.715,-15.137,32.227,0
3878.662,229.492,39.551,25.879,52.734,26.855,0
3878.666,254.883,39.551,30.762,58.594,-4.883,0
3878.670,-154.297,43.457,37.598,-14.648,-1.465,0
3878.674,-246.094,41.016,37.109,-41.504,13.672,0
3878.678,122.070,35.645,31.250,32.227,54.199,0
3878.682,309.082,37.109,35.156,71.777,26.367,0
3878.686,-31.738,44.434,44.434,11.230,-19.043,0
3878.690,-278.320,45.898,41.016,-34.180,14.160,0
3878.693,8.301,39.062,33.691,9.766,62.012,0
3878.697,331.543,38.086,33.691,68.848,30.273,0
3878.701,79.590,49.805,42.969,26.367,17.578,0
3878.705,-272.949,52.734,47.852,-31.250,13.672,0
3878.709,-97.656,39.551,37.109,-5.859,8.789,0
3878.713,277.344,31.250,26.367,54.199,44.434,0
3878.717,170.410,36.133,28.809,41.504,76.660,0
3878.721,-239.746,44.434,39.551,-28.320,63.477,0
3878.725,-202.148,40.527,39.551,-22.461,5.859,0
3878.729,210.449,32.715,30.762,49.316,48.340,0
3878.733,269.531,32.715,33.691,58.594,18.066,0
3878.736,-129.883,39.551,38.086,-13.184,1.953,0
3878.740,-257.324,41.504,39.551,-36.621,47.852,0
3878.744,95.215,37.109,34.668,27.344,37.109,0
3878.748,311.523,31.250,31.250,72.266,0.000,0
3878.752,-20.996,38.086,41.992,21.973,4.883,0
3878.756,-281.738,37.598,43.945,-24.414,36.133,0
3878.760,-12.207,29.297,35.645,29.297,-10.742,0
3878.764,321.777,31.738,35.645,88.867,23.438,0
3878.768,97.656,37.598,41.504,38.086,86.426,0
3878.772,-274.414,40.039,41.992,-37.109,64.941,0
3878.776,-129.395,35.645,36.621,-10.254,52.734,0
3878.779,269.531,29.785,30.273,61.523,73.730,0
3878.783,209.473,38.574,37.109,62.500,58.594,0
3878.787,-195.801,41.016,42.480,-10.254,35.156,0
3878.791,-196.289,34.180,33.691,-28.809,118.164,2
