timestamps,TP9,AF7,AF8,TP10,Right AUX,Marker0
4276.889,11.230,29.785,30.273,15.625,62.012,0
4276.893,208.496,26.367,26.367,56.641,20.996,0
4276.897,55.176,28.320,32.227,38.574,37.598,0
4276.901,-163.086,35.156,37.598,-1.465,11.230,0
4276.904,-57.617,35.645,30.762,14.648,20.508,0
4276.908,188.965,28.320,24.902,55.176,67.871,0
4276.912,133.301,28.809,30.762,50.293,23.926,0
4276.916,-138.184,35.156,33.691,7.324,-5.371,0
4276.920,-122.559,34.180,34.180,5.859,-6.836,0
4276.924,161.621,29.785,26.367,47.363,-29.297,0
4276.928,193.359,26.855,21.973,54.688,-14.160,0
4276.932,-87.402,32.715,30.762,16.602,-17.578,0
4276.936,-154.297,35.645,35.156,-0.977,21.484,0
4276.940,83.008,30.762,26.855,40.527,46.387,0
4276.943,220.703,26.855,24.414,73.242,27.344,0
4276.947,10.742,33.691,33.203,34.668,47.852,0
4276.951,-169.922,42.480,37.109,0.488,4.883,0
4276.955,-3.418,37.109,29.785,20.508,16.113,0
4276.959,217.773,28.320,23.438,56.152,53.711,0
4276.963,83.984,31.738,30.273,46.875,39.062,0
4276.967,-158.691,36.133,34.668,0.000,-5.859,0
4276.971,-72.754,32.715,29.297,6.836,-28.320,0
4276.975,187.012,25.879,24.902,58.105,-7.324,0
4276.979,146.484,29.297,27.344,55.176,9.277,0
4276.983,-115.234,38.574,32.715,3.418,31.250,0
4276.986,-111.328,38.086,29.785,-15.137,29.785,0
4276.990,133.301,29.785,20.996,26.855,41.504,0
4276.994,193.848,28.809,21.484,50.293,62.988,0
4276.998,-47.852,36.133,29.785,20.020,16.113,0
4277.002,-152.832,38.574,26.855,1.465,-21.973,0
4277.006,60.547,31.250,20.508,21.973,23.926,0
4277.010,231.934,23.438,21.973,66.406,55.176,0
4277.014,51.270,32.715,32.715,40.527,32.227,0
4277.018,-154.297,38.086,37.109,-14.160,20.996,0
4277.022,-7.812,31.738,29.297,12.695,72.754,0
4277.026,240.723,28.320,21.973,56.152,89.355,0
4277.029,125.000,31.250,25.879,39.551,76.660,0
4277.033,-132.324,38.086,34.180,-6.836,12.695,0
4277.037,-65.918,38.086,31.738,7.812,-70.312,0
4277.041,194.336,30.762,25.391,62.988,1.953,0
4277.045,192.383,34.180,24.414,66.895,41.016,0
4277.049,-81.543,41.992,29.297,22.949,16.602,0
4277.053,-123.535,37.109,32.715,4.395,-39.551,0
4277.057,128.418,28.809,25.391,37.598,-3.906,0
4277.061,223.145,31.250,22.949,68.359,56.641,0
4277.065,-17.578,40.527,32.227,39.551,36.133,0
4277.068,-144.531,42.480,33.691,0.977,36.133,0
4277.072,57.129,37.109,23.926,22.949,14.160,0
4277.076,232.910,32.227,20.020,62.988,15.625,0
4277.080,63.477,36.133,28.809,38.574,28.320,0
4277.084,-144.531,41.504,33.691,1.953,-14.160,0
4277.088,-22.949,36.621,27.832,25.391,-55.664,0
4277.092,223.633,31.250,23.926,65.918,41.504,0
4277.096,138.184,33.691,30.273,51.270,50.293,0
4277.100,-120.605,37.109,35.645,13.672,-53.711,0
4277.104,-79.102,36.133,34.180,0.488,-52.734,0
4277.108,171.387,31.250,27.344,41.016,-16.602,0
4277.111,182.617,32.715,26.855,58.105,-1.465,0
4277.115,-84.961,39.551,29.785,6.348,-0.977,0
4277.119,-136.719,39.062,26.367,-7.812,23.438,0
4277.123,113.770,29.785,20.020,29.785,25.391,0
4277.127,211.426,25.391,20.508,53.711,25.391,0
4277.131,-20.020,31.250,27.832,24.414,32.715,0
4277.135,-162.109,32.715,30.762,-2.441,12.207,0
4277.139,22.949,27.832,32.227,22.949,2.441,0
4277.143,223.633,24.902,29.785,51.270,63.965,0
4277.147,64.941,32.227,30.273,25.391,34.180,0
4277.151,-163.086,35.156,30.273,-14.648,-8.301,0
4277.154,-54.688,32.227,28.809,10.254,36.133,0
4277.158,191.406,27.344,32.715,60.547,70.312,0
4277.162,122.070,27.832,42.480,44.922,74.219,0
4277.166,-134.277,33.691,49.805,3.418,79.102,0
4277.170,-109.375,34.180,44.922,7.324,94.238,0
4277.174,150.879,28.809,34.668,45.898,64.941,0
4277.178,197.266,28.809,36.621,53.711,48.340,0
4277.182,-64.453,36.621,40.527,17.578,46.387,0
4277.186,-140.137,38.574,37.598,0.000,22.461,0
4277.190,93.262,34.668,32.227,40.527,61.523,0
4277.193,210.449,30.762,30.273,83.008,93.750,0
4277.197,-9.277,33.691,37.598,42.969,73.730,0
4277.201,-178.223,37.598,38.574,-16.602,25.391,0
4277.205,-8.301,35.156,29.297,0.488,83.008,0
4277.209,207.031,31.738,25.391,52.734,76.660,0
4277.213,83.496,35.156,30.762,42.480,13.672,0
4277.217,-152.832,37.598,34.668,-3.418,17.090,0
4277.221,-84.961,34.180,33.691,3.418,5.859,0
4277.225,170.410,28.809,26.367,52.734,20.508,0
4277.229,135.742,25.879,30.762,54.199,37.109,0
4277.233,-136.719,33.691,41.016,14.160,61.523,0
4277.236,-135.254,38.574,35.156,4.395,51.270,0
4277.240,120.117,30.273,25.879,41.992,32.715,0
4277.244,177.246,30.762,24.414,55.176,35.645,0
4277.248,-69.336,31.250,32.715,11.230,40.039,0
4277.252,-170.898,30.762,33.203,-11.230,18.555,0
4277.256,50.781,30.762,23.438,33.691,30.273,0
4277.260,211.914,29.785,19.531,61.523,56.641,0
4277.264,13.184,34.180,28.809,24.414,52.734,0
4277.268,-164.062,35.156,35.156,-5.859,13.184,0
4277.272,-1.953,30.273,31.738,19.531,-32.715,0
4277.276,207.520,22.461,26.855,61.035,20.996,0
4277.279,83.008,25.391,32.715,45.410,56.641,0
4277.283,-147.461,31.250,39.551,3.906,39.062,0
4277.287,-70.312,28.809,34.180,10.254,48.828,0
4277.291,176.270,23.926,25.391,51.758,54.688,0
4277.295,155.762,24.902,27.344,52.246,-20.508,0
4277.299,-113.770,33.203,34.668,12.695,-58.594,0
4277.303,-142.090,33.203,34.180,3.418,-40.039,0
4277.307,118.164,22.949,30.762,23.926,-26.367,0
4277.311,206.055,23.926,27.832,34.668,8.301,0
4277.315,-31.250,31.250,31.738,18.066,36.621,0
4277.318,-156.738,33.203,37.598,-5.859,26.367,0
4277.322,43.457,31.250,32.227,7.324,-24.414,0
4277.326,220.215,27.832,25.879,49.805,38.086,0
4277.330,46.875,30.762,33.203,27.832,87.402,0
4277.334,-155.762,35.645,34.180,-11.719,37.109,0
4277.338,-26.367,32.227,27.344,7.324,-30.762,0
4277.342,218.750,29.785,25.391,35.645,-62.500,0
4277.346,116.699,37.598,29.785,34.668,-22.949,0
4277.350,-144.043,40.527,33.203,-16.602,10.254,0
4277.354,-84.961,33.691,30.273,-22.461,5.371,0
4277.358,172.852,29.785,25.391,37.598,27.832,0
4277.361,174.805,34.180,27.832,41.504,80.566,0
4277.365,-83.496,40.039,28.320,2.930,16.602,0
4277.369,-128.906,38.574,25.879,-11.230,-22.949,0
4277.373,105.469,31.250,22.461,23.926,39.551,0
4277.377,212.891,29.785,23.438,66.895,68.848,0
4277.381,-4.395,38.086,34.180,28.809,0.977,0
4277.385,-149.414,40.527,35.645,-24.414,28.320,0
4277.389,36.621,33.203,26.367,5.371,46.875,0
4277.393,226.074,28.809,20.996,44.922,15.137,0
4277.397,69.824,30.762,27.832,24.902,50.781,0
4277.401,-140.137,34.668,36.621,-3.418,28.809,0
4277.404,-29.785,33.691,30.273,8.789,74.219,0
4277.408,208.496,28.320,19.043,52.246,42.969,0
4277.412,133.789,29.785,23.438,50.293,-21.973,0
4277.416,-124.512,32.715,31.738,-0.488,-17.578,0
4277.420,-99.121,34.668,27.832,0.000,1.465,0
4277.424,153.320,30.273,20.996,41.504,100.098,0
4277.428,181.641,26.855,20.508,38.574,58.105,0
4277.432,-78.613,32.715,26.855,-2.441,28.809,0
4277.436,-150.879,30.762,29.785,-10.254,86.914,0
4277.440,83.008,23.438,27.344,37.598,97.656,0
4277.443,216.309,24.902,28.809,64.941,80.566,0
4277.447,12.207,32.715,34.668,24.902,40.527,0
4277.451,-151.855,35.156,38.086,2.441,7.324,0
4277.455,22.461,30.273,32.715,23.438,12.207,0
4277.459,230.957,27.344,26.855,59.570,8.789,0
4277.463,85.449,32.715,30.273,34.668,49.805,0
4277.467,-142.578,37.109,33.691,-5.371,38.086,0
4277.471,-51.758,36.133,30.273,22.949,20.020,0
4277.475,203.613,33.691,26.367,64.453,49.805,0
4277.479,154.297,34.668,30.273,52.734,26.855,0
4277.483,-110.840,35.156,41.016,19.043,-0.488,0
4277.486,-112.305,34.180,38.086,5.859,33.203,0
4277.490,142.578,29.297,24.902,36.133,47.852,0
4277.494,203.613,24.902,27.832,58.594,53.711,0
4277.498,-51.270,31.250,32.227,11.230,69.824,0
4277.502,-149.414,36.621,32.715,-10.254,32.715,0
4277.506,70.312,29.297,26.367,20.020,-17.090,0
4277.510,225.098,27.344,20.020,56.152,-7.812,0
4277.514,25.879,33.691,25.879,26.855,63.477,0
4277.518,-155.273,37.598,31.738,-15.137,60.059,0
4277.522,0.977,34.668,31.738,13.672,41.992,0
4277.526,218.750,28.320,27.344,56.152,41.992,0
4277.529,98.145,32.227,28.809,45.898,34.668,0
4277.533,-142.090,39.062,37.598,-0.488,-23.926,0
4277.537,-71.777,38.574,35.156,5.859,0.977,0
4277.541,184.570,33.203,28.320,60.059,38.086,0
4277.545,157.715,31.738,29.297,57.617,18.555,0
4277.549,-103.516,34.180,30.762,0.000,22.949,0
4277.553,-118.652,32.715,32.227,-13.184,13.672,0
4277.557,125.000,28.809,28.320,28.809,-2.930,0
4277.561,190.430,29.297,26.855,48.828,33.203,0
4277.565,-60.059,34.668,33.203,9.766,45.410,0
4277.568,-171.875,33.691,31.738,-12.207,67.383,0
4277.572,41.504,26.855,25.391,24.902,56.152,0
4277.576,207.520,24.414,23.926,49.316,59.082,0
4277.580,21.484,29.297,31.250,16.113,63.965,0
4277.584,-170.410,33.691,33.691,-10.254,-15.625,0
4277.588,-48.340,29.297,23.438,-2.441,37.109,0
4277.592,177.734,24.902,19.531,27.832,60.059,0
4277.596,92.773,28.320,23.438,26.855,-2.441,0
4277.600,-159.180,32.715,27.344,-20.508,-14.160,0
4277.604,-107.910,29.785,24.902,-19.531,24.414,0
4277.608,146.973,23.438,18.066,23.438,70.312,0
4277.611,148.926,27.832,20.996,26.855,35.156,0
4277.615,-101.562,33.691,29.297,-9.277,0.977,0
4277.619,-139.648,30.762,28.809,-2.441,-38.086,0
4277.623,101.074,26.367,23.438,39.551,-47.363,0
4277.627,199.219,25.391,20.508,47.852,-17.578,0
4277.631,-28.320,25.391,25.391,13.672,28.320,0
4277.635,-160.156,29.297,30.273,-2.441,15.137,0
4277.639,29.297,25.879,30.762,24.902,-14.160,0
4277.643,215.820,20.508,28.809,55.664,41.504,0
4277.647,53.711,26.855,31.738,37.109,69.824,0
4277.651,-147.461,30.273,36.621,2.930,43.945,0
4277.654,-39.062,25.879,31.738,21.973,22.949,0
4277.658,187.988,21.973,25.879,62.012,30.762,0
4277.662,124.512,27.344,34.180,54.688,33.691,0
4277.666,-127.930,35.645,41.504,9.766,23.926,0
4277.670,-98.145,33.203,35.156,9.277,55.664,0
4277.674,156.738,25.391,27.832,38.574,68.848,0
4277.678,181.641,26.367,25.879,41.992,78.125,0
4277.682,-78.613,34.180,34.180,16.602,7.812,0
4277.686,-148.926,34.668,32.715,-2.441,-43.945,0
4277.690,82.520,26.367,22.461,14.648,33.203,0
4277.693,212.402,24.414,21.973,41.016,72.754,0
4277.697,9.766,32.715,25.879,15.137,49.316,0
4277.701,-156.250,33.203,27.344,-20.508,26.367,0
4277.705,3.906,26.367,24.414,9.766,57.129,0
4277.709,208.496,21.484,23.438,49.316,42.480,0
4277.713,61.523,23.438,28.320,23.926,36.621,0
4277.717,-169.434,27.344,34.668,-17.578,49.316,0
4277.721,-70.312,25.879,31.738,1.953,20.996,0
4277.725,178.223,20.020,28.320,52.734,25.391,0
4277.729,128.418,20.508,26.367,43.457,60.547,0
4277.733,-129.395,27.344,26.855,2.930,52.246,0
4277.736,-122.070,26.367,27.832,9.766,29.297,0
4277.740,129.395,24.414,21.484,54.688,42.480,0
4277.744,178.711,28.320,16.602,51.758,76.172,0
4277.748,-71.777,32.227,23.438,-1.953,37.109,0
4277.752,-172.852,31.250,27.344,-12.695,-1.465,0
4277.756,46.387,27.832,16.602,22.461,-18.066,0
4277.760,215.332,27.344,14.648,51.758,12.695,0
4277.764,16.602,34.180,25.879,25.391,49.316,0
4277.768,-182.617,35.156,27.344,-5.859,-28.809,0
4277.772,-26.367,28.320,18.066,29.297,-18.555,0
4277.776,202.637,26.367,12.695,67.871,71.777,0
4277.779,90.820,34.180,20.508,39.551,46.387,0
4277.783,-150.879,37.109,29.297,3.906,27.832,0
4277.787,-84.961,30.273,26.367,23.926,30.762,0
4277.791,181.641,26.855,20.020,64.453,26.367,0
4277.795,156.738,30.762,21.484,56.152,41.016,0
4277.799,-115.723,38.086,26.367,21.484,2.930,0
4277.803,-135.742,39.062,26.855,14.648,-26.367,0
4277.807,116.211,30.273,21.973,57.129,40.527,0
4277.811,200.684,26.367,24.414,80.566,37.598,0
4277.815,-46.875,34.668,31.738,27.344,19.531,0
4277.818,-166.016,37.109,32.227,4.883,57.617,0
4277.822,39.062,32.715,28.320,44.434,52.734,0
4277.826,212.402,26.855,21.973,65.918,53.711,0
4277.830,39.551,30.762,23.438,36.621,42.480,0
4277.834,-169.922,36.133,27.344,-2.441,35.645,0
4277.838,-34.180,32.227,22.949,19.043,15.137,0
4277.842,200.684,27.832,18.066,58.594,10.254,0
4277.846,109.375,32.227,20.996,40.039,24.414,0
4277.850,-144.043,37.598,25.391,-8.789,-2.930,0
4277.854,-106.445,32.715,21.973,0.000,-38.086,0
4277.858,162.598,24.414,14.648,36.133,15.137,0
4277.861,171.387,28.320,21.484,33.203,50.293,0
4277.865,-97.656,36.621,28.320,6.836,2.441,0
4277.869,-141.602,37.109,25.879,-7.324,-13.672,0
4277.873,102.539,32.715,20.996,29.785,-15.137,0
4277.877,198.730,29.785,18.066,56.152,24.414,0
4277.881,-16.113,35.645,26.367,11.719,50.293,0
4277.885,-151.367,39.551,33.203,-15.625,17.090,0
4277.889,21.973,35.156,28.320,22.461,9.277,0
4277.893,218.750,35.645,21.484,53.711,28.320,0
4277.897,52.246,38.086,22.461,27.344,32.715,0
4277.901,-170.410,39.062,29.297,-6.836,8.301,0
4277.904,-52.734,35.645,32.227,18.555,31.738,0
4277.908,191.406,29.297,24.902,56.641,90.332,0
4277.912,120.605,33.691,29.297,45.410,12.207,0
4277.916,-141.602,38.574,40.039,2.441,-33.691,0
4277.920,-121.094,35.645,35.156,13.184,15.625,0
4277.924,139.160,29.297,27.344,66.406,47.852,0
4277.928,176.758,31.738,29.297,73.242,24.902,0
4277.932,-82.031,40.039,35.645,18.555,22.949,0
4277.936,-159.180,39.551,35.156,-8.789,45.898,0
4277.940,76.172,34.668,26.855,25.391,17.090,0
4277.943,202.637,33.203,24.902,31.738,35.645,0
4277.947,-15.137,33.691,30.762,5.371,39.551,0
4277.951,-175.293,33.203,32.227,-17.578,10.742,0
4277.955,-1.465,29.297,26.855,1.465,43.945,0
4277.959,203.613,23.438,20.508,46.875,46.875,0
4277.963,63.965,25.879,24.902,39.551,60.547,0
4277.967,-152.344,27.832,35.156,-4.395,44.922,0
4277.971,-62.988,23.926,30.273,-6.836,30.273,0
4277.975,183.594,19.531,18.555,12.695,43.457,0
4277.979,149.414,20.020,20.020,3.418,41.992,0
4277.983,-125.488,27.344,29.297,-22.461,69.336,0
4277.986,-129.395,27.344,26.367,-30.273,37.109,0
4277.990,136.230,19.043,17.578,6.348,17.090,0
4277.994,187.988,19.531,18.555,23.438,83.496,0
4277.998,-62.012,25.391,23.438,-16.602,130.859,0
4278.002,-148.926,28.320,27.344,-27.344,74.707,0
4278.006,80.566,25.879,21.973,13.184,20.508,0
4278.010,225.586,23.438,18.555,48.828,42.480,0
4278.014,16.602,29.785,29.297,21.973,2.930,0
4278.018,-164.551,29.785,32.715,-9.277,9.277,0
4278.022,-4.883,23.926,23.438,18.066,3.906,0
4278.026,215.820,23.438,18.555,48.828,42.969,0
4278.029,101.562,27.344,26.855,30.273,79.102,0
4278.033,-137.695,32.227,33.691,-7.324,53.711,0
4278.037,-79.590,28.320,26.367,7.324,31.738,0
4278.041,182.617,23.926,24.902,58.594,4.883,0
4278.045,162.598,30.762,28.320,52.246,-0.488,0
4278.049,-111.816,35.156,31.738,-4.395,28.809,1
4278.053,-131.836,30.273,33.203,1.953,33.203,0
4278.057,114.258,25.391,30.273,48.828,-4.883,0
4278.061,194.336,25.879,29.785,56.152,43.945,0
4278.065,-42.480,31.250,32.227,23.926,59.570,0
4278.068,-154.785,35.645,35.156,-2.441,-8.789,0
4278.072,46.875,27.832,29.297,26.367,15.137,0
4278.076,201.172,19.043,24.414,55.664,76.660,0
4278.080,11.719,28.809,34.180,35.156,33.203,0
4278.084,-191.406,36.133,38.574,-0.977,27.832,0
4278.088,-55.176,30.762,29.785,12.695,65.918,0
4278.092,198.242,27.344,28.320,62.988,50.781,0
4278.096,99.121,30.762,36.621,49.805,19.043,0
4278.100,-169.922,30.273,45.898,-2.930,70.312,0
4278.104,-106.445,25.391,41.992,4.395,32.227,0
4278.108,153.320,25.879,32.227,52.734,-8.789,0
4278.111,151.855,27.344,35.156,63.477,-0.488,0
4278.115,-109.375,31.250,43.945,9.766,1.953,0
4278.119,-152.832,30.762,42.969,-4.395,8.301,0
4278.123,74.707,21.973,34.180,47.363,27.832,0
4278.127,177.734,18.555,34.180,54.688,39.551,0
4278.131,-44.434,25.391,40.039,1.953,26.855,0
4278.135,-184.082,26.367,38.574,-32.227,-3.418,0
4278.139,13.672,21.484,33.203,0.977,-35.645,0
4278.143,204.590,19.043,29.785,47.852,3.418,0
4278.147,41.992,23.926,32.715,19.043,49.805,0
4278.151,-172.363,27.832,40.039,-7.812,16.602,0
4278.154,-48.828,26.855,37.598,23.926,-28.809,0
4278.158,186.035,25.879,29.297,57.129,-18.555,0
4278.162,101.074,29.297,34.668,34.180,-51.270,0
4278.166,-148.926,34.180,41.992,-17.578,-45.898,0
4278.170,-116.699,30.273,36.133,-11.719,34.180,0
4278.174,146.484,25.879,29.785,41.016,47.852,0
4278.178,174.805,30.273,29.785,52.734,27.344,0
4278.182,-77.148,36.621,37.109,5.371,33.203,0
4278.186,-147.461,35.645,40.039,-18.066,24.902,0
4278.190,75.684,29.785,29.297,7.324,22.949,0
4278.193,196.289,28.320,24.414,30.762,21.973,0
4278.197,-8.789,33.691,29.297,9.766,23.438,0
4278.201,-160.156,36.621,30.762,-10.254,-4.395,0
4278.205,21.973,33.691,23.926,6.836,0.000,0
4278.209,229.004,31.250,20.996,33.691,67.871,0
4278.213,61.523,35.645,30.762,16.602,46.387,0
4278.217,-178.223,36.621,34.668,-9.766,15.137,0
4278.221,-68.359,33.691,31.738,5.371,27.344,0
4278.225,176.758,30.273,25.391,40.527,-3.418,0
4278.229,122.559,32.715,22.949,31.250,0.000,0
4278.233,-133.301,38.086,28.320,-13.184,32.715,0
4278.236,-124.023,34.180,28.320,-10.254,37.109,0
4278.240,132.324,26.855,21.973,41.504,37.598,0
4278.244,182.129,26.367,20.508,49.316,69.824,0
4278.248,-59.570,34.668,25.879,4.395,81.055,0
4278.252,-146.484,34.668,26.855,-10.254,18.555,0
4278.256,55.664,26.855,21.973,23.438,-10.742,0
4278.260,198.730,24.414,20.508,62.988,26.367,0
4278.264,8.789,32.715,28.809,30.273,53.223,0
4278.268,-157.227,38.574,34.180,-13.672,2.930,0
4278.272,-4.395,32.715,27.344,3.906,41.016,0
4278.276,206.543,27.344,18.555,37.598,76.172,0
4278.279,79.590,32.227,22.461,19.531,52.734,0
4278.283,-151.855,40.527,31.250,-16.113,11.719,0
4278.287,-62.988,38.574,26.855,-1.953,-20.020,0
4278.291,180.664,31.250,20.508,35.645,25.391,0
4278.295,156.250,34.668,23.926,37.109,36.133,0
4278.299,-97.168,40.039,30.762,0.977,74.219,0
4278.303,-116.699,38.574,27.832,-8.789,79.102,0
4278.307,123.047,34.180,21.973,34.180,19.043,0
4278.311,203.125,31.250,22.949,49.316,-2.441,0
4278.315,-37.109,37.109,29.297,0.000,-6.836,0
4278.318,-160.645,38.574,30.273,-20.996,-9.766,0
4278.322,51.270,34.668,24.414,17.578,-10.254,0
4278.326,217.285,32.227,23.926,55.664,30.762,0
4278.330,35.645,35.156,31.738,32.715,20.508,0
4278.334,-149.414,38.086,39.551,-1.953,-17.578,0
4278.338,-19.043,36.621,35.156,12.207,1.465,0
4278.342,200.684,36.133,29.297,62.500,52.734,0
4278.346,107.910,36.621,31.738,50.781,80.566,0
4278.350,-134.277,43.945,38.086,-1.465,26.855,0
4278.354,-92.285,42.480,31.250,-6.348,-14.648,0
4278.358,155.273,32.715,21.973,41.016,11.230,0
4278.361,152.344,35.645,25.879,42.969,-9.766,0
4278.365,-114.258,36.133,34.668,-31.250,1.465,0
4278.369,-167.969,31.738,32.715,-44.922,7.324,0
4278.373,53.223,29.785,19.531,-1.465,12.207,0
4278.377,139.160,27.832,18.555,1.465,28.320,0
4278.381,-98.633,36.133,37.598,-58.105,-8.301,0
4278.385,-240.234,44.434,45.898,-92.773,-10.254,0
4278.389,-67.871,30.273,32.715,-83.008,29.785,0
4278.393,100.098,23.438,28.320,-64.941,53.711,0
4278.397,-66.895,30.273,40.527,-81.543,60.059,0
4278.401,-292.480,30.273,50.293,-126.953,50.781,0
4278.404,-195.801,24.414,41.504,-142.578,-20.996,0
4278.408,24.414,22.949,30.273,-124.512,-39.062,0
4278.412,-55.176,29.297,33.203,-138.184,33.203,0
4278.416,-303.711,30.273,43.457,-181.152,5.371,0
4278.420,-285.645,26.367,43.457,-190.918,15.137,0
4278.424,-46.387,26.367,34.180,-150.391,37.109,0
4278.428,-32.227,24.414,36.621,-140.625,25.879,0
4278.432,-280.762,22.949,46.875,-181.641,10.742,0
4278.436,-327.637,23.438,46.875,-186.523,-27.344,0
4278.440,-88.867,17.090,38.574,-142.090,20.996,0
4278.443,38.574,10.742,38.574,-113.770,48.340,0
4278.447,-157.227,17.090,47.852,-137.207,29.297,0
4278.451,-297.363,20.996,55.176,-150.391,0.488,0
4278.455,-119.629,12.207,52.246,-99.609,12.695,0
4278.459,95.703,8.301,39.062,-41.504,37.598,0
4278.463,-24.902,17.578,39.062,-45.898,0.488,0
4278.467,-220.215,21.484,44.922,-71.289,15.625,0
4278.471,-100.586,19.043,42.969,-30.762,43.945,0
4278.475,159.180,16.602,36.621,40.527,16.113,0
4278.479,122.070,15.625,36.133,44.434,28.320,0
4278.483,-119.629,21.973,39.062,1.465,66.895,0
4278.486,-99.121,23.926,38.086,14.160,17.090,0
4278.490,150.879,19.043,31.250,70.801,6.348,0
4278.494,202.148,21.973,29.785,91.309,33.691,0
4278.498,-21.973,31.738,36.621,57.617,-23.438,0
4278.502,-98.145,31.738,33.203,50.293,-14.160,0
4278.506,112.793,24.414,22.461,87.891,24.414,0
4278.510,271.973,26.367,18.555,116.211,23.926,0
4278.514,91.309,32.715,23.438,93.750,13.672,0
4278.518,-98.633,38.086,23.926,58.594,-16.602,0
4278.522,63.965,39.551,21.973,84.961,-0.488,0
4278.526,288.574,32.227,17.090,131.836,10.254,0
4278.529,154.297,33.203,19.043,115.723,-27.832,0
4278.533,-78.125,37.109,25.391,72.754,-25.879,0
4278.537,1.465,33.691,20.020,75.195,-2.441,0
4278.541,244.141,29.785,12.695,124.512,10.254,0
4278.545,212.891,30.762,16.602,126.465,10.254,0
4278.549,-48.828,36.621,22.949,78.613,-10.254,0
4278.553,-62.500,37.109,18.555,68.359,15.625,0
4278.557,181.641,31.738,9.766,98.145,50.293,0
4278.561,248.535,32.227,13.184,109.863,78.125,0
4278.565,10.742,41.992,24.414,74.707,-16.113,0
4278.568,-102.051,43.945,22.461,50.293,-32.715,0
4278.572,101.074,34.180,16.113,83.008,48.828,0
4278.576,263.184,30.762,16.602,121.582,88.867,0
4278.580,79.102,39.551,25.391,92.285,101.562,0
4278.584,-113.770,45.410,32.715,52.246,96.680,0
4278.588,22.461,41.504,25.391,66.895,64.453,0
4278.592,248.047,36.133,20.020,104.492,39.062,0
4278.596,145.996,40.039,25.391,87.891,19.043,0
4278.600,-92.285,44.922,32.715,49.316,0.488,0
4278.604,-33.691,40.527,30.273,58.105,-18.066,0
4278.608,215.332,37.109,19.531,100.586,-26.855,0
4278.611,203.125,37.109,20.020,92.285,13.184,0
4278.615,-57.129,40.039,23.926,41.504,-20.020,0
4278.619,-91.797,42.480,21.973,42.480,5.371,0
4278.623,144.531,37.598,19.531,90.820,-5.371,0
4278.627,240.234,31.738,20.996,104.980,-21.484,0
4278.631,9.277,37.109,27.832,68.359,-12.695,0
4278.635,-125.000,41.992,31.250,45.898,-20.020,0
4278.639,65.918,35.156,25.879,78.125,31.738,0
4278.643,245.605,29.297,21.484,98.633,88.379,0
4278.647,85.449,34.180,27.832,74.707,25.391,0
4278.651,-125.977,41.016,29.785,40.527,-26.367,0
4278.654,-15.625,36.133,23.438,48.828,19.531,0
4278.658,226.562,31.250,21.484,94.238,21.973,0
4278.662,143.555,36.621,27.344,75.195,2.441,0
4278.666,-110.352,38.086,34.180,26.855,40.527,0
4278.670,-70.312,36.133,29.785,37.598,65.918,0
4278.674,185.547,31.250,21.484,69.336,20.508,0
4278.678,190.430,31.250,22.461,71.777,39.551,0
4278.682,-71.289,38.086,33.691,43.945,37.109,0
4278.686,-116.211,40.039,32.715,30.273,31.250,0
4278.690,112.793,34.668,23.438,59.082,49.316,0
4278.693,222.168,36.133,24.414,68.359,59.570,0
4278.697,12.695,41.504,31.250,21.973,49.316,0
4278.701,-129.883,44.922,32.715,-7.324,20.020,0
4278.705,38.086,42.969,26.367,29.297,-12.695,0
4278.709,226.562,33.203,21.484,79.102,28.320,0
4278.713,79.590,37.598,25.879,68.359,26.855,0
4278.717,-147.949,42.969,32.227,25.879,-53.223,0
4278.721,-43.457,40.527,29.785,41.016,7.812,0
4278.725,206.543,38.086,22.949,86.426,27.832,1
4278.729,145.020,40.039,27.832,67.871,30.762,0
4278.733,-107.422,46.875,37.109,34.668,11.719,0
4278.736,-86.426,45.410,36.133,41.992,-41.504,0
4278.740,161.133,39.062,29.785,74.219,-17.578,0
4278.744,201.660,40.527,28.809,76.660,8.301,0
4278.748,-47.852,45.898,31.738,20.020,87.402,0
4278.752,-136.719,44.922,32.227,12.207,80.078,0
4278.756,82.031,38.086,24.902,50.293,80.566,0
4278.760,218.262,36.621,22.949,72.754,100.098,0
4278.764,17.578,40.039,32.715,47.363,5.859,0
4278.768,-156.250,41.016,34.668,13.184,31.250,0
4278.772,5.371,37.598,26.855,36.133,57.617,0
4278.776,218.750,33.203,19.531,54.688,60.059,0
4278.779,97.168,35.645,23.438,37.109,41.992,0
4278.783,-136.230,40.039,32.227,-8.301,7.812,0
4278.787,-61.523,37.109,27.832,3.418,37.109,0
4278.791,186.035,30.273,24.902,60.059,63.965,0
4278.795,158.203,31.250,29.785,55.664,51.758,0
4278.799,-97.656,38.574,34.180,9.277,29.785,0
4278.803,-123.047,40.527,36.133,2.930,44.922,0
4278.807,122.559,36.621,31.250,42.969,88.379,0
4278.811,198.730,35.156,30.273,53.711,64.941,0
4278.815,-47.852,39.062,36.621,10.254,-1.465,0
4278.818,-156.250,37.598,37.109,-7.324,-1.465,0
4278.822,62.012,30.762,31.250,27.344,3.418,0
4278.826,224.609,30.273,28.809,62.500,30.762,0
4278.830,38.574,39.062,35.156,39.062,24.902,0
4278.834,-147.949,43.457,40.039,5.371,24.902,0
4278.838,-6.348,39.551,34.180,28.320,30.273,0
4278.842,214.844,36.133,29.785,65.918,46.875,0
4278.846,102.051,38.086,35.156,47.363,71.289,0
4278.850,-132.324,39.551,39.551,3.906,35.156,0
4278.854,-63.965,39.551,35.645,8.301,-2.441,0
4278.858,190.430,36.621,28.809,56.641,29.785,0
4278.861,172.363,39.551,31.738,62.988,63.965,0
4278.865,-91.797,44.434,39.551,17.090,5.859,0
4278.869,-121.582,38.574,39.551,-2.441,24.902,0
4278.873,121.582,33.203,32.715,35.645,37.598,0
4278.877,210.938,29.297,30.762,58.105,-8.789,0
4278.881,-20.020,38.086,39.062,19.531,3.418,0
4278.885,-142.578,45.898,42.969,-3.418,-61.035,0
4278.889,45.898,33.691,29.785,31.250,-29.785,0
4278.893,217.285,25.879,21.484,56.641,52.734,0
4278.897,54.688,30.273,30.273,29.297,5.371,0
4278.901,-144.531,32.227,36.133,3.906,18.555,0
4278.904,-20.508,27.832,28.809,16.602,56.641,0
4278.908,218.750,26.367,19.531,58.105,8.789,0
4278.912,136.230,31.738,24.414,44.922,-17.090,0
4278.916,-117.188,34.180,31.738,-5.371,12.207,0
4278.920,-77.637,29.297,31.250,4.883,70.312,0
4278.924,176.270,25.391,26.367,53.223,68.359,0
4278.928,187.500,25.879,26.855,58.594,34.180,0
4278.932,-78.125,30.273,31.250,15.625,23.926,0
4278.936,-133.789,34.180,27.832,-8.301,32.227,0
4278.940,104.492,31.250,21.484,26.367,33.691,0
4278.943,201.172,29.785,22.461,53.711,-40.039,0
4278.947,-14.160,32.227,29.297,18.066,-14.648,0
4278.951,-161.621,30.762,35.645,-14.160,47.852,0
4278.955,3.906,28.809,32.715,16.602,44.434,0
4278.959,207.520,28.320,28.320,61.523,69.824,0
4278.963,69.336,34.668,32.227,35.645,59.082,0
4278.967,-142.090,39.062,36.621,-6.348,11.230,0
4278.971,-46.875,36.133,32.715,15.137,13.184,0
4278.975,194.336,29.785,25.879,62.500,54.688,0
4278.979,142.090,30.762,29.297,55.664,19.531,0
4278.983,-123.047,37.598,35.156,18.066,-16.113,0
4278.986,-113.281,33.203,31.738,22.949,60.059,0
4278.990,135.742,28.320,24.902,58.105,65.918,0
4278.994,186.035,31.250,26.855,70.312,42.969,0
4278.998,-65.430,35.156,34.668,25.391,38.574,0
4279.002,-155.762,35.645,39.551,2.441,12.207,0
4279.006,70.312,32.227,33.691,40.527,-2.930,0
4279.010,195.312,33.203,28.320,62.500,56.641,0
4279.014,-4.883,39.062,39.062,37.598,44.434,0
4279.018,-166.504,41.504,40.527,1.953,-43.945,0
4279.022,-10.254,37.598,31.250,19.043,7.324,0
4279.026,199.707,36.621,26.855,49.805,45.898,0
4279.029,76.172,38.574,28.809,16.113,7.324,0
4279.033,-158.203,38.574,31.738,-20.508,-20.508,0
4279.037,-79.102,39.062,28.809,-11.230,12.207,0
4279.041,178.711,36.621,23.926,23.438,52.734,0
4279.045,144.531,39.062,26.367,25.879,12.695,0
4279.049,-124.512,42.480,32.715,-12.207,30.762,0
4279.053,-132.812,39.551,31.250,-12.695,38.086,0
4279.057,122.070,35.645,28.320,39.062,3.418,0
4279.061,198.242,36.621,30.273,53.711,37.598,0
4279.065,-44.434,42.480,35.156,15.625,51.270,0
4279.068,-152.832,40.039,38.574,-2.930,35.645,0
4279.072,67.383,33.691,33.691,36.133,10.254,0
4279.076,210.938,30.273,31.250,75.195,34.180,0
4279.080,16.602,37.598,39.062,37.598,28.320,0
4279.084,-162.598,40.527,42.480,4.883,-25.391,0
4279.088,-22.949,33.203,35.156,32.715,30.762,0
4279.092,207.520,30.762,31.738,66.406,43.457,0
4279.096,100.586,34.668,34.180,44.922,0.977,0
4279.100,-156.738,41.992,40.039,8.301,28.320,0
4279.104,-91.797,37.598,39.062,18.066,54.199,0
4279.108,162.109,26.855,28.320,60.059,101.562,0
4279.111,146.973,29.297,28.809,56.641,91.309,0
4279.115,-105.469,36.621,36.133,21.484,-20.996,0
4279.119,-129.395,38.574,36.621,11.230,-16.113,0
4279.123,105.957,33.691,31.738,44.922,47.852,0
4279.127,191.406,32.227,29.785,74.219,25.391,0
4279.131,-36.133,36.133,34.180,26.855,18.555,0
4279.135,-165.039,33.691,36.621,-7.324,19.043,0
4279.139,35.156,27.832,32.227,31.738,55.176,0
4279.143,218.750,25.391,32.227,80.078,30.273,0
4279.147,48.828,29.785,34.668,42.969,-31.250,0
4279.151,-154.297,33.203,36.621,-7.812,0.977,0
4279.154,-35.645,30.273,35.645,21.973,41.992,0
4279.158,197.754,24.902,31.738,59.082,57.617,0
4279.162,116.699,30.273,38.574,38.086,77.637,0
4279.166,-137.695,35.156,41.016,-13.184,17.090,0
4279.170,-91.309,31.250,31.250,-0.977,29.297,0
4279.174,165.527,28.320,27.344,52.734,73.730,0
4279.178,177.246,30.762,31.250,41.016,3.906,0
4279.182,-83.008,35.156,35.156,-3.418,-1.953,0
4279.186,-149.414,30.273,31.738,-12.207,23.926,0
4279.190,83.008,20.508,22.461,23.926,77.637,0
4279.193,189.941,20.508,21.484,49.316,96.191,0
4279.197,-22.461,31.738,28.809,11.719,39.062,0
4279.201,-165.039,37.598,27.344,-19.043,19.531,0
4279.205,6.348,30.762,23.438,16.602,10.742,0
4279.209,199.219,25.879,23.438,49.805,50.781,0
4279.213,54.199,32.227,26.855,11.719,93.750,0
4279.217,-161.133,37.598,26.855,-38.574,52.246,0
4279.221,-64.941,37.109,26.367,-17.090,8.789,0
4279.225,184.570,35.156,27.344,45.410,11.719,0
4279.229,124.512,38.086,29.785,36.133,13.184,0
4279.233,-131.836,46.387,33.203,-24.414,19.531,0
4279.236,-109.375,44.922,32.715,-30.762,4.883,0
4279.240,142.090,38.574,25.879,29.297,-48.828,0
4279.244,187.500,39.551,20.020,46.387,-33.203,0
4279.248,-61.523,45.898,26.367,-14.160,28.809,0
4279.252,-138.184,47.363,32.715,-38.086,35.156,0
4279.256,90.820,40.039,28.320,21.484,45.410,0
4279.260,214.355,37.109,26.855,57.617,66.406,0
4279.264,3.906,40.039,36.133,13.672,20.020,0
4279.268,-157.227,40.039,38.574,-13.672,-14.160,0
4279.272,7.324,37.109,29.785,11.230,14.160,0
4279.276,213.379,30.273,24.902,42.969,85.449,0
4279.279,77.637,30.273,29.785,25.879,115.234,0
4279.283,-148.438,34.668,33.691,-26.855,80.078,0
4279.287,-58.105,30.273,28.809,-16.113,45.898,0
4279.291,197.266,24.902,22.949,36.621,41.504,0
4279.295,154.297,24.414,26.367,39.551,54.199,0
4279.299,-114.258,29.297,32.227,-4.395,27.832,0
4279.303,-116.211,30.273,29.785,-5.371,0.488,0
4279.307,137.207,21.484,24.414,33.203,28.320,0
4279.311,195.801,19.531,24.414,41.016,24.902,0
4279.315,-44.922,26.367,33.203,-2.930,3.906,0
4279.318,-151.855,28.809,36.133,-20.508,2.441,0
4279.322,52.246,25.879,29.785,21.484,3.906,0
4279.326,216.309,22.949,29.297,61.035,39.062,0
4279.330,32.715,25.391,36.133,23.926,61.523,0
4279.334,-157.227,25.879,40.527,-19.531,34.180,0
4279.338,-13.672,20.508,33.691,5.371,14.160,0
4279.342,201.172,21.484,25.391,46.875,41.504,0
4279.346,82.520,29.297,30.762,22.461,28.320,0
4279.350,-155.762,31.250,36.133,-18.066,17.090,0
4279.354,-85.449,28.320,33.203,-0.977,5.371,0
4279.358,167.969,23.438,26.855,35.645,-24.414,0
4279.361,147.949,28.320,27.344,39.551,1.465,0
4279.365,-107.422,34.668,38.086,-3.906,26.855,0
4279.369,-128.906,27.832,36.621,-14.160,28.320,0
4279.373,104.492,20.020,26.367,37.598,40.039,0
4279.377,182.617,18.066,24.414,54.199,67.871,0
4279.381,-43.945,26.855,30.273,8.789,30.762,0
4279.385,-168.457,31.250,27.832,-15.625,-1.953,0
4279.389,31.250,26.367,22.949,17.090,54.688,1
4279.393,208.008,20.996,22.461,43.945,46.875,0
4279.397,36.133,21.484,28.320,25.879,12.695,0
4279.401,-164.062,30.762,35.156,-9.277,-14.648,0
4279.404,-28.320,31.250,29.785,5.371,-23.438,0
4279.408,203.125,19.531,20.020,53.711,6.348,0
4279.412,107.422,22.949,24.414,36.621,11.719,0
4279.416,-135.742,31.250,30.762,-7.324,-41.504,0
4279.420,-91.797,29.785,28.809,4.883,-71.777,0
4279.424,153.809,21.973,25.391,44.922,14.648,0
4279.428,164.062,20.508,24.414,47.363,60.547,0
4279.432,-87.891,28.320,32.227,6.348,63.477,0
4279.436,-138.184,32.715,29.785,-10.742,36.621,0
4279.440,112.305,29.785,22.949,40.527,14.648,0
4279.443,228.027,27.832,30.762,61.035,83.008,0
4279.447,0.000,34.668,38.086,16.602,93.750,0
4279.451,-145.508,36.621,34.668,-11.719,66.406,0
4279.455,33.203,32.227,27.832,21.973,19.531,0
4279.459,220.703,26.855,27.832,58.105,28.809,0
4279.463,52.734,31.738,34.180,33.691,30.762,0
4279.467,-177.246,34.180,36.133,-2.441,65.918,0
4279.471,-54.688,30.273,35.156,24.414,79.102,0
4279.475,196.289,24.902,30.762,66.895,72.754,0
4279.479,124.023,28.809,32.715,48.828,41.504,0
4279.483,-127.441,39.551,37.598,7.324,9.277,0
4279.486,-104.004,37.109,35.156,6.348,40.039,0
4279.490,138.672,27.832,28.320,50.781,49.805,0
4279.494,172.852,29.785,28.809,57.129,46.875,0
4279.498,-68.848,37.109,35.156,32.227,20.996,0
4279.502,-145.020,36.621,37.598,27.832,-0.488,0
4279.506,78.125,34.668,33.203,41.016,16.602,0
4279.510,214.844,33.203,25.879,62.500,58.594,0
4279.514,12.695,38.574,30.273,27.832,26.367,0
4279.518,-158.203,42.969,38.086,-8.301,-20.508,0
4279.522,1.465,37.598,34.180,37.598,-14.648,0
4279.526,219.238,30.273,27.344,81.543,4.395,0
4279.529,84.473,31.738,24.902,45.898,42.969,0
4279.533,-147.461,39.062,27.832,2.930,27.344,0
4279.537,-59.570,34.180,26.855,6.836,0.488,0
4279.541,179.199,24.414,20.996,47.363,42.969,0
4279.545,132.812,25.391,23.438,52.734,77.637,0
4279.549,-112.305,32.715,27.344,3.418,21.973,0
4279.553,-106.934,32.715,29.297,5.371,5.859,0
4279.557,132.324,26.367,25.391,42.480,39.062,0
4279.561,187.500,26.367,25.879,60.547,37.109,0
4279.565,-56.641,33.203,30.273,22.461,14.160,0
4279.568,-157.227,36.133,28.809,-21.973,3.906,0
4279.572,60.547,29.297,25.391,18.555,0.488,0
4279.576,210.938,24.902,21.973,55.664,29.785,0
4279.580,14.648,35.156,28.320,17.090,75.684,0
4279.584,-167.480,42.480,33.691,-19.531,54.688,0
4279.588,-16.113,32.715,23.438,10.254,42.969,0
4279.592,212.402,25.391,18.066,49.316,7.812,0
4279.596,91.797,29.297,24.414,18.066,1.953,0
4279.600,-150.879,32.715,30.762,-23.926,2.930,0
4279.604,-71.289,31.738,29.785,-0.977,20.996,0
4279.608,177.734,29.297,21.973,32.227,48.340,0
4279.611,146.973,34.180,22.461,32.227,10.742,0
4279.615,-109.375,37.598,31.738,-1.953,0.488,0
4279.619,-128.418,36.133,29.297,-20.508,5.371,0
4279.623,114.258,34.668,26.855,19.531,38.086,0
4279.627,197.266,34.180,27.344,41.504,64.453,0
4279.631,-29.297,36.621,27.344,6.348,54.688,0
4279.635,-151.855,35.645,25.391,-11.719,26.367,0
4279.639,45.410,30.273,18.555,19.531,10.254,0
4279.643,220.703,29.297,21.973,57.129,16.113,0
4279.647,41.016,32.715,31.738,41.992,24.902,0
4279.651,-167.969,31.738,33.691,-3.906,51.758,0
4279.654,-27.832,29.297,30.273,13.184,57.129,0
4279.658,202.148,26.367,27.344,72.266,46.875,0
4279.662,113.281,31.250,28.809,51.270,19.531,0
4279.666,-132.812,39.062,37.598,-2.930,9.277,0
4279.670,-100.098,31.250,35.156,8.789,-5.371,0
4279.674,158.203,23.438,26.367,50.781,31.250,0
4279.678,167.480,28.809,26.367,54.688,62.988,0
4279.682,-82.520,41.016,37.109,20.020,17.090,0
4279.686,-127.930,44.434,41.016,0.977,-32.715,0
4279.690,90.332,34.180,31.738,32.227,0.977,0
4279.693,184.082,31.250,29.297,61.523,30.273,0
4279.697,-20.996,38.086,35.645,28.320,33.203,0
4279.701,-145.020,38.086,41.504,3.418,50.781,0
4279.705,31.250,33.203,34.180,23.926,-0.977,0
4279.709,211.426,32.227,24.902,60.547,7.324,0
4279.713,58.105,37.109,30.762,35.645,59.570,0
4279.717,-154.785,41.992,35.156,-3.418,-16.602,0
4279.721,-39.062,37.598,35.645,29.785,-45.898,0
4279.725,201.172,30.273,33.203,72.266,-40.039,0
4279.729,125.000,32.227,34.180,62.988,-38.086,0
4279.733,-124.512,38.086,39.551,11.230,-3.418,0
4279.736,-98.145,35.156,33.691,4.883,44.434,0
4279.740,165.527,32.715,27.832,62.988,101.562,0
4279.744,202.637,34.180,29.785,71.289,77.148,0
4279.748,-64.453,37.109,34.180,21.484,23.926,0
4279.752,-145.020,35.156,32.227,-7.812,-43.457,0
4279.756,81.055,27.832,26.367,29.785,12.695,0
4279.760,210.938,27.832,28.320,71.289,67.871,0
4279.764,4.395,33.691,34.180,36.621,20.020,0
4279.768,-151.367,36.621,33.203,-4.883,16.113,0
4279.772,23.438,32.715,26.367,30.273,16.602,0
4279.776,228.516,29.297,21.973,68.848,47.363,0
4279.779,80.078,33.203,26.855,34.668,74.219,0
4279.783,-148.438,41.016,36.133,0.488,28.809,0
4279.787,-52.246,36.133,32.227,19.531,41.016,0
4279.791,203.125,28.809,23.926,60.547,36.621,0
4279.795,153.320,32.715,29.297,53.223,21.973,0
4279.799,-108.887,38.574,33.691,2.930,45.410,0
4279.803,-107.422,39.551,31.738,3.906,19.531,0
4279.807,154.297,36.621,22.461,43.945,9.277,0
4279.811,223.145,38.086,20.508,61.523,0.488,0
4279.815,-34.668,43.945,35.156,28.809,-1.953,0
4279.818,-145.020,41.992,39.551,-2.930,-22.461,0
4279.822,62.988,28.809,30.762,31.250,-13.672,0
4279.826,226.074,27.344,24.414,66.406,28.809,0
4279.830,36.621,36.621,24.414,27.344,44.434,0
4279.834,-153.809,48.828,40.039,0.000,31.250,0
4279.838,-5.859,43.945,41.016,31.250,-40.527,0
4279.842,206.055,26.367,27.832,41.016,26.367,0
4279.846,75.684,25.879,29.297,12.695,74.707,0
4279.850,-169.922,33.691,31.738,-25.391,60.547,0
4279.854,-98.145,32.715,31.250,-25.391,54.688,0
4279.858,159.668,23.926,25.391,31.250,8.301,0
4279.861,133.301,28.320,30.762,52.734,-3.906,0
4279.865,-136.230,37.598,35.645,-10.254,65.918,0
4279.869,-144.531,38.574,30.762,-37.109,76.172,0
4279.873,107.910,30.273,27.832,8.789,61.035,0
4279.877,183.105,27.832,26.367,29.785,60.547,0
4279.881,-52.246,38.086,29.785,-12.207,33.203,0
4279.885,-173.340,40.527,32.227,-31.738,8.301,0
4279.889,25.391,35.156,27.832,8.301,-9.277,0
4279.893,200.195,34.180,22.949,40.039,55.664,0
4279.897,28.809,37.598,26.367,14.160,31.738,0
4279.901,-166.992,41.016,32.715,-27.832,-25.879,0
4279.904,-39.551,37.598,30.273,-9.766,-62.012,0
4279.908,196.289,30.762,25.391,45.410,-35.645,0
4279.912,108.887,32.715,30.273,38.086,11.719,0
4279.916,-147.461,38.086,37.598,-3.906,-7.324,0
4279.920,-93.750,37.598,33.691,9.277,9.277,0
4279.924,159.668,30.273,28.320,45.410,49.316,0
4279.928,157.715,27.344,29.785,36.133,63.477,0
4279.932,-102.539,32.715,33.203,-6.836,-21.484,2
4279.936,-146.484,34.180,33.203,-20.996,-38.086,0
4279.940,96.191,30.273,28.320,19.043,-2.441,0
4279.943,198.242,28.809,26.367,49.805,25.879,0
4279.947,-18.066,33.691,31.250,12.695,6.348,0
4279.951,-158.203,35.156,36.133,-17.090,23.438,0
4279.955,23.438,32.227,34.180,19.043,37.109,0
4279.959,208.008,25.879,28.809,71.777,63.477,0
4279.963,51.758,32.227,34.668,44.434,36.133,0
4279.967,-149.902,39.551,37.598,-9.766,-28.809,0
4279.971,-39.062,30.762,29.297,13.672,-19.531,0
4279.975,192.871,25.879,23.926,52.246,46.387,0
4279.979,115.723,33.203,29.785,30.762,104.004,0
4279.983,-134.766,38.574,36.133,-7.324,87.891,0
4279.986,-104.004,34.180,34.668,-5.859,29.297,0
4279.990,146.973,28.809,27.832,34.180,28.809,0
4279.994,166.504,29.785,27.344,51.270,92.773,0
4279.998,-85.938,34.180,36.133,14.160,51.758,0
4280.002,-145.996,35.645,37.598,-10.742,-5.371,0
4280.006,81.055,28.320,31.738,26.367,-19.043,0
4280.010,205.078,22.949,30.273,62.988,6.836,0
4280.014,-1.465,30.762,36.133,32.715,25.879,0
4280.018,-167.969,32.715,41.016,-11.230,0.000,0
4280.022,3.418,29.297,36.133,14.648,13.672,0
4280.026,212.891,28.320,28.320,61.523,49.805,0
4280.029,76.172,32.715,35.156,36.133,46.387,0
4280.033,-155.273,34.668,43.945,-4.883,23.438,0
4280.037,-59.570,31.738,40.527,15.625,8.789,0
4280.041,198.242,26.367,32.715,54.199,-6.348,0
4280.045,150.391,30.273,33.203,55.176,7.812,0
4280.049,-113.281,37.109,38.574,19.531,-1.953,0
4280.053,-108.398,32.227,36.621,11.230,-58.105,0
4280.057,141.602,24.414,30.273,41.992,-26.855,0
4280.061,187.988,28.320,32.227,52.246,46.387,0
4280.065,-56.641,38.086,41.992,5.371,48.828,0
4280.068,-135.254,39.551,39.062,-8.789,-1.465,0
4280.072,76.660,34.180,33.691,41.016,10.254,0
4280.076,204.590,29.785,33.691,63.477,34.180,0
4280.080,12.695,36.133,37.109,36.133,25.391,0
4280.084,-159.668,39.551,40.039,8.789,12.695,0
4280.088,-3.418,33.691,34.668,26.367,44.434,0
4280.092,209.473,31.738,34.668,70.312,60.547,0
4280.096,83.984,36.133,40.039,45.898,4.395,0
4280.100,-145.020,38.086,40.039,-13.184,-0.488,0
4280.104,-74.219,34.180,35.156,-1.465,29.297,0
4280.108,169.922,25.391,30.762,48.828,-5.859,0
4280.111,145.020,28.809,36.133,48.828,7.324,0
4280.115,-109.863,38.574,42.969,-1.953,24.414,0
4280.119,-117.188,36.133,43.945,1.953,11.230,0
4280.123,122.559,30.273,36.621,51.270,4.395,0
4280.127,195.312,27.344,31.250,60.547,48.340,0
4280.131,-32.715,32.227,41.504,31.250,32.715,0
4280.135,-145.020,35.645,44.434,19.043,-16.602,0
4280.139,46.875,30.762,34.668,38.574,21.484,0
4280.143,215.820,28.809,34.180,57.129,18.066,0
4280.147,49.316,31.738,41.504,31.250,-2.441,0
4280.151,-149.414,33.203,42.480,-6.348,23.926,0
4280.154,-21.484,28.320,38.086,19.043,39.062,0
4280.158,207.031,24.414,34.180,62.988,28.809,0
4280.162,111.328,27.344,40.527,46.387,55.664,0
4280.166,-130.371,31.250,45.898,-4.883,67.383,0
4280.170,-76.660,29.785,39.551,-4.395,-6.348,0
4280.174,171.875,23.926,31.250,43.457,-10.254,0
4280.178,169.434,26.367,34.668,54.199,38.086,0
4280.182,-90.332,33.203,43.457,26.367,25.879,0
4280.186,-138.184,32.715,43.945,-0.488,63.965,0
4280.190,106.934,31.738,37.109,36.133,24.902,0
4280.193,204.102,30.273,33.203,62.012,18.555,0
4280.197,-25.879,33.203,38.574,18.555,45.898,0
4280.201,-151.367,36.133,39.551,-1.465,52.246,0
4280.205,44.434,31.738,31.250,31.738,94.727,0
4280.209,222.656,26.367,24.414,54.199,117.188,0
4280.213,55.176,27.832,31.738,30.762,60.547,0
4280.217,-150.879,30.273,36.133,7.812,10.742,0
4280.221,-39.062,27.832,26.855,22.949,61.523,0
4280.225,206.055,27.832,23.438,48.340,27.832,0
4280.229,130.371,30.762,28.320,35.645,9.766,0
4280.233,-129.395,34.180,33.203,-2.930,73.242,0
4280.236,-95.703,31.738,36.133,-2.930,93.750,0
4280.240,155.273,28.320,27.832,40.527,69.824,0
4280.244,174.805,29.297,24.902,39.551,13.184,0
4280.248,-91.309,33.691,31.738,-11.230,8.789,0
4280.252,-170.410,32.227,30.762,-20.996,-9.766,0
4280.256,52.246,25.879,24.414,15.137,6.348,0
4280.260,167.969,25.391,24.414,43.457,18.555,0
4280.264,-50.781,30.273,32.715,17.090,13.184,0
4280.268,-225.098,34.180,33.203,-19.043,32.715,0
4280.272,-61.035,30.762,29.785,7.812,57.129,0
4280.276,153.809,28.809,24.902,47.363,42.480,0
4280.279,5.371,33.203,30.762,27.344,30.273,0
4280.283,-226.562,38.574,41.504,-6.348,-13.184,0
4280.287,-122.559,31.250,37.109,10.742,47.363,0
4280.291,119.629,22.949,24.414,49.316,105.957,0
4280.295,76.660,26.855,23.926,39.062,66.406,0
4280.299,-157.715,33.203,33.691,-3.906,55.664,0
4280.303,-152.344,32.715,30.273,3.418,50.781,0
4280.307,92.773,24.414,23.926,46.875,58.594,0
4280.311,143.066,23.438,24.414,55.176,46.387,0
4280.315,-98.145,33.691,27.832,15.625,41.016,0
4280.318,-178.711,32.227,29.297,-8.789,27.832,0
4280.322,34.180,26.367,24.902,23.926,-12.207,0
4280.326,172.852,22.949,23.926,57.129,18.555,0
4280.330,-12.207,25.879,30.273,29.297,29.297,0
4280.334,-180.664,31.738,33.691,-2.441,0.488,0
4280.338,-24.902,24.414,29.785,31.738,14.160,0
4280.342,198.730,20.020,28.320,80.566,44.922,0
4280.346,63.477,26.367,32.227,52.246,50.293,0
4280.350,-163.574,27.832,31.250,3.418,13.184,0
4280.354,-79.102,25.391,29.297,11.719,3.418,0
4280.358,169.922,22.461,22.949,50.293,10.742,0
4280.361,149.902,26.855,25.391,52.246,-19.043,0
4280.365,-109.863,35.156,34.668,13.184,14.648,0
4280.369,-124.023,33.691,32.227,2.930,27.832,0
4280.373,125.488,24.902,20.996,30.273,21.973,0
4280.377,201.172,24.414,22.461,58.105,30.762,0
4280.381,-35.156,31.250,31.250,21.973,55.176,0
4280.385,-147.949,34.668,29.297,-11.719,50.781,0
4280.389,50.293,30.273,25.391,25.391,34.668,0
4280.393,208.984,28.320,26.855,62.988,48.340,0
4280.397,26.855,35.156,30.273,52.734,-2.930,0
4280.401,-166.016,37.109,34.180,18.066,-32.715,0
4280.404,-18.066,30.273,30.273,12.207,38.086,0
4280.408,210.938,23.926,21.973,55.664,73.730,0
4280.412,100.098,27.832,28.809,45.410,-0.488,0
4280.416,-130.371,35.156,36.621,-12.207,-75.684,0
4280.420,-66.895,29.785,33.203,-2.930,-30.762,0
4280.424,170.898,24.902,28.809,54.688,27.832,0
4280.428,159.668,30.273,27.832,58.594,-1.465,0
4280.432,-96.680,35.156,31.738,4.883,-21.973,0
4280.436,-119.629,39.551,34.180,-9.766,48.340,0
4280.440,122.070,36.133,30.273,32.715,73.242,0
4280.443,211.426,29.785,27.344,60.547,39.062,0
4280.447,-14.648,34.180,31.738,16.602,12.207,0
4280.451,-152.832,35.645,31.738,-22.949,5.371,0
4280.455,34.180,27.344,20.020,14.648,-3.906,0
4280.459,218.262,22.949,17.090,50.293,34.180,0
4280.463,45.898,30.273,26.855,18.555,88.867,0
4280.467,-169.922,33.691,29.785,-11.230,12.695,0
4280.471,-44.922,28.320,22.949,-2.441,-15.625,0
4280.475,198.242,26.367,19.531,43.945,86.426,0
4280.479,121.582,31.250,22.461,38.086,55.664,0
4280.483,-131.348,36.621,32.227,-8.301,37.598,0
4280.486,-93.262,33.203,36.621,-0.977,76.172,0
4280.490,154.297,25.391,26.367,48.340,78.613,0
4280.494,175.781,28.320,27.344,56.152,71.777,0
4280.498,-75.684,34.180,38.086,17.090,48.340,0
4280.502,-139.160,32.227,34.180,-3.906,21.973,0
4280.506,87.402,30.762,23.926,18.555,59.570,0
4280.510,197.266,32.715,23.926,48.828,80.566,0
4280.514,-10.742,38.574,30.762,20.996,33.691,0
4280.518,-156.250,40.039,35.645,-5.371,5.371,0
4280.522,16.602,36.621,31.250,27.344,10.742,0
4280.526,213.379,31.250,24.902,63.965,56.152,0
4280.529,64.453,29.297,22.949,21.484,16.113,0
4280.533,-158.203,32.227,23.926,-24.414,-4.883,0
4280.537,-59.570,30.273,21.484,-3.906,4.883,0
4280.541,180.664,24.902,20.996,41.016,-21.484,0
4280.545,124.023,26.855,25.391,35.156,0.000,0
4280.549,-124.512,32.227,25.879,-8.301,9.277,0
4280.553,-104.980,29.785,24.902,-4.395,1.465,0
4280.557,141.113,24.414,20.996,28.320,32.227,0
4280.561,177.734,23.926,19.531,39.062,60.059,0
4280.565,-80.566,31.250,23.438,5.371,-8.301,0
4280.568,-165.527,32.227,25.391,-19.043,-34.668,0
4280.572,64.941,25.391,23.438,22.461,36.621,0
4280.576,206.543,24.414,24.414,56.641,99.609,0
4280.580,4.883,29.297,30.762,28.320,105.469,0
4280.584,-167.969,31.250,31.738,-1.953,26.855,0
4280.588,-0.977,26.855,24.902,15.625,-7.324,1
4280.592,213.379,22.949,20.996,50.293,34.668,0
4280.596,75.195,27.344,26.367,28.809,7.812,0
4280.600,-150.879,32.715,34.180,-6.836,41.016,0
4280.604,-68.359,31.250,33.203,13.672,12.207,0
4280.608,180.664,26.855,24.902,44.434,-1.465,0
4280.611,158.691,31.250,27.832,43.457,10.254,0
4280.615,-91.797,39.062,34.668,10.742,-15.625,0
4280.619,-112.305,36.133,32.715,2.441,16.602,0
4280.623,136.230,29.297,30.762,43.457,44.434,0
4280.627,212.891,30.273,30.762,60.059,75.195,0
4280.631,-32.715,35.645,35.645,17.090,85.449,0
4280.635,-146.484,35.156,39.551,6.836,34.180,0
4280.639,58.105,28.809,35.156,39.551,-2.441,0
4280.643,221.680,27.344,29.297,57.129,65.918,0
4280.647,40.527,35.156,34.668,25.879,81.055,0
4280.651,-153.809,37.598,39.062,-16.602,43.945,0
4280.654,-18.066,32.227,33.203,5.859,28.809,0
4280.658,214.844,27.344,29.297,57.129,43.945,0
4280.662,100.098,28.809,38.086,50.293,-1.953,0
4280.666,-147.461,34.180,41.992,3.418,-2.441,0
4280.670,-78.613,32.715,35.645,3.906,61.035,0
4280.674,169.434,28.320,28.320,46.387,54.199,0
4280.678,159.668,29.785,26.855,56.152,74.707,0
4280.682,-80.078,37.109,36.133,20.996,56.641,0
4280.686,-120.117,32.227,39.551,8.301,1.465,0
4280.690,107.422,22.461,34.668,41.016,6.348,0
4280.693,199.707,22.949,29.785,66.895,35.645,0
4280.697,-31.250,28.320,36.133,35.156,33.691,0
4280.701,-157.715,31.738,39.551,1.465,21.973,0
4280.705,47.363,29.785,32.227,31.250,-4.395,0
4280.709,226.562,28.809,24.902,67.383,-1.953,0
4280.713,45.898,32.227,30.762,30.762,21.484,0
4280.717,-153.320,36.133,36.133,0.000,48.828,0
4280.721,-28.320,35.645,33.691,22.949,28.809,0
4280.725,201.172,32.715,30.762,52.734,-1.953,0
4280.729,109.863,34.668,30.762,41.016,0.977,0
4280.733,-141.113,37.109,36.133,3.418,-25.879,0
4280.736,-94.727,37.109,33.203,-2.930,0.000,0
4280.740,159.180,32.715,27.344,37.598,25.391,0
4280.744,170.410,32.227,30.273,55.664,46.387,0
4280.748,-88.867,38.086,35.645,16.113,73.242,0
4280.752,-152.344,36.133,34.668,-8.789,62.988,0
4280.756,75.684,27.344,29.297,30.762,9.766,0
4280.760,192.383,24.414,30.273,66.406,9.766,0
4280.764,-21.484,32.227,40.039,30.762,52.734,0
4280.768,-166.992,35.645,41.016,-12.695,30.762,0
4280.772,10.742,30.273,34.668,14.648,10.254,0
4280.776,201.172,23.926,33.203,58.105,-12.695,0
4280.779,64.941,28.320,36.621,43.457,-21.484,0
4280.783,-153.320,35.156,36.621,4.395,12.207,0
4280.787,-61.523,30.273,28.809,11.230,23.438,0
4280.791,184.570,26.367,27.344,44.434,14.648,0
4280.795,128.418,33.203,32.227,33.203,-22.461,0
4280.799,-132.324,39.062,37.109,-2.441,-49.805,0
4280.803,-113.281,37.598,36.621,-11.230,-39.551,0
4280.807,145.508,34.180,26.367,23.926,-61.523,0
4280.811,181.152,31.738,21.973,44.434,0.488,0
4280.815,-74.219,39.062,31.738,7.324,39.551,0
4280.818,-156.738,42.480,30.273,-11.719,25.879,0
4280.822,59.570,35.645,23.438,27.832,15.625,0
4280.826,194.824,31.250,23.438,60.059,31.250,0
4280.830,0.977,36.133,29.785,21.973,15.137,0
4280.834,-165.039,39.062,32.715,-20.020,11.230,0
4280.838,-10.254,31.738,27.344,14.160,57.129,0
4280.842,201.660,29.297,28.320,73.242,40.527,0
4280.846,71.777,33.203,35.156,57.617,37.109,0
4280.850,-164.551,34.180,35.645,-3.906,73.730,0
4280.854,-72.754,28.809,31.738,-8.789,66.406,0
4280.858,175.781,24.902,24.902,32.715,58.594,0
4280.861,129.395,29.297,29.297,40.527,88.379,0
4280.865,-127.930,33.691,38.086,0.000,51.270,0
4280.869,-129.395,30.273,31.738,-4.395,28.809,0
4280.873,114.746,21.973,25.391,42.969,9.277,0
4280.877,177.734,19.043,28.809,57.129,35.156,0
4280.881,-57.617,26.855,38.574,31.738,32.227,0
4280.885,-160.645,33.691,38.574,6.836,8.301,0
4280.889,53.223,29.785,30.273,46.387,22.461,0
4280.893,208.496,26.855,27.832,79.102,22.461,0
4280.897,20.020,33.203,29.785,20.996,16.113,0
4280.901,-166.992,36.133,32.715,-4.883,0.000,0
4280.904,-19.043,30.762,31.738,23.926,40.527,0
4280.908,210.449,28.809,25.391,51.758,43.945,0
4280.912,94.238,33.691,28.809,49.805,26.855,0
4280.916,-145.996,38.086,38.086,14.160,28.809,0
4280.920,-77.637,39.062,35.156,1.953,37.109,0
4280.924,177.734,34.668,23.926,52.734,39.551,0
4280.928,164.551,33.203,25.879,63.965,49.316,0
4280.932,-102.051,37.109,35.645,21.973,55.176,0
4280.936,-121.094,36.133,36.621,5.859,119.629,0
4280.940,126.465,32.715,31.738,51.758,86.426,0
4280.943,203.613,31.738,31.250,74.707,50.781,0
4280.947,-23.926,36.133,35.156,20.020,28.320,0
4280.951,-146.484,38.574,37.109,-4.883,-12.207,0
4280.955,46.875,36.133,34.180,33.691,-6.348,0
4280.959,217.773,35.645,31.738,75.195,-40.039,0
4280.963,52.734,41.992,38.086,34.668,3.418,0
4280.967,-140.625,43.945,40.039,-10.254,81.055,0
4280.971,-23.926,40.527,35.645,14.160,68.848,0
4280.975,208.496,35.645,32.715,52.734,78.613,0
4280.979,127.441,38.086,35.156,40.527,85.449,0
4280.983,-124.023,43.457,39.551,3.418,2.930,0
4280.986,-85.449,39.062,41.016,15.137,-21.973,0
4280.990,175.781,32.715,37.598,56.641,20.020,0
4280.994,187.500,31.250,37.598,58.594,-28.320,0
4280.998,-80.078,33.691,40.039,18.066,-15.137,0
4281.002,-132.324,33.203,40.527,8.301,46.387,0
4281.006,98.145,27.832,33.203,46.387,56.641,0
4281.010,206.543,24.414,29.785,69.336,18.555,0
4281.014,2.930,32.227,35.156,27.344,-35.156,0
4281.018,-144.531,36.621,35.645,-6.348,-23.926,0
4281.022,23.926,31.250,33.691,35.645,29.297,0
4281.026,223.633,27.344,34.668,75.684,10.742,0
4281.029,71.777,30.762,39.551,34.180,39.551,0
4281.033,-142.578,37.109,42.969,-6.348,53.711,0
4281.037,-22.949,32.715,40.527,17.578,1.953,0
4281.041,199.707,25.391,32.227,56.152,42.480,0
4281.045,121.582,30.273,34.668,53.223,68.359,0
4281.049,-121.582,36.621,39.062,11.719,22.949,0
4281.053,-109.375,34.668,37.109,8.301,-20.020,0
4281.057,137.695,27.344,29.297,48.828,15.137,0
4281.061,184.082,30.273,28.320,46.387,61.035,0
4281.065,-59.082,39.551,35.156,3.418,42.480,0
4281.068,-134.277,37.598,36.133,-4.395,41.992,0
4281.072,78.613,30.762,26.367,25.391,0.977,0
4281.076,209.473,26.855,21.973,46.875,29.297,0
4281.080,12.695,31.250,33.691,29.297,64.453,0
4281.084,-162.598,35.156,38.574,0.488,31.738,0
4281.088,-1.465,29.785,32.227,23.926,19.531,0
4281.092,211.914,21.973,25.879,65.918,30.762,0
4281.096,83.496,23.438,26.855,29.785,45.898,0
4281.100,-137.695,30.762,34.668,-13.184,25.391,0
4281.104,-52.246,28.320,30.762,6.348,38.086,0
4281.108,188.965,23.438,21.484,49.316,39.551,0
4281.111,148.926,26.855,23.926,55.176,8.789,0
4281.115,-106.445,29.785,32.227,10.254,-4.395,0
4281.119,-107.910,28.809,33.691,12.207,10.742,0
4281.123,129.883,26.367,28.809,54.688,21.484,0
4281.127,193.359,27.832,23.926,65.430,20.020,0
4281.131,-39.062,34.668,33.203,30.273,1.465,0
4281.135,-145.020,36.621,41.504,5.371,14.160,0
4281.139,57.129,29.785,35.156,38.574,53.223,0
4281.143,213.867,27.344,30.762,62.988,32.227,0
4281.147,26.367,32.715,34.180,30.762,13.672,0
4281.151,-161.621,35.156,35.156,-5.371,11.230,0
4281.154,-9.766,31.250,30.273,3.906,54.688,0
4281.158,205.078,25.879,25.391,49.805,94.238,0
4281.162,88.867,31.738,29.297,36.133,75.195,0
4281.166,-140.137,40.527,33.203,-7.812,37.598,0
4281.170,-70.801,39.062,29.785,0.000,16.602,0
4281.174,171.387,32.227,25.879,58.105,51.270,0
4281.178,149.414,30.273,28.320,66.895,66.895,0
4281.182,-103.516,35.156,36.133,1.953,-27.344,0
4281.186,-133.301,34.180,31.250,-16.602,-8.789,0
4281.190,98.145,27.832,24.902,30.762,48.828,1
4281.193,198.730,26.367,27.344,50.781,20.020,0
4281.197,-15.137,33.691,30.762,16.602,8.789,0
4281.201,-155.762,37.598,33.691,-6.348,14.160,0
4281.205,23.438,31.738,29.297,27.344,63.965,0
4281.209,207.520,28.320,23.438,62.988,72.266,0
4281.213,37.109,32.715,30.273,20.508,47.852,0
4281.217,-167.969,34.180,36.621,-15.137,30.273,0
4281.221,-31.738,35.645,34.180,26.855,10.742,0
4281.225,209.961,38.086,30.762,70.801,10.742,0
4281.229,124.512,38.086,29.785,42.480,-15.625,0
4281.233,-125.000,36.621,33.691,-3.906,-6.348,0
4281.236,-94.727,32.227,29.785,-0.977,-2.441,0
4281.240,154.785,27.832,21.973,49.805,25.391,0
4281.244,163.086,29.297,29.297,56.641,31.738,0
4281.248,-88.867,35.156,38.574,9.277,-36.621,0
4281.252,-136.719,35.645,35.645,-2.930,1.465,0
4281.256,91.309,30.273,29.785,30.762,14.160,0
4281.260,201.172,30.273,29.785,59.570,-22.949,0
4281.264,-12.695,36.133,38.574,23.438,22.461,0
4281.268,-156.250,40.527,39.551,-5.371,73.242,0
4281.272,15.625,32.227,30.273,24.902,83.984,0
4281.276,197.266,25.391,25.879,62.988,80.078,0
4281.279,52.246,29.785,33.203,29.785,5.371,0
4281.283,-153.809,36.133,37.598,-18.066,-71.777,0
4281.287,-47.363,34.668,31.250,0.000,-19.043,0
4281.291,190.430,27.344,23.926,42.480,65.430,0
4281.295,123.535,31.738,30.273,45.898,36.133,0
4281.299,-133.301,34.668,39.062,5.371,30.762,0
4281.303,-121.094,30.762,36.133,-3.906,34.668,0
4281.307,125.000,25.391,28.320,32.227,28.320,0
4281.311,170.898,26.367,24.902,42.480,58.594,0
4281.315,-68.359,34.668,27.344,5.859,46.875,0
4281.318,-154.297,30.762,28.809,-8.789,13.672,0
4281.322,63.965,24.414,25.879,20.508,12.695,0
4281.326,211.914,25.879,26.367,45.410,-2.930,0
4281.330,8.789,29.297,31.738,29.785,-11.230,0
4281.334,-155.273,31.250,37.598,1.953,-14.160,0
4281.338,13.672,28.809,31.738,24.414,20.508,0
4281.342,214.844,27.832,28.320,60.059,38.574,0
4281.346,81.055,31.738,33.691,41.992,57.617,0
4281.350,-144.043,34.180,34.180,3.906,73.730,0
4281.354,-51.270,33.691,27.832,11.719,19.043,0
4281.358,191.895,29.785,20.996,64.941,-15.625,0
4281.361,147.949,32.715,28.320,56.152,11.230,0
4281.365,-112.305,40.039,34.180,-0.488,14.160,0
4281.369,-120.605,35.645,28.809,-4.395,-5.859,0
4281.373,125.977,26.855,22.461,28.809,34.180,0
4281.377,188.965,26.855,21.484,47.363,47.363,0
4281.381,-45.410,33.691,25.391,14.160,54.688,0
4281.385,-156.250,32.227,23.926,-13.184,36.133,0
4281.389,54.688,23.438,22.461,35.156,41.504,0
4281.393,210.938,21.973,23.926,62.988,38.574,0
4281.397,14.648,26.367,28.809,15.625,-6.348,0
4281.401,-163.574,29.785,34.668,-4.883,-1.953,0
4281.404,-12.207,26.855,29.785,20.508,0.977,0
4281.408,208.984,21.484,22.949,46.875,48.828,0
4281.412,98.633,23.926,26.855,29.785,36.133,0
4281.416,-144.043,28.320,35.645,-5.371,-12.695,0
4281.420,-72.754,26.855,33.203,14.160,-30.762,0
4281.424,177.734,23.438,29.297,53.223,10.254,0
4281.428,156.250,23.926,30.762,52.246,46.875,0
4281.432,-93.262,30.273,36.133,16.602,1.953,0
4281.436,-125.000,31.738,36.621,2.441,15.625,0
4281.440,107.910,28.809,31.738,38.574,17.090,0
4281.443,208.984,33.691,28.809,61.523,-2.930,0
4281.447,-18.555,38.086,33.691,21.484,9.277,0
4281.451,-154.297,37.598,37.598,-4.395,7.812,0
4281.455,41.016,32.715,31.738,28.320,30.762,0
4281.459,213.867,27.832,31.250,55.664,67.871,0
4281.463,44.434,31.738,39.551,34.668,19.531,0
4281.467,-148.438,34.180,40.527,3.906,29.297,0
4281.471,-27.832,30.273,31.738,20.020,31.250,0
4281.475,205.078,26.367,26.855,55.176,22.461,0
4281.479,119.141,30.273,31.738,42.969,85.938,0
4281.483,-129.883,37.109,40.527,9.766,42.969,0
4281.486,-90.820,33.691,35.645,18.066,10.742,0
4281.490,163.086,27.344,29.297,51.758,44.922,0
4281.494,172.363,30.273,33.203,44.922,31.738,0
4281.498,-92.285,37.109,35.645,-6.348,-0.977,0
4281.502,-134.277,40.039,38.574,-10.254,-3.906,0
4281.506,103.027,36.133,29.297,35.645,53.711,0
4281.510,205.078,30.762,22.949,48.828,24.902,0
4281.514,-12.207,34.180,35.156,20.996,6.836,0
4281.518,-163.086,36.133,39.551,3.418,16.602,0
4281.522,15.137,30.273,35.156,20.020,8.789,0
4281.526,209.961,28.809,30.273,54.199,40.527,0
4281.529,67.383,34.668,33.203,26.855,44.922,0
4281.533,-140.625,38.086,39.062,-4.395,-13.672,0
4281.537,-37.598,29.785,35.156,15.625,-20.020,0
4281.541,187.988,23.438,30.273,53.711,61.523,0
4281.545,109.375,31.738,33.203,52.734,54.688,0
4281.549,-131.836,37.598,39.062,8.301,-48.340,0
4281.553,-108.887,35.156,36.133,-0.977,-10.742,0
4281.557,137.695,27.344,27.344,48.340,24.902,0
4281.561,174.805,26.367,31.738,66.406,18.555,0
4281.565,-66.895,32.227,41.504,13.672,38.574,0
4281.568,-131.836,32.715,33.691,-18.066,3.418,0
4281.572,80.566,27.832,26.367,27.344,26.367,0
4281.576,207.031,26.367,31.250,64.453,110.352,0
4281.580,12.695,33.691,36.621,31.738,55.176,0
4281.584,-153.320,33.691,33.691,-3.906,7.812,0
4281.588,-2.930,26.855,28.320,27.344,43.457,0
4281.592,193.359,23.438,23.438,65.918,13.184,0
4281.596,62.012,26.367,27.832,27.344,-14.160,0
4281.600,-160.156,27.832,31.738,-15.625,42.969,0
4281.604,-71.777,28.809,24.414,3.906,86.914,0
4281.608,171.875,26.855,22.461,49.316,8.301,0
4281.611,133.301,24.414,24.414,39.551,-29.297,0
4281.615,-114.746,29.785,30.762,-7.324,-2.441,0
4281.619,-117.188,29.297,33.691,0.977,-21.484,0
4281.623,128.906,24.414,27.344,39.062,19.531,0
4281.627,193.848,25.391,27.344,50.293,24.414,0
4281.631,-52.246,34.180,34.668,22.949,14.648,0
4281.635,-143.555,35.156,33.691,-2.441,26.855,0
4281.639,72.266,28.809,23.438,22.461,49.805,0
4281.643,221.191,30.762,27.344,58.594,69.336,0
4281.647,36.621,35.645,36.133,32.227,50.293,0
4281.651,-146.973,35.156,39.551,-0.488,18.066,0
4281.654,-8.301,32.715,38.574,24.414,9.277,0
4281.658,212.891,31.250,32.227,71.777,31.738,0
4281.662,107.910,33.691,33.691,62.500,56.641,0
4281.666,-131.836,36.621,33.691,1.465,62.988,0
4281.670,-71.777,32.227,30.762,0.488,20.020,0
4281.674,174.316,27.344,28.320,50.781,23.438,0
4281.678,161.133,30.273,29.297,55.664,20.508,0
4281.682,-91.797,38.574,36.621,9.766,-17.578,0
4281.686,-119.629,39.551,36.133,-3.906,20.508,0
4281.690,105.957,31.738,28.809,39.062,44.434,0
4281.693,190.918,28.320,29.297,51.270,38.086,0
4281.697,-33.691,34.180,32.715,17.090,17.090,0
4281.701,-155.273,36.133,35.156,-5.859,1.953,0
4281.705,42.480,29.297,28.809,11.230,-17.090,0
4281.709,208.496,24.902,17.090,50.293,-3.906,0
4281.713,36.133,30.273,23.438,25.879,7.324,0
4281.717,-160.156,30.762,30.273,-23.438,-1.953,0
4281.721,-38.086,28.809,25.879,-4.395,5.371,0
4281.725,193.848,25.879,20.020,43.457,11.230,0
4281.729,107.910,28.320,21.973,35.156,35.645,0
4281.733,-132.812,33.203,32.227,-6.836,60.547,0
4281.736,-81.543,28.809,32.715,-12.695,38.086,0
4281.740,164.551,23.926,25.879,41.992,41.504,0
4281.744,168.457,27.344,29.785,62.988,78.125,0
4281.748,-83.496,29.297,33.691,2.441,37.109,0
4281.752,-136.230,25.391,28.320,-10.254,15.625,0
4281.756,99.609,24.414,25.879,41.504,21.973,0
4281.760,216.797,24.902,26.855,59.082,32.715,0
4281.764,-0.977,29.785,29.785,22.949,91.309,0
4281.768,-151.367,33.691,33.203,-4.883,26.855,0
4281.772,32.227,29.297,28.809,20.020,-5.371,0
4281.776,214.355,22.949,26.855,45.410,62.012,0
4281.779,53.711,27.344,36.621,33.691,16.602,0
4281.783,-154.785,31.250,41.992,5.371,9.277,0
4281.787,-47.852,25.391,33.691,13.672,43.945,0
4281.791,188.477,22.461,28.320,54.688,60.059,0
4281.795,120.605,24.414,30.273,49.316,87.402,0
4281.799,-128.418,29.297,34.668,-0.977,57.129,0
4281.803,-99.121,30.762,33.691,8.789,-31.250,0
4281.807,145.020,24.902,27.832,55.176,-21.973,0
4281.811,167.480,22.461,30.273,55.176,19.531,0
4281.815,-80.566,28.809,36.133,10.742,-5.371,0
4281.818,-148.926,28.809,32.227,-2.930,-1.953,0
4281.822,80.078,25.391,28.809,41.504,-6.836,0
4281.826,206.543,22.461,26.367,71.289,14.160,0
4281.830,0.977,27.344,32.227,39.062,38.574,0
4281.834,-162.109,31.738,38.574,2.441,37.598,0
4281.838,-6.348,23.926,33.203,14.648,22.949,0
4281.842,206.055,22.461,27.832,47.363,29.297,0
4281.846,70.801,27.832,27.344,25.879,73.730,0
4281.850,-159.668,32.715,32.715,-6.836,47.363,0
4281.854,-62.500,29.297,33.203,9.277,24.414,0
4281.858,183.105,26.855,22.461,45.898,24.902,1
4281.861,135.254,32.227,20.996,45.410,40.039,0
4281.865,-112.793,35.156,25.879,0.000,59.570,0
4281.869,-107.910,31.738,24.414,-2.441,74.707,0
4281.873,135.742,27.344,20.508,32.715,36.621,0
4281.877,190.430,29.297,20.508,40.039,22.949,0
4281.881,-62.012,35.156,28.320,7.324,18.066,0
4281.885,-160.645,35.156,33.203,-10.254,-0.977,0
4281.889,57.129,29.785,26.855,24.902,32.715,0
4281.893,214.355,27.344,20.020,50.293,67.871,0
4281.897,20.020,32.715,23.926,14.648,18.555,0
4281.901,-161.621,35.645,29.297,-13.184,-22.949,0
4281.904,-6.348,32.715,27.344,23.438,27.832,0
4281.908,208.984,26.855,23.926,61.523,50.293,0
4281.912,91.797,31.250,28.320,39.062,66.895,0
4281.916,-137.695,37.598,33.691,5.371,56.152,0
4281.920,-69.336,35.156,30.762,13.184,44.922,0
4281.924,171.387,31.738,23.438,50.293,56.152,0
4281.928,160.156,34.180,25.879,56.152,-28.320,0
4281.932,-94.238,39.551,33.203,21.484,-16.113,0
4281.936,-114.258,37.109,29.785,3.418,21.484,0
4281.940,123.535,29.785,22.949,37.598,7.812,0
4281.943,190.918,28.809,26.367,56.152,27.344,0
4281.947,-39.062,34.180,31.250,22.949,-0.977,0
4281.951,-153.320,32.715,29.297,4.395,14.648,0
4281.955,37.598,26.367,22.949,26.855,20.996,0
4281.959,202.148,23.926,20.020,56.152,39.062,0
4281.963,38.086,28.320,30.762,35.645,12.207,0
4281.967,-159.668,34.180,33.691,10.742,2.930,0
4281.971,-24.414,29.785,30.273,20.508,0.488,0
4281.975,206.543,21.973,28.320,43.945,-29.297,0
4281.979,102.051,28.809,30.273,36.133,18.555,0
4281.983,-136.230,38.086,36.621,9.766,53.711,0
4281.986,-85.938,32.227,34.180,18.555,61.523,0
4281.990,161.133,25.879,27.344,49.805,34.668,0
4281.994,159.668,26.855,30.273,54.199,57.617,0
4281.998,-96.191,29.297,35.156,4.883,59.570,0
4282.002,-134.277,27.344,29.785,-3.906,72.754,0
4282.006,102.051,22.461,23.926,38.086,69.824,0
4282.010,195.312,20.020,25.391,57.129,-2.441,0
4282.014,-25.391,23.926,32.715,30.762,10.742,0
4282.018,-167.969,26.855,31.738,-1.465,37.598,0
4282.022,7.812,25.391,24.414,17.090,31.250,0
4282.026,199.707,22.949,19.531,57.617,33.691,0
4282.029,50.293,24.902,23.438,35.156,2.441,0
4282.033,-153.809,30.762,32.227,-0.488,1.465,0
4282.037,-41.992,30.273,31.250,13.672,20.020,0
4282.041,202.637,26.367,24.414,44.434,32.715,0
4282.045,137.207,30.762,27.832,43.457,48.340,0
4282.049,-120.117,34.180,31.738,7.324,-22.949,0
4282.053,-92.773,32.227,27.344,6.836,-18.066,0
4282.057,162.109,27.832,22.949,54.688,7.812,0
4282.061,183.105,28.320,25.879,64.453,31.738,0
4282.065,-72.754,34.180,36.621,16.602,50.781,0
4282.068,-142.578,32.227,35.645,5.859,34.180,0
4282.072,87.891,28.809,29.297,53.711,42.969,0
4282.076,208.008,26.855,28.320,69.336,0.977,0
4282.080,-10.742,30.273,30.762,24.902,3.906,0
4282.084,-165.527,34.668,35.156,-1.953,43.457,0
4282.088,7.324,26.855,31.738,20.508,52.734,0
4282.092,209.473,23.438,24.902,60.059,52.246,0
4282.096,75.195,27.832,26.855,38.086,28.809,0
4282.100,-152.344,31.738,31.738,-8.789,24.414,0
4282.104,-65.430,31.250,29.297,5.371,0.488,0
4282.108,183.594,24.902,23.926,58.105,-5.859,0
4282.111,145.508,26.367,28.320,55.664,8.789,0
4282.115,-119.629,30.762,33.691,-0.488,-15.137,0
4282.119,-126.465,28.320,30.273,12.695,31.250,0
4282.123,132.812,23.926,26.367,53.711,62.500,0
4282.127,197.266,25.391,24.414,49.805,51.758,0
4282.131,-47.852,29.785,27.832,9.766,28.809,0
4282.135,-145.996,29.785,30.273,-10.254,46.875,0
4282.139,60.547,25.391,24.414,29.297,47.363,0
4282.143,214.355,26.367,25.391,66.895,-3.906,0
4282.147,32.227,34.668,33.691,40.527,39.551,0
4282.151,-154.785,34.668,36.621,12.207,18.066,0
4282.154,-7.324,25.391,30.762,42.969,1.465,0
4282.158,209.961,20.508,22.949,63.477,-4.883,0
4282.162,90.820,27.344,26.367,37.598,14.648,0
4282.166,-140.625,31.738,33.691,1.465,47.852,0
4282.170,-73.730,29.785,32.227,8.789,-35.645,0
4282.174,162.598,25.391,25.879,50.293,-14.160,0
4282.178,146.484,26.855,25.879,50.293,80.566,0
4282.182,-102.051,37.598,35.156,10.742,22.949,0
4282.186,-121.094,36.621,36.133,2.930,2.930,0
4282.190,118.652,26.855,25.391,42.969,64.941,0
4282.193,191.406,25.391,22.461,60.547,64.453,0
4282.197,-32.715,30.273,30.273,13.672,41.016,0
4282.201,-141.602,35.645,34.668,-11.719,37.109,0
4282.205,50.293,31.250,32.227,25.391,23.926,0
4282.209,203.613,23.926,27.832,62.012,21.973,0
4282.213,31.250,28.320,34.668,43.457,6.836,0
4282.217,-157.715,31.250,37.598,0.488,-1.465,0
4282.221,-21.973,28.809,28.809,6.348,26.367,0
4282.225,205.078,28.809,26.367,50.293,-0.488,0
4282.229,107.910,28.320,29.785,28.809,9.277,0
4282.233,-136.230,30.762,34.668,-6.348,22.949,0
4282.236,-84.961,29.785,31.738,7.812,-0.488,0
4282.240,162.109,26.855,25.391,48.340,19.043,0
4282.244,163.574,28.320,24.902,46.875,61.523,0
4282.248,-85.938,30.273,31.738,-3.906,26.367,0
4282.252,-126.465,33.203,31.250,-5.859,-3.418,0
4282.256,112.793,30.762,22.461,43.457,51.758,0
4282.260,213.867,29.785,23.438,62.500,106.934,0
4282.264,-8.789,34.180,31.250,21.484,69.824,0
4282.268,-154.297,32.715,32.715,-9.766,63.477,0
4282.272,30.273,26.367,24.902,21.973,26.367,0
4282.276,212.891,21.973,19.531,53.711,26.367,0
4282.279,48.828,25.391,26.367,24.414,82.031,0
4282.283,-158.691,31.738,34.668,-8.789,60.547,0
4282.287,-55.176,27.832,30.762,7.324,9.277,0
4282.291,172.852,18.555,22.461,49.805,23.926,0
4282.295,99.121,23.438,23.926,46.875,58.105,0
4282.299,-137.207,33.691,27.344,-4.395,43.457,0
4282.303,-101.074,34.668,23.926,-13.672,37.109,0
4282.307,133.789,28.809,16.602,26.855,56.152,0
4282.311,150.879,25.879,19.043,46.875,72.754,0
4282.315,-88.867,28.320,27.832,6.348,54.688,0
4282.318,-153.320,26.367,25.879,-21.973,-30.273,0
4282.322,64.453,23.926,19.043,26.367,-61.523,0
4282.326,185.547,24.902,20.508,53.223,22.949,0
4282.330,-12.207,30.273,26.855,8.789,81.055,0
4282.334,-158.203,34.668,25.391,-19.531,46.387,0
4282.338,9.766,28.320,19.043,11.230,21.484,0
4282.342,202.148,25.879,18.066,50.293,-0.977,0
4282.346,66.895,31.250,22.949,30.762,-27.832,0
4282.350,-147.461,30.762,25.879,-9.277,21.484,0
4282.354,-61.035,25.879,25.391,0.488,97.168,0
4282.358,170.898,21.973,21.484,41.504,93.750,0
4282.361,117.188,29.297,23.438,31.250,69.824,0
4282.365,-128.418,37.109,32.227,-10.742,68.359,0
4282.369,-115.234,32.715,30.273,-9.277,62.012,0
4282.373,130.859,29.297,24.902,30.762,56.641,0
4282.377,178.223,28.320,27.344,41.992,31.738,0
4282.381,-67.871,34.668,34.668,9.766,-18.066,0
4282.385,-152.832,38.086,32.227,-9.766,-2.930,0
4282.389,62.988,31.738,25.391,25.391,40.527,0
4282.393,202.148,31.250,27.832,63.477,43.457,0
4282.397,2.930,36.621,31.738,31.250,88.379,0
4282.401,-183.594,38.574,33.691,-8.789,91.309,0
4282.404,-39.551,38.086,30.273,17.090,39.551,0
4282.408,166.504,30.762,24.414,62.500,50.781,0
4282.412,45.898,31.738,26.855,62.988,45.898,0
4282.416,-186.035,38.574,29.297,6.836,32.715,0
4282.420,-111.328,38.086,25.879,-10.742,62.500,0
4282.424,138.184,35.156,20.020,36.621,83.984,0
4282.428,116.699,37.109,23.438,44.434,18.066,0
4282.432,-128.418,40.527,30.273,5.859,17.090,0
4282.436,-144.531,38.574,27.832,2.930,58.594,0
4282.440,97.168,31.250,21.484,40.039,33.203,0
4282.443,165.527,27.832,20.508,51.270,58.594,0
4282.447,-71.289,33.203,26.855,2.930,50.293,0
4282.451,-182.129,37.598,29.297,-18.555,20.996,0
4282.455,20.508,33.691,22.949,16.602,37.109,0
4282.459,191.895,30.273,24.902,48.340,49.316,0
4282.463,19.531,35.645,33.203,20.996,25.879,0
4282.467,-170.898,41.992,33.203,-17.578,34.180,2
4282.471,-28.320,38.086,22.461,15.137,11.719,0
4282.475,199.219,30.762,16.602,62.012,-43.945,0
4282.479,104.004,36.133,30.273,35.645,-52.734,0
4282.483,-139.648,39.551,32.715,-9.277,12.695,0
4282.486,-86.914,34.180,20.508,0.000,26.367,0
4282.490,158.691,33.203,20.508,48.828,21.973,0
4282.494,148.438,35.156,30.762,48.828,52.246,0
4282.498,-98.633,38.574,38.574,11.230,41.992,0
4282.502,-130.371,40.039,36.621,8.789,14.160,0
4282.506,109.375,33.203,29.785,40.527,18.066,0
4282.510,197.266,27.832,27.832,54.199,39.062,0
4282.514,-30.273,35.156,31.738,16.113,60.547,0
4282.518,-159.668,36.133,30.762,-1.953,78.125,0
4282.522,33.691,31.250,28.320,27.344,71.289,0
4282.526,221.680,29.297,26.367,52.246,29.785,0
4282.529,44.434,30.762,31.738,33.203,4.395,0
4282.533,-170.410,33.203,39.062,1.465,-21.484,0
4282.537,-50.781,28.809,33.691,18.066,-21.484,0
4282.541,188.965,25.391,28.809,68.848,-22.461,0
4282.545,116.699,32.227,32.715,55.176,27.832,0
4282.549,-128.418,37.109,35.156,-3.906,36.133,0
4282.553,-93.262,33.203,33.691,5.859,-14.648,0
4282.557,149.414,24.902,28.320,42.480,40.039,0
4282.561,167.480,25.391,28.809,41.992,72.266,0
4282.565,-77.148,33.203,35.156,5.371,50.781,0
4282.568,-139.160,32.715,32.227,-10.742,59.082,0
4282.572,84.473,26.855,22.461,26.367,45.410,0
4282.576,203.613,25.391,20.996,53.711,43.945,0
4282.580,-7.812,32.227,29.297,29.785,28.320,0
4282.584,-167.969,34.180,30.273,-0.977,-6.836,0
4282.588,-0.488,27.832,27.832,17.090,23.438,0
4282.592,205.078,23.926,23.438,55.176,79.590,0
4282.596,61.523,29.297,25.879,30.273,67.871,0
4282.600,-165.039,34.180,33.691,-8.789,31.738,0
4282.604,-69.824,31.738,27.832,0.977,17.090,0
4282.608,182.129,24.902,19.043,34.668,44.434,0
4282.611,135.742,26.855,21.484,36.133,27.344,0
4282.615,-118.164,35.645,27.344,-8.301,25.391,0
4282.619,-105.957,32.227,29.785,2.441,32.715,0
4282.623,142.090,26.367,27.832,45.898,22.461,0
4282.627,184.570,29.297,28.320,54.688,52.734,0
4282.631,-64.453,32.715,32.227,12.207,84.961,0
4282.635,-150.879,30.273,31.738,-18.555,69.336,0
4282.639,65.430,25.391,30.273,26.855,17.090,0
4282.643,207.520,24.902,32.227,53.711,15.137,0
4282.647,11.230,28.320,34.668,10.742,59.082,0
4282.651,-157.227,29.297,35.156,-20.508,50.781,0
4282.654,4.395,28.809,31.738,8.789,-28.809,0
4282.658,212.891,26.855,22.949,59.082,-28.809,0
4282.662,98.633,33.203,27.832,46.875,29.785,0
4282.666,-120.117,39.062,36.133,0.977,18.555,0
4282.670,-60.059,33.691,31.250,4.883,5.371,0
4282.674,171.875,30.273,31.250,53.711,19.531,0
4282.678,148.438,32.715,37.109,66.406,32.227,0
4282.682,-105.957,37.109,39.062,6.836,35.156,0
4282.686,-123.047,32.715,34.668,1.465,4.883,0
4282.690,119.141,21.973,24.902,43.945,1.953,0
4282.693,184.082,22.461,25.879,46.387,9.766,0
4282.697,-51.270,29.297,32.715,11.719,16.113,0
4282.701,-149.414,33.203,34.180,-2.441,4.883,0
4282.705,59.570,31.250,30.762,28.809,32.227,0
4282.709,218.750,25.391,27.344,55.176,44.922,0
4282.713,36.133,28.809,34.668,33.203,-0.488,0
4282.717,-149.902,32.715,36.621,2.441,1.465,0
4282.721,-15.625,28.320,30.273,22.949,-5.371,0
4282.725,201.172,26.855,23.438,49.316,22.949,0
4282.729,101.074,29.297,22.461,30.762,30.762,0
4282.733,-147.461,34.668,25.391,-8.789,-10.742,0
4282.736,-92.773,34.180,21.484,-3.418,14.648,0
4282.740,168.945,28.809,19.043,45.898,41.016,0
4282.744,159.668,28.809,23.438,49.316,68.359,0
4282.748,-107.910,32.715,30.273,-2.930,21.973,0
4282.752,-137.695,33.203,30.273,-10.254,3.906,0
4282.756,100.586,27.832,20.020,41.992,51.270,0
4282.760,188.477,25.879,22.461,52.734,23.438,0
4282.764,-26.367,33.203,34.668,15.137,3.906,0
4282.768,-150.879,37.109,37.598,-9.766,45.410,0
4282.772,35.156,29.785,31.738,16.113,25.391,0
4282.776,212.402,26.855,29.785,62.988,62.500,0
4282.779,48.828,34.180,36.133,42.969,83.496,0
4282.783,-161.621,35.645,41.992,-2.441,-12.207,0
4282.787,-45.898,30.762,37.598,18.066,-57.617,0
4282.791,199.219,24.414,28.320,55.176,-27.344,0
4282.795,123.047,24.414,32.715,49.805,52.246,0
4282.799,-123.535,32.715,37.109,9.766,49.316,0
4282.803,-87.402,38.574,36.621,4.395,8.301,0
4282.807,160.156,36.133,33.203,55.176,14.160,0
4282.811,187.012,35.156,35.645,69.824,51.270,0
4282.815,-60.547,39.551,43.457,27.832,49.316,0
4282.818,-130.371,37.109,39.062,7.324,38.574,0
4282.822,94.238,30.762,32.715,45.410,69.824,0
4282.826,205.078,27.344,34.180,68.848,55.176,0
4282.830,-11.719,30.273,37.598,28.320,-33.203,0
4282.834,-163.086,35.156,34.180,-3.418,-21.973,0
4282.838,7.812,29.785,30.273,20.508,61.035,0
4282.842,215.820,27.832,28.809,66.406,14.160,0
4282.846,70.801,31.738,33.691,44.922,8.789,0
4282.850,-157.715,36.133,38.574,-6.836,41.504,0
4282.854,-61.523,38.086,35.645,11.719,-9.277,0
4282.858,187.012,31.250,31.250,69.824,15.137,0
4282.861,144.043,29.785,38.086,66.895,13.184,0
4282.865,-107.910,39.551,44.922,16.113,-6.348,0
4282.869,-105.957,36.621,35.645,15.137,11.230,0
4282.873,143.066,28.320,27.832,54.199,54.688,0
4282.877,183.105,29.297,30.273,58.594,51.758,0
4282.881,-66.406,31.738,35.645,16.113,39.551,0
4282.885,-143.066,31.738,36.133,0.977,22.949,0
4282.889,81.543,28.320,25.879,51.758,15.625,0
4282.893,211.426,28.809,23.438,80.566,39.062,0
4282.897,16.113,33.691,34.180,27.344,25.391,0
4282.901,-147.949,35.645,36.621,-7.812,41.504,0
4282.904,-1.953,29.785,29.785,20.020,-5.859,0
4282.908,210.449,26.855,26.367,65.430,-4.395,0
4282.912,82.520,31.250,32.715,50.293,50.781,0
4282.916,-149.902,33.691,38.086,0.000,27.832,0
4282.920,-63.965,32.227,34.668,16.113,30.762,0
4282.924,172.363,30.273,29.297,61.035,46.875,0
4282.928,137.207,32.715,30.273,42.969,93.750,0
4282.932,-104.004,37.598,38.086,5.859,53.711,0
4282.936,-123.047,37.598,36.621,14.160,0.488,0
4282.940,115.723,33.203,25.391,46.387,30.762,0
4282.943,183.105,31.738,28.320,53.711,74.219,0
4282.947,-53.711,37.598,36.621,14.648,65.918,0
4282.951,-160.645,41.016,33.691,-9.277,-10.742,0
4282.955,35.156,32.715,29.785,30.762,-54.688,0
4282.959,198.242,28.320,28.809,50.781,-45.410,0
4282.963,22.949,37.598,33.203,20.020,-16.602,0
4282.967,-163.574,39.551,32.715,-3.418,-17.090,0
4282.971,-32.227,31.738,21.973,-3.418,33.203,0
4282.975,198.242,27.344,19.531,39.551,85.938,0
4282.979,96.680,30.273,29.785,45.898,65.918,0
4282.983,-149.902,38.086,38.574,-3.418,60.059,0
4282.986,-86.426,35.645,36.133,-6.836,67.871,0
4282.990,165.527,30.273,29.785,35.156,54.688,0
4282.994,153.320,31.738,30.762,38.574,57.129,0
4282.998,-111.816,37.109,34.668,-2.441,46.875,0
4283.002,-136.230,36.621,37.109,-6.836,33.691,0
4283.006,114.258,29.297,34.668,36.133,13.184,0
4283.010,193.848,27.344,31.250,58.105,16.602,0
4283.014,-48.340,33.203,34.668,17.578,20.020,0
4283.018,-171.387,34.668,34.668,-15.137,29.785,0
4283.022,34.180,30.762,28.320,34.180,44.434,0
4283.026,215.820,28.809,21.973,73.242,43.457,0
4283.029,54.199,31.738,22.949,17.578,49.316,0
4283.033,-158.203,33.691,26.855,-23.926,8.789,0
4283.037,-51.758,27.344,26.855,2.930,-4.395,0
4283.041,188.965,24.414,26.367,47.363,-3.418,0
4283.045,113.770,28.320,28.809,45.410,19.531,0
4283.049,-140.137,35.156,34.180,-1.465,6.348,0
4283.053,-100.098,37.109,35.156,3.418,-12.207,0
4283.057,155.273,28.320,28.809,55.664,-1.465,0
4283.061,161.621,24.902,27.832,56.641,39.551,0
4283.065,-88.867,33.691,34.180,2.930,31.738,0
4283.068,-141.602,32.715,31.250,-7.324,-10.254,0
4283.072,87.891,25.391,24.414,36.621,8.301,0
4283.076,201.660,23.438,23.438,50.293,20.996,1
4283.080,-11.719,28.320,30.273,16.113,2.441,0
4283.084,-159.180,29.785,32.715,-15.137,-8.789,0
4283.088,-3.906,22.949,26.367,7.324,26.855,0
4283.092,168.945,21.484,23.926,46.387,40.527,0
4283.096,10.254,27.344,29.297,23.926,55.664,0
4283.100,-207.520,32.715,34.180,-15.625,39.062,0
4283.104,-97.168,29.297,26.367,-5.371,64.453,0
4283.108,142.090,21.484,17.578,39.551,100.098,0
4283.111,76.660,22.949,23.438,36.133,43.457,0
4283.115,-175.293,30.273,32.227,-9.277,19.043,0
4283.119,-155.273,26.367,33.691,-11.230,34.180,0
4283.123,95.215,21.484,27.344,33.203,3.418,0
4283.127,141.602,23.438,26.367,56.641,21.973,0
4283.131,-102.539,26.855,30.273,19.531,57.129,0
4283.135,-191.406,29.785,28.320,-19.531,44.922,0
4283.139,23.926,27.832,23.438,9.277,30.273,0
4283.143,169.434,29.297,23.926,53.223,63.965,0
4283.147,-12.695,32.227,32.227,24.902,47.363,0
4283.151,-184.570,33.691,32.715,-12.207,-9.277,0
4283.154,-28.809,34.668,28.320,22.949,37.598,0
4283.158,185.059,33.203,29.297,67.871,60.547,0
4283.162,64.941,32.715,35.156,35.156,29.785,0
4283.166,-145.508,34.180,37.598,-6.836,-5.371,0
4283.170,-67.383,31.250,29.785,5.859,-21.973,0
4283.174,169.434,25.879,22.949,53.711,46.875,0
4283.178,138.672,26.367,27.344,51.758,25.879,0
4283.182,-110.840,31.250,33.203,-1.465,5.859,0
4283.186,-106.445,32.227,30.273,3.418,-4.395,0
4283.190,135.742,27.344,25.391,44.922,-5.859,0
4283.193,196.289,31.250,28.320,61.523,92.773,0
4283.197,-45.898,35.156,34.180,23.438,69.824,0
4283.201,-152.344,34.180,34.668,-5.371,-12.207,0
4283.205,62.012,30.273,31.738,35.156,-6.348,0
4283.209,226.074,25.879,26.855,68.848,20.996,0
4283.213,40.527,32.227,30.762,30.273,40.527,0
4283.217,-155.762,34.180,32.715,-12.207,32.227,0
4283.221,-5.859,28.809,29.297,28.320,20.020,0
4283.225,224.121,26.855,27.344,69.824,40.039,0
4283.229,110.840,33.203,30.762,37.109,44.922,0
4283.233,-130.859,38.574,35.156,-5.859,12.207,0
4283.236,-71.777,38.086,31.738,9.277,39.551,0
4283.240,178.223,31.250,28.809,54.688,77.148,0
4283.244,165.039,27.832,31.738,51.270,74.219,0
4283.248,-98.145,31.250,37.598,9.766,46.387,0
4283.252,-125.000,34.668,39.062,-0.488,-5.859,0
4283.256,109.375,31.250,30.762,36.621,43.945,0
4283.260,197.266,29.785,27.344,51.758,107.422,0
4283.264,-27.344,32.715,32.715,15.137,97.168,0
4283.268,-155.762,35.156,35.645,-2.441,20.508,0
4283.272,47.363,33.691,33.691,28.320,12.695,0
4283.276,229.980,29.297,28.809,61.523,39.062,0
4283.279,55.664,29.785,28.809,32.715,54.688,0
4283.283,-158.691,33.203,32.227,-20.996,29.297,0
4283.287,-28.809,32.715,30.273,3.906,3.418,0
4283.291,213.379,27.344,23.926,53.711,19.043,0
4283.295,125.488,29.297,24.902,44.922,40.527,0
4283.299,-120.117,36.133,28.320,-1.953,51.270,0
4283.303,-76.172,36.133,28.320,3.906,28.320,0
4283.307,167.480,31.738,26.855,54.199,18.555,0
4283.311,173.828,32.227,23.438,55.176,5.371,0
4283.315,-73.730,38.086,29.297,15.625,16.602,0
4283.318,-125.000,39.062,34.180,10.254,49.316,0
4283.322,111.816,31.250,29.297,52.734,61.523,0
4283.326,232.910,30.273,24.902,81.543,-2.441,0
4283.330,6.348,37.109,29.297,40.527,22.461,0
4283.334,-148.438,39.062,29.297,0.977,43.457,0
4283.338,25.391,36.133,23.438,34.668,-15.137,0
4283.342,228.027,36.621,26.855,73.242,41.504,0
4283.346,83.008,41.016,31.250,45.898,58.594,0
4283.350,-128.418,42.480,32.227,6.348,8.301,0
4283.354,-23.438,40.039,29.297,17.578,5.371,0
4283.358,196.777,34.668,22.949,60.059,51.758,0
4283.361,127.441,34.180,24.414,64.453,54.199,0
4283.365,-120.605,36.133,29.297,16.113,46.387,0
4283.369,-99.609,36.133,27.832,15.625,45.410,0
4283.373,145.996,34.180,21.973,54.199,13.184,0
4283.377,182.129,33.691,23.926,51.758,-19.043,0
4283.381,-59.570,38.574,30.273,8.301,-10.254,0
4283.385,-137.207,39.062,30.273,-5.371,24.414,0
4283.389,76.172,31.738,25.391,39.551,-12.207,0
4283.393,202.637,28.320,22.949,60.547,-34.180,0
4283.397,1.953,31.738,21.973,17.578,29.297,0
4283.401,-154.297,38.086,23.926,-5.371,44.434,0
4283.404,10.742,36.621,27.832,20.508,-27.832,0
4283.408,208.008,31.250,20.508,54.199,-33.691,0
4283.412,70.312,34.180,20.996,30.273,32.715,0
4283.416,-146.973,38.086,28.809,-9.277,42.969,0
4283.420,-48.340,40.039,30.762,21.973,-30.762,0
4283.424,196.777,34.180,24.902,64.453,-40.527,0
4283.428,148.926,30.762,18.555,40.527,40.527,0
4283.432,-107.422,32.227,21.973,-11.719,74.219,0
4283.436,-107.422,32.227,23.926,-8.789,2.930,0
4283.440,135.742,28.320,20.508,36.621,1.953,0
4283.443,209.473,29.297,19.043,63.965,38.086,0
4283.447,-12.207,34.668,23.926,34.668,48.828,0
4283.451,-129.883,35.645,25.391,0.977,-10.742,0
4283.455,47.363,31.738,20.020,25.879,-36.133,0
4283.459,193.359,27.344,19.043,62.012,-10.254,0
4283.463,16.602,34.180,26.367,46.875,38.574,0
4283.467,-174.316,38.086,31.738,15.137,31.250,0
4283.471,-39.062,30.762,26.855,18.066,-14.160,0
4283.475,179.688,26.367,24.414,62.988,-35.645,0
4283.479,64.453,28.809,30.273,58.594,-4.883,0
4283.483,-175.293,35.156,35.156,9.766,25.391,0
4283.486,-115.234,31.250,30.762,11.230,12.695,0
4283.490,140.137,25.879,24.414,59.570,20.020,0
4283.494,145.020,25.879,23.438,49.805,50.781,0
4283.498,-113.770,27.832,24.902,-7.324,73.730,0
4283.502,-159.180,26.855,26.367,-11.230,52.734,0
4283.506,79.590,25.879,23.438,32.227,28.809,0
4283.510,161.621,24.902,20.020,58.594,69.824,0
4283.514,-76.660,27.344,23.926,19.531,17.090,0
4283.518,-195.312,30.762,24.414,-19.043,-4.395,0
4283.522,7.324,27.344,19.043,14.648,75.684,0
4283.526,190.918,23.926,20.996,59.570,83.496,0
4283.529,31.738,28.320,23.926,32.227,71.289,0
4283.533,-173.340,32.715,25.391,-12.695,8.789,0
4283.537,-54.688,26.855,24.902,5.371,-7.812,0
4283.541,184.570,22.949,20.996,48.340,11.230,0
4283.545,102.051,28.320,25.391,33.691,34.668,0
4283.549,-166.016,28.809,29.297,-6.836,20.996,0
4283.553,-125.000,24.902,25.391,3.906,0.488,0
4283.557,137.695,22.949,19.043,39.551,3.906,0
4283.561,142.578,21.973,20.020,36.133,4.395,0
4283.565,-119.141,25.879,31.250,-1.465,41.992,0
4283.568,-174.316,24.414,30.762,-16.113,69.824,0
4283.572,51.270,19.043,20.020,28.809,62.988,0
4283.576,159.668,20.996,19.531,55.664,35.645,0
4283.580,-47.852,25.391,23.926,9.766,21.484,0
4283.584,-189.941,28.809,25.391,-18.066,-16.113,0
4283.588,-15.625,25.879,21.484,10.742,-4.395,0
4283.592,175.781,21.484,17.578,50.293,2.930,0
4283.596,31.738,29.785,25.391,29.297,-15.137,0
4283.600,-180.664,33.203,33.203,-21.484,32.715,0
4283.604,-66.406,27.832,26.855,-1.953,23.926,0
4283.608,175.293,24.902,18.066,49.316,28.809,0
4283.611,103.516,30.762,22.949,37.598,24.902,0
4283.615,-154.297,36.133,30.273,-8.301,14.160,0
4283.619,-135.254,28.809,27.344,2.441,37.109,0
4283.623,120.605,23.438,23.438,45.898,21.973,0
4283.627,159.180,24.902,22.461,46.875,43.945,0
4283.631,-92.773,25.879,26.855,2.930,41.504,0
4283.635,-177.734,25.879,29.297,-18.066,-2.930,0
4283.639,44.922,19.531,25.879,31.738,42.969,0
4283.643,197.266,19.043,21.973,56.152,66.406,0
4283.647,13.184,26.855,24.414,13.184,10.742,0
4283.651,-162.109,29.297,29.297,-19.043,-1.465,0
4283.654,4.395,22.949,27.344,12.695,17.090,0
4283.658,224.609,21.484,20.996,48.828,41.016,0
4283.662,92.285,29.297,24.902,29.785,51.758,0
4283.666,-123.047,34.180,28.809,-6.348,33.203,0
4283.670,-33.691,32.715,23.438,8.789,11.230,0
4283.674,208.496,28.320,19.043,51.758,38.574,0
4283.678,163.086,29.297,24.902,39.551,30.762,0
4283.682,-95.703,34.668,35.156,-2.441,36.133,0
4283.686,-96.680,30.273,32.227,5.859,-13.184,0
4283.690,142.578,20.996,18.555,35.645,-21.973,0
4283.693,202.637,18.066,17.578,39.062,50.781,0
4283.697,-46.387,22.949,27.832,20.996,15.137,0
4283.701,-165.039,25.391,31.738,-5.371,0.000,0
4283.705,37.109,20.996,27.344,20.508,-4.883,0
4283.709,189.941,17.090,23.926,53.223,26.855,0
4283.713,-0.488,21.484,26.855,16.602,75.195,0
4283.717,-190.918,24.902,29.297,-10.742,39.062,0
4283.721,-43.457,19.531,27.832,15.137,31.738,1
4283.725,184.082,15.625,22.949,50.781,69.824,0
4283.729,63.477,20.020,24.902,26.855,87.891,0
4283.733,-181.641,22.461,29.785,-20.996,68.359,0
4283.736,-104.980,16.602,27.832,-2.930,3.906,0
4283.740,143.066,15.625,24.902,52.246,-4.883,0
4283.744,119.141,21.973,28.809,57.129,12.207,0
4283.748,-132.324,24.902,31.250,16.602,0.488,0
4283.752,-145.996,22.461,29.785,-9.277,36.621,0
4283.756,87.402,17.578,23.926,25.391,60.547,0
4283.760,166.992,16.113,16.602,52.734,59.570,0
4283.764,-53.711,21.973,23.926,19.531,62.500,0
4283.768,-177.246,24.902,29.297,-12.695,-9.766,0
4283.772,13.184,19.531,25.391,14.160,-9.766,0
4283.776,201.660,17.090,20.020,57.617,24.902,0
4283.779,43.457,22.949,23.926,33.691,47.852,0
4283.783,-174.805,27.344,32.227,-5.859,39.062,0
4283.787,-52.734,22.949,22.949,16.113,34.668,0
4283.791,187.988,20.020,16.602,53.711,22.949,0
4283.795,101.074,25.879,21.484,46.875,-17.578,0
4283.799,-135.742,33.203,28.809,0.488,-11.230,0
4283.803,-90.332,31.250,26.367,1.465,13.184,0
4283.807,157.227,27.344,19.043,53.711,21.973,0
4283.811,175.293,32.715,22.461,59.082,59.570,0
4283.815,-72.266,39.062,28.809,19.531,74.707,0
4283.818,-128.906,37.109,28.809,7.324,0.000,0
4283.822,83.984,32.227,21.484,34.180,4.883,0
4283.826,188.965,25.879,21.484,53.223,19.043,0
4283.830,-17.090,28.809,31.250,23.438,1.465,0
4283.834,-165.039,29.785,32.715,-11.230,43.945,0
4283.838,5.859,21.973,28.320,21.484,38.574,0
4283.842,205.078,21.973,27.344,64.453,30.273,0
4283.846,60.547,31.250,28.809,38.574,6.836,0
4283.850,-154.297,38.086,31.250,-3.418,-28.809,0
4283.854,-52.246,30.762,26.367,11.719,-16.113,0
4283.858,185.059,26.855,20.020,59.082,-12.695,0
4283.861,116.211,31.250,24.902,41.016,49.316,0
4283.865,-134.766,36.133,31.250,-19.043,126.465,0
4283.869,-113.281,36.621,29.785,-3.418,79.102,0
4283.873,131.836,31.738,25.391,45.410,8.789,0
4283.877,171.387,30.762,24.902,52.246,13.184,0
4283.881,-68.848,39.551,31.738,11.719,12.695,0
4283.885,-140.137,41.504,30.273,-4.883,17.578,0
4283.889,72.266,34.180,21.484,35.645,27.832,0
4283.893,201.172,29.297,21.484,52.734,15.625,0
4283.897,8.301,34.668,27.832,11.719,-13.184,0
4283.901,-152.344,39.551,27.832,-11.230,11.719,0
4283.904,13.184,35.645,22.461,26.855,62.988,0
4283.908,211.914,30.762,20.996,56.641,11.230,0
4283.912,83.008,34.668,26.855,28.320,31.250,0
4283.916,-138.672,40.527,31.250,-4.395,58.105,0
4283.920,-63.477,40.527,30.762,10.742,43.457,0
4283.924,190.430,35.156,26.367,55.664,59.082,0
4283.928,150.879,37.109,25.879,45.410,71.777,0
4283.932,-120.605,40.039,32.715,-3.906,46.387,0
4283.936,-129.883,37.109,30.762,-8.301,-16.602,0
4283.940,104.980,34.180,24.414,35.645,3.418,0
4283.943,157.715,33.691,27.832,51.758,48.340,0
4283.947,-79.102,37.598,35.645,-0.488,-5.859,0
4283.951,-180.664,39.551,37.598,-24.902,-2.441,0
4283.955,21.484,33.691,29.785,12.695,42.480,0
4283.959,167.480,25.391,26.855,27.832,31.250,0
4283.963,-16.602,34.180,32.227,-17.578,16.602,0
4283.967,-198.730,42.969,36.621,-58.105,32.715,0
4283.971,-68.359,36.621,34.180,-43.457,57.617,0
4283.975,155.762,31.738,28.320,-2.441,60.547,0
4283.979,45.410,35.156,31.250,-10.254,31.738,0
4283.983,-217.773,38.086,40.527,-58.594,35.645,0
4283.986,-154.785,33.691,41.016,-65.430,80.078,0
4283.990,92.773,29.297,36.133,-24.902,57.129,0
4283.994,75.684,27.832,35.156,-14.648,55.664,0
4283.998,-167.480,30.762,41.504,-60.059,43.945,0
4284.002,-197.754,31.738,43.457,-73.730,-29.785,0
4284.006,35.645,23.926,31.250,-24.902,1.953,0
4284.010,123.535,23.438,28.809,4.883,59.570,0
4284.014,-98.633,33.691,36.621,-29.297,33.203,0
4284.018,-209.473,34.180,39.062,-53.711,-7.812,0
4284.022,-12.695,28.320,36.621,-18.066,19.531,0
4284.026,157.715,28.320,33.691,10.254,32.227,0
4284.029,-7.324,31.250,34.180,-23.926,-14.648,0
4284.033,-197.754,34.668,36.621,-54.199,-3.906,0
4284.037,-74.219,29.297,34.668,-26.367,21.973,0
4284.041,156.250,21.973,32.227,23.926,29.297,0
4284.045,74.219,27.832,38.574,6.836,14.648,0
4284.049,-173.340,31.250,41.016,-44.434,33.691,0
4284.053,-135.742,33.203,42.969,-27.344,95.215,0
4284.057,113.281,32.715,40.039,17.090,19.531,0
4284.061,120.117,26.367,35.645,13.672,20.996,0
4284.065,-137.695,29.297,41.016,-34.668,60.547,0
4284.068,-189.453,31.250,42.480,-49.805,52.246,0
4284.072,39.551,26.855,39.062,-7.812,67.871,0
4284.076,150.391,26.855,40.039,21.484,7.324,0
4284.080,-67.383,28.809,47.363,-26.855,-12.695,0
4284.084,-212.402,28.809,47.363,-62.988,57.129,0
4284.088,-31.738,25.879,39.551,-35.156,83.984,0
4284.092,145.020,24.414,37.109,-8.301,22.461,0
4284.096,-16.113,32.227,39.551,-35.645,28.320,0
4284.100,-227.539,39.062,40.527,-72.266,26.855,0
4284.104,-112.305,34.180,37.109,-49.316,-24.414,0
4284.108,118.652,24.414,32.715,-15.625,15.137,0
4284.111,40.527,27.832,34.668,-37.598,61.035,0
4284.115,-199.707,37.598,40.039,-83.496,47.852,0
4284.119,-173.828,33.203,44.434,-73.730,43.945,0
4284.123,68.359,25.879,39.551,-38.086,51.758,0
4284.127,89.355,29.297,37.598,-45.410,10.254,0
4284.131,-162.598,34.668,41.992,-84.961,-1.465,0
4284.135,-231.934,36.621,36.621,-94.238,1.465,0
4284.139,-12.695,29.297,26.855,-61.035,20.020,0
4284.143,114.258,27.344,31.738,-42.969,96.191,0
4284.147,-86.914,35.156,42.969,-64.941,44.922,0
4284.151,-248.535,33.203,41.016,-102.539,11.719,0
4284.154,-80.078,32.715,33.203,-83.496,21.484,0
4284.158,129.395,32.715,34.668,-37.598,16.113,0
4284.162,0.977,26.367,39.062,-43.945,3.418,0
4284.166,-208.496,31.738,36.621,-82.031,4.883,0
4284.170,-111.816,32.227,29.785,-62.500,-8.301,0
4284.174,133.301,25.879,24.902,1.465,23.926,0
4284.178,104.492,29.297,29.785,11.230,55.176,0
4284.182,-131.348,37.598,40.039,-16.602,51.270,0
4284.186,-121.094,35.645,31.738,-15.625,37.109,0
4284.190,130.371,23.926,17.090,36.133,6.348,0
4284.193,194.336,21.484,19.043,79.590,20.508,0
4284.197,-30.762,28.320,23.438,45.898,34.668,0
4284.201,-118.652,33.203,28.809,28.809,25.391,0
4284.205,94.727,26.367,27.832,74.219,27.832,0
4284.209,256.348,21.973,22.949,100.586,0.977,0
4284.213,76.660,30.762,26.855,84.961,23.926,0
4284.217,-90.820,35.645,28.809,59.082,31.250,0
4284.221,53.223,37.109,26.367,85.449,10.742,0
4284.225,270.020,35.645,24.414,123.535,67.871,0
4284.229,161.133,35.156,29.785,104.980,49.805,1
4284.233,-82.520,35.645,33.691,69.336,21.973,0
4284.236,-13.672,31.738,26.855,70.801,-24.902,0
4284.240,233.887,26.855,20.020,109.375,-27.344,0
4284.244,221.191,30.273,21.973,120.117,28.320,0
4284.248,-35.645,36.621,25.879,74.219,-0.488,0
4284.252,-75.684,38.574,24.902,54.688,-43.457,0
4284.256,164.551,33.203,18.555,98.633,3.418,0
4284.260,248.535,29.297,20.020,112.793,38.574,0
4284.264,16.602,35.156,28.320,72.266,-24.902,0
4284.268,-105.957,36.133,28.320,58.594,-23.438,0
4284.272,88.379,31.250,22.949,81.543,21.973,0
4284.276,262.207,28.809,17.090,112.793,30.273,0
4284.279,91.797,31.738,19.043,93.750,37.598,0
4284.283,-110.352,37.109,26.855,49.316,21.973,0
4284.287,20.508,35.156,25.391,73.730,52.246,0
4284.291,260.742,28.809,22.461,118.164,53.223,0
4284.295,166.504,34.180,26.855,99.121,-18.066,0
4284.299,-84.961,41.992,30.273,46.387,-1.953,0
4284.303,-39.062,41.992,33.203,43.457,-13.184,0
4284.307,208.984,35.645,28.809,90.332,-33.203,0
4284.311,213.867,35.156,23.926,95.215,65.430,0
4284.315,-44.434,42.969,30.762,53.223,70.312,0
4284.318,-88.867,38.574,30.762,32.715,12.695,0
4284.322,135.254,33.203,23.438,72.266,7.812,0
4284.326,233.398,33.203,24.902,108.398,43.945,0
4284.330,22.461,35.156,30.273,72.266,45.410,0
4284.334,-123.535,40.527,32.715,30.762,-20.996,0
4284.338,59.082,39.062,27.344,58.105,-8.789,0
4284.342,256.348,36.133,26.367,95.215,40.039,0
4284.346,104.980,42.969,32.715,68.848,46.387,0
4284.350,-98.633,50.293,37.598,33.203,11.230,0
4284.354,6.836,43.457,36.133,50.781,-5.859,0
4284.358,234.375,37.598,29.785,97.168,39.062,0
4284.361,167.969,44.434,31.738,100.586,63.965,0
4284.365,-74.219,49.316,36.133,61.035,42.480,0
4284.369,-46.875,45.410,33.691,48.340,4.883,0
4284.373,187.988,38.086,28.809,79.590,-15.137,0
4284.377,216.797,35.156,29.785,84.473,-29.785,0
4284.381,-28.809,42.480,38.574,38.086,-16.113,0
4284.385,-107.422,43.945,40.039,24.414,21.973,0
4284.389,110.352,35.156,31.250,64.453,-17.090,0
4284.393,232.422,32.227,29.297,95.215,-36.621,0
4284.397,27.832,39.062,38.086,65.430,-7.812,0
4284.401,-135.742,40.527,38.086,26.855,20.020,0
4284.404,29.297,32.715,29.297,37.598,65.918,0
4284.408,237.793,28.320,21.973,68.848,49.316,0
4284.412,97.656,33.691,23.926,49.316,23.438,0
4284.416,-135.742,35.156,26.367,17.090,26.367,0
4284.420,-47.363,31.738,25.879,29.297,13.672,0
4284.424,206.055,28.320,22.949,55.664,10.254,0
4284.428,163.574,27.344,21.973,53.711,-12.207,0
4284.432,-101.074,33.691,28.320,15.625,-20.996,0
4284.436,-108.398,32.715,27.344,9.766,-1.465,0
4284.440,130.371,21.484,21.973,60.059,53.223,0
4284.443,195.801,21.484,23.438,69.824,65.430,0
4284.447,-32.715,31.738,26.367,24.414,17.578,0
4284.451,-129.395,36.621,29.297,4.883,31.738,0
4284.455,72.754,29.785,26.367,41.504,12.207,0
4284.459,219.727,24.902,20.508,71.289,-26.367,0
4284.463,34.180,31.738,25.879,42.480,-0.488,0
4284.467,-149.902,34.668,31.738,9.277,33.691,0
4284.471,4.883,29.785,26.855,26.855,67.871,0
4284.475,223.145,25.391,20.996,68.848,41.016,0
4284.479,106.934,29.785,25.879,55.176,15.625,0
4284.483,-131.348,36.621,31.250,12.695,26.367,0
4284.486,-58.105,34.180,26.367,27.832,-2.441,0
4284.490,187.988,30.273,17.090,64.941,-1.465,0
4284.494,150.879,31.250,17.578,61.523,0.977,0
4284.498,-109.375,33.691,26.855,21.484,21.484,0
4284.502,-123.047,34.180,25.391,6.836,79.590,0
4284.506,115.234,31.250,17.578,54.688,62.500,0
4284.510,201.660,29.785,17.578,70.801,42.969,0
4284.514,-23.438,35.645,25.391,26.855,39.551,0
4284.518,-158.203,35.645,30.273,-7.324,7.324,0
4284.522,41.992,33.691,27.832,29.297,0.488,0
4284.526,223.145,32.715,17.090,74.707,8.789,0
4284.529,47.363,33.203,19.043,39.062,85.938,0
4284.533,-156.250,34.668,28.809,-5.371,75.195,0
4284.537,-24.902,30.762,26.855,14.648,-6.836,0
4284.541,203.613,26.855,20.996,58.105,-5.371,0
4284.545,99.121,28.809,22.461,54.199,6.348,0
4284.549,-145.996,32.715,28.320,14.648,8.789,0
4284.553,-94.727,29.297,25.391,3.418,36.621,0
4284.557,157.227,25.879,17.090,48.340,47.363,0
4284.561,161.621,30.762,18.066,52.734,22.949,0
4284.565,-87.891,38.574,27.344,2.930,43.457,0
4284.568,-132.324,37.109,24.414,-9.277,58.594,0
4284.572,101.562,26.367,17.578,29.297,36.133,0
4284.576,204.590,25.879,20.508,49.316,16.602,0
4284.580,-20.020,34.180,26.855,20.508,20.508,0
4284.584,-154.297,38.086,28.320,-5.371,18.555,0
4284.588,33.203,34.180,21.973,22.949,83.984,0
4284.592,226.562,31.250,18.066,59.082,93.750,0
4284.596,59.082,38.086,21.973,26.367,29.297,0
4284.600,-159.180,41.504,26.855,-13.672,22.949,0
4284.604,-43.457,35.156,23.926,5.859,44.434,0
4284.608,197.266,28.320,20.020,54.199,84.961,0
4284.611,132.324,32.715,26.855,48.828,109.375,0
4284.615,-124.512,38.086,34.180,0.488,79.590,0
4284.619,-106.934,36.133,31.738,-4.883,8.301,0
4284.623,144.043,30.273,27.344,33.203,-1.465,0
4284.627,163.086,26.367,24.902,40.527,54.199,0
4284.631,-93.262,30.273,30.762,-5.859,66.895,0
4284.635,-165.527,33.203,30.762,-21.973,7.812,0
4284.639,56.152,25.879,22.461,11.230,32.715,0
4284.643,184.570,25.391,24.414,33.203,67.871,0
4284.647,-17.090,33.203,30.762,6.348,11.719,0
4284.651,-172.363,33.203,31.250,-25.879,-47.852,0
4284.654,-6.836,25.879,24.902,-2.441,1.953,0
4284.658,207.520,22.461,22.461,44.434,57.617,0
4284.662,82.031,29.297,29.785,27.832,76.172,0
4284.666,-140.625,35.645,32.227,-9.277,37.109,0
4284.670,-47.852,30.273,29.297,2.930,-22.461,0
4284.674,201.660,26.367,21.484,37.598,-0.488,0
4284.678,160.645,30.273,20.508,35.645,10.254,0
4284.682,-101.074,34.668,28.320,-5.371,-28.809,0
4284.686,-106.934,36.621,25.391,1.953,-6.836,0
4284.690,146.973,30.273,18.066,35.645,31.738,0
4284.693,201.660,26.367,19.043,37.598,65.918,0
4284.697,-53.223,32.715,26.367,2.930,69.824,0
4284.701,-158.691,33.203,28.809,-8.301,5.371,0
4284.705,49.805,25.879,24.414,30.762,-16.602,0
4284.709,193.359,22.949,16.602,50.293,3.906,0
4284.713,2.441,29.297,20.020,17.090,41.016,0
4284.717,-171.387,33.691,32.227,-12.695,-12.207,0
4284.721,-24.414,27.344,29.785,5.371,-38.574,0
4284.725,192.383,20.508,21.973,43.457,40.527,0
4284.729,74.219,24.414,23.926,34.180,22.949,0
4284.733,-164.551,30.762,26.367,-1.465,-5.371,0
4284.736,-91.797,27.344,24.414,-1.953,38.574,0
4284.740,156.250,21.484,20.996,32.715,92.285,0
4284.744,141.113,26.855,27.344,39.062,30.273,0
4284.748,-105.469,32.715,35.156,2.930,19.043,0
4284.752,-130.859,32.227,31.738,-8.789,91.797,0
4284.756,108.887,26.855,27.832,27.832,42.480,0
4284.760,192.383,27.832,26.367,48.340,31.738,0
4284.764,-32.715,36.133,29.785,21.484,57.129,0
4284.768,-152.344,33.691,29.785,-10.254,35.645,0
4284.772,37.109,27.832,24.902,18.066,37.598,0
4284.776,203.125,22.461,22.461,48.340,86.426,0
4284.779,27.344,25.391,26.855,20.996,66.406,0
4284.783,-166.016,30.762,32.227,-3.906,-10.254,0
4284.787,-40.039,26.367,26.855,8.301,-25.391,0
4284.791,185.059,21.973,19.531,41.504,0.977,0
4284.795,99.121,27.832,21.973,43.457,49.805,1
4284.799,-136.719,32.227,26.855,-5.371,76.172,0
4284.803,-81.543,28.809,27.344,-1.953,-3.906,0
4284.807,165.039,25.879,20.996,43.945,44.922,0
4284.811,166.016,28.320,21.484,48.828,104.004,0
4284.815,-98.633,32.715,30.273,10.254,29.785,0
4284.818,-146.973,30.762,30.762,-18.555,-4.883,0
4284.822,95.215,26.367,25.391,18.066,21.484,0
4284.826,196.289,23.926,21.973,45.410,25.879,0
4284.830,-25.879,30.762,25.391,6.836,49.316,0
4284.834,-160.156,33.203,27.344,-23.438,41.504,0
4284.838,28.320,27.832,19.043,4.395,37.598,0
4284.842,210.449,25.879,18.555,42.480,71.777,0
4284.846,43.457,31.250,25.879,20.996,81.055,0
4284.850,-168.945,30.273,22.949,-13.672,39.551,0
4284.854,-50.293,26.367,19.531,5.371,31.250,0
4284.858,192.383,23.438,20.996,48.340,21.484,0
4284.861,118.164,26.855,26.367,37.109,14.648,0
4284.865,-138.672,32.715,28.320,-4.395,20.020,0
4284.869,-110.840,26.367,21.973,-9.766,75.684,0
4284.873,156.738,22.949,21.484,26.855,78.613,0
4284.877,179.688,24.414,25.879,51.758,58.594,0
4284.881,-83.496,26.855,33.203,16.602,49.805,0
4284.885,-148.926,30.273,34.180,-13.672,24.902,0
4284.889,81.055,25.391,24.414,23.926,22.949,0
4284.893,217.773,21.484,24.414,57.617,35.645,0
4284.897,8.301,24.902,27.344,18.066,3.906,0
4284.901,-163.574,26.855,28.320,-12.695,-15.625,0
4284.904,3.906,24.414,29.297,19.531,6.348,0
4284.908,220.703,20.996,28.320,53.223,24.414,0
4284.912,85.449,28.809,32.715,39.062,-10.254,0
4284.916,-143.555,35.156,36.133,-5.371,38.574,0
4284.920,-43.457,30.762,31.250,4.395,80.566,0
4284.924,195.312,26.367,28.809,48.828,30.273,0
4284.928,133.789,28.320,29.785,36.621,34.668,0
4284.932,-124.512,31.738,32.715,-5.371,51.758,0
4284.936,-118.652,30.273,32.715,-0.488,5.859,0
4284.940,125.488,27.832,27.344,38.574,-11.719,0
4284.943,181.152,30.273,29.785,41.504,52.734,0
4284.947,-52.734,37.109,35.645,0.488,29.297,0
4284.951,-141.602,37.598,34.668,-14.160,21.973,0
4284.955,75.195,31.738,27.832,22.949,56.152,0
4284.959,220.703,32.227,20.996,49.316,51.758,0
4284.963,26.367,40.527,26.855,22.461,63.477,0
4284.967,-145.508,41.992,33.203,-10.742,26.855,0
4284.971,-0.488,35.156,27.832,17.090,44.922,0
4284.975,211.426,31.738,22.949,57.129,49.316,0
4284.979,93.750,35.156,27.832,25.879,37.109,0
4284.983,-138.672,41.016,37.598,-15.625,64.453,0
4284.986,-57.617,40.039,38.574,-4.883,37.598,0
4284.990,187.012,31.250,29.785,46.875,-53.223,0
4284.994,153.320,29.785,30.273,52.246,-19.043,0
4284.998,-103.516,34.668,35.645,-1.953,57.617,0
4285.002,-117.676,37.598,34.668,-11.230,32.227,0
4285.006,133.301,32.715,30.273,33.203,12.695,0
4285.010,218.262,30.762,30.273,46.387,22.949,0
4285.014,-25.391,36.621,35.645,9.766,20.020,0
4285.018,-151.855,37.598,38.086,-9.277,-5.859,0
4285.022,43.945,29.785,31.250,12.207,31.250,0
4285.026,213.867,27.344,24.902,32.715,28.809,0
4285.029,46.875,33.203,31.250,10.742,-12.695,0
4285.033,-148.438,37.598,38.574,-10.254,-52.734,0
4285.037,-27.344,34.668,34.668,15.137,-23.926,0
4285.041,199.707,28.320,31.250,52.734,16.602,0
4285.045,111.328,31.738,34.668,40.527,-1.465,0
4285.049,-128.418,35.645,35.156,-2.930,12.207,0
4285.053,-76.660,34.668,33.691,-0.977,70.312,0
4285.057,169.434,34.180,30.273,41.992,87.891,0
4285.061,168.945,34.668,26.855,30.273,52.734,0
4285.065,-85.449,40.527,32.715,-9.766,62.500,0
4285.068,-133.789,38.086,33.203,-1.953,16.113,0
4285.072,91.797,28.320,29.297,24.414,39.551,0
4285.076,189.453,24.902,33.203,43.457,75.195,0
4285.080,-20.996,29.785,37.598,10.254,-8.789,0
4285.084,-144.043,35.156,36.621,-11.230,-25.391,0
4285.088,39.551,28.809,31.250,19.531,49.805,0
4285.092,217.285,19.043,26.367,44.434,109.863,0
4285.096,57.129,25.879,32.227,27.344,69.824,0
4285.100,-148.926,32.227,36.133,-4.883,-28.809,0
4285.104,-33.691,29.297,30.273,7.812,-19.531,0
4285.108,198.730,24.902,26.367,54.688,12.695,0
4285.111,123.535,26.367,28.809,42.480,57.129,0
4285.115,-124.023,34.180,36.133,-8.789,88.379,0
4285.119,-88.867,33.691,31.738,2.930,31.250,0
4285.123,165.527,31.738,23.438,44.434,28.809,0
4285.127,188.965,36.621,27.344,44.434,5.371,0
4285.131,-62.012,39.062,32.227,3.906,-22.461,0
4285.135,-132.812,38.086,29.297,-10.254,-19.043,0
4285.139,81.543,32.227,23.926,28.320,22.949,0
4285.143,205.078,31.738,26.367,48.828,31.738,0
4285.147,7.324,39.062,32.715,24.902,10.254,0
4285.151,-147.461,37.598,36.621,8.789,27.344,0
4285.154,19.043,33.203,32.227,25.391,-5.371,0
4285.158,213.867,32.227,27.832,52.734,46.875,0
4285.162,76.172,37.109,36.133,45.410,60.059,0
4285.166,-149.414,41.992,39.062,11.719,-5.859,0
4285.170,-65.918,37.109,28.809,16.113,-18.066,0
4285.174,182.617,30.762,22.461,47.363,14.160,0
4285.178,131.836,29.785,26.367,36.621,27.832,0
4285.182,-125.488,36.133,36.133,3.418,-12.695,0
4285.186,-113.281,34.180,32.227,1.953,-3.906,0
4285.190,131.836,26.367,24.414,41.016,45.898,0
4285.193,180.176,29.297,25.879,54.688,35.645,0
4285.197,-55.664,35.156,28.320,14.160,-10.254,0
4285.201,-144.531,32.715,29.297,0.488,-0.488,0
4285.205,65.430,27.832,23.926,32.227,21.973,0
4285.209,205.078,24.414,20.508,44.922,32.715,0
4285.213,17.578,29.785,28.809,18.555,6.836,0
4285.217,-145.508,33.691,33.203,-18.066,-49.805,0
4285.221,3.906,31.738,28.809,-0.488,-5.859,0
4285.225,219.727,28.320,25.879,47.363,70.801,0
4285.229,111.328,30.273,29.297,29.785,53.711,0
4285.233,-118.164,36.621,34.180,-6.836,10.742,0
4285.236,-62.500,33.203,29.297,1.953,-15.625,0
4285.240,176.758,28.809,23.438,32.715,27.344,0
4285.244,154.297,31.250,26.367,32.715,46.875,0
4285.248,-104.980,36.133,30.762,-2.930,36.133,0
4285.252,-130.859,34.180,28.809,-4.395,61.523,0
4285.256,97.656,26.367,20.508,35.645,35.645,0
4285.260,172.852,24.902,21.484,43.945,50.781,0
4285.264,-51.270,29.297,34.180,-0.977,46.875,0
4285.268,-158.691,31.738,37.598,-13.672,-6.348,0
4285.272,41.504,28.320,26.855,20.996,-26.367,0
4285.276,208.496,27.832,19.531,40.039,22.461,0
4285.279,34.668,32.227,21.484,7.324,72.266,0
4285.283,-150.391,35.156,24.902,-25.879,27.344,0
4285.287,-10.742,33.203,21.484,4.395,14.160,0
4285.291,203.613,26.855,15.625,50.781,68.848,0
4285.295,93.750,27.832,20.508,35.156,43.945,0
4285.299,-148.438,34.180,29.297,-7.324,11.230,0
4285.303,-85.938,34.180,26.367,0.488,36.621,0
4285.307,169.922,29.297,19.043,48.828,39.551,0
4285.311,171.387,28.320,22.461,47.852,42.969,0
4285.315,-80.078,33.691,29.297,-7.812,-11.719,0
4285.318,-119.629,32.227,25.879,-19.043,-2.930,0
4285.322,117.676,26.367,19.531,35.645,49.316,0
4285.326,209.961,25.391,20.996,50.293,21.973,0
4285.330,-16.602,31.738,28.320,12.695,-13.184,0
4285.334,-148.926,37.109,31.250,-0.977,22.461,0
4285.338,33.203,32.227,25.879,26.367,55.664,0
4285.342,211.426,25.391,21.973,54.199,25.391,0
4285.346,56.152,29.297,26.855,38.086,25.391,0
4285.350,-151.855,30.273,30.762,4.883,76.660,0
4285.354,-42.969,24.902,23.926,10.742,42.480,0
4285.358,191.895,20.508,19.043,50.293,11.230,0
4285.361,121.094,23.926,28.320,54.688,74.219,0
4285.365,-132.324,30.762,31.738,0.000,69.824,0
4285.369,-99.609,31.250,26.367,-5.371,0.000,1
4285.373,152.832,28.320,22.461,54.199,-34.668,0
4285.377,171.387,26.367,21.484,55.176,12.207,0
4285.381,-76.660,33.691,31.738,7.324,21.484,0
4285.385,-144.043,35.156,34.668,0.488,-3.418,0
4285.389,79.102,24.414,25.879,38.086,-28.809,0
4285.393,195.312,23.438,27.344,67.383,25.391,0
4285.397,-17.578,32.715,35.156,34.668,104.980,0
4285.401,-166.504,33.203,38.574,-9.277,37.598,0
4285.404,2.441,29.297,32.227,12.695,-0.977,0
4285.408,204.590,26.855,24.902,63.477,18.066,0
4285.412,68.359,30.762,32.715,43.457,33.203,0
4285.416,-157.227,37.109,39.062,-12.695,-1.465,0
4285.420,-65.918,34.180,36.133,9.766,-14.160,0
4285.424,177.734,28.809,32.227,62.500,57.129,0
4285.428,129.395,33.691,34.180,60.059,81.543,0
4285.432,-123.535,38.086,39.062,13.672,41.504,0
4285.436,-115.234,35.645,37.109,-2.441,15.137,0
4285.440,125.488,33.691,28.320,44.434,13.672,0
4285.443,177.246,34.180,27.344,68.848,18.066,0
4285.447,-74.707,41.016,34.668,16.113,-17.090,0
4285.451,-169.922,44.922,34.668,-4.395,-8.789,0
4285.455,55.176,36.621,30.273,40.039,16.602,0
4285.459,196.289,32.715,29.297,60.059,46.387,0
4285.463,5.371,40.527,36.133,36.133,79.102,0
4285.467,-167.480,45.410,41.016,7.324,-8.301,0
4285.471,-18.555,38.574,34.180,13.184,-23.438,0
4285.475,205.566,33.691,26.367,48.340,81.543,0
4285.479,83.008,39.062,30.762,40.039,105.957,0
4285.483,-142.090,42.480,37.598,6.836,32.715,0
4285.486,-65.430,38.086,37.598,20.508,25.879,0
4285.490,167.969,30.762,30.273,61.035,22.949,0
4285.494,145.508,34.668,30.273,43.945,-25.879,0
4285.498,-104.980,41.992,35.645,-8.301,38.086,0
4285.502,-112.305,45.410,35.156,-0.488,57.129,0
4285.506,131.836,40.527,30.762,44.434,22.461,0
4285.510,206.543,35.645,30.762,61.035,-1.465,0
4285.514,-21.484,43.945,36.133,20.996,-3.906,0
4285.518,-133.301,45.898,32.227,-0.977,-16.602,0
4285.522,62.988,37.109,28.809,36.621,15.625,0
4285.526,221.191,34.668,28.320,53.223,45.898,0
4285.529,55.664,41.504,32.715,26.367,12.207,0
4285.533,-123.535,44.434,36.621,8.301,29.297,0
4285.537,5.371,38.574,30.273,18.555,44.922,0
4285.541,224.121,34.180,24.902,57.617,72.266,0
4285.545,121.582,37.598,30.273,48.828,78.125,0
4285.549,-125.977,39.062,35.645,-4.883,59.082,0
4285.553,-67.871,36.621,33.203,2.441,38.086,0
4285.557,178.711,33.203,25.391,55.664,-14.160,0
4285.561,173.340,34.668,25.391,55.176,35.645,0
4285.565,-70.312,39.551,32.227,2.930,93.750,0
4285.568,-108.398,36.133,32.227,0.977,6.836,0
4285.572,127.441,28.320,26.367,49.316,-27.344,0
4285.576,225.586,28.809,27.832,74.219,14.160,0
4285.580,2.930,38.086,37.598,27.832,-2.930,0
4285.584,-135.254,39.551,39.551,-7.812,-11.719,0
4285.588,37.109,33.203,31.738,19.531,21.484,0
4285.592,233.398,30.762,25.879,50.781,18.555,0
4285.596,84.961,33.203,31.738,33.691,0.977,0
4285.600,-132.324,33.203,37.109,-11.719,45.410,0
4285.604,-19.043,30.273,33.203,-2.930,11.230,0
4285.608,215.820,27.344,26.367,47.852,16.602,0
4285.611,137.695,32.227,28.809,42.480,76.172,0
4285.615,-110.840,38.086,34.668,-1.953,37.598,0
4285.619,-86.914,32.715,36.133,3.418,35.156,0
4285.623,162.109,26.367,32.715,64.453,58.105,0
4285.627,192.871,24.902,33.691,77.637,2.930,0
4285.631,-48.340,31.250,42.969,24.902,-12.207,0
4285.635,-117.188,36.621,42.480,9.277,32.227,0
4285.639,106.934,33.203,31.250,38.086,41.016,0
4285.643,232.910,31.738,29.785,61.035,6.348,0
4285.647,4.883,35.645,37.598,35.645,16.113,0
4285.651,-145.020,35.645,36.133,0.000,39.062,0
4285.654,38.574,34.180,29.297,25.391,49.316,0
4285.658,221.191,33.691,26.367,61.523,25.879,0
4285.662,61.035,35.156,30.273,36.621,29.785,0
4285.666,-155.762,36.133,35.645,10.254,12.207,0
4285.670,-46.387,31.738,37.109,33.203,16.602,0
4285.674,193.359,25.391,34.668,58.594,53.223,0
4285.678,132.324,27.344,35.645,32.227,49.316,0
4285.682,-113.281,40.527,39.551,-5.371,71.289,0
4285.686,-101.074,41.992,39.062,-4.395,29.785,0
4285.690,140.625,32.227,32.227,47.852,-5.371,0
4285.693,184.570,32.715,31.738,67.383,34.180,0
4285.697,-63.965,35.156,39.062,9.277,20.020,0
4285.701,-149.414,35.645,41.016,-12.695,40.039,0
4285.705,67.871,32.715,33.203,22.949,49.316,0
4285.709,208.008,32.227,29.297,52.734,64.453,0
4285.713,13.672,37.598,31.250,22.949,32.227,0
4285.717,-154.785,40.039,30.273,-20.020,-10.254,0
4285.721,16.113,38.086,24.902,10.254,23.438,0
4285.725,231.934,36.621,20.508,64.941,44.922,0
4285.729,104.004,39.062,25.391,45.898,56.641,0
4285.733,-115.723,41.992,27.344,2.930,41.504,0
4285.736,-34.180,42.480,23.438,6.348,54.688,0
4285.740,198.730,37.598,20.996,41.016,95.703,0
4285.744,160.645,34.668,22.949,53.223,77.637,0
4285.748,-101.074,35.645,26.367,11.230,64.453,0
4285.752,-122.070,34.668,25.391,-2.441,34.668,0
4285.756,116.699,29.297,20.996,43.457,-19.531,0
4285.760,193.848,29.785,18.555,65.430,22.949,0
4285.764,-37.598,34.180,25.391,11.719,45.410,0
4285.768,-148.926,34.668,28.809,-20.996,4.883,0
4285.772,51.758,28.809,22.949,38.574,16.113,0
4285.776,218.750,28.320,20.996,81.543,17.090,0
4285.779,45.898,32.227,28.320,26.367,13.184,0
4285.783,-155.273,34.180,33.203,-18.555,41.504,0
4285.787,-33.691,31.250,28.809,13.184,0.488,0
4285.791,195.801,25.391,20.996,55.664,-33.691,0
4285.795,88.379,27.832,23.926,38.086,12.695,0
4285.799,-153.809,32.715,28.809,4.395,25.391,0
4285.803,-83.008,31.738,25.391,6.836,32.227,0
4285.807,156.738,26.855,23.438,40.527,57.617,0
4285.811,142.578,26.855,26.367,47.852,-0.488,0
4285.815,-104.492,34.668,31.250,1.465,-43.945,0
4285.818,-146.484,31.738,27.344,-16.113,15.625,0
4285.822,87.891,23.926,22.949,29.785,49.805,0
4285.826,192.383,22.461,24.414,47.852,49.805,0
4285.830,-18.555,23.926,31.250,1.953,9.766,0
4285.834,-154.785,26.855,33.691,-12.695,-25.391,0
4285.838,18.066,23.926,23.438,18.555,-20.508,0
4285.842,203.125,21.973,22.461,60.059,-5.859,0
4285.846,48.340,26.855,35.645,41.016,19.043,0
4285.850,-148.926,31.738,38.574,-8.301,-11.719,0
4285.854,-42.480,27.832,36.621,15.625,-18.066,0
4285.858,168.945,20.508,34.180,57.129,8.789,0
4285.861,101.074,26.367,36.621,45.410,44.434,0
4285.865,-129.883,34.180,38.086,7.812,78.125,0
4285.869,-95.215,32.227,35.645,20.508,66.406,0
4285.873,155.273,28.320,32.715,63.477,35.156,0
4285.877,176.270,28.809,32.227,58.594,19.043,0
4285.881,-68.359,37.598,41.016,14.648,37.109,0
4285.885,-123.047,37.598,41.992,3.418,11.719,0
4285.889,104.004,30.273,25.879,31.250,17.578,0
4285.893,224.121,31.250,21.973,47.852,37.109,0
4285.897,9.766,34.668,36.621,33.691,29.297,0
4285.901,-145.508,35.156,43.945,6.348,7.324,0
4285.904,36.133,29.785,35.645,20.020,27.832,0
4285.908,240.234,26.367,29.297,62.988,77.148,0
4285.912,97.656,32.715,33.203,41.992,32.227,0
4285.916,-117.188,33.691,37.598,0.000,80.078,0
4285.920,-20.996,26.855,34.668,16.113,64.453,0
4285.924,215.820,26.367,32.715,61.035,16.602,0
4285.928,154.297,26.855,34.180,55.664,72.266,0
4285.932,-98.145,29.297,36.133,4.883,14.648,0
4285.936,-83.984,29.785,34.180,-1.465,-13.672,0
4285.940,159.180,24.414,26.367,39.551,68.359,0
4285.943,203.613,27.832,25.879,54.688,62.500,0
4285.947,-42.969,34.668,31.738,14.160,4.883,0
4285.951,-123.535,34.668,36.133,-4.883,7.324,0
4285.955,92.285,28.320,28.320,33.691,54.688,0
4285.959,224.609,23.438,20.020,61.523,59.082,0
4285.963,33.691,30.762,28.320,25.879,78.125,0
4285.967,-144.531,39.551,31.738,-5.859,120.605,0
4285.971,8.789,31.738,27.344,15.625,35.156,0
4285.975,220.703,22.949,24.414,51.758,14.648,0
4285.979,100.098,28.320,26.367,28.809,58.594,0
4285.983,-130.371,34.180,30.273,-7.324,2.930,0
4285.986,-56.152,30.273,28.809,10.742,-47.852,0
4285.990,192.383,24.414,23.438,48.340,23.926,0
4285.994,160.645,27.344,26.367,45.410,120.605,0
4285.998,-94.727,33.203,32.227,4.395,36.621,0
4286.002,-114.258,34.668,30.273,-1.953,-11.719,0
4286.006,128.418,29.785,24.414,31.250,28.809,0
4286.010,202.637,24.902,19.531,45.410,33.691,0
4286.014,-32.227,30.762,24.902,2.441,-4.883,0
4286.018,-143.555,36.133,27.832,-26.367,-63.477,0
4286.022,51.270,31.250,21.973,12.695,-50.293,0
4286.026,216.797,27.832,20.508,44.922,-0.977,0
4286.029,46.875,34.180,24.902,24.414,35.156,0
4286.033,-144.531,40.527,27.344,0.000,14.160,0
4286.037,-10.742,36.621,20.508,6.836,-14.160,0
4286.041,208.984,29.297,15.137,33.691,-10.254,1
4286.045,101.562,31.738,24.414,31.250,23.926,0
4286.049,-137.207,36.621,32.715,1.465,52.734,0
4286.053,-74.219,31.250,28.809,2.930,45.898,0
4286.057,173.340,24.414,24.414,41.504,14.160,0
4286.061,156.738,25.391,25.391,50.781,5.371,0
4286.065,-98.145,31.250,29.297,6.348,28.320,0
4286.068,-127.441,30.762,30.762,3.418,21.973,0
4286.072,119.141,26.367,24.902,40.039,23.438,0
4286.076,203.613,23.438,19.531,44.922,69.336,0
4286.080,-27.344,29.785,28.320,11.719,65.918,0
4286.084,-153.809,35.156,32.715,-0.977,17.090,0
4286.088,37.109,29.785,24.902,31.250,18.555,0
4286.092,217.773,28.320,23.926,64.941,26.367,0
4286.096,62.012,30.762,30.762,35.645,33.203,0
4286.100,-143.555,34.180,34.180,-1.953,53.711,0
4286.104,-32.227,36.133,31.738,23.438,58.594,0
4286.108,200.684,30.273,24.902,54.688,74.219,0
4286.111,115.723,28.809,25.879,44.922,32.227,0
4286.115,-133.301,33.691,33.203,6.348,-2.930,0
4286.119,-93.750,31.738,30.273,4.883,31.250,0
4286.123,159.668,26.367,24.902,50.293,34.668,0
4286.127,180.176,26.855,27.344,53.223,53.223,0
4286.131,-72.754,34.668,32.715,10.254,78.613,0
4286.135,-127.441,36.133,33.203,-4.883,43.945,0
4286.139,92.773,30.762,26.367,30.762,34.668,0
4286.143,204.590,29.297,24.414,57.129,68.359,0
4286.147,-2.441,31.738,31.738,25.391,31.250,0
4286.151,-153.809,31.738,34.668,-1.953,62.500,0
4286.154,19.531,26.855,30.762,21.973,19.531,0
4286.158,217.773,21.973,24.902,48.828,33.691,0
4286.162,75.195,26.367,29.297,20.508,93.262,0
4286.166,-143.066,31.250,36.621,-4.883,27.832,0
4286.170,-47.852,26.855,33.203,13.184,7.812,0
4286.174,192.871,23.438,26.367,53.711,9.766,0
4286.178,139.160,26.855,31.250,53.223,35.156,0
4286.182,-114.258,35.156,38.086,9.766,0.000,0
4286.186,-96.680,33.691,38.574,11.719,-9.766,0
4286.190,155.762,26.855,33.691,60.547,31.738,0
4286.193,206.055,28.809,32.715,69.336,39.062,0
4286.197,-41.992,31.738,34.668,28.320,41.992,0
4286.201,-142.578,33.691,34.668,21.484,-20.508,0
4286.205,73.242,32.715,34.668,47.363,-32.715,0
4286.209,216.309,29.297,31.250,68.359,56.641,0
4286.213,21.484,35.156,34.180,39.551,35.156,0
4286.217,-142.090,40.039,38.086,-3.418,-18.555,0
4286.221,20.020,36.621,32.227,23.926,27.344,0
4286.225,228.027,27.832,28.809,75.684,52.246,0
4286.229,96.191,28.809,32.715,49.316,56.641,0
4286.233,-141.602,36.621,37.598,2.441,33.203,0
4286.236,-56.152,30.273,37.109,20.508,1.953,0
4286.240,197.754,23.438,30.273,60.059,23.926,0
4286.244,161.621,29.785,30.273,54.199,-8.789,0
4286.248,-103.516,33.691,35.156,7.812,-9.277,0
4286.252,-110.840,28.809,34.180,-2.930,70.801,0
4286.256,138.184,22.949,27.344,44.922,69.824,0
4286.260,192.383,22.949,26.367,63.477,45.898,0
4286.264,-46.875,28.320,34.180,11.719,48.340,0
4286.268,-154.785,28.809,33.691,-5.371,33.691,0
4286.272,52.246,25.391,25.391,32.227,51.270,0
4286.276,213.379,23.438,21.973,51.270,81.055,0
4286.279,35.645,30.762,28.320,17.090,11.230,0
4286.283,-151.855,34.180,34.180,-11.230,-41.504,0
4286.287,-17.090,27.832,28.809,8.301,-27.832,0
4286.291,211.914,24.414,26.367,50.293,36.133,0
4286.295,101.074,28.809,32.715,41.504,27.832,0
4286.299,-136.719,33.203,32.715,-10.742,-22.949,0
4286.303,-67.871,33.203,27.344,0.000,-20.996,0
4286.307,182.129,31.250,25.391,55.664,-15.625,0
4286.311,171.875,30.762,28.320,50.293,14.160,0
4286.315,-77.148,37.598,35.156,-2.441,52.246,0
4286.318,-122.559,36.621,35.156,-18.066,14.160,0
4286.322,120.117,28.320,28.809,31.738,-11.719,0
4286.326,216.797,26.855,26.855,54.688,25.391,0
4286.330,-21.973,32.227,32.715,4.883,15.625,0
4286.334,-150.879,36.621,33.203,-19.531,69.824,0
4286.338,43.945,32.715,27.832,18.066,82.031,0
4286.342,224.609,29.297,26.367,58.105,51.270,0
4286.346,48.828,33.691,32.715,40.039,69.824,0
4286.350,-155.273,37.598,38.574,7.324,36.621,0
4286.354,-28.320,35.156,31.738,13.184,24.414,0
4286.358,204.102,29.297,24.414,45.898,72.266,0
4286.361,124.023,31.250,29.297,38.574,73.730,0
4286.365,-125.000,35.156,37.598,-1.953,-18.555,0
4286.369,-87.891,32.227,38.574,5.371,-50.781,0
4286.373,165.039,29.297,31.250,53.223,23.926,0
4286.377,175.781,31.738,29.785,63.477,37.109,0
4286.381,-76.172,40.039,31.738,27.344,46.875,0
4286.385,-134.766,40.527,35.156,9.277,-0.977,0
4286.389,96.191,28.320,33.203,28.809,-23.438,0
4286.393,217.285,21.484,29.785,47.363,-9.277,0
4286.397,-9.277,28.809,36.133,24.414,-11.230,0
4286.401,-157.227,30.762,38.574,-7.812,9.766,0
4286.404,21.973,25.879,34.668,16.602,1.465,0
4286.408,218.750,23.926,28.809,60.547,25.391,0
4286.412,68.359,30.762,33.203,40.039,79.590,0
4286.416,-157.227,35.156,37.598,-1.465,24.902,0
4286.420,-44.922,31.738,33.691,14.160,6.348,0
4286.424,194.824,29.297,29.297,63.965,60.547,0
4286.428,131.348,32.715,31.250,60.547,96.680,0
4286.432,-109.863,36.621,36.621,9.277,58.594,0
4286.436,-93.262,36.133,36.133,14.648,24.414,0
4286.440,147.949,32.715,28.809,50.293,59.570,0
4286.443,185.547,31.738,31.738,48.340,56.641,0
4286.447,-62.988,36.133,41.016,10.742,57.129,0
4286.451,-141.602,33.203,35.645,-2.441,34.668,0
4286.455,79.590,26.367,29.785,35.156,36.133,0
4286.459,212.891,27.344,29.297,48.828,72.754,0
4286.463,18.066,35.645,33.691,21.973,19.531,0
4286.467,-143.066,36.621,37.598,1.953,-13.184,0
4286.471,11.230,32.227,32.715,21.973,-2.930,0
4286.475,224.121,29.785,26.855,70.801,-2.441,0
4286.479,94.238,32.227,32.227,49.805,5.859,0
4286.483,-137.207,42.480,37.109,-1.953,-3.906,0
4286.486,-51.270,39.062,31.738,7.324,-25.879,0
4286.490,196.289,29.297,25.391,46.875,-14.160,0
4286.494,167.969,32.715,29.785,48.340,68.848,0
4286.498,-90.820,40.039,35.645,2.441,89.355,0
4286.502,-113.281,40.039,32.715,-6.836,57.129,0
4286.506,137.695,37.598,29.785,37.109,18.555,0
4286.510,208.984,36.133,29.785,61.523,14.648,0
4286.514,-37.109,39.551,32.715,22.949,43.457,0
4286.518,-141.113,40.527,35.156,-2.930,3.906,0
4286.522,61.523,34.668,33.691,29.297,20.996,0
4286.526,228.027,34.668,32.227,63.965,66.895,0
4286.529,32.715,36.133,32.227,23.926,20.020,0
4286.533,-166.504,38.086,32.715,-15.625,-23.926,0
4286.537,-16.113,33.203,29.297,18.066,-5.859,0
4286.541,210.449,28.809,29.785,60.547,-34.668,0
4286.545,108.887,35.645,35.156,47.363,3.418,0
4286.549,-125.977,41.504,36.621,4.883,55.664,0
4286.553,-63.477,38.086,34.668,25.391,10.742,0
4286.557,184.082,32.715,32.715,60.059,40.039,0
4286.561,171.875,33.691,33.203,48.828,68.359,0
4286.565,-81.055,37.598,37.109,8.301,5.371,0
4286.568,-112.793,37.598,39.062,1.953,53.223,0
4286.572,127.441,33.203,32.715,39.551,98.145,0
4286.576,213.379,33.203,29.297,60.547,51.758,0
4286.580,-25.879,37.109,33.691,28.320,31.738,0
4286.584,-156.738,37.598,35.645,-2.930,20.996,0
4286.588,38.574,33.691,26.367,30.762,1.953,0
4286.592,220.703,31.738,22.949,62.500,24.902,0
4286.596,56.152,33.691,30.762,26.367,38.086,0
4286.600,-152.832,37.109,35.645,-11.719,21.973,0
4286.604,-28.320,35.645,34.180,14.160,3.906,0
4286.608,210.449,32.715,28.809,60.059,24.414,0
4286.611,125.488,35.645,30.762,50.293,55.664,0
4286.615,-124.512,41.016,35.156,-2.441,26.855,0
4286.619,-90.332,36.133,31.738,-2.930,51.270,0
4286.623,159.180,30.762,29.785,47.363,36.621,0
4286.627,171.875,36.133,29.297,54.199,52.246,0
4286.631,-82.031,40.039,30.762,2.441,50.781,1
4286.635,-131.348,36.133,29.785,-20.020,38.574,0
4286.639,92.773,28.809,23.438,22.949,60.059,0
4286.643,203.613,25.391,22.949,54.688,56.152,0
4286.647,-4.395,31.738,31.250,26.367,84.473,0
4286.651,-160.645,31.738,34.180,-7.324,85.938,0
4286.654,18.066,27.832,32.715,20.508,83.008,0
4286.658,221.191,37.109,33.691,65.430,79.102,0
4286.662,67.871,39.062,27.832,37.598,74.219,0
4286.666,-145.020,39.551,29.785,-14.160,12.695,0
4286.670,-39.062,35.645,30.762,7.812,-27.832,0
4286.674,198.730,30.273,24.414,62.012,19.531,0
4286.678,134.766,31.738,25.391,50.293,21.973,0
4286.682,-123.535,37.109,34.180,1.953,13.184,0
4286.686,-102.539,34.668,36.133,-3.418,18.555,0
4286.690,154.297,29.297,28.809,41.504,-2.930,0
4286.693,195.801,30.273,28.809,56.152,10.254,0
4286.697,-54.199,36.621,34.180,15.137,5.371,0
4286.701,-140.137,40.527,34.668,-2.930,26.855,0
4286.705,83.008,34.668,29.785,41.504,38.574,0
4286.709,226.074,29.297,28.320,64.453,14.160,0
4286.713,20.508,33.691,33.203,19.043,31.250,0
4286.717,-151.855,36.133,37.109,-4.883,35.645,0
4286.721,3.906,30.273,34.180,25.879,-0.488,0
4286.725,212.402,30.273,28.809,65.918,30.762,0
4286.729,88.379,34.180,30.273,43.457,44.434,0
4286.733,-141.602,34.180,32.227,-2.930,19.043,0
4286.736,-61.523,31.738,28.320,-0.977,3.418,0
4286.740,190.430,27.344,22.949,36.621,-9.766,0
4286.744,145.508,30.762,24.414,42.480,35.156,0
4286.748,-118.164,37.598,30.273,9.277,56.152,0
4286.752,-111.816,37.109,31.738,-1.465,7.812,0
4286.756,136.230,30.273,27.344,40.039,1.953,0
4286.760,194.824,29.297,27.832,49.805,41.992,0
4286.764,-40.527,40.039,33.203,10.742,-2.441,0
4286.768,-144.531,40.527,31.738,-2.930,40.527,0
4286.772,50.781,33.203,27.344,28.809,64.453,0
4286.776,208.496,28.809,23.438,54.688,23.438,0
4286.779,27.344,29.297,28.809,9.766,85.938,0
4286.783,-158.203,31.738,36.621,-22.949,19.531,0
4286.787,-11.719,30.762,29.785,1.465,-26.855,0
4286.791,213.867,25.391,20.996,47.852,14.648,0
4286.795,113.770,27.832,28.809,42.969,42.969,0
4286.799,-128.906,34.668,38.086,4.883,11.230,0
4286.803,-71.289,30.273,38.574,22.949,-7.324,0
4286.807,184.570,24.902,29.785,57.129,49.805,0
4286.811,167.480,27.344,26.367,54.199,57.129,0
4286.815,-99.121,33.691,40.039,21.484,27.832,0
4286.818,-129.395,32.227,45.898,13.672,-19.531,0
4286.822,109.863,24.414,38.086,41.504,-32.715,0
4286.826,209.961,27.344,36.133,66.406,-38.086,0
4286.830,-11.719,35.645,44.434,39.062,-6.836,0
4286.834,-146.484,38.574,45.410,4.395,40.039,0
