timestamps,TP9,AF7,AF8,TP10,Right AUX,Marker0
1542907747.753,307.617,-91.797,58.594,269.531,60.547,0
1542907747.757,195.312,-11.719,118.652,247.559,4.883,0
1542907747.761,172.363,79.590,74.219,147.949,1.465,0
1542907747.765,176.758,65.430,25.391,164.551,2.930,0
1542907747.769,235.840,30.273,-77.637,315.918,42.969,0
1542907747.773,242.676,16.113,106.934,182.617,79.590,0
1542907747.777,181.152,18.066,194.824,165.039,57.617,0
1542907747.781,261.230,-9.277,-63.965,258.789,53.223,0
1542907747.785,253.418,45.410,-58.594,225.098,74.707,0
1542907747.788,182.617,40.527,42.480,153.809,68.359,0
1542907747.792,163.574,8.789,45.410,127.930,42.969,0
1542907747.796,165.039,52.246,-17.090,195.312,33.691,0
1542907747.800,139.648,105.469,-62.988,258.789,9.766,0
1542907747.804,176.758,4.395,70.312,196.777,20.508,0
1542907747.808,199.219,-56.641,130.859,164.062,82.031,0
1542907747.812,158.203,45.898,25.879,220.703,53.711,0
1542907747.816,196.289,8.789,41.016,166.504,-16.113,0
1542907747.820,122.559,-30.762,51.270,93.262,3.906,0
1542907747.824,113.281,39.551,7.812,179.688,32.227,0
1542907747.828,204.590,49.805,26.855,226.562,62.988,0
1542907747.831,109.863,96.191,71.777,155.762,14.648,0
1542907747.835,77.148,104.980,25.391,99.609,8.789,0
1542907747.839,214.355,-30.762,13.672,194.824,56.641,0
1542907747.843,151.855,43.457,19.531,169.434,5.371,0
1542907747.847,91.309,15.625,19.531,81.055,20.508,0
1542907747.851,186.523,-18.555,5.371,116.699,65.918,0
1542907747.855,93.750,95.703,-6.836,113.770,27.344,0
1542907747.859,77.148,3.906,84.473,205.078,-11.719,0
1542907747.863,169.434,-26.855,83.984,160.156,3.418,0
1542907747.867,112.305,13.184,20.996,110.352,60.547,0
1542907747.871,88.379,63.477,80.078,126.953,53.223,0
1542907747.874,109.375,99.121,58.594,124.023,81.543,0
1542907747.878,132.324,8.789,-10.254,167.480,83.496,0
1542907747.882,120.117,18.555,-12.695,104.004,5.859,0
1542907747.886,94.238,15.625,45.410,77.148,37.598,0
1542907747.890,91.309,14.160,29.785,97.168,66.895,0
1542907747.894,96.191,42.969,22.949,153.809,51.758,0
1542907747.898,69.824,35.156,22.949,115.723,40.527,0
1542907747.902,36.133,69.824,-10.742,99.609,-5.859,0
1542907747.906,38.574,41.992,43.945,187.012,22.461,0
1542907747.910,104.980,35.645,63.477,135.254,50.293,0
1542907747.913,128.418,17.578,18.555,101.562,-17.578,0
1542907747.917,85.449,6.348,44.922,1.953,-2.441,0
1542907747.921,42.969,77.148,-16.602,30.273,18.066,0
1542907747.925,78.125,35.156,-33.691,170.410,35.156,0
1542907747.929,131.348,-20.996,20.508,146.973,39.062,0
1542907747.933,62.500,15.625,65.918,135.742,19.043,0
1542907747.937,54.688,-2.930,37.598,115.234,42.480,0
1542907747.941,73.242,13.672,49.805,50.293,66.895,0
1542907747.945,71.289,38.086,62.012,95.215,3.418,0
1542907747.949,55.664,43.945,47.363,59.082,23.438,0
1542907747.953,55.664,22.949,63.965,33.203,71.289,0
1542907747.956,49.316,57.617,-18.555,114.258,78.613,0
1542907747.960,-14.160,107.422,8.789,59.570,53.711,0
1542907747.964,58.105,10.254,59.570,61.035,11.230,0
1542907747.968,78.613,11.230,0.488,94.238,60.547,0
1542907747.972,37.598,72.266,-5.859,51.758,62.988,0
1542907747.976,47.852,44.922,62.988,84.473,62.988,0
1542907747.980,43.457,0.488,50.781,149.414,96.191,0
1542907747.984,103.516,-41.016,35.645,127.930,52.734,0
1542907747.988,87.891,-2.441,65.918,40.527,40.039,0
1542907747.992,21.484,53.223,44.922,39.062,38.574,0
1542907747.996,62.988,58.105,-12.695,134.277,36.133,0
1542907747.999,77.637,6.836,62.012,124.023,25.879,0
1542907748.003,83.984,45.898,67.871,92.285,17.090,0
1542907748.007,54.199,108.398,2.441,78.613,30.762,0
1542907748.011,20.508,22.949,20.508,105.469,13.184,0
1542907748.015,4.883,8.789,76.172,45.410,52.734,0
1542907748.019,17.090,7.812,99.121,41.016,74.219,0
1542907748.023,45.898,-23.926,87.402,69.336,46.875,0
1542907748.027,16.113,20.508,32.227,81.543,-8.301,0
1542907748.031,47.852,17.578,8.301,127.441,-10.254,0
1542907748.035,42.480,14.160,132.324,29.297,51.758,0
1542907748.038,5.859,44.434,70.801,62.012,52.734,0
1542907748.042,34.668,27.832,29.297,107.910,46.875,0
1542907748.046,59.570,11.719,62.500,47.363,67.383,0
1542907748.050,35.645,12.207,33.691,76.172,47.852,0
1542907748.054,-1.953,29.785,59.570,87.891,0.000,0
1542907748.058,11.719,10.254,76.172,51.758,27.832,0
1542907748.062,-33.691,48.340,47.852,14.160,61.523,0
1542907748.066,8.301,29.785,0.000,44.434,80.078,0
1542907748.070,86.914,-11.230,27.344,113.281,69.824,0
1542907748.074,39.551,-9.277,72.266,95.703,25.391,0
1542907748.078,-30.273,70.312,33.691,29.785,19.531,0
1542907748.081,-16.113,71.777,64.941,34.668,27.832,0
1542907748.085,76.660,-42.969,83.496,99.609,73.730,0
1542907748.089,72.266,70.801,9.277,62.988,78.125,0
1542907748.093,20.020,93.750,19.043,43.457,88.379,0
1542907748.097,29.297,-39.062,56.641,80.566,61.035,0
1542907748.101,28.320,8.301,53.711,20.020,77.637,0
1542907748.105,31.250,40.527,31.250,48.828,97.656,0
1542907748.109,51.758,-6.836,76.660,74.219,34.180,0
1542907748.113,-19.043,80.078,56.641,48.340,6.348,0
1542907748.117,21.484,51.758,-4.395,81.543,-12.695,0
1542907748.121,93.262,-36.133,29.297,72.754,-4.883,0
1542907748.124,15.137,26.367,103.516,14.648,13.672,0
1542907748.128,-3.906,68.359,78.125,41.992,10.742,0
1542907748.132,41.992,13.672,-24.902,73.730,-20.508,0
1542907748.136,41.016,-34.668,30.273,80.078,36.133,0
1542907748.140,31.738,27.344,6.836,62.988,28.320,0
1542907748.144,4.883,70.312,7.324,9.766,-17.090,0
1542907748.148,25.391,9.766,60.547,42.969,7.324,0
1542907748.152,35.156,-36.621,112.793,16.113,0.000,0
1542907748.156,4.883,53.223,64.453,-8.789,3.906,0
1542907748.160,30.762,46.387,8.789,83.496,-9.277,0
1542907748.163,4.395,5.859,52.734,88.867,14.160,0
1542907748.167,17.090,37.598,0.000,76.660,62.012,0
1542907748.171,54.688,9.277,13.672,145.996,27.832,0
1542907748.175,16.113,69.336,54.688,28.320,30.273,0
1542907748.179,20.508,33.691,24.414,-59.570,138.672,0
1542907748.183,39.551,5.371,19.043,56.152,77.148,0
1542907748.187,60.059,18.066,53.711,105.957,55.176,0
1542907748.191,38.086,29.785,-5.371,21.484,86.914,0
1542907748.195,-9.766,39.551,14.160,1.465,24.414,0
1542907748.199,37.598,24.414,67.383,56.152,82.520,0
1542907748.203,58.594,10.254,86.426,41.504,138.672,0
1542907748.206,22.949,37.109,78.613,24.902,75.195,0
1542907748.210,-34.180,90.820,-6.348,29.297,66.895,0
1542907748.214,-0.977,-7.324,-17.090,49.805,72.754,0
1542907748.218,75.195,-11.230,28.809,70.312,36.133,0
1542907748.222,40.527,39.062,32.227,58.105,40.527,0
1542907748.226,-0.488,30.762,33.203,41.504,79.590,0
1542907748.230,33.691,0.977,28.809,97.168,58.105,0
1542907748.234,75.684,26.855,15.137,40.527,51.270,0
1542907748.238,37.598,53.223,36.621,3.418,83.008,0
1542907748.242,19.531,-5.859,75.684,46.875,40.039,0
1542907748.246,-6.348,60.059,16.602,39.551,37.598,0
1542907748.249,-15.137,51.270,27.344,25.391,46.387,0
1542907748.253,29.297,5.859,42.969,24.902,70.312,0
1542907748.257,25.879,57.129,-2.930,45.410,41.992,0
1542907748.261,18.555,40.039,42.969,34.668,36.133,0
1542907748.265,10.742,0.977,155.273,-9.277,78.613,0
1542907748.269,9.277,12.695,21.973,6.836,36.133,0
1542907748.273,8.301,51.270,-58.105,60.547,25.879,0
1542907748.277,13.184,32.227,-3.418,94.727,37.598,0
1542907748.281,13.184,17.578,30.273,49.805,47.852,0
1542907748.285,1.953,26.855,65.430,-76.660,35.156,0
1542907748.288,36.621,26.367,-0.488,8.789,10.254,0
1542907748.292,21.973,68.359,-17.090,89.844,37.598,0
1542907748.296,10.254,51.270,20.020,-0.488,66.895,0
1542907748.300,8.789,0.000,74.219,11.719,55.664,0
1542907748.304,11.230,9.277,56.641,77.637,88.867,0
1542907748.308,61.035,25.391,-18.066,83.008,71.777,0
1542907748.312,33.691,64.941,45.898,38.574,31.738,0
1542907748.316,69.824,45.410,20.508,56.152,93.262,0
1542907748.320,47.363,-19.043,3.418,46.387,71.777,0
1542907748.324,6.836,7.324,39.062,-4.883,0.000,0
1542907748.328,43.945,24.902,-23.438,68.359,54.688,0
1542907748.331,28.320,49.316,-11.719,52.734,98.145,0
1542907748.335,-1.465,72.754,-2.441,-25.391,40.527,0
1542907748.339,-17.578,40.527,33.203,1.465,87.402,0
1542907748.343,59.082,-5.371,25.391,54.688,93.262,0
1542907748.347,38.574,52.734,-6.348,41.016,61.035,0
1542907748.351,-0.488,64.453,26.367,16.113,49.316,0
1542907748.355,41.992,1.465,14.160,-3.906,5.371,0
1542907748.359,50.293,16.602,20.508,48.340,47.852,0
1542907748.363,46.875,40.527,5.371,74.707,78.125,0
1542907748.367,21.973,26.367,48.340,51.758,54.199,0
1542907748.371,-2.930,58.105,72.266,-14.160,56.641,0
1542907748.374,46.387,31.250,22.461,26.367,97.168,0
1542907748.378,35.645,33.203,-8.789,86.914,35.645,0
1542907748.382,29.297,37.598,-13.184,58.105,1.953,0
1542907748.386,29.785,3.418,22.461,29.297,76.172,0
1542907748.390,13.184,43.945,10.254,-17.090,92.285,0
1542907748.394,24.902,82.031,-5.859,23.438,63.477,0
1542907748.398,44.434,27.832,18.066,68.359,30.273,0
1542907748.402,43.945,-8.301,79.590,39.551,20.020,0
1542907748.406,-17.090,38.574,41.992,4.883,47.852,0
1542907748.410,-17.578,63.965,37.598,11.230,72.754,0
1542907748.413,15.137,36.621,62.988,25.879,78.125,0
1542907748.417,25.391,37.109,-12.207,66.895,97.656,0
1542907748.421,31.250,16.602,58.594,34.668,78.613,0
1542907748.425,2.930,55.176,50.781,-26.855,52.246,0
1542907748.429,-49.316,97.168,37.598,-50.293,56.641,0
1542907748.433,-6.348,55.664,31.738,7.812,45.898,0
1542907748.437,19.043,19.531,-16.113,46.387,35.645,0
1542907748.441,-34.180,30.273,25.391,-37.598,41.504,0
1542907748.445,-41.016,54.199,8.301,-47.363,92.285,0
1542907748.449,-54.199,47.363,36.621,-26.855,119.629,0
1542907748.453,-90.820,50.781,51.270,-79.102,138.184,0
1542907748.456,-84.961,66.895,21.484,-93.262,180.176,0
1542907748.460,-79.590,71.777,8.301,-71.777,207.520,0
1542907748.464,-77.637,87.891,-18.066,-67.871,222.656,0
1542907748.468,-121.582,91.797,7.812,-121.094,250.000,0
1542907748.472,-198.242,89.355,33.691,-192.871,284.668,0
1542907748.476,-180.176,73.242,-0.977,-161.133,283.203,0
1542907748.480,-151.855,49.316,-15.137,-135.254,265.625,0
1542907748.484,-203.125,105.957,11.719,-185.547,287.598,0
1542907748.488,-197.266,99.609,34.180,-210.938,286.133,0
1542907748.492,-218.262,67.383,0.977,-199.219,275.391,0
1542907748.496,-233.398,80.566,-35.645,-203.613,312.988,0
1542907748.499,-166.016,36.133,-2.930,-183.594,364.258,0
1542907748.503,-223.633,92.285,33.691,-206.543,362.793,0
1542907748.507,-223.145,100.586,14.160,-212.402,367.188,0
1542907748.511,-149.902,30.762,-9.766,-147.461,381.836,0
1542907748.515,-169.434,60.547,15.137,-154.785,371.582,0
1542907748.519,-180.664,59.570,47.363,-160.645,384.277,0
1542907748.523,-148.926,43.945,48.828,-124.512,386.230,0
1542907748.527,-115.234,38.086,13.184,-121.582,414.551,0
1542907748.531,-104.980,78.613,6.348,-158.691,415.527,0
1542907748.535,-116.699,106.934,19.043,-89.355,377.930,0
1542907748.538,-91.309,42.480,40.527,-17.578,387.695,0
1542907748.542,-33.691,-0.488,46.387,-37.598,400.879,0
1542907748.546,-21.484,22.949,88.867,3.418,366.211,0
1542907748.550,-13.672,18.066,74.707,14.648,350.098,0
1542907748.554,26.367,27.832,11.230,26.367,377.441,0
1542907748.558,13.184,82.520,46.387,27.832,368.652,0
1542907748.562,43.945,30.762,53.223,76.660,329.102,0
1542907748.566,124.023,-41.016,77.148,118.652,316.895,0
1542907748.570,126.953,-16.113,87.402,143.066,302.734,0
1542907748.574,144.043,-7.812,47.852,217.773,289.062,0
1542907748.578,169.922,13.672,47.363,247.070,255.371,0
1542907748.581,182.129,16.113,81.543,233.887,237.305,0
1542907748.585,229.980,-41.992,86.914,208.984,249.512,0
1542907748.589,197.266,-4.395,112.305,221.191,242.188,0
1542907748.593,209.961,22.461,125.977,258.301,243.652,0
1542907748.597,302.246,-23.438,47.363,307.129,237.793,0
1542907748.601,308.594,-18.555,53.711,313.477,243.164,0
1542907748.605,283.203,-11.719,56.152,330.566,224.609,0
1542907748.609,237.305,14.160,47.363,294.434,187.012,0
1542907748.613,227.539,-23.438,80.078,285.156,182.129,0
1542907748.617,219.727,64.453,52.734,260.254,170.410,0
1542907748.621,214.355,100.098,46.875,240.234,139.648,0
1542907748.624,255.859,-59.082,72.266,277.344,126.465,0
1542907748.628,234.863,-68.848,61.035,208.984,121.582,0
1542907748.632,211.914,-32.227,104.980,177.246,59.082,0
1542907748.636,165.527,6.348,140.625,146.973,31.250,0
1542907748.640,184.570,28.320,42.480,187.012,25.391,0
1542907748.644,182.617,34.180,23.438,238.770,-15.625,0
1542907748.648,147.461,-4.883,-8.301,181.152,-69.824,0
1542907748.652,114.258,61.523,-28.809,114.746,-113.770,0
1542907748.656,104.980,84.961,15.137,144.043,-160.645,0
1542907748.660,153.809,-8.789,24.902,193.359,-203.125,0
1542907748.663,163.086,-50.293,51.758,126.953,-253.418,0
1542907748.667,111.816,-33.691,108.398,117.676,-318.359,0
1542907748.671,132.324,4.395,46.875,107.910,-338.867,0
1542907748.675,104.492,43.945,35.156,55.664,-362.793,0
1542907748.679,57.129,62.500,52.246,108.398,-408.203,0
1542907748.683,148.438,9.766,-23.438,168.457,-422.852,0
1542907748.687,130.859,45.898,36.621,93.262,-385.742,0
1542907748.691,75.195,79.102,-5.371,67.871,-342.285,0
1542907748.695,125.977,-19.531,0.000,152.344,-335.938,0
1542907748.699,156.250,3.418,70.312,132.324,-300.293,0
1542907748.703,125.977,32.715,37.598,113.281,-273.438,0
1542907748.706,116.699,0.488,5.371,150.391,-228.516,0
1542907748.710,105.469,4.395,97.656,113.281,-203.613,0
1542907748.714,71.289,29.297,103.516,42.480,-200.195,0
1542907748.718,64.453,16.113,3.418,94.727,-163.086,0
1542907748.722,89.355,18.555,-3.418,133.789,-147.461,0
1542907748.726,106.445,4.883,63.965,39.551,-147.949,0
1542907748.730,71.777,49.805,32.227,33.203,-143.066,0
1542907748.734,33.203,73.242,-24.902,98.633,-125.488,0
1542907748.738,77.148,-15.625,35.645,81.543,-115.723,0
1542907748.742,99.609,-2.930,37.598,90.332,-103.027,0
1542907748.746,17.578,0.977,92.773,25.879,-103.027,0
1542907748.749,23.438,13.672,87.402,12.207,-101.074,0
1542907748.753,29.297,27.832,-8.789,41.504,-85.938,0
1542907748.757,-120.117,73.242,-10.254,-36.621,-81.543,0
1542907748.761,-135.254,75.684,-18.555,-104.980,-73.242,0
1542907748.765,-147.949,19.531,28.809,-148.438,-79.590,0
1542907748.769,-276.367,69.336,18.066,-262.695,-93.262,0
1542907748.773,-253.906,4.395,-11.230,-282.227,-60.059,0
1542907748.777,-298.828,53.223,1.953,-344.238,-39.551,0
1542907748.781,-387.207,82.520,-36.621,-350.098,-55.176,0
1542907748.785,-354.980,39.551,-67.383,-333.984,-52.246,0
1542907748.788,-309.570,28.809,-47.852,-348.145,-42.969,0
1542907748.792,-355.469,83.496,-20.996,-332.031,-22.461,0
1542907748.796,-383.789,108.887,-18.066,-406.250,-35.156,0
1542907748.800,-315.918,-7.324,32.715,-378.418,-20.508,0
1542907748.804,-324.707,53.223,-30.762,-329.590,-3.906,0
1542907748.808,-371.094,97.168,-70.312,-363.281,-5.371,0
1542907748.812,-338.867,27.344,3.906,-369.629,1.465,0
1542907748.816,-290.039,92.773,-6.836,-262.207,-24.414,0
1542907748.820,-248.047,82.520,-46.387,-181.152,17.578,0
1542907748.824,-196.289,-10.742,28.320,-175.293,62.988,0
1542907748.828,-139.648,21.484,35.645,-183.105,51.270,0
1542907748.831,-171.875,104.492,-32.715,-162.109,63.965,0
1542907748.835,-195.312,49.316,13.184,-122.559,94.727,0
1542907748.839,-134.766,0.000,31.738,-133.789,122.559,0
1542907748.843,-71.289,78.613,3.418,-42.969,118.164,0
1542907748.847,-32.227,-24.902,55.176,-10.254,112.305,0
1542907748.851,22.949,-56.641,22.949,-31.738,139.160,0
1542907748.855,31.738,12.695,32.715,4.883,175.781,0
1542907748.859,12.207,61.035,9.277,8.301,181.641,0
1542907748.863,15.137,30.762,-46.875,78.613,166.016,0
1542907748.867,55.176,-40.039,52.246,97.168,219.727,0
1542907748.871,86.914,-31.250,45.410,55.664,239.746,0
1542907748.874,40.039,-0.977,24.414,108.398,226.074,0
1542907748.878,97.656,-19.531,53.711,112.793,223.633,0
1542907748.882,104.980,15.137,18.066,116.699,250.977,0
1542907748.886,97.656,35.156,-51.270,149.414,293.457,0
1542907748.890,148.438,11.230,28.320,86.914,288.574,0
1542907748.894,88.867,40.039,31.738,130.371,253.906,0
1542907748.898,129.395,-73.730,62.500,202.148,270.996,0
1542907748.902,234.863,-72.266,42.480,136.719,297.363,0
1542907748.906,243.164,-2.930,-36.133,202.148,276.855,0
1542907748.910,75.684,70.801,71.777,131.348,234.863,0
1542907748.913,9.277,20.508,62.012,120.605,237.793,0
1542907748.917,160.645,7.812,-24.902,167.480,258.789,0
1542907748.921,169.434,15.625,-24.414,191.895,245.605,0
1542907748.925,104.004,-12.695,48.340,159.668,256.836,0
1542907748.929,138.184,34.180,18.066,133.789,262.695,0
1542907748.933,132.812,69.336,4.883,147.461,219.727,0
1542907748.937,77.637,-8.301,73.242,75.684,235.840,0
1542907748.941,168.457,-16.113,68.848,89.355,260.742,0
1542907748.945,130.371,12.207,62.012,158.691,256.348,0
1542907748.949,63.965,8.301,27.832,162.598,240.234,0
1542907748.953,70.801,41.992,-35.645,158.203,183.594,0
1542907748.956,19.043,13.672,65.430,80.078,201.660,0
1542907748.960,66.406,-15.137,54.199,113.770,215.820,0
1542907748.964,183.105,42.969,-20.020,156.738,177.246,0
1542907748.968,154.297,2.441,35.156,88.379,159.668,0
1542907748.972,79.102,-71.289,140.137,139.648,164.062,0
1542907748.976,199.707,-11.230,90.820,104.004,166.016,0
1542907748.980,191.406,-0.977,-24.902,114.746,134.277,0
1542907748.984,70.312,-25.391,15.625,223.633,111.816,0
1542907748.988,87.402,1.953,22.949,123.047,135.254,0
1542907748.992,137.695,1.953,41.504,70.801,126.953,0
1542907748.996,47.852,27.832,94.727,24.902,87.891,0
1542907748.999,39.551,-42.480,1.465,84.961,92.285,0
1542907749.003,47.852,58.594,8.789,92.773,133.301,0
1542907749.007,-49.316,119.629,59.570,31.738,138.184,0
1542907749.011,41.992,-52.246,44.434,178.223,125.488,0
1542907749.015,157.715,-43.457,31.738,124.512,136.230,0
1542907749.019,103.516,49.316,9.277,25.391,156.738,0
1542907749.023,92.285,-2.930,56.152,127.930,150.879,0
1542907749.027,138.184,24.902,-1.465,68.359,157.227,0
1542907749.031,-28.320,92.773,-19.531,-28.320,162.109,0
1542907749.035,62.012,-80.566,48.340,118.164,165.527,0
1542907749.038,115.234,-21.973,-6.348,76.660,187.500,0
1542907749.042,51.270,63.477,-18.555,49.805,176.270,0
1542907749.046,62.012,101.074,-29.297,98.145,177.246,0
1542907749.050,-27.344,190.430,-8.301,-0.977,213.379,0
1542907749.054,19.043,11.230,101.074,-9.766,243.652,0
1542907749.058,110.352,-134.277,41.504,14.648,251.953,0
1542907749.062,61.523,84.961,-88.867,-27.832,247.559,0
1542907749.066,-41.992,68.359,-2.930,-91.797,252.930,0
1542907749.070,-54.688,79.102,54.199,-45.898,295.410,0
1542907749.074,-116.211,93.750,38.574,-37.598,329.102,0
1542907749.078,-110.352,58.105,-14.160,-68.359,368.652,0
1542907749.081,-35.156,30.762,-54.688,-35.645,378.418,0
1542907749.085,18.555,29.785,-46.875,-18.555,385.742,0
1542907749.089,-93.750,95.215,-2.930,-225.098,381.348,0
1542907749.093,-162.598,79.102,34.180,-291.016,401.855,0
1542907749.097,-214.355,72.266,-31.250,-40.039,422.363,0
1542907749.101,-175.293,-10.742,21.484,-4.883,444.336,0
1542907749.105,36.621,-14.160,70.801,-106.934,477.051,0
1542907749.109,-9.766,60.059,-16.602,-114.746,466.309,0
1542907749.113,-218.750,41.504,77.148,-183.594,439.453,0
1542907749.117,-271.484,40.527,43.457,-156.738,447.266,0
1542907749.121,-53.711,30.273,-68.848,-39.062,479.004,0
1542907749.124,-69.824,11.719,-14.648,-4.883,501.953,0
1542907749.128,-107.910,-55.176,128.906,-67.383,505.859,0
1542907749.132,-22.461,-20.508,113.770,-60.547,511.230,0
1542907749.136,27.832,-10.742,-14.160,27.344,509.766,0
1542907749.140,25.879,-48.828,84.473,14.160,530.762,0
1542907749.144,-3.906,-85.938,167.969,2.441,529.297,0
1542907749.148,-126.953,-2.930,153.809,-20.020,490.723,0
1542907749.152,-56.152,67.871,133.301,31.250,495.117,0
1542907749.156,14.648,-89.844,225.586,146.484,541.992,0
1542907749.160,-83.008,-90.820,154.785,67.871,554.688,0
1542907749.163,120.117,-34.180,33.691,139.648,508.789,0
1542907749.167,195.312,-133.301,110.840,183.594,483.887,0
1542907749.171,104.980,-77.637,174.805,115.723,506.348,0
1542907749.175,59.082,45.898,196.777,152.344,518.555,0
1542907749.179,132.324,-80.078,129.883,230.957,480.469,0
1542907749.183,180.664,-185.547,123.535,259.277,473.145,0
1542907749.187,127.441,-146.484,258.301,195.312,475.586,0
1542907749.191,68.359,-84.473,236.816,179.688,425.781,0
1542907749.195,144.531,-41.504,96.680,245.117,390.137,0
1542907749.199,133.789,-82.031,251.953,158.203,374.512,0
1542907749.203,82.031,-104.980,219.238,151.855,366.699,0
1542907749.206,226.562,-106.934,88.867,208.984,350.098,0
1542907749.210,171.875,-82.031,103.027,150.879,318.359,0
1542907749.214,65.918,-48.828,94.727,211.426,322.754,0
1542907749.218,54.199,-96.680,212.891,196.289,318.848,0
1542907749.222,48.340,-76.172,165.039,203.125,305.664,0
1542907749.226,183.594,-83.496,95.215,245.117,303.711,0
1542907749.230,138.672,-59.082,105.957,166.016,282.227,0
1542907749.234,17.090,-30.762,190.918,122.070,296.875,0
1542907749.238,16.602,-39.551,188.965,123.047,285.156,0
1542907749.242,115.234,-52.734,55.664,171.875,294.434,0
1542907749.246,183.105,-106.445,109.375,170.898,321.289,0
1542907749.249,10.742,-17.090,171.387,109.375,295.898,0
1542907749.253,27.344,-4.883,65.918,148.438,292.480,0
1542907749.257,64.453,-30.762,68.848,97.168,318.359,0
1542907749.261,95.215,-93.262,156.250,86.914,282.227,0
1542907749.265,108.398,-75.684,153.320,191.895,235.352,0
1542907749.269,116.211,-19.043,79.590,152.832,241.211,0
1542907749.273,48.828,78.613,48.340,86.914,236.816,0
1542907749.277,7.812,21.484,105.469,25.879,221.680,0
1542907749.281,104.004,-19.531,11.230,54.199,203.125,0
1542907749.285,48.340,52.246,73.242,144.531,172.852,0
1542907749.288,15.137,-19.531,96.191,146.484,172.852,0
1542907749.292,122.559,-12.695,39.062,137.695,157.715,0
1542907749.296,98.633,12.207,77.148,61.035,137.207,0
1542907749.300,86.914,-29.297,87.402,79.102,142.090,0
1542907749.304,43.945,41.992,31.250,121.094,153.320,0
1542907749.308,-8.789,25.879,30.762,96.191,146.484,0
1542907749.312,122.559,-33.691,73.730,154.785,104.980,0
1542907749.316,146.484,49.316,95.703,52.734,73.242,0
1542907749.320,94.727,6.836,33.203,40.527,88.379,0
1542907749.324,57.617,9.277,-46.875,131.348,88.379,0
1542907749.328,75.195,48.828,38.086,111.328,72.266,0
1542907749.331,93.262,38.574,105.469,86.426,91.797,0
1542907749.335,84.473,78.125,9.766,46.387,115.234,0
1542907749.339,69.824,14.648,19.043,42.969,113.281,0
1542907749.343,122.559,-7.812,41.504,126.465,101.074,0
1542907749.347,68.359,2.930,59.570,103.027,77.637,0
1542907749.351,3.906,31.738,43.945,54.199,106.445,0
1542907749.355,63.477,66.895,57.129,61.523,124.512,0
1542907749.359,24.414,13.184,91.309,62.988,123.047,0
1542907749.363,74.707,-18.066,-16.113,89.844,117.676,0
1542907749.367,118.652,101.562,-48.340,70.312,88.867,0
1542907749.371,19.043,151.855,-4.883,69.824,86.426,0
1542907749.374,52.246,5.859,48.828,109.863,74.219,0
1542907749.378,120.117,-72.754,51.270,132.812,81.055,0
1542907749.382,34.668,72.754,4.395,58.594,84.961,0
1542907749.386,-4.883,119.629,42.969,18.066,76.172,0
1542907749.390,90.820,-29.785,98.633,36.133,84.473,0
1542907749.394,65.430,25.391,54.199,16.602,73.730,0
1542907749.398,-31.738,96.680,48.340,45.410,75.684,0
1542907749.402,55.176,19.043,22.949,56.152,96.680,0
1542907749.406,128.418,8.789,17.090,82.031,78.125,0
1542907749.410,54.199,28.809,14.160,159.668,85.938,0
1542907749.413,8.789,-12.207,26.855,78.125,88.867,0
1542907749.417,37.109,-7.812,90.332,-5.859,77.637,0
1542907749.421,125.000,32.715,-7.812,53.223,92.285,0
1542907749.425,9.277,64.941,15.137,31.738,103.027,0
1542907749.429,-113.770,154.785,50.781,-9.766,70.801,0
1542907749.433,-18.555,36.133,70.312,0.000,73.730,0
1542907749.437,120.605,-104.492,114.258,102.539,118.164,0
1542907749.441,107.422,19.531,27.832,113.770,123.535,0
1542907749.445,-59.082,84.961,-38.086,-44.434,78.613,0
1542907749.449,-78.613,63.477,2.441,-120.117,38.574,0
1542907749.453,24.902,74.707,-6.836,-12.695,80.078,0
1542907749.456,-4.395,74.219,-9.766,-60.547,106.934,0
1542907749.460,-115.234,68.359,3.906,-141.602,69.336,0
1542907749.464,-110.352,103.027,-48.340,-113.770,24.414,0
1542907749.468,-35.645,122.559,-8.789,-177.734,46.387,0
1542907749.472,-62.012,94.727,-46.875,-119.629,75.195,0
1542907749.476,-131.348,45.410,-55.176,-125.977,75.195,0
1542907749.480,-125.977,67.383,3.906,-209.473,59.082,0
1542907749.484,-159.668,131.836,-201.660,-194.336,68.848,0
1542907749.488,-175.293,96.191,-124.512,-199.707,101.074,0
1542907749.492,-108.887,107.422,-60.059,-236.816,83.496,0
1542907749.496,-128.418,115.234,-79.590,-271.484,77.637,0
1542907749.499,-168.457,143.555,-160.645,-288.574,59.082,0
1542907749.503,-135.254,161.133,-110.840,-307.617,65.918,0
1542907749.507,-185.059,204.590,-58.594,-290.527,71.777,0
1542907749.511,-253.418,194.824,-165.527,-235.840,33.691,0
1542907749.515,-216.797,90.332,-114.746,-264.648,34.180,0
1542907749.519,-166.504,161.133,-153.809,-355.469,54.688,0
1542907749.523,-177.734,162.598,-161.621,-270.996,40.039,0
1542907749.527,-204.590,143.066,-136.719,-255.371,25.391,0
1542907749.531,-65.430,116.211,-155.273,-199.219,24.902,0
1542907749.535,-76.660,110.840,-111.816,-185.059,33.691,0
1542907749.538,-140.137,198.730,-78.613,-312.500,45.410,0
1542907749.542,-208.984,265.137,-100.098,-322.754,58.594,0
1542907749.546,-175.293,139.648,-122.559,-194.824,51.758,0
1542907749.550,-57.617,99.121,-163.574,-46.875,12.207,0
1542907749.554,27.344,128.418,-170.410,-40.039,41.016,0
1542907749.558,-18.066,98.145,-116.211,-173.340,61.035,0
1542907749.562,-47.363,138.672,-96.191,-137.695,48.828,0
1542907749.566,-42.480,200.684,-126.465,-91.797,28.320,0
1542907749.570,57.617,174.316,-129.883,-50.781,15.137,0
1542907749.574,142.090,109.863,-100.586,60.547,54.199,0
1542907749.578,10.742,121.094,-102.539,-2.441,21.484,0
1542907749.581,25.391,133.301,-136.719,7.324,25.879,0
1542907749.585,169.434,136.719,-49.805,111.328,57.617,0
1542907749.589,239.746,83.008,3.418,126.953,57.129,0
1542907749.593,208.496,42.969,-126.465,139.648,57.617,0
1542907749.597,197.754,77.637,-73.242,197.266,32.715,0
1542907749.601,282.227,100.098,-26.855,230.957,48.828,0
1542907749.605,281.250,81.055,-85.938,249.023,57.617,0
1542907749.609,280.762,73.242,-57.617,228.027,32.227,0
1542907749.613,281.738,55.664,-72.266,222.168,10.742,0
1542907749.617,285.645,101.074,-62.012,264.648,28.320,0
1542907749.621,344.727,68.848,10.742,285.156,41.016,0
1542907749.624,307.617,4.883,-12.207,341.797,42.480,0
1542907749.628,224.609,150.391,-20.508,238.770,21.484,0
1542907749.632,305.176,99.121,-16.602,230.469,-12.207,0
1542907749.636,398.438,-19.531,-1.953,315.430,10.742,0
1542907749.640,380.371,23.438,31.250,310.547,25.879,0
1542907749.644,395.020,30.762,-41.992,385.254,16.113,0
1542907749.648,383.301,93.262,-54.688,367.676,-6.348,0
1542907749.652,347.168,126.953,-11.719,351.074,-1.465,0
1542907749.656,352.051,54.688,-14.648,368.652,26.855,0
1542907749.660,354.980,-17.578,18.066,333.496,7.812,0
1542907749.663,274.414,62.500,20.996,271.973,5.859,0
1542907749.667,300.293,71.777,-22.461,302.246,27.344,0
1542907749.671,390.625,0.000,7.812,324.219,41.504,0
1542907749.675,366.211,-6.348,51.270,300.293,55.176,0
1542907749.679,228.027,41.504,32.715,238.770,30.762,0
1542907749.683,290.527,37.109,-7.324,281.250,30.762,0
1542907749.687,301.758,64.453,-53.711,341.797,62.012,0
1542907749.691,198.242,71.289,42.969,277.344,38.574,0
1542907749.695,257.324,-13.184,113.281,246.582,18.555,0
1542907749.699,311.035,-5.859,86.426,265.625,7.812,0
1542907749.703,294.434,-33.691,1.465,295.898,3.418,0
1542907749.706,246.094,8.789,61.035,193.359,41.504,0
1542907749.710,184.082,66.406,98.145,152.344,37.109,0
1542907749.714,200.195,38.574,14.160,248.047,2.441,0
1542907749.718,186.523,-32.227,71.289,171.387,26.855,0
1542907749.722,96.680,34.668,45.898,142.578,53.711,0
1542907749.726,151.855,40.527,-8.789,236.328,36.621,0
1542907749.730,164.551,59.082,60.059,194.824,16.602,0
1542907749.734,118.652,42.969,51.270,165.039,15.625,0
1542907749.738,200.684,-81.543,84.961,127.441,11.719,0
1542907749.742,183.594,-38.086,76.172,166.992,21.973,0
1542907749.746,151.367,72.266,-36.133,189.453,17.090,0
1542907749.749,160.156,53.223,-12.207,170.898,2.930,0
1542907749.753,97.168,41.016,60.547,105.957,32.715,0
1542907749.757,40.527,82.520,72.754,86.914,50.781,0
1542907749.761,121.582,8.301,125.000,123.535,34.668,0
1542907749.765,129.395,10.254,84.473,101.074,6.836,0
1542907749.769,150.879,-20.996,21.973,120.117,-5.371,0
1542907749.773,165.527,-3.418,47.363,166.016,5.859,0
1542907749.777,155.762,45.898,-7.812,178.223,-3.906,0
1542907749.781,126.953,74.219,0.977,120.605,-38.086,0
1542907749.785,103.516,36.133,0.977,86.914,-32.715,0
1542907749.788,138.672,-6.836,4.883,132.812,-3.906,0
1542907749.792,56.641,69.336,-5.859,105.469,-41.992,0
1542907749.796,21.973,76.660,106.934,17.090,-82.520,0
1542907749.800,127.930,-1.465,80.566,105.469,-47.852,0
1542907749.804,100.098,18.066,8.301,109.375,1.465,0
1542907749.808,102.051,3.906,67.383,62.988,-8.301,0
1542907749.812,114.258,47.852,-31.738,128.906,-54.199,0
1542907749.816,81.543,91.309,-39.551,82.520,-60.059,0
1542907749.820,123.047,1.953,20.508,80.566,-11.230,0
1542907749.824,64.453,20.020,57.617,72.266,-13.184,0
1542907749.828,-58.105,78.613,41.504,27.344,-46.875,0
1542907749.831,58.594,19.043,15.137,72.754,-30.273,0
1542907749.835,158.691,29.785,-40.527,95.215,-31.738,0
1542907749.839,74.219,38.574,42.969,62.012,-18.066,0
1542907749.843,10.742,71.289,69.824,62.988,-2.441,0
1542907749.847,34.668,50.781,30.273,90.332,-26.855,0
1542907749.851,105.469,60.059,7.324,89.355,2.930,0
1542907749.855,125.000,30.273,-15.625,92.285,29.297,0
1542907749.859,91.797,51.270,-32.227,50.781,28.809,0
1542907749.863,3.906,91.797,92.285,56.641,44.922,0
1542907749.867,66.406,-7.324,125.000,105.469,22.461,0
1542907749.871,84.473,-6.836,-39.551,150.879,22.461,0
1542907749.874,42.969,7.324,32.227,58.105,67.871,0
1542907749.878,3.418,25.879,56.641,35.645,59.082,0
1542907749.882,41.016,43.945,48.340,80.566,20.508,0
1542907749.886,56.152,27.344,70.312,70.801,57.129,0
1542907749.890,72.754,22.949,-8.301,66.895,85.449,0
1542907749.894,52.246,111.816,-25.879,2.930,41.504,0
1542907749.898,69.824,31.250,90.332,58.105,16.113,0
1542907749.902,90.332,-35.156,78.613,78.613,71.289,0
1542907749.906,20.996,47.852,-30.762,38.086,74.219,0
1542907749.910,-1.953,72.266,34.668,42.480,38.086,0
1542907749.913,-39.551,29.297,61.035,40.527,28.809,0
1542907749.917,20.508,42.969,46.387,-10.254,8.789,0
1542907749.921,145.020,31.738,-34.668,84.473,31.250,0
1542907749.925,29.785,3.906,-30.762,55.664,29.297,0
1542907749.929,-29.297,39.551,-8.301,-0.977,-10.254,0
1542907749.933,83.008,-16.602,53.223,88.379,9.766,0
1542907749.937,46.387,-9.766,91.797,41.992,15.625,0
1542907749.941,-5.371,75.684,-12.695,91.797,-10.254,0
1542907749.945,98.145,66.406,73.730,128.906,-30.273,0
1542907749.949,93.750,56.152,85.938,101.074,6.348,0
1542907749.953,21.484,19.531,-50.781,58.594,50.781,0
1542907749.956,-35.156,-9.766,7.812,-4.395,55.664,0
1542907749.960,-91.797,-0.977,56.641,-88.379,52.246,0
1542907749.964,-106.445,-0.488,-27.832,-167.969,57.129,0
1542907749.968,-170.898,19.531,-33.691,-185.547,78.125,0
1542907749.972,-237.793,29.297,-12.695,-196.777,109.375,0
1542907749.976,-274.902,0.977,32.715,-291.992,106.934,0
1542907749.980,-263.672,34.180,-23.926,-306.152,97.656,0
1542907749.984,-307.129,34.668,-32.227,-252.441,131.836,0
1542907749.988,-311.523,-45.898,10.254,-242.188,94.238,0
1542907749.992,-333.008,-29.785,0.000,-272.461,104.004,0
1542907749.996,-312.012,-23.438,8.301,-291.016,135.742,0
1542907749.999,-262.695,-49.316,15.137,-301.270,111.328,0
1542907750.003,-232.910,-18.066,7.812,-262.207,124.512,0
1542907750.007,-151.855,-16.602,0.488,-151.367,127.441,0
1542907750.011,-187.988,-3.906,78.125,-149.902,134.277,0
1542907750.015,-200.684,56.152,16.602,-208.984,148.926,0
1542907750.019,-187.988,-15.137,-13.184,-150.879,156.738,0
1542907750.023,-143.066,-19.043,29.785,-75.684,140.625,0
1542907750.027,-136.719,28.809,44.922,-88.867,133.789,0
1542907750.031,-147.461,-18.555,10.742,-76.660,125.977,0
1542907750.035,-106.445,62.500,-9.766,-89.355,112.793,0
1542907750.038,-96.680,13.672,31.738,-154.297,146.484,0
1542907750.042,-92.773,-41.504,35.645,-103.027,156.250,0
1542907750.046,-81.055,21.484,16.602,23.926,133.301,0
1542907750.050,-58.594,14.648,9.277,-9.277,119.629,0
1542907750.054,-61.523,31.250,-9.766,-76.660,147.461,0
1542907750.058,-93.262,38.574,46.387,-40.527,149.414,0
1542907750.062,-56.152,-3.906,70.801,-16.113,109.863,0
1542907750.066,-31.738,-1.953,5.371,-51.270,118.652,0
1542907750.070,-26.367,28.320,-2.441,-3.418,136.230,0
1542907750.074,-11.719,32.227,9.766,22.461,131.836,0
1542907750.078,-16.113,7.324,27.344,-13.184,95.215,0
1542907750.081,-4.395,4.883,58.105,-0.977,64.453,0
1542907750.085,-39.062,12.695,120.605,-12.695,113.281,0
1542907750.089,-7.324,4.395,37.598,27.344,127.441,0
1542907750.093,14.648,44.434,-5.859,46.875,105.469,0
1542907750.097,-6.348,38.086,41.504,6.348,124.023,0
1542907750.101,-3.906,24.902,21.484,10.742,133.301,0
1542907750.105,-16.113,32.715,31.738,23.438,136.719,0
1542907750.109,-31.250,0.000,40.039,41.016,135.742,0
1542907750.113,10.742,-12.207,60.547,51.758,115.234,0
1542907750.117,58.594,33.203,43.457,30.273,110.840,0
1542907750.121,11.230,28.320,26.855,37.109,119.629,0
1542907750.124,2.930,-12.695,93.262,59.082,144.043,0
1542907750.128,31.738,0.977,90.820,15.625,156.250,0
1542907750.132,47.363,23.438,-3.418,38.086,157.227,0
1542907750.136,26.855,34.668,15.137,54.199,145.508,0
1542907750.140,16.602,14.160,68.359,13.672,131.348,0
1542907750.144,19.043,3.906,52.246,45.898,140.137,0
1542907750.148,29.297,17.578,29.785,90.332,127.930,0
1542907750.152,-19.043,70.801,35.156,27.832,156.250,0
1542907750.156,-17.578,46.387,54.199,19.043,157.715,0
1542907750.160,67.383,-32.715,82.031,57.129,130.371,0
1542907750.163,35.156,8.301,61.523,29.785,113.770,0
1542907750.167,2.930,18.066,18.066,39.062,99.121,0
1542907750.171,29.297,10.254,19.531,54.199,114.258,0
1542907750.175,54.688,40.527,33.203,39.551,121.094,0
1542907750.179,43.457,43.945,28.809,33.691,106.445,0
1542907750.183,36.133,18.066,58.105,57.617,99.121,0
1542907750.187,33.203,19.043,80.566,45.410,122.070,0
1542907750.191,25.879,33.203,33.203,87.891,84.473,0
1542907750.195,24.902,37.109,35.645,15.137,46.387,0
1542907750.199,21.484,33.203,58.594,4.883,50.781,0
1542907750.203,34.180,32.715,48.828,100.098,48.828,0
1542907750.206,41.992,23.926,44.922,-6.836,42.480,0
1542907750.210,28.809,26.367,38.086,-20.996,16.602,0
1542907750.214,15.625,25.879,61.035,87.891,-8.789,0
1542907750.218,40.527,34.180,15.137,76.660,12.695,0
1542907750.222,31.738,25.391,47.363,47.363,23.438,0
1542907750.226,20.020,21.484,82.520,34.668,47.852,0
1542907750.230,33.691,32.715,42.969,48.340,31.738,0
1542907750.234,40.039,32.227,20.996,24.414,2.441,0
1542907750.238,24.414,23.438,54.688,16.113,28.320,0
1542907750.242,15.137,21.973,41.992,51.270,45.898,0
1542907750.246,36.621,28.320,6.348,73.730,29.297,0
1542907750.249,43.945,26.367,27.344,62.012,17.578,0
1542907750.253,31.738,24.902,44.434,93.750,32.715,0
1542907750.257,27.344,28.809,46.387,67.871,15.137,0
1542907750.261,30.273,29.785,40.039,30.273,4.883,0
1542907750.265,36.621,24.414,70.312,20.020,12.207,0
1542907750.269,30.273,29.785,41.504,29.297,-3.418,0
1542907750.273,30.273,32.715,29.297,21.973,6.836,0
1542907750.277,34.180,28.320,67.383,20.508,-14.648,0
1542907750.281,40.527,31.250,33.203,82.031,-19.531,0
1542907750.285,47.852,24.414,42.969,70.312,12.207,0
1542907750.288,34.668,20.996,66.406,53.223,-23.926,0
1542907750.292,23.926,23.926,46.875,20.020,-31.738,0
1542907750.296,34.668,27.832,25.391,6.836,-26.367,0
1542907750.300,24.902,26.855,54.199,51.270,-24.414,0
1542907750.304,23.438,28.320,53.223,94.727,-27.832,0
1542907750.308,43.945,34.180,8.789,40.039,-54.688,0
1542907750.312,29.297,23.926,70.801,-16.113,-44.434,0
1542907750.316,31.738,21.973,96.680,45.898,-46.387,0
1542907750.320,47.852,35.156,-6.836,82.031,-72.754,0
1542907750.324,37.598,27.344,3.906,80.566,-74.219,0
1542907750.328,32.715,18.555,34.180,40.039,-119.141,0
1542907750.331,39.062,22.461,7.324,37.109,-156.738,0
1542907750.335,39.551,25.391,39.062,57.617,-126.953,0
1542907750.339,23.926,18.555,79.102,23.438,-100.098,0
1542907750.343,25.391,27.832,20.020,69.336,-108.887,0
1542907750.347,30.273,29.785,14.160,101.562,-127.930,0
1542907750.351,13.672,20.508,56.152,49.316,-120.117,0
1542907750.355,17.090,21.973,33.203,48.828,-62.012,0
1542907750.359,53.711,17.090,66.406,85.449,-71.289,0
1542907750.363,73.242,19.043,84.961,92.285,-129.883,0
1542907750.367,64.453,44.434,-8.301,59.570,-122.559,0
1542907750.371,21.484,39.062,33.691,12.695,-68.359,0
1542907750.374,19.531,37.598,35.645,13.672,-29.297,0
1542907750.378,32.227,53.711,-25.879,26.367,-70.801,0
1542907750.382,32.715,51.270,5.371,76.172,-94.727,0
1542907750.386,46.875,53.711,-1.953,82.031,-70.312,0
1542907750.390,41.016,57.617,4.883,33.203,-51.758,0
1542907750.394,53.223,50.293,21.484,60.059,-38.086,0
1542907750.398,41.504,43.945,13.672,76.172,-42.480,0
1542907750.402,23.438,46.387,5.371,40.527,-27.832,0
1542907750.406,34.180,44.922,17.578,22.949,-39.062,0
1542907750.410,46.387,47.852,9.277,41.016,-61.035,0
1542907750.413,63.477,50.781,-4.883,50.781,-53.223,0
1542907750.417,44.434,39.551,26.367,17.578,-47.852,0
1542907750.421,34.180,30.762,60.059,24.902,-33.203,0
1542907750.425,54.199,38.086,29.297,97.168,-45.410,0
1542907750.429,49.316,45.410,-9.277,62.988,-37.109,0
1542907750.433,32.227,41.016,18.555,25.391,5.371,0
1542907750.437,42.480,42.969,10.254,27.832,-1.465,0
1542907750.441,44.922,42.480,-6.836,52.246,-9.766,0
1542907750.445,34.180,34.668,20.996,83.496,-9.277,0
1542907750.449,18.555,25.391,47.852,44.922,-34.180,0
1542907750.453,23.438,24.902,50.781,-4.883,-24.902,0
1542907750.456,31.250,29.785,40.527,38.086,3.418,0
1542907750.460,25.391,36.133,11.719,69.824,20.020,0
1542907750.464,22.949,33.203,33.203,53.711,16.602,0
1542907750.468,32.715,31.250,40.527,57.617,-9.277,0
1542907750.472,36.133,32.227,5.859,54.688,-7.812,0
1542907750.476,29.785,35.156,16.113,51.270,0.977,0
1542907750.480,23.926,36.621,21.973,51.270,4.395,0
1542907750.484,28.809,30.273,15.625,16.113,8.789,0
1542907750.488,38.574,27.344,17.578,28.809,17.090,0
1542907750.492,30.762,26.367,31.250,67.871,8.301,0
1542907750.496,21.973,24.902,39.062,40.527,-25.879,0
1542907750.499,20.508,26.367,28.320,30.762,7.324,0
1542907750.503,14.160,36.621,24.414,59.570,26.367,0
1542907750.507,12.207,37.109,22.949,42.969,-0.488,0
1542907750.511,14.648,31.738,25.879,43.945,-9.766,0
1542907750.515,16.113,20.996,33.691,48.828,-13.672,0
1542907750.519,26.855,20.020,27.832,22.949,0.488,0
1542907750.523,29.785,31.250,18.066,46.875,11.230,0
1542907750.527,22.461,28.809,29.785,55.664,23.438,0
1542907750.531,17.090,32.227,28.320,41.016,31.250,0
1542907750.535,22.461,27.344,26.367,45.410,21.484,0
1542907750.538,22.949,20.508,32.715,44.922,31.250,0
1542907750.542,19.043,22.949,29.297,23.926,6.348,0
1542907750.546,23.438,25.879,35.156,30.273,-6.836,0
1542907750.550,10.742,29.785,26.367,35.156,6.348,0
1542907750.554,2.930,27.832,18.555,37.598,12.695,0
1542907750.558,9.766,24.414,34.180,39.062,29.785,0
1542907750.562,7.812,26.855,31.250,26.855,15.625,0
1542907750.566,13.184,29.785,35.645,18.066,4.883,0
1542907750.570,16.602,33.203,35.645,35.156,15.625,0
1542907750.574,19.043,31.250,22.949,45.410,22.461,0
1542907750.578,23.926,30.762,25.879,37.598,28.809,0
1542907750.581,19.531,30.273,37.109,36.133,32.227,0
1542907750.585,8.789,24.414,41.992,7.324,40.039,0
1542907750.589,15.137,30.273,28.320,20.508,27.832,0
1542907750.593,25.391,31.738,20.996,51.270,10.254,0
1542907750.597,11.719,30.273,23.438,28.809,21.973,0
1542907750.601,13.672,35.156,15.137,30.762,13.672,0
1542907750.605,16.113,31.250,27.344,31.738,-5.859,0
1542907750.609,16.602,29.785,38.574,42.480,0.000,0
1542907750.613,29.785,32.715,24.902,20.020,18.066,0
1542907750.617,21.973,30.273,27.344,27.344,19.043,0
1542907750.621,10.254,28.809,32.715,52.246,7.812,0
1542907750.624,20.508,30.273,27.832,43.945,5.859,0
1542907750.628,30.762,33.203,23.438,45.410,6.836,0
1542907750.632,36.621,35.645,27.832,42.969,3.906,0
1542907750.636,21.484,35.156,27.832,33.203,4.883,0
1542907750.640,7.812,38.574,20.996,41.504,12.695,0
1542907750.644,19.531,40.527,32.227,51.758,1.465,0
1542907750.648,19.043,34.180,31.250,35.156,-35.645,0
1542907750.652,11.230,31.738,25.391,27.832,-15.137,0
1542907750.656,8.301,32.227,25.879,38.086,29.297,0
1542907750.660,12.695,31.250,32.715,32.227,-11.719,0
1542907750.663,18.555,34.668,25.879,12.695,-18.066,0
1542907750.667,24.902,40.039,17.090,20.020,0.488,0
1542907750.671,14.648,38.086,32.227,27.344,-6.836,0
1542907750.675,-0.488,36.133,29.785,28.809,-7.324,0
1542907750.679,10.254,36.133,23.926,37.598,-24.902,0
1542907750.683,20.020,26.367,24.414,23.438,-26.855,0
1542907750.687,22.949,24.414,23.438,23.926,-39.062,0
1542907750.691,23.438,26.855,28.809,36.621,-63.965,0
1542907750.695,33.203,26.855,23.438,41.992,-63.477,0
1542907750.699,31.738,30.273,23.438,34.668,-19.531,0
1542907750.703,21.484,25.391,29.297,18.066,-16.113,0
1542907750.706,18.555,24.902,28.320,24.902,-32.227,0
1542907750.710,2.930,30.762,32.715,28.320,-42.969,0
1542907750.714,3.906,28.320,30.762,24.902,-37.598,0
1542907750.718,5.371,30.762,26.855,34.180,4.395,0
1542907750.722,10.254,30.762,35.645,34.180,-6.836,0
1542907750.726,17.090,25.879,29.785,16.113,-21.973,0
1542907750.730,19.043,24.902,23.926,20.996,-41.992,0
1542907750.734,20.508,25.879,21.973,30.762,-20.508,0
1542907750.738,26.367,27.832,19.531,19.531,-8.301,0
1542907750.742,19.531,33.203,30.273,26.367,-28.809,0
1542907750.746,11.230,39.551,32.715,36.133,-32.715,0
1542907750.749,25.391,28.320,31.250,35.156,-22.949,0
1542907750.753,24.902,25.879,30.273,30.273,-5.371,0
1542907750.757,21.484,32.227,29.297,37.598,14.160,0
1542907750.761,32.715,31.738,33.203,34.668,24.414,0
1542907750.765,20.020,29.297,37.109,20.020,4.395,0
1542907750.769,12.695,29.785,30.273,15.625,-10.254,0
1542907750.773,13.672,32.227,26.855,33.203,-13.184,0
1542907750.777,2.441,30.762,35.156,45.410,-25.391,0
1542907750.781,0.977,29.785,34.668,32.715,0.000,0
1542907750.785,13.184,31.738,29.297,26.855,-11.230,0
1542907750.788,25.391,32.715,26.367,37.598,-19.531,0
1542907750.792,23.926,25.391,28.320,34.180,13.184,0
1542907750.796,21.484,26.367,33.691,37.109,-8.301,0
1542907750.800,34.180,35.645,39.062,40.527,-38.574,0
1542907750.804,20.508,30.762,41.992,26.367,-7.812,0
1542907750.808,17.578,20.508,33.203,20.508,-8.301,0
1542907750.812,44.434,20.996,18.555,39.062,-33.691,0
1542907750.816,60.547,27.832,19.531,67.871,-26.367,0
1542907750.820,52.246,34.180,29.297,61.035,-15.625,0
1542907750.824,-23.926,24.414,40.039,-8.789,10.742,0
1542907750.828,-74.707,20.508,32.715,-69.336,-31.738,0
1542907750.831,-62.988,27.832,24.414,-64.941,-38.086,0
1542907750.835,-63.477,18.555,22.949,-59.570,-4.395,0
1542907750.839,-73.730,9.277,29.297,-55.664,1.953,0
1542907750.843,-73.730,12.695,31.738,-67.871,-5.859,0
1542907750.847,-71.777,14.648,26.855,-70.312,-26.367,0
1542907750.851,-62.988,18.066,25.879,-39.062,-19.043,0
1542907750.855,-58.594,14.648,31.250,-41.992,-5.859,0
1542907750.859,-49.805,14.648,30.273,-48.340,17.090,0
1542907750.863,-42.969,21.484,23.926,-36.133,-3.906,0
1542907750.867,-41.992,18.555,30.273,-27.344,-8.301,0
1542907750.871,-34.180,14.160,33.203,-28.809,5.859,0
1542907750.874,-30.273,14.648,27.832,-20.020,-34.180,0
1542907750.878,-35.156,23.438,29.297,-20.020,-41.504,0
1542907750.882,-31.250,24.414,32.227,-19.531,-20.996,0
1542907750.886,-26.367,18.066,35.156,-5.859,13.184,0
1542907750.890,-24.414,17.090,34.180,-1.465,15.137,0
1542907750.894,-20.020,17.578,28.320,-7.324,-4.883,0
1542907750.898,-17.090,18.555,30.762,-9.277,0.000,0
1542907750.902,-10.742,18.066,33.691,-2.930,8.789,0
1542907750.906,-20.020,7.812,31.738,-2.441,8.789,0
1542907750.910,-21.484,13.184,30.273,2.930,2.930,0
1542907750.913,-12.207,19.531,31.738,2.441,-27.832,0
1542907750.917,-1.465,26.367,27.832,1.465,-61.523,0
1542907750.921,2.441,29.785,26.367,7.324,-62.012,0
1542907750.925,-0.488,20.508,25.879,20.020,-19.531,0
1542907750.929,17.578,21.973,24.902,18.555,-20.508,0
1542907750.933,21.484,22.949,31.250,7.324,-52.734,0
1542907750.937,2.930,23.438,25.879,23.926,-19.531,0
1542907750.941,5.371,21.484,19.531,23.926,-24.902,0
1542907750.945,21.484,28.320,32.227,24.902,-52.734,0
1542907750.949,25.879,34.668,34.180,41.016,-27.832,0
1542907750.953,23.926,25.879,26.855,37.109,-6.348,0
1542907750.956,26.367,23.438,31.738,24.414,-30.273,0
1542907750.960,23.438,24.414,36.133,26.855,-59.082,0
1542907750.964,20.020,23.926,36.133,32.227,-55.176,0
1542907750.968,13.184,20.996,36.133,31.250,-43.457,0
1542907750.972,7.812,23.438,32.227,27.344,-45.898,0
1542907750.976,15.625,27.344,30.762,20.508,-36.621,0
1542907750.980,21.484,29.785,30.762,9.277,-0.488,0
1542907750.984,22.949,29.785,27.344,13.672,2.930,0
1542907750.988,19.531,22.949,31.250,5.859,-8.789,0
1542907750.992,13.184,19.043,32.715,3.906,-9.766,0
1542907750.996,12.695,26.367,29.297,30.762,-34.180,0
1542907750.999,25.879,29.785,29.297,33.203,-37.109,0
1542907751.003,26.367,25.391,26.367,27.832,-10.254,0
1542907751.007,28.320,22.949,25.879,29.785,-3.906,0
1542907751.011,25.391,20.996,30.762,29.297,-7.812,0
1542907751.015,12.695,18.555,34.668,25.879,-18.066,0
1542907751.019,19.043,22.949,35.645,11.230,0.488,0
1542907751.023,19.531,27.832,35.645,6.836,1.953,0
1542907751.027,14.160,27.832,31.250,15.625,-29.297,0
1542907751.031,18.555,27.344,25.879,29.785,-20.996,0
1542907751.035,26.855,24.414,29.297,34.668,-18.066,0
1542907751.038,25.879,33.203,28.809,26.855,-6.836,0
1542907751.042,25.879,30.273,28.320,30.273,6.836,0
1542907751.046,26.367,23.438,30.273,32.227,-9.277,0
1542907751.050,52.734,26.855,22.949,48.340,-8.301,0
1542907751.054,58.594,25.879,27.344,52.246,-0.977,0
1542907751.058,12.207,20.996,41.016,23.926,-12.695,0
1542907751.062,4.395,19.531,41.504,14.160,-12.695,0
1542907751.066,21.484,20.996,42.969,22.461,-33.691,0
1542907751.070,12.695,17.090,41.016,20.996,-17.578,0
1542907751.074,12.695,14.160,40.039,27.344,28.320,0
1542907751.078,18.555,18.555,42.969,40.039,3.418,0
1542907751.081,25.391,19.043,39.062,39.551,-27.344,0
1542907751.085,30.273,14.160,39.551,34.668,-28.320,0
1542907751.089,22.461,18.066,39.062,36.621,-19.531,0
1542907751.093,25.879,21.973,40.527,36.133,-23.438,0
1542907751.097,28.320,25.391,38.086,25.879,-44.922,0
1542907751.101,20.996,18.555,36.133,22.949,-68.359,0
1542907751.105,16.113,14.160,35.156,29.785,-48.340,0
1542907751.109,17.090,16.113,30.762,24.414,-22.949,0
1542907751.113,24.414,11.230,29.785,10.254,-54.688,0
1542907751.117,20.996,19.531,25.879,13.184,-50.293,0
1542907751.121,13.672,20.996,31.250,22.949,-7.812,0
1542907751.124,18.555,15.625,47.363,17.578,-25.391,0
1542907751.128,15.625,20.508,39.551,19.043,-32.227,0
1542907751.132,13.184,22.949,21.484,26.367,-3.418,0
1542907751.136,20.508,20.020,26.855,26.367,1.465,0
1542907751.140,26.367,23.926,30.762,29.785,-14.648,0
1542907751.144,25.879,27.344,28.809,41.016,-38.574,0
1542907751.148,23.438,25.391,31.250,31.250,-58.594,0
1542907751.152,22.949,25.391,31.250,20.020,-27.832,0
1542907751.156,24.902,31.738,28.809,23.926,-35.645,0
1542907751.160,25.879,30.273,31.250,27.344,-51.758,0
1542907751.163,22.949,23.926,30.273,33.203,-26.367,0
1542907751.167,19.043,29.785,30.762,33.203,-12.207,0
1542907751.171,26.367,29.785,33.203,33.203,14.648,0
1542907751.175,29.785,18.555,36.133,35.156,1.953,0
1542907751.179,35.645,23.438,36.133,31.738,-33.691,0
1542907751.183,31.738,27.832,37.109,31.738,-42.969,0
1542907751.187,26.367,24.902,37.598,37.598,-40.527,0
1542907751.191,28.320,25.391,35.645,31.738,-23.438,0
1542907751.195,25.879,26.855,33.203,25.391,-45.410,0
1542907751.199,26.855,25.879,28.809,33.203,-48.340,0
1542907751.203,22.461,24.902,29.297,34.180,-18.555,0
1542907751.206,18.555,25.879,34.180,37.598,-25.879,0
1542907751.210,17.578,29.785,28.320,21.484,-19.531,0
1542907751.214,21.973,32.715,27.344,13.184,-10.742,0
1542907751.218,24.414,27.832,33.691,22.461,-32.715,0
1542907751.222,15.137,19.043,33.691,10.254,-35.156,0
1542907751.226,15.137,26.367,30.762,15.625,-13.184,0
1542907751.230,19.531,32.715,31.250,27.832,-41.504,0
1542907751.234,20.996,24.902,31.738,25.879,-58.594,0
1542907751.238,20.508,24.902,28.320,21.484,-40.527,0
1542907751.242,14.648,23.926,29.785,25.391,-21.973,0
1542907751.246,14.648,31.738,30.762,20.508,-35.156,0
1542907751.249,20.020,36.621,30.273,26.855,-82.520,0
1542907751.253,21.484,32.227,30.762,34.180,-61.035,0
1542907751.257,22.949,35.645,31.250,24.902,-19.043,0
1542907751.261,32.227,34.668,30.762,24.414,-41.992,0
1542907751.265,18.066,22.461,30.273,24.414,-42.480,0
1542907751.269,11.230,27.832,30.762,20.508,-26.367,0
1542907751.273,21.484,33.691,33.203,27.832,-38.086,0
1542907751.277,22.461,19.043,33.203,30.273,-52.246,0
1542907751.281,26.367,22.949,36.621,25.879,-51.270,0
1542907751.285,19.043,36.133,39.551,29.785,-47.852,0
1542907751.288,13.672,36.621,32.227,32.715,-28.320,0
1542907751.292,27.832,33.203,31.250,20.996,-66.406,0
1542907751.296,28.320,29.297,29.785,17.090,-77.148,0
1542907751.300,20.508,32.227,33.203,22.949,-34.668,0
1542907751.304,20.996,31.738,33.203,23.438,-23.926,0
1542907751.308,22.461,25.391,28.809,22.949,-39.551,0
1542907751.312,19.531,25.879,29.785,24.902,-44.922,0
1542907751.316,29.785,29.297,25.879,40.527,-26.367,0
1542907751.320,48.828,36.621,26.367,49.805,-39.062,0
1542907751.324,23.926,34.180,34.180,20.996,-60.059,0
1542907751.328,-24.902,30.762,37.598,-17.578,-73.730,0
1542907751.331,-27.344,27.344,41.504,-25.391,-75.684,0
1542907751.335,-14.648,22.949,44.922,-8.301,-50.781,0
1542907751.339,-7.812,23.438,43.457,-3.906,-25.879,0
1542907751.343,-3.418,24.902,41.016,-5.371,-26.855,0
1542907751.347,-11.230,23.438,45.410,-2.930,-52.246,0
1542907751.351,-8.789,15.137,49.805,13.672,-43.945,0
1542907751.355,-9.766,10.254,47.363,18.555,-13.184,0
1542907751.359,-16.602,9.766,44.434,8.301,-3.418,0
1542907751.363,-8.301,17.090,43.945,15.137,-25.391,0
1542907751.367,4.395,21.484,42.969,17.090,-31.738,0
1542907751.371,3.418,22.461,38.574,10.742,-16.602,0
1542907751.374,-6.348,20.996,38.086,7.324,-21.973,0
1542907751.378,-3.418,19.531,36.133,9.277,-49.805,0
1542907751.382,-1.465,16.602,35.156,16.113,-64.453,0
1542907751.386,-3.906,16.113,39.551,17.090,-61.523,0
1542907751.390,0.000,22.461,36.133,19.043,-27.344,0
1542907751.394,-5.859,24.902,30.273,12.207,2.930,0
1542907751.398,-3.906,18.066,33.203,17.578,-26.855,0
1542907751.402,3.418,16.113,34.668,26.367,-42.480,0
1542907751.406,18.066,20.020,30.273,30.762,0.977,0
1542907751.410,16.602,16.602,32.227,22.461,-6.836,0
1542907751.413,0.488,17.090,31.738,20.996,-40.527,0
1542907751.417,15.137,20.508,35.156,30.762,-17.578,0
1542907751.421,12.695,25.879,40.039,32.227,-24.414,0
1542907751.425,6.836,17.090,37.598,32.227,-16.113,0
1542907751.429,20.508,17.090,32.715,31.250,-20.996,0
1542907751.433,19.043,22.949,30.762,28.809,-26.367,0
1542907751.437,21.484,22.461,33.203,30.273,-2.441,0
1542907751.441,21.973,28.320,37.598,28.320,0.488,0
1542907751.445,13.184,26.367,37.109,28.809,-29.785,0
1542907751.449,21.973,15.625,32.227,32.227,-34.668,0
1542907751.453,32.227,18.555,33.203,38.574,20.996,0
1542907751.456,22.461,19.531,35.645,37.598,41.016,0
1542907751.460,10.742,20.996,32.227,34.668,-14.160,0
1542907751.464,15.625,21.973,28.809,34.180,-25.391,0
1542907751.468,26.855,27.832,32.227,29.297,-13.184,0
1542907751.472,26.855,25.391,35.645,26.855,-22.949,0
1542907751.476,24.902,21.484,32.715,25.879,-9.766,0
1542907751.480,25.879,27.344,30.273,35.645,-32.227,0
1542907751.484,23.926,33.203,30.762,48.828,-47.852,0
1542907751.488,20.508,33.691,34.180,38.086,-52.734,0
1542907751.492,28.320,30.762,38.086,29.297,-63.965,0
1542907751.496,25.391,38.574,37.109,43.457,-49.316,0
1542907751.499,21.973,40.039,31.738,32.227,-61.523,0
1542907751.503,28.320,22.461,25.391,18.066,-77.637,0
1542907751.507,41.016,19.043,30.762,41.016,-45.898,0
1542907751.511,51.270,32.227,30.273,64.941,-36.621,0
1542907751.515,31.250,38.086,18.066,46.875,-50.781,0
1542907751.519,11.230,31.738,21.484,19.531,-47.363,0
1542907751.523,10.254,28.320,25.879,15.137,-51.270,0
1542907751.527,19.043,36.621,15.137,12.207,-45.410,0
1542907751.531,37.109,42.969,8.301,10.254,-54.199,0
1542907751.535,35.645,47.363,9.277,12.207,-65.430,0
1542907751.538,32.715,51.758,3.418,20.508,-39.062,0
1542907751.542,38.574,49.316,0.000,27.832,-24.902,0
1542907751.546,43.457,42.969,2.441,28.809,-50.781,0
1542907751.550,41.992,47.363,3.906,27.344,-64.453,0
1542907751.554,50.293,45.410,4.395,30.273,-40.527,0
1542907751.558,41.016,42.480,1.953,35.645,-45.898,0
1542907751.562,38.086,49.805,5.859,31.738,-63.965,0
1542907751.566,39.062,41.504,8.301,39.062,-45.898,0
1542907751.570,31.250,39.551,5.371,36.621,-33.691,0
1542907751.574,42.969,47.852,13.184,27.832,-43.945,0
1542907751.578,41.992,47.852,15.137,38.086,-83.008,0
1542907751.581,39.551,41.992,10.254,46.387,-55.664,0
1542907751.585,49.316,38.086,12.695,50.781,0.977,0
1542907751.589,50.781,36.133,14.648,44.922,-48.340,0
1542907751.593,44.922,35.156,16.602,31.250,-65.918,0
1542907751.597,48.828,38.086,17.578,45.898,-26.855,0
1542907751.601,58.594,39.062,19.531,54.688,-48.828,0
1542907751.605,51.758,33.203,21.484,45.898,-46.387,0
1542907751.609,34.668,32.227,18.555,43.457,-26.855,0
1542907751.613,41.504,37.598,16.602,38.574,-67.871,0
1542907751.617,53.223,41.992,20.020,39.551,-44.434,0
1542907751.621,51.758,34.180,21.973,41.992,-17.578,0
1542907751.624,46.387,27.344,20.020,31.250,-62.012,0
1542907751.628,44.434,31.250,22.461,30.273,-63.965,0
1542907751.632,40.039,32.227,20.508,35.156,-34.668,0
1542907751.636,36.133,34.180,15.137,39.062,-19.043,0
1542907751.640,42.480,39.062,16.113,36.133,-47.852,0
1542907751.644,41.016,40.039,20.508,29.785,-60.059,0
1542907751.648,38.574,41.504,22.949,34.668,-56.152,0
1542907751.652,37.109,37.598,20.020,35.156,-56.641,0
1542907751.656,38.574,28.320,23.438,41.016,-21.973,0
1542907751.660,31.738,25.391,25.391,38.574,-34.180,0
1542907751.663,31.250,32.715,25.879,33.691,-83.008,0
1542907751.667,41.992,39.062,25.391,35.645,-76.172,0
1542907751.671,43.457,33.203,25.391,31.738,-31.250,0
1542907751.675,33.691,28.809,28.809,34.180,-6.348,0
1542907751.679,25.879,33.691,32.715,36.621,-48.340,0
1542907751.683,15.137,33.203,31.250,27.832,-60.059,0
1542907751.687,25.879,33.203,24.902,28.320,-47.363,0
1542907751.691,35.645,33.203,26.855,25.391,-63.477,0
1542907751.695,18.066,27.344,30.273,27.344,-72.754,0
1542907751.699,20.508,34.668,26.855,35.645,-57.617,0
1542907751.703,33.203,33.691,25.391,32.715,-50.781,0
1542907751.706,27.344,27.344,27.832,36.133,-50.293,0
1542907751.710,23.926,31.250,26.855,35.645,-71.289,0
1542907751.714,21.973,26.855,23.438,26.855,-91.309,0
1542907751.718,23.438,30.762,25.391,40.039,-73.242,0
1542907751.722,27.344,33.203,28.809,51.758,-38.574,0
1542907751.726,19.531,27.344,28.320,41.992,-39.551,0
1542907751.730,24.902,26.367,25.391,26.855,-61.035,0
1542907751.734,26.367,20.508,28.320,23.438,-56.641,0
1542907751.738,14.160,24.414,32.227,28.809,-40.039,0
1542907751.742,21.973,27.344,30.762,31.738,-44.922,0
1542907751.746,26.367,29.297,30.762,41.504,-66.406,0
1542907751.749,25.879,41.504,34.668,49.316,-79.102,0
1542907751.753,29.785,36.621,34.668,43.457,-61.035,0
1542907751.757,32.715,27.832,34.180,39.551,-73.242,0
1542907751.761,31.738,26.367,31.250,37.109,-86.426,0
1542907751.765,30.762,25.879,22.461,32.227,-78.613,0
1542907751.769,29.297,27.344,22.949,35.645,-88.867,0
1542907751.773,20.508,30.762,23.438,35.156,-90.332,0
1542907751.777,38.574,28.320,23.438,31.738,-94.238,0
1542907751.781,37.598,26.367,24.414,27.832,-107.422,0
1542907751.785,33.203,33.691,27.344,34.180,-109.863,0
1542907751.788,44.434,31.738,34.668,58.105,-98.633,0
1542907751.792,21.973,23.926,28.809,48.828,-97.656,0
1542907751.796,4.395,29.785,18.066,18.066,-120.117,0
1542907751.800,12.207,36.621,14.648,8.789,-146.973,0
1542907751.804,16.113,35.156,13.672,6.836,-133.789,0
1542907751.808,9.277,32.715,20.020,7.324,-107.910,0
1542907751.812,16.113,32.227,19.043,16.113,-120.117,0
1542907751.816,18.555,27.832,18.066,31.250,-138.672,0
1542907751.820,15.625,33.203,20.996,29.297,-127.930,0
1542907751.824,17.090,34.180,27.832,23.926,-116.699,0
1542907751.828,29.297,36.133,30.762,35.156,-111.328,0
1542907751.831,26.367,36.133,31.250,41.016,-122.559,0
1542907751.835,27.832,26.855,31.738,35.156,-124.023,0
1542907751.839,30.273,22.949,27.344,30.762,-102.051,0
1542907751.843,14.648,25.391,26.367,34.668,-113.281,0
1542907751.847,19.043,33.691,28.809,36.621,-157.227,0
1542907751.851,38.574,39.062,30.762,35.645,-147.461,0
1542907751.855,34.180,35.156,27.832,38.574,-99.609,0
1542907751.859,21.484,26.367,29.297,36.621,-95.703,0
1542907751.863,28.320,31.738,28.320,33.203,-138.184,0
1542907751.867,25.879,40.527,30.273,32.227,-138.184,0
1542907751.871,21.973,35.645,30.762,31.738,-84.961,0
1542907751.874,28.320,38.086,25.879,31.250,-93.262,0
1542907751.878,33.203,36.133,29.297,36.621,-130.371,0
1542907751.882,23.926,24.902,33.203,38.086,-123.535,0
1542907751.886,19.043,26.367,28.809,28.809,-96.680,0
1542907751.890,28.320,29.785,26.367,25.391,-61.035,0
1542907751.894,20.020,35.156,28.320,26.367,-80.566,0
1542907751.898,13.672,46.387,26.855,24.414,-110.352,0
1542907751.902,21.973,47.852,27.344,32.227,-88.867,0
1542907751.906,29.297,37.598,28.320,35.156,-83.984,0
1542907751.910,22.461,26.367,25.391,25.879,-111.816,0
1542907751.913,23.438,27.832,21.973,28.320,-109.863,0
1542907751.917,25.879,41.016,24.414,25.391,-74.219,0
1542907751.921,19.531,37.109,27.832,13.184,-83.496,0
1542907751.925,15.625,30.762,22.461,5.859,-95.215,0
1542907751.929,9.277,33.203,17.578,9.766,-85.938,0
1542907751.933,9.766,29.297,18.066,18.066,-79.590,0
1542907751.937,18.066,33.691,23.926,16.602,-38.086,0
1542907751.941,18.555,43.457,27.832,15.137,-16.113,0
1542907751.945,10.742,47.363,24.414,12.207,-44.922,0
1542907751.949,-7.812,39.062,25.391,9.277,-39.062,0
1542907751.953,-4.395,34.668,26.367,2.441,-38.086,0
1542907751.956,-3.906,36.133,26.855,5.371,-41.016,0
1542907751.960,-1.953,41.504,31.250,3.418,-38.086,0
1542907751.964,-6.348,44.922,28.320,-5.859,-34.668,0
1542907751.968,-13.184,42.480,32.227,-7.812,-51.270,0
1542907751.972,-8.301,44.434,35.156,-9.766,-28.320,0
1542907751.976,-19.531,49.316,28.320,-18.066,-2.441,0
1542907751.980,-40.527,50.293,25.879,-36.621,-51.270,0
1542907751.984,-52.246,51.758,24.414,-52.246,-40.527,0
1542907751.988,-69.824,58.594,25.879,-68.359,-17.578,0
1542907751.992,-84.473,68.359,26.855,-76.172,-26.855,0
1542907751.996,-91.797,71.777,26.855,-84.961,-52.734,0
1542907751.999,-110.352,66.406,24.902,-111.816,-75.195,0
1542907752.003,-128.906,75.684,18.066,-133.301,-16.113,0
1542907752.007,-141.602,86.914,8.301,-148.926,8.789,0
1542907752.011,-165.039,87.891,1.465,-178.711,-19.043,0
1542907752.015,-198.730,82.520,-5.859,-214.844,-2.930,0
1542907752.019,-227.051,80.566,-4.883,-241.211,21.484,0
1542907752.023,-234.375,82.031,-4.395,-239.746,20.508,0
1542907752.027,-240.723,85.938,-11.719,-244.629,8.301,0
1542907752.031,-254.395,86.426,-11.230,-255.371,-0.977,0
1542907752.035,-250.977,76.172,-8.301,-245.117,-6.836,0
1542907752.038,-248.535,69.824,-6.348,-234.863,-11.719,0
1542907752.042,-232.422,70.801,-3.906,-236.328,-25.879,0
1542907752.046,-223.633,71.777,-5.371,-248.047,-18.066,0
1542907752.050,-218.262,66.895,-5.371,-236.816,0.977,0
1542907752.054,-207.520,67.383,2.441,-218.262,20.508,0
1542907752.058,-201.660,62.988,6.348,-207.520,28.320,0
1542907752.062,-193.359,59.570,9.277,-192.383,8.301,0
1542907752.066,-168.945,57.617,14.648,-169.922,-1.465,0
1542907752.070,-136.719,54.199,18.555,-142.578,13.184,0
1542907752.074,-127.930,50.293,29.297,-113.770,30.762,0
1542907752.078,-113.281,39.062,32.715,-90.332,-1.953,0
1542907752.081,-88.867,29.785,38.086,-78.613,-23.926,0
1542907752.085,-71.777,27.832,46.875,-61.035,-18.066,0
1542907752.089,-49.316,25.879,47.363,-29.297,-22.949,0
1542907752.093,-26.367,18.555,51.758,5.371,-22.949,0
1542907752.097,-3.418,8.789,55.176,24.902,-52.734,0
1542907752.101,10.254,0.000,55.664,29.297,-46.387,0
1542907752.105,23.438,-9.277,57.129,46.387,-25.391,0
1542907752.109,48.828,-9.766,61.523,73.242,-41.016,0
1542907752.113,63.965,0.488,60.059,78.125,-53.223,0
1542907752.117,62.500,-1.953,59.570,82.520,-44.434,0
1542907752.121,74.219,-13.184,61.523,94.238,-35.156,0
1542907752.124,82.520,-8.301,56.641,103.027,-34.180,0
1542907752.128,84.473,-4.883,59.082,102.539,-36.621,0
1542907752.132,90.332,4.883,54.688,102.539,-54.688,0
1542907752.136,96.191,10.742,46.387,110.840,-57.617,0
1542907752.140,97.168,1.465,46.387,122.070,-56.152,0
1542907752.144,111.328,3.906,43.457,126.465,-85.938,0
1542907752.148,118.652,9.277,44.434,118.652,-116.211,0
1542907752.152,111.328,3.418,35.645,107.910,-82.520,0
1542907752.156,111.328,5.371,31.250,109.375,-41.504,0
1542907752.160,109.375,8.789,41.016,118.652,-47.363,0
1542907752.163,100.586,0.488,40.527,114.258,-75.684,0
1542907752.167,108.887,1.953,38.086,122.070,-51.270,0
1542907752.171,102.539,4.395,41.992,127.930,-41.504,0
1542907752.175,88.867,6.348,41.016,118.164,-62.012,0
1542907752.179,98.145,13.184,36.621,111.328,-54.199,0
1542907752.183,105.469,6.348,36.621,109.863,-56.641,0
1542907752.187,115.723,3.418,38.086,105.957,-52.734,0
1542907752.191,111.816,10.742,41.504,105.469,-55.664,0
1542907752.195,106.934,9.277,41.016,110.840,-82.520,0
1542907752.199,98.145,9.277,35.645,107.422,-57.617,0
1542907752.203,101.074,19.531,35.156,107.422,-30.762,0
1542907752.206,102.051,19.043,37.109,110.352,-49.316,0
1542907752.210,88.867,15.625,35.645,98.145,-48.828,0
1542907752.214,86.914,20.020,30.273,86.914,-36.621,0
1542907752.218,96.191,15.137,34.180,98.145,-70.801,0
1542907752.222,95.215,10.742,37.109,97.168,-69.336,0
1542907752.226,79.102,15.625,36.133,99.609,-55.176,0
1542907752.230,88.379,20.020,36.621,102.539,-31.250,0
1542907752.234,93.750,24.902,36.621,104.980,-20.020,0
1542907752.238,90.332,18.555,36.133,98.145,-46.387,0
1542907752.242,89.844,15.137,33.691,97.656,-38.574,0
1542907752.246,79.102,13.184,35.156,107.422,-32.227,0
1542907752.249,76.172,9.766,35.156,101.074,-18.555,0
1542907752.253,84.473,15.137,38.086,93.750,0.977,0
1542907752.257,88.867,18.555,40.039,94.238,20.020,0
1542907752.261,85.449,16.602,39.062,96.680,12.207,0
1542907752.265,82.031,17.578,39.062,89.355,2.441,0
1542907752.269,76.660,17.578,36.621,94.238,28.809,0
1542907752.273,70.801,17.578,37.109,91.797,59.082,0
1542907752.277,81.543,20.996,33.691,92.285,38.574,0
1542907752.281,85.938,20.020,32.715,91.797,-10.742,0
1542907752.285,90.820,22.949,39.551,87.402,24.902,0
1542907752.288,85.938,29.297,40.039,86.914,60.059,0
1542907752.292,81.055,21.484,35.645,82.520,31.250,0
1542907752.296,78.613,19.043,35.645,95.215,36.133,0
1542907752.300,76.172,25.391,37.598,102.539,71.289,0
1542907752.304,82.031,21.973,34.180,98.145,82.520,0
1542907752.308,78.125,22.949,32.227,88.379,33.691,0
1542907752.312,73.730,22.461,31.738,82.031,-2.441,0
1542907752.316,71.289,16.113,29.297,84.961,31.250,0
1542907752.320,73.730,18.555,28.320,78.613,62.500,0
1542907752.324,72.754,25.879,28.320,76.660,46.875,0
1542907752.328,76.660,27.344,28.320,79.102,19.531,0
1542907752.331,68.359,26.855,25.879,73.730,6.348,0
1542907752.335,62.988,24.414,24.414,79.102,20.996,0
1542907752.339,69.824,23.926,24.414,74.219,31.250,0
1542907752.343,61.035,21.973,26.367,69.824,35.645,0
1542907752.347,57.617,20.508,25.391,78.125,28.809,0
1542907752.351,58.594,27.832,22.949,75.195,20.996,0
1542907752.355,62.012,21.973,28.809,66.895,34.180,0
1542907752.359,71.777,15.137,35.645,68.848,64.941,0
1542907752.363,71.777,20.020,35.156,68.848,48.340,0
1542907752.367,67.871,22.461,31.738,76.172,27.832,0
1542907752.371,68.848,20.508,25.391,74.219,32.227,0
1542907752.374,64.941,21.973,24.414,65.918,20.508,0
1542907752.378,56.152,23.926,25.391,67.383,23.438,0
1542907752.382,62.012,25.879,28.320,65.918,30.762,0
1542907752.386,54.688,23.438,32.715,72.754,60.547,0
1542907752.390,46.387,22.949,32.715,70.312,65.430,0
1542907752.394,60.059,30.273,32.715,56.152,76.172,0
1542907752.398,58.105,27.344,30.273,60.059,69.824,0
1542907752.402,49.805,20.508,25.391,62.012,52.734,0
1542907752.406,45.410,21.484,24.414,57.129,80.566,0
1542907752.410,42.969,23.438,23.926,45.410,78.125,0
1542907752.413,42.969,30.762,22.949,47.363,48.340,0
1542907752.417,47.363,34.668,24.902,48.340,28.809,0
1542907752.421,46.387,31.250,25.879,46.387,12.207,0
1542907752.425,50.781,32.227,21.484,49.316,24.414,0
1542907752.429,48.340,29.297,19.043,51.758,49.805,0
1542907752.433,37.598,23.438,22.949,46.387,63.965,0
1542907752.437,39.062,26.367,25.391,42.480,76.172,0
1542907752.441,39.551,29.785,25.879,51.270,74.219,0
1542907752.445,41.504,28.320,24.902,47.363,40.039,0
1542907752.449,45.410,25.391,24.414,45.410,16.113,0
1542907752.453,40.527,32.227,26.855,52.246,38.086,0
1542907752.456,25.879,34.180,24.902,44.922,37.109,0
1542907752.460,23.438,20.996,21.973,36.621,10.254,0
1542907752.464,28.809,18.555,22.461,42.969,-6.836,0
1542907752.468,29.297,30.762,24.902,38.574,30.762,0
1542907752.472,39.551,28.320,26.855,40.039,44.922,0
1542907752.476,42.480,20.508,31.250,47.852,20.508,0
1542907752.480,40.039,26.367,29.785,53.711,18.066,0
1542907752.484,39.551,26.367,27.832,57.129,16.113,0
1542907752.488,39.551,25.391,27.832,45.410,9.277,0
1542907752.492,38.574,24.902,27.344,44.434,0.977,0
1542907752.496,33.691,22.949,29.785,45.410,7.324,0
1542907752.499,35.645,22.461,29.785,47.852,-3.906,0
1542907752.503,38.574,28.809,31.250,52.246,23.438,0
1542907752.507,36.621,28.809,29.785,37.109,35.645,0
1542907752.511,29.785,21.484,24.902,43.945,-8.301,0
1542907752.515,32.227,22.461,28.809,51.758,-28.809,0
1542907752.519,38.086,26.855,27.832,38.574,3.906,0
1542907752.523,34.668,27.344,23.438,29.785,3.418,0
1542907752.527,40.039,24.414,30.762,38.574,-37.598,0
1542907752.531,36.621,26.367,33.203,37.598,-28.809,0
1542907752.535,41.992,28.809,32.227,35.156,0.000,0
1542907752.538,55.176,25.879,27.344,51.758,-7.324,0
1542907752.542,70.312,30.273,27.344,71.777,-4.883,0
1542907752.546,59.082,31.250,35.156,70.801,-17.578,0
1542907752.550,6.836,19.531,44.434,38.086,-27.344,0
1542907752.554,3.906,13.184,47.363,24.902,-1.953,0
1542907752.558,20.996,11.719,44.434,33.691,4.883,0
1542907752.562,6.836,8.301,42.480,35.156,-5.859,0
1542907752.566,9.277,7.324,42.480,36.621,-64.941,0
1542907752.570,23.926,10.742,44.434,36.621,-78.613,0
1542907752.574,27.832,19.531,42.969,36.133,-51.270,0
1542907752.578,25.391,22.949,43.945,34.668,-47.363,0
1542907752.581,32.227,15.625,43.457,44.434,-27.832,0
1542907752.585,32.715,20.996,40.527,41.992,-25.391,0
1542907752.589,25.879,21.973,42.480,40.527,-3.906,0
1542907752.593,20.508,20.996,44.434,49.805,0.000,0
1542907752.597,35.156,24.902,44.922,49.805,-41.016,0
1542907752.601,42.480,26.367,41.992,48.340,-25.391,0
1542907752.605,36.133,24.902,42.480,51.270,3.906,0
1542907752.609,39.062,24.902,43.945,57.129,32.227,0
1542907752.613,37.109,28.320,37.109,48.828,11.230,0
1542907752.617,36.621,25.391,37.109,35.645,-4.395,0
1542907752.621,30.273,22.461,41.016,41.016,37.598,0
1542907752.624,23.926,24.414,38.086,38.574,39.062,0
1542907752.628,34.668,30.762,34.668,38.574,12.695,0
1542907752.632,33.691,27.832,36.133,38.574,25.391,0
1542907752.636,22.949,18.066,34.668,44.922,65.430,0
1542907752.640,18.555,15.625,32.715,42.969,82.031,0
1542907752.644,19.043,20.020,29.785,29.297,72.266,0
1542907752.648,22.461,17.578,31.250,28.320,47.852,0
1542907752.652,19.531,23.926,35.156,29.785,63.477,0
1542907752.656,18.066,39.551,38.086,34.180,68.848,0
1542907752.660,16.602,33.691,43.945,25.879,53.711,0
1542907752.663,19.043,20.996,39.551,23.438,83.496,0
1542907752.667,11.719,26.367,37.598,34.668,101.562,0
1542907752.671,3.906,25.391,38.574,21.484,101.562,0
1542907752.675,6.836,26.367,34.180,12.207,99.609,0
1542907752.679,3.418,29.785,38.574,15.625,109.375,0
1542907752.683,-12.207,34.180,37.109,-4.395,144.043,0
1542907752.687,-21.484,38.086,35.156,-5.859,169.922,0
1542907752.691,-20.508,34.180,38.574,-13.184,171.875,0
1542907752.695,-31.250,30.762,32.227,-39.062,136.719,0
1542907752.699,-46.875,31.738,28.809,-50.781,125.000,0
1542907752.703,-55.664,42.969,33.203,-58.105,149.902,0
1542907752.706,-70.312,51.758,33.691,-73.242,159.668,0
1542907752.710,-92.285,51.758,30.762,-81.543,156.738,0
1542907752.714,-101.562,55.176,29.785,-94.727,130.371,0
1542907752.718,-109.375,60.547,24.414,-124.512,138.672,0
1542907752.722,-129.395,59.570,13.672,-127.930,180.664,0
1542907752.726,-142.090,61.523,13.184,-129.883,192.383,0
1542907752.730,-152.344,66.895,20.996,-140.625,171.875,0
1542907752.734,-157.715,71.289,21.484,-147.949,163.574,0
1542907752.738,-170.898,72.754,11.719,-182.617,191.895,0
1542907752.742,-189.941,77.148,6.348,-196.289,185.059,0
1542907752.746,-196.289,79.590,4.395,-193.848,184.082,0
1542907752.749,-184.570,71.289,2.930,-192.871,205.566,0
1542907752.753,-190.430,65.918,-0.977,-192.871,249.023,0
1542907752.757,-190.430,70.801,-2.441,-185.547,285.156,0
1542907752.761,-170.410,76.172,4.883,-166.504,287.598,0
1542907752.765,-156.738,77.637,4.395,-163.574,320.312,0
1542907752.769,-151.855,77.148,1.465,-152.832,404.297,0
1542907752.773,-141.113,81.055,1.465,-145.508,454.590,0
1542907752.777,-128.906,75.684,-2.441,-135.254,446.289,0
1542907752.781,-104.004,76.172,-6.348,-115.723,457.520,0
1542907752.785,-66.895,73.242,-0.977,-89.355,511.230,0
1542907752.788,-54.688,56.641,5.371,-60.547,541.992,0
1542907752.792,-39.551,52.246,16.113,-41.504,572.754,0
1542907752.796,-18.555,49.316,15.625,-19.531,619.629,0
1542907752.800,-5.371,41.992,15.625,3.418,730.957,0
1542907752.804,2.930,34.180,21.973,30.273,908.691,0
1542907752.808,23.926,32.715,23.926,44.922,-998.047,0
1542907752.812,37.109,27.344,30.762,45.898,996.094,0
1542907752.816,38.086,17.578,32.715,53.711,998.047,0
1542907752.820,55.176,12.207,32.227,71.777,-1000.000,0
1542907752.824,62.012,11.719,36.133,92.773,999.512,0
1542907752.828,61.523,16.602,39.551,108.887,999.512,0
1542907752.831,72.754,7.812,35.645,94.727,999.512,0
1542907752.835,89.844,4.395,37.109,94.727,999.512,0
1542907752.839,97.168,6.348,38.086,107.910,999.512,0
1542907752.843,91.309,9.766,35.645,101.562,999.512,0
1542907752.847,88.867,11.230,37.598,99.121,999.512,0
1542907752.851,89.355,13.184,31.250,95.703,999.512,0
1542907752.855,87.891,16.602,30.273,93.750,999.512,0
1542907752.859,97.656,7.324,30.273,103.027,999.512,0
1542907752.863,88.379,4.395,28.320,100.098,999.512,0
1542907752.867,70.312,14.160,32.715,95.703,999.512,0
1542907752.871,91.797,12.695,36.133,103.027,999.512,0
1542907752.874,84.473,1.953,41.504,101.562,999.512,0
1542907752.878,74.219,10.254,41.016,107.422,999.512,0
1542907752.882,90.332,17.578,38.086,112.793,999.512,0
1542907752.886,89.844,10.254,39.062,107.910,999.512,0
1542907752.890,94.238,6.836,37.598,101.562,999.512,0
1542907752.894,92.773,10.254,40.039,101.074,999.512,0
1542907752.898,85.449,13.672,43.945,100.586,999.512,0
1542907752.902,84.961,11.230,42.480,99.121,999.512,0
1542907752.906,87.891,16.113,41.016,104.980,999.512,0
1542907752.910,88.867,19.043,40.527,104.492,999.512,0
1542907752.913,95.215,16.602,39.551,110.840,999.512,0
1542907752.917,105.469,16.602,37.109,112.305,999.512,0
1542907752.921,109.863,7.812,36.133,111.328,999.512,0
1542907752.925,100.098,11.230,38.574,117.188,999.512,0
1542907752.929,104.980,15.137,41.504,118.164,-1000.000,0
1542907752.933,117.188,15.625,41.016,115.234,996.094,0
1542907752.937,120.117,22.949,41.504,118.164,-999.512,0
1542907752.941,112.793,19.043,39.062,113.281,982.422,0
1542907752.945,97.168,17.578,35.645,109.863,867.676,0
1542907752.949,94.727,22.461,36.133,115.234,728.027,0
1542907752.953,106.445,23.438,35.645,107.910,630.371,0
1542907752.956,107.910,16.113,37.109,104.980,531.738,0
1542907752.960,108.398,18.555,36.133,114.258,443.848,0
1542907752.964,114.746,22.949,36.621,121.582,339.355,0
1542907752.968,108.398,18.555,39.062,123.047,213.867,0
1542907752.972,113.770,21.484,36.133,113.770,107.910,0
1542907752.976,104.492,20.020,36.621,111.328,-69.336,0
1542907752.980,77.637,22.461,38.574,109.375,-255.859,0
1542907752.984,88.379,20.508,36.133,98.633,-401.855,0
1542907752.988,96.680,18.555,32.715,88.867,-572.266,0
1542907752.992,95.703,21.484,29.785,89.355,-723.633,0
1542907752.996,89.844,20.508,29.297,92.285,-801.270,0
1542907752.999,73.730,23.438,33.691,89.844,-848.633,0
1542907753.003,74.707,20.508,35.645,89.844,-851.562,0
1542907753.007,82.520,18.555,28.809,94.238,-810.059,0
1542907753.011,72.754,21.484,25.879,86.426,-733.887,0
1542907753.015,81.055,27.344,28.809,78.125,-625.000,0
1542907753.019,87.402,27.344,29.297,83.008,-493.164,0
1542907753.023,78.613,24.414,29.297,88.379,-324.219,0
1542907753.027,89.355,25.879,31.250,92.285,-195.312,0
1542907753.031,98.633,27.344,32.227,91.797,-91.309,0
1542907753.035,85.938,29.297,35.645,89.355,41.016,0
1542907753.038,71.289,28.320,36.621,88.867,178.223,0
1542907753.042,71.289,19.531,31.250,86.426,250.977,0
1542907753.046,64.453,17.090,30.762,77.637,317.383,0
1542907753.050,66.895,20.508,30.273,80.566,442.383,0
1542907753.054,77.637,26.855,30.273,83.984,564.941,0
1542907753.058,78.125,34.668,33.691,80.078,644.043,0
1542907753.062,72.754,33.203,33.691,81.055,719.727,0
1542907753.066,70.801,31.738,35.156,79.102,816.406,0
1542907753.070,78.125,36.133,37.598,83.008,891.602,0
1542907753.074,71.289,41.016,34.180,78.125,955.566,0
1542907753.078,63.965,40.527,25.879,63.965,982.422,0
1542907753.081,60.059,36.621,27.832,62.500,995.605,0
1542907753.085,52.246,33.691,27.344,69.336,-1000.000,0
1542907753.089,61.035,25.879,29.297,72.754,999.023,0
1542907753.093,68.359,22.461,34.180,74.707,999.512,0
1542907753.097,67.383,29.297,34.180,70.312,999.512,0
1542907753.101,72.266,35.645,31.250,72.266,999.512,0
1542907753.105,72.266,34.180,29.297,65.918,999.512,0
1542907753.109,68.359,26.855,31.250,68.848,999.512,0
1542907753.113,62.500,27.344,36.621,70.312,999.512,0
1542907753.117,60.059,27.344,36.133,65.918,999.512,0
1542907753.121,57.617,25.391,30.273,66.895,999.512,0
1542907753.124,51.758,23.926,35.645,56.152,999.512,0
1542907753.128,53.223,25.879,33.203,56.641,999.512,0
1542907753.132,57.129,28.320,28.320,56.152,999.512,0
1542907753.136,46.387,32.227,28.320,48.828,999.512,0
1542907753.140,21.973,30.762,23.926,43.457,999.512,0
1542907753.144,29.297,30.273,22.461,52.246,999.512,0
1542907753.148,45.410,29.785,24.414,55.664,999.512,0
1542907753.152,46.387,31.250,27.344,47.852,999.512,0
1542907753.156,43.945,28.320,26.367,48.828,999.512,0
1542907753.160,44.434,25.879,26.367,43.945,999.512,0
1542907753.163,41.504,33.203,23.926,41.992,999.512,0
1542907753.167,61.035,41.992,21.484,60.059,999.512,0
1542907753.171,77.148,37.109,24.902,74.707,999.512,0
1542907753.175,44.434,26.367,31.250,59.082,999.512,0
1542907753.179,13.184,24.414,35.645,37.598,999.512,0
1542907753.183,8.789,26.855,34.180,33.203,999.512,0
1542907753.187,11.230,20.996,37.598,38.574,999.512,0
1542907753.191,24.902,10.254,40.527,46.875,999.512,0
1542907753.195,29.297,9.277,41.992,43.457,999.512,0
1542907753.199,22.949,10.742,43.945,47.363,999.512,0
1542907753.203,34.668,15.625,43.945,58.594,999.512,0
1542907753.206,30.762,21.484,43.457,58.594,999.512,0
1542907753.210,22.461,21.484,40.039,62.012,999.512,0
1542907753.214,39.551,16.602,39.551,53.223,999.512,0
1542907753.218,40.527,23.926,37.109,50.781,999.512,0
1542907753.222,47.852,30.762,39.551,64.453,999.512,0
1542907753.226,51.270,23.926,41.016,68.848,999.512,0
1542907753.230,45.410,20.996,40.527,65.430,999.512,0
1542907753.234,46.875,19.043,39.062,67.383,999.512,0
1542907753.238,51.270,23.438,35.645,64.453,999.512,0
1542907753.242,56.641,28.320,34.668,56.152,999.512,0
1542907753.246,49.805,26.855,32.715,59.082,999.512,0
1542907753.249,41.504,28.809,30.762,63.965,999.512,0
1542907753.253,42.480,24.902,33.203,60.547,999.512,0
1542907753.257,49.316,18.066,34.180,58.105,999.512,0
1542907753.261,51.758,19.531,35.156,62.012,999.512,0
1542907753.265,53.223,19.043,36.621,57.617,999.512,0
1542907753.269,51.758,17.578,35.156,63.477,999.512,0
1542907753.273,48.828,26.367,36.133,61.523,999.512,0
1542907753.277,56.152,30.273,36.621,62.500,999.512,0
1542907753.281,69.824,21.973,36.133,76.172,999.512,0
1542907753.285,73.242,19.043,34.668,82.520,999.512,0
1542907753.288,68.359,20.508,33.691,84.961,999.512,0
1542907753.292,65.918,23.926,32.227,79.590,995.605,0
1542907753.296,64.453,32.227,32.715,81.055,-996.094,0
1542907753.300,73.242,33.203,37.109,79.102,957.031,0
1542907753.304,76.660,32.227,33.203,84.961,837.891,0
1542907753.308,71.289,29.297,34.668,91.797,733.887,0
1542907753.312,64.453,23.926,37.109,86.914,666.504,0
1542907753.316,71.289,27.832,35.156,79.590,585.449,0
1542907753.320,69.824,29.785,35.645,74.219,488.281,0
1542907753.324,59.082,31.250,32.227,79.590,428.223,0
1542907753.328,79.590,30.762,29.297,75.684,384.766,0
1542907753.331,76.660,23.926,29.785,73.730,366.699,0
1542907753.335,60.059,23.926,31.250,78.125,326.660,0
1542907753.339,57.129,25.879,30.273,73.730,280.762,0
1542907753.343,68.359,23.926,32.715,80.078,241.699,0
1542907753.347,72.266,26.855,34.180,81.055,162.598,0
1542907753.351,58.594,24.414,33.691,75.684,126.953,0
1542907753.355,54.199,22.461,33.203,73.242,100.098,0
1542907753.359,81.055,20.996,35.156,93.750,61.523,0
1542907753.363,85.449,20.508,40.039,97.656,-20.508,0
1542907753.367,77.148,23.438,40.039,83.496,-88.867,0
1542907753.371,87.891,27.832,37.598,91.797,-104.492,0
1542907753.374,83.008,34.668,34.180,85.449,-189.453,0
1542907753.378,84.961,30.762,31.738,82.031,-278.320,0
1542907753.382,91.309,27.344,32.227,80.566,-336.426,0
1542907753.386,91.309,29.297,36.133,78.613,-408.691,0
1542907753.390,79.102,23.438,37.109,79.102,-489.746,0
1542907753.394,62.988,18.066,40.039,73.730,-568.359,0
1542907753.398,54.199,17.578,40.039,78.125,-656.250,0
1542907753.402,62.012,24.902,37.598,74.707,-720.703,0
1542907753.406,67.871,32.715,38.086,67.871,-775.391,0
1542907753.410,78.613,29.297,37.109,75.684,-838.379,0
1542907753.413,81.055,29.297,34.180,79.590,-844.238,0
1542907753.417,63.477,37.598,34.668,85.449,-858.887,0
1542907753.421,62.012,34.668,35.156,83.984,-898.438,0
1542907753.425,66.895,27.344,33.691,75.195,-925.293,0
1542907753.429,69.824,29.785,32.227,74.707,-951.660,0
1542907753.433,64.941,27.344,30.762,74.219,-956.543,0
1542907753.437,67.383,27.832,32.227,76.172,-958.496,0
1542907753.441,63.965,39.062,34.668,69.824,-966.309,0
1542907753.445,63.965,39.062,33.203,73.730,-961.426,0
1542907753.449,74.219,28.809,30.762,74.707,-920.410,0
1542907753.453,81.543,32.227,29.297,58.105,-869.141,0
1542907753.456,77.637,31.738,28.809,56.152,-822.754,0
1542907753.460,59.082,30.273,32.227,52.734,-790.527,0
1542907753.464,52.734,28.320,32.715,63.477,-744.629,0
1542907753.468,80.566,30.273,27.832,91.309,-670.410,0
1542907753.472,102.051,45.410,23.438,95.703,-584.473,0
1542907753.476,75.195,48.340,22.461,66.406,-521.973,0
1542907753.480,60.059,44.434,23.926,30.273,-475.586,0
1542907753.484,66.406,48.828,17.578,22.461,-391.113,0
1542907753.488,76.172,50.293,11.719,49.805,-306.152,0
1542907753.492,71.777,47.363,6.348,65.918,-228.027,0
1542907753.496,52.734,53.223,0.000,48.828,-146.973,0
1542907753.499,54.199,67.871,-8.301,31.250,-77.148,0
1542907753.503,65.918,67.871,-15.137,31.250,23.926,0
1542907753.507,77.637,60.547,-13.672,45.410,91.309,0
1542907753.511,68.359,62.988,-7.812,48.828,143.066,0
1542907753.515,56.152,60.059,-10.742,40.039,209.961,0
1542907753.519,68.848,50.293,-11.719,45.410,257.812,0
1542907753.523,59.570,43.457,-4.395,49.316,292.480,0
1542907753.527,50.781,52.246,0.000,46.387,317.383,0
1542907753.531,54.688,54.688,1.953,54.199,336.426,0
1542907753.535,51.758,55.176,-0.488,52.246,333.496,0
1542907753.538,63.965,52.734,3.418,54.688,335.449,0
1542907753.542,51.758,46.875,11.719,65.430,331.543,0
1542907753.546,41.016,50.293,6.836,32.227,319.336,0
1542907753.550,52.246,54.199,5.371,26.367,317.871,0
1542907753.554,39.551,47.363,11.230,48.340,279.785,0
1542907753.558,28.320,38.574,8.789,24.414,230.957,0
1542907753.562,24.414,38.086,12.695,1.953,197.754,0
1542907753.566,21.973,36.621,16.113,31.250,138.672,0
1542907753.570,14.648,37.109,14.648,57.617,85.938,0
1542907753.574,17.578,38.574,15.137,45.898,31.738,0
1542907753.578,27.344,40.527,13.184,20.020,-61.035,0
1542907753.581,27.344,44.922,13.672,9.766,-117.676,0
1542907753.585,26.367,40.039,14.648,0.000,-144.531,0
1542907753.589,11.230,35.645,17.090,-8.301,-200.684,0
1542907753.593,3.418,37.109,19.043,-12.695,-250.977,0
1542907753.597,18.555,41.504,15.137,-10.254,-290.527,0
1542907753.601,6.836,50.293,11.230,-10.742,-342.773,0
1542907753.605,-9.766,45.410,14.160,-13.672,-414.062,0
1542907753.609,-12.207,31.738,20.996,-9.277,-454.590,0
1542907753.613,-13.184,33.691,16.113,-21.484,-484.863,0
1542907753.617,-5.859,31.250,14.160,-26.367,-529.785,0
1542907753.621,-4.883,27.344,22.949,-21.973,-541.992,0
1542907753.624,-15.625,34.180,22.949,-17.578,-560.547,0
1542907753.628,-20.020,35.645,18.555,-18.555,-580.566,0
1542907753.632,-36.133,40.039,15.625,-33.691,-586.426,0
1542907753.636,-36.621,48.828,14.160,-40.527,-596.191,0
1542907753.640,-27.832,42.480,18.066,-28.809,-570.312,0
1542907753.644,-46.387,37.598,15.625,-26.855,-539.551,0
1542907753.648,-56.152,39.551,17.090,-45.410,-544.922,0
1542907753.652,-62.012,36.133,20.508,-49.316,-507.324,0
1542907753.656,-54.688,39.551,21.484,-29.785,-498.047,0
1542907753.660,-48.828,43.457,21.973,-49.805,-499.023,0
1542907753.663,-59.082,46.387,21.973,-45.410,-474.121,0
1542907753.667,-55.664,51.758,23.926,-43.457,-478.516,0
1542907753.671,-51.758,42.480,22.461,-79.590,-507.324,0
1542907753.675,-59.570,44.922,18.555,-79.590,-541.992,0
1542907753.679,-60.059,48.828,17.578,-66.406,-619.629,0
1542907753.683,-61.523,43.457,21.484,-61.523,-686.523,0
1542907753.687,-58.594,39.551,17.578,-68.359,-752.441,0
1542907753.691,-53.711,39.062,19.043,-67.871,-884.277,0
1542907753.695,-69.824,41.504,23.926,-69.824,-967.773,0
1542907753.699,-77.637,43.457,20.508,-77.148,-972.656,0
1542907753.703,-75.195,43.945,20.020,-80.078,-970.703,0
1542907753.706,-79.590,43.945,25.391,-64.941,-973.633,0
1542907753.710,-78.613,50.781,29.785,-68.359,-973.145,0
1542907753.714,-80.566,50.293,28.320,-81.055,-973.145,0
1542907753.718,-79.590,46.875,23.438,-78.125,-972.656,0
1542907753.722,-86.426,47.363,24.414,-83.984,-972.656,0
1542907753.726,-91.797,47.852,25.391,-90.332,-972.656,0
1542907753.730,-95.215,59.570,21.484,-88.867,-972.656,0
1542907753.734,-104.492,62.988,21.484,-93.750,-973.145,0
1542907753.738,-113.770,51.758,20.508,-101.562,-972.656,0
1542907753.742,-109.375,56.152,14.160,-104.492,-972.656,0
1542907753.746,-98.145,55.664,12.207,-119.629,-972.656,0
1542907753.749,-103.516,54.688,10.254,-112.305,-972.656,0
1542907753.753,-101.562,65.918,9.277,-83.496,-973.145,0
1542907753.757,-106.934,77.637,4.883,-100.586,-973.145,0
1542907753.761,-136.230,77.637,5.371,-135.742,-973.145,0
1542907753.765,-173.828,63.477,11.719,-167.969,-973.145,0
1542907753.769,-187.500,61.035,9.277,-191.895,-973.145,0
1542907753.773,-178.711,64.941,14.648,-191.406,-973.145,0
1542907753.777,-185.547,55.176,18.555,-173.828,-973.145,0
1542907753.781,-188.965,51.758,21.484,-176.758,-972.656,0
1542907753.785,-185.547,57.129,27.832,-182.129,-973.145,0
1542907753.788,-172.363,59.082,22.949,-159.668,-973.145,0
1542907753.792,-161.621,52.246,21.484,-145.020,-973.145,0
1542907753.796,-173.828,43.945,24.902,-141.602,-973.145,0
1542907753.800,-172.363,36.621,25.391,-150.879,-972.656,0
1542907753.804,-152.344,30.762,27.344,-139.648,-973.145,0
1542907753.808,-124.512,26.855,29.785,-103.516,-972.656,0
1542907753.812,-107.910,20.020,33.691,-95.703,-972.656,0
1542907753.816,-97.168,12.695,32.715,-83.496,-972.656,0
1542907753.820,-75.195,10.254,29.297,-59.570,-972.656,0
1542907753.824,-59.570,15.137,30.762,-50.781,-972.656,0
1542907753.828,-44.434,8.301,28.320,-44.922,-972.656,0
1542907753.831,-32.227,4.395,30.762,-21.484,-972.656,0
1542907753.835,-18.555,6.836,31.738,-6.836,-972.656,0
1542907753.839,-6.348,7.324,29.297,6.348,-973.145,0
1542907753.843,-0.488,-0.488,31.738,24.414,-972.656,0
1542907753.847,5.859,-1.953,34.180,28.809,-972.656,0
1542907753.851,18.066,-4.883,33.203,39.551,-973.145,0
1542907753.855,22.949,-1.953,32.715,42.480,-973.145,0
1542907753.859,33.203,1.465,37.109,49.316,-973.145,0
1542907753.863,42.969,-5.371,40.527,53.223,-973.145,0
1542907753.867,38.574,-2.930,41.016,58.594,-973.145,0
1542907753.871,38.086,0.488,41.016,60.547,-972.656,0
1542907753.874,38.574,-0.977,39.062,53.223,-972.656,0
1542907753.878,45.898,4.395,34.180,59.082,-973.145,0
1542907753.882,56.152,6.836,39.551,70.312,-973.145,0
1542907753.886,60.059,4.395,44.922,74.219,-973.145,0
1542907753.890,54.688,5.859,37.598,66.406,-973.145,0
1542907753.894,44.922,6.836,37.598,59.082,-972.168,0
1542907753.898,51.270,5.859,41.992,66.406,-969.238,0
1542907753.902,53.223,8.301,38.086,60.059,-978.516,0
1542907753.906,52.734,10.254,37.109,50.293,-916.016,0
1542907753.910,50.781,12.207,36.133,59.570,-786.621,0
1542907753.913,44.434,10.742,37.109,62.012,-715.332,0
1542907753.917,53.223,10.254,38.574,62.988,-676.758,0
1542907753.921,56.641,14.160,41.504,68.848,-631.348,0
1542907753.925,58.594,14.160,38.574,72.266,-557.129,0
1542907753.929,56.641,22.949,36.621,69.336,-507.812,0
1542907753.933,57.617,22.461,40.039,73.242,-503.906,0
1542907753.937,63.477,15.625,39.062,77.637,-469.238,0
1542907753.941,59.570,19.531,37.598,84.473,-463.379,0
1542907753.945,70.312,20.508,38.574,85.938,-416.992,0
1542907753.949,69.336,22.461,40.527,72.266,-358.398,0
1542907753.953,61.523,22.461,36.621,81.055,-316.895,0
1542907753.956,64.941,21.973,44.922,74.219,-267.578,0
1542907753.960,60.059,28.809,41.504,65.918,-251.953,0
1542907753.964,51.758,19.043,29.785,71.289,-273.926,0
1542907753.968,48.828,12.695,31.738,61.523,-268.555,0
1542907753.972,54.688,24.902,34.180,56.152,-229.004,0
1542907753.976,58.105,19.531,34.668,54.199,-220.215,0
1542907753.980,47.363,18.066,37.598,56.152,-188.477,0
1542907753.984,46.387,24.902,42.480,61.035,-153.809,0
1542907753.988,52.246,27.832,41.016,65.918,-163.086,0
1542907753.992,42.480,28.320,36.621,53.711,-201.660,0
1542907753.996,37.109,24.414,36.621,45.898,-186.523,0
1542907753.999,34.668,26.855,41.504,44.922,-130.371,0
1542907754.003,33.691,32.227,39.551,47.363,-84.961,0
1542907754.007,33.203,30.273,39.551,43.457,-83.008,0
1542907754.011,21.973,28.320,44.922,25.391,-114.258,0
1542907754.015,19.043,30.762,42.969,27.344,-130.859,0
1542907754.019,9.766,31.738,44.922,20.996,-148.926,0
1542907754.023,7.812,39.062,42.480,18.555,-130.859,0
1542907754.027,-3.906,35.645,35.156,2.441,-64.453,0
1542907754.031,-21.973,31.250,36.133,-13.184,-17.090,0
1542907754.035,-28.809,37.109,41.016,-18.555,-79.590,0
1542907754.038,-38.574,44.922,42.969,-29.297,-96.191,0
1542907754.042,-51.758,50.781,37.109,-39.551,-61.523,0
1542907754.046,-55.176,43.945,35.645,-49.805,-17.090,0
1542907754.050,-67.871,51.270,28.809,-65.430,-26.367,0
1542907754.054,-90.820,58.594,26.367,-83.984,-58.594,0
1542907754.058,-95.703,56.641,26.855,-91.309,-37.109,0
1542907754.062,-107.422,59.570,22.461,-85.449,-59.570,0
1542907754.066,-118.652,61.035,20.996,-92.285,-63.477,0
1542907754.070,-128.418,64.941,18.066,-125.977,-88.379,0
1542907754.074,-151.855,79.102,5.371,-148.438,-26.367,0
1542907754.078,-164.551,75.684,0.977,-157.227,3.418,0
1542907754.081,-159.180,68.359,9.277,-157.715,-16.602,0
1542907754.085,-157.715,75.195,9.277,-155.273,-12.207,0
1542907754.089,-156.738,74.707,2.930,-149.902,-39.551,0
1542907754.093,-157.715,70.312,1.465,-145.508,-13.672,0
1542907754.097,-143.066,68.359,8.301,-131.836,-20.996,0
1542907754.101,-123.535,65.918,16.113,-118.164,-18.066,0
1542907754.105,-122.070,62.988,24.414,-111.328,57.129,0
1542907754.109,-116.211,59.570,18.555,-101.074,34.180,0
1542907754.113,-105.469,62.500,15.625,-102.051,-0.488,0
1542907754.117,-79.102,55.176,22.461,-83.496,-3.418,0
1542907754.121,-51.758,50.781,24.902,-53.223,-29.785,0
1542907754.124,-35.156,56.152,27.832,-33.691,-40.039,0
1542907754.128,-19.043,40.039,30.273,-12.695,-44.434,0
1542907754.132,1.953,34.180,30.762,5.859,-73.242,0
1542907754.136,13.184,31.738,31.738,15.137,-44.434,0
1542907754.140,25.879,20.020,38.086,35.156,-11.719,0
1542907754.144,39.062,9.277,40.039,56.641,-20.996,0
1542907754.148,52.246,9.277,35.645,62.988,-45.410,0
1542907754.152,62.012,12.695,30.762,74.219,-23.926,0
1542907754.156,68.848,12.207,34.668,80.566,-8.301,0
1542907754.160,83.984,17.090,39.062,89.844,-53.223,0
1542907754.163,98.145,13.184,33.691,113.770,-18.066,0
1542907754.167,98.145,10.254,36.133,111.328,-19.043,0
1542907754.171,105.957,14.648,37.598,109.375,-38.574,0
1542907754.175,105.957,10.254,38.086,116.211,12.695,0
1542907754.179,102.539,10.254,34.668,111.328,-20.020,0
1542907754.183,107.422,11.719,35.156,114.746,-4.883,0
1542907754.187,115.723,13.184,36.133,118.652,76.172,0
1542907754.191,121.582,10.742,34.180,125.488,64.453,0
1542907754.195,114.746,7.324,36.133,129.883,7.324,0
1542907754.199,115.723,15.137,38.086,126.953,-8.789,0
1542907754.203,125.000,13.184,30.762,125.977,-17.578,0
1542907754.206,123.535,7.812,28.809,130.859,-19.531,0
1542907754.210,120.605,12.207,35.645,133.789,20.996,0
1542907754.214,123.047,20.020,34.668,125.488,2.930,0
1542907754.218,121.582,17.090,34.180,130.371,-2.930,0
1542907754.222,113.281,11.230,31.738,132.324,12.207,0
1542907754.226,95.215,19.531,36.133,125.488,18.066,0
1542907754.230,96.680,21.973,33.203,125.000,-9.277,0
1542907754.234,110.352,22.949,25.391,115.723,-6.348,0
1542907754.238,118.652,20.508,22.949,114.746,2.441,0
1542907754.242,122.559,24.902,22.949,120.117,-64.941,0
1542907754.246,113.281,27.344,24.902,115.723,-50.293,0
1542907754.249,110.840,18.555,34.668,110.840,60.547,0
1542907754.253,119.629,22.949,35.645,108.887,102.051,0
1542907754.257,116.699,25.879,24.414,118.164,41.016,0
1542907754.261,109.375,23.438,31.250,121.094,0.488,0
1542907754.265,105.469,21.484,32.227,114.258,24.902,0
1542907754.269,103.027,20.996,28.809,112.793,33.203,0
1542907754.273,99.121,28.809,25.879,107.910,-2.930,0
1542907754.277,91.797,23.926,24.902,108.398,-33.691,0
1542907754.281,95.703,19.043,30.273,109.863,22.461,0
1542907754.285,90.820,34.668,29.297,102.051,41.016,0
1542907754.288,92.285,29.785,30.762,107.910,20.996,0
1542907754.292,89.844,24.902,31.738,94.727,24.902,0
1542907754.296,87.891,24.414,31.250,87.402,34.668,0
1542907754.300,83.984,22.949,28.809,91.797,10.254,0
1542907754.304,71.777,23.926,27.832,92.773,22.949,0
1542907754.308,75.684,22.461,33.203,87.891,86.914,0
1542907754.312,80.566,21.973,36.133,83.496,16.602,0
1542907754.316,83.496,20.508,28.320,90.332,-17.090,0
1542907754.320,81.055,23.926,25.391,84.961,53.711,0
1542907754.324,67.383,28.809,27.344,70.312,35.156,0
1542907754.328,60.059,26.855,28.320,71.777,15.625,0
1542907754.331,50.781,26.367,30.273,74.219,42.480,0
1542907754.335,59.082,34.180,30.273,69.336,56.152,0
1542907754.339,39.551,45.410,24.414,60.059,84.473,0
1542907754.343,34.668,27.832,30.273,71.777,68.359,0
1542907754.347,66.895,19.531,35.156,78.613,20.508,0
1542907754.351,56.641,24.414,36.133,67.383,8.301,0
1542907754.355,30.762,18.066,35.645,64.453,41.016,0
1542907754.359,28.320,21.484,31.250,58.105,60.059,0
1542907754.363,48.340,33.691,37.598,44.922,68.848,0
1542907754.367,42.969,28.809,45.898,42.480,76.172,0
1542907754.371,27.344,30.273,33.203,61.035,57.129,0
1542907754.374,36.133,26.855,28.809,62.012,7.324,0
1542907754.378,48.340,28.809,31.738,57.617,6.836,0
1542907754.382,35.156,39.551,37.598,46.875,-6.348,0
1542907754.386,18.555,34.668,38.574,46.875,-21.973,0
1542907754.390,21.973,19.043,33.203,49.805,2.441,0
1542907754.394,43.457,21.973,31.738,36.133,32.227,0
1542907754.398,42.969,24.902,36.621,37.109,26.855,0
1542907754.402,37.598,30.273,32.715,45.410,5.859,0
1542907754.406,22.461,36.621,30.273,54.688,62.012,0
1542907754.410,24.414,30.273,32.715,59.570,55.664,0
1542907754.413,18.066,23.438,31.738,28.320,20.996,0
1542907754.417,10.254,20.996,30.273,15.625,45.898,0
1542907754.421,29.297,27.344,29.297,26.367,90.820,0
1542907754.425,13.672,26.367,29.785,21.484,118.164,0
1542907754.429,7.812,34.180,28.809,17.578,57.129,0
1542907754.433,20.996,42.969,27.832,20.020,-22.461,0
1542907754.437,21.973,39.551,28.809,28.809,7.812,0
1542907754.441,19.531,31.738,32.715,36.133,89.844,0
1542907754.445,21.973,26.855,33.691,20.020,88.867,0
1542907754.449,16.602,30.762,27.832,16.113,49.316,0
1542907754.453,7.324,35.156,20.508,17.090,10.742,0
1542907754.456,1.953,38.086,21.973,5.859,-31.250,0
1542907754.460,3.906,30.273,29.297,12.207,59.082,0
1542907754.464,15.625,24.414,31.738,14.160,96.191,0
1542907754.468,4.883,27.344,30.273,6.836,70.801,0
1542907754.472,-14.160,33.691,26.367,-1.953,90.332,0
1542907754.476,-13.184,25.391,32.715,3.418,79.102,0
1542907754.480,-5.371,36.621,31.250,7.324,46.387,0
1542907754.484,-17.090,35.645,26.855,-4.395,2.930,0
1542907754.488,-22.461,23.438,30.273,-21.484,75.684,0
1542907754.492,-8.789,30.273,34.668,-29.785,122.559,0
1542907754.496,-19.531,24.414,33.691,-20.020,79.590,0
1542907754.499,-30.762,28.809,29.785,-14.648,46.387,0
1542907754.503,-31.250,36.621,35.645,-17.578,62.012,0
1542907754.507,-43.945,33.203,36.621,-18.555,63.965,0
1542907754.511,-43.457,28.320,33.691,-19.531,84.961,0
1542907754.515,-42.480,29.297,36.621,-35.156,144.043,0
1542907754.519,-51.270,31.250,41.016,-44.434,182.129,0
1542907754.523,-50.781,29.297,41.992,-42.480,271.973,0
1542907754.527,-60.059,33.691,38.574,-46.875,388.184,0
1542907754.531,-67.871,34.668,38.574,-61.035,481.934,0
1542907754.535,-67.871,28.320,41.504,-69.824,572.266,0
1542907754.538,-80.078,29.297,40.527,-75.684,695.312,0
1542907754.542,-98.145,31.738,38.574,-93.262,775.391,0
1542907754.546,-104.004,32.227,41.504,-103.516,837.891,0
1542907754.550,-111.816,30.273,37.598,-109.863,935.059,0
1542907754.554,-131.836,29.785,34.668,-125.488,-998.047,0
1542907754.558,-149.414,37.598,31.738,-142.090,997.559,0
1542907754.562,-156.738,38.086,27.832,-147.461,998.047,0
1542907754.566,-166.016,38.574,29.785,-164.062,999.512,0
1542907754.570,-181.641,41.992,25.391,-186.035,999.512,0
1542907754.574,-188.477,50.781,16.602,-179.199,999.512,0
1542907754.578,-186.523,56.152,13.672,-166.992,999.512,0
1542907754.581,-195.312,47.363,20.020,-184.570,999.512,0
1542907754.585,-213.867,47.363,26.367,-203.613,999.512,0
1542907754.589,-216.309,44.922,28.809,-194.336,999.512,0
1542907754.593,-226.562,36.621,23.926,-191.406,999.512,0
1542907754.597,-228.027,36.621,20.508,-195.312,999.512,0
1542907754.601,-207.031,44.922,20.020,-184.082,999.512,0
1542907754.605,-195.801,45.410,22.461,-166.504,999.512,0
1542907754.609,-199.219,48.340,21.973,-160.645,999.512,0
1542907754.613,-176.758,49.316,23.926,-163.574,995.117,0
1542907754.617,-162.598,44.922,28.320,-160.645,-996.582,0
1542907754.621,-150.391,46.875,30.762,-148.926,947.266,0
1542907754.624,-122.559,41.504,29.785,-142.578,805.176,0
1542907754.628,-121.582,43.945,23.926,-134.277,670.410,0
1542907754.632,-103.516,40.527,28.320,-104.004,563.477,0
1542907754.636,-77.637,33.691,37.598,-78.613,467.285,0
1542907754.640,-77.637,28.809,34.668,-73.242,339.355,0
1542907754.644,-63.965,24.902,30.273,-52.246,232.422,0
1542907754.648,-38.086,25.879,31.738,-31.250,141.113,0
1542907754.652,-31.738,19.043,33.691,-19.043,34.668,0
1542907754.656,-19.043,14.648,32.715,-2.441,-44.434,0
1542907754.660,0.488,12.695,36.133,11.719,-138.672,0
1542907754.663,17.578,7.324,39.551,26.855,-243.652,0
1542907754.667,24.902,-2.441,36.621,37.109,-350.098,0
1542907754.671,35.645,-4.395,37.598,53.223,-428.711,0
1542907754.675,48.828,1.953,35.156,72.754,-530.762,0
1542907754.679,58.594,2.441,33.203,73.730,-689.453,0
1542907754.683,70.801,7.324,30.273,67.871,-772.461,0
1542907754.687,79.102,12.207,27.344,80.566,-744.141,0
1542907754.691,87.402,1.465,31.250,94.727,-683.594,0
1542907754.695,93.750,-1.953,31.250,102.539,-685.547,0
1542907754.699,101.562,-2.441,33.203,112.793,-706.055,0
1542907754.703,116.211,-1.465,33.203,114.258,-707.520,0
1542907754.706,122.559,0.977,31.738,113.770,-744.629,0
1542907754.710,114.258,-1.465,30.762,112.305,-804.688,0
1542907754.714,115.234,-5.371,29.785,116.211,-870.117,0
1542907754.718,118.164,0.488,31.250,125.977,-899.414,0
1542907754.722,120.117,7.324,34.180,126.953,-946.777,0
1542907754.726,121.582,14.648,29.785,121.582,-975.586,0
1542907754.730,123.047,13.184,28.809,119.141,-971.191,0
1542907754.734,125.000,9.277,28.809,125.977,-972.656,0
1542907754.738,129.883,5.859,26.367,131.836,-973.145,0
1542907754.742,132.812,7.812,28.320,123.047,-973.145,0
1542907754.746,128.906,14.160,27.344,113.770,-970.703,0
1542907754.749,129.395,7.812,26.855,126.953,-974.609,0
1542907754.753,131.348,11.719,30.762,133.789,-960.449,0
1542907754.757,127.930,11.719,31.250,115.234,-890.625,0
1542907754.761,128.906,8.301,30.273,121.094,-826.660,0
1542907754.765,125.488,23.438,27.344,127.930,-731.445,0
1542907754.769,128.906,26.855,25.879,127.441,-692.383,0
1542907754.773,133.301,18.555,36.133,131.348,-723.145,0
1542907754.777,142.090,17.578,36.133,131.836,-633.789,0
1542907754.781,153.320,17.090,29.785,135.254,-556.641,0
1542907754.785,152.344,18.066,31.250,148.438,-516.602,0
1542907754.788,148.926,20.996,30.273,151.367,-497.559,0
1542907754.792,139.648,18.066,33.203,147.461,-479.492,0
1542907754.796,131.348,18.066,32.715,143.066,-412.109,0
1542907754.800,134.277,29.297,30.273,134.766,-409.668,0
1542907754.804,137.695,33.203,33.203,135.742,-424.805,0
1542907754.808,131.348,23.438,35.156,143.555,-378.906,0
1542907754.812,133.301,26.367,31.738,139.648,-353.516,0
1542907754.816,135.254,30.762,32.227,132.812,-327.148,0
1542907754.820,135.254,35.645,34.180,127.930,-288.574,0
1542907754.824,128.906,33.691,33.203,128.418,-256.836,0
1542907754.828,127.441,30.762,37.109,127.441,-212.402,0
1542907754.831,116.699,27.832,41.504,123.535,-213.379,0
1542907754.835,118.164,27.832,41.016,118.652,-267.090,0
1542907754.839,126.953,26.855,41.016,119.141,-224.121,0
1542907754.843,118.652,19.531,41.016,122.559,-160.645,0
1542907754.847,111.816,22.461,35.645,113.770,-177.246,0
1542907754.851,104.492,28.809,29.785,113.281,-265.137,0
1542907754.855,108.887,32.715,27.344,111.816,-232.422,0
1542907754.859,105.957,36.621,26.855,109.863,-186.523,0
1542907754.863,109.375,39.062,29.785,110.840,-170.410,0
1542907754.867,111.328,38.574,34.668,111.328,-138.672,0
1542907754.871,99.121,36.133,35.645,110.352,-123.535,0
1542907754.874,100.098,31.738,33.203,100.586,-75.195,0
1542907754.878,101.562,27.344,29.297,93.750,-89.844,0
1542907754.882,96.191,31.738,30.762,96.680,-80.078,0
1542907754.886,101.562,31.250,34.180,104.004,-18.066,0
1542907754.890,99.121,30.762,33.203,99.121,-70.801,0
1542907754.894,97.168,32.227,31.738,97.656,-84.473,0
1542907754.898,100.586,34.668,32.227,102.539,-29.785,0
1542907754.902,96.191,34.668,32.227,93.750,-65.918,0
1542907754.906,96.191,26.855,32.715,92.773,-76.172,0
1542907754.910,86.914,24.414,32.227,92.285,-7.812,0
1542907754.913,86.914,29.785,30.762,84.961,-2.441,0
1542907754.917,85.938,28.809,31.738,85.449,-70.801,0
1542907754.921,82.520,32.715,32.715,83.496,-86.426,0
1542907754.925,87.402,32.715,29.785,81.543,-50.293,0
1542907754.929,86.914,28.320,34.668,83.984,-24.902,0
1542907754.933,86.914,34.668,36.621,85.449,-51.758,0
1542907754.937,90.332,40.527,29.785,88.379,-67.383,0
1542907754.941,89.355,42.480,32.227,91.797,-52.246,0
1542907754.945,85.449,32.227,34.180,92.285,-54.688,0
1542907754.949,83.496,29.785,31.738,88.379,-60.059,0
1542907754.953,85.938,31.738,30.273,82.031,-7.324,0
1542907754.956,81.055,21.973,33.691,79.590,-26.367,0
1542907754.960,83.008,22.461,35.645,87.891,-49.316,0
1542907754.964,72.266,24.902,36.133,89.355,46.387,0
1542907754.968,68.848,21.973,37.109,82.520,37.598,0
1542907754.972,64.941,29.785,33.691,80.566,-39.551,0
1542907754.976,69.824,29.297,37.109,78.125,0.488,0
1542907754.980,77.148,31.738,37.109,82.520,60.059,0
1542907754.984,76.660,41.504,31.250,83.008,5.371,0
1542907754.988,79.590,41.016,31.250,82.520,-89.844,0
1542907754.992,72.754,32.715,33.691,90.820,-73.242,0
1542907754.996,76.660,26.367,34.180,78.613,-21.973,0
1542907754.999,82.031,32.227,36.133,74.219,-60.547,0
1542907755.003,74.707,32.715,36.133,72.266,-9.766,0
1542907755.007,67.383,38.574,34.180,63.965,38.574,0
1542907755.011,63.477,35.156,30.762,58.594,-18.066,0
1542907755.015,66.406,20.020,31.250,54.688,-10.742,0
1542907755.019,68.359,26.367,33.203,55.664,32.715,0
1542907755.023,70.801,31.738,29.785,62.988,46.387,0
1542907755.027,63.477,29.297,31.250,57.129,26.855,0
1542907755.031,53.711,35.645,31.738,58.594,2.441,0
1542907755.035,55.176,38.086,32.227,59.570,43.945,0
1542907755.038,54.688,31.250,33.691,56.152,27.832,0
1542907755.042,56.641,29.785,31.250,62.500,1.465,0
1542907755.046,64.453,41.504,31.738,64.941,22.949,0
1542907755.050,67.383,42.969,29.297,65.430,22.461,0
1542907755.054,59.082,21.973,29.785,60.547,20.996,0
1542907755.058,52.734,20.508,29.297,54.688,5.859,0
1542907755.062,52.734,26.855,29.297,58.105,44.434,0
1542907755.066,53.711,27.344,31.738,62.500,95.215,0
1542907755.070,56.152,33.691,29.785,53.711,64.941,0
1542907755.074,53.223,35.645,30.762,49.805,43.945,0
1542907755.078,51.758,32.227,34.668,57.617,44.922,0
1542907755.081,47.363,41.992,31.250,58.105,5.859,0
1542907755.085,45.898,45.898,29.785,45.410,30.273,0
1542907755.089,44.922,33.203,30.762,40.039,82.520,0
1542907755.093,36.621,34.180,32.715,38.574,98.145,0
1542907755.097,25.391,41.504,35.645,35.156,110.840,0
1542907755.101,16.602,37.598,36.621,34.180,96.680,0
1542907755.105,2.930,39.062,32.715,20.508,118.164,0
1542907755.109,-9.277,47.852,38.086,11.230,93.750,0
1542907755.113,-19.043,50.293,43.945,5.371,31.738,0
1542907755.117,-14.648,55.176,38.574,-9.277,29.785,0
1542907755.121,-31.250,55.176,31.738,-16.113,65.430,0
1542907755.124,-58.594,49.316,28.809,-37.109,54.688,0
1542907755.128,-66.895,54.688,29.785,-61.035,19.531,0
1542907755.132,-72.266,59.570,31.250,-68.359,55.664,0
1542907755.136,-86.426,63.477,28.809,-70.801,33.203,0
1542907755.140,-103.516,72.266,23.926,-90.820,22.461,0
1542907755.144,-108.887,71.289,19.043,-111.816,51.758,0
1542907755.148,-105.469,65.918,17.090,-113.281,32.715,0
1542907755.152,-112.305,70.801,16.113,-120.605,40.527,0
1542907755.156,-151.855,80.078,13.184,-154.297,56.641,0
1542907755.160,-181.152,81.055,6.836,-187.988,3.906,0
1542907755.163,-187.012,84.473,1.953,-190.918,-18.555,0
1542907755.167,-189.453,91.309,2.930,-178.223,34.180,0
1542907755.171,-196.777,83.496,0.977,-188.477,41.016,0
1542907755.175,-200.684,78.125,0.977,-195.801,8.789,0
1542907755.179,-186.523,85.449,2.930,-186.035,60.059,0
1542907755.183,-182.617,88.867,-2.441,-185.547,100.098,0
1542907755.187,-167.969,91.309,-3.418,-177.246,41.016,0
1542907755.191,-153.320,86.426,6.348,-156.738,12.695,0
1542907755.195,-148.926,75.195,10.742,-152.832,-31.250,0
1542907755.199,-129.883,70.801,9.766,-137.695,15.625,0
1542907755.203,-118.164,71.777,10.742,-122.070,56.152,0
1542907755.206,-116.211,65.430,14.648,-117.188,28.320,0
1542907755.210,-85.938,51.270,23.438,-87.402,20.508,0
1542907755.214,-71.289,51.758,24.902,-69.336,29.785,0
1542907755.218,-62.012,45.898,25.391,-45.898,25.879,0
1542907755.222,-35.645,29.785,36.621,-16.602,57.129,0
1542907755.226,-28.809,22.949,44.922,0.488,35.645,0
1542907755.230,-6.348,21.484,42.480,20.996,-10.742,0
1542907755.234,16.602,24.414,40.039,39.551,46.875,0
1542907755.238,31.738,20.020,40.527,49.316,1.953,0
1542907755.242,60.547,10.254,40.039,62.988,18.066,0
1542907755.246,68.359,8.789,37.598,77.637,48.340,0
1542907755.249,66.406,7.812,36.621,85.938,9.277,0
1542907755.253,79.102,7.812,35.645,96.191,35.645,0
1542907755.257,89.355,10.742,29.785,103.516,30.273,0
1542907755.261,91.797,12.207,31.738,118.164,68.359,0
1542907755.265,94.727,12.695,33.691,124.512,63.477,0
1542907755.269,110.840,14.648,35.645,126.465,23.926,0
1542907755.273,118.652,18.066,36.621,126.953,20.996,0
1542907755.277,119.629,19.531,34.668,126.465,0.000,0
1542907755.281,113.281,16.113,35.156,122.559,-5.371,0
1542907755.285,107.422,15.137,30.762,116.699,12.207,0
1542907755.288,111.816,16.113,24.902,120.117,54.688,0
1542907755.292,114.746,11.230,29.297,127.441,65.430,0
1542907755.296,113.770,13.184,33.203,124.512,16.113,0
1542907755.300,124.512,12.207,33.203,126.465,3.418,0
1542907755.304,124.023,16.602,32.715,130.371,27.832,0
1542907755.308,114.746,20.020,35.156,128.906,12.695,0
1542907755.312,121.582,20.020,34.668,131.348,-20.508,0
1542907755.316,124.023,19.531,35.156,133.301,-29.297,0
1542907755.320,113.281,20.996,36.133,129.395,-41.016,0
1542907755.324,112.305,25.391,33.203,125.488,-16.602,0
1542907755.328,115.723,26.367,34.180,126.953,0.488,0
1542907755.331,116.211,25.879,31.250,126.953,-19.531,0
1542907755.335,124.023,20.996,26.855,125.977,-14.648,0
1542907755.339,115.234,14.648,29.785,131.836,72.754,0
1542907755.343,110.840,12.695,31.250,126.953,78.613,0
1542907755.347,122.070,18.555,29.297,117.676,15.625,0
1542907755.351,121.094,20.508,32.715,132.324,-3.906,0
1542907755.355,117.188,18.066,31.738,119.629,-15.137,0
1542907755.359,117.188,25.879,29.297,104.980,-9.766,0
1542907755.363,111.328,29.785,32.227,118.652,-9.277,0
1542907755.367,106.445,21.973,34.668,121.582,0.000,0
1542907755.371,102.539,19.531,35.156,113.770,21.484,0
1542907755.374,97.168,23.926,36.133,115.723,-0.977,0
1542907755.378,100.098,25.879,36.621,111.328,9.766,0
1542907755.382,90.332,21.484,39.062,109.375,37.598,0
1542907755.386,80.566,20.508,39.551,107.910,63.965,0
1542907755.390,81.543,25.879,36.621,101.562,40.527,0
1542907755.394,79.102,23.438,35.645,109.375,36.621,0
1542907755.398,88.379,22.949,36.133,109.863,18.066,0
1542907755.402,97.656,28.320,36.621,99.609,51.270,0
1542907755.406,92.773,31.250,37.598,103.516,44.434,0
1542907755.410,94.727,30.762,35.156,110.352,0.000,0
1542907755.413,91.797,30.273,32.715,106.934,39.062,0
1542907755.417,89.355,33.691,33.691,107.910,16.113,0
1542907755.421,95.703,27.832,35.645,112.305,-6.836,0
1542907755.425,90.820,20.020,36.621,106.445,-22.461,0
1542907755.429,85.449,24.414,37.598,105.957,-32.227,0
1542907755.433,80.078,27.832,35.156,101.074,5.859,0
1542907755.437,75.684,25.391,32.227,95.215,14.648,0
1542907755.441,75.195,33.691,31.738,91.797,41.992,0
1542907755.445,73.242,30.273,32.227,86.914,11.230,0
1542907755.449,75.684,31.250,28.809,83.496,-41.016,0
1542907755.453,81.543,39.551,30.762,84.473,-14.648,0
1542907755.456,74.219,29.785,32.715,86.914,50.293,0
1542907755.460,72.754,31.250,31.738,85.449,36.621,0
1542907755.464,76.172,38.086,32.227,77.637,-11.719,0
1542907755.468,70.801,29.297,34.180,76.660,-14.648,0
1542907755.472,67.871,33.203,32.227,79.102,-35.156,0
1542907755.476,66.895,31.250,31.250,80.078,-13.672,0
1542907755.480,61.035,36.133,32.715,69.336,32.715,0
1542907755.484,56.641,38.574,33.203,74.219,57.617,0
1542907755.488,58.105,29.785,34.668,84.473,37.109,0
1542907755.492,64.941,28.809,36.133,71.777,-0.488,0
1542907755.496,66.406,31.250,37.109,72.266,0.488,0
1542907755.499,61.035,35.156,35.156,77.148,35.156,0
1542907755.503,48.828,35.645,32.715,65.918,96.680,0
1542907755.507,52.246,31.250,33.691,58.105,96.191,0
1542907755.511,51.758,31.250,34.668,56.641,-7.324,0
1542907755.515,40.039,29.785,32.715,59.082,0.977,0
1542907755.519,43.945,28.809,33.203,69.336,4.395,0
1542907755.523,50.293,36.133,35.156,59.082,-11.719,0
1542907755.527,51.270,31.738,35.645,49.805,26.367,0
1542907755.531,48.828,29.297,34.668,53.223,7.324,0
1542907755.535,48.828,30.762,33.691,55.664,-3.418,0
1542907755.538,52.734,27.344,33.691,53.711,13.184,0
1542907755.542,53.223,25.879,33.203,60.547,22.949,0
1542907755.546,50.293,32.227,29.785,62.500,-0.488,0
1542907755.550,47.852,30.762,31.738,61.035,7.812,0
1542907755.554,53.711,34.180,33.691,62.988,32.227,0
1542907755.558,48.340,31.738,35.645,61.035,59.570,0
1542907755.562,45.410,20.020,36.621,64.453,116.211,0
1542907755.566,66.895,24.902,37.109,83.008,61.035,0
1542907755.570,92.285,29.785,41.504,99.609,26.855,0
1542907755.574,75.684,37.109,32.227,74.707,-5.371,0
1542907755.578,43.945,40.527,21.484,43.945,14.160,0
1542907755.581,43.457,39.551,22.461,41.016,45.410,0
1542907755.585,41.016,37.598,23.438,41.504,34.180,0
1542907755.589,37.598,35.645,25.391,38.086,39.062,0
1542907755.593,31.738,31.250,27.344,44.922,27.832,0
1542907755.597,32.227,32.227,29.297,52.246,38.574,0
1542907755.601,49.316,35.156,31.738,49.316,82.031,0
1542907755.605,41.504,30.762,30.273,56.641,69.824,0
1542907755.609,34.668,26.367,35.156,54.688,-2.441,0
1542907755.613,41.992,30.762,34.668,47.852,8.301,0
1542907755.617,44.434,37.109,30.762,55.664,50.293,0
1542907755.621,42.969,36.133,32.715,54.199,3.906,0
1542907755.624,41.992,27.832,33.203,56.152,-16.602,0
1542907755.628,42.480,30.273,32.227,53.223,75.195,0
1542907755.632,41.992,37.109,25.879,41.992,64.453,0
1542907755.636,49.805,37.109,29.785,51.758,47.852,0
1542907755.640,49.316,30.762,34.180,50.293,88.867,0
1542907755.644,40.039,25.879,27.344,40.527,83.008,0
1542907755.648,34.180,21.973,23.926,41.504,62.988,0
1542907755.652,39.551,31.250,27.832,41.016,26.855,0
1542907755.656,36.621,37.598,29.297,35.645,21.484,0
1542907755.660,26.367,29.785,28.320,34.180,37.598,0
1542907755.663,28.809,35.645,32.227,38.574,35.645,0
1542907755.667,32.227,35.645,32.715,44.922,40.527,0
1542907755.671,31.250,34.180,26.367,39.062,33.203,0
1542907755.675,21.484,30.273,23.438,30.762,50.293,0
1542907755.679,21.484,23.926,23.438,34.180,59.082,0
1542907755.683,19.043,27.832,25.879,33.203,32.715,0
1542907755.687,18.555,35.156,25.391,29.785,36.133,0
1542907755.691,24.902,27.344,24.902,38.574,15.137,0
1542907755.695,20.020,28.320,28.809,36.133,3.418,0
1542907755.699,20.508,32.227,31.250,30.273,13.672,0
1542907755.703,30.273,29.297,28.809,30.762,65.918,0
1542907755.706,33.203,35.645,27.832,28.809,53.711,0
1542907755.710,26.367,35.645,25.391,35.156,3.906,0
1542907755.714,29.785,32.715,24.414,38.574,45.410,0
1542907755.718,30.273,34.180,28.320,37.109,43.945,0
1542907755.722,26.855,38.086,32.227,44.434,-14.160,0
1542907755.726,30.273,39.551,27.344,44.922,1.465,0
1542907755.730,31.250,39.551,24.414,33.691,-0.977,0
1542907755.734,23.438,32.227,28.809,26.855,6.348,0
1542907755.738,19.043,25.879,32.227,22.461,66.895,0
1542907755.742,17.090,27.832,31.738,24.902,25.391,0
1542907755.746,14.160,31.250,30.762,19.531,8.789,0
1542907755.749,17.578,32.715,32.715,17.090,30.762,0
1542907755.753,15.137,34.180,33.691,18.066,7.812,0
1542907755.757,11.230,38.574,28.809,17.090,-38.574,0
1542907755.761,10.254,39.062,26.367,18.555,36.621,0
1542907755.765,9.277,39.062,29.297,12.695,86.914,0
1542907755.769,7.812,48.828,30.762,9.766,33.691,0
1542907755.773,2.441,46.875,30.273,10.742,15.137,0
1542907755.777,2.930,33.203,32.715,11.230,-6.836,0
1542907755.781,1.465,34.668,33.691,10.742,28.809,0
1542907755.785,-4.395,39.062,30.762,5.371,44.434,0
1542907755.788,-3.418,41.504,32.227,3.906,16.602,0
1542907755.792,-4.883,53.223,36.133,10.254,23.926,0
1542907755.796,-4.395,63.965,38.086,11.719,47.852,0
1542907755.800,-6.836,53.711,30.273,3.418,74.707,0
1542907755.804,-16.113,41.992,22.949,-4.395,126.953,0
1542907755.808,-21.484,41.016,24.902,-14.160,100.098,0
1542907755.812,-32.715,47.363,27.344,-16.113,14.648,0
1542907755.816,-40.039,55.176,25.879,-23.438,10.254,0
1542907755.820,-53.711,58.594,26.367,-40.527,58.594,0
1542907755.824,-83.496,55.664,25.391,-63.477,39.551,0
1542907755.828,-98.145,50.781,20.508,-82.520,37.598,0
1542907755.831,-106.445,59.082,14.648,-97.168,28.320,0
1542907755.835,-124.512,71.777,12.207,-117.188,1.953,0
1542907755.839,-132.324,74.707,11.230,-127.441,43.457,0
1542907755.843,-144.531,78.125,5.371,-132.324,19.043,0
1542907755.847,-173.828,79.590,6.836,-164.062,22.461,0
1542907755.851,-202.148,70.801,7.324,-195.801,33.203,0
1542907755.855,-203.125,66.406,3.418,-198.730,-3.906,0
1542907755.859,-200.195,69.824,0.000,-201.660,-30.273,0
1542907755.863,-205.078,73.242,-1.465,-210.449,19.043,0
1542907755.867,-201.660,76.172,-4.395,-218.262,40.039,0
1542907755.871,-192.871,72.266,-3.418,-201.660,2.441,0
1542907755.874,-188.477,67.871,3.418,-193.359,-3.906,0
1542907755.878,-179.688,66.406,10.742,-181.641,73.730,0
1542907755.882,-157.715,65.918,12.207,-153.809,58.594,0
1542907755.886,-153.320,69.824,17.578,-141.602,25.391,0
1542907755.890,-134.766,72.266,20.508,-124.023,15.137,0
1542907755.894,-113.281,63.477,14.648,-106.934,-19.531,0
1542907755.898,-108.398,53.223,14.648,-103.516,0.488,0
1542907755.902,-87.402,48.828,23.926,-85.449,11.230,0
1542907755.906,-56.152,45.410,30.762,-41.504,54.199,0
1542907755.910,-35.156,44.922,32.227,-13.672,9.277,0
1542907755.913,-20.020,28.809,34.180,-0.488,-31.250,0
1542907755.917,0.488,18.555,38.086,17.090,35.645,0
1542907755.921,16.602,23.926,39.062,38.086,38.574,0
1542907755.925,40.527,13.184,38.086,57.129,42.480,0
1542907755.929,55.664,5.859,43.457,65.918,41.992,0
1542907755.933,62.012,9.766,41.016,75.684,-13.184,0
1542907755.937,69.824,8.789,35.156,88.379,-15.625,0
1542907755.941,82.031,4.395,38.086,102.539,-14.160,0
1542907755.945,91.309,6.836,37.598,112.305,-1.953,0
1542907755.949,92.285,10.254,33.691,119.141,48.340,0
1542907755.953,89.844,11.719,33.203,117.676,32.227,0
1542907755.956,91.797,12.695,36.133,115.723,-22.461,0
1542907755.960,103.027,1.465,32.715,114.258,2.441,0
1542907755.964,108.398,-7.812,33.691,121.094,23.926,0
1542907755.968,111.328,-2.930,35.645,126.465,-47.852,0
1542907755.972,116.211,7.812,32.227,122.559,-32.227,0
1542907755.976,117.676,6.348,33.691,126.953,32.227,0
1542907755.980,123.047,5.859,35.645,131.348,61.035,0
1542907755.984,120.117,10.742,36.133,134.277,61.035,0
1542907755.988,118.652,8.789,36.621,140.137,7.324,0
1542907755.992,116.699,10.254,40.039,139.160,-7.812,0
1542907755.996,113.281,13.184,41.016,128.906,46.875,0
1542907755.999,114.258,15.625,43.945,125.488,65.918,0
1542907756.003,113.281,14.648,44.434,128.906,17.578,0
1542907756.007,104.492,10.742,38.574,131.348,-1.953,0
1542907756.011,105.469,14.648,39.551,124.023,40.527,0
1542907756.015,113.770,14.648,37.109,119.629,57.617,0
1542907756.019,109.863,9.277,34.180,117.676,14.160,0
1542907756.023,110.840,10.742,34.668,114.746,19.043,0
1542907756.027,114.746,22.461,35.156,121.094,7.812,0
1542907756.031,112.793,29.785,36.621,114.258,-6.348,0
1542907756.035,111.328,23.926,38.086,108.398,58.594,0
1542907756.038,102.051,19.531,33.203,109.375,76.660,0
1542907756.042,90.332,20.020,30.273,105.469,49.316,0
1542907756.046,98.633,17.090,34.668,109.863,67.871,0
1542907756.050,106.445,19.531,34.180,107.422,44.434,0
1542907756.054,100.586,21.973,32.227,97.656,-4.395,0
1542907756.058,93.750,23.438,30.762,100.098,46.387,0
1542907756.062,99.609,28.809,34.668,102.051,18.555,0
1542907756.066,101.562,21.973,37.109,103.027,-40.527,0
1542907756.070,99.609,21.484,30.273,104.980,-9.766,0
1542907756.074,102.539,27.832,29.785,108.398,53.711,0
1542907756.078,104.004,33.203,30.762,105.469,58.594,0
1542907756.081,109.375,34.180,31.738,98.633,17.578,0
1542907756.085,94.238,28.320,30.273,100.098,-19.043,0
1542907756.089,83.008,24.414,26.367,97.656,-45.410,0
1542907756.093,92.773,25.879,27.832,103.027,26.367,0
1542907756.097,93.750,22.949,33.203,100.098,83.008,0
1542907756.101,86.426,19.043,32.227,96.680,54.199,0
1542907756.105,83.496,25.879,32.227,96.191,98.145,0
1542907756.109,83.008,27.344,33.203,86.914,102.051,0
1542907756.113,80.566,31.738,29.297,82.520,29.785,0
1542907756.117,78.613,43.457,27.344,82.031,42.480,0
1542907756.121,81.543,33.203,35.156,87.891,55.176,0
1542907756.124,76.172,18.555,35.645,73.730,30.762,0
1542907756.128,78.125,18.555,32.715,73.242,-23.926,0
1542907756.132,80.566,22.461,33.203,75.195,-30.273,0
1542907756.136,75.684,25.879,29.297,67.383,22.461,0
1542907756.140,74.707,26.855,30.273,79.590,42.480,0
1542907756.144,70.801,20.996,34.668,83.008,41.016,0
1542907756.148,69.824,28.809,33.691,82.520,80.566,0
1542907756.152,74.707,41.504,29.785,85.449,33.691,0
1542907756.156,77.148,25.391,27.832,82.031,29.297,0
1542907756.160,70.312,13.184,30.762,80.078,58.105,0
1542907756.163,67.383,16.602,29.785,80.078,-15.137,0
1542907756.167,75.684,20.996,29.297,75.684,-47.363,0
1542907756.171,77.637,23.926,34.668,71.289,-0.977,0
1542907756.175,66.895,21.484,31.250,74.707,36.133,0
1542907756.179,63.477,19.043,27.832,75.195,-19.531,0
1542907756.183,63.965,29.297,28.320,75.195,13.672,0
1542907756.187,60.059,38.086,29.785,70.801,77.148,0
1542907756.191,56.641,38.574,33.203,71.777,68.359,0
1542907756.195,55.176,34.180,33.691,73.730,71.289,0
1542907756.199,55.176,21.973,29.785,67.871,105.957,0
1542907756.203,52.734,20.996,28.320,65.918,97.168,0
1542907756.206,45.898,28.809,27.344,61.035,57.129,0
1542907756.210,48.828,21.973,29.297,61.035,29.297,0
1542907756.214,53.223,18.555,32.715,59.570,16.113,0
1542907756.218,55.664,28.809,26.855,56.152,52.734,0
1542907756.222,58.105,28.809,25.879,58.594,112.793,0
1542907756.226,41.992,27.344,28.320,55.664,30.762,0
1542907756.230,47.363,27.344,28.809,58.594,-43.457,0
1542907756.234,50.781,34.668,25.391,63.477,-5.371,0
1542907756.238,42.969,38.574,23.926,47.363,40.039,0
1542907756.242,56.152,30.762,25.879,46.387,59.570,0
1542907756.246,45.410,30.273,26.367,53.223,28.320,0
1542907756.249,33.691,34.668,27.344,50.293,24.414,0
1542907756.253,42.480,35.156,25.391,49.316,27.832,0
1542907756.257,41.992,34.668,22.949,50.293,53.711,0
1542907756.261,34.180,35.156,25.391,46.875,85.449,0
1542907756.265,35.645,26.855,30.762,58.594,78.125,0
1542907756.269,39.062,22.461,29.785,48.340,10.254,0
1542907756.273,41.016,24.414,31.250,42.480,8.789,0
1542907756.277,46.387,28.809,32.227,48.340,20.020,0
1542907756.281,45.410,31.738,30.273,40.527,22.949,0
1542907756.285,39.062,38.574,28.320,45.898,51.758,0
1542907756.288,37.109,33.691,31.738,42.969,7.812,0
1542907756.292,39.062,25.879,33.691,42.480,-4.395,0
1542907756.296,35.156,29.297,29.297,43.457,77.148,0
1542907756.300,33.691,26.367,27.832,49.316,91.309,0
1542907756.304,31.738,22.949,28.320,45.898,39.062,0
1542907756.308,30.762,27.832,27.344,43.945,19.043,0
1542907756.312,40.527,29.785,28.320,53.711,22.461,0
1542907756.316,38.086,25.879,29.785,50.293,-6.836,0
1542907756.320,31.738,27.344,29.297,44.434,23.438,0
1542907756.324,27.344,21.973,28.320,42.480,110.352,0
1542907756.328,29.297,20.996,28.320,44.922,99.609,0
1542907756.331,32.715,25.391,27.832,44.434,60.547,0
1542907756.335,29.785,26.367,28.320,43.945,64.941,0
1542907756.339,33.203,28.809,28.809,56.641,59.082,0
1542907756.343,44.434,26.855,32.227,51.270,28.320,0
1542907756.347,36.621,34.668,30.762,48.340,33.203,0
1542907756.351,23.926,35.645,27.344,48.340,33.203,0
1542907756.355,42.969,19.531,28.809,44.434,1.465,0
1542907756.359,58.594,20.508,28.809,63.477,40.039,0
1542907756.363,40.039,30.273,25.391,50.781,55.176,0
1542907756.367,15.137,36.621,19.531,19.531,34.180,0
1542907756.371,11.719,36.621,21.484,18.555,6.348,0
1542907756.374,25.391,30.273,22.461,31.738,-52.734,0
1542907756.378,27.832,33.203,18.555,37.109,-30.762,0
1542907756.382,41.504,32.227,22.949,37.109,21.484,0
1542907756.386,48.828,30.762,21.973,33.203,61.035,0
1542907756.390,39.062,27.832,21.973,37.109,85.938,0
1542907756.394,45.410,30.273,27.832,50.781,7.324,0
1542907756.398,43.945,34.180,28.809,51.758,-18.555,0
1542907756.402,32.227,37.598,31.250,48.340,3.906,0
1542907756.406,34.180,37.109,32.227,54.688,-26.367,0
1542907756.410,35.156,31.250,30.273,47.852,9.277,0
1542907756.413,28.320,29.297,33.203,42.480,61.035,0
1542907756.417,34.668,33.691,33.691,51.758,18.066,0
1542907756.421,37.109,42.480,27.832,57.129,-2.441,0
1542907756.425,37.598,34.180,24.414,52.246,-34.668,0
1542907756.429,41.016,32.227,19.531,51.758,-34.180,0
1542907756.433,37.598,36.621,20.020,50.293,-13.184,0
1542907756.437,33.203,34.180,24.414,49.316,-10.742,0
1542907756.441,34.668,32.227,28.809,52.246,45.898,0
1542907756.445,37.109,30.762,27.344,52.246,41.016,0
1542907756.449,34.180,32.715,28.320,51.758,24.902,0
1542907756.453,34.668,38.574,31.250,49.805,2.441,0
1542907756.456,36.621,36.621,26.855,45.410,-25.879,0
1542907756.460,39.062,36.133,27.344,47.852,-13.184,0
1542907756.464,41.016,34.180,33.203,50.293,-9.766,0
1542907756.468,35.156,35.645,29.785,48.828,24.902,0
1542907756.472,39.062,40.527,27.344,47.852,37.109,0
1542907756.476,40.527,30.273,30.762,52.246,47.363,0
1542907756.480,34.668,28.809,28.320,45.410,8.301,0
1542907756.484,28.809,31.250,23.926,40.039,-7.324,0
1542907756.488,30.273,28.320,19.531,43.945,38.574,0
1542907756.492,27.832,30.273,18.066,36.133,33.203,0
1542907756.496,29.785,32.715,26.855,38.574,19.043,0
1542907756.499,31.250,40.527,28.320,33.203,33.691,0
