timestamps,TP9,AF7,AF8,TP10,Right AUX,Marker0
1542732128.856,99.609,15.137,31.250,110.352,20.020,0
1542732128.860,103.516,24.414,24.414,109.375,47.852,0
1542732128.864,106.445,34.668,27.344,107.910,4.883,0
1542732128.867,100.098,25.391,36.621,102.051,18.066,0
1542732128.871,100.098,8.789,42.480,101.562,-8.301,0
1542732128.875,97.168,8.789,44.922,97.168,49.805,0
1542732128.879,89.844,16.113,44.434,87.402,63.965,0
1542732128.883,90.820,16.602,42.480,84.961,12.695,0
1542732128.887,87.891,20.508,26.367,83.496,74.219,0
1542732128.891,87.891,32.715,23.438,89.355,91.797,0
1542732128.895,85.449,33.203,24.902,85.449,20.020,0
1542732128.899,77.637,27.832,14.160,75.684,5.859,0
1542732128.903,79.590,24.414,24.902,75.684,29.785,0
1542732128.907,74.707,19.531,38.574,70.312,21.484,0
1542732128.910,70.801,20.020,35.645,70.801,17.578,0
1542732128.914,75.684,20.508,27.344,73.730,26.855,0
1542732128.918,76.172,23.438,29.297,70.801,-6.836,0
1542732128.922,69.824,29.297,37.109,68.359,21.973,0
1542732128.926,83.496,18.066,39.062,88.379,21.973,0
1542732128.930,96.680,25.879,41.504,99.121,13.184,0
1542732128.934,65.430,45.410,38.574,59.082,7.812,0
1542732128.938,51.758,38.086,24.902,42.969,-9.277,0
1542732128.942,67.871,39.551,15.625,56.641,51.758,0
1542732128.946,64.941,49.805,14.160,52.246,40.527,0
1542732128.949,66.406,45.898,19.043,50.781,-0.977,0
1542732128.953,78.125,45.898,27.832,54.688,-7.324,0
1542732128.957,75.684,49.316,33.203,59.570,63.477,0
1542732128.961,77.148,44.922,24.902,65.430,69.824,0
1542732128.965,73.730,41.016,22.949,59.570,38.086,0
1542732128.969,64.453,41.992,24.902,53.711,50.293,0
1542732128.973,63.477,40.527,24.902,54.688,-4.395,0
1542732128.977,64.453,36.133,29.297,52.734,-9.277,0
1542732128.981,64.941,41.016,31.738,47.852,11.719,0
1542732128.985,62.988,41.992,33.203,42.480,-9.766,0
1542732128.989,60.059,39.062,28.320,45.410,-12.207,0
1542732128.992,56.152,42.969,20.996,48.340,-29.785,0
1542732128.996,51.270,39.062,28.320,43.457,13.184,0
1542732129.000,47.363,33.691,37.109,41.016,71.289,0
1542732129.004,50.781,37.109,38.086,47.363,29.297,0
1542732129.008,49.316,34.180,36.621,46.387,22.949,0
1542732129.012,44.922,32.227,37.598,43.457,40.039,0
1542732129.016,47.852,35.156,41.016,46.875,13.184,0
1542732129.020,49.316,35.645,35.645,48.828,38.574,0
1542732129.024,55.176,33.691,36.621,50.293,50.293,0
1542732129.028,57.617,30.762,47.852,47.363,32.227,0
1542732129.032,52.246,34.668,40.039,43.945,32.227,0
1542732129.035,53.711,41.992,29.785,44.922,-10.742,0
1542732129.039,53.223,39.062,34.180,43.457,16.113,0
1542732129.043,46.875,41.504,41.016,43.457,69.824,0
1542732129.047,44.922,49.316,41.504,41.504,83.008,0
1542732129.051,48.340,42.480,37.109,37.109,44.922,0
1542732129.055,43.457,32.227,38.086,32.715,10.742,0
1542732129.059,34.668,31.738,38.574,28.320,76.172,0
1542732129.063,41.992,37.109,39.551,26.367,49.805,0
1542732129.067,43.457,38.086,41.992,26.367,-50.293,0
1542732129.071,39.551,33.691,33.691,24.414,37.598,0
1542732129.074,45.898,30.762,34.668,21.973,79.102,0
1542732129.078,44.434,33.203,39.062,30.273,1.953,0
1542732129.082,36.133,40.527,37.598,36.621,-3.418,0
1542732129.086,31.738,41.992,44.922,34.668,28.320,0
1542732129.090,24.414,33.203,44.434,34.180,17.578,0
1542732129.094,21.484,27.832,42.480,34.180,4.883,0
1542732129.098,22.461,27.832,37.109,33.691,7.812,0
1542732129.102,17.578,29.297,26.855,30.273,-4.395,0
1542732129.106,23.926,37.109,29.297,31.738,-19.531,0
1542732129.110,27.832,41.504,39.551,34.180,-12.695,0
1542732129.114,27.832,40.039,48.828,35.645,22.949,0
1542732129.117,28.320,32.715,51.758,30.273,22.949,0
1542732129.121,28.320,30.762,46.875,25.879,-5.859,0
1542732129.125,33.203,40.527,40.039,29.297,49.805,0
1542732129.129,30.762,43.457,41.992,29.297,83.008,0
1542732129.133,27.832,40.527,43.457,28.320,63.477,0
1542732129.137,26.855,39.062,38.086,24.414,70.801,0
1542732129.141,20.996,37.109,31.738,21.484,57.129,0
1542732129.145,22.461,40.527,36.621,27.344,48.340,0
1542732129.149,26.855,46.387,37.598,31.738,46.387,0
1542732129.153,25.879,37.598,34.668,28.809,33.691,0
1542732129.157,24.902,32.227,37.598,32.227,41.016,0
1542732129.160,31.250,38.086,40.039,35.645,20.996,0
1542732129.164,32.715,33.203,42.969,35.156,1.465,0
1542732129.168,28.320,30.273,48.828,36.621,-28.809,0
1542732129.172,27.832,37.598,46.875,38.086,5.371,0
1542732129.176,26.367,38.086,41.504,35.156,32.715,0
1542732129.180,25.391,35.645,47.363,34.180,13.672,0
1542732129.184,30.273,38.574,49.316,39.062,33.203,0
1542732129.188,27.832,36.133,42.969,36.133,42.480,0
1542732129.192,26.367,34.668,42.480,34.180,70.312,0
1542732129.196,29.297,37.109,39.062,36.621,72.266,0
1542732129.199,23.438,39.062,29.297,27.832,91.309,0
1542732129.203,21.484,40.039,32.227,23.438,39.062,0
1542732129.207,23.926,31.738,42.480,22.461,32.227,0
1542732129.211,25.879,30.762,44.434,21.973,36.621,0
1542732129.215,26.855,36.133,44.434,25.391,15.137,0
1542732129.219,28.320,38.086,41.504,26.855,-6.836,0
1542732129.223,33.203,37.598,37.598,24.414,-38.086,0
1542732129.227,44.922,38.574,33.691,27.832,27.344,0
1542732129.231,38.574,36.621,40.527,34.180,76.172,0
1542732129.235,17.578,33.691,52.246,22.949,59.082,0
1542732129.239,9.766,34.668,50.781,13.672,-3.906,0
1542732129.242,9.277,33.691,52.246,18.066,7.324,0
1542732129.246,14.648,37.109,55.176,31.738,31.738,0
1542732129.250,4.395,26.855,50.781,21.484,46.387,0
1542732129.254,6.836,17.578,53.223,12.207,57.129,0
1542732129.258,17.578,18.066,60.059,29.297,19.043,0
1542732129.262,3.418,17.090,60.059,24.414,-24.902,0
1542732129.266,8.789,13.184,57.617,20.996,0.977,0
1542732129.270,19.531,14.648,54.688,25.879,45.898,0
1542732129.274,16.602,23.438,48.828,27.344,55.664,0
1542732129.278,20.996,26.367,47.363,31.250,33.691,0
1542732129.282,23.438,23.438,44.922,33.203,33.203,0
1542732129.285,24.414,24.414,45.898,36.133,76.660,0
1542732129.289,25.391,22.949,51.758,36.621,98.145,0
1542732129.293,24.414,24.414,60.059,39.062,31.250,0
1542732129.297,29.297,25.879,66.406,43.457,4.883,0
1542732129.301,29.785,25.879,54.688,36.621,50.781,0
1542732129.305,23.926,20.996,51.270,28.320,54.688,0
1542732129.309,25.879,7.324,49.805,28.809,26.855,0
1542732129.313,27.344,2.441,43.945,27.344,-4.883,0
1542732129.317,30.762,5.371,51.270,29.785,4.883,0
1542732129.321,38.574,14.648,52.246,32.715,-24.902,0
1542732129.324,36.621,21.973,49.316,34.668,16.113,0
1542732129.328,29.785,23.926,55.176,34.668,28.809,0
1542732129.332,32.227,23.926,57.129,35.156,-10.742,0
1542732129.336,33.691,18.555,50.293,37.598,41.016,0
1542732129.340,25.391,11.230,46.387,33.203,58.105,0
1542732129.344,22.461,18.066,43.945,30.273,108.398,0
1542732129.348,21.973,33.691,46.875,28.809,70.801,0
1542732129.352,20.020,32.715,52.246,27.344,-20.020,0
1542732129.356,13.672,19.043,42.480,18.555,26.855,0
1542732129.360,10.742,16.602,36.133,9.766,63.477,0
1542732129.364,9.766,24.414,36.621,14.160,26.855,0
1542732129.367,7.812,27.832,39.062,12.207,20.996,0
1542732129.371,10.254,25.879,46.387,11.230,4.395,0
1542732129.375,11.719,23.926,44.922,14.160,-24.414,0
1542732129.379,5.859,18.066,40.527,11.719,-28.809,0
1542732129.383,7.812,16.113,40.039,18.066,-13.184,0
1542732129.387,13.672,22.461,41.016,21.484,24.902,0
1542732129.391,16.602,31.250,43.457,20.508,14.648,0
1542732129.395,19.531,32.715,43.457,21.484,15.625,0
1542732129.399,24.902,34.668,49.316,23.926,56.641,0
1542732129.403,28.809,39.551,52.246,23.438,36.133,0
1542732129.407,24.414,36.133,43.945,21.484,-14.160,0
1542732129.410,25.391,32.715,37.598,23.438,0.000,0
1542732129.414,24.902,25.391,40.527,22.949,8.789,0
1542732129.418,27.832,24.414,39.062,26.855,21.484,0
1542732129.422,32.227,34.180,36.133,24.902,20.508,0
1542732129.426,26.367,37.109,39.551,20.996,47.852,0
1542732129.430,19.531,36.621,42.969,20.996,22.461,0
1542732129.434,22.461,37.598,43.945,21.973,-7.324,0
1542732129.438,23.926,41.992,41.992,24.414,41.504,0
1542732129.442,21.973,44.922,41.016,25.879,31.738,0
1542732129.446,20.020,44.922,41.016,19.043,0.977,0
1542732129.449,18.555,40.527,37.598,14.160,-22.949,0
1542732129.453,20.996,32.715,35.645,19.531,-69.824,0
1542732129.457,18.066,32.227,40.527,20.020,-10.742,0
1542732129.461,17.090,36.621,41.504,19.531,20.020,0
1542732129.465,19.531,35.156,38.086,20.508,-5.859,0
1542732129.469,13.672,33.203,38.574,18.066,64.453,0
1542732129.473,16.113,37.109,39.062,18.066,61.035,0
1542732129.477,23.438,46.875,41.016,20.996,48.340,0
1542732129.481,17.578,49.316,45.410,21.484,102.539,0
1542732129.485,14.648,41.504,41.504,23.438,60.059,0
1542732129.489,17.578,35.645,32.227,24.902,-2.930,0
1542732129.492,13.672,40.039,35.645,19.043,11.230,0
1542732129.496,18.066,41.992,43.457,21.973,15.625,0
1542732129.500,22.461,38.574,40.527,27.832,11.719,0
1542732129.504,17.578,38.574,31.250,19.043,-31.738,0
1542732129.508,35.156,40.039,23.438,25.391,-2.930,0
1542732129.512,49.316,40.527,27.832,41.016,-4.395,0
1542732129.516,18.066,33.691,43.457,21.973,29.785,0
1542732129.520,0.000,32.715,49.316,6.348,83.984,0
1542732129.524,10.742,41.504,39.551,12.695,72.754,0
1542732129.528,7.324,38.086,39.551,12.207,87.891,0
1542732129.532,0.488,33.203,47.852,13.184,60.059,0
1542732129.535,3.906,31.738,45.410,14.648,12.695,0
1542732129.539,13.672,33.203,38.574,10.254,36.621,0
1542732129.543,17.090,28.320,39.551,8.789,32.715,0
1542732129.547,9.766,17.090,45.898,11.719,3.906,0
1542732129.551,9.766,20.508,44.922,9.766,14.648,0
1542732129.555,14.160,30.762,41.992,7.324,33.691,0
1542732129.559,13.184,31.250,38.086,8.301,32.715,0
1542732129.563,15.625,26.855,37.109,10.254,9.277,0
1542732129.567,11.719,30.762,45.410,6.836,-30.762,0
1542732129.571,12.695,33.203,44.922,8.789,8.301,0
1542732129.574,19.531,33.691,40.527,17.578,35.156,0
1542732129.578,16.113,37.109,38.574,16.113,27.344,0
1542732129.582,11.230,29.785,41.504,13.184,51.758,0
1542732129.586,16.602,25.391,37.109,17.090,30.762,0
1542732129.590,20.508,33.203,36.621,20.996,44.434,0
1542732129.594,17.090,33.691,52.246,20.508,71.777,0
1542732129.598,20.996,33.691,58.105,18.066,23.438,0
1542732129.602,27.832,39.062,51.270,18.555,38.086,0
1542732129.606,19.531,33.691,44.434,21.973,53.223,0
1542732129.610,16.602,27.832,43.457,21.973,31.250,0
1542732129.614,21.484,31.738,44.922,21.973,38.574,0
1542732129.617,22.949,32.227,47.852,20.020,64.453,0
1542732129.621,21.973,26.855,43.945,20.508,38.574,0
1542732129.625,20.020,27.344,39.551,21.484,38.574,0
1542732129.629,23.438,33.203,41.016,24.414,12.207,0
1542732129.633,39.551,21.484,47.363,42.969,30.762,0
1542732129.637,53.223,22.949,44.922,52.734,8.789,0
1542732129.641,29.785,44.434,39.551,20.996,-21.484,0
1542732129.645,11.230,47.852,37.598,1.465,36.133,0
1542732129.649,8.301,53.711,23.438,-0.488,5.859,0
1542732129.653,17.090,63.965,20.508,8.789,32.227,0
1542732129.657,25.391,65.430,23.438,17.578,62.012,0
1542732129.660,16.113,70.312,15.137,5.859,46.875,0
1542732129.664,25.391,78.125,7.812,11.230,36.621,0
1542732129.668,30.273,74.219,10.742,9.277,39.062,0
1542732129.672,32.715,68.848,16.602,11.230,66.895,0
1542732129.676,35.645,69.336,17.090,15.137,76.172,0
1542732129.680,33.691,67.383,17.578,8.789,-2.441,0
1542732129.684,40.527,61.523,17.090,8.789,-21.973,0
1542732129.688,43.945,61.035,25.391,9.766,39.062,0
1542732129.692,44.434,69.336,25.879,8.789,26.855,0
1542732129.696,50.293,75.684,19.531,13.184,13.672,0
1542732129.699,44.922,69.336,15.625,19.531,14.160,0
1542732129.703,36.621,62.012,14.648,30.273,18.555,0
1542732129.707,29.785,62.500,27.832,34.668,21.484,0
1542732129.711,20.020,55.176,34.180,29.297,-21.973,0
1542732129.715,19.043,46.875,33.203,27.832,-2.930,0
1542732129.719,25.391,45.410,32.715,24.902,13.672,0
1542732129.723,25.879,47.363,31.738,23.926,13.672,0
1542732129.727,22.949,47.363,28.809,21.973,33.691,0
1542732129.731,18.066,48.828,32.715,16.602,30.273,0
1542732129.735,20.996,52.734,40.039,18.066,36.621,0
1542732129.739,28.809,54.688,33.691,20.996,9.277,0
1542732129.742,31.738,52.734,27.344,26.367,27.832,0
1542732129.746,31.738,48.828,30.273,26.855,35.645,0
1542732129.750,36.133,48.340,32.715,26.367,51.758,0
1542732129.754,41.504,42.480,36.621,35.156,4.395,0
1542732129.758,43.945,42.480,39.551,40.527,-47.852,0
1542732129.762,43.457,47.363,41.504,37.109,-33.691,0
1542732129.766,43.457,47.363,41.016,37.109,20.020,0
1542732129.770,41.016,48.828,36.621,39.551,42.969,0
1542732129.774,36.621,51.270,30.762,31.738,18.555,0
1542732129.778,36.133,56.152,29.785,27.344,80.078,0
1542732129.782,37.109,52.246,32.715,28.320,103.516,0
1542732129.785,38.574,44.434,34.668,29.297,61.035,0
1542732129.789,35.156,44.922,37.598,31.250,53.223,0
1542732129.793,36.621,46.875,41.504,34.668,86.914,0
1542732129.797,39.062,46.875,41.992,36.621,69.824,0
1542732129.801,35.645,48.828,42.480,31.250,32.715,0
1542732129.805,31.250,42.480,41.992,23.926,49.805,0
1542732129.809,27.832,38.574,33.691,24.414,42.969,0
1542732129.813,20.020,36.621,27.832,20.020,39.062,0
1542732129.817,17.090,40.039,29.785,12.207,9.766,0
1542732129.821,16.602,45.898,32.227,9.277,-16.602,0
1542732129.824,17.090,35.645,36.133,10.254,34.180,0
1542732129.828,38.574,23.926,45.898,41.016,13.672,0
1542732129.832,34.180,34.668,46.875,37.598,-44.922,0
1542732129.836,-0.488,52.246,39.551,-1.465,25.391,0
1542732129.840,6.348,55.176,31.738,-2.441,48.340,0
1542732129.844,35.645,60.547,23.438,23.926,-20.020,0
1542732129.848,31.250,66.895,17.578,26.367,55.176,0
1542732129.852,31.250,63.965,11.230,19.043,69.824,0
1542732129.856,47.852,66.895,6.348,26.855,-15.625,0
1542732129.860,53.223,69.336,4.395,30.762,22.949,0
1542732129.864,67.871,64.453,-1.953,42.969,43.457,0
1542732129.867,83.008,68.848,-1.465,43.457,25.391,0
1542732129.871,78.125,76.172,4.883,35.156,9.766,0
1542732129.875,78.125,84.473,0.488,37.598,26.855,0
1542732129.879,89.844,88.379,-5.859,44.922,65.430,0
1542732129.883,102.539,84.473,-4.883,59.082,58.105,0
1542732129.887,97.168,84.961,-0.977,60.059,3.906,0
1542732129.891,93.262,80.078,2.930,61.035,14.160,0
1542732129.895,96.680,76.660,3.906,64.453,5.859,0
1542732129.899,94.238,72.266,1.465,61.035,-5.859,0
1542732129.903,91.797,73.242,0.488,61.035,8.789,0
1542732129.907,86.914,77.637,8.789,60.547,34.180,0
1542732129.910,76.172,70.312,10.742,53.711,20.508,0
1542732129.914,78.125,71.777,10.254,51.758,52.734,0
1542732129.918,85.449,76.660,12.207,58.594,43.457,0
1542732129.922,79.590,73.242,16.113,56.152,-12.207,0
1542732129.926,70.312,62.500,19.043,43.457,-13.672,0
1542732129.930,72.266,61.035,22.461,43.945,0.000,0
1542732129.934,70.801,69.824,16.602,44.434,27.832,0
1542732129.938,61.523,65.430,10.254,43.457,55.664,0
1542732129.942,55.664,60.059,20.020,46.875,42.969,0
1542732129.946,58.105,61.035,31.250,40.527,34.668,0
1542732129.949,56.152,55.176,37.109,38.086,-14.648,0
1542732129.953,51.758,55.176,38.086,42.969,-18.555,0
1542732129.957,44.922,60.059,32.715,36.621,28.809,0
1542732129.961,40.527,60.059,30.273,30.762,34.180,0
1542732129.965,44.922,57.617,28.320,31.738,83.008,0
1542732129.969,40.527,52.246,25.391,32.227,67.871,0
1542732129.973,33.691,57.617,28.320,27.832,60.059,0
1542732129.977,36.133,56.641,32.715,29.297,42.969,0
1542732129.981,43.945,52.734,33.691,37.109,14.160,0
1542732129.985,43.945,56.152,31.738,37.109,71.777,0
1542732129.989,39.062,56.641,39.062,40.527,44.922,0
1542732129.992,40.039,52.734,41.504,39.062,14.160,0
1542732129.996,48.340,44.434,38.086,41.992,43.945,0
1542732130.000,47.852,43.945,43.457,46.875,20.508,0
1542732130.004,39.551,54.199,40.527,41.504,2.930,0
1542732130.008,38.086,61.523,32.227,44.434,5.371,0
1542732130.012,36.621,57.617,35.645,44.922,25.391,0
1542732130.016,36.133,59.082,41.504,36.133,90.332,0
1542732130.020,34.668,58.594,33.203,27.344,126.953,0
1542732130.024,33.691,50.781,32.227,24.902,86.426,0
1542732130.028,32.715,48.828,37.109,23.926,73.730,0
1542732130.032,32.715,43.457,36.133,22.949,46.875,0
1542732130.035,40.039,40.527,34.180,34.668,20.020,0
1542732130.039,40.039,44.922,38.086,41.016,53.711,0
1542732130.043,34.180,46.875,44.922,34.180,-21.484,0
1542732130.047,30.273,50.781,43.945,26.367,-44.922,0
1542732130.051,30.273,57.129,42.969,28.320,50.781,0
1542732130.055,31.738,54.688,44.922,32.715,37.598,0
1542732130.059,28.809,48.828,43.945,33.203,-7.812,0
1542732130.063,24.414,42.969,37.109,21.973,15.625,0
1542732130.067,23.438,40.527,31.738,14.648,22.949,0
1542732130.071,21.484,42.969,31.738,21.973,49.805,0
1542732130.074,19.043,43.945,28.320,18.555,41.016,0
1542732130.078,18.066,40.527,33.691,10.742,7.812,0
1542732130.082,21.484,41.992,37.109,11.230,9.277,0
1542732130.086,26.367,47.852,39.062,19.043,46.387,0
1542732130.090,26.855,50.293,41.016,24.902,26.367,0
1542732130.094,23.438,49.805,38.086,22.949,-39.551,0
1542732130.098,25.879,55.176,35.156,21.484,10.254,0
1542732130.102,30.762,51.270,39.062,21.973,50.781,0
1542732130.106,25.879,38.574,39.062,24.902,50.293,0
1542732130.110,26.855,38.574,30.762,18.066,50.781,0
1542732130.114,28.809,40.527,30.762,13.672,21.973,0
1542732130.117,22.461,40.039,37.598,18.066,-26.855,0
1542732130.121,19.531,39.551,37.598,17.578,21.484,0
1542732130.125,19.531,47.363,32.227,18.066,42.969,0
1542732130.129,18.555,48.828,30.273,17.578,47.852,0
1542732130.133,18.066,43.457,34.668,17.578,64.453,0
1542732130.137,18.066,41.016,39.062,20.508,75.684,0
1542732130.141,17.578,41.992,43.457,20.508,95.215,0
1542732130.145,20.996,46.387,40.527,17.090,53.223,0
1542732130.149,21.484,48.340,36.621,17.578,55.664,0
1542732130.153,16.113,44.434,38.574,14.160,63.477,0
1542732130.157,13.184,36.133,30.762,5.859,43.457,0
1542732130.160,15.137,29.297,32.715,9.766,27.832,0
1542732130.164,18.555,30.762,41.504,14.160,10.742,0
1542732130.168,19.531,34.668,40.039,6.348,62.012,0
1542732130.172,18.066,37.598,40.039,5.371,49.316,0
1542732130.176,19.531,41.016,41.016,11.719,-19.043,0
1542732130.180,15.625,40.039,41.016,11.230,-33.691,0
1542732130.184,19.043,43.945,39.551,14.648,4.883,0
1542732130.188,28.320,47.852,43.457,20.996,38.574,0
1542732130.192,25.879,46.387,44.922,20.996,1.953,0
1542732130.196,24.902,42.480,37.598,15.625,5.859,0
1542732130.199,36.621,35.156,33.203,18.066,-28.320,0
1542732130.203,35.156,33.203,35.645,22.949,-40.039,0
1542732130.207,30.762,44.922,41.016,28.809,44.434,0
1542732130.211,35.645,49.805,43.457,30.273,66.895,0
1542732130.215,27.832,40.527,38.574,20.996,51.270,0
1542732130.219,25.879,40.039,34.180,21.484,22.461,0
1542732130.223,27.344,46.875,34.668,30.762,17.090,0
1542732130.227,26.367,46.387,40.039,33.691,-2.930,0
1542732130.231,29.297,42.480,45.898,29.297,-20.508,0
1542732130.235,32.227,45.898,41.992,29.785,-18.066,0
1542732130.239,28.320,48.340,34.180,27.344,-24.902,0
1542732130.242,24.414,46.387,42.480,20.020,5.371,0
1542732130.246,23.926,44.434,46.875,19.531,110.352,0
1542732130.250,20.020,41.504,37.109,22.949,82.520,0
1542732130.254,16.113,37.109,35.156,20.996,48.340,0
1542732130.258,19.043,35.645,41.016,16.602,47.363,0
1542732130.262,20.508,41.016,42.969,17.578,10.742,0
1542732130.266,20.996,47.852,39.062,19.043,-12.695,0
1542732130.270,19.531,46.875,36.621,19.531,0.977,0
1542732130.274,22.949,41.992,35.645,22.949,58.594,0
1542732130.278,22.461,40.527,34.180,17.578,33.203,0
1542732130.282,13.184,43.457,35.156,13.184,-12.207,0
1542732130.285,12.207,41.504,39.062,16.113,31.250,0
1542732130.289,17.578,39.551,42.969,15.137,3.418,0
1542732130.293,20.020,38.574,42.480,17.578,0.488,0
1542732130.297,14.160,36.621,41.016,21.973,0.977,0
1542732130.301,16.113,38.574,42.480,23.926,41.016,0
1542732130.305,21.484,40.039,45.898,28.809,104.492,0
1542732130.309,18.066,34.668,42.480,27.832,100.098,0
1542732130.313,18.066,37.109,38.574,20.996,58.594,0
1542732130.317,17.578,41.016,42.480,14.160,-30.273,0
1542732130.321,20.020,38.574,40.039,14.648,19.043,0
1542732130.324,21.973,40.039,36.621,16.602,57.129,0
1542732130.328,14.648,40.039,41.016,15.137,21.484,0
1542732130.332,15.137,37.598,40.039,11.719,1.465,0
1542732130.336,25.391,39.062,36.621,10.254,23.926,0
1542732130.340,30.273,41.504,41.016,15.137,99.121,0
1542732130.344,23.926,36.133,45.898,14.160,51.270,0
1542732130.348,15.137,38.574,40.527,16.113,8.789,0
1542732130.352,9.277,45.410,29.785,17.578,25.391,0
1542732130.356,9.277,40.039,32.227,18.066,-13.672,0
1542732130.360,7.812,41.504,39.551,15.625,20.508,0
1542732130.364,13.672,45.898,38.574,17.578,22.461,0
1542732130.367,22.461,41.992,33.203,20.020,-38.574,0
1542732130.371,16.113,41.992,35.645,15.137,8.301,0
1542732130.375,16.113,43.457,44.434,16.113,64.941,0
1542732130.379,23.926,40.527,48.828,20.020,43.945,0
1542732130.383,27.344,38.086,47.363,20.020,29.297,0
1542732130.387,23.926,34.668,43.457,19.043,-5.859,0
1542732130.391,23.926,34.180,42.480,22.949,-40.527,0
1542732130.395,21.484,37.109,43.457,18.066,1.465,0
1542732130.399,17.578,43.945,41.016,8.789,87.402,0
1542732130.403,18.555,44.434,40.039,10.742,51.758,0
1542732130.407,13.184,40.527,37.109,15.137,11.230,0
1542732130.410,14.160,43.945,36.133,18.555,-3.418,0
1542732130.414,13.672,46.387,43.457,19.531,-5.859,0
1542732130.418,15.137,48.340,43.945,20.020,30.273,0
1542732130.422,17.578,43.945,41.504,18.555,56.152,0
1542732130.426,21.484,34.668,37.598,20.508,60.547,0
1542732130.430,24.414,35.645,34.668,18.066,22.949,0
1542732130.434,22.461,45.898,39.551,15.625,33.203,0
1542732130.438,27.832,45.898,39.551,15.137,41.992,0
1542732130.442,26.367,37.109,39.551,10.742,-6.348,0
1542732130.446,21.484,41.992,40.039,15.625,58.594,0
1542732130.449,25.391,46.875,43.457,28.320,70.312,0
1542732130.453,28.320,41.504,45.410,36.621,31.250,0
1542732130.457,24.414,42.969,42.480,28.809,44.434,0
1542732130.461,24.902,43.457,46.387,24.902,20.020,0
1542732130.465,21.973,41.016,52.734,28.320,-4.883,0
1542732130.469,20.996,37.598,47.363,23.926,-10.254,0
1542732130.473,21.973,28.809,42.480,22.949,5.859,0
1542732130.477,20.020,29.297,50.293,24.414,59.570,0
1542732130.481,21.484,40.527,51.270,21.484,61.523,0
1542732130.485,20.508,47.852,47.363,17.090,11.719,0
1542732130.489,20.508,45.410,50.293,20.996,0.977,0
1542732130.492,20.508,37.598,53.223,28.320,23.438,0
1542732130.496,22.949,39.062,48.828,27.344,41.016,0
1542732130.500,23.926,43.457,44.922,24.414,44.922,0
1542732130.504,20.508,39.062,44.434,20.508,59.570,0
1542732130.508,17.578,34.180,42.969,11.230,56.641,0
1542732130.512,21.973,33.203,46.387,14.160,28.320,0
1542732130.516,24.414,36.133,49.316,14.648,-14.160,0
1542732130.520,18.555,40.039,46.875,9.766,37.598,0
1542732130.524,18.555,44.922,45.410,15.137,105.957,0
1542732130.528,16.602,49.316,42.969,10.254,64.941,0
1542732130.532,19.531,44.434,35.645,6.836,47.852,0
1542732130.535,22.461,42.480,35.645,19.531,82.031,0
1542732130.539,21.484,39.062,41.992,25.391,62.012,0
1542732130.543,25.879,24.902,38.574,23.926,36.621,0
1542732130.547,27.344,30.762,37.109,23.926,54.688,0
1542732130.551,23.438,55.176,46.875,21.484,58.594,0
1542732130.555,24.414,60.059,50.293,13.184,47.852,0
1542732130.559,25.879,49.805,42.480,13.184,31.738,0
1542732130.563,29.297,46.387,38.574,18.555,-20.996,0
1542732130.567,31.738,45.410,41.504,17.090,10.742,0
1542732130.571,33.203,40.527,42.480,17.090,43.457,0
1542732130.574,42.480,42.480,35.645,20.020,30.273,0
1542732130.578,37.598,47.852,33.691,25.391,45.898,0
1542732130.582,28.809,43.457,41.992,27.832,21.973,0
1542732130.586,34.180,40.527,46.875,31.250,11.230,0
1542732130.590,31.250,39.062,48.340,31.250,56.641,0
1542732130.594,28.809,38.574,45.898,30.273,68.359,0
1542732130.598,33.203,44.434,41.992,27.344,62.988,0
1542732130.602,32.715,43.457,41.992,26.855,54.199,0
1542732130.606,26.855,35.156,39.062,26.367,15.625,0
1542732130.610,25.879,32.715,34.668,27.832,-26.855,0
1542732130.614,27.344,31.738,32.715,30.273,-11.230,0
1542732130.617,22.949,23.926,35.156,20.508,-3.906,0
1542732130.621,27.832,38.086,37.109,23.926,18.066,0
1542732130.625,30.762,50.293,38.086,27.832,48.828,0
1542732130.629,23.926,45.898,43.457,19.043,29.785,0
1542732130.633,25.391,40.039,46.387,27.344,-16.113,0
1542732130.637,26.367,39.551,44.434,33.203,-10.742,0
1542732130.641,23.926,41.016,42.969,24.902,73.242,0
1542732130.645,23.926,41.016,40.039,22.461,3.906,0
1542732130.649,24.414,39.062,33.203,23.926,16.602,0
1542732130.653,28.320,40.039,35.645,27.344,32.227,0
1542732130.657,22.949,36.133,41.992,20.996,27.832,0
1542732130.660,18.066,34.668,40.527,10.254,69.336,0
1542732130.664,24.414,41.016,42.480,11.719,52.246,0
1542732130.668,21.973,44.922,41.016,14.160,49.316,0
1542732130.672,17.090,45.898,35.156,15.625,41.504,0
1542732130.676,17.090,38.086,29.785,15.625,41.504,0
1542732130.680,15.137,40.527,30.762,17.578,-8.789,0
1542732130.684,9.277,43.945,36.133,24.414,-15.137,0
1542732130.688,10.254,41.016,33.691,21.973,-9.766,0
1542732130.692,12.695,44.922,27.832,9.766,54.199,0
1542732130.696,10.254,41.504,33.203,8.789,67.383,0
1542732130.699,13.184,38.574,37.109,16.602,13.672,0
1542732130.703,19.043,42.480,42.480,24.414,35.645,0
1542732130.707,23.438,44.922,47.363,26.367,11.719,0
1542732130.711,28.809,46.875,41.504,27.344,11.230,0
1542732130.715,27.344,45.410,37.598,29.297,21.973,0
1542732130.719,21.484,40.527,42.480,28.320,-4.395,0
1542732130.723,18.066,31.738,46.387,21.973,27.832,0
1542732130.727,21.973,37.109,44.434,20.508,91.797,0
1542732130.731,26.367,47.852,42.969,22.461,59.082,0
1542732130.735,27.344,41.016,37.598,17.578,6.348,0
1542732130.739,21.973,41.016,39.551,15.625,-4.395,0
1542732130.742,14.648,39.551,45.898,14.648,-14.160,0
1542732130.746,23.438,41.016,42.480,21.484,-39.062,0
1542732130.750,21.973,39.551,33.691,24.902,-2.930,0
1542732130.754,12.207,31.250,31.250,15.625,4.883,0
1542732130.758,13.184,31.738,39.551,9.277,2.441,0
1542732130.762,16.602,37.598,47.852,11.719,22.461,0
1542732130.766,15.137,44.922,42.969,13.184,17.090,0
1542732130.770,19.043,41.504,34.180,16.113,22.461,0
1542732130.774,30.273,38.086,38.574,19.531,51.270,0
1542732130.778,24.414,41.016,42.969,20.996,62.012,0
1542732130.782,16.113,38.574,43.945,18.066,-0.977,0
1542732130.785,15.625,35.156,41.504,8.301,-28.809,0
1542732130.789,18.066,38.086,36.621,13.672,17.090,0
1542732130.793,22.949,42.480,41.016,24.414,39.551,0
1542732130.797,30.273,38.574,48.340,31.250,29.297,0
1542732130.801,29.785,31.738,48.828,29.785,70.801,0
1542732130.805,21.973,42.480,48.828,21.973,56.641,0
1542732130.809,23.926,49.316,49.805,26.367,20.996,0
1542732130.813,24.414,46.387,46.387,21.973,-0.977,0
1542732130.817,20.508,43.945,41.016,7.812,-6.836,0
1542732130.821,20.020,41.504,35.645,10.254,10.254,0
1542732130.824,24.414,43.945,40.039,18.066,-3.418,0
1542732130.828,24.902,46.875,40.039,15.137,-0.488,0
1542732130.832,28.320,45.410,42.969,15.137,33.691,0
1542732130.836,27.832,40.527,49.316,18.066,73.242,0
1542732130.840,19.531,42.480,46.387,18.555,17.090,0
1542732130.844,19.043,50.781,49.316,19.043,-28.809,0
1542732130.848,19.043,50.293,49.805,15.625,3.418,0
1542732130.852,19.531,39.062,41.504,14.160,-1.953,0
1542732130.856,14.648,32.715,35.156,12.695,-11.719,0
1542732130.860,16.602,38.086,42.969,17.090,31.250,0
1542732130.864,19.043,40.039,48.340,21.973,47.363,0
1542732130.867,12.695,37.598,41.504,12.207,1.953,0
1542732130.871,9.766,37.109,46.387,11.719,-13.672,0
1542732130.875,11.230,34.668,52.246,18.066,14.648,0
1542732130.879,14.160,35.645,50.293,17.578,47.852,0
1542732130.883,17.090,41.992,47.852,16.113,55.664,0
1542732130.887,15.137,45.898,41.992,15.137,17.578,0
1542732130.891,15.625,42.969,35.645,17.578,66.406,0
1542732130.895,19.531,44.434,31.250,11.230,64.941,0
1542732130.899,19.043,47.363,27.344,4.395,10.742,0
1542732130.903,20.508,47.363,31.250,4.883,1.465,0
1542732130.907,19.043,43.457,35.156,3.906,-9.766,0
1542732130.910,24.414,39.062,32.715,17.578,-5.859,0
1542732130.914,29.297,44.434,37.598,24.414,64.941,0
1542732130.918,28.320,43.945,44.922,23.438,93.750,0
1542732130.922,24.902,43.457,45.410,25.391,72.266,0
1542732130.926,25.391,48.828,43.945,28.320,20.996,0
1542732130.930,32.715,50.293,41.504,29.785,4.883,0
1542732130.934,33.203,44.434,32.715,23.438,48.828,0
1542732130.938,27.832,42.969,20.020,15.625,66.406,0
1542732130.942,25.391,39.551,25.879,13.672,93.750,0
1542732130.946,29.785,38.086,36.133,14.648,26.367,0
1542732130.949,30.273,39.062,33.691,7.324,-2.930,0
1542732130.953,27.344,37.109,34.668,9.277,85.938,0
1542732130.957,21.484,41.016,37.109,14.648,62.500,0
1542732130.961,17.090,43.945,37.109,11.230,28.809,0
1542732130.965,18.066,45.898,39.551,7.812,48.340,0
1542732130.969,20.996,40.039,36.621,16.602,45.410,0
1542732130.973,28.809,34.668,38.574,31.250,30.273,0
1542732130.977,20.508,42.480,40.527,15.625,42.969,0
1542732130.981,5.371,47.363,40.527,2.441,21.973,0
1542732130.985,-0.977,38.086,43.457,11.719,58.594,0
1542732130.989,3.906,39.551,41.504,5.859,91.797,0
1542732130.992,2.930,53.223,41.016,-10.254,34.668,0
1542732130.996,-11.230,46.387,38.086,-13.672,23.926,0
1542732131.000,-1.953,37.109,33.691,-6.836,21.973,0
1542732131.004,1.465,41.504,38.086,-6.348,14.160,0
1542732131.008,-2.930,43.457,44.922,1.465,22.949,0
1542732131.012,2.441,35.645,43.945,4.395,52.246,0
1542732131.016,1.953,32.227,41.016,-4.883,7.812,0
1542732131.020,0.000,39.551,43.945,-4.395,2.441,0
1542732131.024,0.488,42.480,46.387,-1.953,14.160,0
1542732131.028,4.883,37.109,40.039,4.395,-10.254,0
1542732131.032,6.836,39.062,36.621,12.695,-28.809,0
1542732131.035,8.789,42.480,45.410,13.184,-20.020,0
1542732131.039,15.137,38.574,52.246,13.184,-25.879,0
1542732131.043,17.090,35.156,49.316,15.137,21.484,0
1542732131.047,15.625,32.227,41.992,17.090,2.930,0
1542732131.051,13.672,38.574,42.480,19.043,8.789,0
1542732131.055,13.672,46.387,47.852,24.414,55.664,0
1542732131.059,13.184,42.480,39.062,21.484,6.836,0
1542732131.063,14.648,38.086,30.762,15.625,7.812,0
1542732131.067,18.555,36.133,34.180,18.066,11.719,0
1542732131.071,13.672,35.645,41.504,14.648,40.527,0
1542732131.074,10.742,36.133,42.969,13.184,66.406,0
1542732131.078,12.207,39.062,41.016,20.020,43.945,0
1542732131.082,14.648,32.715,43.945,16.113,40.527,0
1542732131.086,16.602,31.250,38.086,6.836,33.203,0
1542732131.090,19.043,43.945,36.133,6.836,26.367,0
1542732131.094,19.043,51.270,40.039,11.230,38.086,0
1542732131.098,16.602,47.363,36.133,13.672,30.762,0
1542732131.102,13.184,39.062,38.574,14.160,48.828,0
1542732131.106,15.625,40.527,41.016,17.090,84.473,0
1542732131.110,20.996,42.480,34.668,23.926,57.617,0
1542732131.114,19.043,39.551,36.621,21.973,22.949,0
1542732131.117,17.578,41.992,43.945,12.695,-16.602,0
1542732131.121,14.160,44.922,46.875,13.672,-18.555,0
1542732131.125,14.648,45.410,49.316,17.578,-7.812,0
1542732131.129,16.113,52.246,54.688,10.742,35.645,0
1542732131.133,11.719,54.688,51.758,3.418,43.457,0
1542732131.137,35.645,50.781,38.574,22.949,43.457,0
1542732131.141,32.715,47.363,55.176,24.414,15.137,0
1542732131.145,-38.574,44.434,72.754,-38.086,-13.672,0
1542732131.149,-85.938,49.316,72.266,-85.449,19.531,0
1542732131.153,-111.328,55.664,86.426,-113.281,48.340,0
1542732131.157,-154.785,51.270,105.957,-158.203,69.336,0
1542732131.160,-207.520,42.969,125.000,-210.449,27.344,0
1542732131.164,-252.441,40.527,141.113,-252.930,-20.508,0
1542732131.168,-287.109,37.109,159.668,-286.621,-10.742,0
1542732131.172,-323.730,32.715,170.898,-314.453,-12.207,0
1542732131.176,-362.305,32.227,185.059,-348.633,47.852,0
1542732131.180,-382.812,35.645,201.660,-372.070,87.402,0
1542732131.184,-392.090,32.227,208.496,-375.977,59.570,0
1542732131.188,-401.367,25.391,212.891,-384.766,25.391,0
1542732131.192,-398.438,17.578,216.309,-375.488,0.977,0
1542732131.196,-383.301,18.066,214.844,-353.516,-1.953,0
1542732131.199,-373.535,17.578,215.820,-347.168,-1.953,0
1542732131.203,-356.934,12.695,211.426,-330.566,-19.043,0
1542732131.207,-343.750,9.766,201.172,-312.012,-55.176,0
1542732131.211,-309.570,7.324,198.242,-276.367,1.465,0
1542732131.215,-285.156,6.836,200.195,-248.047,40.527,0
1542732131.219,-275.391,-2.441,190.918,-240.723,32.227,0
1542732131.223,-241.699,-12.695,177.734,-209.473,14.160,0
1542732131.227,-202.637,-3.906,165.527,-172.852,58.105,0
1542732131.231,-174.316,-0.488,153.320,-147.461,58.105,0
1542732131.235,-162.109,-12.695,143.066,-128.906,60.547,0
1542732131.239,-139.160,-20.996,127.441,-106.934,45.898,0
1542732131.242,-106.934,-19.043,110.840,-79.102,-20.020,0
1542732131.246,-89.844,-8.301,107.910,-56.641,-17.090,0
1542732131.250,-76.660,-6.348,98.633,-41.992,10.742,0
1542732131.254,-50.293,-12.207,84.473,-20.020,22.949,0
1542732131.258,-22.949,-18.555,81.055,11.719,35.156,0
1542732131.262,-6.348,-14.648,62.988,26.855,61.035,0
1542732131.266,5.859,-7.812,45.410,36.133,78.613,0
1542732131.270,25.391,-4.395,42.480,51.758,53.223,0
1542732131.274,41.992,-3.418,37.109,60.059,45.410,0
1542732131.278,55.664,-11.719,31.738,71.777,51.758,0
1542732131.282,67.871,-10.742,25.879,83.008,77.148,0
1542732131.285,82.031,-6.348,21.484,101.562,51.758,0
1542732131.289,96.191,-0.488,18.066,116.699,34.668,0
1542732131.293,104.004,1.465,13.672,120.605,22.461,0
1542732131.297,109.863,-6.836,4.883,124.512,-15.625,0
1542732131.301,110.840,-6.836,-0.488,135.254,-9.277,0
1542732131.305,113.770,-3.906,-3.418,137.695,-7.324,0
1542732131.309,119.141,1.953,-6.348,136.230,9.277,0
1542732131.313,125.488,4.395,-9.766,141.602,63.965,0
1542732131.317,131.836,-0.977,-9.277,150.391,90.820,0
1542732131.321,130.859,7.324,-5.859,149.414,45.410,0
1542732131.324,130.859,16.113,-7.324,140.625,25.879,0
1542732131.328,134.277,10.254,-3.418,140.625,28.809,0
1542732131.332,133.789,10.254,-2.930,141.602,24.902,0
1542732131.336,134.766,12.695,-1.465,144.043,-18.555,0
1542732131.340,138.184,16.602,0.488,145.508,-47.852,0
1542732131.344,130.859,14.648,-0.977,139.160,30.273,0
1542732131.348,127.930,10.254,0.000,139.160,61.035,0
1542732131.352,129.395,13.672,3.418,138.184,22.461,0
1542732131.356,129.883,14.160,0.000,135.742,13.184,0
1542732131.360,129.883,14.160,-2.441,133.301,-27.832,0
1542732131.364,126.953,18.555,-4.395,131.348,10.254,0
1542732131.367,129.883,20.508,-3.418,130.371,4.883,0
1542732131.371,139.648,22.461,5.371,131.836,-14.160,0
1542732131.375,143.066,28.320,7.812,138.184,25.391,0
1542732131.379,139.648,27.344,5.371,137.695,-35.645,0
1542732131.383,134.277,26.855,6.836,135.254,0.488,0
1542732131.387,143.555,31.738,5.371,127.441,10.254,0
1542732131.391,132.324,26.855,4.883,117.188,8.789,0
1542732131.395,116.211,20.996,7.324,120.117,69.824,0
1542732131.399,120.117,21.484,2.441,118.164,89.355,0
1542732131.403,113.770,29.297,2.441,113.770,69.336,0
1542732131.407,111.816,33.203,8.301,110.840,53.223,0
1542732131.410,111.328,29.785,13.672,104.980,19.531,0
1542732131.414,106.445,26.367,15.137,102.051,33.203,0
1542732131.418,105.469,23.438,15.625,101.074,17.578,0
1542732131.422,106.445,27.832,13.184,104.492,-27.832,0
1542732131.426,102.539,36.621,8.301,106.934,-8.789,0
1542732131.430,93.262,32.227,13.672,102.051,17.578,0
1542732131.434,88.379,27.344,21.484,94.727,27.832,0
1542732131.438,84.473,26.367,21.973,89.844,8.301,0
1542732131.442,79.102,27.344,13.672,86.426,15.625,0
1542732131.446,77.637,25.391,15.137,81.543,0.000,0
1542732131.449,81.055,29.297,20.020,83.008,-1.465,0
1542732131.453,81.543,33.203,20.020,82.520,47.363,0
1542732131.457,76.660,31.250,16.602,81.543,31.250,0
1542732131.461,77.148,35.645,20.020,85.449,17.090,0
1542732131.465,81.055,37.598,28.320,85.938,27.832,0
1542732131.469,67.383,35.645,27.344,79.102,-22.461,0
1542732131.473,60.547,41.016,24.902,72.266,-7.812,0
1542732131.477,68.848,43.457,24.414,69.824,26.367,0
1542732131.481,68.359,36.133,17.090,72.266,24.902,0
1542732131.485,67.871,38.574,17.578,76.172,63.965,0
1542732131.489,66.895,41.992,28.320,66.895,47.363,0
1542732131.492,60.547,28.809,30.273,62.500,23.438,0
1542732131.496,83.496,11.230,36.621,94.727,5.371,0
1542732131.500,85.938,21.484,35.645,86.426,-5.859,0
1542732131.504,42.969,39.062,26.367,39.062,0.000,0
1542732131.508,37.598,39.551,21.484,47.363,41.992,0
1542732131.512,55.664,42.969,19.043,68.848,3.418,0
1542732131.516,62.500,50.293,15.137,57.129,-67.871,0
1542732131.520,62.012,50.293,4.395,44.434,-27.344,0
1542732131.524,71.777,47.852,4.883,55.176,20.996,0
1542732131.528,82.520,52.734,7.324,56.641,23.438,0
1542732131.532,84.961,57.617,1.953,53.223,1.953,0
1542732131.535,82.031,48.340,6.348,52.734,-6.348,0
1542732131.539,73.730,40.039,14.648,45.410,27.832,0
1542732131.543,72.754,43.457,12.207,44.922,58.594,0
1542732131.547,69.824,39.062,9.277,45.410,55.176,0
1542732131.551,64.941,36.621,11.719,49.805,22.949,0
1542732131.555,62.988,46.875,12.695,51.758,-1.465,0
1542732131.559,61.035,47.852,17.578,48.828,15.625,0
1542732131.563,64.941,46.387,20.508,43.457,80.566,0
1542732131.567,61.035,51.758,19.043,38.574,76.172,0
1542732131.571,59.570,49.805,21.973,41.016,31.738,0
1542732131.574,64.453,49.316,19.531,47.363,54.199,0
1542732131.578,66.895,55.664,20.508,51.270,28.320,0
1542732131.582,69.336,52.246,24.902,55.176,-9.277,0
1542732131.586,64.453,49.316,19.043,54.688,19.531,0
1542732131.590,62.012,52.246,23.926,47.363,-27.832,0
1542732131.594,57.129,47.363,33.691,48.340,-52.246,0
1542732131.598,53.223,43.457,35.156,50.293,-24.902,0
1542732131.602,54.199,48.340,34.668,41.992,-11.719,0
1542732131.606,52.734,53.711,31.738,39.062,43.457,0
1542732131.610,48.828,52.734,30.273,38.086,48.340,0
1542732131.614,49.316,48.828,34.668,39.551,-6.836,0
1542732131.617,51.758,44.434,39.551,46.875,-27.832,0
1542732131.621,58.105,44.922,41.016,44.922,13.184,0
1542732131.625,54.688,41.992,41.992,43.457,9.766,0
1542732131.629,44.434,42.480,41.504,45.410,29.785,0
1542732131.633,41.992,45.410,37.598,40.527,61.523,0
1542732131.637,42.969,42.480,32.227,38.574,-14.160,0
1542732131.641,42.480,42.480,28.320,32.715,-23.438,0
1542732131.645,40.527,42.480,36.621,30.762,66.895,0
1542732131.649,37.598,40.527,42.480,34.668,44.922,0
1542732131.653,39.062,42.480,38.574,25.391,23.926,0
1542732131.657,44.922,41.504,38.086,25.879,50.781,0
1542732131.660,40.527,41.016,35.645,25.391,62.012,0
1542732131.664,35.156,43.457,32.715,19.043,98.633,0
1542732131.668,33.203,39.551,34.668,21.484,81.055,0
1542732131.672,29.785,35.645,31.250,17.090,68.848,0
1542732131.676,26.855,35.645,26.855,10.742,27.344,0
1542732131.680,21.973,34.668,25.879,5.859,7.324,0
1542732131.684,19.043,34.180,29.785,2.441,-7.812,0
1542732131.688,20.996,34.180,34.668,3.906,-52.246,0
1542732131.692,30.273,37.598,33.691,11.230,-0.488,0
1542732131.696,41.504,44.922,38.574,15.625,29.785,0
1542732131.699,35.156,38.574,39.062,7.812,63.965,0
1542732131.703,30.762,38.086,31.738,4.395,40.527,0
1542732131.707,28.320,46.875,28.809,5.859,-18.066,0
1542732131.711,22.461,48.340,31.250,2.930,-15.137,0
1542732131.715,29.785,47.852,34.180,6.836,-21.973,0
1542732131.719,32.227,44.922,40.039,15.625,33.203,0
1542732131.723,33.203,41.504,44.922,16.602,48.340,0
1542732131.727,29.297,43.457,38.574,10.742,51.270,0
1542732131.731,29.297,44.434,33.691,15.625,33.203,0
1542732131.735,32.227,42.969,32.227,21.484,-14.160,0
1542732131.739,33.691,45.898,34.180,16.602,18.066,0
1542732131.742,36.133,47.363,40.527,10.742,32.227,0
1542732131.746,34.180,41.016,47.363,8.789,13.672,0
1542732131.750,36.133,36.621,41.504,11.719,53.223,0
1542732131.754,37.598,41.504,32.715,12.695,120.605,0
1542732131.758,33.203,46.387,32.227,11.719,61.035,0
1542732131.762,38.574,48.340,36.621,14.160,-28.809,0
1542732131.766,40.527,41.992,39.551,14.160,20.996,0
1542732131.770,37.598,40.527,38.574,14.160,23.926,0
1542732131.774,34.668,43.945,41.016,14.648,8.789,0
1542732131.778,35.645,45.898,42.480,11.230,35.645,0
1542732131.782,35.156,43.945,38.574,9.766,22.461,0
1542732131.785,24.902,40.527,33.203,0.977,33.203,0
1542732131.789,20.020,41.992,37.598,-7.324,52.246,0
1542732131.793,19.531,40.039,39.551,-6.348,50.293,0
1542732131.797,23.438,37.598,35.645,-3.418,41.504,0
1542732131.801,21.973,37.598,39.551,-0.977,-13.672,0
1542732131.805,21.973,41.504,40.527,0.977,13.672,0
1542732131.809,24.902,41.016,42.969,3.418,24.902,0
1542732131.813,17.090,42.480,45.898,0.488,21.484,0
1542732131.817,27.832,41.992,39.551,8.789,35.156,0
1542732131.821,51.270,36.133,34.668,28.809,-8.301,0
1542732131.824,29.297,37.109,49.316,14.160,3.418,0
1542732131.828,-3.418,41.504,50.293,-7.324,70.312,0
1542732131.832,3.418,41.992,42.480,-5.371,69.336,0
1542732131.836,9.766,35.645,42.969,-5.371,41.016,0
1542732131.840,4.883,27.344,42.969,-3.906,38.086,0
1542732131.844,-4.395,31.738,54.688,-2.441,73.242,0
1542732131.848,4.883,33.203,63.477,2.441,75.684,0
1542732131.852,9.277,24.902,59.082,2.930,73.730,0
1542732131.856,0.488,20.508,56.152,-3.418,62.988,0
1542732131.860,2.930,22.949,60.059,-2.930,20.020,0
1542732131.864,1.953,25.879,55.176,-2.930,31.250,0
1542732131.867,2.441,21.973,52.734,4.883,4.883,0
1542732131.871,-4.395,21.973,48.340,5.371,29.785,0
1542732131.875,0.488,33.203,41.504,5.371,68.848,0
1542732131.879,11.719,34.180,44.434,7.812,63.477,0
1542732131.883,13.672,35.645,48.340,4.395,79.590,0
1542732131.887,17.090,42.969,52.246,10.254,42.480,0
1542732131.891,14.160,39.062,52.246,11.719,3.906,0
1542732131.895,10.742,32.227,47.852,7.812,26.367,0
1542732131.899,11.719,29.297,45.898,9.277,37.109,0
1542732131.903,17.090,31.738,49.316,5.859,53.223,0
1542732131.907,18.066,27.832,48.340,10.254,32.715,0
1542732131.910,18.555,27.832,48.340,15.625,12.695,0
1542732131.914,18.555,28.809,47.363,8.301,32.715,0
1542732131.918,13.672,26.367,38.086,0.488,5.859,0
1542732131.922,10.742,34.668,39.062,-2.441,5.371,0
1542732131.926,12.207,41.504,41.992,0.488,31.250,0
1542732131.930,16.602,39.062,45.898,6.348,36.621,0
1542732131.934,21.484,40.039,55.664,16.602,18.555,0
1542732131.938,22.461,37.109,56.152,12.695,10.254,0
1542732131.942,22.461,25.879,54.688,7.324,22.461,0
1542732131.946,25.879,25.391,48.828,13.672,3.418,0
1542732131.949,26.367,31.738,40.527,14.160,-0.488,0
1542732131.953,24.414,27.832,46.875,12.695,-5.859,0
1542732131.957,21.484,27.344,46.875,10.742,-29.785,0
1542732131.961,21.973,36.133,37.598,8.789,43.945,0
1542732131.965,27.344,41.016,41.016,14.160,79.590,0
1542732131.969,24.902,38.086,47.363,14.648,2.930,0
1542732131.973,21.484,34.668,44.922,10.742,-19.531,0
1542732131.977,25.391,30.273,44.434,8.301,-21.973,0
1542732131.981,19.043,28.809,44.434,8.301,11.230,0
1542732131.985,19.043,39.062,42.969,10.742,27.344,0
1542732131.989,25.879,40.527,43.945,10.742,31.738,0
1542732131.992,17.090,27.832,42.969,12.207,48.828,0
1542732131.996,16.113,20.508,38.574,12.207,2.930,0
1542732132.000,22.949,27.832,34.668,10.742,-28.809,0
1542732132.004,53.223,40.527,25.879,35.645,-4.883,0
1542732132.008,61.523,39.062,30.762,48.340,80.078,0
1542732132.012,20.996,31.250,37.598,17.090,65.918,0
1542732132.016,-0.488,27.344,39.062,-0.977,11.719,0
1542732132.020,12.207,24.414,48.828,6.836,14.648,0
1542732132.024,17.578,19.531,57.617,12.695,20.996,0
1542732132.028,13.672,11.230,59.570,11.230,39.551,0
1542732132.032,25.879,1.465,59.570,23.438,35.156,0
1542732132.035,28.320,-5.859,63.965,37.598,27.832,0
1542732132.039,30.273,-10.742,63.965,38.086,82.031,0
1542732132.043,33.691,-17.090,67.383,38.574,12.207,0
1542732132.047,30.273,-19.531,73.730,49.316,-45.898,0
1542732132.051,33.691,-21.973,79.590,55.664,24.902,0
1542732132.055,38.574,-25.391,86.426,61.035,-6.836,0
1542732132.059,45.410,-26.367,83.496,72.754,-19.043,0
1542732132.063,55.664,-25.391,83.984,80.078,21.484,0
1542732132.067,52.246,-18.066,90.332,75.195,8.789,0
1542732132.071,47.852,-17.090,81.543,72.754,-8.301,0
1542732132.074,49.805,-15.625,79.102,70.801,-45.410,0
1542732132.078,49.805,-5.859,83.008,69.824,-9.766,0
1542732132.082,44.922,-1.953,78.125,70.312,26.855,0
1542732132.086,42.480,0.488,75.195,64.941,9.766,0
1542732132.090,40.527,-3.906,77.148,64.941,2.441,0
1542732132.094,36.133,-5.371,70.801,62.012,11.230,0
1542732132.098,36.133,3.906,73.242,53.711,63.477,0
1542732132.102,33.203,6.348,76.172,50.781,80.078,0
1542732132.106,25.879,0.977,72.266,45.410,45.898,0
1542732132.110,32.715,0.488,69.336,49.316,1.465,0
1542732132.114,34.180,-1.465,62.012,47.852,21.973,0
1542732132.117,27.832,-5.371,60.547,43.945,10.742,0
1542732132.121,29.297,1.465,65.430,43.945,14.160,0
1542732132.125,25.879,7.812,68.848,40.527,3.418,0
1542732132.129,24.902,10.254,66.406,41.992,-26.855,0
1542732132.133,28.809,13.672,57.129,37.109,75.195,0
1542732132.137,32.715,19.043,53.711,36.621,54.199,0
1542732132.141,33.203,20.508,61.035,41.016,6.348,0
1542732132.145,32.715,19.531,61.035,35.645,56.641,0
1542732132.149,38.086,21.973,51.270,37.109,41.504,0
1542732132.153,38.574,30.273,50.781,44.434,25.879,0
1542732132.157,42.480,28.809,56.641,40.527,24.414,0
1542732132.160,41.016,21.973,50.781,31.250,14.648,0
1542732132.164,41.992,26.367,47.363,25.391,-49.316,0
1542732132.168,46.875,28.809,55.176,23.926,-26.855,0
1542732132.172,50.781,31.738,57.617,25.391,-12.695,0
1542732132.176,54.688,32.715,53.711,25.879,-15.137,0
1542732132.180,48.340,26.367,49.316,29.297,-17.090,0
1542732132.184,39.551,26.855,49.316,32.227,-32.715,0
1542732132.188,38.086,27.344,50.293,31.738,13.184,0
1542732132.192,35.645,27.344,50.293,32.715,41.992,0
1542732132.196,30.273,28.809,48.828,32.227,34.668,0
1542732132.199,27.344,26.855,41.016,29.297,30.273,0
1542732132.203,28.320,27.344,40.527,33.203,67.383,0
1542732132.207,29.297,24.902,45.410,29.297,83.496,0
1542732132.211,30.762,22.461,50.781,20.508,50.293,0
1542732132.215,36.621,29.297,49.316,26.855,6.348,0
1542732132.219,34.668,36.621,49.316,32.227,10.254,0
1542732132.223,31.250,38.086,55.176,25.879,35.156,0
1542732132.227,27.832,38.574,54.199,21.484,36.621,0
1542732132.231,29.297,39.551,50.293,22.949,43.457,0
1542732132.235,29.297,35.645,51.758,21.484,22.461,0
1542732132.239,26.367,32.227,52.246,18.555,33.203,0
1542732132.242,27.832,33.691,48.828,22.461,7.812,0
1542732132.246,22.949,29.297,53.711,26.367,-8.789,0
1542732132.250,17.090,26.855,53.223,20.508,6.836,0
1542732132.254,14.648,31.738,48.340,14.160,-5.371,0
1542732132.258,19.531,39.062,43.945,13.672,30.762,0
1542732132.262,25.879,41.016,41.016,14.160,32.227,0
1542732132.266,26.367,38.574,38.574,12.695,53.223,0
1542732132.270,23.438,38.086,41.016,13.184,73.730,0
1542732132.274,23.926,31.738,55.176,16.113,59.082,0
1542732132.278,23.438,28.809,55.664,13.672,42.969,0
1542732132.282,27.832,34.668,45.898,10.254,27.832,0
1542732132.285,29.297,35.156,41.992,12.695,5.371,0
1542732132.289,16.113,33.203,38.574,11.719,-9.766,0
1542732132.293,22.461,22.949,40.039,15.625,-12.207,0
1542732132.297,32.715,16.113,43.457,23.438,-55.664,0
1542732132.301,21.484,35.156,41.992,8.301,-16.602,0
1542732132.305,11.230,56.641,36.133,-9.277,58.105,0
1542732132.309,22.949,63.477,33.203,-6.348,19.531,0
1542732132.313,20.020,59.082,40.527,-10.742,15.137,0
1542732132.317,8.301,47.852,41.992,-16.602,19.531,0
1542732132.321,10.742,43.945,38.086,-11.719,-12.695,0
1542732132.324,14.648,44.434,34.668,-13.672,-12.695,0
1542732132.328,15.137,41.504,32.715,-10.742,9.766,0
1542732132.332,24.414,40.039,29.297,-2.930,5.859,0
1542732132.336,23.926,37.598,26.855,-0.977,22.949,0
1542732132.340,8.301,32.715,33.203,-7.812,70.801,0
1542732132.344,9.766,33.203,40.527,-9.277,35.645,0
1542732132.348,11.719,36.621,41.992,-10.742,29.297,0
1542732132.352,11.719,39.062,39.062,-12.207,69.824,0
1542732132.356,14.160,42.480,42.969,-10.742,98.145,0
1542732132.360,11.230,43.457,42.480,-11.230,78.613,0
1542732132.364,14.648,40.039,36.621,-6.836,36.621,0
1542732132.367,15.625,31.250,32.227,-5.859,27.344,0
1542732132.371,6.836,24.902,31.250,-10.742,46.387,0
1542732132.375,11.230,30.762,40.039,-9.277,52.246,0
1542732132.379,17.090,41.504,39.551,-5.371,34.180,0
1542732132.383,14.160,44.922,35.156,-5.859,83.008,0
1542732132.387,20.508,43.457,36.133,-3.418,95.215,0
1542732132.391,24.414,43.945,37.598,0.977,15.625,0
1542732132.395,18.066,47.852,41.016,5.859,0.000,0
1542732132.399,20.508,47.852,39.551,12.695,32.715,0
1542732132.403,25.879,47.852,37.109,12.695,85.449,0
1542732132.407,22.949,47.363,33.691,0.488,119.141,0
1542732132.410,20.996,45.898,32.227,-2.441,81.543,0
1542732132.414,23.926,37.109,39.062,-2.930,-1.953,0
1542732132.418,25.391,29.297,39.062,-1.953,-19.531,0
1542732132.422,22.461,32.715,33.691,1.465,14.160,0
1542732132.426,23.438,37.598,33.691,1.465,70.312,0
1542732132.430,24.902,43.457,35.156,5.859,79.102,0
1542732132.434,21.484,41.504,34.668,9.277,108.887,0
1542732132.438,21.484,32.715,40.527,11.719,71.289,0
1542732132.442,21.973,35.156,44.434,16.113,-4.395,0
1542732132.446,18.555,39.551,33.203,12.207,28.809,0
1542732132.449,21.973,39.551,32.227,0.000,36.133,0
1542732132.453,27.344,41.504,39.551,0.000,-18.555,0
1542732132.457,17.578,39.551,40.527,6.348,-43.457,0
1542732132.461,15.625,37.109,40.039,3.418,12.207,0
1542732132.465,21.973,45.898,36.133,1.953,5.371,0
1542732132.469,17.090,49.805,36.133,3.906,-37.598,0
1542732132.473,16.113,43.457,39.062,0.000,38.086,0
1542732132.477,8.301,40.039,40.039,0.977,41.504,0
1542732132.481,0.977,33.691,35.156,6.348,16.602,0
1542732132.485,10.742,32.227,36.133,9.277,12.207,0
1542732132.489,9.766,33.203,38.086,3.418,43.945,0
1542732132.492,6.836,32.227,37.598,-2.441,49.805,0
1542732132.496,12.207,37.109,42.480,2.930,63.477,0
1542732132.500,12.207,41.504,47.852,7.812,34.180,0
1542732132.504,19.531,39.551,44.434,6.348,-14.648,0
1542732132.508,18.066,40.527,42.480,7.324,16.113,0
1542732132.512,15.137,48.340,42.480,8.301,-8.789,0
1542732132.516,19.043,45.898,36.621,8.789,4.883,0
1542732132.520,17.090,38.086,35.645,4.395,10.742,0
1542732132.524,23.438,41.016,45.898,6.836,-40.527,0
1542732132.528,18.066,40.527,43.945,0.977,17.578,0
1542732132.532,9.766,38.086,40.527,-2.930,84.473,0
1542732132.535,18.555,39.062,43.457,1.465,39.551,0
1542732132.539,20.996,33.203,41.016,-0.977,26.855,0
1542732132.543,20.020,30.273,37.109,1.953,30.762,0
1542732132.547,21.484,37.598,38.574,8.301,15.625,0
1542732132.551,24.902,42.480,37.109,2.930,-13.672,0
1542732132.555,20.020,41.504,29.785,0.488,-34.668,0
1542732132.559,23.438,24.902,35.645,15.625,-20.020,0
1542732132.563,39.062,34.668,42.480,19.531,12.207,0
1542732132.567,20.996,61.523,37.109,-6.348,1.953,0
1542732132.571,-0.977,62.500,30.273,-26.855,25.391,0
1542732132.574,10.742,53.223,23.926,-16.602,37.598,0
1542732132.578,25.391,54.688,23.926,-0.977,67.383,0
1542732132.582,10.742,63.965,18.555,-16.113,98.145,0
1542732132.586,6.836,68.848,11.230,-26.855,48.828,0
1542732132.590,22.461,75.195,4.883,-24.414,43.945,0
1542732132.594,10.254,71.289,-3.906,-35.156,11.230,0
1542732132.598,2.930,73.242,-8.789,-41.016,-45.410,0
1542732132.602,8.789,82.520,-10.254,-41.992,-19.531,0
1542732132.606,10.742,86.426,-9.766,-39.062,-11.719,0
1542732132.610,8.789,87.891,-8.789,-30.762,-4.395,0
1542732132.614,4.883,79.102,-1.465,-28.320,44.922,0
1542732132.617,3.418,70.312,2.930,-30.762,52.734,0
1542732132.621,8.789,68.848,0.977,-30.273,57.129,0
1542732132.625,11.230,70.801,4.395,-27.832,75.684,0
1542732132.629,11.230,69.824,7.812,-28.809,55.664,0
1542732132.633,19.531,65.430,7.324,-21.484,50.781,0
1542732132.637,16.113,60.059,9.766,-14.648,76.660,0
1542732132.641,10.742,64.453,14.160,-17.090,67.383,0
1542732132.645,20.508,70.312,16.602,-11.719,8.789,0
1542732132.649,26.855,65.918,13.672,-7.324,-32.227,0
1542732132.653,29.297,63.477,11.230,-6.836,29.785,0
1542732132.657,30.762,62.500,12.207,-4.883,54.688,0
1542732132.660,30.273,59.570,20.996,-5.371,24.414,0
1542732132.664,26.855,58.105,25.879,-7.324,57.617,0
1542732132.668,32.715,57.617,22.949,-7.324,25.879,0
1542732132.672,28.809,60.547,23.438,-6.348,5.371,0
1542732132.676,24.414,64.453,23.438,-7.324,58.594,0
1542732132.680,27.832,55.176,20.508,-3.906,56.641,0
1542732132.684,26.855,44.434,25.391,2.441,34.180,0
1542732132.688,29.297,48.340,29.297,-2.441,33.203,0
1542732132.692,29.785,56.152,25.391,-7.324,31.250,0
1542732132.696,29.297,50.781,18.066,-5.859,7.324,0
1542732132.699,28.809,47.363,18.555,-0.488,1.465,0
1542732132.703,29.297,52.246,20.996,5.371,64.453,0
1542732132.707,26.855,53.223,19.043,4.883,41.016,0
1542732132.711,35.156,51.758,26.367,7.324,28.320,0
1542732132.715,35.645,47.363,24.902,6.348,41.504,0
1542732132.719,34.668,48.340,25.391,11.230,-4.395,0
1542732132.723,39.551,50.293,31.738,14.160,-2.930,0
1542732132.727,26.855,46.875,35.156,13.184,23.926,0
1542732132.731,26.367,41.992,39.551,13.184,18.555,0
1542732132.735,32.227,41.504,35.156,8.301,23.438,0
1542732132.739,34.180,41.992,35.645,12.207,25.879,0
1542732132.742,32.715,42.480,38.574,14.160,28.320,0
1542732132.746,29.297,52.246,35.156,8.789,44.434,0
1542732132.750,34.668,48.828,33.691,12.207,53.223,0
1542732132.754,23.926,41.016,36.133,3.906,15.137,0
1542732132.758,15.137,52.246,35.645,-3.418,-14.160,0
1542732132.762,30.762,47.852,36.133,16.602,-25.391,0
1542732132.766,42.480,37.109,40.039,30.762,6.836,0
1542732132.770,31.250,53.711,33.691,4.883,21.973,0
1542732132.774,15.137,62.500,30.273,-16.113,-25.391,0
1542732132.778,26.367,60.547,29.297,-4.395,2.441,0
1542732132.782,44.434,66.406,23.438,0.488,26.367,0
1542732132.785,20.996,64.941,19.531,-11.230,0.488,0
1542732132.789,13.672,59.570,13.184,-7.812,18.066,0
1542732132.793,25.391,60.547,9.766,-11.719,54.199,0
1542732132.797,27.832,58.594,5.371,-18.555,60.547,0
1542732132.801,25.391,61.523,4.395,-18.555,37.109,0
1542732132.805,15.625,62.988,16.602,-13.672,-5.859,0
1542732132.809,18.066,64.941,19.043,-2.441,9.277,0
1542732132.813,28.320,67.871,16.113,0.488,35.645,0
1542732132.817,29.785,61.035,17.578,4.883,14.648,0
1542732132.821,31.250,57.617,21.973,6.836,23.926,0
1542732132.824,27.344,63.477,24.414,-1.465,34.668,0
1542732132.828,23.926,63.965,23.926,-2.441,38.574,0
1542732132.832,22.949,60.059,27.344,-1.953,34.668,0
1542732132.836,25.391,56.641,25.391,0.000,38.574,0
1542732132.840,32.715,53.711,20.996,4.883,61.523,0
1542732132.844,34.180,52.246,20.996,8.789,69.336,0
1542732132.848,32.227,54.199,32.227,11.230,62.012,0
1542732132.852,33.203,58.594,41.992,11.719,65.430,0
1542732132.856,33.203,56.152,37.109,12.695,57.617,0
1542732132.860,32.715,52.246,31.738,10.254,46.875,0
1542732132.864,35.156,53.223,35.156,8.789,7.812,0
1542732132.867,47.363,54.688,33.203,4.883,-29.785,0
1542732132.871,50.781,52.246,31.250,0.000,17.090,0
1542732132.875,44.922,53.711,34.180,10.742,26.855,0
1542732132.879,45.410,56.641,29.785,17.578,-14.648,0
1542732132.883,34.668,49.316,23.926,17.578,0.488,0
1542732132.887,21.973,41.504,28.320,20.508,39.551,0
1542732132.891,13.184,46.875,35.645,14.648,25.879,0
1542732132.895,10.742,52.246,34.668,12.207,10.254,0
1542732132.899,16.113,51.270,33.203,12.207,75.684,0
1542732132.903,20.996,52.246,36.133,6.836,71.289,0
1542732132.907,11.719,53.223,36.133,9.766,30.762,0
1542732132.910,5.859,52.246,38.086,7.324,32.715,0
1542732132.914,7.324,42.969,36.621,-3.906,38.086,0
1542732132.918,14.648,39.551,31.738,0.977,35.156,0
1542732132.922,24.902,41.992,28.809,15.137,-14.160,0
1542732132.926,24.902,42.480,30.762,17.578,11.719,0
1542732132.930,25.391,45.898,36.133,17.090,55.176,0
1542732132.934,19.531,42.480,41.016,17.090,61.523,0
1542732132.938,17.090,41.016,39.062,17.090,27.344,0
1542732132.942,18.066,45.898,34.180,11.230,45.898,0
1542732132.946,27.344,48.340,31.738,17.578,88.379,0
1542732132.949,41.016,45.410,36.133,29.785,16.113,0
1542732132.953,15.625,41.016,44.922,9.277,37.598,0
1542732132.957,-11.230,42.480,49.805,-8.789,15.625,0
1542732132.961,-14.160,41.016,53.711,-11.230,-41.992,0
1542732132.965,-10.254,37.109,55.176,-1.953,-15.625,0
1542732132.969,-0.977,31.250,53.711,1.953,-1.953,0
1542732132.973,3.418,30.273,45.898,-2.930,34.668,0
1542732132.977,2.441,37.598,43.945,6.348,25.391,0
1542732132.981,6.836,34.180,49.316,11.230,7.324,0
1542732132.985,16.602,31.250,53.223,11.230,35.645,0
1542732132.989,16.113,36.133,45.410,10.742,69.824,0
1542732132.992,18.555,33.691,40.527,5.859,17.578,0
1542732132.996,21.973,34.668,45.898,8.301,25.879,0
1542732133.000,15.137,40.039,49.805,8.301,41.016,0
1542732133.004,14.648,44.922,52.246,4.395,-0.488,0
1542732133.008,20.508,42.480,48.828,4.395,52.734,0
1542732133.012,16.602,37.598,42.480,3.906,54.199,0
1542732133.016,16.113,41.992,41.016,-0.488,-13.184,0
1542732133.020,14.160,40.039,49.316,0.000,4.883,0
1542732133.024,15.137,34.668,46.875,4.883,29.297,0
1542732133.028,9.277,35.156,33.203,3.418,5.859,0
1542732133.032,6.836,35.156,35.645,13.184,-15.625,0
1542732133.035,16.113,33.203,47.852,13.672,12.207,0
1542732133.039,20.996,33.691,46.387,5.371,63.477,0
1542732133.043,18.555,34.668,41.504,10.742,30.762,0
1542732133.047,14.648,30.762,41.016,10.742,-25.391,0
1542732133.051,22.461,31.250,40.527,13.672,19.043,0
1542732133.055,29.785,34.668,43.457,20.020,83.496,0
1542732133.059,22.949,31.250,43.945,15.625,60.059,0
1542732133.063,26.367,37.109,36.133,17.578,51.758,0
1542732133.067,27.344,40.527,32.227,15.625,56.152,0
1542732133.071,8.301,36.133,40.527,7.812,25.391,0
1542732133.074,5.371,35.645,44.922,10.742,33.691,0
1542732133.078,5.371,33.691,47.363,9.277,42.480,0
1542732133.082,4.883,31.250,50.293,4.883,12.695,0
1542732133.086,-2.441,30.762,50.293,3.906,46.875,0
1542732133.090,-1.465,38.574,46.387,4.883,26.367,0
1542732133.094,10.742,35.156,45.410,8.301,-17.578,0
1542732133.098,13.672,30.273,46.387,5.859,22.949,0
1542732133.102,9.766,27.832,40.527,5.859,63.477,0
1542732133.106,2.930,29.297,41.016,10.254,32.227,0
1542732133.110,-0.488,36.133,46.875,12.207,13.184,0
1542732133.114,12.207,36.621,43.457,9.766,28.809,0
1542732133.117,21.973,41.016,43.945,15.625,-8.301,0
1542732133.121,21.973,40.527,45.410,16.113,0.000,0
1542732133.125,30.273,37.598,43.457,9.766,19.531,0
1542732133.129,27.832,34.668,39.062,14.160,8.789,0
1542732133.133,23.438,35.645,33.691,17.578,20.508,0
1542732133.137,25.391,41.504,35.156,17.090,19.531,0
1542732133.141,23.926,41.992,37.598,14.648,15.137,0
1542732133.145,25.879,33.691,35.645,12.207,-2.441,0
1542732133.149,32.715,31.738,40.039,12.207,18.066,0
1542732133.153,31.738,41.016,45.410,8.301,45.410,0
1542732133.157,26.367,45.898,50.781,15.137,39.551,0
1542732133.160,20.508,38.086,48.340,20.508,40.039,0
1542732133.164,17.578,35.645,40.039,12.695,22.949,0
1542732133.168,22.461,29.785,38.086,13.184,11.230,0
1542732133.172,19.531,21.973,41.992,21.484,36.133,0
1542732133.176,17.090,31.250,44.922,26.367,-0.488,0
1542732133.180,22.461,34.668,41.992,24.414,-27.344,0
1542732133.184,29.785,35.645,43.457,19.531,49.805,0
1542732133.188,17.090,46.875,42.969,17.578,52.734,0
1542732133.192,14.648,48.828,40.527,15.625,-1.465,0
1542732133.196,20.020,39.551,41.992,9.766,-37.598,0
1542732133.199,12.695,32.715,45.898,4.395,38.086,0
1542732133.203,17.090,21.484,48.340,16.113,50.293,0
1542732133.207,36.621,24.902,43.945,31.250,-45.410,0
1542732133.211,29.785,46.875,37.109,6.836,-1.465,0
1542732133.215,1.953,57.617,33.691,-20.508,77.148,0
1542732133.219,14.160,60.547,28.320,-5.859,43.457,0
1542732133.223,35.645,68.359,18.555,-1.953,-30.762,0
1542732133.227,20.020,76.172,10.254,-12.207,-29.297,0
1542732133.231,8.789,81.055,16.113,-9.277,38.574,0
1542732133.235,7.324,86.426,10.254,-23.438,63.477,0
1542732133.239,17.578,93.262,-5.371,-20.020,26.367,0
1542732133.242,15.625,106.934,-9.766,-24.902,14.160,0
1542732133.246,15.625,105.957,-13.672,-28.320,16.113,0
1542732133.250,19.043,101.074,-14.160,-17.578,41.504,0
1542732133.254,33.203,104.004,-13.672,-9.766,49.805,0
1542732133.258,46.387,116.211,-17.578,-8.301,67.871,0
1542732133.262,45.410,120.605,-18.555,-18.066,37.109,0
1542732133.266,46.387,114.258,-20.020,-1.953,19.043,0
1542732133.270,53.223,111.816,-22.949,6.836,49.316,0
1542732133.274,64.453,110.840,-22.461,8.301,45.898,0
1542732133.278,58.594,110.840,-23.438,17.578,3.906,0
1542732133.282,57.129,103.027,-26.855,16.113,6.348,0
1542732133.285,60.059,92.773,-19.043,14.648,9.277,0
1542732133.289,57.129,94.238,-7.812,15.137,-11.230,0
1542732133.293,63.965,101.074,-1.465,10.254,5.371,0
1542732133.297,62.012,101.562,3.906,11.230,27.832,0
1542732133.301,50.293,100.586,6.348,10.254,55.664,0
1542732133.305,48.340,91.309,5.859,1.465,20.996,0
1542732133.309,45.410,78.613,7.812,2.441,15.625,0
1542732133.313,50.293,70.801,6.348,5.371,49.316,0
1542732133.317,34.668,75.195,1.953,7.812,34.668,0
1542732133.321,38.086,73.730,6.836,13.672,50.293,0
1542732133.324,43.457,64.941,19.043,18.555,50.781,0
1542732133.328,26.367,69.336,24.414,17.090,43.945,0
1542732133.332,35.645,76.172,22.949,7.812,27.344,0
1542732133.336,39.062,72.266,19.531,2.930,18.066,0
1542732133.340,41.504,64.453,19.531,10.742,33.691,0
1542732133.344,45.410,67.383,19.043,19.043,66.895,0
1542732133.348,49.316,67.871,18.066,15.137,83.984,0
1542732133.352,50.293,62.012,20.508,11.230,89.355,0
1542732133.356,38.574,58.105,25.391,13.672,41.992,0
1542732133.360,37.598,55.664,24.902,17.578,29.297,0
1542732133.364,46.387,58.105,18.555,19.043,49.316,0
1542732133.367,40.527,62.988,24.414,18.066,53.711,0
1542732133.371,36.133,61.523,28.809,19.531,53.711,0
1542732133.375,46.875,58.594,23.438,23.438,3.418,0
1542732133.379,49.316,57.617,18.555,18.066,2.930,0
1542732133.383,40.527,53.223,18.555,6.836,20.996,0
1542732133.387,50.293,55.176,23.926,11.230,20.508,0
1542732133.391,61.523,65.918,29.785,24.902,53.223,0
1542732133.395,43.457,65.430,34.668,21.973,34.668,0
1542732133.399,48.828,60.059,33.203,18.066,41.992,0
1542732133.403,49.805,53.711,32.715,20.996,68.848,0
1542732133.407,41.992,49.805,34.180,21.973,79.102,0
1542732133.410,64.453,51.270,29.297,34.668,34.668,0
1542732133.414,80.566,53.711,29.785,48.340,-12.695,0
1542732133.418,47.363,51.758,41.992,32.715,-34.180,0
1542732133.422,12.207,49.805,49.805,7.812,28.809,0
1542732133.426,11.230,51.270,45.898,1.953,62.988,0
1542732133.430,7.812,46.875,37.109,-1.953,-19.043,0
1542732133.434,7.812,34.180,36.133,-5.371,37.109,0
1542732133.438,10.254,34.668,42.969,-13.184,83.008,0
1542732133.442,13.672,44.434,46.387,-10.742,6.348,0
1542732133.446,26.855,42.480,47.363,0.488,-27.344,0
1542732133.449,31.738,36.621,41.992,4.395,-21.973,0
1542732133.453,23.926,36.133,37.109,6.836,21.973,0
1542732133.457,26.367,41.016,35.645,3.418,46.875,0
1542732133.461,20.020,37.109,34.180,11.719,-24.414,0
1542732133.465,27.832,34.180,33.691,12.207,-81.055,0
1542732133.469,24.414,36.621,32.715,-3.906,-8.301,0
1542732133.473,17.090,34.668,43.457,-2.930,56.641,0
1542732133.477,27.832,36.133,49.316,8.301,6.348,0
1542732133.481,14.648,31.738,47.363,4.883,20.996,0
1542732133.485,25.391,28.809,43.457,3.418,69.336,0
1542732133.489,40.039,25.879,40.527,4.883,65.918,0
1542732133.492,27.344,22.461,43.457,8.301,48.340,0
1542732133.496,17.090,24.414,42.969,12.207,71.289,0
1542732133.500,20.996,26.855,46.387,17.578,57.129,0
1542732133.504,37.109,27.344,48.340,23.926,33.691,0
1542732133.508,39.551,26.367,47.363,18.066,12.207,0
1542732133.512,37.109,23.926,46.875,11.719,50.293,0
1542732133.516,36.621,25.391,41.016,14.648,69.824,0
1542732133.520,34.180,28.320,43.457,16.602,53.711,0
1542732133.524,35.645,33.691,48.340,16.602,32.227,0
1542732133.528,32.715,31.250,45.410,7.324,29.785,0
1542732133.532,41.016,26.367,38.574,9.766,76.172,0
1542732133.535,45.410,32.227,33.203,20.508,79.590,0
1542732133.539,34.180,31.250,36.133,15.137,54.199,0
1542732133.543,38.574,24.414,40.039,20.508,36.621,0
1542732133.547,48.340,23.438,41.992,29.785,-4.395,0
1542732133.551,41.504,24.414,45.898,23.926,-27.832,0
1542732133.555,28.809,28.320,50.293,20.508,4.395,0
1542732133.559,37.109,34.180,51.758,22.461,-7.324,0
1542732133.563,29.297,34.668,49.316,21.484,-12.207,0
1542732133.567,15.137,31.738,42.480,21.484,14.648,0
1542732133.571,25.391,32.227,39.551,20.996,25.879,0
1542732133.574,35.156,33.691,41.992,10.254,14.160,0
1542732133.578,43.457,35.156,44.434,6.348,-10.254,0
1542732133.582,52.734,37.109,39.062,14.648,-14.648,0
1542732133.586,39.062,34.668,39.551,16.113,16.113,0
1542732133.590,25.879,28.320,44.922,15.625,19.043,0
1542732133.594,33.691,29.785,41.504,23.926,2.441,0
1542732133.598,35.645,36.133,42.480,28.809,-21.973,0
1542732133.602,34.180,39.551,47.852,27.832,16.602,0
1542732133.606,30.273,39.551,48.340,24.902,-11.230,0
1542732133.610,29.785,33.691,45.410,26.855,6.348,0
1542732133.614,39.062,35.645,45.898,25.879,71.777,0
1542732133.617,32.227,41.992,44.922,15.137,10.254,0
1542732133.621,36.133,41.992,40.527,19.531,-12.207,0
1542732133.625,35.156,38.086,39.062,21.484,-0.977,0
1542732133.629,34.668,36.133,42.969,15.625,-3.418,0
1542732133.633,36.621,36.621,42.480,16.602,51.758,0
1542732133.637,21.484,36.621,41.992,18.066,40.527,0
1542732133.641,29.785,39.062,45.410,19.531,-26.855,0
1542732133.645,40.039,39.551,46.875,19.531,-13.184,0
1542732133.649,35.645,35.156,45.898,18.555,5.371,0
1542732133.653,33.203,32.715,41.504,19.043,-7.324,0
1542732133.657,36.133,37.109,44.434,24.414,-2.441,0
1542732133.660,23.926,33.691,43.457,26.367,0.977,0
1542732133.664,14.648,28.320,37.598,16.113,-21.973,0
1542732133.668,21.973,29.297,39.062,14.160,-14.648,0
1542732133.672,42.480,32.227,41.016,19.531,16.113,0
1542732133.676,48.828,32.227,41.992,19.531,33.691,0
1542732133.680,22.949,31.250,40.527,15.625,27.832,0
1542732133.684,20.508,31.738,39.062,15.625,3.418,0
1542732133.688,29.297,32.227,44.434,18.555,23.438,0
1542732133.692,21.484,34.180,42.480,18.066,26.855,0
1542732133.696,16.602,33.203,41.016,12.695,-0.488,0
1542732133.699,22.949,29.785,42.480,8.789,55.664,0
1542732133.703,19.043,30.273,39.062,8.789,77.637,0
1542732133.707,18.555,32.715,41.992,9.277,81.543,0
1542732133.711,23.926,43.457,41.504,5.859,56.641,0
1542732133.715,22.949,38.086,33.203,6.836,63.965,0
1542732133.719,33.203,26.855,36.621,14.648,96.191,0
1542732133.723,33.203,37.598,41.992,9.766,40.527,0
1542732133.727,38.574,48.340,30.762,9.277,72.754,0
1542732133.731,61.523,47.363,26.855,35.156,60.059,0
1542732133.735,49.316,38.086,48.340,36.133,27.832,0
1542732133.739,12.695,33.203,60.547,7.324,56.641,0
1542732133.742,4.395,28.809,56.641,-5.859,45.410,0
1542732133.746,9.277,21.973,54.688,1.465,34.668,0
1542732133.750,-8.789,17.090,65.430,-7.324,14.648,0
1542732133.754,-25.391,16.113,67.383,-32.227,1.953,0
1542732133.758,-21.484,8.789,66.895,-28.320,7.812,0
1542732133.762,-28.809,-9.277,75.195,-16.113,47.363,0
1542732133.766,-35.645,-5.859,79.590,-21.973,60.547,0
1542732133.770,-23.926,0.977,78.125,-24.902,25.391,0
1542732133.774,-10.742,-8.789,76.660,-15.137,15.625,0
1542732133.778,-12.695,-11.230,74.707,-8.301,26.367,0
1542732133.782,-18.555,-4.395,65.430,-7.812,31.738,0
1542732133.785,0.488,-4.395,61.523,-8.789,34.668,0
1542732133.789,-0.488,-4.395,68.359,-6.348,44.922,0
1542732133.793,-9.766,2.930,64.941,-2.441,31.738,0
1542732133.797,-4.883,3.418,60.059,-1.953,40.039,0
1542732133.801,-4.395,3.418,60.547,2.441,69.336,0
1542732133.805,6.836,11.719,57.129,10.254,57.129,0
1542732133.809,17.578,18.555,58.105,7.812,-21.973,0
1542732133.813,20.020,20.508,62.500,6.348,-20.508,0
1542732133.817,25.879,22.949,63.477,8.301,-3.906,0
1542732133.821,24.414,27.344,61.035,9.766,-11.719,0
1542732133.824,20.020,26.855,60.547,19.531,44.922,0
1542732133.828,24.414,20.508,59.082,15.137,79.590,0
1542732133.832,21.484,20.508,54.199,11.230,31.738,0
1542732133.836,20.508,24.902,58.594,15.137,31.250,0
1542732133.840,15.625,29.297,62.500,7.812,7.324,0
1542732133.844,18.066,25.391,54.199,8.789,-64.453,0
1542732133.848,23.438,25.879,52.734,13.184,-37.598,0
1542732133.852,19.531,31.250,53.711,14.160,57.617,0
1542732133.856,22.461,30.762,49.805,14.160,53.223,0
1542732133.860,25.879,28.320,51.758,7.324,2.930,0
1542732133.864,24.902,33.203,48.340,2.441,59.082,0
1542732133.867,35.645,41.992,46.875,1.465,59.570,0
1542732133.871,32.715,40.039,51.758,1.465,35.645,0
1542732133.875,16.602,35.645,47.363,8.301,56.152,0
1542732133.879,9.766,34.180,45.898,13.184,31.738,0
1542732133.883,11.230,32.227,48.828,12.207,-16.113,0
1542732133.887,17.578,36.133,50.293,15.137,7.324,0
1542732133.891,17.578,41.016,48.340,19.531,-4.883,0
1542732133.895,14.160,38.086,43.457,17.578,-49.805,0
1542732133.899,26.855,31.738,41.504,19.043,30.762,0
1542732133.903,15.625,30.273,41.016,20.020,68.848,0
1542732133.907,7.324,31.738,38.574,18.066,67.871,0
1542732133.910,20.020,32.227,32.715,21.973,60.059,0
1542732133.914,6.836,27.344,33.203,17.090,-6.836,0
1542732133.918,14.160,27.344,34.668,14.160,43.457,0
1542732133.922,23.438,36.621,36.133,18.555,45.410,0
1542732133.926,24.414,45.410,44.922,22.461,43.457,0
1542732133.930,26.855,41.992,47.363,23.926,59.570,0
1542732133.934,24.414,32.715,46.387,21.484,2.441,0
1542732133.938,21.484,34.180,43.945,18.555,-1.953,0
1542732133.942,14.160,35.645,40.527,15.625,5.371,0
1542732133.946,19.043,36.133,44.922,15.137,4.395,0
1542732133.949,15.137,41.992,50.781,15.137,-0.977,0
1542732133.953,18.066,44.922,47.852,19.531,45.410,0
1542732133.957,23.438,37.109,45.898,22.461,23.926,0
1542732133.961,26.367,34.180,47.852,20.508,-12.207,0
1542732133.965,23.926,38.574,43.457,17.578,36.133,0
1542732133.969,20.508,39.062,34.180,19.531,14.160,0
1542732133.973,21.484,36.621,34.668,19.043,-42.480,0
1542732133.977,16.113,35.645,38.574,12.207,-11.719,0
1542732133.981,12.695,33.691,40.039,10.742,66.406,0
1542732133.985,11.230,30.762,36.621,7.324,51.758,0
1542732133.989,14.648,29.297,38.574,6.348,12.207,0
1542732133.992,18.066,31.250,41.504,5.859,31.738,0
1542732133.996,19.531,30.273,40.039,0.000,57.129,0
1542732134.000,20.508,26.855,39.062,2.441,28.320,0
1542732134.004,14.648,28.809,38.574,1.465,-0.488,0
1542732134.008,34.668,37.109,26.855,9.277,38.086,0
1542732134.012,63.477,43.457,24.902,28.809,55.176,0
1542732134.016,36.621,36.133,38.086,18.555,126.465,0
1542732134.020,-1.953,32.227,46.875,-6.836,112.793,0
1542732134.024,-9.766,26.855,52.246,-12.695,-16.113,0
1542732134.028,-14.648,18.066,58.594,-17.090,11.719,0
1542732134.032,-20.508,11.230,65.430,-23.926,14.160,0
1542732134.035,-24.414,3.906,68.848,-20.508,-4.395,0
1542732134.039,-27.832,-1.465,67.383,-17.090,36.133,0
1542732134.043,-20.020,-8.301,66.406,-12.695,43.945,0
1542732134.047,-5.859,-8.301,70.801,-5.859,21.973,0
1542732134.051,-0.977,-1.953,65.918,-2.441,27.344,0
1542732134.055,-6.836,0.000,62.012,-5.371,30.273,0
1542732134.059,-2.441,4.883,61.035,-1.953,10.254,0
1542732134.063,4.883,9.277,55.664,6.836,-1.953,0
1542732134.067,13.672,10.254,53.223,12.207,-36.621,0
1542732134.071,18.555,18.555,48.828,17.090,10.742,0
1542732134.074,16.113,21.973,47.363,16.602,55.664,0
1542732134.078,13.672,16.113,52.734,16.113,5.859,0
1542732134.082,20.996,17.090,52.246,16.602,52.734,0
1542732134.086,16.602,19.043,53.223,16.113,33.691,0
1542732134.090,18.066,18.555,57.129,23.926,7.812,0
1542732134.094,32.715,14.648,52.734,34.180,46.875,0
1542732134.098,23.438,12.207,51.758,35.156,31.250,0
1542732134.102,11.230,17.090,61.523,30.762,13.672,0
1542732134.106,14.160,21.484,62.012,31.738,20.996,0
1542732134.110,19.043,23.438,53.711,33.203,30.762,0
1542732134.114,23.926,20.996,48.828,25.879,20.996,0
1542732134.117,29.297,14.648,47.852,25.879,76.660,0
1542732134.121,37.598,27.344,47.363,30.273,31.250,0
1542732134.125,35.645,39.062,49.805,26.367,-62.012,0
1542732134.129,39.062,32.715,51.270,21.973,-59.570,0
1542732134.133,49.316,28.809,46.387,27.832,-3.906,0
1542732134.137,33.691,30.273,44.922,34.180,-28.320,0
1542732134.141,18.555,30.273,51.270,34.180,-63.477,0
1542732134.145,12.695,31.738,52.246,29.297,-1.953,0
1542732134.149,18.555,35.645,45.410,26.855,28.809,0
1542732134.153,20.508,34.668,42.480,27.344,61.035,0
1542732134.157,9.277,31.738,40.039,26.855,72.754,0
1542732134.160,14.160,32.227,36.621,24.414,5.371,0
1542732134.164,15.137,27.832,45.898,26.367,36.621,0
1542732134.168,12.207,34.180,48.828,31.250,70.312,0
1542732134.172,9.277,41.504,46.387,26.855,13.184,0
1542732134.176,17.578,41.016,48.340,26.855,13.672,0
1542732134.180,24.902,40.527,41.016,25.391,41.016,0
1542732134.184,9.766,40.039,35.645,18.555,54.688,0
1542732134.188,12.695,41.016,35.645,18.555,0.000,0
1542732134.192,23.438,40.039,34.668,17.578,-3.418,0
1542732134.196,11.719,36.621,39.551,18.555,44.434,0
1542732134.199,13.672,33.203,40.039,18.555,32.227,0
1542732134.203,23.438,35.645,37.598,17.090,22.949,0
1542732134.207,19.043,37.109,41.016,17.578,53.223,0
1542732134.211,21.484,41.504,37.598,22.949,49.316,0
1542732134.215,25.879,43.945,30.762,25.879,41.016,0
1542732134.219,42.969,31.738,37.109,29.297,57.617,0
1542732134.223,45.410,35.645,37.598,20.996,66.895,0
1542732134.227,24.414,47.363,29.297,0.977,82.520,0
1542732134.231,24.414,44.434,25.391,-5.371,41.504,0
1542732134.235,36.133,45.898,22.949,-0.488,24.902,0
1542732134.239,37.598,52.734,14.648,18.066,45.898,0
1542732134.242,30.273,54.199,13.184,24.414,5.371,0
1542732134.246,29.785,55.176,24.414,21.973,0.000,0
1542732134.250,22.949,49.805,26.855,24.902,8.301,0
1542732134.254,17.578,40.527,29.785,17.578,7.324,0
1542732134.258,22.949,41.992,36.621,18.066,48.828,0
1542732134.262,25.391,48.828,38.574,33.691,74.707,0
1542732134.266,31.250,49.805,36.621,35.645,13.184,0
1542732134.270,38.574,45.410,33.691,26.855,64.453,0
1542732134.274,41.992,49.316,26.855,30.273,30.762,0
1542732134.278,42.480,52.246,24.902,37.109,-11.230,0
1542732134.282,51.270,46.875,29.785,32.715,22.461,0
1542732134.285,46.387,44.434,24.902,35.156,-18.066,0
1542732134.289,42.969,46.387,23.926,34.668,-3.418,0
1542732134.293,46.875,49.316,31.250,27.344,1.465,0
1542732134.297,41.504,46.387,29.297,18.066,24.902,0
1542732134.301,33.691,50.781,35.156,20.020,49.316,0
1542732134.305,32.227,49.316,42.480,20.508,41.016,0
1542732134.309,24.414,43.457,37.598,15.137,18.555,0
1542732134.313,28.320,42.969,33.691,17.090,-11.719,0
1542732134.317,44.922,42.969,32.715,22.949,-3.906,0
1542732134.321,32.227,48.828,31.738,19.531,31.738,0
1542732134.324,18.555,43.945,33.203,9.277,10.254,0
1542732134.328,17.578,38.574,33.203,9.277,2.930,0
1542732134.332,25.391,44.922,31.250,14.648,51.270,0
1542732134.336,29.785,52.734,25.879,11.230,50.781,0
1542732134.340,22.461,51.270,24.902,8.301,21.484,0
1542732134.344,19.531,41.992,32.715,12.207,39.551,0
1542732134.348,22.949,40.527,33.691,12.207,63.965,0
1542732134.352,23.926,46.387,32.715,14.160,91.797,0
1542732134.356,32.715,48.828,39.551,14.648,60.059,0
1542732134.360,26.367,46.875,47.363,17.090,32.227,0
1542732134.364,20.996,39.551,47.852,12.695,39.551,0
1542732134.367,26.855,33.203,45.410,5.371,-50.781,0
1542732134.371,6.348,37.598,41.504,12.207,-49.316,0
1542732134.375,8.301,44.434,39.062,17.090,21.973,0
1542732134.379,17.090,44.434,39.062,16.113,51.758,0
1542732134.383,15.137,38.086,41.992,14.648,28.809,0
1542732134.387,20.508,37.109,43.945,17.578,16.602,0
1542732134.391,25.391,37.109,41.504,20.508,35.156,0
1542732134.395,25.391,43.457,39.551,19.043,21.973,0
1542732134.399,28.320,41.504,46.875,16.113,36.133,0
1542732134.403,27.344,34.180,48.340,16.602,63.965,0
1542732134.407,14.648,37.109,35.156,19.531,55.664,0
1542732134.410,15.625,43.457,34.668,17.090,55.664,0
1542732134.414,23.438,44.434,41.992,9.277,49.805,0
1542732134.418,22.461,39.062,43.945,8.789,13.184,0
1542732134.422,26.367,41.016,46.875,15.137,0.488,0
1542732134.426,22.461,41.504,45.410,20.020,18.555,0
1542732134.430,22.949,37.598,40.039,14.160,46.387,0
1542732134.434,23.926,41.504,41.504,10.742,15.625,0
1542732134.438,17.090,40.527,44.922,8.301,-8.789,0
1542732134.442,19.043,36.621,41.992,3.906,6.348,0
1542732134.446,28.320,40.527,38.086,8.301,-10.742,0
1542732134.449,25.879,43.945,33.691,8.789,63.965,0
1542732134.453,17.578,39.062,33.203,5.371,62.988,0
1542732134.457,23.438,36.621,34.668,8.789,5.371,0
1542732134.461,29.297,40.527,29.297,6.836,24.414,0
1542732134.465,29.785,45.898,30.273,12.695,8.301,0
1542732134.469,21.973,45.410,32.715,17.090,-20.508,0
1542732134.473,17.578,46.875,34.180,12.695,-25.391,0
1542732134.477,19.531,49.805,41.016,11.719,-22.461,0
1542732134.481,20.996,49.316,41.016,13.184,33.203,0
1542732134.485,27.832,41.504,39.062,17.578,61.523,0
1542732134.489,27.344,39.062,42.480,18.066,60.547,0
1542732134.492,22.949,36.621,46.875,17.090,68.359,0
1542732134.496,31.250,29.297,52.246,21.973,37.598,0
1542732134.500,30.762,34.180,52.246,25.879,22.461,0
1542732134.504,21.973,39.062,42.480,17.578,22.949,0
1542732134.508,23.926,42.969,35.156,16.602,48.340,0
1542732134.512,16.602,46.387,36.621,15.625,72.754,0
1542732134.516,9.766,44.922,41.016,9.277,39.551,0
1542732134.520,12.207,40.039,40.527,6.836,20.020,0
1542732134.524,6.348,41.504,43.945,7.324,-30.762,0
1542732134.528,7.324,48.340,48.828,12.207,-27.344,0
1542732134.532,11.230,44.434,41.504,12.207,59.570,0
1542732134.535,18.066,41.992,37.598,11.230,1.953,0
1542732134.539,20.020,34.668,44.922,10.742,-66.406,0
1542732134.543,16.113,23.926,43.945,6.836,-47.852,0
1542732134.547,18.066,31.250,33.203,6.836,-19.531,0
1542732134.551,23.438,38.574,31.250,9.766,17.090,0
1542732134.555,22.461,35.645,37.109,6.836,47.363,0
1542732134.559,15.137,34.180,36.621,9.766,9.277,0
1542732134.563,13.184,43.457,32.715,14.160,-22.949,0
1542732134.567,11.230,47.363,35.645,10.742,11.719,0
1542732134.571,19.531,37.109,34.668,10.254,47.363,0
1542732134.574,18.066,34.180,38.086,14.648,55.176,0
1542732134.578,13.184,37.598,40.527,18.555,11.230,0
1542732134.582,18.555,36.621,41.992,19.043,22.461,0
1542732134.586,20.020,41.504,44.434,15.625,47.363,0
1542732134.590,11.719,42.480,41.992,13.672,44.434,0
1542732134.594,6.836,39.551,44.434,17.578,14.160,0
1542732134.598,14.160,40.039,45.410,20.508,6.836,0
1542732134.602,16.602,40.527,42.969,19.043,24.902,0
1542732134.606,15.625,39.062,41.016,14.648,20.996,0
1542732134.610,31.738,36.621,41.992,11.719,30.762,0
1542732134.614,32.227,38.574,34.180,15.137,-13.672,0
1542732134.617,27.344,38.574,30.273,21.973,-9.277,0
1542732134.621,32.715,39.062,38.086,17.090,29.785,0
1542732134.625,25.879,39.062,36.133,7.324,42.969,0
1542732134.629,20.020,36.621,45.410,15.625,36.621,0
1542732134.633,23.926,42.969,53.223,19.531,16.113,0
1542732134.637,25.391,49.805,41.016,19.043,55.664,0
1542732134.641,31.250,48.340,39.062,18.066,76.172,0
1542732134.645,29.785,45.410,40.527,12.695,36.621,0
1542732134.649,22.949,41.504,34.668,16.113,11.230,0
1542732134.653,22.949,40.039,34.180,14.648,8.301,0
1542732134.657,24.414,41.504,34.668,13.184,2.930,0
1542732134.660,38.086,42.969,35.156,20.508,6.348,0
1542732134.664,43.457,41.992,37.109,23.926,63.965,0
1542732134.668,21.484,38.086,36.621,20.508,64.453,0
1542732134.672,15.137,39.062,42.969,20.508,-1.465,0
1542732134.676,23.926,41.992,51.270,20.020,18.066,0
1542732134.680,22.461,44.922,52.734,18.555,11.719,0
1542732134.684,17.090,43.945,50.781,13.184,11.719,0
1542732134.688,29.785,46.387,51.270,10.742,41.992,0
1542732134.692,25.879,47.852,51.270,13.184,40.527,0
1542732134.696,9.766,42.480,46.875,13.672,51.758,0
1542732134.699,8.301,41.504,44.922,10.254,-15.137,0
1542732134.703,12.695,47.852,44.922,8.789,24.414,0
1542732134.707,4.883,47.852,47.852,5.859,107.910,0
1542732134.711,-3.418,41.504,51.758,5.371,53.223,0
1542732134.715,-2.441,39.551,53.223,3.906,19.531,0
1542732134.719,1.465,44.922,50.781,-3.906,13.184,0
1542732134.723,2.930,45.898,46.875,-9.277,5.371,0
1542732134.727,6.836,44.434,48.340,-9.277,55.176,0
1542732134.731,1.953,53.223,57.617,-11.230,56.641,0
1542732134.735,-11.230,62.500,57.129,-18.555,69.336,0
1542732134.739,-8.789,58.105,52.246,-29.297,15.625,0
1542732134.742,-5.371,57.617,55.664,-32.715,-24.902,0
1542732134.746,-23.926,58.594,56.152,-42.480,15.137,0
1542732134.750,-30.273,51.270,58.594,-44.922,24.414,0
1542732134.754,-36.621,59.082,62.500,-47.363,23.926,0
1542732134.758,-58.105,62.012,58.105,-68.848,35.156,0
1542732134.762,-61.035,56.641,63.477,-76.660,59.082,0
1542732134.766,-70.801,63.477,63.477,-84.473,-15.137,0
1542732134.770,-102.539,81.055,58.594,-112.305,-16.602,0
1542732134.774,-116.699,94.727,67.383,-134.277,27.832,0
1542732134.778,-125.977,98.633,69.336,-145.996,-6.348,0
1542732134.782,-138.184,101.074,61.035,-155.273,-5.371,0
1542732134.785,-148.926,109.375,56.641,-166.504,-4.883,0
1542732134.789,-161.133,118.164,53.223,-188.965,53.223,0
1542732134.793,-147.949,117.188,50.293,-180.664,69.336,0
1542732134.797,-139.648,119.141,47.363,-150.879,-12.695,0
1542732134.801,-132.812,131.348,38.574,-151.367,22.949,0
1542732134.805,-114.258,145.020,20.508,-160.645,105.469,0
1542732134.809,-103.027,157.227,4.883,-157.227,56.641,0
1542732134.813,-91.797,143.555,2.930,-137.207,9.277,0
1542732134.817,-70.312,128.418,2.930,-112.793,-5.859,0
1542732134.821,-44.922,135.742,-12.207,-91.309,-28.320,0
1542732134.824,-29.297,140.625,-19.043,-66.895,-3.906,0
1542732134.828,-22.949,136.230,-16.602,-53.711,15.625,0
1542732134.832,5.859,134.766,-19.531,-38.574,-13.672,0
1542732134.836,30.762,130.859,-20.508,-26.367,1.953,0
1542732134.840,48.340,126.953,-21.973,-8.789,67.871,0
1542732134.844,76.660,120.117,-22.461,17.578,59.082,0
1542732134.848,89.355,103.027,-19.043,25.879,-6.348,0
1542732134.852,98.633,91.797,-11.719,36.621,-19.043,0
1542732134.856,99.121,83.008,-2.930,47.363,68.359,0
1542732134.860,84.473,70.801,-3.418,50.781,62.012,0
1542732134.864,91.797,67.383,-5.859,62.988,9.766,0
1542732134.867,96.191,66.406,-1.465,74.219,-6.836,0
1542732134.871,92.285,60.059,4.395,78.613,-15.625,0
1542732134.875,95.215,49.805,6.348,75.195,18.555,0
1542732134.879,95.703,45.898,0.977,66.895,24.414,0
1542732134.883,112.305,45.410,-2.930,70.312,3.906,0
1542732134.887,110.352,43.457,5.859,79.102,-22.461,0
1542732134.891,99.121,36.621,9.766,81.543,-11.719,0
1542732134.895,111.816,30.273,4.395,85.449,3.418,0
1542732134.899,113.281,33.203,13.184,94.238,46.875,0
1542732134.903,109.863,35.645,21.484,98.633,94.727,0
1542732134.907,105.469,31.250,22.461,95.703,95.703,0
1542732134.910,102.051,22.949,23.438,92.285,29.297,0
1542732134.914,93.262,20.020,23.926,84.473,-45.410,0
1542732134.918,91.309,24.414,28.809,80.566,-19.531,0
1542732134.922,96.680,26.367,27.344,81.543,15.625,0
1542732134.926,100.586,26.367,23.438,87.402,58.594,0
1542732134.930,102.539,24.414,25.391,93.262,34.668,0
1542732134.934,91.797,21.484,26.855,82.031,-27.832,0
1542732134.938,86.914,23.438,23.926,69.824,51.758,0
1542732134.942,85.449,20.996,21.484,69.336,76.172,0
1542732134.946,99.609,20.020,23.926,75.195,72.754,0
1542732134.949,95.215,26.367,19.043,78.613,48.340,0
1542732134.953,76.172,24.414,24.414,73.730,21.973,0
1542732134.957,69.824,19.531,40.039,71.777,67.383,0
1542732134.961,73.730,21.973,45.898,72.266,49.316,0
1542732134.965,74.707,27.832,39.551,75.684,35.645,0
1542732134.969,73.730,29.297,36.133,72.266,69.824,0
1542732134.973,73.730,27.832,39.551,62.988,105.469,0
1542732134.977,70.312,26.367,38.086,57.617,92.773,0
1542732134.981,68.848,26.855,33.203,54.688,-8.301,0
1542732134.985,65.918,30.762,32.715,55.664,21.973,0
1542732134.989,70.312,30.762,36.621,53.223,74.707,0
1542732134.992,76.172,19.043,43.945,59.570,45.898,0
1542732134.996,69.336,12.207,44.434,78.125,32.715,0
1542732135.000,55.664,25.391,38.574,64.453,35.645,0
1542732135.004,40.039,30.273,37.109,42.969,47.363,0
1542732135.008,26.855,23.438,36.133,44.434,6.836,0
1542732135.012,28.320,30.273,29.297,42.480,-36.621,0
1542732135.016,35.645,44.922,25.391,35.645,-32.715,0
1542732135.020,39.551,49.316,28.320,34.668,-21.484,0
1542732135.024,48.828,48.340,26.367,46.387,-27.344,0
1542732135.028,49.805,45.898,18.066,47.363,-1.953,0
1542732135.032,53.223,40.039,20.996,42.480,28.809,0
1542732135.035,54.688,40.039,37.109,44.434,-30.762,0
1542732135.039,49.805,36.133,40.527,41.016,-42.480,0
1542732135.043,55.176,27.832,34.180,44.434,8.789,0
1542732135.047,60.547,26.367,35.156,45.898,43.945,0
1542732135.051,58.105,33.691,36.621,43.945,30.762,0
1542732135.055,52.246,37.598,33.203,45.410,53.223,0
1542732135.059,52.246,31.738,26.367,46.387,78.125,0
1542732135.063,53.223,28.809,24.414,41.504,8.789,0
1542732135.067,61.523,32.715,26.855,38.086,-3.906,0
1542732135.071,59.082,33.691,35.645,44.922,26.367,0
1542732135.074,52.734,33.203,42.480,43.457,73.242,0
1542732135.078,54.199,38.574,45.898,41.992,51.270,0
1542732135.082,49.805,35.156,42.480,39.551,19.531,0
1542732135.086,51.270,33.203,35.156,35.156,41.016,0
1542732135.090,57.129,37.598,33.203,38.086,32.227,0
1542732135.094,45.898,37.109,30.273,35.156,62.988,0
1542732135.098,39.062,37.598,38.086,30.762,107.422,0
1542732135.102,39.551,41.016,41.504,31.250,106.934,0
1542732135.106,45.898,40.527,35.156,30.762,69.824,0
1542732135.110,40.039,35.156,35.156,33.203,42.969,0
1542732135.114,32.715,33.691,32.227,37.109,33.203,0
1542732135.117,32.227,40.039,33.691,28.809,40.039,0
1542732135.121,36.133,40.039,39.551,24.414,53.223,0
1542732135.125,40.527,37.598,43.457,30.762,49.805,0
1542732135.129,25.391,41.504,39.551,26.367,53.711,0
1542732135.133,33.203,43.457,36.133,24.902,53.711,0
1542732135.137,44.922,36.621,37.598,26.855,24.414,0
1542732135.141,28.809,32.227,40.039,26.367,-6.836,0
1542732135.145,24.902,34.668,41.504,26.855,28.320,0
1542732135.149,32.227,38.574,36.133,25.879,-11.230,0
1542732135.153,31.738,41.016,26.855,26.855,4.883,0
1542732135.157,26.367,39.551,25.391,22.461,-2.441,0
1542732135.160,20.508,35.645,39.062,13.672,-14.160,0
1542732135.164,20.996,32.227,53.711,9.277,71.289,0
1542732135.168,22.949,33.691,50.781,12.207,60.059,0
1542732135.172,29.297,42.480,48.340,20.508,4.883,0
1542732135.176,23.926,37.598,44.922,18.555,22.949,0
1542732135.180,19.043,25.391,33.203,15.137,42.969,0
1542732135.184,36.133,32.227,25.391,23.438,49.805,0
1542732135.188,43.945,33.691,35.645,34.668,48.828,0
1542732135.192,20.996,30.762,51.270,22.949,23.926,0
1542732135.196,8.301,30.273,51.758,11.230,-10.254,0
1542732135.199,10.254,32.715,49.316,14.648,-7.812,0
1542732135.203,15.625,33.203,46.387,17.578,-37.109,0
1542732135.207,22.949,31.250,43.457,19.531,-45.410,0
1542732135.211,24.414,32.715,49.805,21.973,-12.695,0
1542732135.215,21.484,32.715,58.594,25.879,-42.969,0
1542732135.219,16.113,24.902,57.129,19.043,-38.574,0
1542732135.223,15.137,17.090,47.852,12.207,-39.062,0
1542732135.227,17.578,24.902,41.992,13.184,-13.184,0
1542732135.231,12.695,30.273,41.016,15.137,11.719,0
1542732135.235,17.090,28.320,37.598,15.625,-11.719,0
1542732135.239,15.625,27.832,39.551,14.160,22.949,0
1542732135.242,-0.977,31.250,43.457,12.695,23.926,0
1542732135.246,2.930,30.762,47.363,15.137,15.137,0
1542732135.250,7.324,31.738,45.898,15.625,3.418,0
1542732135.254,8.301,40.039,34.180,6.348,7.812,0
1542732135.258,12.207,34.180,34.668,4.883,79.590,0
1542732135.262,17.090,25.391,41.504,12.695,107.422,0
1542732135.266,24.902,34.668,41.016,16.602,64.453,0
1542732135.270,22.949,36.621,42.969,10.254,30.273,0
1542732135.274,18.066,30.762,50.293,6.348,-25.879,0
1542732135.278,21.484,34.180,50.781,10.742,-26.855,0
1542732135.282,13.672,37.109,44.434,9.277,21.973,0
1542732135.285,2.930,30.762,44.922,8.789,15.625,0
1542732135.289,6.348,29.297,51.758,6.836,56.641,0
1542732135.293,13.672,29.297,48.828,15.625,57.617,0
1542732135.297,22.461,24.414,37.598,20.508,41.016,0
1542732135.301,23.926,33.691,37.598,16.113,50.781,0
1542732135.305,29.297,49.316,48.828,20.020,37.109,0
1542732135.309,29.785,49.805,51.270,26.367,-6.348,0
1542732135.313,24.902,46.387,50.293,23.926,29.297,0
1542732135.317,25.391,41.504,50.781,17.578,33.691,0
1542732135.321,26.367,31.738,46.875,17.578,1.465,0
1542732135.324,27.344,32.715,47.363,23.926,-26.855,0
1542732135.328,26.367,37.598,50.293,28.320,-40.527,0
1542732135.332,16.602,35.645,43.945,20.020,11.719,0
1542732135.336,20.020,36.621,40.527,13.184,55.176,0
1542732135.340,23.438,40.039,40.527,14.160,34.668,0
1542732135.344,21.973,32.227,41.504,13.184,24.414,0
1542732135.348,26.855,27.832,43.457,18.066,53.223,0
1542732135.352,24.902,38.086,43.457,27.832,29.297,0
1542732135.356,22.949,42.969,41.504,23.926,37.109,0
1542732135.360,19.531,41.016,40.527,13.184,27.832,0
1542732135.364,10.254,38.086,41.016,13.672,19.531,0
1542732135.367,14.160,35.645,46.387,14.160,34.668,0
1542732135.371,15.625,37.598,47.363,9.277,24.902,0
1542732135.375,10.254,33.203,47.363,9.277,-15.625,0
1542732135.379,15.625,27.832,47.852,12.695,3.906,0
1542732135.383,24.902,30.273,41.016,14.648,43.945,0
1542732135.387,25.391,30.273,41.016,17.578,-5.859,0
1542732135.391,20.020,34.668,49.316,19.531,-9.277,0
1542732135.395,19.043,40.039,50.781,16.602,18.555,0
1542732135.399,21.973,38.086,45.898,19.531,3.418,0
1542732135.403,16.602,46.387,45.410,23.438,22.461,0
1542732135.407,19.043,48.340,43.945,16.602,2.930,0
1542732135.410,15.625,37.598,40.527,15.625,-11.230,0
1542732135.414,7.812,37.109,43.457,18.066,4.883,0
1542732135.418,13.184,36.621,41.992,10.742,40.039,0
1542732135.422,18.066,33.691,33.691,5.371,44.922,0
1542732135.426,19.531,39.062,32.715,8.789,35.645,0
1542732135.430,20.996,37.598,34.668,14.160,35.156,0
1542732135.434,24.902,33.203,35.645,13.672,66.895,0
1542732135.438,19.531,35.645,40.527,5.859,52.246,0
1542732135.442,17.090,39.551,42.969,9.766,4.395,0
1542732135.446,13.184,36.133,45.898,14.648,41.016,0
1542732135.449,13.672,32.715,41.016,10.254,74.707,0
1542732135.453,19.531,33.203,38.574,9.277,39.551,0
1542732135.457,18.555,32.227,43.457,13.184,29.297,0
1542732135.461,17.578,36.133,42.969,13.184,33.691,0
1542732135.465,21.973,39.551,46.387,10.742,33.691,0
1542732135.469,15.625,40.039,43.945,9.277,50.781,0
1542732135.473,12.695,36.133,39.551,11.230,46.387,0
1542732135.477,24.902,39.062,41.504,20.508,13.184,0
1542732135.481,21.484,41.016,47.852,24.902,-4.395,0
1542732135.485,19.531,37.598,43.945,24.414,14.648,0
1542732135.489,24.902,45.410,41.992,26.367,47.852,0
1542732135.492,21.484,48.340,40.039,31.250,34.180,0
1542732135.496,15.625,38.086,36.621,25.391,6.348,0
1542732135.500,31.250,35.645,49.316,27.832,9.766,0
1542732135.504,40.527,41.016,51.758,22.461,33.691,0
1542732135.508,28.320,48.828,42.969,15.137,29.785,0
1542732135.512,21.973,48.828,43.457,21.484,25.879,0
1542732135.516,13.184,39.062,40.527,14.160,87.891,0
1542732135.520,13.672,35.156,38.574,10.254,64.941,0
1542732135.524,10.254,39.551,42.969,8.789,-5.859,0
1542732135.528,9.277,42.969,40.527,4.395,42.969,0
1542732135.532,23.438,42.969,32.715,4.883,57.617,0
1542732135.535,30.273,38.574,33.691,1.465,16.602,0
1542732135.539,35.156,38.574,45.898,0.000,62.500,0
1542732135.543,38.086,40.527,52.246,9.277,79.590,0
1542732135.547,25.879,35.645,50.293,18.555,53.711,0
1542732135.551,20.508,30.273,48.340,20.508,74.707,0
1542732135.555,25.391,33.203,48.828,22.949,37.598,0
1542732135.559,13.184,42.969,48.828,25.879,11.719,0
1542732135.563,5.859,47.363,51.270,18.066,64.453,0
1542732135.567,6.836,44.434,39.551,8.301,75.684,0
1542732135.571,9.277,40.527,34.180,10.742,-16.602,0
1542732135.574,14.648,39.062,43.945,12.695,-19.531,0
1542732135.578,17.090,39.551,36.133,17.090,23.926,0
1542732135.582,21.484,41.504,35.645,17.090,44.922,0
1542732135.586,20.508,44.434,43.945,11.230,32.227,0
1542732135.590,15.625,41.992,40.527,17.578,-4.883,0
1542732135.594,18.066,37.598,46.875,25.391,32.715,0
1542732135.598,19.043,41.016,54.199,23.926,2.441,0
1542732135.602,18.555,38.086,47.363,20.020,18.555,0
1542732135.606,20.020,34.668,43.457,16.113,73.730,0
1542732135.610,15.137,34.668,37.598,9.766,82.520,0
1542732135.614,17.578,36.621,37.598,14.648,19.043,0
1542732135.617,20.508,36.621,47.363,23.438,-35.156,0
1542732135.621,20.996,30.762,46.387,24.414,18.555,0
1542732135.625,17.090,23.926,42.969,22.949,56.152,0
1542732135.629,11.719,28.809,37.109,16.602,30.273,0
1542732135.633,15.625,36.133,38.574,15.137,-14.648,0
1542732135.637,10.742,34.668,43.945,14.160,19.531,0
1542732135.641,2.930,32.227,37.598,6.836,16.602,0
1542732135.645,38.574,39.062,24.902,34.668,-3.906,0
1542732135.649,64.941,39.551,35.156,61.035,48.828,0
1542732135.653,22.949,23.926,58.105,31.250,-21.484,0
1542732135.657,-4.395,17.578,61.035,3.906,6.348,0
1542732135.660,-9.766,16.602,67.871,-7.324,44.922,0
1542732135.664,-22.949,9.277,74.219,-22.949,21.973,0
1542732135.668,-31.250,-0.488,77.637,-27.344,7.324,0
1542732135.672,-47.852,-15.137,85.938,-37.598,31.250,0
1542732135.676,-55.176,-25.391,90.332,-41.504,77.637,0
1542732135.680,-65.918,-27.832,93.262,-46.387,33.203,0
1542732135.684,-63.477,-36.133,97.656,-35.645,5.859,0
1542732135.688,-67.871,-43.945,104.980,-33.691,-27.832,0
1542732135.692,-80.078,-53.711,107.910,-42.480,-42.480,0
1542732135.696,-68.848,-59.082,111.816,-28.320,40.039,0
1542732135.699,-63.965,-57.129,115.234,-25.391,46.875,0
1542732135.703,-54.688,-60.059,116.699,-12.695,23.926,0
1542732135.707,-50.293,-65.918,121.094,-4.395,-13.184,0
1542732135.711,-47.852,-62.500,115.723,-1.465,27.344,0
1542732135.715,-31.738,-62.012,114.258,6.348,50.781,0
1542732135.719,-23.926,-60.547,116.699,19.043,37.109,0
1542732135.723,-26.855,-49.805,103.516,19.043,52.246,0
1542732135.727,-23.438,-43.457,91.309,20.508,40.039,0
1542732135.731,-28.320,-43.945,91.309,17.090,35.645,0
1542732135.735,-21.484,-41.016,91.797,12.207,27.832,0
1542732135.739,-13.184,-33.691,88.867,22.461,75.684,0
1542732135.742,-14.160,-29.785,86.914,22.949,17.578,0
1542732135.746,-14.648,-25.391,88.379,22.949,-31.738,0
1542732135.750,-10.254,-21.484,88.379,25.879,5.371,0
1542732135.754,-5.371,-23.438,89.844,23.438,29.297,0
1542732135.758,-0.977,-16.602,85.449,25.391,28.320,0
1542732135.762,5.371,-13.184,74.707,23.438,19.531,0
1542732135.766,6.348,-19.531,74.707,18.555,23.926,0
1542732135.770,2.441,-12.207,73.242,22.949,10.254,0
1542732135.774,2.930,-2.441,71.777,20.508,1.465,0
1542732135.778,4.395,5.371,75.195,15.625,40.039,0
1542732135.782,0.488,6.348,69.336,10.254,22.949,0
1542732135.785,-0.977,0.977,65.430,11.719,-8.789,0
1542732135.789,1.953,3.418,67.871,14.648,15.137,0
1542732135.793,8.789,4.395,75.684,20.508,50.781,0
1542732135.797,10.742,10.254,80.566,26.367,43.945,0
1542732135.801,7.324,11.230,74.707,30.273,45.898,0
1542732135.805,14.648,5.859,69.824,32.715,58.105,0
1542732135.809,20.996,8.789,67.871,30.273,28.320,0
1542732135.813,16.113,12.207,71.289,28.809,8.301,0
1542732135.817,17.578,17.578,73.242,31.738,26.367,0
1542732135.821,20.508,23.438,68.359,32.715,73.730,0
1542732135.824,18.555,21.973,62.012,24.902,24.902,0
1542732135.828,20.996,20.996,53.711,27.832,-5.859,0
1542732135.832,16.602,25.391,52.246,32.227,44.434,0
1542732135.836,22.461,25.879,54.199,20.020,37.109,0
1542732135.840,26.367,23.438,56.152,18.555,12.207,0
1542732135.844,11.719,25.391,51.758,26.367,33.691,0
1542732135.848,10.254,27.344,48.340,23.926,36.621,0
1542732135.852,13.184,28.320,57.617,29.297,24.902,0
1542732135.856,14.160,30.762,59.082,30.273,5.859,0
1542732135.860,17.578,33.691,53.223,28.320,32.227,0
1542732135.864,21.973,34.180,49.805,31.250,3.906,0
1542732135.867,15.625,38.086,47.852,28.809,0.488,0
1542732135.871,13.672,38.574,51.758,25.391,57.129,0
1542732135.875,19.043,37.109,54.199,26.367,65.918,0
1542732135.879,16.113,33.691,55.176,30.273,58.594,0
1542732135.883,16.113,25.879,54.199,27.832,29.785,0
1542732135.887,17.578,27.344,53.223,24.902,15.137,0
1542732135.891,18.066,34.180,54.199,25.879,70.312,0
1542732135.895,20.020,29.297,49.805,28.320,104.004,0
1542732135.899,22.461,31.250,44.434,29.785,19.531,0
1542732135.903,21.973,33.203,45.410,29.785,-20.508,0
1542732135.907,19.043,21.973,47.852,24.902,26.367,0
1542732135.910,17.090,20.020,46.875,22.949,70.312,0
1542732135.914,30.762,26.855,43.945,28.809,59.570,0
1542732135.918,43.457,29.297,45.898,38.086,27.344,0
1542732135.922,30.762,28.809,56.641,37.109,2.441,0
1542732135.926,5.859,31.250,63.477,14.648,-43.945,0
1542732135.930,-1.953,24.414,66.895,7.324,18.555,0
1542732135.934,15.625,21.973,67.871,25.879,37.598,0
1542732135.938,16.113,25.879,65.918,24.414,-15.137,0
1542732135.942,23.438,18.555,65.430,25.879,15.137,0
1542732135.946,20.020,17.090,62.988,27.832,17.578,0
1542732135.949,6.836,17.090,59.570,22.949,-13.672,0
1542732135.953,16.113,14.160,61.523,26.367,22.461,0
1542732135.957,14.648,22.461,59.570,25.391,80.566,0
1542732135.961,9.766,23.926,50.781,18.555,83.984,0
1542732135.965,18.555,19.531,53.711,16.602,14.648,0
1542732135.969,16.602,26.367,63.477,21.484,-5.859,0
1542732135.973,10.254,21.484,61.523,26.367,-4.395,0
1542732135.977,7.812,13.184,53.711,28.809,-11.230,0
1542732135.981,9.277,21.484,51.758,32.227,-12.695,0
1542732135.985,11.719,24.414,51.270,31.738,-24.414,0
1542732135.989,11.230,20.020,46.387,29.297,-5.371,0
1542732135.992,14.160,20.996,46.387,33.203,4.395,0
1542732135.996,14.160,24.414,51.270,34.180,-10.742,0
1542732136.000,13.184,29.297,52.246,35.645,37.598,0
1542732136.004,12.695,29.785,47.363,33.203,61.523,0
1542732136.008,18.555,30.273,44.434,35.645,64.453,0
1542732136.012,24.414,36.133,45.898,41.016,54.199,0
1542732136.016,18.555,28.320,52.734,34.180,27.832,0
1542732136.020,16.602,20.508,53.223,29.297,37.598,0
1542732136.024,20.996,27.832,51.758,36.133,22.461,0
1542732136.028,20.996,31.250,58.594,42.480,26.855,0
1542732136.032,22.949,31.738,59.570,36.133,20.020,0
1542732136.035,19.531,29.297,54.688,29.785,36.621,0
1542732136.039,15.625,32.227,52.734,30.273,88.379,0
1542732136.043,18.555,33.203,51.758,28.809,32.715,0
1542732136.047,19.531,27.832,50.781,20.996,-8.301,0
1542732136.051,18.066,31.250,48.340,22.949,23.926,0
1542732136.055,17.090,30.273,41.992,25.879,-16.113,0
1542732136.059,14.648,26.367,38.574,25.879,3.906,0
1542732136.063,14.648,20.996,47.852,26.855,-12.695,0
1542732136.067,17.578,15.625,51.270,20.996,-42.969,0
1542732136.071,15.625,32.715,38.574,16.113,20.020,0
1542732136.074,7.812,50.293,29.297,7.812,-11.230,0
1542732136.078,7.812,46.875,31.738,0.000,-15.625,0
1542732136.082,18.066,42.480,36.621,11.719,66.406,0
1542732136.086,19.531,44.922,35.645,24.902,95.703,0
1542732136.090,15.137,40.527,37.598,22.461,30.762,0
1542732136.094,16.602,39.551,40.527,16.602,33.203,0
1542732136.098,19.531,40.527,36.133,19.531,63.965,0
1542732136.102,20.508,37.598,41.504,23.438,30.273,0
1542732136.106,22.949,33.203,44.922,26.367,28.320,0
1542732136.110,26.855,35.156,34.180,24.902,56.641,0
1542732136.114,34.180,41.016,25.879,28.320,39.062,0
1542732136.117,37.109,34.180,32.227,32.715,9.277,0
1542732136.121,34.668,36.621,42.969,33.203,27.344,0
1542732136.125,28.320,45.898,41.992,29.297,40.527,0
1542732136.129,26.367,43.457,40.039,26.855,35.156,0
1542732136.133,24.902,41.016,40.039,30.762,89.355,0
1542732136.137,29.785,40.527,39.551,32.227,99.121,0
1542732136.141,29.297,38.086,41.992,22.949,57.617,0
1542732136.145,28.320,35.645,41.016,15.625,17.090,0
1542732136.149,32.715,36.621,39.062,24.902,50.781,0
1542732136.153,27.344,43.945,41.504,25.879,32.715,0
1542732136.157,31.738,44.922,41.016,21.973,3.906,0
1542732136.160,36.621,40.039,33.203,27.832,-2.441,0
1542732136.164,30.273,37.598,32.715,26.855,-16.113,0
1542732136.168,29.297,40.527,36.133,25.879,45.898,0
1542732136.172,34.180,43.457,37.598,25.391,1.465,0
1542732136.176,33.203,42.480,37.598,17.578,8.789,0
1542732136.180,25.879,43.457,38.574,18.066,1.953,0
1542732136.184,19.043,46.387,44.922,19.043,34.180,0
1542732136.188,20.508,46.875,41.504,17.578,58.105,0
1542732136.192,25.391,35.645,39.551,22.949,-2.441,0
1542732136.196,22.949,34.180,45.898,20.508,41.016,0
1542732136.199,18.555,41.992,47.852,12.207,70.312,0
1542732136.203,20.996,42.480,48.340,11.230,23.926,0
1542732136.207,16.113,42.480,41.992,15.137,10.254,0
1542732136.211,16.602,41.992,40.527,20.020,71.289,0
1542732136.215,20.020,36.621,41.992,22.949,71.777,0
1542732136.219,19.531,35.156,39.062,22.461,13.184,0
1542732136.223,14.648,36.621,41.016,20.996,7.812,0
1542732136.227,9.766,34.180,41.992,17.090,63.477,0
1542732136.231,11.719,32.227,41.016,14.160,54.199,0
1542732136.235,16.113,38.086,46.875,18.555,37.109,0
1542732136.239,20.020,47.363,56.152,24.902,56.152,0
1542732136.242,22.461,47.852,56.641,20.020,48.340,0
1542732136.246,26.367,40.527,46.875,14.648,58.594,0
1542732136.250,27.832,34.668,37.598,16.602,4.395,0
1542732136.254,28.809,35.156,35.156,14.160,-33.203,0
1542732136.258,27.832,36.621,35.156,14.160,0.977,0
1542732136.262,32.227,38.574,33.203,11.719,12.207,0
1542732136.266,31.250,42.480,36.621,9.277,-10.254,0
1542732136.270,19.043,38.574,42.480,12.695,12.695,0
1542732136.274,14.160,32.715,42.480,18.555,48.340,0
1542732136.278,18.555,36.621,38.574,26.855,16.602,0
1542732136.282,18.066,40.527,36.621,31.250,-36.133,0
1542732136.285,18.066,43.457,41.016,25.391,-30.762,0
1542732136.289,18.066,46.875,38.574,11.719,35.156,0
1542732136.293,18.066,46.875,34.668,8.789,35.156,0
1542732136.297,18.555,45.898,32.715,12.695,-9.766,0
1542732136.301,16.113,41.504,35.156,13.184,25.879,0
1542732136.305,15.625,39.551,42.480,14.160,28.320,0
1542732136.309,17.090,40.527,44.434,11.230,25.879,0
1542732136.313,17.578,40.039,40.527,11.230,-1.465,0
1542732136.317,13.184,42.969,34.180,12.695,-17.578,0
1542732136.321,14.160,39.062,34.668,16.602,36.133,0
1542732136.324,18.066,35.645,38.574,19.043,-16.602,0
1542732136.328,15.137,40.527,40.527,19.043,3.418,0
1542732136.332,14.648,46.875,47.363,15.137,15.625,0
1542732136.336,19.043,47.852,52.246,10.742,35.156,0
1542732136.340,15.137,43.945,46.875,16.113,83.984,0
1542732136.344,16.113,42.969,34.180,16.602,45.410,0
1542732136.348,23.926,40.527,35.156,19.043,29.297,0
1542732136.352,14.160,39.062,46.875,9.766,-18.066,0
1542732136.356,0.977,39.062,48.828,1.465,-31.738,0
1542732136.360,0.000,33.691,42.969,7.324,25.879,0
1542732136.364,-0.488,31.250,41.992,10.254,70.312,0
1542732136.367,3.418,32.715,45.410,9.766,37.109,0
1542732136.371,7.812,32.227,46.875,12.695,-25.879,0
1542732136.375,0.488,34.180,47.363,11.230,-22.461,0
1542732136.379,1.465,36.621,44.922,5.371,26.367,0
1542732136.383,6.348,38.574,42.969,5.371,54.199,0
1542732136.387,2.441,35.156,52.246,4.395,11.230,0
1542732136.391,2.441,33.691,57.617,4.883,2.930,0
1542732136.395,5.859,36.621,54.688,9.277,84.961,0
1542732136.399,3.906,34.180,45.898,13.672,123.047,0
1542732136.403,8.301,37.109,43.945,18.066,47.363,0
1542732136.407,11.230,40.039,50.781,18.555,27.344,0
1542732136.410,14.648,40.527,44.434,18.555,50.781,0
1542732136.414,26.855,40.039,41.504,26.367,62.988,0
1542732136.418,20.508,42.969,50.293,24.414,57.617,0
1542732136.422,16.113,44.922,51.758,19.531,55.176,0
1542732136.426,18.555,43.457,48.828,18.555,67.871,0
1542732136.430,11.230,39.551,45.410,9.277,44.434,0
1542732136.434,14.648,34.668,52.734,15.625,56.641,0
1542732136.438,16.602,40.527,58.594,16.602,96.680,0
1542732136.442,9.277,36.133,48.340,6.348,12.207,0
1542732136.446,8.301,26.855,43.945,15.137,15.137,0
1542732136.449,12.207,28.320,48.828,16.602,62.988,0
1542732136.453,19.531,35.645,43.945,16.602,26.855,0
1542732136.457,16.113,39.551,39.551,15.625,42.480,0
1542732136.461,8.789,37.109,51.758,10.254,-25.879,0
1542732136.465,14.160,38.086,56.152,16.602,48.828,0
1542732136.469,15.625,38.086,50.293,13.184,101.562,0
1542732136.473,16.113,40.039,45.898,6.348,17.090,0
1542732136.477,17.578,46.387,46.387,10.254,-0.488,0
1542732136.481,11.719,44.922,44.922,11.719,-9.766,0
1542732136.485,11.230,45.410,39.062,10.742,46.875,0
1542732136.489,12.207,46.875,37.598,14.648,54.199,0
1542732136.492,11.230,41.504,42.969,15.137,16.113,0
1542732136.496,11.719,36.621,37.598,6.836,14.648,0
1542732136.500,10.742,34.668,39.062,4.883,53.711,0
1542732136.504,18.555,42.480,54.199,14.160,32.227,0
1542732136.508,17.090,42.969,48.828,12.695,10.742,0
1542732136.512,13.672,35.645,42.480,9.766,11.230,0
1542732136.516,13.672,34.668,44.922,9.766,-54.688,0
1542732136.520,16.113,36.621,40.527,10.742,-35.645,0
1542732136.524,21.484,41.016,39.062,14.648,18.066,0
1542732136.528,16.602,39.062,41.016,9.277,10.742,0
1542732136.532,20.508,38.574,41.992,9.277,11.719,0
1542732136.535,22.461,39.062,40.039,11.230,3.418,0
1542732136.539,15.137,39.551,41.992,11.230,-2.930,0
1542732136.543,17.578,37.109,43.945,13.672,18.066,0
1542732136.547,19.531,36.621,43.457,15.625,7.812,0
1542732136.551,14.648,41.992,48.828,16.113,-6.348,0
1542732136.555,11.719,41.504,48.340,14.160,8.301,0
1542732136.559,10.742,37.109,46.875,14.648,47.363,0
1542732136.563,9.277,39.062,48.340,13.184,66.406,0
1542732136.567,9.277,34.180,45.410,11.230,36.133,0
1542732136.571,8.301,30.273,38.574,5.859,26.855,0
1542732136.574,8.301,28.809,35.645,1.465,3.906,0
1542732136.578,7.324,22.949,45.410,3.418,-22.461,0
1542732136.582,7.324,27.832,54.199,7.812,-37.109,0
1542732136.586,9.277,32.715,52.246,6.348,-9.277,0
1542732136.590,12.695,31.738,49.316,6.836,27.344,0
1542732136.594,19.043,35.156,49.316,14.160,-4.395,0
1542732136.598,16.113,37.109,45.410,17.578,25.391,0
1542732136.602,13.184,37.598,43.945,16.602,-6.836,0
1542732136.606,12.695,38.574,44.434,15.625,-22.949,0
1542732136.610,8.789,34.668,42.480,11.230,43.457,0
1542732136.614,6.348,32.227,44.434,10.254,44.922,0
1542732136.617,8.789,31.250,42.969,9.277,39.062,0
1542732136.621,9.277,26.367,46.875,4.395,77.148,0
1542732136.625,11.230,27.344,50.781,8.789,95.703,0
1542732136.629,13.184,34.668,48.340,13.184,18.555,0
1542732136.633,14.160,35.645,50.293,12.695,-9.277,0
1542732136.637,16.113,37.109,49.316,9.766,43.457,0
1542732136.641,17.090,40.527,41.992,11.230,41.992,0
1542732136.645,15.137,41.016,38.574,13.184,11.719,0
1542732136.649,13.184,39.062,37.109,14.160,34.668,0
1542732136.653,14.160,41.992,41.992,16.113,-6.836,0
1542732136.657,16.113,44.434,46.875,16.602,8.301,0
1542732136.660,19.531,43.457,49.805,16.602,88.379,0
1542732136.664,22.461,41.992,53.711,14.160,64.941,0
1542732136.668,20.996,40.039,49.316,10.254,40.527,0
1542732136.672,14.648,38.574,48.340,2.930,39.551,0
1542732136.676,13.184,37.598,54.199,1.465,56.641,0
1542732136.680,6.836,39.551,52.734,-0.488,63.965,0
1542732136.684,4.883,47.363,52.734,1.953,28.809,0
1542732136.688,9.277,55.664,53.711,5.859,55.176,0
1542732136.692,13.184,55.176,55.664,9.277,38.086,0
1542732136.696,5.371,50.781,62.500,6.836,-16.113,0
1542732136.699,-26.855,31.250,57.129,-22.949,23.926,0
1542732136.703,-44.922,24.414,50.781,-45.898,-13.184,0
1542732136.707,-50.781,27.832,75.684,-49.316,16.602,0
1542732136.711,-42.480,29.297,88.867,-37.598,109.375,0
1542732136.715,-52.734,48.340,86.426,-51.758,89.844,0
1542732136.719,-110.352,63.477,89.355,-109.375,53.223,0
1542732136.723,-140.625,61.523,97.168,-137.695,63.965,0
1542732136.727,-154.297,63.477,112.793,-148.926,66.895,0
1542732136.731,-185.059,74.707,121.094,-183.594,51.270,0
1542732136.735,-217.773,83.008,125.977,-222.168,4.883,0
1542732136.739,-241.699,81.543,122.559,-251.953,23.926,0
1542732136.742,-251.465,83.984,125.488,-263.184,22.949,0
1542732136.746,-252.930,89.355,135.742,-266.113,-76.172,0
1542732136.750,-261.719,96.680,132.324,-280.273,19.531,0
1542732136.754,-273.438,103.027,114.258,-304.688,57.129,0
1542732136.758,-263.184,104.492,104.004,-291.992,-18.555,0
1542732136.762,-245.117,116.211,100.586,-266.113,2.441,0
1542732136.766,-231.934,122.070,93.262,-260.742,51.270,0
1542732136.770,-227.539,121.582,81.055,-272.949,88.379,0
1542732136.774,-217.773,125.488,67.871,-269.531,113.281,0
1542732136.778,-202.148,133.301,55.664,-242.188,95.703,0
1542732136.782,-191.406,145.508,44.434,-231.445,8.789,0
1542732136.785,-166.016,154.297,33.691,-208.984,-20.996,0
1542732136.789,-157.715,158.691,18.555,-204.590,6.836,0
1542732136.793,-144.531,146.973,6.836,-192.383,33.203,0
1542732136.797,-117.188,145.996,-5.371,-165.039,61.523,0
1542732136.801,-99.121,157.715,-9.766,-147.461,49.805,0
1542732136.805,-77.637,155.762,-2.930,-126.465,-0.488,0
1542732136.809,-75.195,133.789,-17.090,-125.000,54.688,0
1542732136.813,-67.871,120.117,-33.691,-115.234,45.898,0
1542732136.817,-45.410,117.676,-28.809,-92.773,8.789,0
1542732136.821,-33.691,114.258,-16.113,-72.266,46.387,0
1542732136.824,-18.555,104.980,-9.277,-53.223,62.500,0
1542732136.828,4.395,89.844,-13.672,-34.180,71.289,0
1542732136.832,16.602,82.520,-16.113,-20.996,50.293,0
1542732136.836,30.273,77.637,-14.648,-7.324,41.016,0
1542732136.840,41.992,75.195,-20.996,15.137,48.340,0
1542732136.844,56.152,69.824,-26.855,27.344,24.414,0
1542732136.848,66.406,60.547,-20.996,29.297,28.809,0
1542732136.852,72.754,61.035,-15.625,39.551,27.344,0
1542732136.856,85.938,62.012,-12.695,55.176,47.852,0
1542732136.860,91.309,55.176,-13.672,63.965,14.648,0
1542732136.864,97.168,44.922,-17.578,69.336,36.133,0
1542732136.867,106.445,41.504,-19.531,81.055,76.172,0
1542732136.871,107.910,41.016,-11.719,88.379,27.832,0
1542732136.875,106.445,37.598,-5.371,87.402,36.133,0
1542732136.879,116.699,40.527,-2.930,97.168,29.785,0
1542732136.883,127.441,40.039,3.418,105.957,43.457,0
1542732136.887,132.324,31.250,-6.836,102.051,63.477,0
1542732136.891,137.695,28.809,-6.836,108.887,47.852,0
1542732136.895,139.160,31.738,-0.488,116.699,16.602,0
1542732136.899,141.602,31.250,-0.488,119.629,33.203,0
1542732136.903,130.859,20.996,5.371,119.141,51.758,0
1542732136.907,112.793,21.484,6.836,116.211,41.016,0
1542732136.910,110.352,25.879,6.348,123.047,-3.418,0
1542732136.914,111.328,26.367,4.395,120.605,-22.949,0
1542732136.918,109.863,27.832,5.371,108.398,29.297,0
1542732136.922,112.793,23.926,4.883,103.516,28.320,0
1542732136.926,112.305,28.809,6.836,106.445,-34.668,0
1542732136.930,109.863,31.250,15.137,108.887,-50.293,0
1542732136.934,109.863,24.902,19.043,107.910,-17.578,0
1542732136.938,100.098,22.949,15.625,100.098,22.461,0
1542732136.942,96.191,24.902,15.625,97.656,20.508,0
1542732136.946,98.633,23.926,16.602,100.098,57.617,0
1542732136.949,94.727,21.484,13.184,96.680,104.492,0
1542732136.953,94.238,21.973,15.137,99.121,60.059,0
1542732136.957,97.656,25.391,24.414,100.098,43.457,0
1542732136.961,100.586,26.855,24.902,94.727,32.715,0
1542732136.965,100.098,26.855,20.020,96.680,-5.859,0
1542732136.969,102.051,30.762,24.414,98.145,-5.859,0
1542732136.973,105.469,28.809,24.902,92.285,38.086,0
1542732136.977,103.516,23.926,13.184,87.891,27.344,0
1542732136.981,104.492,29.785,14.160,88.867,2.441,0
1542732136.985,104.004,38.574,30.273,91.309,-16.113,0
1542732136.989,91.309,30.762,30.762,85.938,-8.789,0
1542732136.992,86.914,29.297,27.344,73.242,45.898,0
1542732136.996,84.473,33.691,30.273,67.871,61.523,0
1542732137.000,79.590,30.762,24.902,73.242,36.133,0
1542732137.004,73.242,25.879,23.438,72.266,-1.465,0
1542732137.008,77.148,21.484,25.879,74.219,47.852,0
1542732137.012,97.168,25.391,26.855,91.309,41.504,0
1542732137.016,74.707,25.879,33.691,74.707,21.973,0
1542732137.020,41.016,26.855,37.598,44.434,28.809,0
1542732137.024,48.828,23.438,40.527,52.246,42.480,0
1542732137.028,54.688,12.695,44.434,58.594,63.477,0
1542732137.032,49.805,8.301,46.387,55.176,37.598,0
1542732137.035,51.758,8.789,45.898,59.570,20.996,0
1542732137.039,54.199,12.207,43.945,60.059,-1.465,0
1542732137.043,52.246,14.160,41.016,57.129,-8.789,0
1542732137.047,52.246,9.277,45.898,62.012,-26.367,0
1542732137.051,51.270,8.301,44.922,64.941,25.391,0
1542732137.055,52.734,12.695,41.504,67.871,94.238,0
1542732137.059,45.410,11.719,43.945,64.941,76.660,0
1542732137.063,38.574,9.766,47.852,59.082,60.059,0
1542732137.067,41.992,11.230,45.410,57.617,36.133,0
1542732137.071,44.922,13.672,39.062,58.594,-22.949,0
1542732137.074,48.340,16.113,38.574,64.453,-20.508,0
1542732137.078,52.246,16.602,41.992,65.430,6.348,0
1542732137.082,53.223,22.949,45.410,60.059,16.602,0
1542732137.086,53.223,22.461,43.945,58.594,51.758,0
1542732137.090,59.570,17.578,36.621,62.012,96.191,0
1542732137.094,56.641,19.531,39.062,60.059,53.711,0
1542732137.098,47.852,18.066,45.898,49.316,41.992,0
1542732137.102,48.340,18.066,47.852,46.875,28.809,0
1542732137.106,49.316,16.602,44.434,49.316,1.953,0
1542732137.110,43.945,20.508,43.457,47.363,0.488,0
1542732137.114,38.086,32.227,44.434,44.922,31.738,0
1542732137.117,41.992,31.250,41.992,42.969,77.637,0
1542732137.121,38.086,26.855,43.457,40.527,62.500,0
1542732137.125,41.504,39.062,47.363,42.969,34.668,0
1542732137.129,44.922,40.039,45.410,43.945,81.543,0
1542732137.133,35.645,28.320,40.527,40.527,41.992,0
1542732137.137,36.621,29.297,43.945,40.527,-4.883,0
1542732137.141,30.273,30.762,46.875,37.598,23.438,0
1542732137.145,25.391,28.320,41.992,36.133,11.719,0
1542732137.149,27.344,24.902,40.527,37.109,13.672,0
1542732137.153,26.855,25.391,45.898,35.156,-41.504,0
1542732137.157,33.203,28.809,45.410,33.203,-74.707,0
1542732137.160,33.203,31.738,47.363,39.551,-3.418,0
1542732137.164,22.461,35.156,52.734,39.062,16.602,0
1542732137.168,27.832,37.598,55.176,34.668,5.859,0
1542732137.172,22.949,36.133,49.805,32.715,38.086,0
1542732137.176,23.926,27.344,45.898,36.133,32.227,0
1542732137.180,43.457,19.531,47.363,59.570,47.363,0
1542732137.184,33.203,34.180,43.945,42.480,88.867,0
1542732137.188,9.277,53.711,40.527,-1.465,41.016,0
1542732137.192,15.625,52.246,36.621,-0.488,62.988,0
1542732137.196,29.297,44.434,35.645,14.160,87.891,0
1542732137.199,36.133,47.852,33.691,16.602,38.086,0
1542732137.203,30.762,59.570,26.855,11.719,4.395,0
1542732137.207,28.809,54.688,19.531,9.277,-7.324,0
1542732137.211,36.133,48.340,16.113,16.602,20.508,0
1542732137.215,33.691,56.152,24.414,19.531,33.691,0
1542732137.219,29.297,55.664,34.668,20.996,0.977,0
1542732137.223,24.414,50.293,33.691,20.508,-33.691,0
1542732137.227,19.043,54.199,32.715,14.160,-37.598,0
1542732137.231,25.391,59.570,33.691,15.137,65.918,0
1542732137.235,33.691,55.176,27.344,21.484,79.102,0
1542732137.239,32.715,51.270,29.785,24.902,6.348,0
1542732137.242,31.250,51.270,35.156,19.043,16.113,0
1542732137.246,34.668,49.805,33.691,16.113,22.949,0
1542732137.250,28.809,43.945,38.574,18.066,42.480,0
1542732137.254,24.902,42.969,41.016,18.066,42.480,0
1542732137.258,27.832,45.898,39.551,22.949,-15.137,0
1542732137.262,31.250,42.969,44.922,25.391,-42.969,0
1542732137.266,37.598,45.898,47.363,24.902,21.484,0
1542732137.270,25.391,46.387,40.527,22.949,68.359,0
1542732137.274,15.137,42.969,37.598,28.320,45.410,0
1542732137.278,10.742,43.945,41.992,19.531,10.254,0
1542732137.282,8.301,42.969,46.875,9.766,41.992,0
1542732137.285,21.973,45.410,43.945,25.879,10.742,0
1542732137.289,24.414,42.480,41.016,30.762,-38.086,0
1542732137.293,18.555,31.738,41.504,22.949,12.695,0
1542732137.297,25.879,36.621,42.480,20.020,30.273,0
1542732137.301,24.414,36.133,43.945,18.555,-1.465,0
1542732137.305,23.438,31.250,43.945,16.602,16.113,0
1542732137.309,20.996,35.156,43.945,15.137,68.848,0
1542732137.313,15.625,35.156,40.527,8.301,26.855,0
1542732137.317,21.484,33.691,40.039,9.277,-33.691,0
1542732137.321,22.949,29.297,41.016,10.254,-25.879,0
1542732137.324,19.531,32.227,42.480,8.789,5.371,0
1542732137.328,10.254,35.156,45.410,12.207,27.344,0
1542732137.332,3.906,30.762,42.969,17.578,46.875,0
1542732137.336,12.695,25.391,46.387,22.949,92.285,0
1542732137.340,23.926,28.809,48.828,18.066,55.664,0
1542732137.344,27.344,31.738,43.945,16.113,28.320,0
1542732137.348,28.320,29.297,46.387,22.949,19.043,0
1542732137.352,27.832,34.180,46.875,25.391,-6.836,0
1542732137.356,29.297,36.133,42.480,25.879,-3.906,0
1542732137.360,39.062,34.180,43.945,30.762,13.672,0
1542732137.364,41.504,39.062,41.504,30.273,91.309,0
1542732137.367,30.273,41.016,41.016,20.508,86.914,0
1542732137.371,31.738,26.367,47.363,11.230,61.035,0
1542732137.375,41.504,14.648,48.828,17.578,27.344,0
1542732137.379,34.668,31.738,49.805,22.949,3.906,0
1542732137.383,27.344,41.992,50.293,17.090,62.988,0
1542732137.387,22.949,36.133,47.852,16.602,82.520,0
1542732137.391,24.414,35.645,48.340,22.949,35.156,0
1542732137.395,35.156,33.691,45.898,24.414,52.734,0
1542732137.399,40.527,36.133,43.457,33.203,41.992,0
1542732137.403,26.855,32.715,43.945,35.645,24.902,0
1542732137.407,21.973,27.832,46.387,31.738,72.266,0
1542732137.410,26.855,30.762,45.410,35.645,34.180,0
1542732137.414,20.508,29.785,44.434,29.297,10.254,0
1542732137.418,16.113,29.785,48.828,23.926,-6.836,0
1542732137.422,18.066,31.250,49.316,23.926,50.781,0
1542732137.426,23.926,25.879,48.828,23.438,95.215,0
1542732137.430,24.414,28.809,45.898,20.508,26.855,0
1542732137.434,22.461,36.621,43.945,23.438,7.812,0
1542732137.438,21.973,33.203,47.852,23.438,8.301,0
1542732137.442,19.531,28.809,45.898,20.996,9.277,0
1542732137.446,26.367,29.785,40.527,22.949,27.832,0
1542732137.449,29.785,35.156,44.434,24.414,52.246,0
1542732137.453,26.855,40.527,53.711,29.297,44.922,0
1542732137.457,29.785,42.480,55.664,34.180,36.133,0
1542732137.461,33.203,37.109,55.664,31.250,58.594,0
1542732137.465,41.016,22.461,52.734,36.621,80.078,0
1542732137.469,60.547,20.508,46.875,65.918,57.129,0
1542732137.473,35.156,30.762,50.293,45.410,38.086,0
1542732137.477,-1.953,30.273,48.828,-2.441,46.875,0
1542732137.481,3.906,27.832,56.152,0.488,10.254,0
1542732137.485,7.324,27.344,61.035,5.371,19.531,0
1542732137.489,10.254,21.484,55.664,0.977,43.945,0
1542732137.492,17.578,19.043,58.105,0.488,-21.484,0
1542732137.496,22.949,16.113,67.871,17.090,20.508,0
1542732137.500,17.578,13.672,71.777,27.344,76.660,0
1542732137.504,17.090,13.672,63.965,19.531,62.988,0
1542732137.508,17.090,17.578,62.500,20.996,31.738,0
1542732137.512,12.207,16.113,60.059,28.320,4.395,0
1542732137.516,7.324,15.137,55.176,26.367,-7.812,0
1542732137.520,13.672,22.461,53.711,27.832,-34.180,0
1542732137.524,19.043,26.367,52.246,34.668,17.090,0
1542732137.528,17.578,22.461,55.176,33.691,50.293,0
1542732137.532,18.066,22.461,53.711,26.855,-15.625,0
1542732137.535,4.883,20.508,52.734,25.391,-19.531,0
1542732137.539,0.977,13.672,57.617,23.438,22.461,0
1542732137.543,-0.488,16.113,56.641,17.090,11.719,0
1542732137.547,0.977,23.926,49.805,19.043,29.297,0
1542732137.551,6.348,29.297,44.434,24.902,20.508,0
1542732137.555,18.555,28.320,44.922,20.996,30.273,0
1542732137.559,20.996,31.738,51.758,24.902,-8.789,0
1542732137.563,11.230,31.250,55.176,27.344,-52.246,0
1542732137.567,13.184,26.855,50.293,22.949,46.875,0
1542732137.571,18.555,24.414,50.293,27.344,96.680,0
1542732137.574,19.531,19.043,52.734,28.809,-3.418,0
1542732137.578,18.066,23.926,49.805,26.367,-6.348,0
1542732137.582,23.926,25.879,52.246,33.203,22.461,0
1542732137.586,26.855,21.484,52.734,37.598,-16.602,0
1542732137.590,27.344,21.973,53.711,31.738,44.922,0
1542732137.594,34.180,28.809,54.688,32.715,37.109,0
1542732137.598,23.438,36.621,51.758,34.180,-11.230,0
1542732137.602,22.949,44.434,48.828,29.297,40.527,0
1542732137.606,35.645,35.156,48.340,38.574,71.289,0
1542732137.610,35.156,15.137,45.410,46.387,31.738,0
1542732137.614,36.621,17.090,43.457,36.133,20.020,0
1542732137.617,33.691,37.598,47.363,36.621,31.250,0
1542732137.621,20.996,43.457,53.223,38.574,29.785,0
1542732137.625,19.043,38.086,54.688,38.086,7.324,0
1542732137.629,15.625,36.133,51.270,41.016,10.254,0
1542732137.633,10.742,31.738,51.758,42.480,61.035,0
1542732137.637,16.113,28.320,46.387,45.410,78.125,0
1542732137.641,20.020,30.273,38.574,41.016,41.504,0
1542732137.645,18.066,36.621,41.504,35.645,21.484,0
1542732137.649,27.832,33.691,45.410,44.434,6.836,0
1542732137.653,37.598,29.297,46.387,39.551,52.734,0
1542732137.657,43.945,33.691,46.387,30.273,-0.977,0
1542732137.660,49.805,43.457,46.875,35.645,-36.621,0
1542732137.664,45.898,46.875,40.039,36.621,4.883,0
1542732137.668,39.551,44.434,36.133,40.039,17.578,0
1542732137.672,32.715,37.598,40.039,37.598,87.402,0
1542732137.676,33.203,31.738,36.621,24.902,47.852,0
1542732137.680,27.344,32.715,35.156,25.879,53.223,0
1542732137.684,26.367,35.645,40.527,28.809,129.395,0
1542732137.688,18.066,35.156,41.016,23.438,103.027,0
1542732137.692,23.438,31.738,42.480,24.902,10.254,0
1542732137.696,31.250,35.156,44.922,25.391,-48.340,0
1542732137.699,32.715,43.945,41.504,20.020,-27.344,0
1542732137.703,48.340,45.410,39.062,21.973,60.059,0
1542732137.707,48.828,36.133,42.969,25.879,25.879,0
1542732137.711,37.598,29.297,34.668,24.414,-25.879,0
1542732137.715,38.086,35.645,31.738,26.855,37.109,0
1542732137.719,30.273,41.016,43.945,33.203,43.945,0
1542732137.723,24.414,39.551,44.922,25.391,63.965,0
1542732137.727,22.949,40.039,41.992,16.113,52.734,0
1542732137.731,23.438,38.086,41.504,16.113,5.371,0
1542732137.735,34.180,40.039,35.645,14.160,50.781,0
1542732137.739,30.762,39.062,34.668,15.625,15.137,0
1542732137.742,27.344,30.762,40.527,16.602,-0.488,0
1542732137.746,25.391,29.297,38.086,11.719,33.691,0
1542732137.750,25.391,30.273,39.062,21.484,16.602,0
1542732137.754,27.344,33.203,48.828,24.902,8.301,0
1542732137.758,19.043,33.691,46.387,15.625,43.457,0
1542732137.762,15.625,37.598,41.504,12.695,6.348,0
1542732137.766,21.484,44.434,41.016,15.137,-32.715,0
1542732137.770,23.926,34.180,41.992,15.625,15.137,0
1542732137.774,24.902,31.738,42.480,14.160,39.062,0
1542732137.778,25.391,39.062,40.527,11.230,58.594,0
1542732137.782,23.438,36.621,35.645,13.672,38.086,0
1542732137.785,21.484,34.668,40.527,14.648,35.156,0
1542732137.789,21.484,35.156,44.922,4.395,39.062,0
1542732137.793,13.184,36.621,37.598,2.930,19.043,0
1542732137.797,15.137,40.039,38.574,11.230,40.039,0
1542732137.801,22.949,44.922,41.016,15.625,24.902,0
1542732137.805,20.508,44.434,38.086,19.043,-3.418,0
1542732137.809,20.508,42.480,40.527,24.902,0.977,0
1542732137.813,13.672,42.480,41.992,25.879,1.953,0
1542732137.817,13.672,40.527,36.133,25.879,18.066,0
1542732137.821,19.531,37.598,32.227,30.273,47.363,0
1542732137.824,22.949,32.715,36.621,24.414,41.504,0
1542732137.828,16.602,38.086,38.086,13.672,-20.020,0
1542732137.832,8.301,44.922,34.180,15.625,-49.805,0
1542732137.836,17.090,43.457,32.715,14.160,32.227,0
1542732137.840,27.832,42.480,37.109,11.719,30.273,0
1542732137.844,30.762,41.016,40.039,15.625,-11.719,0
