timestamps,TP9,AF7,AF8,TP10,Right AUX,Marker0
30719.467,21.973,31.738,20.508,40.527,94.727,0
30719.471,23.438,30.273,20.996,26.367,-21.973,0
30719.475,22.461,34.668,21.484,7.324,-70.801,0
30719.479,26.367,33.203,21.484,17.578,29.297,0
30719.483,35.156,32.227,21.484,48.340,87.402,0
30719.487,31.738,36.133,19.043,41.992,-12.695,0
30719.491,26.367,36.133,21.484,9.766,-94.238,0
30719.495,30.762,33.691,27.344,15.625,-1.953,0
30719.498,35.645,33.691,27.832,47.363,99.121,0
30719.502,37.109,34.180,29.297,60.059,36.133,0
30719.506,34.180,30.762,29.785,43.457,-68.359,0
30719.510,26.367,31.250,26.855,24.902,-22.461,0
30719.514,31.250,35.156,27.344,36.133,95.703,0
30719.518,33.203,35.156,26.367,42.969,71.289,0
30719.522,35.156,38.086,21.973,36.133,-38.086,0
30719.526,40.527,41.016,19.043,27.344,-31.250,0
30719.530,43.457,38.574,18.555,40.527,68.848,0
30719.534,45.898,38.574,22.949,59.570,88.867,0
30719.537,38.574,40.527,23.438,36.621,-17.090,0
30719.541,38.086,45.410,23.438,17.578,-66.406,0
30719.545,42.969,46.875,22.949,34.180,35.156,0
30719.549,39.062,40.527,20.996,52.734,103.516,0
30719.553,39.062,37.598,22.461,42.480,15.625,0
30719.557,40.039,38.574,26.367,22.461,-71.289,0
30719.561,41.504,41.504,25.879,31.738,-0.488,0
30719.565,43.945,39.551,24.414,41.504,101.074,0
30719.569,37.109,37.109,28.320,39.062,43.457,0
30719.573,36.133,43.457,25.879,29.297,-72.266,0
30719.577,40.527,48.828,28.320,22.461,-19.043,0
30719.580,41.016,45.410,31.738,44.434,115.234,0
30719.584,45.410,38.086,25.879,64.941,78.125,0
30719.588,48.828,36.621,25.879,44.434,-63.477,0
30719.592,45.410,38.086,28.809,22.949,-82.031,0
30719.596,37.598,34.180,26.855,40.039,47.852,0
30719.600,44.434,33.203,26.855,54.199,109.863,0
30719.604,49.805,35.156,26.855,37.109,-0.977,0
30719.608,40.527,33.203,29.297,26.367,-79.102,0
30719.612,38.574,32.715,29.785,36.621,23.926,0
30719.616,40.527,34.668,28.809,49.316,119.629,0
30719.620,43.457,38.574,29.785,60.547,30.762,0
30719.623,44.922,37.598,30.762,45.410,-75.195,0
30719.627,46.387,38.086,31.738,35.645,-16.113,0
30719.631,41.016,37.109,28.320,52.734,88.379,0
30719.635,37.598,32.715,25.879,62.012,45.898,0
30719.639,43.457,36.133,25.879,45.410,-65.430,0
30719.643,45.898,41.016,26.367,17.090,-39.551,0
30719.647,47.852,39.551,27.344,27.832,81.055,0
30719.651,46.875,40.039,26.367,51.270,73.730,0
30719.655,41.992,39.062,22.949,37.109,-61.035,0
30719.659,37.598,40.527,22.949,20.020,-91.309,0
30719.662,33.691,43.945,26.855,38.086,31.250,0
30719.666,35.156,42.969,29.297,58.594,87.891,0
30719.670,34.668,39.551,29.297,52.246,-26.367,0
30719.674,38.086,38.086,31.250,34.180,-97.168,0
30719.678,46.387,41.992,28.809,31.738,12.695,0
30719.682,44.922,39.551,24.414,52.246,105.957,0
30719.686,39.062,29.297,25.879,52.246,22.949,0
30719.690,40.527,28.809,27.344,34.668,-80.078,0
30719.694,39.062,36.621,25.879,26.855,-28.320,0
30719.698,33.691,30.273,23.926,42.969,80.078,0
30719.702,38.086,28.320,25.391,58.105,56.152,0
30719.705,40.039,33.203,30.762,35.645,-57.617,0
30719.709,44.922,33.691,34.180,29.297,-56.641,0
30719.713,52.734,31.738,32.715,48.828,57.617,0
30719.717,49.805,30.273,27.832,61.035,75.195,0
30719.721,44.434,33.203,29.785,53.223,-36.621,0
30719.725,39.551,35.156,27.344,34.180,-74.219,0
30719.729,37.109,36.621,23.438,40.039,30.273,1
30719.733,40.527,35.156,26.367,55.176,88.867,0
30719.737,39.551,32.715,24.414,45.410,-15.137,0
30719.741,34.180,32.715,23.926,32.227,-102.051,0
30719.745,36.621,34.180,25.879,33.203,-18.555,0
30719.748,34.668,27.832,21.973,47.852,83.496,0
30719.752,35.645,20.508,21.484,54.199,22.461,0
30719.756,32.227,23.926,24.902,31.738,-91.309,0
30719.760,26.855,27.832,24.414,21.973,-45.410,0
30719.764,33.691,30.273,21.484,43.457,76.172,0
30719.768,40.527,33.203,23.438,45.410,65.430,0
30719.772,38.086,36.133,25.391,23.926,-48.340,0
30719.776,32.227,33.203,27.832,12.695,-53.711,0
30719.780,21.973,28.809,29.785,26.855,53.711,0
30719.784,19.531,25.391,28.320,41.016,71.777,0
30719.787,24.902,24.414,26.367,28.320,-38.574,0
30719.791,26.367,26.367,26.855,11.719,-94.238,0
30719.795,34.668,23.926,26.367,20.020,15.625,0
30719.799,38.574,25.391,26.855,44.922,106.445,0
30719.803,31.250,29.785,26.855,34.180,0.000,0
30719.807,33.691,29.297,26.367,3.418,-109.375,0
30719.811,37.598,31.250,27.344,17.090,-24.902,0
30719.815,36.133,31.250,23.438,39.551,86.914,0
30719.819,37.109,27.344,23.438,40.039,22.949,0
30719.823,36.621,30.762,27.344,30.762,-86.426,0
30719.827,40.527,35.645,28.320,26.855,-33.691,0
30719.830,47.852,33.203,21.484,38.574,96.680,0
30719.834,52.246,31.738,19.531,49.805,88.379,0
30719.838,53.223,34.180,27.832,38.574,-31.250,0
30719.842,41.992,36.133,28.320,20.020,-50.293,0
30719.846,36.133,37.109,27.344,37.598,66.406,0
30719.850,43.457,31.250,28.809,60.547,110.352,0
30719.854,42.969,24.902,27.344,42.480,-11.230,0
30719.858,33.691,27.344,27.344,20.020,-83.008,0
30719.862,33.691,33.203,28.809,24.902,21.973,0
30719.866,29.297,29.785,25.391,45.898,111.328,0
30719.870,25.391,23.926,24.414,51.270,22.461,0
30719.873,35.645,24.902,27.832,34.668,-75.684,0
30719.877,40.039,23.438,29.785,40.039,0.977,0
30719.881,34.668,22.949,26.367,62.012,104.492,0
30719.885,29.297,22.461,25.391,47.363,44.922,0
30719.889,33.203,23.926,27.832,23.926,-75.195,0
30719.893,33.203,26.855,27.344,22.949,-52.246,0
30719.897,31.738,23.438,24.902,33.203,73.730,0
30719.901,41.992,20.996,23.926,43.457,84.961,0
30719.905,43.457,25.391,23.926,29.297,-38.574,0
30719.909,40.039,30.762,25.391,26.855,-59.570,0
30719.912,41.992,30.273,26.367,41.992,67.871,0
30719.916,48.828,22.949,25.879,56.152,112.793,0
30719.920,53.711,25.879,26.855,49.316,-2.930,0
30719.924,46.875,34.668,25.391,23.438,-90.332,0
30719.928,41.504,35.156,24.902,27.832,-5.859,0
30719.932,36.133,31.738,26.855,54.688,97.168,0
30719.936,30.273,30.762,23.926,42.480,29.785,0
30719.940,31.250,35.645,18.555,17.578,-81.055,0
30719.944,34.180,39.551,18.066,27.344,-22.461,0
30719.948,34.668,38.086,24.902,45.898,102.539,0
30719.952,33.691,35.156,28.320,51.270,64.941,0
30719.955,37.598,40.039,31.738,29.785,-58.594,0
30719.959,34.668,40.527,31.738,18.066,-46.875,0
30719.963,34.180,36.133,31.738,41.504,83.008,0
30719.967,45.410,37.598,32.715,62.012,116.211,0
30719.971,45.410,37.109,33.691,48.340,-11.719,0
30719.975,41.504,37.109,32.715,30.762,-73.730,0
30719.979,44.434,36.133,32.715,51.270,40.039,0
30719.983,50.293,35.645,33.203,62.988,110.840,0
30719.987,48.340,33.691,29.297,41.992,15.625,0
30719.991,41.992,34.668,26.855,25.391,-59.082,0
30719.995,39.062,36.621,26.855,39.062,30.273,0
30719.998,51.270,34.668,29.785,53.223,129.395,0
30720.002,50.781,33.691,30.762,36.133,48.828,0
30720.006,26.855,34.180,28.809,17.090,-76.172,0
30720.010,31.250,33.691,30.273,17.578,-30.273,0
30720.014,40.039,31.738,28.320,41.016,81.055,0
30720.018,36.621,29.785,26.367,53.223,59.570,0
30720.022,31.250,30.273,25.391,38.086,-60.547,0
30720.026,33.691,33.203,25.391,20.508,-76.172,0
30720.030,39.551,31.738,26.367,32.715,45.410,0
30720.034,37.109,30.762,26.855,55.664,84.473,0
30720.037,40.039,33.691,25.879,62.012,-28.809,0
30720.041,43.945,34.180,23.438,37.598,-76.660,0
30720.045,32.227,30.273,23.438,21.484,32.227,0
30720.049,29.785,28.320,26.367,43.457,99.121,0
30720.053,29.785,31.738,28.809,54.199,5.371,0
30720.057,29.785,34.668,31.738,26.367,-86.914,0
30720.061,31.738,34.668,32.227,19.043,-6.348,0
30720.065,28.320,29.785,30.273,50.781,112.793,0
30720.069,28.320,25.391,29.297,53.711,59.570,0
30720.073,29.297,26.367,31.250,29.297,-59.570,0
30720.077,34.668,26.367,31.250,26.855,-37.109,0
30720.080,38.086,25.879,33.203,54.199,84.961,0
30720.084,30.273,20.508,31.738,53.223,80.078,0
30720.088,23.926,20.996,26.855,20.996,-48.828,0
30720.092,29.785,30.762,27.344,4.395,-68.359,0
30720.096,34.668,35.156,28.809,21.484,57.129,0
30720.100,33.691,33.203,29.297,46.387,112.793,0
30720.104,25.879,27.832,28.320,35.156,-1.953,0
30720.108,29.297,29.297,28.809,17.090,-66.895,0
30720.112,39.551,29.297,29.297,18.066,24.902,0
30720.116,34.180,25.391,25.879,40.527,89.355,0
30720.120,31.250,25.879,25.879,41.504,6.836,0
30720.123,35.156,26.367,28.320,20.020,-89.844,0
30720.127,35.156,27.344,28.809,20.508,-25.879,0
30720.131,31.738,28.320,28.320,45.410,94.238,0
30720.135,32.715,27.344,28.809,54.199,56.152,0
30720.139,30.273,30.762,28.809,32.715,-63.477,0
30720.143,26.367,35.645,24.902,22.949,-41.992,0
30720.147,32.227,33.203,26.367,33.691,89.355,0
30720.151,34.180,31.738,23.438,38.086,102.539,0
30720.155,32.715,36.133,22.949,29.785,-26.367,0
30720.159,37.598,39.062,32.227,24.902,-63.477,0
30720.162,33.691,36.621,33.203,24.414,57.617,0
30720.166,20.020,31.250,29.785,42.969,116.211,0
30720.170,24.902,27.832,27.344,45.898,3.418,0
30720.174,31.250,34.668,23.438,18.555,-76.172,0
30720.178,31.738,35.645,22.949,25.879,16.113,0
30720.182,32.227,24.902,21.484,41.016,101.562,0
30720.186,31.250,24.414,20.508,34.180,26.855,0
30720.190,37.598,31.250,23.926,26.855,-71.777,0
30720.194,35.645,33.203,22.949,19.043,-14.160,0
30720.198,29.785,33.203,21.973,23.926,100.586,0
30720.202,28.809,29.785,21.973,34.668,67.383,0
30720.205,23.926,24.414,23.926,17.090,-54.199,0
30720.209,27.344,28.809,24.414,4.395,-47.363,0
30720.213,34.668,33.691,23.438,31.738,79.102,0
30720.217,42.480,33.691,25.391,52.246,102.051,0
30720.221,36.621,33.691,23.926,40.039,-29.785,0
30720.225,44.434,30.762,25.879,22.949,-84.473,0
30720.229,45.898,31.738,28.320,33.203,33.691,0
30720.233,31.738,28.809,26.367,50.781,114.746,0
30720.237,32.227,23.438,27.832,37.598,17.090,0
30720.241,32.715,30.762,28.809,19.043,-76.660,0
30720.245,31.738,37.598,27.344,28.809,5.371,0
30720.248,33.691,36.133,27.832,47.363,112.793,0
30720.252,34.180,31.250,24.902,42.969,58.105,0
30720.256,30.273,30.762,25.391,24.414,-61.523,0
30720.260,38.086,32.715,29.297,15.137,-36.133,0
30720.264,42.480,16.113,29.785,35.645,87.402,0
30720.268,28.320,8.789,30.273,47.363,78.613,0
30720.272,17.578,24.414,28.320,26.367,-46.387,0
30720.276,19.531,34.180,28.809,15.137,-60.547,0
30720.280,19.043,31.738,27.832,29.785,64.453,0
30720.284,25.879,4.883,28.809,53.223,112.305,0
30720.287,34.668,-3.418,34.180,41.992,-1.953,0
30720.291,29.297,25.879,34.180,9.277,-69.336,0
30720.295,19.531,41.992,34.180,15.137,34.180,0
30720.299,15.137,50.781,31.250,38.574,111.816,0
30720.303,18.555,58.105,26.855,33.691,25.391,0
30720.307,22.461,58.105,25.391,15.625,-59.082,0
30720.311,22.949,52.734,27.344,10.254,11.719,0
30720.315,32.227,42.480,27.344,28.809,115.234,0
30720.319,36.133,35.645,26.855,44.922,69.336,0
30720.323,26.367,34.180,24.414,30.273,-52.734,0
30720.327,27.344,34.668,19.531,14.648,-43.457,0
30720.330,36.621,28.320,20.020,26.855,66.895,0
30720.334,40.527,27.344,23.438,36.621,69.824,0
30720.338,35.645,37.109,24.902,17.090,-44.434,0
30720.342,36.133,40.527,25.391,14.160,-62.500,0
30720.346,41.504,39.062,25.879,32.715,50.781,0
30720.350,50.781,34.180,25.391,41.992,96.680,0
30720.354,44.434,31.738,25.391,31.738,-11.230,0
30720.358,27.832,31.250,26.367,16.113,-82.031,0
30720.362,23.438,31.250,24.414,26.855,10.254,1
30720.366,23.438,29.785,21.973,40.039,89.355,0
30720.370,30.762,29.785,23.438,27.344,13.672,0
30720.373,35.156,32.227,27.832,10.254,-86.426,0
30720.377,34.668,32.715,27.344,14.160,-26.855,0
30720.381,33.203,32.715,24.414,42.480,96.680,0
30720.385,27.344,30.273,24.902,45.410,61.035,0
30720.389,23.926,29.785,27.344,25.391,-70.801,0
30720.393,25.391,30.273,27.832,18.066,-58.594,0
30720.397,27.832,26.855,26.855,33.203,76.172,0
30720.401,31.738,26.855,24.902,47.852,86.426,0
30720.405,20.996,27.344,22.949,25.879,-41.504,0
30720.409,23.926,27.832,23.438,7.812,-68.359,0
30720.412,40.527,31.250,24.902,35.156,60.059,0
30720.416,37.598,30.762,25.879,54.199,116.211,0
30720.420,30.273,28.809,27.832,44.434,7.812,0
30720.424,33.691,29.297,27.344,28.809,-70.801,0
30720.428,37.109,28.809,25.879,20.996,19.043,0
30720.432,38.086,26.855,20.508,28.809,123.535,0
30720.436,34.180,32.227,18.066,32.227,64.453,0
30720.440,34.668,41.504,25.391,20.996,-48.828,0
30720.444,32.227,38.086,29.297,12.207,-20.996,0
30720.448,25.879,30.273,30.762,20.508,76.172,0
30720.452,32.227,30.762,30.273,27.832,55.176,0
30720.455,35.645,36.133,27.344,17.578,-47.852,0
30720.459,30.273,38.574,27.344,7.812,-32.715,0
30720.463,34.180,36.133,25.391,18.555,82.520,0
30720.467,40.527,33.203,21.973,33.203,95.215,0
30720.471,34.180,36.621,24.902,32.227,-22.949,0
30720.475,33.691,41.992,24.902,27.344,-59.570,0
30720.479,38.574,39.062,24.902,28.809,58.105,0
30720.483,35.156,34.668,26.367,55.176,117.188,0
30720.487,40.527,28.809,27.344,50.293,19.043,0
30720.491,39.062,31.738,27.832,17.090,-61.035,0
30720.495,37.598,39.062,26.367,27.832,14.160,0
30720.498,45.410,40.527,26.855,52.246,116.699,0
30720.502,48.340,36.621,27.344,50.781,57.129,0
30720.506,48.340,37.109,24.414,33.691,-63.965,0
30720.510,42.480,41.992,28.320,28.809,-29.297,0
30720.514,45.410,37.109,29.785,46.387,97.656,0
30720.518,48.828,30.762,24.902,64.941,87.891,0
30720.522,44.434,31.738,25.391,41.016,-33.691,0
30720.526,43.945,38.574,26.367,22.461,-50.293,0
30720.530,40.527,41.992,27.832,35.156,69.824,0
30720.534,35.645,37.109,28.809,43.457,112.793,0
30720.537,40.039,31.738,29.297,34.668,-2.441,0
30720.541,38.086,32.715,27.832,17.090,-74.219,0
30720.545,34.180,36.621,26.855,28.809,17.090,0
30720.549,42.480,34.668,28.320,48.340,109.863,0
30720.553,43.457,35.645,25.879,41.016,31.250,0
30720.557,34.180,40.527,22.461,20.020,-85.449,0
30720.561,33.203,39.062,24.902,28.320,-19.043,0
30720.565,36.621,38.086,25.391,51.270,106.934,0
30720.569,39.551,38.086,22.949,56.641,64.941,0
30720.573,42.480,36.133,24.414,35.645,-67.383,0
30720.577,41.992,41.504,20.508,17.090,-57.129,0
30720.580,44.922,44.434,20.020,36.133,79.590,0
30720.584,44.922,33.691,24.902,52.734,101.074,0
30720.588,39.551,31.738,26.367,44.922,-29.785,0
30720.592,39.551,35.156,29.785,23.438,-81.055,0
30720.596,42.969,35.645,26.855,31.250,33.691,0
30720.600,44.922,36.621,21.484,61.035,98.145,0
30720.604,51.758,34.668,18.555,54.688,9.277,0
30720.608,54.688,34.668,22.949,36.621,-66.406,0
30720.612,38.574,35.645,28.809,44.922,-2.441,0
30720.616,28.320,28.320,31.250,53.223,85.449,0
30720.620,34.180,26.367,29.785,51.270,22.461,0
30720.623,40.039,29.297,27.344,34.668,-76.660,0
30720.627,34.180,30.762,27.832,26.855,-17.090,0
30720.631,37.109,27.832,28.320,43.945,104.492,0
30720.635,36.621,24.414,28.320,51.758,62.988,0
30720.639,36.133,26.367,30.273,38.086,-71.289,0
30720.643,40.039,29.297,32.227,34.668,-64.453,0
30720.647,40.527,30.273,30.273,46.875,59.082,0
30720.651,44.434,28.320,27.832,57.617,77.637,0
30720.655,50.781,28.320,25.391,40.527,-38.574,0
30720.659,46.875,31.250,25.879,27.832,-78.125,0
30720.662,34.180,33.203,26.855,34.668,32.715,0
30720.666,37.109,29.297,24.902,42.480,95.215,0
30720.670,39.551,26.367,24.414,39.551,-5.371,0
30720.674,35.156,31.250,26.367,21.484,-84.473,0
30720.678,33.203,32.227,26.855,30.762,-6.348,0
30720.682,35.156,26.855,24.414,46.875,94.238,0
30720.686,33.203,26.367,23.438,42.480,31.738,0
30720.690,27.344,24.902,26.367,29.297,-91.797,0
30720.694,28.809,22.949,30.273,20.996,-53.223,0
30720.698,29.785,27.832,26.855,33.691,61.523,0
30720.702,36.621,28.320,26.367,48.340,51.270,0
30720.705,37.109,27.832,28.320,31.250,-60.059,0
30720.709,34.180,28.320,26.855,7.324,-75.195,0
30720.713,28.320,26.367,27.832,19.531,41.016,0
30720.717,29.785,25.879,28.809,46.875,85.449,0
30720.721,35.645,29.785,31.738,43.457,-30.762,0
30720.725,26.367,33.691,32.715,10.254,-98.633,0
30720.729,29.785,30.762,33.691,16.113,5.859,0
30720.733,38.574,29.785,33.691,49.805,82.520,0
30720.737,34.668,27.832,29.785,46.387,-8.789,0
30720.741,33.203,24.414,29.785,16.602,-101.074,0
30720.745,27.344,23.438,29.785,8.301,-19.531,0
30720.748,33.691,23.438,25.879,34.668,101.074,0
30720.752,35.156,26.855,25.879,35.645,39.062,0
30720.756,26.367,27.832,27.344,11.230,-92.285,0
30720.760,34.668,30.762,28.320,15.137,-52.734,0
30720.764,34.180,33.203,25.391,33.203,85.449,0
30720.768,38.086,30.273,22.949,41.504,86.914,0
30720.772,40.527,30.273,23.926,29.785,-40.527,0
30720.776,29.785,31.250,24.902,24.414,-64.453,0
30720.780,31.738,31.250,25.391,44.434,54.688,0
30720.784,34.180,29.297,24.902,44.922,94.238,0
30720.787,31.738,31.250,25.391,25.879,-14.648,0
30720.791,32.227,33.691,23.438,12.207,-70.801,0
30720.795,28.320,31.738,21.484,23.438,16.113,0
30720.799,33.691,30.762,22.461,44.434,97.168,0
30720.803,37.598,32.715,22.461,35.645,28.320,0
30720.807,38.574,32.227,21.973,15.625,-79.590,0
30720.811,34.668,29.297,22.949,15.137,-31.250,0
30720.815,28.809,30.273,25.391,40.039,78.613,0
30720.819,31.250,29.785,23.438,44.922,45.410,0
30720.823,37.109,28.320,22.949,22.949,-66.406,0
30720.827,40.039,29.785,24.902,19.043,-47.363,0
30720.830,32.227,32.715,25.879,40.039,64.941,0
30720.834,34.668,35.156,24.902,44.922,75.684,0
30720.838,36.133,36.133,21.484,24.414,-39.062,0
30720.842,34.180,35.645,22.461,10.254,-80.566,0
30720.846,40.039,39.551,22.461,23.926,30.762,0
30720.850,40.527,38.086,22.461,48.828,98.145,0
30720.854,42.480,33.203,21.973,39.551,-1.465,0
30720.858,37.598,35.645,20.996,21.484,-82.520,0
30720.862,31.738,38.086,27.832,24.902,6.348,0
30720.866,36.621,34.668,26.367,39.551,108.398,0
30720.870,39.551,33.691,19.043,35.156,44.922,0
30720.873,34.180,32.715,19.043,20.996,-80.566,0
30720.877,37.109,32.227,19.531,25.879,-43.945,0
30720.881,39.062,34.180,24.414,40.527,82.520,0
30720.885,24.902,33.691,24.414,52.246,65.918,0
30720.889,28.320,30.762,23.926,37.598,-59.082,1
30720.893,31.250,32.227,22.949,21.484,-62.012,0
30720.897,35.156,31.250,20.508,38.086,62.012,0
30720.901,42.480,27.832,21.973,49.805,81.543,0
30720.905,38.086,27.832,20.996,28.809,-30.273,0
30720.909,33.203,29.297,20.996,12.695,-63.477,0
30720.912,36.621,28.809,23.926,30.273,32.715,0
30720.916,38.086,25.391,20.996,44.922,76.172,0
30720.920,39.551,25.879,19.531,41.992,-20.508,0
30720.924,40.039,32.227,21.973,25.391,-100.098,0
30720.928,36.621,34.180,21.973,22.461,-11.230,0
30720.932,36.621,29.297,22.461,43.457,95.215,0
30720.936,39.062,25.879,22.949,40.039,33.203,0
30720.940,36.621,27.344,22.949,20.996,-77.637,0
30720.944,36.621,31.250,24.414,19.043,-34.668,0
30720.948,41.504,31.738,23.926,37.598,85.938,0
30720.952,47.852,30.762,21.484,58.105,76.172,0
30720.955,48.340,26.367,22.461,46.875,-40.527,0
30720.959,42.480,24.414,24.902,24.414,-59.082,0
30720.963,39.551,28.809,24.414,37.598,61.523,0
30720.967,40.039,31.738,21.973,48.340,107.910,0
30720.971,48.340,35.645,21.973,30.273,4.883,0
30720.975,49.316,39.551,23.926,16.602,-60.547,0
30720.979,38.574,37.109,22.949,34.180,32.715,0
30720.983,43.945,31.738,22.949,60.059,119.629,0
30720.987,43.945,35.156,25.879,50.781,32.715,0
30720.991,35.645,43.457,25.879,20.020,-70.801,0
30720.995,41.016,43.945,25.391,21.484,-13.672,0
30720.998,41.992,38.574,22.949,42.480,97.656,0
30721.002,36.621,32.715,22.949,48.828,64.453,0
30721.006,38.574,27.832,23.926,35.645,-60.547,0
30721.010,41.504,30.762,25.391,26.367,-35.645,0
30721.014,41.504,32.227,25.879,49.316,100.098,0
30721.018,48.340,28.809,25.879,53.711,97.656,0
30721.022,54.199,31.738,27.344,33.691,-29.297,0
30721.026,52.734,35.645,25.879,17.090,-49.805,0
30721.030,48.340,34.180,27.832,38.574,79.590,0
30721.034,44.434,32.715,27.832,68.359,126.953,0
30721.037,50.293,33.203,25.391,52.734,6.836,0
30721.041,51.270,35.156,26.367,22.461,-64.941,0
30721.045,43.945,31.738,25.879,25.879,32.715,0
30721.049,37.598,26.855,24.414,56.641,115.723,0
30721.053,29.297,26.855,23.438,42.969,31.250,0
30721.057,32.227,29.297,22.461,11.719,-63.965,0
30721.061,34.180,32.715,25.391,18.555,-3.906,0
30721.065,34.180,30.762,26.855,39.062,92.773,0
30721.069,30.273,26.855,23.438,36.133,47.852,0
30721.073,26.855,30.762,24.902,20.996,-67.871,0
30721.077,31.250,36.133,31.250,14.160,-60.059,0
30721.080,39.062,35.645,30.762,20.996,68.848,0
30721.084,41.504,33.203,29.297,41.016,100.586,0
30721.088,28.320,35.156,25.391,37.598,-34.180,0
30721.092,24.902,37.598,27.344,24.414,-82.031,0
30721.096,30.762,36.621,34.180,24.902,40.039,0
30721.100,28.809,33.691,32.715,43.945,108.887,0
30721.104,30.273,31.250,33.203,58.105,3.418,0
30721.108,34.180,32.715,33.203,33.691,-84.473,0
30721.112,40.527,36.133,30.273,22.949,12.207,0
30721.116,42.480,37.109,25.391,45.898,124.512,0
30721.120,41.016,35.645,24.414,46.387,47.852,0
30721.123,38.574,34.668,24.902,24.414,-69.824,0
30721.127,33.203,33.203,27.344,28.320,-15.625,0
30721.131,34.668,33.691,25.391,48.340,111.816,0
30721.135,36.133,33.691,22.461,58.594,94.727,0
30721.139,35.156,29.297,25.391,36.133,-40.039,0
30721.143,33.691,30.762,26.855,16.602,-48.828,0
30721.147,38.574,31.738,24.414,38.574,78.125,0
30721.151,41.992,28.320,20.996,51.758,111.328,0
30721.155,38.086,28.809,19.531,34.668,-2.441,0
30721.159,45.898,30.762,23.926,18.066,-49.316,0
30721.162,62.500,28.809,27.344,26.855,59.082,0
30721.166,52.246,28.320,24.902,45.898,122.070,0
30721.170,38.086,31.738,23.926,48.340,22.949,0
30721.174,40.527,33.691,26.367,25.391,-74.219,0
30721.178,39.551,32.715,30.273,25.391,6.348,0
30721.182,40.527,29.785,31.738,53.711,129.395,0
30721.186,42.480,33.203,27.832,55.176,59.082,0
30721.190,42.969,41.504,24.902,24.414,-85.449,0
30721.194,46.387,41.504,25.391,15.625,-45.410,0
30721.198,47.363,37.598,28.809,38.086,96.680,0
30721.202,52.734,38.086,29.297,65.918,100.098,0
30721.205,50.293,40.039,26.855,57.129,-31.738,0
30721.209,42.969,42.969,25.391,23.438,-54.199,0
30721.213,44.922,43.945,25.879,29.297,70.312,0
30721.217,49.316,38.574,26.855,55.176,106.445,0
30721.221,47.363,38.086,25.391,43.457,-14.160,0
30721.225,47.363,40.039,24.414,16.602,-81.543,0
30721.229,47.363,38.574,24.414,25.879,20.996,0
30721.233,39.062,35.645,25.879,51.270,103.516,0
30721.237,42.480,34.180,27.832,59.082,29.297,0
30721.241,39.062,36.621,29.785,34.180,-62.988,0
30721.245,42.969,38.574,31.738,21.973,3.418,0
30721.248,57.617,37.598,26.367,49.316,126.465,0
30721.252,50.781,33.691,24.902,48.340,86.914,0
30721.256,38.086,35.645,27.344,23.926,-49.316,0
30721.260,38.086,38.574,30.273,20.996,-42.480,0
30721.264,42.969,33.691,30.273,41.992,83.984,0
30721.268,46.387,30.762,29.297,57.129,87.891,0
30721.272,38.086,34.668,26.855,30.762,-41.016,0
30721.276,37.598,36.621,25.879,7.812,-63.965,0
30721.280,42.969,36.621,29.297,33.203,71.777,0
30721.284,41.504,34.668,27.344,55.176,133.789,0
30721.287,43.457,34.180,27.344,31.250,27.832,0
30721.291,40.527,37.109,30.273,8.301,-50.293,0
30721.295,36.133,36.621,29.785,20.508,35.645,0
30721.299,37.598,35.156,29.785,44.922,106.934,0
30721.303,40.039,30.762,27.344,50.781,18.555,0
30721.307,41.016,30.762,29.785,26.367,-80.078,0
30721.311,37.109,35.645,33.203,15.137,-26.855,0
30721.315,40.039,34.668,31.250,35.156,89.355,0
30721.319,36.621,30.273,35.156,47.852,66.406,0
30721.323,23.438,29.785,36.133,37.109,-52.734,0
30721.327,20.996,32.715,32.715,32.227,-46.387,0
30721.330,24.414,32.715,31.738,44.922,73.242,0
30721.334,24.902,28.320,32.715,50.781,92.773,0
30721.338,30.273,29.297,35.156,40.039,-14.648,0
30721.342,36.621,34.668,35.645,20.996,-51.758,0
30721.346,29.785,33.691,33.203,27.832,55.664,0
30721.350,33.203,30.762,32.715,47.852,120.605,0
30721.354,38.086,28.809,32.715,46.875,19.531,0
30721.358,31.738,29.785,31.738,22.949,-76.172,0
30721.362,34.180,32.715,32.227,13.672,2.930,0
30721.366,35.156,29.785,29.785,40.039,107.910,0
30721.370,28.809,29.297,27.344,41.504,51.758,0
30721.373,28.809,34.668,31.250,21.973,-52.734,0
30721.377,34.180,39.551,31.738,15.137,-14.160,0
30721.381,32.715,38.574,29.785,33.203,95.703,0
30721.385,23.438,30.273,26.367,46.875,70.801,0
30721.389,26.855,27.832,23.926,27.344,-58.594,0
30721.393,29.297,31.250,25.879,12.695,-59.570,0
30721.397,32.227,31.738,23.926,25.879,71.289,0
30721.401,29.785,31.738,22.949,40.527,103.027,0
30721.405,24.414,33.691,22.949,26.367,-7.812,0
30721.409,22.461,38.574,25.391,4.883,-69.336,0
30721.412,21.973,38.574,26.367,12.695,20.508,0
30721.416,30.762,33.691,21.973,35.156,99.121,0
30721.420,31.250,31.738,20.996,36.621,13.184,0
30721.424,30.762,34.180,23.926,19.531,-81.055,0
30721.428,41.016,30.762,26.367,22.461,7.812,0
30721.432,41.016,26.855,28.320,50.293,130.371,0
30721.436,29.785,27.344,25.391,52.734,70.801,0
30721.440,31.738,30.273,22.949,33.203,-46.387,0
30721.444,32.227,32.715,23.438,23.926,-22.949,0
30721.448,25.391,31.738,24.414,28.320,81.055,0
30721.452,35.156,33.203,25.391,40.039,94.238,0
30721.455,41.016,33.691,26.855,22.461,-23.438,0
30721.459,34.180,34.180,28.320,9.277,-49.805,0
30721.463,31.250,31.250,24.902,24.414,72.266,0
30721.467,35.645,29.297,22.949,46.387,103.516,0
30721.471,37.598,29.785,21.973,50.781,-14.160,0
30721.475,44.922,30.762,25.391,41.016,-68.848,0
30721.479,49.316,32.715,29.785,34.180,42.480,0
30721.483,42.969,35.156,28.320,38.086,124.023,0
30721.487,34.668,33.691,26.367,37.598,30.273,0
30721.491,28.320,31.738,29.785,21.973,-69.336,0
30721.495,23.438,35.645,29.297,20.020,-2.441,0
30721.498,24.902,35.645,25.879,39.551,110.840,0
30721.502,30.273,33.691,25.391,41.504,64.453,0
30721.506,34.180,37.109,23.926,25.879,-67.383,0
30721.510,33.691,39.551,23.926,30.273,-49.805,0
30721.514,35.156,39.062,25.879,41.992,85.449,0
30721.518,44.922,38.574,23.926,42.480,102.539,0
30721.522,45.898,39.062,21.973,31.738,-17.578,0
30721.526,43.457,40.527,22.949,22.949,-53.223,0
30721.530,48.828,44.434,23.438,32.227,61.035,0
30721.534,52.246,40.527,20.508,44.434,114.746,1
30721.537,51.758,39.062,20.996,40.527,2.930,0
30721.541,49.316,43.457,25.879,26.367,-68.848,0
30721.545,45.410,42.480,25.879,25.879,19.531,0
30721.549,42.969,38.086,25.391,44.922,106.445,0
30721.553,45.410,32.227,25.879,45.410,31.738,0
30721.557,47.363,34.180,28.320,35.156,-78.125,0
30721.561,43.457,40.527,29.297,31.250,-15.625,0
30721.565,33.691,36.621,29.785,37.598,99.609,0
30721.569,26.855,32.227,31.738,53.223,58.594,0
30721.573,26.855,35.156,30.273,37.598,-69.336,0
30721.577,31.250,40.527,29.785,22.949,-61.035,0
30721.580,27.832,39.062,31.738,40.039,65.430,0
30721.584,28.320,36.133,26.855,54.688,84.961,0
30721.588,26.367,40.039,28.320,37.598,-43.457,0
30721.592,30.273,41.992,34.668,28.320,-93.750,0
30721.596,35.645,41.504,33.203,35.645,20.996,0
30721.600,34.180,39.551,30.762,40.527,88.379,0
30721.604,27.344,36.621,29.785,34.180,-8.789,0
30721.608,27.832,38.574,30.273,18.555,-94.238,0
30721.612,39.062,42.480,29.785,21.484,-13.672,0
30721.616,42.969,37.109,29.297,41.504,89.844,0
30721.620,35.645,33.203,28.320,41.992,24.414,0
30721.623,24.902,33.691,26.367,24.902,-82.031,0
30721.627,27.832,33.203,27.832,21.973,-25.879,0
30721.631,38.086,34.668,28.320,46.387,84.961,0
30721.635,35.156,34.668,29.785,52.246,62.988,0
30721.639,32.227,36.133,29.785,26.367,-42.480,0
30721.643,31.250,39.551,29.785,21.973,-58.594,0
30721.647,31.738,39.551,29.297,35.645,52.734,0
30721.651,36.133,36.133,29.297,55.176,110.352,0
30721.655,39.551,33.691,33.203,48.340,0.488,0
30721.659,36.621,31.738,31.738,34.668,-76.660,0
30721.662,29.297,33.691,27.344,43.945,22.461,0
30721.666,30.762,32.227,26.855,56.152,107.910,0
30721.670,29.297,30.762,27.832,47.363,7.812,0
30721.674,25.879,32.227,26.855,21.973,-106.934,0
30721.678,25.879,34.180,27.344,22.949,-31.250,0
30721.682,31.250,33.691,26.855,44.922,80.566,0
30721.686,33.691,30.273,25.879,45.898,24.414,0
30721.690,28.809,28.320,26.367,27.832,-91.797,0
30721.694,24.902,29.785,27.832,15.137,-68.359,0
30721.698,22.949,24.902,27.832,28.320,56.641,0
30721.702,30.762,23.438,27.832,43.457,61.523,0
30721.705,32.715,31.250,24.414,22.949,-58.594,0
30721.709,30.762,34.668,24.902,15.137,-79.102,0
30721.713,33.203,34.668,25.879,33.691,50.293,0
30721.717,38.086,34.180,22.949,43.945,103.027,0
30721.721,38.574,33.691,24.902,30.273,-8.301,0
30721.725,32.227,35.645,23.438,11.719,-78.613,0
30721.729,31.738,37.109,21.484,20.020,16.113,0
30721.733,36.621,31.738,26.367,38.086,113.281,0
30721.737,36.621,27.832,27.344,37.109,35.645,0
30721.741,38.086,29.297,25.879,14.160,-81.055,0
30721.745,35.645,33.691,24.414,12.695,-30.273,0
30721.748,35.156,35.156,23.926,32.715,94.238,0
30721.752,39.551,31.250,24.902,39.551,76.172,0
30721.756,35.156,32.715,25.879,32.715,-48.340,0
30721.760,36.133,37.109,26.855,31.250,-44.922,0
30721.764,41.016,37.598,28.320,42.969,95.215,0
30721.768,40.527,34.180,25.391,56.152,116.211,0
30721.772,43.945,33.691,24.902,42.480,-16.113,0
30721.776,50.781,37.598,26.855,22.949,-66.895,0
30721.780,44.434,36.133,26.367,42.969,36.621,0
30721.784,41.992,34.668,29.785,52.246,102.539,0
30721.787,50.293,38.086,27.832,39.551,9.766,0
30721.791,50.781,40.039,21.973,29.785,-66.406,0
30721.795,40.527,40.039,23.926,34.668,17.090,0
30721.799,40.527,34.180,26.855,48.340,111.816,0
30721.803,37.598,29.297,27.832,41.992,46.875,0
30721.807,36.133,27.832,28.320,20.996,-67.871,0
30721.811,41.992,29.297,24.902,21.484,-28.320,0
30721.815,49.805,30.762,21.973,43.945,93.262,0
30721.819,50.293,31.250,22.461,53.711,77.637,0
30721.823,45.898,34.180,23.438,35.645,-53.711,0
30721.827,41.504,35.645,27.344,27.832,-59.082,0
30721.830,33.203,31.250,30.273,48.828,69.824,0
30721.834,37.109,27.344,29.297,60.547,92.285,0
30721.838,37.109,26.367,28.320,42.480,-33.203,0
30721.842,36.621,31.250,31.250,38.574,-81.543,0
30721.846,38.574,35.156,31.250,39.551,31.250,0
30721.850,32.715,32.715,27.344,39.062,103.027,0
30721.854,34.180,27.832,25.879,38.086,10.254,0
30721.858,34.668,26.855,28.320,21.973,-82.520,0
30721.862,29.297,29.297,30.273,25.391,-0.977,0
30721.866,33.203,29.297,28.320,50.781,116.211,0
30721.870,35.645,25.879,26.367,51.758,52.734,0
30721.873,31.250,25.879,27.344,28.809,-71.289,0
30721.877,35.645,30.762,28.809,27.344,-34.668,0
30721.881,42.480,32.227,28.320,41.016,82.031,0
30721.885,39.551,25.879,27.832,48.828,71.289,0
30721.889,29.297,25.879,27.344,40.039,-48.340,0
30721.893,23.926,30.762,27.832,29.297,-62.500,0
30721.897,23.438,33.203,30.273,32.227,46.387,0
30721.901,26.367,32.227,27.344,44.434,87.402,0
30721.905,29.297,31.738,23.926,33.691,-22.949,0
30721.909,33.691,33.691,22.949,14.648,-87.891,0
30721.912,31.250,32.227,23.926,25.879,15.137,0
30721.916,34.180,31.738,27.832,41.504,93.750,0
30721.920,38.086,33.203,27.832,41.016,8.789,0
30721.924,30.273,35.156,29.785,24.902,-90.820,0
30721.928,26.367,34.668,32.227,14.160,-26.855,0
30721.932,30.273,32.227,32.715,32.227,92.285,0
30721.936,34.180,28.809,31.738,47.852,59.570,0
30721.940,29.785,29.785,29.297,32.227,-59.570,0
30721.944,24.414,31.250,28.809,20.996,-41.992,0
30721.948,28.809,31.738,28.320,31.250,83.496,0
30721.952,36.133,31.738,30.762,55.176,83.984,0
30721.955,30.273,28.809,27.832,42.480,-41.504,0
30721.959,31.738,28.809,24.414,5.371,-57.617,0
30721.963,37.598,33.203,28.320,20.020,61.523,0
30721.967,33.203,32.227,27.832,61.523,100.586,0
30721.971,30.273,29.785,24.902,47.852,-15.137,0
30721.975,30.273,31.738,25.391,13.184,-77.637,0
30721.979,33.203,33.203,27.344,27.344,20.996,0
30721.983,35.156,33.691,27.344,46.387,98.633,0
30721.987,31.250,33.691,25.391,35.156,19.531,0
30721.991,26.855,32.227,21.484,10.742,-85.938,0
30721.995,28.320,28.320,21.484,8.301,-33.691,0
30721.998,29.297,28.320,26.367,46.387,87.891,0
30722.002,33.691,27.832,28.320,50.293,59.082,0
30722.006,36.133,26.367,27.344,22.461,-70.312,0
30722.010,37.109,29.297,25.391,21.973,-62.500,0
30722.014,38.574,27.344,23.438,31.250,65.918,0
30722.018,39.551,26.855,25.391,43.457,94.238,0
30722.022,31.250,31.738,30.273,31.250,-20.996,0
30722.026,33.203,32.715,33.203,20.020,-67.383,0
30722.030,39.551,31.250,33.203,35.156,41.016,0
30722.034,37.109,28.809,32.227,40.039,106.445,0
30722.037,29.785,28.320,32.227,39.062,17.090,0
30722.041,25.391,26.367,35.156,24.902,-70.801,0
30722.045,28.809,25.879,34.180,26.855,4.395,0
30722.049,36.133,26.855,32.715,49.805,115.234,0
30722.053,42.480,25.879,33.691,48.340,58.105,0
30722.057,40.039,28.809,34.668,31.250,-57.617,0
30722.061,41.016,30.762,34.668,27.344,-21.973,0
30722.065,43.945,29.785,32.715,40.039,104.492,0
30722.069,41.992,27.344,30.762,56.152,92.285,0
30722.073,40.039,26.367,27.344,34.668,-40.527,0
30722.077,43.945,31.738,27.832,9.766,-48.828,0
30722.080,46.387,34.668,29.785,33.691,73.242,0
30722.084,49.805,30.762,28.320,55.664,98.633,1
30722.088,51.270,30.762,25.879,41.504,-23.926,0
30722.092,44.434,35.156,27.832,35.645,-84.473,0
30722.096,46.875,32.227,30.762,40.527,22.461,0
30722.100,49.316,28.320,29.785,39.551,105.957,0
30722.104,27.832,27.832,26.855,35.645,16.113,0
30722.108,19.043,30.762,26.855,22.949,-76.172,0
30722.112,25.879,33.203,31.250,21.484,0.977,0
30722.116,29.297,31.250,28.320,43.457,123.047,0
30722.120,33.203,34.180,25.391,50.293,78.613,0
30722.123,30.273,37.109,25.391,28.809,-48.828,0
30722.127,31.738,35.645,20.996,26.367,-22.461,0
30722.131,39.062,34.668,19.043,45.898,92.285,0
30722.135,36.621,31.250,22.461,48.828,76.172,0
30722.139,28.809,30.762,29.297,25.391,-46.875,0
30722.143,30.273,33.203,32.715,7.812,-67.871,0
30722.147,34.180,34.668,33.691,20.020,67.871,0
30722.151,36.621,31.250,31.250,40.527,127.930,0
30722.155,36.133,27.832,27.344,37.109,-6.836,0
30722.159,41.016,31.250,30.762,20.996,-95.215,0
30722.162,52.734,35.156,31.738,29.297,17.090,0
30722.166,46.387,30.273,27.344,45.898,116.699,0
30722.170,31.250,28.809,26.855,40.039,44.434,0
30722.174,32.227,33.691,27.832,23.926,-55.664,0
30722.178,34.180,36.133,28.809,27.344,1.953,0
30722.182,34.180,33.691,27.344,42.480,113.770,0
30722.186,35.156,33.203,22.949,45.898,76.172,0
30722.190,31.738,35.645,23.438,16.113,-41.016,0
30722.194,38.574,36.621,25.391,5.371,-25.879,0
30722.198,46.875,36.133,29.297,36.621,106.445,0
30722.202,47.363,33.203,30.273,53.711,111.816,0
30722.205,45.898,33.691,27.832,36.621,-20.020,0
30722.209,42.969,38.086,27.832,17.578,-49.805,0
30722.213,41.016,38.086,24.902,25.391,70.801,0
30722.217,42.969,33.203,25.879,49.805,128.418,0
30722.221,33.691,32.715,26.855,45.898,6.348,0
30722.225,30.762,35.645,26.855,22.461,-86.914,0
30722.229,37.109,34.668,29.297,21.484,8.301,0
30722.233,36.621,32.715,27.832,36.621,108.887,0
30722.237,35.645,33.691,27.832,44.434,29.297,0
30722.241,29.297,33.691,26.855,18.066,-88.379,0
30722.245,29.297,29.785,28.809,9.766,-26.367,0
30722.248,36.133,28.320,29.785,29.785,106.445,0
30722.252,38.574,33.203,26.855,39.062,78.613,0
30722.256,37.109,37.109,29.785,29.785,-37.109,0
30722.260,34.180,39.062,34.180,22.949,-28.809,0
30722.264,37.598,39.551,33.691,37.109,94.727,0
30722.268,43.457,32.715,31.250,46.387,111.328,0
30722.272,38.086,29.785,27.832,39.062,-18.555,0
30722.276,32.715,34.180,26.855,26.855,-66.406,0
30722.280,39.062,33.203,25.879,26.367,51.270,0
30722.284,41.992,29.785,26.367,40.527,135.254,0
30722.287,37.598,29.785,27.832,37.598,37.598,0
30722.291,35.156,32.227,28.320,20.020,-68.359,0
30722.295,40.039,33.691,24.902,28.809,12.207,0
30722.299,36.133,31.738,25.391,49.805,120.117,0
30722.303,30.273,30.762,30.762,43.945,47.852,0
30722.307,24.414,29.785,30.762,20.020,-67.383,0
30722.311,22.949,30.273,31.250,16.602,-20.508,0
30722.315,31.250,32.715,31.738,35.156,101.074,0
30722.319,33.691,30.762,30.762,50.293,86.426,0
30722.323,31.250,31.738,30.762,29.785,-44.922,0
30722.327,29.297,35.156,34.180,8.789,-61.035,0
30722.330,30.762,36.133,33.203,30.762,76.172,0
30722.334,28.320,30.273,28.809,43.945,124.023,0
30722.338,29.297,29.785,32.227,38.086,-1.953,0
30722.342,33.203,32.715,35.156,31.738,-84.961,0
30722.346,31.250,27.832,30.273,33.691,20.996,0
30722.350,31.738,28.320,27.344,47.852,115.234,0
30722.354,41.504,33.203,28.809,41.016,28.320,0
30722.358,41.504,36.133,31.738,12.695,-71.289,0
30722.362,34.180,36.133,31.250,7.812,-6.348,0
30722.366,31.250,31.738,26.367,25.879,96.191,0
30722.370,33.203,30.273,22.461,34.180,51.758,0
30722.373,34.180,33.203,24.902,29.297,-59.082,0
30722.377,34.668,35.645,27.344,17.090,-37.598,0
30722.381,36.621,36.621,27.344,28.320,84.961,0
30722.385,29.297,33.203,26.367,53.711,89.844,0
30722.389,25.391,29.785,26.855,36.621,-37.598,0
30722.393,32.227,32.227,29.785,8.301,-63.477,0
30722.397,36.133,33.203,31.738,23.926,65.430,0
30722.401,33.691,30.762,28.809,45.898,116.211,0
30722.405,32.715,32.715,29.297,29.785,-13.672,0
30722.409,37.109,35.156,32.715,12.695,-87.891,0
30722.412,40.527,35.156,32.715,25.391,22.949,0
30722.416,35.645,31.738,31.738,42.480,113.281,0
30722.420,34.180,30.762,33.691,49.805,33.691,0
30722.424,34.180,31.738,33.691,29.297,-73.242,0
30722.428,35.645,30.762,30.762,16.602,-22.949,0
30722.432,37.598,29.297,30.273,35.645,97.656,0
30722.436,33.691,28.809,29.297,44.922,78.613,0
30722.440,31.250,34.180,27.344,31.250,-43.457,0
30722.444,34.180,37.598,26.855,22.461,-49.316,0
30722.448,35.156,38.086,26.367,40.039,62.988,0
30722.452,44.434,37.598,25.391,62.012,80.566,0
30722.455,50.781,38.574,24.902,47.363,-35.156,0
30722.459,46.387,41.504,28.320,16.602,-65.430,0
30722.463,47.852,40.039,32.227,31.250,57.129,0
30722.467,44.434,37.598,30.273,55.664,117.188,0
30722.471,36.621,38.086,27.344,38.574,11.230,0
30722.475,28.809,40.039,25.879,14.648,-75.684,0
30722.479,28.320,42.969,28.809,20.508,10.254,0
30722.483,39.062,41.504,29.785,42.969,117.676,0
30722.487,37.109,37.598,28.809,44.922,41.504,0
30722.491,29.785,37.109,35.156,33.203,-79.102,0
30722.495,29.785,34.668,37.109,24.414,-30.273,0
30722.498,25.391,33.691,36.133,25.879,85.938,0
30722.502,18.555,35.156,37.598,28.809,68.848,0
30722.506,14.160,36.621,31.738,7.812,-64.941,0
30722.510,11.719,36.133,32.715,-3.418,-83.984,0
30722.514,11.719,37.109,34.668,14.160,40.527,0
30722.518,15.625,38.086,34.180,29.297,68.848,0
30722.522,4.883,35.645,34.668,4.883,-62.500,0
30722.526,-8.301,36.621,37.109,-18.555,-116.211,0
30722.530,-9.277,35.156,39.551,-11.719,-4.395,0
30722.534,-5.859,31.738,37.598,3.418,67.383,0
30722.537,-5.371,33.691,38.086,-2.441,-34.668,0
30722.541,-8.301,36.621,41.016,-23.926,-138.672,0
30722.545,-10.742,37.109,39.551,-20.508,-66.406,0
30722.549,-11.230,39.062,34.180,3.906,44.922,0
30722.553,-8.789,38.086,35.156,10.254,-12.695,0
30722.557,-7.324,33.203,37.598,-16.113,-128.418,0
30722.561,-6.348,37.598,38.086,-24.902,-89.355,0
30722.565,-6.836,37.109,39.062,4.395,37.598,0
30722.569,-2.441,34.668,35.645,21.484,42.969,0
30722.573,2.441,35.645,32.715,-0.977,-86.914,0
30722.577,4.883,37.598,32.715,-13.672,-117.676,0
30722.580,10.742,40.039,32.715,12.695,18.555,0
30722.584,18.066,35.645,29.785,28.320,74.219,0
30722.588,14.160,32.227,27.344,22.949,-39.551,0
30722.592,15.137,34.668,30.762,17.090,-100.586,0
30722.596,21.484,36.133,31.250,15.625,0.977,0
30722.600,31.250,34.668,26.367,28.809,91.797,0
30722.604,37.109,34.180,25.391,33.203,21.484,0
30722.608,41.016,36.621,27.344,20.508,-74.707,0
30722.612,41.992,37.598,26.367,21.484,-22.949,0
30722.616,39.551,37.109,25.879,47.363,89.355,0
30722.620,47.852,37.598,26.855,62.012,56.152,0
30722.623,50.781,37.598,26.367,41.016,-62.500,0
30722.627,43.457,39.062,27.344,34.180,-44.922,0
30722.631,40.527,35.645,27.344,50.293,74.219,1
30722.635,40.039,28.809,22.949,62.012,81.055,0
30722.639,41.992,33.203,21.973,51.270,-42.480,0
30722.643,47.852,39.062,27.344,22.949,-69.824,0
30722.647,43.945,35.156,23.438,30.762,62.012,0
30722.651,43.945,32.715,20.508,56.152,111.816,0
30722.655,47.363,31.738,24.902,54.199,-4.883,0
30722.659,41.016,31.250,26.855,34.180,-76.172,0
30722.662,44.922,33.691,26.367,38.574,22.949,0
30722.666,50.293,32.715,24.902,60.547,111.816,0
30722.670,45.410,30.273,22.461,62.500,38.086,0
30722.674,42.480,35.156,25.391,42.969,-55.176,0
30722.678,47.363,36.133,26.367,39.551,-9.766,0
30722.682,46.387,30.273,24.902,63.477,95.215,0
30722.686,45.410,25.879,23.926,68.848,73.242,0
30722.690,45.410,27.344,24.414,43.457,-42.969,0
30722.694,45.410,31.250,26.855,29.297,-45.410,0
30722.698,46.387,30.273,26.855,46.875,81.055,0
30722.702,42.969,28.809,24.414,62.500,110.352,0
30722.705,48.340,31.738,23.926,53.223,-10.254,0
30722.709,60.547,34.180,27.832,36.621,-70.312,0
30722.713,59.082,34.668,27.832,41.992,35.156,0
30722.717,50.781,32.715,24.902,62.012,114.746,0
30722.721,47.363,30.273,24.902,39.062,27.344,0
30722.725,46.875,31.738,24.414,20.508,-62.500,0
30722.729,47.363,33.691,23.926,38.574,5.859,0
30722.733,48.340,34.668,24.414,56.641,114.258,0
30722.737,51.270,30.273,22.461,54.199,60.547,0
30722.741,46.387,27.832,21.973,29.785,-54.199,0
30722.745,39.551,29.785,22.461,20.508,-16.602,0
30722.748,44.922,29.297,21.973,42.969,116.211,0
30722.752,50.781,26.855,20.996,62.012,115.234,0
30722.756,39.551,27.344,22.949,49.316,-24.414,0
30722.760,33.691,32.715,25.391,30.273,-58.105,0
30722.764,41.016,30.762,22.461,38.574,61.035,0
30722.768,49.805,28.320,16.113,58.105,105.957,0
30722.772,49.316,29.785,15.625,54.688,-10.742,0
30722.776,43.945,28.809,22.461,37.109,-78.125,0
30722.780,40.527,31.250,27.344,45.898,35.156,0
30722.784,35.645,32.715,25.391,60.059,126.465,0
30722.787,36.621,29.297,22.949,46.387,28.320,0
30722.791,41.504,29.785,23.438,16.602,-77.148,0
30722.795,47.363,38.086,23.438,18.066,-9.766,0
30722.799,51.270,38.574,22.949,45.410,95.215,0
30722.803,46.875,34.668,22.461,47.852,36.133,0
30722.807,43.945,35.156,23.926,27.344,-88.867,0
30722.811,38.086,33.203,24.414,12.695,-56.152,0
30722.815,30.762,32.715,23.926,29.297,69.336,0
30722.819,41.992,29.785,22.949,41.992,72.266,0
30722.823,42.969,29.297,22.461,31.250,-48.828,0
30722.827,30.762,27.832,23.438,22.949,-77.637,0
30722.830,34.180,26.855,22.461,26.367,48.340,0
30722.834,30.762,26.855,23.926,39.062,101.562,0
30722.838,22.461,28.320,25.879,37.109,-10.254,0
30722.842,25.879,30.762,27.832,20.508,-77.148,0
30722.846,26.855,27.832,31.250,28.320,24.902,0
30722.850,26.367,26.855,28.809,53.223,126.465,0
30722.854,29.785,27.832,26.855,55.176,53.711,0
30722.858,36.133,29.785,28.809,44.922,-55.664,0
30722.862,37.109,33.691,30.273,37.109,4.395,0
30722.866,38.574,30.273,32.227,49.316,123.535,0
30722.870,43.945,27.344,32.715,65.430,81.543,0
30722.873,45.410,33.691,33.203,40.527,-36.621,0
30722.877,52.246,36.133,32.227,26.367,-15.625,0
30722.881,54.199,34.180,28.809,49.805,99.121,0
30722.885,58.594,33.203,25.391,58.594,96.680,0
30722.889,68.359,36.621,25.391,47.852,-18.066,0
30722.893,63.965,44.434,28.320,37.598,-46.387,0
30722.897,54.688,45.898,29.785,36.621,59.570,0
30722.901,53.223,41.992,28.320,55.176,108.887,0
30722.905,57.129,43.457,28.809,53.223,6.348,0
30722.909,50.293,43.945,28.320,31.250,-76.660,0
30722.912,49.805,37.109,29.297,31.250,12.207,0
30722.916,49.805,33.691,30.762,47.852,115.723,0
30722.920,39.551,32.227,30.762,51.758,46.875,0
30722.924,42.480,33.203,31.250,41.504,-64.941,0
30722.928,41.016,36.133,31.250,40.039,-22.949,0
30722.932,41.992,36.133,33.203,53.223,100.586,0
30722.936,45.410,36.621,35.156,53.711,81.543,0
30722.940,37.109,38.574,33.691,37.598,-41.016,0
30722.944,30.762,40.039,31.738,33.691,-44.434,0
30722.948,34.668,35.645,31.738,51.758,81.543,0
30722.952,37.598,29.785,33.203,63.965,113.770,0
30722.955,34.668,29.297,31.738,41.016,-10.742,0
30722.959,27.344,28.320,32.227,21.973,-69.336,0
30722.963,29.785,26.855,32.715,30.273,43.945,0
30722.967,35.156,28.320,29.297,39.062,125.488,0
30722.971,28.809,30.273,26.367,43.457,20.996,0
30722.975,35.645,31.250,28.809,40.039,-77.148,0
30722.979,45.410,33.691,35.156,30.273,4.395,0
30722.983,46.387,33.691,33.691,38.086,99.121,0
30722.987,51.758,32.715,26.855,44.434,37.598,0
30722.991,41.016,32.715,25.879,14.160,-74.707,0
30722.995,33.203,33.203,28.320,3.906,-47.852,0
30722.998,38.574,35.156,27.344,31.738,74.707,0
30723.002,38.574,31.250,27.344,45.410,73.242,0
30723.006,44.434,29.785,28.809,25.879,-50.293,0
30723.010,42.969,33.203,29.297,10.742,-72.266,0
30723.014,36.621,34.180,28.320,25.879,53.711,0
30723.018,40.527,30.273,26.855,53.223,111.816,0
30723.022,35.156,26.367,26.367,41.016,0.488,0
30723.026,26.367,28.320,25.391,4.883,-80.078,0
30723.030,25.879,28.320,25.391,14.648,19.531,0
30723.034,38.574,29.297,25.879,53.223,125.977,0
30723.037,40.039,29.297,26.855,54.688,40.527,0
30723.041,17.090,27.344,29.297,10.742,-93.750,0
30723.045,14.648,27.344,30.762,5.859,-34.180,0
30723.049,20.508,27.344,29.785,26.367,86.426,0
30723.053,22.949,28.320,26.855,31.250,46.387,0
30723.057,37.598,27.832,25.391,16.113,-59.570,0
30723.061,39.551,28.809,29.297,11.230,-31.738,0
30723.065,34.180,25.879,32.715,33.691,83.496,0
30723.069,34.668,23.438,29.297,50.293,84.961,0
30723.073,37.598,22.949,27.344,31.250,-41.504,0
30723.077,41.016,23.438,26.855,12.207,-62.988,0
30723.080,40.527,29.297,27.344,20.508,59.082,0
30723.084,46.387,28.320,26.367,42.480,103.027,0
30723.088,49.805,24.902,26.855,38.086,1.465,0
30723.092,45.898,27.344,28.809,11.230,-66.406,0
30723.096,41.992,31.738,31.250,25.391,20.020,0
30723.100,44.434,32.715,31.738,48.828,104.492,0
30723.104,45.410,29.297,29.297,37.109,23.438,0
30723.108,40.527,28.320,28.809,16.113,-84.473,0
30723.112,41.504,30.762,30.273,24.902,-21.484,0
30723.116,42.969,27.832,28.809,36.133,109.863,0
30723.120,41.992,27.344,27.344,32.715,73.730,0
30723.123,41.504,33.203,24.414,28.809,-61.035,0
30723.127,37.109,34.180,23.438,18.066,-51.758,0
30723.131,29.297,32.715,27.344,22.949,67.871,0
30723.135,32.227,32.227,32.227,38.574,88.867,0
30723.139,34.180,33.203,31.250,32.715,-22.949,0
30723.143,34.180,35.156,22.949,13.672,-60.547,0
30723.147,38.086,34.180,24.414,19.531,51.270,0
30723.151,40.527,32.227,30.273,39.551,115.234,0
30723.155,42.969,33.691,27.344,38.086,8.301,0
30723.159,45.410,34.668,25.391,16.113,-83.008,0
30723.162,39.062,35.156,25.391,14.160,8.789,0
30723.166,35.645,32.227,22.949,36.133,118.652,0
30723.170,42.969,27.832,24.414,40.039,53.711,0
30723.174,41.992,30.273,30.762,27.832,-68.359,0
30723.178,42.480,33.691,31.250,29.297,-29.785,0
30723.182,50.293,33.203,28.809,39.062,98.145,0
30723.186,52.246,33.691,27.832,42.480,84.961,0
30723.190,43.457,34.668,29.297,23.926,-42.480,0
30723.194,41.992,36.133,30.762,18.555,-39.551,0
30723.198,44.922,36.621,30.273,37.598,83.008,0
30723.202,39.551,34.180,28.320,40.039,94.727,0
30723.205,34.668,31.738,27.832,27.344,-27.344,0
30723.209,30.273,31.250,30.273,16.113,-79.590,0
30723.213,34.180,31.250,30.762,22.949,34.180,0
30723.217,33.691,30.762,30.762,41.504,112.305,0
30723.221,22.461,30.273,32.227,40.527,7.324,0
30723.225,26.367,31.250,32.715,22.461,-92.773,0
30723.229,32.227,35.156,28.320,30.762,-9.277,0
30723.233,35.645,35.156,28.809,38.574,104.004,0
30723.237,36.621,34.668,34.668,37.598,51.758,0
30723.241,29.297,36.133,33.203,24.902,-76.172,0
30723.245,29.785,35.645,28.809,6.836,-52.734,0
30723.248,32.227,32.227,28.320,21.484,80.078,0
30723.252,26.367,31.738,26.367,36.621,76.172,0
30723.256,27.344,32.715,27.344,31.738,-49.316,0
30723.260,37.109,35.645,30.273,26.367,-68.359,0
30723.264,34.180,36.133,26.855,30.273,48.828,0
30723.268,33.203,31.738,21.973,36.621,91.309,1
30723.272,35.156,33.203,19.531,29.785,-12.695,0
30723.276,29.785,36.621,17.578,10.742,-63.477,0
30723.280,29.785,37.109,20.508,22.949,43.457,0
30723.284,35.645,34.668,20.996,49.805,116.699,0
30723.287,36.133,32.715,22.461,36.621,27.832,0
30723.291,30.762,33.203,25.391,12.695,-66.895,0
30723.295,34.180,33.691,23.438,22.461,4.395,0
30723.299,43.945,31.738,23.926,48.340,122.070,0
30723.303,41.504,29.297,23.926,45.410,71.289,0
30723.307,31.250,32.227,21.484,22.949,-58.105,0
30723.311,25.879,37.109,22.461,21.484,-37.109,0
30723.315,28.320,36.133,23.438,38.574,82.520,0
30723.319,30.762,34.180,25.879,50.781,71.289,0
30723.323,30.762,32.715,28.320,32.227,-48.828,0
30723.327,37.109,33.203,30.273,12.207,-67.383,0
30723.330,40.527,32.227,31.738,22.461,54.688,0
30723.334,36.621,29.297,29.297,43.457,112.793,0
30723.338,34.180,29.297,25.879,39.062,9.766,0
30723.342,48.340,34.180,25.391,13.184,-56.641,0
30723.346,45.410,35.645,28.320,15.137,34.180,0
30723.350,32.227,31.738,32.715,36.133,119.141,0
30723.354,42.480,32.715,31.250,43.457,41.504,0
30723.358,45.898,33.691,30.273,33.203,-60.059,0
30723.362,46.875,34.668,33.203,13.184,-1.465,0
30723.366,46.875,34.180,32.227,27.344,123.535,0
30723.370,45.410,34.180,32.227,44.922,92.285,0
30723.373,45.410,35.156,34.668,29.785,-36.133,0
30723.377,43.945,36.133,34.180,22.949,-31.738,0
30723.381,37.598,36.133,31.738,35.645,88.379,0
30723.385,39.551,32.227,28.809,45.898,115.723,0
30723.389,47.852,30.762,27.344,39.062,8.301,0
30723.393,36.133,28.809,28.320,24.902,-39.062,0
30723.397,25.879,28.809,30.273,31.738,64.453,0
30723.401,34.668,29.785,33.691,51.270,139.648,0
30723.405,41.992,29.297,32.227,50.781,30.273,0
30723.409,42.480,32.227,29.785,31.250,-84.961,0
30723.412,42.480,35.645,31.738,34.668,3.418,0
30723.416,43.945,27.832,29.785,65.430,120.117,0
30723.420,44.922,27.832,25.879,61.035,48.828,0
30723.424,46.875,35.645,23.926,20.996,-75.684,0
30723.428,41.016,39.062,25.879,11.230,-33.691,0
30723.432,42.969,41.992,27.344,31.250,91.797,0
30723.436,43.457,40.039,25.879,38.574,70.312,0
30723.440,44.922,41.992,27.832,27.344,-65.430,0
30723.444,44.434,44.434,29.785,16.602,-78.125,0
30723.448,34.668,40.039,21.484,30.762,47.852,0
30723.452,31.738,35.645,20.020,45.898,87.402,0
30723.455,40.039,36.133,24.902,37.109,-33.691,0
30723.459,46.875,37.109,24.902,17.578,-97.656,0
30723.463,42.480,37.598,25.879,22.461,24.902,0
30723.467,38.086,34.668,26.367,44.434,122.070,0
30723.471,35.156,33.203,26.855,39.551,18.555,0
30723.475,37.109,36.133,25.879,19.531,-82.520,0
30723.479,35.156,38.574,23.926,24.902,2.441,0
30723.483,35.645,31.250,24.414,49.316,105.957,0
30723.487,30.762,29.297,25.879,49.805,45.898,0
30723.491,19.043,34.668,27.344,23.926,-76.660,0
30723.495,19.531,31.738,29.297,24.414,-44.434,0
30723.498,25.391,27.344,26.855,47.363,97.656,0
30723.502,33.691,29.785,28.320,52.734,92.773,0
30723.506,37.598,32.227,29.785,32.227,-41.992,0
30723.510,41.504,33.203,31.250,10.254,-68.359,0
30723.514,41.504,34.668,32.715,28.320,55.664,0
30723.518,40.527,31.250,30.273,55.176,114.258,0
30723.522,44.922,28.320,29.785,54.199,-9.277,0
30723.526,46.387,31.738,27.832,27.344,-93.750,0
30723.530,43.945,33.691,29.297,20.996,6.836,0
30723.534,47.852,31.250,29.785,49.805,97.168,0
30723.537,47.363,30.273,28.320,57.129,2.441,0
30723.541,41.504,32.715,27.344,29.785,-107.422,0
30723.545,35.156,34.180,28.809,19.531,-40.039,0
30723.549,34.668,30.273,31.738,31.250,82.031,0
30723.553,30.762,28.320,31.250,38.574,41.504,0
30723.557,27.344,30.273,30.273,31.250,-85.449,0
30723.561,29.785,34.668,28.809,19.531,-66.406,0
30723.565,31.738,32.715,27.832,32.227,57.617,0
30723.569,34.668,28.809,26.855,47.363,64.941,0
30723.573,35.645,31.250,29.785,36.133,-56.152,0
30723.577,38.574,33.203,29.785,16.113,-91.797,0
30723.580,35.645,34.180,25.879,25.879,28.809,0
30723.584,27.344,30.273,25.391,43.945,97.656,0
30723.588,23.926,26.855,24.902,34.180,-7.324,0
30723.592,24.902,28.809,25.391,14.160,-91.309,0
30723.596,30.273,33.691,27.832,19.043,-2.441,0
30723.600,39.062,33.203,28.320,43.457,104.492,0
30723.604,39.062,30.762,25.879,44.922,37.598,0
30723.608,36.621,32.715,24.414,27.344,-77.637,0
30723.612,36.133,35.156,25.391,22.461,-25.391,0
30723.616,34.668,31.250,25.879,37.598,93.262,0
30723.620,38.574,30.273,25.391,48.828,68.359,0
30723.623,49.316,33.203,27.832,31.250,-56.152,0
30723.627,42.969,33.203,29.297,12.207,-63.965,0
30723.631,32.715,32.715,29.297,29.785,53.223,0
30723.635,34.668,33.203,27.832,43.945,68.359,0
30723.639,34.180,34.180,27.832,25.391,-51.758,0
30723.643,31.250,37.109,30.273,14.648,-99.609,0
30723.647,33.691,37.598,31.250,25.879,14.648,0
30723.651,37.109,32.715,29.785,45.410,99.121,0
30723.655,37.598,31.250,27.832,45.410,1.465,0
30723.659,33.691,34.668,32.715,33.203,-94.238,0
30723.662,31.738,34.180,35.156,27.832,-18.066,0
30723.666,38.574,27.344,35.645,32.715,93.750,0
30723.670,34.180,27.832,34.180,34.180,43.457,0
30723.674,30.762,29.785,32.715,20.508,-74.219,0
30723.678,23.438,29.785,32.227,15.137,-48.340,0
30723.682,24.414,27.832,30.273,29.297,70.312,0
30723.686,25.879,28.320,31.738,44.434,71.777,0
30723.690,19.531,33.203,33.203,25.879,-43.945,0
30723.694,20.508,33.203,28.809,-1.953,-69.824,0
30723.698,21.973,32.715,27.344,18.555,44.922,0
30723.702,22.949,33.691,32.715,43.457,97.168,0
30723.705,22.461,31.738,33.691,29.785,-15.137,0
30723.709,28.320,29.785,30.273,6.348,-90.820,0
30723.713,30.762,31.250,28.320,14.648,6.836,0
30723.717,21.484,29.785,29.297,44.922,102.539,0
30723.721,19.043,31.250,29.785,42.480,14.648,0
30723.725,24.902,33.203,25.879,14.648,-102.051,0
30723.729,28.320,34.668,21.973,18.066,-40.039,0
30723.733,29.785,35.156,23.438,40.527,84.473,0
30723.737,24.902,29.297,25.391,35.156,51.270,0
30723.741,19.043,28.320,25.879,3.418,-75.195,0
30723.745,18.066,25.879,26.367,3.906,-63.965,0
30723.748,22.949,24.414,27.344,35.156,53.711,0
30723.752,29.785,29.785,25.879,41.504,53.711,0
30723.756,28.809,34.180,23.438,12.207,-68.848,0
30723.760,29.785,37.598,26.367,-6.836,-91.797,0
30723.764,29.785,37.598,31.250,12.695,34.180,0
30723.768,29.297,34.668,32.227,49.805,99.121,0
30723.772,32.715,35.645,28.809,27.344,-9.277,0
30723.776,29.297,33.203,32.715,6.836,-92.285,0
30723.780,22.949,29.297,35.645,46.875,-2.930,0
30723.784,35.156,28.809,28.809,45.410,94.238,0
30723.787,44.922,28.320,25.391,16.602,19.531,0
30723.791,39.551,27.832,23.926,7.324,-90.332,0
30723.795,36.133,32.715,26.367,19.531,-28.320,0
30723.799,33.691,34.668,29.297,49.316,99.121,0
30723.803,28.809,28.320,23.438,42.480,75.195,0
30723.807,28.320,28.320,22.949,17.090,-49.805,0
30723.811,36.621,32.715,30.273,20.508,-42.480,0
30723.815,39.551,29.785,29.297,38.086,81.055,0
30723.819,42.480,21.973,30.273,48.340,99.121,0
30723.823,37.109,24.414,30.762,38.574,-36.133,0
30723.827,31.250,36.133,28.809,21.973,-85.938,0
30723.830,32.227,33.203,29.297,34.668,53.711,0
30723.834,33.203,24.414,28.809,52.246,121.582,0
30723.838,32.715,26.855,26.855,46.875,2.930,0
30723.842,30.273,29.297,29.297,29.297,-75.684,0
30723.846,27.344,29.297,28.320,22.461,3.906,0
30723.850,32.715,30.273,22.949,41.992,94.238,0
30723.854,38.574,27.344,22.949,62.500,36.621,0
30723.858,29.785,25.391,24.414,35.645,-74.219,0
30723.862,28.320,32.227,24.902,10.254,-24.414,0
30723.866,38.574,33.691,24.414,42.969,106.445,0
30723.870,41.992,28.320,23.438,61.035,81.543,0
30723.873,40.039,32.715,24.902,35.645,-41.992,0
30723.877,33.691,33.203,25.879,17.578,-49.316,0
30723.881,34.180,30.273,24.902,36.621,63.477,0
30723.885,42.969,32.227,24.414,51.270,103.027,0
30723.889,33.203,35.156,25.879,37.598,-13.672,0
30723.893,30.762,34.668,29.785,18.555,-74.219,0
30723.897,35.156,32.715,27.832,29.785,29.297,0
30723.901,35.645,33.203,27.832,61.523,121.094,0
30723.905,41.992,36.621,28.320,46.875,37.598,1
30723.909,41.016,36.133,28.809,9.277,-76.660,0
30723.912,34.668,35.156,33.691,15.625,-2.930,0
30723.916,29.297,30.762,33.691,42.969,118.164,0
30723.920,29.297,31.738,30.273,51.758,69.336,0
30723.924,31.250,36.133,29.297,34.668,-52.246,0
30723.928,32.715,37.598,32.227,24.414,-17.090,0
30723.932,38.574,37.109,32.227,46.875,109.863,0
30723.936,40.039,32.715,30.762,53.223,103.027,0
30723.940,35.645,33.691,31.738,34.180,-20.020,0
30723.944,34.180,34.180,32.227,20.508,-50.293,0
30723.948,38.086,32.715,28.320,35.156,65.918,0
30723.952,38.086,32.715,24.902,49.316,108.887,0
30723.955,42.969,34.180,25.879,33.203,-16.113,0
30723.959,43.457,39.062,29.297,19.531,-79.102,0
30723.963,37.598,42.969,33.203,28.320,32.715,0
30723.967,37.109,39.551,29.785,40.527,112.793,0
30723.971,32.715,35.156,28.320,27.832,26.855,0
30723.975,36.621,36.621,24.902,17.578,-72.266,0
30723.979,48.340,39.062,25.879,27.832,-4.883,0
30723.983,52.246,41.016,34.668,40.527,121.094,0
30723.987,44.922,39.551,32.227,45.898,93.750,0
30723.991,40.039,31.738,28.809,34.180,-44.922,0
30723.995,45.898,33.203,29.785,20.996,-42.969,0
30723.998,45.410,40.527,28.809,38.086,92.773,0
30724.002,35.156,39.062,28.809,48.828,94.238,0
30724.006,36.133,38.086,27.344,38.574,-29.785,0
30724.010,39.062,39.062,24.902,27.832,-53.223,0
30724.014,40.039,39.062,24.902,27.832,69.824,0
30724.018,43.945,37.598,24.902,50.781,137.695,0
30724.022,42.480,40.039,23.926,48.828,30.273,0
30724.026,43.457,42.969,24.902,24.902,-49.316,0
30724.030,41.016,39.062,26.855,25.391,45.410,0
30724.034,36.621,34.180,23.926,51.758,135.742,0
30724.037,36.133,32.715,21.973,51.270,66.895,0
30724.041,42.480,33.691,27.344,28.809,-39.062,0
30724.045,46.875,36.133,27.344,20.996,-4.395,0
30724.049,42.969,35.645,25.391,39.551,103.516,0
30724.053,41.016,32.715,25.391,50.293,71.777,0
30724.057,43.457,32.227,24.414,36.621,-60.059,0
30724.061,44.922,31.738,25.391,23.438,-52.246,0
30724.065,37.598,30.762,24.902,27.344,70.801,0
30724.069,35.645,28.320,24.414,50.781,89.844,0
30724.073,41.992,29.785,25.391,45.898,-24.902,0
30724.077,39.551,33.691,27.344,22.949,-68.848,0
30724.080,36.133,32.715,32.227,24.414,38.086,0
30724.084,36.133,28.320,28.809,39.551,106.934,0
30724.088,37.109,26.855,21.973,39.551,18.066,0
30724.092,34.668,28.809,29.297,25.879,-72.754,0
30724.096,28.320,29.297,31.738,25.391,0.977,0
30724.100,37.598,26.367,25.879,42.969,106.934,0
30724.104,46.875,24.414,24.902,46.387,46.387,0
30724.108,33.691,24.414,25.391,27.344,-66.895,0
30724.112,24.414,26.367,25.391,20.996,-26.367,0
30724.116,28.320,29.297,22.461,33.691,97.168,0
30724.120,35.645,25.391,22.461,38.574,81.055,0
30724.123,36.133,22.949,21.973,26.855,-47.363,0
30724.127,34.180,29.297,23.438,22.461,-52.734,0
30724.131,34.668,31.738,24.902,40.527,84.473,0
30724.135,37.109,28.809,23.438,51.270,130.371,0
30724.139,39.551,30.273,23.438,41.016,1.953,0
30724.143,40.039,33.691,25.391,27.344,-67.383,0
30724.147,35.156,31.250,23.926,27.832,41.992,0
30724.151,27.832,27.832,23.926,41.992,120.117,0
30724.155,27.832,28.320,25.391,31.738,20.020,0
30724.159,32.715,30.762,27.344,19.531,-81.543,0
30724.162,30.762,34.668,27.832,24.414,-1.465,0
30724.166,28.809,31.738,25.879,31.738,106.445,0
30724.170,30.273,27.344,21.484,32.715,48.340,0
30724.174,34.668,32.715,20.508,13.184,-67.871,0
30724.178,38.086,33.203,27.344,20.996,-43.945,0
30724.182,38.086,26.855,32.715,36.621,70.801,0
30724.186,27.832,25.391,30.273,30.273,59.082,0
30724.190,24.902,28.809,27.344,21.973,-64.453,0
30724.194,33.203,31.738,27.832,11.719,-75.195,0
30724.198,40.039,32.227,27.344,34.180,61.523,0
30724.202,41.504,34.668,25.879,57.129,110.840,0
30724.205,30.762,34.668,24.902,26.367,-16.602,0
30724.209,27.344,36.133,25.391,5.371,-94.727,0
30724.213,31.738,38.574,26.367,18.066,9.277,0
30724.217,28.320,35.645,26.367,40.039,99.609,0
30724.221,33.203,34.668,24.414,38.574,12.695,0
30724.225,39.062,33.691,23.926,11.230,-86.426,0
30724.229,39.551,34.180,23.438,5.371,-1.465,0
30724.233,38.574,35.645,20.996,25.391,117.188,0
30724.237,33.203,36.621,21.973,37.109,62.012,0
30724.241,30.273,39.062,23.926,24.414,-63.965,0
30724.245,31.738,41.016,24.902,20.020,-53.223,0
30724.248,31.250,38.574,23.438,41.992,73.730,0
30724.252,28.809,35.645,23.438,48.340,87.891,0
30724.256,34.180,36.621,25.879,28.809,-32.227,0
30724.260,35.156,36.133,22.949,11.719,-65.430,0
30724.264,30.273,33.203,22.949,13.672,41.992,0
30724.268,22.461,34.180,23.926,31.738,93.262,0
30724.272,21.973,34.180,21.973,32.715,0.000,0
30724.276,24.414,36.621,23.926,5.859,-61.035,0
30724.280,32.227,40.527,30.273,13.184,36.621,0
30724.284,34.668,39.062,34.668,44.434,102.539,0
30724.287,28.320,41.504,28.809,38.574,6.836,0
30724.291,21.484,38.574,26.367,6.836,-99.609,0
30724.295,14.160,37.598,29.297,1.465,-47.852,0
30724.299,9.766,37.598,28.809,14.648,60.059,0
30724.303,12.207,35.156,28.809,15.137,31.250,0
30724.307,21.973,33.691,29.785,-1.953,-81.055,0
30724.311,16.602,35.645,34.668,-9.277,-78.613,0
30724.315,-4.883,34.180,36.621,-5.371,30.273,0
30724.319,-15.137,29.785,39.062,-11.719,52.734,0
30724.323,-14.160,31.250,41.992,-27.344,-63.965,0
30724.327,-19.043,33.691,41.016,-40.527,-123.535,0
30724.330,-25.391,32.227,41.992,-41.992,-20.020,0
30724.334,-30.762,30.762,41.016,-27.832,46.875,0
30724.338,-35.156,34.180,38.086,-29.785,-51.758,0
30724.342,-40.527,36.621,43.457,-53.223,-140.625,0
30724.346,-45.410,35.156,46.875,-52.734,-67.871,0
30724.350,-44.434,33.203,42.480,-28.320,27.344,0
30724.354,-37.598,38.086,41.504,-20.996,-38.086,0
30724.358,-44.922,36.621,44.922,-53.223,-156.738,0
30724.362,-56.641,33.203,45.898,-78.613,-117.188,0
30724.366,-43.945,37.598,44.922,-50.781,12.695,0
30724.370,-39.551,41.016,40.527,-36.621,-2.441,0
30724.373,-45.898,41.016,38.574,-53.223,-133.789,0
30724.377,-41.504,40.039,39.551,-57.617,-139.648,0
30724.381,-32.715,42.969,39.062,-36.133,-3.906,0
30724.385,-24.902,39.551,35.645,-17.090,25.879,0
30724.389,-24.902,32.715,35.156,-11.230,-104.004,0
30724.393,-17.578,35.645,35.156,-16.113,-149.902,0
30724.397,-1.465,40.039,32.715,-12.695,-21.973,0
30724.401,2.441,37.109,33.691,3.418,67.383,0
30724.405,12.695,35.645,35.645,-0.488,-14.160,0
30724.409,20.996,37.598,32.227,-7.812,-96.680,0
30724.412,21.484,37.598,26.855,1.953,-27.344,0
30724.416,28.809,36.621,27.344,20.020,77.637,0
30724.420,40.039,36.621,31.250,42.969,44.434,0
30724.424,43.457,36.621,28.320,34.180,-61.523,0
30724.428,43.945,36.133,26.855,30.273,-31.738,0
30724.432,53.711,37.109,27.344,58.105,93.262,0
30724.436,61.035,36.621,23.438,69.824,91.797,0
30724.440,56.152,38.086,24.414,57.129,-35.645,0
30724.444,56.641,36.621,25.879,47.852,-66.895,0
30724.448,59.082,30.762,23.926,62.500,48.828,0
30724.452,57.617,27.344,22.461,71.777,106.445,0
30724.455,58.594,29.785,24.414,64.941,3.418,0
30724.459,68.359,33.203,27.832,55.664,-62.500,0
30724.463,72.266,32.227,27.832,64.941,41.016,0
30724.467,68.359,24.414,25.391,86.426,138.184,0
30724.471,76.660,22.461,24.902,87.891,68.848,0
30724.475,76.172,26.855,25.879,66.895,-32.227,0
30724.479,70.801,31.738,27.344,62.988,26.855,0
30724.483,64.453,31.250,26.367,89.844,127.930,0
30724.487,61.523,27.832,23.926,96.191,81.055,0
30724.491,68.359,29.785,22.461,83.008,-31.738,0
30724.495,69.824,31.250,25.391,65.918,-17.090,0
30724.498,68.359,32.227,26.367,70.801,103.516,0
30724.502,74.219,29.297,23.926,87.402,115.723,0
30724.506,73.242,24.414,21.484,68.848,-0.488,0
30724.510,73.730,28.320,26.367,47.363,-26.855,0
30724.514,69.336,30.762,29.297,62.012,80.566,0
30724.518,62.012,26.367,25.391,79.102,123.535,0
30724.522,59.570,25.879,23.438,77.637,21.484,0
30724.526,65.430,29.297,21.484,58.105,-63.477,0
30724.530,70.312,31.738,22.949,50.781,11.719,0
30724.534,67.383,32.227,22.949,70.312,111.328,0
30724.537,63.477,30.762,24.414,74.707,47.852,1
30724.541,54.688,30.762,26.367,57.129,-71.289,0
30724.545,50.781,30.273,25.391,55.176,-26.367,0
30724.549,50.293,28.320,25.391,79.590,99.121,0
30724.553,55.664,28.320,26.367,81.543,85.449,0
30724.557,55.664,30.762,26.367,61.035,-25.391,0
30724.561,59.570,33.203,27.344,52.246,-20.020,0
30724.565,62.012,30.762,22.949,62.012,93.750,0
30724.569,59.082,27.832,18.066,74.219,114.746,0
30724.573,61.035,29.785,22.461,58.105,-0.977,0
30724.577,56.152,30.762,25.391,39.062,-43.945,0
30724.580,50.293,29.297,25.391,41.992,67.383,0
30724.584,42.969,27.344,22.949,53.711,126.465,0
30724.588,49.805,31.250,17.578,55.176,28.320,0
30724.592,57.617,32.227,19.043,38.086,-61.035,0
30724.596,53.223,30.762,23.926,42.969,15.137,0
30724.600,42.480,30.762,24.414,65.430,113.770,0
30724.604,35.645,30.762,25.879,58.594,48.828,0
30724.608,37.109,30.762,28.809,32.715,-76.660,0
30724.612,39.062,31.250,26.367,26.855,-50.781,0
30724.616,41.992,32.227,24.902,53.711,82.520,0
30724.620,48.340,31.250,25.391,66.895,93.750,0
30724.623,45.898,31.738,25.391,44.922,-22.949,0
30724.627,42.969,33.203,27.832,33.203,-55.664,0
30724.631,50.293,35.156,27.832,50.781,55.176,0
30724.635,54.688,32.227,26.367,60.547,106.934,0
30724.639,54.688,31.250,23.438,46.387,10.254,0
30724.643,53.711,37.598,24.414,36.133,-45.410,0
30724.647,52.734,36.133,26.855,43.945,54.688,0
30724.651,54.199,30.273,24.414,52.734,130.859,0
30724.655,55.176,29.785,24.414,46.387,42.969,0
30724.659,48.828,34.180,24.902,31.738,-55.176,0
30724.662,44.434,34.180,24.902,36.621,7.324,0
30724.666,51.758,27.832,26.855,64.941,116.211,0
30724.670,53.711,27.344,28.320,63.965,61.523,0
30724.674,48.828,31.738,27.344,43.457,-64.941,0
30724.678,51.270,33.691,26.855,38.086,-31.738,0
30724.682,49.805,33.691,26.367,42.480,103.027,0
30724.686,47.363,33.691,22.949,55.176,96.680,0
30724.690,41.992,34.668,24.414,47.363,-39.062,0
30724.694,34.668,35.645,25.879,37.109,-77.637,0
30724.698,37.109,33.691,22.461,42.969,41.504,0
30724.702,43.945,32.227,22.461,53.711,105.957,0
30724.705,39.551,30.273,23.438,42.969,-14.160,0
30724.709,33.203,32.227,24.414,24.902,-105.957,0
30724.713,35.156,34.668,24.902,20.996,-2.930,0
30724.717,35.156,29.785,23.926,28.809,97.168,0
30724.721,38.086,26.855,24.902,35.156,19.531,0
30724.725,36.621,31.738,26.367,22.461,-86.426,0
30724.729,31.250,34.668,25.879,16.602,-30.273,0
30724.733,36.133,34.180,24.902,32.715,84.473,0
30724.737,42.480,33.691,24.414,39.551,50.781,0
30724.741,42.969,37.598,28.320,23.438,-61.035,0
30724.745,38.086,38.574,29.297,16.113,-54.199,0
30724.748,38.086,36.133,26.367,27.832,63.965,0
30724.752,41.504,38.086,28.809,42.480,90.820,0
30724.756,41.504,37.598,26.367,32.227,-21.973,0
30724.760,47.852,37.598,27.344,21.484,-60.547,0
30724.764,48.340,38.574,28.809,30.273,58.594,0
30724.768,34.180,32.715,26.855,44.922,119.141,0
30724.772,38.086,30.762,25.391,41.504,10.254,0
30724.776,41.016,38.086,26.855,25.391,-70.312,0
30724.780,41.016,41.016,30.273,31.250,21.484,0
30724.784,46.387,38.086,29.785,61.035,120.117,0
30724.787,41.504,35.156,26.367,63.965,52.246,0
30724.791,38.574,34.180,24.902,32.227,-65.918,0
30724.795,42.480,35.645,26.367,14.160,-32.227,0
30724.799,38.574,32.715,29.785,28.320,97.656,0
30724.803,41.504,31.250,27.832,46.875,93.750,0
30724.807,47.363,31.738,27.344,34.180,-41.992,0
30724.811,50.293,32.227,30.273,29.785,-55.664,0
30724.815,49.805,33.203,29.785,49.316,79.590,0
30724.819,45.898,35.156,27.832,59.082,103.516,0
30724.823,46.387,38.086,27.344,47.363,-21.973,0
30724.827,42.480,38.086,28.320,26.855,-72.266,0
30724.830,38.086,37.109,27.832,35.645,33.691,0
30724.834,38.086,32.715,27.344,46.875,101.074,0
30724.838,39.062,29.297,29.297,33.691,9.277,0
30724.842,41.992,30.273,30.273,30.762,-74.707,0
30724.846,46.387,34.668,29.785,39.062,0.977,0
30724.850,43.945,36.621,27.832,51.758,96.191,0
30724.854,42.969,29.785,28.809,47.852,40.527,0
30724.858,42.969,29.785,30.762,24.414,-69.824,0
30724.862,38.086,34.668,27.344,21.484,-39.062,0
30724.866,40.039,28.809,26.855,34.668,80.078,0
30724.870,40.039,26.855,28.809,55.176,80.078,0
30724.873,38.086,32.715,29.297,52.246,-31.738,0
30724.877,40.039,32.715,28.809,29.785,-46.875,0
30724.881,39.551,31.250,26.367,38.086,73.730,0
30724.885,40.527,29.297,26.367,61.035,121.094,0
30724.889,43.457,31.738,28.320,45.898,8.301,0
30724.893,49.316,34.180,30.273,25.879,-72.266,0
30724.897,46.875,32.227,30.273,37.598,17.578,0
30724.901,39.062,28.320,32.227,52.734,109.863,0
30724.905,37.109,26.855,31.738,45.898,31.250,0
30724.909,37.109,28.320,29.785,26.367,-77.148,0
30724.912,41.992,31.250,29.297,26.855,-28.809,0
30724.916,41.504,31.738,28.320,47.363,87.891,0
30724.920,38.574,30.762,26.855,47.363,57.129,0
30724.924,34.180,33.203,25.391,22.949,-67.383,0
30724.928,28.809,33.203,27.832,14.648,-53.223,0
30724.932,25.391,32.227,27.344,35.156,76.172,0
30724.936,33.691,28.320,24.414,47.852,87.402,0
30724.940,39.551,30.273,25.879,26.855,-48.340,0
30724.944,30.762,32.715,27.832,5.371,-86.914,0
30724.948,29.297,27.832,25.879,18.066,34.180,0
30724.952,33.691,22.949,26.367,41.504,104.980,0
30724.955,30.273,20.508,27.344,32.715,9.277,0
30724.959,25.391,21.484,29.297,12.207,-76.172,0
30724.963,32.227,22.949,31.738,21.484,4.395,0
30724.967,41.992,21.484,32.227,50.293,104.004,0
30724.971,42.969,21.973,31.250,46.875,43.945,0
30724.975,34.668,28.809,26.367,16.113,-64.453,0
30724.979,28.320,32.227,28.809,9.277,-28.320,0
30724.983,26.855,27.832,30.762,27.832,87.891,0
30724.987,29.785,20.020,28.809,44.434,72.754,0
30724.991,31.250,19.043,31.738,29.297,-66.895,0
30724.995,31.738,24.414,32.227,13.184,-83.984,0
30724.998,38.086,26.367,33.691,24.414,52.246,0
30725.002,32.227,25.879,29.297,37.109,88.379,0
30725.006,28.320,29.297,22.949,30.273,-31.738,0
30725.010,26.367,31.250,29.785,18.066,-86.426,0
30725.014,23.438,33.691,32.715,24.414,25.879,0
30725.018,21.973,30.762,29.297,49.316,104.004,0
30725.022,22.949,24.902,27.832,48.828,18.555,0
30725.026,26.367,27.344,30.273,20.020,-70.801,0
30725.030,22.461,26.855,32.227,13.184,4.395,0
30725.034,18.555,20.508,33.203,39.551,116.699,0
30725.037,29.297,20.508,34.180,50.781,55.664,0
30725.041,29.785,25.391,33.691,33.203,-63.477,0
30725.045,23.926,26.855,34.180,20.508,-28.320,1
30725.049,32.227,22.949,36.133,33.691,91.797,0
30725.053,35.156,22.461,36.133,54.199,85.938,0
30725.057,33.691,27.344,36.621,44.434,-35.156,0
30725.061,33.203,28.320,35.645,24.902,-53.711,0
30725.065,39.062,30.762,34.180,33.691,70.312,0
30725.069,42.480,33.691,33.691,50.293,112.305,0
30725.073,36.621,30.762,32.715,41.992,-14.160,0
30725.077,36.133,24.902,33.203,20.020,-78.613,0
30725.080,38.574,27.344,34.668,44.434,43.457,0
30725.084,44.922,32.227,32.227,58.594,131.836,0
30725.088,47.852,32.715,30.273,25.391,34.668,0
30725.092,49.805,35.156,31.250,18.555,-66.895,0
30725.096,51.270,38.574,29.785,25.391,-2.930,0
30725.100,50.293,34.668,28.809,38.574,105.469,0
30725.104,46.875,31.250,26.367,46.387,66.895,0
30725.108,41.016,33.203,28.320,33.691,-42.969,0
30725.112,38.086,33.691,29.785,26.855,-26.367,0
30725.116,27.344,27.344,26.855,38.574,86.426,0
30725.120,28.320,25.391,27.832,51.270,90.820,0
30725.123,33.203,24.902,32.227,51.758,-32.227,0
30725.127,30.273,27.344,30.762,31.250,-56.152,0
30725.131,25.879,28.809,26.367,17.090,62.500,0
30725.135,32.227,23.926,23.438,36.621,104.492,0
30725.139,34.668,25.879,22.949,34.668,0.000,0
30725.143,33.203,29.297,23.926,15.625,-57.129,0
30725.147,44.434,30.762,27.344,31.250,36.133,0
30725.151,50.781,34.180,26.367,59.570,131.348,0
30725.155,52.246,31.250,25.391,54.688,69.336,0
30725.159,55.176,29.297,24.902,30.273,-44.434,0
30725.162,50.781,30.273,26.855,29.297,-2.441,0
30725.166,45.410,28.320,24.414,36.133,110.352,0
30725.170,48.340,27.832,20.020,41.992,75.684,0
30725.174,42.969,31.738,24.414,37.109,-56.641,0
30725.178,37.598,35.645,27.832,21.973,-49.805,0
30725.182,37.598,34.180,26.855,35.156,82.520,0
30725.186,34.668,31.250,27.832,50.781,88.379,0
30725.190,34.668,33.203,29.297,32.227,-39.062,0
30725.194,40.527,34.668,27.832,18.066,-67.871,0
30725.198,41.992,37.109,28.809,33.691,49.316,0
30725.202,38.574,34.180,30.273,46.875,115.234,0
30725.205,29.297,31.250,28.320,35.645,20.020,0
30725.209,28.809,36.133,29.785,21.484,-73.730,0
30725.213,32.227,35.645,33.203,22.949,3.906,0
30725.217,29.297,32.227,32.227,43.457,112.793,0
30725.221,35.645,34.668,30.273,51.270,53.711,0
30725.225,33.691,33.691,28.320,24.902,-57.617,0
30725.229,30.762,30.273,30.273,21.484,-16.113,0
30725.233,30.273,29.297,29.785,41.016,104.492,0
30725.237,33.203,25.391,27.344,54.199,85.938,0
30725.241,47.852,28.809,28.320,40.527,-38.574,0
30725.245,53.223,35.156,29.785,26.367,-29.297,0
30725.248,46.875,34.180,32.715,46.387,102.051,0
30725.252,49.316,32.715,31.250,56.641,115.723,0
30725.256,53.223,30.762,29.785,38.574,-5.371,0
30725.260,56.641,34.180,33.203,20.996,-59.570,0
30725.264,55.176,36.621,34.180,29.785,40.527,0
30725.268,43.457,29.297,32.227,46.387,115.723,0
30725.272,40.527,29.297,31.250,46.875,27.832,0
30725.276,46.875,34.668,30.762,27.344,-47.363,0
30725.280,50.781,34.180,32.227,21.484,21.973,0
30725.284,48.340,28.809,28.809,43.945,118.652,0
30725.287,41.016,26.855,27.832,56.152,64.941,0
30725.291,43.457,30.762,34.668,47.852,-61.035,0
30725.295,48.828,33.691,35.645,35.156,-25.879,0
30725.299,42.969,33.691,33.691,37.109,98.633,0
30725.303,43.945,30.273,33.691,46.387,86.914,0
30725.307,40.039,31.250,31.250,29.297,-43.457,0
30725.311,33.203,35.156,29.785,14.648,-63.477,0
30725.315,38.574,33.691,29.297,29.785,57.129,0
30725.319,43.945,30.273,29.785,53.711,98.145,0
30725.323,45.410,31.738,26.367,56.152,-13.184,0
30725.327,40.527,35.156,27.344,21.973,-82.031,0
30725.330,34.180,31.250,35.645,15.625,13.672,0
30725.334,28.320,27.344,34.668,46.387,97.656,0
30725.338,34.668,32.715,30.273,56.641,19.043,0
30725.342,40.527,35.645,31.250,17.090,-92.285,0
30725.346,39.551,36.621,32.715,7.812,-34.180,0
30725.350,37.598,35.156,32.227,48.340,86.914,0
30725.354,31.738,27.344,30.273,52.246,44.922,0
30725.358,33.203,28.809,30.762,28.320,-72.754,0
30725.362,38.574,33.203,31.250,24.902,-62.988,0
30725.366,34.180,33.691,28.809,37.109,54.688,0
30725.370,30.273,31.738,28.320,45.410,69.336,0
30725.373,30.273,29.297,29.785,38.574,-50.293,0
30725.377,34.180,33.203,29.297,15.625,-80.566,0
30725.381,34.668,30.762,27.832,23.926,28.809,0
30725.385,31.250,25.879,26.367,35.156,77.148,0
30725.389,34.180,27.344,26.367,17.578,-20.508,0
30725.393,26.855,31.738,28.809,12.207,-83.008,0
30725.397,25.879,31.250,28.320,35.645,-0.488,0
30725.401,35.156,27.344,27.832,48.340,83.008,0
30725.405,33.203,28.320,25.879,35.645,6.348,0
30725.409,34.180,29.785,26.855,20.996,-96.680,0
30725.412,33.691,26.367,32.227,21.973,-27.344,0
30725.416,34.180,27.832,30.762,42.969,94.727,0
30725.420,39.551,28.320,28.809,48.828,48.828,0
30725.424,41.016,27.832,34.180,28.809,-90.820,0
30725.428,42.969,34.180,35.156,11.719,-85.938,0
30725.432,39.062,37.598,35.156,26.855,48.828,0
30725.436,30.762,32.715,36.621,48.828,76.660,0
30725.440,35.645,32.227,35.156,36.621,-41.992,0
30725.444,35.645,31.250,33.203,12.695,-82.031,0
30725.448,33.691,29.785,33.691,22.461,33.691,0
30725.452,36.133,29.785,33.691,42.969,95.215,0
30725.455,33.691,28.809,33.203,39.062,-1.953,0
30725.459,30.762,31.738,31.250,22.461,-84.473,0
30725.463,31.250,30.762,30.273,25.879,-4.395,0
30725.467,38.086,29.785,32.227,44.922,100.098,0
30725.471,39.551,29.785,31.250,44.922,38.574,0
30725.475,35.645,31.738,30.762,24.902,-76.660,0
30725.479,38.574,35.156,30.273,16.602,-32.715,0
30725.483,35.645,34.180,28.809,35.645,87.891,0
30725.487,36.133,30.762,29.297,45.898,77.637,0
30725.491,41.504,30.273,31.738,32.227,-50.293,0
30725.495,38.086,30.762,33.691,17.578,-73.730,0
30725.498,30.273,27.832,32.715,25.391,42.969,0
30725.502,25.391,26.367,27.832,46.875,79.102,0
30725.506,25.879,28.320,24.902,26.367,-30.273,0
30725.510,30.273,34.180,26.367,9.277,-84.473,0
30725.514,41.016,33.203,30.273,23.926,26.855,0
30725.518,41.504,29.297,28.809,41.504,105.469,0
30725.522,32.227,30.273,26.855,43.945,10.742,0
30725.526,33.203,30.273,30.273,27.344,-85.938,0
30725.530,36.133,31.738,33.203,18.066,-23.926,0
30725.534,35.645,31.738,29.785,42.480,80.566,0
30725.537,29.785,27.344,25.391,52.734,37.109,0
30725.541,22.461,25.391,27.344,21.973,-78.613,0
30725.545,20.020,27.344,28.809,12.695,-55.176,0
30725.549,20.020,25.879,26.855,24.414,60.059,0
30725.553,24.414,23.926,26.855,35.156,62.500,0
30725.557,26.367,24.902,27.832,26.367,-51.270,0
30725.561,26.855,27.832,31.738,11.719,-66.895,0
30725.565,27.344,27.832,28.320,24.414,52.734,0
30725.569,25.879,22.949,25.879,47.363,91.797,0
30725.573,23.438,23.926,32.715,38.574,-19.531,0
30725.577,29.785,28.320,34.180,17.090,-83.496,0
30725.580,36.621,29.297,35.645,26.855,22.461,0
30725.584,35.645,26.855,31.250,36.133,105.469,0
30725.588,32.715,22.461,24.414,24.414,6.348,0
30725.592,31.250,25.879,23.926,4.883,-97.168,0
30725.596,34.668,30.762,27.832,12.207,-19.043,0
30725.600,40.527,31.250,31.738,43.945,100.586,0
30725.604,33.691,30.273,31.250,44.434,47.363,1
30725.608,29.785,27.832,28.320,29.297,-73.242,0
30725.612,33.203,29.297,28.320,20.508,-41.504,0
30725.616,30.273,29.297,27.344,31.250,74.219,0
30725.620,34.180,27.832,28.809,51.758,86.426,0
30725.623,38.086,27.832,32.227,38.086,-35.645,0
30725.627,37.598,31.250,31.738,19.043,-91.797,0
30725.631,36.133,31.738,27.832,30.273,17.090,0
30725.635,28.809,24.414,27.344,48.340,83.984,0
30725.639,29.785,25.879,28.320,41.016,-0.977,0
30725.643,41.016,31.250,26.855,20.508,-78.125,0
30725.647,35.645,29.297,24.902,25.879,-1.465,0
30725.651,23.926,29.297,23.926,51.758,102.051,0
30725.655,37.598,31.250,22.461,46.875,35.156,0
30725.659,41.504,32.227,22.461,28.809,-86.914,0
30725.662,27.344,31.250,23.438,26.855,-41.016,0
30725.666,26.855,27.832,23.438,37.598,86.914,0
30725.670,30.273,25.391,22.461,42.480,68.359,0
30725.674,35.156,24.902,21.973,25.391,-58.594,0
30725.678,35.156,26.855,23.438,20.508,-65.918,0
30725.682,28.809,27.344,26.855,34.668,64.453,0
30725.686,32.227,27.832,21.973,38.574,100.098,0
30725.690,37.598,30.762,18.066,25.391,-17.578,0
30725.694,37.598,31.250,22.461,13.184,-63.965,0
30725.698,47.363,30.273,25.391,34.180,62.500,0
30725.702,45.898,28.320,22.461,54.199,144.531,0
30725.705,41.992,28.320,23.438,51.758,36.621,0
30725.709,46.875,31.738,23.926,41.016,-70.801,0
30725.713,44.922,32.715,19.043,22.461,11.719,0
30725.717,39.062,30.273,19.043,34.668,118.164,0
30725.721,41.016,29.297,21.484,46.875,49.316,0
30725.725,38.574,31.738,22.461,30.762,-55.176,0
30725.729,36.621,33.691,22.949,25.879,-0.977,0
30725.733,41.504,33.203,24.902,43.945,108.887,0
30725.737,38.086,29.785,24.902,53.223,76.172,0
30725.741,37.109,29.785,24.414,35.156,-47.852,0
30725.745,32.715,33.203,22.949,21.973,-67.383,0
30725.748,26.367,29.297,19.531,37.598,41.016,0
30725.752,29.785,24.902,22.461,51.758,83.008,0
30725.756,29.785,23.438,24.902,37.598,-27.344,0
30725.760,31.738,24.902,28.320,24.414,-84.473,0
30725.764,29.785,25.879,30.762,29.785,22.949,0
30725.768,29.297,25.879,26.855,38.574,104.980,0
30725.772,35.645,26.855,25.879,42.480,10.742,0
30725.776,32.715,28.320,26.855,31.738,-95.703,0
30725.780,25.879,29.785,30.762,27.832,-20.996,0
30725.784,24.902,27.832,28.809,38.574,100.098,0
30725.787,32.227,26.855,20.508,44.922,57.129,0
30725.791,35.645,30.762,23.438,25.879,-62.012,0
30725.795,29.785,29.297,29.785,16.113,-35.645,0
30725.799,27.832,27.832,30.273,43.457,91.309,0
30725.803,32.227,29.785,27.832,47.363,90.820,0
30725.807,30.273,30.273,25.879,22.949,-42.969,0
30725.811,32.227,31.738,27.832,0.488,-65.918,0
30725.815,36.621,32.227,31.250,20.020,61.035,0
30725.819,41.504,33.691,29.297,46.875,111.328,0
30725.823,37.109,34.180,22.949,37.109,-14.648,0
30725.827,29.297,37.109,23.926,18.555,-88.867,0
30725.830,35.156,40.039,26.855,21.973,25.391,0
30725.834,30.273,32.715,23.926,38.086,113.770,0
30725.838,26.855,28.320,22.949,33.691,27.832,0
30725.842,33.203,35.645,23.926,14.160,-79.590,0
30725.846,36.133,38.574,23.926,19.043,-20.996,0
30725.850,38.574,37.109,23.926,41.504,98.633,0
30725.854,36.133,34.180,23.926,41.016,79.590,0
30725.858,33.691,31.738,25.391,36.621,-39.551,0
30725.862,41.016,34.180,23.926,21.973,-47.852,0
30725.866,41.992,38.086,21.973,22.949,76.660,0
30725.870,34.668,32.715,22.461,43.945,98.633,0
30725.873,34.668,28.809,21.973,31.738,-26.367,0
30725.877,36.621,33.203,23.438,10.742,-72.754,0
30725.881,33.691,31.250,24.414,31.250,37.109,0
30725.885,29.785,29.785,23.438,55.176,103.516,0
30725.889,27.832,25.879,25.879,39.551,6.348,0
30725.893,30.762,30.273,25.879,14.648,-71.777,0
30725.897,38.086,31.250,24.414,23.926,7.812,0
30725.901,34.668,26.855,24.902,44.434,98.145,0
30725.905,33.691,26.855,21.484,40.527,31.250,0
30725.909,35.156,28.809,25.391,26.367,-81.543,0
30725.912,30.762,28.809,31.738,26.367,-36.133,0
30725.916,24.902,24.414,29.297,37.598,84.961,0
30725.920,25.391,23.926,26.367,43.457,63.477,0
30725.924,32.227,27.344,25.391,36.133,-61.035,0
30725.928,36.133,26.855,24.902,30.273,-66.895,0
30725.932,35.156,26.367,24.414,25.879,55.664,0
30725.936,32.227,28.320,23.438,34.180,94.238,0
30725.940,34.180,25.391,24.414,34.668,-17.090,0
30725.944,42.480,24.902,25.879,15.137,-69.824,0
30725.948,38.086,23.438,24.902,24.414,52.734,0
30725.952,29.785,24.414,23.926,43.945,129.883,0
30725.955,39.062,27.832,25.391,44.922,18.555,0
30725.959,40.039,30.273,30.762,27.344,-74.219,0
30725.963,29.785,33.203,33.203,23.926,0.977,0
30725.967,33.691,32.227,30.762,47.852,98.633,0
30725.971,41.504,29.297,28.320,52.246,35.645,0
30725.975,43.945,31.738,30.273,28.320,-80.078,0
30725.979,36.621,37.109,31.250,24.902,-40.039,0
30725.983,34.668,34.180,27.832,34.180,77.148,0
30725.987,39.062,29.785,26.855,42.969,74.707,0
30725.991,40.039,31.738,25.391,38.574,-38.574,0
30725.995,41.992,33.203,30.273,33.203,-49.805,0
30725.998,40.527,34.180,36.133,41.504,71.777,0
30726.002,40.527,34.180,34.668,51.758,120.605,0
30726.006,43.457,35.645,30.762,48.828,5.371,0
30726.010,40.527,35.645,31.738,20.020,-73.730,0
30726.014,31.738,33.691,30.273,13.672,26.855,0
30726.018,35.645,30.762,29.297,41.992,109.863,0
30726.022,41.992,30.762,28.809,44.434,19.531,0
30726.026,37.598,34.180,23.926,19.531,-76.660,0
30726.030,35.645,35.156,26.367,22.949,-3.418,0
30726.034,39.062,33.691,29.297,39.062,102.539,0
30726.037,40.039,32.715,24.902,43.945,55.176,0
30726.041,41.504,37.109,23.438,31.250,-54.199,0
30726.045,38.086,36.133,26.367,18.555,-24.414,0
30726.049,40.527,30.762,25.879,42.969,105.957,0
30726.053,42.969,29.297,20.508,65.918,102.051,0
30726.057,39.551,30.273,20.020,46.387,-33.203,0
30726.061,47.363,34.180,22.949,9.766,-56.641,0
30726.065,48.828,32.715,21.973,20.508,65.918,0
30726.069,44.434,30.762,22.949,48.340,114.746,0
30726.073,43.945,34.668,21.973,41.504,-3.906,0
30726.077,42.969,35.645,22.461,25.391,-80.078,0
30726.080,41.504,35.645,25.391,36.133,23.438,0
30726.084,43.457,32.715,25.391,51.270,120.605,0
30726.088,46.387,31.738,23.926,45.898,48.340,0
30726.092,43.457,33.691,24.414,25.879,-62.500,0
30726.096,31.250,33.203,27.832,22.949,-21.973,0
30726.100,28.809,32.227,28.320,49.316,97.656,0
30726.104,30.273,31.738,28.320,49.805,69.824,0
30726.108,29.297,30.762,24.902,22.949,-51.270,0
30726.112,35.156,32.715,26.367,20.508,-41.992,0
30726.116,41.016,30.762,34.668,38.574,78.613,0
30726.120,39.551,26.367,33.203,48.828,104.492,0
30726.123,30.762,27.344,28.320,36.621,-21.973,0
30726.127,35.156,29.297,28.809,22.949,-65.430,0
30726.131,38.086,29.785,31.250,26.855,44.434,0
30726.135,26.855,28.809,30.762,40.527,93.262,0
30726.139,21.484,31.738,31.250,37.109,-6.348,0
30726.143,20.508,35.645,34.668,21.484,-87.891,0
30726.147,25.879,32.715,32.227,29.785,-0.977,0
30726.151,32.715,28.320,29.297,48.828,109.375,0
30726.155,28.320,27.832,27.344,43.457,41.992,0
30726.159,33.203,32.715,26.855,19.531,-72.266,0
30726.162,27.344,33.203,30.273,13.184,-38.086,0
30726.166,17.578,26.855,28.809,32.715,74.219,0
30726.170,25.391,26.855,24.414,53.711,68.359,0
30726.174,27.344,29.297,24.414,34.180,-43.457,0
30726.178,22.461,30.273,25.879,6.348,-52.734,0
30726.182,24.414,32.227,26.367,23.926,59.570,0
30726.186,27.344,29.785,24.902,46.875,79.590,0
30726.190,23.926,30.273,23.926,41.992,-36.621,0
30726.194,24.414,31.738,27.344,23.926,-84.961,1
30726.198,31.250,33.203,27.832,26.855,26.367,0
30726.202,32.227,34.180,28.320,54.199,110.840,0
30726.205,25.391,30.273,26.367,55.664,24.902,0
30726.209,29.297,30.762,23.438,21.484,-77.637,0
30726.213,38.086,34.668,24.414,8.789,-10.742,0
30726.217,40.527,33.691,21.973,42.969,104.492,0
30726.221,37.109,31.738,22.949,48.340,56.152,0
30726.225,35.156,33.691,28.320,21.973,-63.477,0
30726.229,43.945,35.645,29.785,21.973,-31.738,0
30726.233,46.875,33.203,28.320,40.039,82.520,0
30726.237,43.457,32.227,25.391,57.129,69.824,0
30726.241,48.828,34.180,28.809,42.480,-54.199,0
30726.245,43.457,34.180,31.250,19.531,-74.219,0
30726.248,39.062,31.738,28.809,29.785,54.688,0
30726.252,40.527,27.832,25.391,48.340,116.211,0
30726.256,34.668,27.344,25.879,40.039,-0.488,0
30726.260,31.738,27.832,27.832,20.020,-88.867,0
30726.264,32.227,26.855,28.320,23.926,2.930,0
30726.268,28.809,26.855,27.344,46.875,94.727,0
30726.272,25.879,27.832,24.414,44.922,7.812,0
30726.276,27.832,29.785,24.902,29.297,-102.539,0
30726.280,31.738,31.738,25.391,17.578,-30.273,0
30726.284,33.691,32.227,25.391,23.926,90.332,0
30726.287,43.457,30.273,24.902,44.434,39.062,0
30726.291,45.410,29.785,27.832,28.809,-78.613,0
30726.295,40.527,33.203,33.203,12.695,-52.734,0
30726.299,46.875,32.227,30.762,38.086,76.660,0
30726.303,44.922,29.297,26.855,56.641,90.332,0
30726.307,38.574,30.273,29.297,38.574,-35.156,0
30726.311,42.480,32.715,29.297,29.785,-60.547,0
30726.315,41.016,33.203,29.785,33.203,60.547,0
30726.319,41.992,31.250,31.250,46.875,119.141,0
30726.323,44.434,30.273,28.809,44.434,11.719,0
30726.327,43.945,32.227,27.344,24.414,-73.242,0
30726.330,47.852,33.691,30.273,37.109,25.879,0
30726.334,41.992,29.785,32.227,57.617,128.418,0
30726.338,38.086,30.273,28.320,46.387,40.527,0
30726.342,44.922,34.668,27.832,27.344,-83.496,0
30726.346,39.062,34.668,28.320,25.879,-33.691,0
30726.350,32.227,32.227,26.855,40.527,85.938,0
30726.354,34.668,29.785,27.832,47.363,54.688,0
30726.358,28.809,29.785,29.785,41.992,-71.289,0
30726.362,20.020,29.785,27.832,22.949,-68.848,0
30726.366,19.043,28.320,24.902,21.973,50.781,0
30726.370,23.926,31.250,24.414,39.551,66.406,0
30726.373,26.855,32.227,24.902,31.250,-52.246,0
30726.377,35.156,34.668,26.855,13.672,-91.309,0
30726.381,32.227,36.621,28.320,20.020,16.602,0
30726.385,26.367,31.250,27.344,48.340,85.938,0
30726.389,27.832,29.297,25.391,44.922,-5.371,0
30726.393,29.297,32.227,26.367,16.113,-83.984,0
30726.397,34.668,34.180,30.762,21.484,6.348,0
30726.401,33.203,32.227,28.320,42.969,104.492,0
30726.405,29.785,30.273,22.949,35.645,47.852,0
30726.409,26.367,29.297,20.996,14.648,-69.336,0
30726.412,28.320,31.250,24.902,12.207,-45.898,0
30726.416,28.809,30.762,28.809,37.598,81.055,0
30726.420,30.762,29.785,28.320,49.316,75.684,0
30726.424,39.551,33.203,28.809,31.738,-42.480,0
30726.428,39.551,34.668,31.250,20.020,-49.805,0
30726.432,27.832,32.715,28.320,30.762,74.707,0
30726.436,27.344,25.391,25.391,44.922,118.164,0
30726.440,32.715,23.438,32.715,39.551,-2.441,0
30726.444,23.926,23.438,36.621,16.602,-77.637,0
30726.448,23.438,22.949,32.227,25.879,22.461,0
30726.452,35.156,23.438,30.762,56.641,104.980,0
30726.455,33.691,22.949,29.297,44.434,14.648,0
30726.459,25.879,27.832,28.320,20.996,-84.961,0
30726.463,28.809,28.809,29.785,15.137,-6.836,0
30726.467,31.250,27.344,27.832,33.203,105.469,0
30726.471,32.227,27.832,25.391,41.992,57.129,0
30726.475,31.738,28.320,24.414,23.438,-69.824,0
30726.479,39.062,32.227,28.809,20.996,-56.641,0
30726.483,39.062,32.227,28.809,41.016,75.195,0
30726.487,37.598,27.832,25.879,50.781,85.449,0
30726.491,42.480,27.832,29.785,34.668,-38.086,0
30726.495,38.574,26.367,30.273,24.902,-67.871,0
30726.498,41.016,29.785,29.297,42.480,55.176,0
30726.502,38.574,30.762,28.320,51.270,102.051,0
30726.506,36.621,25.879,26.855,40.039,-26.367,0
30726.510,36.621,28.809,30.273,15.625,-99.121,0
30726.514,41.504,32.715,29.297,9.277,7.812,0
30726.518,44.434,33.203,21.484,46.387,100.586,0
30726.522,38.086,32.715,24.902,60.547,20.996,0
30726.526,31.250,35.645,31.738,30.762,-84.961,0
30726.530,30.762,36.133,31.250,32.227,-21.973,0
30726.534,32.227,32.715,30.762,50.293,96.680,0
30726.537,29.297,31.250,31.250,46.387,62.012,0
30726.541,29.297,31.738,30.273,40.527,-56.152,0
30726.545,31.738,32.227,30.762,28.809,-45.898,0
30726.549,33.691,30.762,30.762,32.715,67.383,0
30726.553,36.621,30.273,28.320,41.504,81.055,0
30726.557,34.668,29.785,30.762,27.344,-34.180,0
30726.561,34.180,28.809,31.738,17.090,-77.637,0
30726.565,38.574,30.762,27.832,28.320,36.133,0
30726.569,33.203,30.273,25.879,38.086,91.309,0
30726.573,22.949,25.391,25.879,21.484,-22.949,0
30726.577,28.809,27.832,26.367,9.277,-97.656,0
30726.580,30.762,32.715,28.809,21.973,2.930,0
30726.584,31.738,30.762,28.809,38.574,101.562,0
30726.588,37.109,28.320,25.391,39.062,28.809,0
30726.592,38.086,30.273,27.344,25.391,-74.707,0
30726.596,35.156,32.227,29.297,20.996,-21.973,0
30726.600,38.086,32.227,28.320,39.062,91.309,0
30726.604,41.504,28.809,26.367,51.758,57.617,0
30726.608,33.691,27.832,28.809,34.668,-63.965,0
30726.612,27.344,32.227,27.832,18.066,-56.641,0
30726.616,27.832,33.203,26.855,37.109,61.035,0
30726.620,28.809,31.738,30.273,48.340,85.938,0
30726.623,29.785,32.227,28.809,26.855,-37.598,0
30726.627,37.109,30.762,29.297,18.555,-89.844,0
30726.631,35.645,30.273,31.250,29.297,27.344,0
30726.635,24.414,26.855,32.227,38.574,93.262,0
30726.639,20.508,26.367,31.738,33.691,-4.395,0
30726.643,28.320,30.273,31.738,16.113,-88.867,0
30726.647,35.645,33.203,30.762,21.973,-1.953,0
30726.651,33.203,33.203,28.320,45.898,113.281,0
30726.655,36.133,32.227,27.344,44.434,55.176,0
30726.659,41.992,34.180,26.855,18.555,-75.684,0
30726.662,41.992,38.574,27.344,13.672,-53.711,0
30726.666,43.945,37.109,28.320,43.945,87.402,0
30726.670,35.645,32.715,27.344,52.734,85.449,0
30726.674,34.180,32.715,27.344,30.762,-57.129,0
30726.678,45.898,34.668,28.809,21.973,-73.730,0
30726.682,40.527,36.133,24.414,31.738,54.688,0
30726.686,39.551,34.668,21.973,44.922,99.609,0
30726.690,41.016,34.668,21.973,35.645,-9.766,0
30726.694,39.551,37.109,22.949,25.391,-67.871,0
30726.698,39.551,35.645,26.367,37.109,24.414,0
30726.702,38.574,30.273,24.414,51.758,97.656,0
30726.705,38.574,31.250,26.855,47.363,21.484,0
30726.709,39.551,34.668,32.227,21.484,-71.289,0
30726.713,44.434,34.668,28.320,19.043,-4.883,0
30726.717,44.922,32.715,26.367,38.574,107.910,0
30726.721,41.992,31.250,31.738,42.969,60.059,1
30726.725,36.133,31.738,34.668,32.227,-70.312,0
30726.729,36.621,35.156,33.203,33.203,-41.504,0
30726.733,42.969,34.668,30.273,51.758,86.426,0
30726.737,39.062,31.250,29.785,51.270,88.379,0
30726.741,36.133,32.227,30.762,33.203,-23.438,0
30726.745,36.621,34.180,31.738,14.648,-49.805,0
30726.748,34.180,33.203,31.250,24.414,57.129,0
30726.752,36.621,28.809,33.203,46.387,100.586,0
30726.756,35.156,27.832,33.203,41.504,-1.953,0
30726.760,35.645,32.227,32.715,29.785,-65.918,0
30726.764,39.551,35.156,32.715,32.715,19.531,0
30726.768,31.250,30.762,27.832,39.551,100.098,0
30726.772,29.297,27.832,26.367,43.945,27.344,0
30726.776,32.227,29.785,29.785,40.527,-81.543,0
30726.780,32.715,36.133,36.621,29.785,-22.461,0
30726.784,33.203,33.203,36.133,28.809,102.051,0
30726.787,31.738,27.832,31.738,40.527,69.824,0
30726.791,30.762,30.762,32.227,41.992,-51.758,0
30726.795,34.668,31.738,34.180,34.180,-42.969,0
30726.799,36.133,29.785,34.668,42.969,79.590,0
30726.803,28.320,26.855,34.180,48.340,104.004,0
30726.807,26.855,31.250,34.180,19.043,-13.184,0
30726.811,32.227,36.133,29.297,4.883,-62.012,0
30726.815,36.133,33.691,24.902,28.320,47.363,0
30726.819,35.156,28.320,32.227,53.223,110.840,0
30726.823,37.598,29.297,37.109,38.574,6.348,0
30726.827,39.551,33.691,37.598,17.090,-82.520,0
30726.830,40.039,32.715,35.645,25.391,17.578,0
30726.834,36.133,32.227,34.668,47.852,131.836,0
30726.838,34.668,28.809,37.109,53.223,57.617,0
30726.842,36.133,28.809,32.715,28.320,-55.664,0
30726.846,31.738,30.273,29.785,21.484,1.465,0
30726.850,24.902,29.297,31.250,52.246,106.445,0
30726.854,26.367,26.855,26.855,55.664,61.523,0
30726.858,33.203,28.320,25.391,19.043,-62.500,0
30726.862,30.273,35.156,28.809,16.113,-60.059,0
30726.866,35.645,33.691,28.809,47.852,72.754,0
30726.870,40.527,29.297,29.297,69.336,109.863,0
30726.873,38.574,28.809,29.785,51.270,-12.695,0
30726.877,43.945,30.273,31.738,22.461,-74.219,0
30726.881,44.922,31.738,33.203,28.320,34.668,0
30726.885,37.109,28.809,31.250,43.457,105.957,0
30726.889,31.250,26.855,29.297,42.969,14.160,0
30726.893,33.203,33.203,30.762,26.855,-69.824,0
30726.897,34.668,37.598,25.391,19.531,0.977,0
30726.901,34.180,30.273,26.855,46.387,115.234,0
30726.905,41.016,28.320,30.273,50.781,73.242,0
30726.909,43.457,33.691,29.785,25.391,-48.828,0
30726.912,41.016,38.574,31.738,20.020,-18.066,0
30726.916,37.598,37.109,29.785,36.621,102.051,0
30726.920,35.645,33.203,28.320,43.457,93.262,0
30726.924,38.086,34.668,29.297,28.809,-31.250,0
30726.928,39.551,35.156,31.250,24.902,-59.570,0
30726.932,28.320,33.203,29.785,34.180,57.617,0
30726.936,24.902,29.785,26.855,50.293,111.816,0
30726.940,29.785,29.297,29.785,42.969,5.859,0
30726.944,28.320,33.203,31.738,20.020,-66.895,0
30726.948,34.180,32.715,27.832,26.367,25.879,0
30726.952,35.156,30.762,27.832,50.293,110.352,0
30726.955,30.762,28.809,26.855,52.734,31.738,0
30726.959,38.574,29.297,27.832,42.969,-65.430,0
30726.963,42.969,31.250,31.738,40.039,-3.418,0
30726.967,43.457,29.297,32.715,52.246,110.352,0
30726.971,41.016,27.344,31.250,60.547,64.453,0
30726.975,38.574,31.738,30.273,35.645,-51.270,0
30726.979,39.062,34.180,31.250,16.602,-31.250,0
30726.983,36.621,31.250,29.785,41.992,86.914,0
30726.987,39.551,30.762,25.391,54.688,95.703,0
30726.991,38.574,30.273,26.855,38.086,-27.344,0
30726.995,39.551,30.273,30.273,25.879,-54.199,0
30726.998,41.504,36.133,28.320,41.992,64.941,0
30727.002,37.109,36.133,27.832,64.453,107.910,0
30727.006,35.156,32.715,27.344,45.410,-9.766,0
30727.010,37.109,34.180,27.344,4.395,-83.984,0
30727.014,40.527,35.156,28.809,8.301,6.836,0
30727.018,31.250,31.250,27.832,43.457,95.703,0
30727.022,20.020,29.785,25.391,41.992,10.742,0
30727.026,21.973,33.691,25.391,12.207,-93.750,0
30727.030,21.973,32.715,25.391,5.371,-38.574,0
30727.034,18.555,27.344,25.391,21.484,68.848,0
30727.037,26.855,30.762,24.414,29.297,36.133,0
30727.041,32.715,36.133,22.949,23.926,-83.008,0
30727.045,28.809,33.691,23.438,12.695,-75.195,0
30727.049,36.621,33.691,22.949,20.020,51.758,0
30727.053,41.504,33.691,21.973,40.527,72.266,0
30727.057,33.691,32.715,22.949,29.297,-41.016,0
30727.061,33.691,36.133,25.391,6.836,-76.660,0
30727.065,35.645,36.621,23.438,17.090,36.621,0
30727.069,38.086,32.715,21.973,46.875,110.840,0
30727.073,38.574,33.691,24.414,47.363,8.789,0
30727.077,40.039,34.180,24.902,18.555,-79.102,0
30727.080,42.480,33.203,25.879,17.090,9.766,0
30727.084,41.504,36.133,32.227,41.992,104.004,0
30727.088,35.645,37.109,36.621,41.016,29.297,0
30727.092,39.551,39.551,37.109,25.391,-88.379,0
30727.096,45.898,40.039,33.691,20.996,-41.992,0
30727.100,41.504,38.086,32.227,37.109,95.215,0
30727.104,38.574,37.109,31.738,54.688,87.402,0
30727.108,38.574,36.133,31.738,36.621,-48.828,0
30727.112,40.527,38.086,33.203,22.949,-64.941,0
30727.116,38.086,34.180,30.273,28.809,53.711,0
30727.120,34.180,30.273,28.809,39.062,81.055,0
30727.123,35.156,34.668,29.297,34.180,-25.879,0
30727.127,36.133,37.109,28.809,10.742,-78.613,0
30727.131,36.133,35.645,27.344,22.949,14.160,0
30727.135,41.016,35.645,27.344,67.383,89.844,0
30727.139,47.363,38.086,27.344,63.965,6.348,0
30727.143,46.387,41.504,29.785,22.949,-87.891,0
30727.147,40.039,38.574,29.297,12.695,-20.508,0
30727.151,41.016,35.645,26.855,29.297,96.680,0
30727.155,42.480,33.691,25.391,38.574,51.758,0
30727.159,35.645,33.203,21.484,23.438,-75.684,0
30727.162,37.109,41.016,22.461,14.648,-54.199,0
30727.166,41.992,42.480,25.879,27.344,76.660,0
30727.170,40.039,37.598,26.855,37.598,89.355,0
30727.174,35.645,37.109,27.832,33.691,-44.922,0
30727.178,39.062,37.598,27.832,22.949,-80.078,0
30727.182,38.574,36.133,28.320,22.461,46.875,0
30727.186,36.621,35.156,30.273,38.574,88.867,0
30727.190,41.016,37.109,31.250,33.203,-27.832,0
30727.194,45.898,41.992,26.367,16.113,-99.609,0
30727.198,40.527,38.086,27.344,25.879,3.418,0
30727.202,31.250,31.250,27.832,46.387,109.863,0
30727.205,32.227,32.715,23.926,41.016,17.090,0
30727.209,29.785,35.156,24.414,20.020,-102.539,0
30727.213,30.273,36.621,27.344,13.184,-36.133,0
30727.217,30.762,32.227,28.320,29.297,86.914,0
30727.221,34.668,28.809,26.855,44.434,55.176,0
30727.225,34.180,35.645,26.367,32.227,-69.824,0
30727.229,26.855,38.574,28.320,13.672,-61.523,0
30727.233,30.762,37.109,26.855,28.320,57.617,0
30727.237,38.574,33.691,25.391,50.781,73.242,0
30727.241,36.133,33.691,30.762,39.551,-44.434,0
30727.245,36.621,41.504,30.762,23.926,-74.219,0
30727.248,42.480,43.457,28.320,30.273,51.270,0
30727.252,38.574,35.156,31.738,40.039,106.934,0
30727.256,43.457,31.250,30.273,35.156,-7.812,0
30727.260,46.387,34.668,32.227,20.508,-95.215,0
30727.264,43.457,31.250,33.203,27.832,-2.441,0
30727.268,42.480,23.438,32.227,53.223,95.703,0
30727.272,40.039,20.020,32.227,54.199,20.020,0
30727.276,41.504,24.414,29.785,37.598,-87.402,0
30727.280,42.480,28.320,30.762,37.598,-30.762,0
30727.284,39.062,29.785,32.715,47.363,91.309,0
30727.287,40.527,30.762,29.785,46.387,61.523,1
30727.291,39.062,29.785,29.785,31.250,-64.941,0
30727.295,36.133,34.180,31.738,24.414,-64.941,0
30727.299,35.645,35.156,29.785,40.527,57.129,0
30727.303,33.203,29.785,29.785,49.316,81.543,0
30727.307,32.715,31.738,28.809,32.715,-37.598,0
30727.311,29.297,34.180,30.273,14.648,-84.961,0
30727.315,33.691,32.227,32.715,25.879,22.949,0
30727.319,32.715,32.227,28.809,43.457,85.449,0
30727.323,25.879,34.668,28.809,39.062,-13.184,0
30727.327,32.227,36.621,28.809,20.020,-104.004,0
30727.330,31.250,35.156,28.809,19.043,-19.043,0
30727.334,23.926,32.227,30.762,39.551,95.703,0
30727.338,26.367,26.367,30.273,53.223,37.598,0
30727.342,28.809,29.785,26.367,26.367,-85.449,0
30727.346,32.227,35.156,29.297,8.789,-40.527,0
30727.350,34.180,34.180,34.668,31.738,85.449,0
30727.354,36.133,35.156,33.691,46.875,66.406,0
30727.358,34.668,35.645,34.180,33.203,-63.477,0
30727.362,36.133,38.574,34.668,20.508,-77.148,0
30727.366,37.109,38.086,29.297,23.438,53.223,0
30727.370,31.250,30.762,23.926,35.645,100.586,0
30727.373,34.180,28.809,26.367,40.039,-14.160,0
30727.377,38.574,30.762,28.809,28.809,-76.660,0
30727.381,40.527,30.273,27.832,19.531,27.344,0
30727.385,40.039,29.785,26.367,33.203,113.281,0
30727.389,36.621,32.227,23.926,44.922,29.297,0
30727.393,36.621,33.203,24.414,20.996,-67.871,0
30727.397,35.156,31.738,25.391,8.301,-4.395,0
30727.401,36.133,29.297,22.461,35.156,111.816,0
30727.405,36.133,28.809,20.996,45.898,62.988,0
30727.409,38.574,29.297,22.461,27.832,-64.453,0
30727.412,41.992,30.762,24.414,16.602,-41.504,0
30727.416,35.156,28.809,22.461,31.250,89.844,0
30727.420,36.621,28.809,23.438,50.781,104.004,0
30727.424,37.109,31.738,30.273,45.410,-36.133,0
30727.428,38.086,32.227,31.738,26.367,-75.684,0
30727.432,37.109,30.273,28.320,32.227,43.457,0
30727.436,40.039,33.203,26.855,51.758,94.727,0
30727.440,50.293,35.156,23.438,42.480,-7.812,0
30727.444,46.387,34.668,22.461,22.949,-73.242,0
30727.448,42.480,32.715,28.809,34.668,15.137,0
30727.452,41.016,30.762,31.738,50.293,93.750,0
30727.455,35.645,31.738,32.715,39.551,16.113,0
30727.459,37.109,32.227,30.273,19.043,-79.102,0
30727.463,38.086,34.180,26.367,12.207,-16.113,0
30727.467,38.086,32.715,24.902,29.297,95.215,0
30727.471,33.203,28.809,23.438,29.297,55.664,0
30727.475,32.227,28.809,24.414,10.254,-68.359,0
30727.479,40.527,34.180,25.879,8.789,-53.223,0
30727.483,34.668,31.738,30.273,31.738,84.473,0
30727.487,35.645,26.855,32.715,53.711,100.586,0
30727.491,36.621,33.203,28.809,42.480,-41.504,0
30727.495,33.691,36.133,28.809,25.879,-82.520,0
30727.498,35.645,31.250,30.273,26.855,48.828,0
30727.502,34.668,31.250,28.809,42.969,114.746,0
30727.506,38.574,32.227,27.832,41.992,-1.465,0
30727.510,43.945,34.180,28.320,21.484,-82.031,0
30727.514,41.992,33.203,29.785,21.973,4.883,0
30727.518,38.086,26.855,27.344,41.992,98.145,0
30727.522,34.180,25.391,28.320,45.410,34.180,0
30727.526,31.738,28.809,30.762,31.738,-75.684,0
30727.530,32.715,30.273,29.785,21.973,-24.414,0
30727.534,38.574,29.297,28.320,36.621,96.680,0
30727.537,38.574,29.297,24.902,55.664,71.289,0
30727.541,42.480,29.785,29.297,36.621,-53.223,0
30727.545,51.270,35.156,35.156,25.391,-55.176,0
30727.549,49.316,36.621,32.715,36.133,70.312,0
30727.553,39.551,31.250,26.855,42.969,103.027,0
30727.557,42.480,30.762,27.344,44.922,-12.207,0
30727.561,50.781,33.203,30.273,23.438,-72.754,0
30727.565,42.969,34.180,29.297,24.414,29.297,0
30727.569,45.898,29.785,31.250,44.922,113.770,0
30727.573,44.434,28.320,33.203,38.574,31.250,0
30727.577,44.922,34.180,30.762,17.578,-60.059,0
30727.580,45.410,36.133,30.762,23.926,5.371,0
30727.584,36.133,34.668,29.785,44.922,118.164,0
30727.588,33.691,34.180,26.855,43.457,62.012,0
30727.592,40.527,35.645,25.391,25.879,-78.613,0
30727.596,41.016,37.109,26.855,18.066,-57.617,0
30727.600,29.785,39.062,27.832,29.297,82.520,0
30727.604,25.391,37.109,29.785,41.992,85.938,0
30727.608,27.344,34.668,30.762,35.645,-58.594,0
30727.612,32.227,36.133,31.250,23.926,-82.520,0
30727.616,28.320,30.762,28.809,30.762,42.969,0
30727.620,21.484,27.344,25.391,45.410,85.449,0
30727.623,30.273,26.855,26.367,32.227,-32.715,0
30727.627,42.480,33.203,23.438,21.973,-94.238,0
30727.631,38.574,36.621,24.414,29.785,20.020,0
30727.635,35.156,33.691,28.809,42.969,104.004,0
30727.639,39.551,33.203,28.809,46.387,11.719,0
30727.643,33.203,36.133,28.320,24.902,-91.309,0
30727.647,23.438,37.598,27.832,12.207,-21.484,0
30727.651,30.273,33.691,31.250,35.645,98.633,0
30727.655,38.574,33.203,29.785,47.852,51.758,0
30727.659,36.621,33.203,30.762,25.879,-73.242,0
30727.662,37.598,33.691,33.691,16.113,-46.387,0
30727.666,39.551,34.180,31.250,35.645,90.820,0
30727.670,41.504,32.715,30.273,48.340,101.562,0
30727.674,40.527,28.809,30.273,42.480,-25.391,0
30727.678,33.203,29.297,28.809,21.484,-73.730,0
30727.682,33.203,33.203,27.832,16.602,37.598,0
30727.686,25.879,33.203,26.367,41.992,108.887,0
30727.690,24.414,30.273,27.832,41.016,-6.836,0
30727.694,33.691,30.273,29.297,19.043,-94.238,0
30727.698,34.668,27.832,30.273,28.809,-1.953,0
30727.702,35.156,27.832,26.367,45.410,90.820,0
30727.705,39.551,30.273,18.066,36.621,11.719,0
30727.709,43.945,34.180,23.926,19.531,-87.891,0
30727.713,39.062,39.062,29.785,22.949,-19.043,0
30727.717,34.180,37.109,29.785,50.781,91.309,0
30727.721,34.668,30.762,32.227,61.035,56.152,0
30727.725,31.250,29.297,31.250,32.715,-68.848,0
30727.729,31.250,35.156,29.785,9.277,-58.105,0
30727.733,37.109,36.133,31.250,34.180,78.125,0
30727.737,33.691,30.762,32.227,55.664,104.004,0
30727.741,33.203,27.832,29.297,41.504,-18.555,0
30727.745,41.016,32.715,29.785,21.484,-69.336,0
30727.748,42.480,32.715,31.738,22.461,42.969,0
30727.752,32.227,28.809,33.203,47.363,123.047,0
30727.756,29.785,28.320,30.762,44.434,26.855,0
30727.760,33.691,33.691,31.250,31.738,-62.012,0
30727.764,27.344,34.668,33.203,38.086,15.625,0
30727.768,25.879,30.273,31.250,48.340,112.305,0
30727.772,27.832,27.344,29.297,56.641,45.898,0
30727.776,29.785,27.832,31.738,40.527,-75.195,0
30727.780,29.785,33.691,34.668,30.273,-26.855,0
30727.784,28.320,31.250,31.250,45.410,102.051,0
30727.787,32.227,26.367,28.809,47.852,78.125,0
30727.791,28.809,30.273,28.320,28.809,-65.430,0
30727.795,25.879,36.133,28.809,24.414,-76.660,0
30727.799,28.809,36.133,29.785,37.598,63.477,0
30727.803,28.809,32.715,28.320,36.133,102.051,0
30727.807,24.414,33.203,24.902,33.203,-27.344,0
30727.811,26.855,36.133,26.855,32.227,-88.867,0
30727.815,35.645,30.762,34.180,29.785,23.438,0
30727.819,32.715,25.391,35.156,47.363,107.910,0
30727.823,30.762,27.344,32.715,42.969,21.973,0
30727.827,31.250,30.762,29.785,12.207,-79.102,0
30727.830,30.273,32.227,27.832,10.254,-4.395,0
30727.834,36.621,31.738,29.297,36.133,105.469,0
30727.838,36.133,30.273,32.227,47.363,47.363,0
30727.842,32.715,31.738,34.668,33.203,-65.918,0
30727.846,32.715,32.715,32.715,26.855,-34.180,0
30727.850,31.250,30.762,29.785,41.504,95.215,2
30727.854,33.691,32.227,31.250,50.293,90.820,0
30727.858,41.504,37.109,31.250,40.039,-39.551,0
30727.862,43.945,39.062,28.809,25.391,-49.316,0
30727.866,38.086,37.598,29.297,38.574,77.637,0
30727.870,38.574,34.668,31.738,60.059,129.395,0
30727.873,33.203,33.203,32.227,52.734,17.578,0
30727.877,35.645,35.645,33.203,41.504,-59.082,0
30727.881,41.992,38.086,36.133,37.598,48.828,0
30727.885,37.598,35.156,30.762,45.410,139.160,0
30727.889,38.574,33.691,29.297,48.340,39.062,0
30727.893,40.039,35.645,32.227,26.367,-71.777,0
30727.897,35.645,34.180,32.227,24.414,-3.418,0
30727.901,29.297,33.203,31.250,43.945,105.469,0
30727.905,33.203,34.668,26.855,42.480,55.664,0
30727.909,37.598,35.156,29.785,21.484,-72.266,0
30727.912,35.156,33.691,32.227,10.254,-57.129,0
30727.916,35.156,33.203,28.320,23.926,66.895,0
30727.920,31.738,32.227,24.414,38.086,74.707,0
30727.924,33.203,29.785,26.367,27.832,-42.480,0
30727.928,32.715,31.250,29.785,13.672,-80.078,0
30727.932,26.855,34.668,30.762,24.902,35.645,0
30727.936,25.879,35.156,30.762,46.387,99.121,0
30727.940,28.809,34.180,28.809,42.969,-7.324,0
30727.944,30.762,38.574,30.273,20.508,-73.730,0
30727.948,27.832,39.062,35.645,16.602,22.949,0
30727.952,31.738,36.133,35.156,41.016,125.000,0
30727.955,37.109,36.133,30.273,45.410,61.035,0
30727.959,41.504,35.645,28.809,26.367,-52.734,0
30727.963,35.156,35.645,30.762,21.973,-3.906,0
30727.967,36.133,31.738,31.738,39.551,119.629,0
30727.971,39.551,29.785,33.203,53.223,93.750,0
30727.975,39.551,33.203,29.785,46.387,-36.133,0
30727.979,45.410,35.645,30.273,42.480,-40.527,0
30727.983,42.969,35.645,38.574,56.641,83.496,0
30727.987,37.109,30.762,37.598,62.988,109.375,0
30727.991,39.551,28.809,35.645,39.551,-10.254,0
30727.995,44.922,32.227,37.109,21.973,-48.340,0
30727.998,42.969,29.785,33.691,36.133,65.430,0
30728.002,44.434,25.391,32.227,57.617,127.930,0
30728.006,37.598,25.391,30.273,44.922,32.227,0
30728.010,37.598,29.297,27.344,24.902,-61.035,0
30728.014,41.992,33.203,26.855,29.297,7.324,0
30728.018,36.621,32.715,25.879,43.945,111.816,0
30728.022,41.992,29.297,27.832,50.293,63.965,0
30728.026,49.316,30.273,26.855,30.762,-47.852,0
30728.030,37.598,35.156,25.391,12.207,-32.227,0
30728.034,35.645,34.180,26.855,30.273,84.961,0
30728.037,34.180,29.785,26.367,44.434,83.008,0
30728.041,33.203,32.715,26.367,27.344,-50.781,0
30728.045,38.574,35.645,27.344,20.020,-70.312,0
30728.049,37.109,35.156,29.297,28.809,55.176,0
30728.053,38.086,29.785,30.762,42.969,105.469,0
30728.057,37.598,28.809,27.344,44.434,-5.859,0
30728.061,36.621,33.691,25.879,12.695,-77.148,0
30728.065,40.039,32.715,29.297,15.625,19.531,0
30728.069,43.945,30.273,32.227,45.410,109.863,0
30728.073,39.551,31.250,27.832,40.039,23.926,0
30728.077,37.109,33.691,26.855,25.879,-68.848,0
30728.080,41.992,35.645,33.203,31.250,10.742,0
30728.084,43.457,32.227,31.738,53.223,111.328,0
30728.088,45.898,31.738,26.855,56.641,56.641,0
30728.092,47.852,35.645,25.879,42.969,-67.383,0
30728.096,45.898,34.180,22.461,36.621,-41.016,0
30728.100,45.898,32.227,25.879,47.852,98.145,0
30728.104,46.875,33.203,26.855,47.363,97.656,0
30728.108,45.898,33.203,25.391,28.320,-40.039,0
30728.112,47.852,33.203,28.809,20.996,-70.801,0
30728.116,40.527,34.180,27.344,28.809,61.035,0
30728.120,33.203,30.273,27.344,49.805,125.000,0
30728.123,43.457,26.367,30.273,48.828,6.836,0
30728.127,51.758,30.273,29.785,31.250,-75.684,0
30728.131,45.898,29.785,31.250,41.504,28.320,0
30728.135,41.504,24.902,31.250,51.758,129.395,0
30728.139,43.945,26.855,26.855,48.340,47.852,0
30728.143,48.340,29.297,25.879,33.691,-61.523,0
30728.147,42.969,29.785,29.297,18.555,-6.348,0
30728.151,35.156,30.273,30.273,40.039,107.422,0
30728.155,36.133,27.832,27.832,41.504,68.359,0
30728.159,36.621,27.832,26.367,25.879,-62.988,0
30728.162,41.016,30.273,28.809,26.367,-50.781,0
30728.166,41.504,29.297,30.273,36.133,72.266,0
30728.170,37.109,29.785,28.809,47.852,83.496,0
30728.174,40.039,28.809,27.344,33.203,-35.156,0
30728.178,44.922,26.367,29.297,20.508,-76.172,0
30728.182,40.039,29.297,27.832,32.715,29.785,0
30728.186,36.621,30.273,28.320,40.039,95.215,0
30728.190,40.039,28.320,34.668,40.527,-1.465,0
30728.194,41.992,31.738,36.133,29.785,-92.773,0
30728.198,44.434,36.133,36.133,21.973,-8.301,0
30728.202,42.480,33.203,34.180,42.969,94.727,0
30728.205,37.109,30.762,30.273,48.828,31.738,0
30728.209,28.320,30.273,31.738,22.461,-81.055,0
30728.213,25.391,31.738,33.691,10.742,-37.598,0
30728.217,31.738,33.203,32.227,40.039,81.543,0
30728.221,29.785,30.273,30.273,60.547,61.523,0
30728.225,33.203,31.738,27.832,36.621,-62.012,0
30728.229,36.133,35.645,28.809,12.695,-70.801,0
30728.233,30.273,35.645,27.832,22.461,51.758,0
30728.237,30.273,32.227,27.344,41.016,92.285,0
30728.241,29.297,32.715,30.762,43.457,-18.066,0
30728.245,32.715,33.691,31.738,32.715,-85.938,0
30728.248,37.598,34.180,31.250,25.879,18.555,0
30728.252,36.621,33.691,31.738,40.039,99.609,0
30728.256,38.086,29.297,33.203,37.598,5.859,0
30728.260,41.016,30.762,37.598,21.484,-87.891,0
30728.264,35.645,34.668,35.156,21.973,-5.859,0
30728.268,32.227,32.715,28.320,32.227,102.539,0
30728.272,34.668,32.227,24.414,42.480,35.645,0
30728.276,39.062,35.645,25.391,25.879,-84.961,0
30728.280,43.945,38.574,32.227,17.090,-45.410,0
30728.284,43.457,35.156,32.715,39.062,83.496,0
30728.287,35.156,33.203,31.250,48.828,76.660,0
30728.291,26.855,33.691,30.273,37.109,-51.270,0
30728.295,30.273,33.691,30.273,20.508,-63.477,0
30728.299,32.227,30.762,27.832,34.180,57.617,0
30728.303,27.832,28.320,27.344,51.758,94.727,0
30728.307,30.273,36.621,28.320,37.109,-17.090,0
30728.311,32.227,42.969,29.297,20.508,-78.613,0
30728.315,32.715,37.598,27.832,23.926,15.625,0
30728.319,30.273,32.715,23.926,31.250,90.332,0
30728.323,25.879,27.344,23.438,27.832,12.207,0
30728.327,25.879,28.809,24.902,13.672,-83.984,0
30728.330,27.832,31.250,24.414,18.066,-25.391,0
30728.334,29.785,30.273,24.902,43.945,90.820,0
30728.338,28.320,31.738,27.832,55.176,55.176,0
30728.342,35.645,31.250,29.297,35.156,-68.359,0
30728.346,43.457,29.785,32.227,14.648,-43.457,0
30728.350,36.621,31.250,33.203,29.297,84.473,0
30728.354,27.832,24.902,27.832,46.387,77.148,0
30728.358,32.227,20.508,25.879,32.227,-50.293,0
30728.362,43.945,27.344,32.227,15.625,-72.266,0
30728.366,46.875,29.785,32.227,25.879,62.500,0
30728.370,39.062,27.344,29.297,40.039,124.023,0
30728.373,35.156,29.297,31.250,32.227,-4.883,0
30728.377,42.969,32.227,33.691,16.602,-97.656,0
30728.381,44.922,32.715,33.691,28.809,9.766,0
30728.385,43.457,31.250,31.250,47.363,122.070,0
30728.389,38.086,30.273,28.320,42.480,42.969,0
30728.393,33.691,33.691,25.879,22.949,-70.312,0
30728.397,37.598,34.668,23.926,26.367,-18.555,0
30728.401,35.645,30.762,29.785,59.570,93.262,0
30728.405,44.922,29.785,31.738,52.246,66.895,0
30728.409,49.316,32.227,26.855,25.391,-50.781,0
30728.412,35.645,30.762,26.855,21.973,-51.758,0
30728.416,26.855,28.320,26.367,34.668,63.477,0
30728.420,27.832,28.320,21.973,48.340,81.055,0
30728.424,29.785,31.250,23.926,35.645,-35.645,0
30728.428,34.180,33.691,26.367,24.414,-84.961,0
30728.432,35.645,32.715,24.902,31.738,22.949,0
30728.436,39.062,29.297,26.855,41.992,103.516,0
30728.440,41.016,33.203,27.832,30.762,7.812,0
30728.444,42.480,36.621,27.832,12.207,-88.867,0
30728.448,40.527,28.320,25.879,27.344,0.488,0
30728.452,35.645,22.949,23.926,41.504,113.281,0
30728.455,31.250,23.926,25.391,26.855,41.992,0
30728.459,28.809,27.832,27.832,18.555,-76.660,0
30728.463,35.645,31.250,31.250,15.625,-38.086,0
30728.467,35.645,28.809,27.832,28.320,82.031,0
30728.471,37.598,25.391,25.391,41.992,73.242,0
30728.475,43.457,27.832,29.297,28.809,-45.898,1
30728.479,45.410,31.738,32.227,18.555,-59.082,0
30728.483,42.969,32.227,33.203,35.645,67.871,0
30728.487,36.133,28.809,30.762,50.781,101.074,0
30728.491,33.691,29.297,31.738,41.504,-23.926,0
30728.495,39.551,31.738,33.691,26.855,-71.777,0
30728.498,34.668,31.738,33.203,33.691,29.297,0
30728.502,24.902,28.809,31.250,53.711,105.957,0
30728.506,29.785,26.855,33.691,42.480,16.602,0
30728.510,41.992,31.250,35.645,15.625,-91.309,0
30728.514,41.992,33.203,38.086,27.344,-23.438,0
30728.518,40.039,31.738,37.598,45.898,97.656,0
30728.522,40.039,31.738,33.691,34.668,58.105,0
30728.526,33.203,32.227,30.273,16.113,-63.965,0
30728.530,33.691,34.668,32.227,19.043,-37.109,0
30728.534,38.086,34.180,34.180,46.387,93.750,0
30728.537,30.762,28.320,36.133,56.152,83.984,0
30728.541,26.367,31.250,36.133,34.180,-41.504,0
30728.545,31.738,35.645,34.180,24.902,-58.594,0
30728.549,32.227,33.691,34.668,40.039,64.453,0
30728.553,31.250,33.203,33.691,48.340,113.281,0
30728.557,36.133,33.203,27.832,30.273,-13.672,0
30728.561,38.574,36.621,27.832,9.277,-87.402,0
30728.565,38.574,38.574,33.691,18.555,16.602,0
30728.569,39.062,34.668,32.715,43.457,105.469,0
30728.573,33.203,32.715,30.762,43.945,35.645,0
30728.577,34.180,36.133,29.785,27.832,-59.082,0
30728.580,44.434,37.109,29.785,39.551,-2.441,0
30728.584,50.781,29.785,30.762,46.875,116.699,0
30728.588,38.574,27.832,28.320,36.133,85.938,0
30728.592,33.203,29.785,27.832,30.762,-39.062,0
30728.596,40.039,27.832,30.762,22.461,-29.785,0
30728.600,41.992,29.785,31.738,41.016,96.191,0
30728.604,43.457,27.344,31.250,57.617,104.492,0
30728.608,43.457,27.344,30.273,38.574,-33.691,0
30728.612,37.598,29.297,28.320,18.555,-74.219,0
30728.616,32.715,29.785,29.785,33.203,48.340,0
30728.620,33.203,33.691,35.156,55.664,118.164,0
30728.623,34.668,33.203,36.621,44.922,21.484,0
30728.627,35.645,30.762,34.668,16.113,-74.707,0
30728.631,39.062,32.715,36.133,25.391,1.465,0
30728.635,43.457,31.738,35.156,40.527,102.539,0
30728.639,42.969,29.297,32.715,30.273,25.879,0
30728.643,46.387,32.227,30.762,12.207,-86.914,0
30728.647,43.457,30.762,32.227,11.230,-26.367,0
30728.651,29.785,25.879,35.156,36.133,93.750,0
30728.655,30.273,28.809,33.203,40.039,62.500,0
30728.659,33.203,30.273,30.762,14.648,-65.918,0
30728.662,33.203,30.762,33.203,7.324,-61.035,0
30728.666,37.598,32.227,35.645,32.227,63.965,0
30728.670,30.762,31.250,34.668,52.246,95.215,0
30728.674,22.461,28.809,32.715,42.969,-18.066,0
30728.678,25.879,30.762,33.203,20.020,-75.195,0
30728.682,32.715,33.203,33.691,22.949,38.574,0
30728.686,31.250,28.809,33.691,41.504,119.141,0
30728.690,32.715,25.391,31.738,32.227,21.973,0
30728.694,32.715,28.320,28.809,9.766,-76.172,0
30728.698,24.902,27.832,30.762,9.766,2.441,0
30728.702,21.973,28.320,33.203,35.156,120.117,0
30728.705,28.320,31.250,30.273,46.875,52.246,0
30728.709,35.645,30.762,30.273,29.297,-68.848,0
30728.713,41.992,34.668,32.715,20.508,-24.414,0
30728.717,41.992,34.668,34.668,37.598,95.215,0
30728.721,41.504,30.273,34.180,50.781,93.750,0
30728.725,40.039,30.762,26.367,36.133,-23.926,0
30728.729,36.133,32.227,26.855,21.973,-41.504,0
30728.733,40.039,34.180,35.645,35.156,77.148,0
30728.737,41.504,30.762,31.250,45.410,107.910,0
30728.741,41.016,25.391,29.785,39.062,-9.766,0
30728.745,40.039,30.273,35.645,20.508,-73.242,0
30728.748,42.480,33.691,35.156,25.391,26.367,0
30728.752,41.992,30.273,31.250,51.270,108.398,0
30728.756,34.668,31.250,30.762,51.758,24.902,0
30728.760,32.715,31.250,32.715,18.066,-72.266,0
30728.764,36.133,32.715,34.180,21.973,-11.230,0
30728.768,38.086,32.715,32.715,52.734,101.074,0
30728.772,38.574,28.320,32.227,36.133,53.711,0
30728.776,37.109,29.785,30.762,18.555,-66.895,0
30728.780,30.273,34.180,32.227,20.996,-38.086,0
30728.784,28.320,36.133,32.715,36.621,86.914,0
30728.787,26.855,28.809,29.785,44.922,83.008,0
30728.791,26.855,28.320,30.273,33.691,-48.828,0
30728.795,29.785,37.109,31.738,22.949,-78.125,0
30728.799,33.203,37.109,31.738,31.738,49.316,0
30728.803,35.156,34.180,29.785,53.223,111.816,0
30728.807,37.598,34.180,27.832,51.270,4.883,0
30728.811,41.992,35.156,27.344,34.668,-71.289,0
30728.815,41.992,34.180,34.180,25.391,21.484,0
30728.819,39.062,31.250,37.109,33.203,111.328,0
30728.823,36.621,35.156,35.645,37.598,28.809,0
30728.827,36.133,37.109,35.645,17.578,-83.008,0
30728.830,42.480,34.668,35.156,14.648,-18.066,0
30728.834,41.504,33.691,31.250,39.062,110.352,0
30728.838,36.133,34.180,28.809,49.805,70.801,0
30728.842,35.156,35.156,29.785,37.598,-64.941,0
30728.846,34.180,32.715,28.320,30.273,-57.617,0
30728.850,40.527,31.250,30.273,36.133,69.824,0
30728.854,45.410,32.227,27.344,42.480,88.867,0
30728.858,36.621,30.273,23.926,39.551,-28.320,0
30728.862,32.715,28.320,26.367,24.414,-74.219,0
30728.866,39.062,27.344,27.832,34.180,36.133,0
30728.870,41.016,23.438,25.391,46.875,110.840,0
30728.873,35.645,24.902,23.438,28.320,8.301,0
30728.877,36.133,30.762,24.902,11.719,-80.078,0
30728.881,33.691,32.227,27.832,13.672,7.812,0
30728.885,28.320,31.250,28.809,39.062,108.398,0
30728.889,37.598,31.250,31.250,45.410,45.410,0
30728.893,39.062,32.227,31.250,18.066,-63.965,0
30728.897,33.691,27.832,26.367,8.301,-16.602,0
30728.901,28.809,26.855,29.785,29.297,102.051,0
30728.905,28.320,26.855,34.668,44.434,69.824,0
30728.909,27.832,29.297,33.691,26.367,-65.918,0
30728.912,28.809,32.715,30.762,7.324,-65.430,0
30728.916,30.762,31.250,30.762,24.902,64.453,0
30728.920,31.738,29.785,32.227,49.316,98.145,0
30728.924,31.738,32.715,29.785,32.227,-20.996,0
30728.928,34.668,33.691,27.832,7.812,-88.867,0
30728.932,33.691,30.273,29.297,21.973,23.438,0
30728.936,27.344,27.344,28.320,41.992,104.980,0
30728.940,27.832,26.367,27.832,34.180,2.441,0
30728.944,28.320,26.855,29.785,18.066,-93.262,0
30728.948,28.320,27.832,31.738,16.113,-10.742,0
30728.952,32.715,27.344,31.250,41.016,99.609,0
30728.955,30.762,26.367,30.762,44.434,47.852,0
30728.959,24.414,28.809,33.691,25.879,-67.871,0
30728.963,26.367,30.273,34.180,20.020,-42.969,0
30728.967,27.832,29.297,32.715,28.320,75.195,0
30728.971,31.250,26.855,29.785,49.316,69.336,0
30728.975,34.180,25.879,31.250,31.738,-52.246,0
30728.979,30.762,31.250,35.645,9.277,-58.594,0
30728.983,28.809,30.762,34.668,34.180,60.547,0
30728.987,31.738,27.344,32.715,54.199,100.098,0
30728.991,37.109,31.738,28.809,35.645,-8.789,0
30728.995,37.598,31.738,26.367,19.043,-79.102,0
30728.998,40.039,30.273,28.320,28.320,30.762,0
30729.002,42.480,28.809,31.738,38.574,118.652,0
30729.006,33.691,29.785,30.762,41.504,18.066,0
30729.010,36.621,31.738,32.715,26.367,-76.660,0
30729.014,41.016,31.250,35.156,16.113,0.000,0
30729.018,38.086,31.738,32.227,34.668,106.445,0
30729.022,34.668,32.227,31.250,39.551,54.688,0
30729.026,35.156,31.738,30.762,29.785,-62.012,0
30729.030,37.598,33.691,28.320,29.785,-39.062,0
30729.034,34.668,30.762,28.809,31.738,86.426,0
30729.037,29.785,29.785,28.320,30.762,86.426,0
30729.041,32.715,28.809,27.344,27.832,-45.410,0
30729.045,36.621,27.832,30.762,21.973,-72.754,0
30729.049,32.227,29.297,31.738,29.297,52.246,0
30729.053,29.785,23.438,27.832,47.852,116.211,0
30729.057,30.762,23.926,25.879,36.621,1.953,0
30729.061,31.250,30.273,28.320,14.648,-88.867,0
30729.065,34.180,31.250,32.227,20.996,6.348,0
30729.069,30.273,28.809,31.250,43.945,108.398,0
30729.073,23.926,29.785,28.809,42.480,30.273,0
30729.077,26.855,34.180,31.250,12.207,-83.008,0
30729.080,31.738,34.668,29.785,8.789,-34.180,0
30729.084,33.691,32.715,27.344,32.715,79.590,0
30729.088,31.738,31.738,29.785,37.598,55.176,0
30729.092,34.668,34.180,33.691,24.414,-60.547,0
30729.096,39.062,39.062,36.133,29.297,-50.293,0
30729.100,41.504,40.527,33.691,43.457,74.707,0
30729.104,38.086,38.574,29.297,47.363,83.008,0
30729.108,42.480,37.109,27.344,31.250,-36.621,0
30729.112,51.270,41.016,29.785,20.020,-71.289,0
30729.116,55.664,44.434,31.250,32.715,40.527,1
30729.120,47.363,41.992,31.250,48.340,103.516,0
30729.123,36.621,40.039,32.715,40.527,-5.859,0
30729.127,41.016,41.016,34.180,10.742,-95.215,0
30729.131,42.480,40.039,35.156,9.277,-9.277,0
30729.135,35.645,34.668,32.715,38.574,91.797,0
30729.139,32.715,32.715,28.809,45.898,35.156,0
30729.143,39.551,37.598,29.297,23.926,-82.031,0
30729.147,38.574,39.551,29.785,12.207,-52.734,0
30729.151,32.227,37.109,27.832,30.762,75.195,0
30729.155,33.691,33.691,28.809,45.898,62.988,0
30729.159,41.992,35.645,27.832,33.691,-62.012,0
30729.162,44.922,39.551,25.391,21.973,-57.617,0
30729.166,41.016,41.016,27.344,32.227,70.312,0
30729.170,42.480,38.574,27.344,56.152,99.609,0
30729.174,41.016,36.133,27.832,42.480,-25.391,0
30729.178,37.598,36.133,31.250,7.324,-97.656,0
30729.182,36.621,36.621,29.297,17.578,8.301,0
30729.186,34.668,37.598,30.273,44.434,100.586,0
30729.190,31.738,37.109,35.645,37.598,13.184,0
30729.194,27.832,35.156,30.762,8.301,-86.914,0
30729.198,28.320,33.691,29.785,13.184,-14.648,0
30729.202,38.086,33.203,32.715,47.363,94.238,0
30729.205,34.668,34.668,30.762,45.410,34.668,0
30729.209,28.809,37.109,27.344,22.949,-84.961,0
30729.213,41.504,34.180,29.297,29.297,-50.781,0
30729.217,41.992,30.762,32.227,54.688,77.148,0
30729.221,33.203,28.809,32.227,55.176,76.660,0
30729.225,36.133,30.762,32.227,31.250,-46.387,0
30729.229,39.062,32.227,29.785,22.461,-71.289,0
30729.233,35.645,33.203,28.320,36.621,54.199,0
30729.237,27.344,32.227,28.809,47.363,108.887,0
30729.241,32.227,32.227,32.227,31.738,1.465,0
30729.245,35.156,33.691,33.203,11.719,-60.547,0
30729.248,33.203,29.297,33.691,18.066,29.297,0
30729.252,40.039,27.344,31.738,50.781,111.328,0
30729.256,41.992,27.832,26.855,49.805,30.762,0
30729.260,39.551,30.762,31.738,22.461,-62.988,0
30729.264,35.156,31.738,37.109,26.367,-4.883,0
30729.268,37.109,31.250,36.621,42.969,94.238,0
30729.272,37.109,33.691,35.156,42.969,60.059,0
30729.276,33.691,34.180,32.227,29.297,-60.059,0
30729.280,36.133,32.227,32.715,19.043,-43.457,0
30729.284,40.527,31.738,34.668,28.809,82.520,0
30729.287,42.480,32.715,33.691,48.340,97.168,0
30729.291,42.969,33.691,34.180,42.969,-16.113,0
30729.295,43.457,35.156,37.109,30.273,-65.918,0
30729.299,42.480,32.715,36.133,43.945,40.039,0
30729.303,40.527,27.832,32.715,49.316,102.051,0
30729.307,39.062,28.320,33.203,27.832,7.324,0
30729.311,43.457,31.738,34.180,13.184,-60.059,0
30729.315,45.898,30.273,34.668,24.902,20.996,0
30729.319,37.598,27.344,34.180,33.691,107.910,0
30729.323,28.320,28.809,34.668,35.156,41.016,0
30729.327,29.785,33.203,35.156,34.180,-70.312,0
