timestamps,TP9,AF7,AF8,TP10,Right AUX,Marker0
31812.452,32.227,30.762,27.832,41.504,237.793,0
31812.455,37.109,34.180,26.367,25.391,-278.809,0
31812.459,40.039,34.180,29.785,18.555,-244.141,0
31812.463,32.715,34.180,32.715,40.527,274.414,0
31812.467,27.832,35.156,33.203,52.246,340.332,0
31812.471,29.785,35.156,38.574,34.668,-166.016,0
31812.475,33.691,31.738,36.621,20.996,-333.496,0
31812.479,29.785,27.832,23.926,28.320,135.742,0
31812.483,24.414,28.320,23.926,41.992,402.344,0
31812.487,31.250,28.809,33.203,31.250,-17.090,0
31812.491,32.227,26.367,31.250,10.742,-366.699,0
31812.495,26.367,26.367,23.926,20.020,-7.812,0
31812.498,19.531,27.832,24.902,41.016,415.527,0
31812.502,10.742,25.879,27.344,37.109,140.625,0
31812.506,11.230,23.438,29.297,21.973,-326.172,0
31812.510,21.973,29.785,30.273,32.715,-136.719,0
31812.514,21.484,30.762,28.320,59.082,362.305,1
31812.518,12.695,26.367,28.809,53.223,282.227,0
31812.522,18.555,28.320,28.320,31.738,-236.328,0
31812.526,25.879,29.785,29.785,29.785,-254.883,0
31812.530,21.973,29.297,35.156,42.969,261.230,0
31812.534,19.531,29.297,32.227,52.246,381.836,0
31812.537,26.855,28.809,30.273,35.645,-106.445,0
31812.541,33.203,28.809,31.738,15.137,-314.453,0
31812.545,28.809,27.344,31.250,28.320,122.559,0
31812.549,25.879,26.855,28.320,51.270,417.480,0
31812.553,30.273,29.785,18.555,41.016,27.344,0
31812.557,35.156,35.156,15.625,20.020,-362.793,0
31812.561,36.133,33.203,24.902,28.320,-43.945,0
31812.565,37.109,27.832,28.809,43.457,404.785,0
31812.569,37.598,31.250,26.367,32.715,177.246,0
31812.573,35.645,34.180,24.902,21.484,-307.617,0
31812.577,33.203,32.227,28.320,26.855,-162.598,0
31812.580,24.414,31.250,31.250,37.109,369.141,0
31812.584,21.973,30.273,30.762,44.922,343.750,0
31812.588,23.926,26.855,31.250,34.180,-208.984,0
31812.592,31.250,27.344,31.250,25.391,-308.594,0
31812.596,31.250,29.785,28.809,46.875,190.430,0
31812.600,25.391,28.809,24.414,57.129,369.629,0
31812.604,30.273,30.273,27.344,37.109,-94.727,0
31812.608,33.203,31.250,30.762,22.949,-358.887,0
31812.612,30.762,25.391,28.320,34.180,71.289,0
31812.616,22.949,23.438,24.902,54.688,422.363,0
31812.620,19.043,26.855,23.926,47.363,55.176,0
31812.623,24.902,28.809,23.438,21.484,-378.418,0
31812.627,19.043,27.344,26.367,21.484,-111.328,0
31812.631,15.625,27.832,29.297,44.922,368.652,0
31812.635,18.066,27.344,26.855,48.340,198.730,0
31812.639,17.090,24.414,21.973,37.109,-298.340,0
31812.643,21.484,26.855,23.926,37.109,-208.496,0
31812.647,26.855,28.320,25.879,51.270,312.012,0
31812.651,24.414,24.414,24.414,50.293,337.402,0
31812.655,26.367,25.879,23.438,25.391,-179.688,0
31812.659,35.156,30.273,24.902,21.484,-303.711,0
31812.662,39.551,34.668,33.203,37.109,186.035,0
31812.666,35.156,31.250,31.738,44.922,407.715,0
31812.670,34.668,29.297,24.414,37.109,-40.527,0
31812.674,40.527,33.691,29.297,20.020,-350.586,0
31812.678,38.574,33.203,32.227,26.855,32.715,0
31812.682,34.668,29.297,25.879,53.223,415.039,0
31812.686,34.180,28.320,21.484,46.387,107.422,0
31812.690,36.621,31.250,24.414,19.531,-341.797,0
31812.694,35.156,31.738,31.250,22.949,-121.094,0
31812.698,25.391,26.855,25.879,43.945,363.770,0
31812.702,25.391,28.809,23.438,44.434,235.840,0
31812.705,36.621,32.715,32.227,29.785,-280.762,0
31812.709,34.668,35.645,32.715,20.020,-254.395,0
31812.713,30.762,34.668,33.691,36.621,269.531,0
31812.717,26.855,27.344,38.086,47.363,351.074,0
31812.721,23.438,23.438,31.738,35.645,-147.949,0
31812.725,24.902,25.391,26.855,24.902,-320.312,0
31812.729,22.949,26.367,31.738,39.062,149.414,0
31812.733,15.625,27.344,32.227,55.664,420.898,0
31812.737,17.578,27.832,27.344,39.062,8.789,0
31812.741,23.438,28.320,24.902,16.113,-344.727,0
31812.745,24.414,33.691,24.902,19.043,-9.766,0
31812.748,22.949,35.645,26.367,34.180,412.109,0
31812.752,21.973,32.715,28.809,35.156,166.016,0
31812.756,35.156,31.250,28.320,26.855,-302.734,0
31812.760,41.992,30.273,26.367,28.809,-133.789,0
31812.764,39.551,31.250,27.832,48.340,375.488,0
31812.768,35.156,28.320,31.738,54.199,301.758,0
31812.772,33.691,27.832,30.762,35.156,-229.004,0
31812.776,35.156,35.156,29.297,21.973,-266.113,0
31812.780,35.156,36.133,31.738,38.574,238.770,0
31812.784,34.668,31.738,31.250,53.711,371.094,0
31812.787,39.062,33.203,30.273,38.574,-115.234,0
31812.791,44.922,36.133,34.668,27.832,-346.191,0
31812.795,41.016,34.180,32.227,38.086,94.727,0
31812.799,33.203,33.691,29.297,51.270,411.621,0
31812.803,35.645,32.715,32.227,48.828,30.273,0
31812.807,40.527,29.785,31.250,33.203,-369.629,0
31812.811,39.551,31.738,34.180,33.203,-72.266,0
31812.815,27.344,28.320,37.598,50.293,380.859,0
31812.819,20.020,25.391,39.062,45.410,171.875,0
31812.823,25.391,29.785,35.156,20.996,-319.336,0
31812.827,30.273,33.203,28.320,21.484,-190.918,0
31812.830,32.227,33.203,29.785,46.387,333.496,0
31812.834,27.344,33.691,27.832,51.270,321.777,0
31812.838,27.344,34.668,23.926,29.785,-199.219,0
31812.842,36.133,32.227,30.762,26.367,-288.574,0
31812.846,30.762,31.738,33.203,47.852,213.867,0
31812.850,22.949,29.785,30.762,60.059,402.832,0
31812.854,22.949,26.855,31.250,44.434,-67.383,0
31812.858,20.996,26.367,28.320,27.344,-353.516,0
31812.862,22.949,29.297,29.297,37.598,58.105,0
31812.866,22.461,31.250,34.180,58.105,421.875,0
31812.870,27.832,34.668,33.203,51.758,79.590,0
31812.873,37.598,34.668,30.762,29.297,-346.191,0
31812.877,31.738,29.785,31.738,29.785,-87.891,0
31812.881,23.438,27.832,31.738,44.434,388.184,0
31812.885,21.973,27.344,31.250,41.504,224.121,0
31812.889,29.297,31.250,34.180,21.973,-291.504,0
31812.893,35.156,31.738,29.297,12.207,-223.145,0
31812.897,32.227,30.273,24.902,35.645,303.223,0
31812.901,26.855,29.785,30.273,45.898,332.031,0
31812.905,30.762,30.273,30.762,19.531,-188.965,0
31812.909,35.645,30.273,28.809,8.789,-323.242,0
31812.912,30.762,32.227,33.203,30.762,166.992,0
31812.916,27.344,35.645,36.133,43.945,407.715,0
31812.920,28.809,34.180,30.273,28.809,-31.250,0
31812.924,29.785,31.738,26.855,19.043,-356.934,0
31812.928,25.391,28.809,28.320,31.250,13.672,0
31812.932,21.484,25.879,31.250,44.434,412.598,0
31812.936,24.414,22.949,28.809,38.086,113.770,0
31812.940,37.598,25.391,25.391,26.367,-346.191,0
31812.944,42.480,28.320,28.320,32.227,-134.766,0
31812.948,30.762,28.320,29.785,47.852,355.469,0
31812.952,27.344,30.762,27.832,52.734,240.234,0
31812.955,33.203,32.227,26.367,28.809,-272.949,0
31812.959,28.809,29.785,21.973,13.184,-269.043,0
31812.963,23.926,28.320,20.508,32.227,240.723,0
31812.967,29.297,29.297,19.043,41.504,342.285,0
31812.971,32.227,31.250,18.555,28.809,-157.227,0
31812.975,33.691,29.785,21.484,24.414,-352.539,0
31812.979,30.762,30.273,23.438,37.109,112.305,0
31812.983,28.809,31.738,24.414,47.363,402.832,0
31812.987,36.621,33.691,24.902,41.504,1.465,0
31812.991,39.551,32.227,24.902,27.344,-363.770,0
31812.995,39.551,30.273,26.855,34.668,-26.855,0
31812.998,36.621,28.320,24.902,48.340,401.367,0
31813.002,36.133,26.367,20.996,38.086,143.555,0
31813.006,38.574,28.809,20.508,25.391,-334.961,0
31813.010,38.086,31.738,19.531,24.902,-169.434,0
31813.014,37.109,32.227,25.879,41.504,346.191,0
31813.018,37.598,32.227,30.762,44.434,296.387,0
31813.022,36.621,32.227,28.320,16.113,-230.469,0
31813.026,29.785,28.809,26.367,9.766,-289.062,0
31813.030,26.855,25.391,21.973,32.227,220.703,0
31813.034,31.738,29.297,23.926,43.945,381.348,0
31813.037,33.203,29.297,29.785,27.832,-106.445,0
31813.041,29.297,27.832,31.738,17.578,-366.211,0
31813.045,25.391,30.273,30.273,22.949,69.824,0
31813.049,27.344,29.297,23.926,35.645,407.715,0
31813.053,31.250,29.785,23.438,28.320,35.645,0
31813.057,30.273,30.273,26.855,7.324,-372.070,2
31813.061,36.621,29.297,26.367,21.484,-72.754,0
31813.065,40.039,31.738,24.902,38.574,397.461,0
31813.069,31.250,32.227,28.320,27.832,193.848,0
31813.073,28.320,30.273,31.738,17.578,-312.012,0
31813.077,34.180,27.832,28.320,25.391,-207.031,0
31813.080,34.180,26.855,26.367,44.922,319.824,0
31813.084,30.762,29.785,28.320,49.316,329.102,0
31813.088,34.668,29.785,26.367,30.273,-200.684,0
31813.092,41.992,30.273,26.855,20.508,-308.594,0
31813.096,39.551,27.832,31.738,38.086,188.965,0
31813.100,23.926,21.484,31.738,47.363,381.836,0
31813.104,25.879,23.438,29.785,36.133,-80.566,0
31813.108,34.180,26.855,30.762,32.227,-369.629,0
31813.112,31.250,25.391,33.691,40.527,33.203,0
31813.116,23.926,24.902,31.250,47.363,407.227,0
31813.120,20.508,26.855,29.297,35.645,75.684,0
31813.123,23.438,28.320,28.320,14.160,-362.793,0
31813.127,24.902,30.273,28.320,20.020,-110.840,0
31813.131,19.531,31.738,28.809,40.527,378.418,0
31813.135,15.137,24.902,22.461,31.250,215.820,0
31813.139,21.484,22.949,17.090,1.953,-309.570,0
31813.143,27.344,26.367,18.555,1.465,-256.348,0
31813.147,21.484,25.391,17.578,24.414,263.184,0
31813.151,20.020,28.809,15.137,31.738,322.754,0
31813.155,28.809,31.250,21.484,18.555,-185.547,0
31813.159,32.227,29.297,25.879,4.883,-341.797,0
31813.162,28.320,31.738,23.926,20.996,136.230,0
31813.166,23.926,30.762,21.484,37.109,385.254,0
31813.170,21.973,28.809,21.973,25.391,-41.992,0
31813.174,23.926,33.691,25.391,19.043,-366.699,0
31813.178,25.879,32.715,27.344,25.879,3.906,0
31813.182,20.508,26.855,29.297,34.668,391.113,0
31813.186,17.090,27.832,27.832,35.645,91.797,0
31813.190,21.484,27.832,25.391,25.879,-375.000,0
31813.194,26.367,25.879,22.949,28.809,-171.387,0
31813.198,26.855,23.926,27.344,46.875,356.934,0
31813.202,23.438,21.484,26.855,51.758,275.879,0
31813.205,24.902,23.438,23.438,28.320,-261.719,0
31813.209,30.273,27.344,25.391,22.949,-275.879,0
31813.213,25.391,26.855,27.832,47.852,242.676,0
31813.217,20.996,24.414,27.832,60.059,340.820,0
31813.221,26.855,23.438,26.855,39.551,-160.645,0
31813.225,28.809,26.855,28.320,21.973,-350.586,0
31813.229,24.902,25.391,28.320,34.668,115.723,0
31813.233,27.832,23.926,25.879,54.688,413.574,0
31813.237,33.203,27.344,23.926,49.316,10.742,0
31813.241,35.645,28.320,24.902,28.320,-363.281,0
31813.245,33.691,29.785,26.367,32.227,-31.738,0
31813.248,28.320,34.180,24.414,47.363,404.297,0
31813.252,28.809,34.180,23.438,37.109,171.387,0
31813.256,32.227,31.738,20.508,10.742,-315.918,0
31813.260,36.133,28.809,19.531,16.602,-180.664,0
31813.264,37.109,29.785,22.949,41.504,338.379,0
31813.268,29.297,30.273,26.855,40.527,296.875,0
31813.272,20.996,25.391,26.367,25.879,-232.422,0
31813.276,32.227,24.902,26.855,20.020,-291.016,0
31813.280,37.598,25.879,29.297,33.691,222.656,0
31813.284,33.691,28.320,28.320,48.828,381.836,0
31813.287,30.273,31.250,30.273,39.062,-99.609,0
31813.291,29.297,35.645,32.227,28.320,-343.750,0
31813.295,31.250,33.691,34.180,41.504,88.867,0
31813.299,29.297,25.879,37.109,54.688,427.734,0
31813.303,26.855,21.484,32.715,37.598,64.453,0
31813.307,23.926,20.996,22.949,19.043,-346.680,0
31813.311,24.414,26.855,23.438,28.809,-68.359,0
31813.315,20.020,26.367,26.367,45.410,395.508,0
31813.319,24.414,23.438,23.926,44.434,205.078,0
31813.323,32.227,26.855,23.926,26.367,-301.270,0
31813.327,32.715,26.367,27.344,19.043,-207.031,0
31813.330,33.203,27.344,29.785,35.645,310.059,0
31813.334,29.785,28.809,29.297,44.434,317.383,0
31813.338,30.762,23.438,28.809,25.391,-216.309,0
31813.342,31.738,23.926,26.855,11.230,-337.891,0
31813.346,27.344,25.391,24.414,30.273,161.621,0
31813.350,24.902,24.414,25.879,49.316,376.953,0
31813.354,23.926,26.367,27.344,26.855,-74.707,0
31813.358,27.344,29.785,19.531,8.789,-379.395,0
31813.362,34.180,31.738,24.902,26.367,15.137,0
31813.366,29.785,28.809,34.180,46.387,399.414,0
31813.370,23.926,26.855,27.344,34.180,76.172,0
31813.373,29.785,29.297,26.855,11.719,-360.352,0
31813.377,33.203,34.668,29.297,18.066,-120.117,0
31813.381,30.273,36.621,29.297,40.527,367.676,0
31813.385,23.438,36.133,25.391,41.016,233.398,0
31813.389,28.320,33.203,22.461,21.973,-279.297,0
31813.393,33.691,31.738,27.832,19.043,-235.840,0
31813.397,33.203,35.645,30.273,40.039,289.551,0
31813.401,33.691,34.180,32.227,46.875,360.840,0
31813.405,27.344,29.297,31.250,33.691,-146.973,0
31813.409,22.461,30.273,29.785,25.879,-306.641,0
31813.412,24.414,35.645,32.715,38.086,177.246,0
31813.416,24.414,34.668,29.297,47.363,441.895,0
31813.420,22.461,29.785,24.902,35.156,15.625,0
31813.424,33.691,32.227,26.855,24.902,-340.332,0
31813.428,39.551,34.180,26.855,34.180,-8.301,0
31813.432,38.086,35.645,25.391,53.711,401.367,0
31813.436,40.039,33.203,24.414,46.875,127.930,0
31813.440,42.480,31.250,21.484,21.973,-350.098,0
31813.444,41.504,34.668,19.043,26.367,-163.574,0
31813.448,35.645,36.621,24.902,53.711,344.238,0
31813.452,30.762,33.203,30.762,51.758,260.254,0
31813.455,35.645,32.227,29.297,29.785,-249.023,0
31813.459,44.434,34.180,25.879,21.484,-264.648,0
31813.463,40.039,33.691,28.809,38.086,237.793,0
31813.467,36.621,30.273,28.809,48.828,359.863,0
31813.471,39.062,31.250,25.391,27.832,-126.465,0
31813.475,37.109,34.668,23.926,10.742,-347.656,0
31813.479,38.086,32.227,24.902,30.273,100.098,0
31813.483,39.062,34.180,31.738,55.176,417.969,0
31813.487,36.621,34.668,29.297,43.945,26.367,0
31813.491,38.086,27.832,26.855,25.879,-364.258,0
31813.495,37.598,25.391,29.785,41.992,-42.480,0
31813.498,31.738,26.367,30.762,63.965,408.691,0
31813.502,36.133,26.855,30.273,52.734,188.477,0
31813.506,40.527,26.367,27.832,32.715,-302.734,0
31813.510,34.180,23.438,28.320,30.273,-179.199,0
31813.514,31.738,28.809,30.762,50.781,333.496,0
31813.518,30.762,32.227,30.273,58.105,312.012,0
31813.522,32.227,31.250,28.320,30.762,-215.332,0
31813.526,38.574,32.227,27.832,22.461,-288.086,0
31813.530,35.156,31.738,29.785,38.086,224.609,0
31813.534,28.809,32.715,32.715,45.898,387.207,0
31813.537,27.344,31.738,28.809,30.762,-95.215,0
31813.541,34.668,30.273,24.902,18.066,-362.305,0
31813.545,36.133,34.180,27.832,29.785,60.059,0
31813.549,30.273,33.691,28.320,47.852,415.039,0
31813.553,31.250,28.320,24.414,36.133,65.430,0
31813.557,31.738,28.809,23.438,14.648,-358.398,0
31813.561,27.344,31.250,23.438,22.461,-91.797,0
31813.565,31.738,30.762,26.855,45.410,386.230,0
31813.569,36.133,32.227,29.785,38.574,207.031,0
31813.573,38.574,33.203,32.715,27.832,-305.664,0
31813.577,37.598,28.809,34.180,32.715,-217.773,0
31813.580,35.645,27.832,30.762,38.086,309.082,0
31813.584,33.691,27.344,35.645,38.574,335.938,0
31813.588,34.668,24.902,34.180,22.461,-177.246,0
31813.592,43.945,28.320,29.297,16.602,-302.734,0
31813.596,46.387,31.738,31.250,39.551,191.895,0
31813.600,41.504,28.809,32.227,54.688,425.781,0
31813.604,39.551,28.320,31.250,41.504,-28.320,0
31813.608,41.016,31.250,33.691,25.879,-352.539,0
31813.612,34.180,28.809,37.109,37.109,29.297,0
31813.616,22.949,22.949,32.227,47.363,416.992,0
31813.620,19.043,22.461,29.297,38.574,111.328,0
31813.623,26.855,25.391,38.574,20.996,-345.215,0
31813.627,32.715,26.367,37.109,23.926,-134.766,0
31813.631,23.926,28.809,27.344,45.898,356.445,0
31813.635,18.555,28.809,24.414,41.992,231.445,0
31813.639,26.855,27.832,25.391,21.484,-285.645,0
31813.643,27.832,31.250,26.367,29.785,-255.859,0
31813.647,28.320,32.227,26.855,49.805,262.695,0
31813.651,25.391,28.809,23.926,40.039,339.355,0
31813.655,15.625,25.391,22.461,20.020,-169.434,0
31813.659,17.578,24.902,24.902,15.137,-349.121,0
31813.662,22.461,29.297,28.320,37.598,125.000,0
31813.666,22.461,28.320,29.785,51.270,402.344,0
31813.670,25.879,31.738,29.785,39.551,-13.672,0
31813.674,32.227,34.180,32.227,25.879,-368.652,0
31813.678,37.109,30.762,34.668,42.480,-10.742,0
31813.682,29.785,28.809,32.227,58.105,409.180,1
31813.686,21.973,33.691,25.879,40.039,135.254,0
31813.690,29.785,37.109,28.320,19.043,-333.008,0
31813.694,35.645,34.180,34.180,28.809,-151.855,0
31813.698,29.297,30.273,30.762,48.828,353.516,0
31813.702,26.367,25.879,25.391,48.340,288.574,0
31813.705,30.762,24.902,25.391,29.297,-238.281,0
31813.709,25.391,24.902,24.414,21.484,-291.016,0
31813.713,22.461,26.367,24.414,41.504,217.285,0
31813.717,19.043,24.414,28.809,44.434,354.980,0
31813.721,16.602,25.879,25.879,25.879,-134.277,0
31813.725,26.367,29.785,23.926,15.137,-362.793,0
31813.729,23.926,31.250,26.855,22.949,81.055,0
31813.733,20.508,34.180,29.297,41.992,400.391,0
31813.737,22.949,31.738,28.809,37.109,23.926,0
31813.741,24.902,28.320,26.367,18.066,-358.398,0
31813.745,20.508,31.738,25.879,20.020,-48.340,0
31813.748,13.672,31.250,25.879,36.133,395.020,0
31813.752,14.160,29.297,26.367,38.086,170.410,0
31813.756,20.020,31.250,28.809,22.949,-322.754,0
31813.760,28.809,35.156,30.762,21.973,-196.777,0
31813.764,24.902,35.156,30.762,38.574,321.289,0
31813.768,23.926,32.715,30.762,46.387,296.875,0
31813.772,33.203,35.156,27.832,34.668,-226.562,0
31813.776,40.527,38.574,28.809,33.203,-302.734,0
31813.780,38.574,35.645,31.250,55.664,200.195,0
31813.784,36.133,34.180,26.855,56.641,387.207,0
31813.787,34.180,33.203,22.461,32.715,-77.148,0
31813.791,37.598,29.785,27.832,19.043,-358.887,0
31813.795,31.738,30.273,31.738,34.180,52.246,0
31813.799,21.973,33.203,27.344,53.711,421.875,0
31813.803,21.484,30.273,26.367,43.457,80.078,0
31813.807,22.949,29.785,28.320,29.785,-355.957,0
31813.811,32.227,32.715,30.273,38.086,-99.609,0
31813.815,31.738,33.691,26.855,47.363,378.906,0
31813.819,30.273,32.715,22.461,42.969,217.285,0
31813.823,41.504,29.297,22.461,24.902,-297.363,0
31813.827,37.109,30.273,26.367,22.461,-227.051,0
31813.830,28.320,33.203,31.738,37.598,298.340,0
31813.834,33.203,27.344,25.879,39.062,328.125,0
31813.838,37.109,26.367,17.090,21.973,-194.824,0
31813.842,41.504,31.250,18.555,16.113,-327.148,0
31813.846,38.086,31.250,21.973,34.668,164.062,0
31813.850,35.156,32.715,23.926,49.316,401.367,0
31813.854,36.133,29.785,27.344,30.273,-42.969,0
31813.858,35.645,32.227,28.320,10.254,-368.164,0
31813.862,36.621,33.691,29.785,32.227,20.508,0
31813.866,29.785,24.902,22.461,50.781,413.574,0
31813.870,23.926,24.414,17.578,29.297,106.934,0
31813.873,30.762,25.391,23.438,6.836,-349.609,0
31813.877,33.691,25.879,25.879,16.602,-139.160,0
31813.881,25.879,26.367,23.438,34.668,358.887,0
31813.885,20.996,24.414,23.438,39.062,247.559,0
31813.889,24.902,26.367,30.273,28.809,-274.414,0
31813.893,28.809,28.320,33.203,23.926,-260.742,0
31813.897,26.855,27.832,26.855,41.504,264.160,0
31813.901,21.484,28.809,25.391,56.152,362.305,0
31813.905,24.902,31.250,26.855,37.598,-145.996,0
31813.909,33.203,36.621,24.414,14.648,-343.750,0
31813.912,30.762,37.598,24.414,33.691,123.535,0
31813.916,31.250,35.645,22.949,53.223,415.527,0
31813.920,36.133,39.062,24.902,39.062,9.277,0
31813.924,40.527,38.574,29.785,25.391,-358.398,0
31813.928,35.645,36.133,26.855,35.645,-22.461,0
31813.932,31.250,35.645,27.832,50.781,416.504,0
31813.936,36.621,35.156,30.762,43.457,167.969,0
31813.940,36.621,33.203,25.879,23.926,-321.289,0
31813.944,37.109,33.203,30.273,23.438,-162.109,0
31813.948,36.621,32.715,29.785,43.457,344.238,0
31813.952,34.180,31.738,26.855,55.664,284.668,0
31813.955,40.039,33.203,30.762,45.898,-229.004,0
31813.959,41.504,29.297,27.344,36.133,-264.160,0
31813.963,40.039,28.809,27.344,50.293,250.000,0
31813.967,37.598,30.762,30.762,58.594,390.625,0
31813.971,42.480,31.250,37.598,45.898,-95.215,0
31813.975,47.852,33.203,39.551,31.250,-333.984,0
31813.979,39.062,34.668,30.273,38.574,99.121,0
31813.983,30.273,34.180,24.902,57.129,426.270,0
31813.987,30.762,33.691,27.344,45.898,52.734,0
31813.991,37.109,32.227,32.227,27.832,-344.727,0
31813.995,39.062,35.645,26.855,34.668,-40.039,0
31813.998,33.691,36.133,20.996,56.152,419.434,0
31814.002,30.273,33.203,24.902,57.129,212.402,0
31814.006,32.227,34.668,26.367,34.180,-298.340,0
31814.010,37.598,35.645,25.879,32.715,-193.848,0
31814.014,34.180,30.762,25.391,43.457,312.500,0
31814.018,30.762,28.320,23.926,43.457,298.828,0
31814.022,39.062,32.227,27.832,31.250,-211.426,0
31814.026,44.434,30.273,29.785,25.879,-315.430,0
31814.030,36.621,29.297,26.367,41.016,173.828,0
31814.034,28.320,31.738,28.809,55.664,381.836,0
31814.037,29.297,29.785,29.297,35.645,-72.266,0
31814.041,36.133,31.738,22.949,8.789,-361.328,0
31814.045,37.598,34.668,23.438,20.508,50.293,0
31814.049,38.574,33.691,25.391,44.922,428.223,0
31814.053,41.504,33.203,29.297,40.527,102.051,0
31814.057,43.457,30.762,30.273,11.230,-336.426,0
31814.061,45.410,32.227,23.438,17.578,-94.238,0
31814.065,38.574,33.691,19.043,49.316,386.719,0
31814.069,35.156,32.227,20.996,52.246,234.375,0
31814.073,40.039,34.180,24.902,33.203,-279.297,0
31814.077,32.715,30.762,29.785,27.344,-224.609,0
31814.080,26.367,28.809,31.250,47.363,296.875,0
31814.084,28.320,30.762,22.461,52.734,347.656,0
31814.088,31.250,31.250,20.996,36.621,-169.434,0
31814.092,35.645,33.691,26.367,32.715,-320.312,0
31814.096,30.273,33.691,25.879,41.992,158.691,0
31814.100,25.391,31.250,24.902,48.340,408.203,0
31814.104,28.320,31.250,25.391,40.527,-24.902,0
31814.108,29.785,32.715,23.438,25.391,-366.211,0
31814.112,26.855,33.691,31.738,26.855,6.348,0
31814.116,23.438,35.156,39.062,45.410,417.969,0
31814.120,25.879,32.715,27.344,39.062,125.488,0
31814.123,32.227,29.785,21.973,23.926,-334.961,0
31814.127,35.156,33.691,26.855,30.273,-141.113,0
31814.131,28.320,30.762,30.273,46.875,343.262,0
31814.135,29.297,28.809,28.809,52.246,254.883,0
31814.139,35.156,29.785,24.902,33.203,-253.906,0
31814.143,31.250,29.297,26.367,26.855,-260.742,0
31814.147,31.250,29.785,30.762,41.504,256.836,0
31814.151,34.180,28.320,32.227,49.805,378.418,0
31814.155,36.133,30.273,27.832,40.527,-126.953,0
31814.159,42.480,33.691,26.855,29.297,-341.309,0
31814.162,38.574,32.227,34.668,42.480,123.535,0
31814.166,27.832,27.344,35.156,50.293,415.039,0
31814.170,29.297,23.926,31.738,38.574,8.789,0
31814.174,30.762,27.832,35.156,25.879,-372.559,0
31814.178,23.438,25.879,33.203,25.879,-50.293,0
31814.182,22.949,21.484,33.203,40.527,395.508,0
31814.186,23.438,22.949,31.250,40.527,155.762,0
31814.190,28.320,26.367,24.902,23.926,-331.543,0
31814.194,34.668,29.297,26.855,22.949,-180.176,0
31814.198,33.203,27.832,29.785,41.504,336.426,0
31814.202,29.785,27.832,30.762,45.898,291.504,0
31814.205,26.367,29.297,33.203,31.738,-237.305,0
31814.209,31.250,30.273,32.715,14.648,-298.828,0
31814.213,37.598,35.156,32.715,31.250,212.891,0
31814.217,33.691,33.203,35.156,49.316,376.953,0
31814.221,29.785,33.203,26.855,29.297,-99.609,2
31814.225,34.180,37.598,23.438,9.277,-350.586,0
31814.229,32.715,33.691,25.391,25.879,81.543,0
31814.233,22.461,34.180,26.367,46.875,431.641,0
31814.237,20.996,34.180,32.715,34.180,76.172,0
31814.241,28.320,32.227,29.785,20.020,-339.355,0
31814.245,27.832,34.668,26.367,24.902,-70.801,0
31814.248,27.832,36.621,31.738,41.992,379.883,0
31814.252,25.391,37.598,34.668,39.551,184.082,0
31814.256,23.438,36.133,30.762,16.113,-322.266,0
31814.260,22.461,31.250,27.344,8.301,-228.516,0
31814.264,20.020,32.715,28.809,25.879,290.527,0
31814.268,22.461,35.156,32.227,33.691,294.922,0
31814.272,29.785,29.785,25.879,20.996,-224.609,0
31814.276,28.809,29.785,23.438,22.461,-333.984,0
31814.280,14.160,34.180,27.344,35.645,167.969,0
31814.284,11.230,31.738,30.762,37.109,378.418,0
31814.287,15.625,24.902,32.715,25.391,-81.543,0
31814.291,17.578,25.879,28.320,15.137,-374.023,0
31814.295,20.020,29.297,34.668,28.320,33.691,0
31814.299,20.020,28.320,39.551,46.387,423.340,0
31814.303,24.414,29.297,30.762,44.434,103.027,0
31814.307,34.180,31.250,29.785,25.391,-342.285,0
31814.311,38.574,34.180,33.203,24.902,-105.469,0
31814.315,34.668,32.715,35.156,41.016,375.977,0
31814.319,23.926,29.785,34.668,36.133,227.539,0
31814.323,29.297,31.738,30.273,19.531,-286.621,0
31814.327,28.809,27.832,29.785,21.484,-244.629,0
31814.330,20.508,29.785,32.227,39.062,275.879,0
31814.334,21.973,29.785,34.668,39.551,341.797,0
31814.338,24.902,26.367,27.344,15.137,-186.035,0
31814.342,29.297,30.762,25.391,4.395,-350.586,0
31814.346,23.438,29.785,28.320,24.414,132.812,0
31814.350,19.043,27.832,28.320,40.039,394.531,0
31814.354,27.344,30.273,34.180,30.762,-25.879,0
31814.358,33.203,28.809,31.250,16.602,-372.070,0
31814.362,36.133,28.809,23.926,26.367,-9.766,0
31814.366,36.133,32.227,25.391,56.152,412.109,0
31814.370,31.738,34.668,27.832,54.199,139.160,0
31814.373,37.598,33.203,24.414,27.832,-328.613,0
31814.377,36.621,32.715,24.414,25.391,-129.883,0
31814.381,28.320,30.762,25.391,41.016,387.695,0
31814.385,27.344,27.832,24.414,48.828,299.316,0
31814.389,30.762,28.809,30.273,38.574,-234.375,0
31814.393,30.762,26.367,29.297,30.762,-252.441,0
31814.397,25.391,26.367,28.809,45.898,259.277,0
31814.401,28.809,27.344,31.738,58.105,372.559,0
31814.405,31.738,22.461,25.879,41.016,-123.535,0
31814.409,31.738,25.391,20.996,23.438,-346.680,0
31814.412,31.250,32.715,27.344,29.785,99.609,0
31814.416,24.414,29.785,31.738,42.480,408.691,0
31814.420,25.879,29.297,26.855,37.109,21.973,0
31814.424,36.133,35.156,25.879,19.531,-369.629,0
31814.428,36.133,35.156,30.762,24.414,-58.105,0
31814.432,26.855,32.227,29.297,43.945,389.160,0
31814.436,31.738,34.668,23.926,43.457,155.273,0
31814.440,40.527,31.738,21.484,22.949,-341.309,0
31814.444,40.039,28.320,20.508,25.391,-204.590,0
31814.448,37.109,29.297,19.043,47.363,317.871,0
31814.452,33.203,26.855,20.020,45.898,298.340,0
31814.455,26.367,25.391,20.020,31.738,-214.355,0
31814.459,22.461,25.391,20.020,14.648,-277.344,0
31814.463,25.391,26.367,28.809,35.156,234.863,0
31814.467,24.902,25.391,29.785,59.082,404.785,0
31814.471,18.066,23.438,22.461,36.621,-72.754,0
31814.475,20.996,26.855,20.020,16.602,-335.938,0
31814.479,24.902,33.203,24.414,29.297,89.355,0
31814.483,19.043,30.762,26.855,49.805,424.805,0
31814.487,22.461,28.320,27.344,47.852,57.129,0
31814.491,32.227,27.344,25.879,30.762,-361.328,0
31814.495,29.785,24.902,30.273,34.668,-83.496,0
31814.498,25.391,27.832,30.273,55.664,386.719,0
31814.502,26.855,28.320,17.578,54.199,202.637,0
31814.506,33.691,25.879,15.137,22.461,-307.129,0
31814.510,34.180,34.180,25.391,23.438,-220.703,0
31814.514,28.320,38.086,33.691,48.340,309.082,0
31814.518,21.973,30.273,29.785,49.805,332.520,0
31814.522,27.344,29.785,23.926,30.273,-190.918,0
31814.526,32.715,34.180,27.832,16.602,-316.895,0
31814.530,21.484,34.668,32.227,28.320,170.898,0
31814.534,18.066,37.109,27.832,44.434,389.160,0
31814.537,27.832,38.574,22.949,35.645,-54.199,0
31814.541,34.668,34.180,23.438,20.020,-364.746,0
31814.545,32.715,34.180,29.297,30.273,23.926,0
31814.549,25.879,33.203,28.320,43.945,415.527,0
31814.553,23.926,31.738,23.438,34.180,97.168,0
31814.557,26.855,32.227,27.832,11.230,-355.957,0
31814.561,25.391,30.273,25.879,16.602,-130.371,0
31814.565,22.949,26.855,24.902,45.410,367.188,0
31814.569,13.672,23.438,24.902,47.852,241.211,0
31814.573,13.672,27.832,23.438,26.855,-277.832,0
31814.577,25.879,33.691,24.414,22.949,-240.234,0
31814.580,26.367,31.738,25.879,44.922,285.645,0
31814.584,20.020,27.832,27.832,60.547,361.816,0
31814.588,26.367,28.320,24.902,41.504,-143.066,0
31814.592,34.180,31.738,24.902,23.926,-317.871,0
31814.596,31.738,32.715,24.902,45.898,147.949,0
31814.600,28.320,32.715,27.832,53.223,415.527,0
31814.604,28.809,33.203,31.250,28.320,-5.859,0
31814.608,30.762,31.250,29.297,13.184,-363.770,0
31814.612,30.762,29.785,28.320,27.344,-12.207,0
31814.616,26.367,31.250,30.273,45.410,413.574,0
31814.620,25.879,28.320,27.344,41.016,145.508,0
31814.623,35.645,31.250,25.391,26.855,-332.031,0
31814.627,38.086,33.203,26.855,21.973,-171.875,0
31814.631,29.785,31.250,23.926,39.551,329.590,0
31814.635,24.902,31.250,22.461,48.340,270.508,0
31814.639,25.879,31.738,27.344,33.203,-237.793,0
31814.643,25.879,28.320,30.273,26.367,-273.926,0
31814.647,20.996,28.809,26.855,41.504,220.703,0
31814.651,16.602,31.250,29.785,50.293,344.238,0
31814.655,20.508,23.926,32.715,33.203,-145.020,0
31814.659,25.391,21.973,28.809,13.184,-366.699,0
31814.662,24.902,26.367,23.926,26.855,75.684,0
31814.666,18.066,28.320,27.832,52.246,394.531,0
31814.670,17.578,26.367,28.320,41.016,16.602,0
31814.674,24.902,28.320,20.508,21.484,-374.512,0
31814.678,26.855,31.738,25.391,30.273,-57.617,0
31814.682,22.949,29.785,30.273,45.898,400.391,0
31814.686,19.531,27.832,35.156,48.340,185.547,0
31814.690,22.949,27.832,39.062,33.691,-306.641,0
31814.694,24.902,28.320,30.762,29.785,-183.105,0
31814.698,22.949,32.227,25.879,49.805,330.078,0
31814.702,28.320,35.156,31.738,54.199,309.570,0
31814.705,31.250,35.156,32.227,33.691,-214.844,0
31814.709,26.855,34.668,28.809,20.020,-298.828,0
31814.713,20.020,33.691,28.809,26.855,210.449,0
31814.717,13.672,30.273,28.809,43.945,393.066,0
31814.721,20.508,29.297,30.762,37.109,-73.730,0
31814.725,22.949,30.273,32.715,16.602,-349.121,0
31814.729,17.090,29.785,30.762,29.785,60.059,0
31814.733,16.602,28.320,29.785,53.223,424.316,0
31814.737,18.555,30.273,26.367,42.969,79.590,0
31814.741,26.855,30.273,26.855,20.508,-352.539,0
31814.745,24.414,28.320,26.367,20.508,-89.844,0
31814.748,9.277,24.902,22.949,37.598,376.953,0
31814.752,12.207,28.320,27.344,34.180,210.938,0
31814.756,22.949,32.227,29.297,13.184,-296.875,0
31814.760,19.531,29.785,26.367,16.113,-248.047,0
31814.764,14.160,31.250,26.855,39.551,258.789,0
31814.768,17.578,29.785,28.809,43.945,289.551,0
31814.772,18.555,31.250,25.391,18.555,-220.703,0
31814.776,15.625,32.227,23.926,5.371,-347.168,0
31814.780,15.625,30.762,25.391,26.855,138.672,0
31814.784,15.137,29.785,32.715,47.852,373.047,0
31814.787,17.090,32.227,32.227,37.109,-60.059,0
31814.791,23.926,34.180,29.785,19.043,-371.094,0
31814.795,19.043,30.762,28.320,23.926,11.230,0
31814.799,15.137,29.297,25.879,39.551,405.273,0
31814.803,20.508,30.273,29.785,33.203,100.098,0
31814.807,32.715,33.691,32.227,22.461,-351.562,0
31814.811,38.086,33.203,32.715,26.367,-132.812,0
31814.815,20.996,30.762,34.180,37.109,359.375,0
31814.819,15.625,30.762,29.297,40.039,244.629,0
31814.823,23.438,28.809,27.344,23.438,-270.996,0
31814.827,23.926,26.855,33.203,24.414,-251.953,0
31814.830,22.949,31.250,38.574,45.898,262.695,0
31814.834,25.879,31.250,36.133,40.039,343.262,0
31814.838,24.902,28.320,27.344,17.090,-159.180,0
31814.842,21.484,32.715,27.832,17.578,-342.285,0
31814.846,22.461,37.109,31.738,34.180,118.652,0
31814.850,20.996,35.645,27.832,43.945,398.438,0
31814.854,20.508,35.156,30.273,32.227,-3.418,0
31814.858,32.715,39.062,33.691,18.555,-364.258,0
31814.862,35.156,36.133,37.598,28.320,-30.762,0
31814.866,21.484,31.738,30.273,46.387,404.297,0
31814.870,19.531,35.645,20.996,41.504,164.551,1
31814.873,32.715,36.621,24.902,25.879,-315.918,0
31814.877,32.227,32.227,27.832,26.855,-164.062,0
31814.881,25.879,30.273,29.785,46.387,332.520,0
31814.885,27.344,28.809,24.902,58.105,273.926,0
31814.889,32.227,30.273,22.949,28.809,-238.281,0
31814.893,33.203,32.227,25.879,11.719,-273.438,0
31814.897,31.250,34.180,28.320,39.062,243.164,0
31814.901,33.691,37.109,27.344,55.176,389.648,0
31814.905,37.598,36.133,26.855,39.551,-94.238,0
31814.909,39.062,34.668,24.414,26.367,-342.773,0
31814.912,29.785,35.645,24.414,36.133,90.332,0
31814.916,26.855,32.715,32.227,50.293,420.410,0
31814.920,31.250,32.715,37.109,43.945,38.574,0
31814.924,31.738,35.156,36.621,26.367,-363.281,0
31814.928,32.227,34.668,29.297,26.855,-64.453,0
31814.932,28.809,34.668,26.855,46.875,389.648,0
31814.936,24.902,33.203,28.809,47.852,188.477,0
31814.940,30.762,30.762,28.809,25.391,-301.270,0
31814.944,37.109,35.156,29.297,22.949,-194.824,0
31814.948,31.250,37.109,39.062,42.480,305.176,0
31814.952,22.949,35.645,40.039,49.316,289.062,0
31814.955,24.414,34.668,30.762,34.668,-228.516,0
31814.959,27.832,36.133,28.320,33.203,-319.824,0
31814.963,26.367,36.133,28.320,48.340,180.664,0
31814.967,20.996,32.715,28.320,47.363,386.230,0
31814.971,20.996,31.738,25.879,32.227,-66.895,0
31814.975,30.762,33.203,26.367,23.926,-354.492,0
31814.979,30.273,34.180,32.715,30.762,52.734,0
31814.983,26.367,28.809,34.668,42.969,422.363,0
31814.987,24.414,26.367,24.902,40.527,85.938,0
31814.991,25.391,32.715,23.438,27.344,-338.379,0
31814.995,26.367,32.715,34.180,35.156,-81.055,0
31814.998,20.996,26.367,31.250,46.387,388.184,0
31815.002,20.996,27.344,25.879,40.527,228.516,0
31815.006,31.738,34.180,31.738,30.762,-275.391,0
31815.010,40.039,38.086,27.832,29.297,-219.238,0
31815.014,39.062,33.691,25.879,42.480,284.668,0
31815.018,40.527,32.715,33.203,53.711,331.543,0
31815.022,38.574,34.180,28.809,34.180,-171.875,0
31815.026,41.504,33.203,20.996,13.672,-324.219,0
31815.030,49.805,33.691,22.461,31.738,148.926,0
31815.034,44.434,35.156,26.367,48.828,395.508,0
31815.037,35.645,31.250,24.902,38.086,-40.039,0
31815.041,38.574,32.715,27.832,22.461,-376.465,0
31815.045,35.645,33.203,27.832,30.762,-9.277,0
31815.049,25.879,32.227,21.973,41.504,395.508,0
31815.053,27.344,35.156,19.531,30.762,112.305,0
31815.057,36.133,36.133,18.066,16.113,-345.215,0
31815.061,36.621,36.621,18.066,21.484,-147.949,0
31815.065,40.527,38.086,19.531,40.527,355.469,0
31815.069,45.898,34.668,20.996,47.363,260.254,0
31815.073,41.992,30.762,23.926,26.367,-257.324,0
31815.077,37.109,29.785,26.367,17.578,-249.023,0
31815.080,27.344,29.785,22.949,38.574,262.207,0
31815.084,20.020,30.762,22.461,53.223,354.980,0
31815.088,25.391,31.250,22.461,33.691,-130.859,0
31815.092,32.227,27.344,18.555,19.531,-313.965,0
31815.096,33.691,30.762,22.949,44.434,145.996,0
31815.100,30.762,32.715,29.297,57.129,426.270,0
31815.104,33.203,27.832,30.273,41.016,24.414,0
31815.108,41.992,30.762,30.762,36.621,-343.262,0
31815.112,40.039,32.715,26.855,43.457,-20.996,0
31815.116,34.180,32.227,21.973,44.434,406.738,0
31815.120,41.504,31.738,24.902,43.945,167.480,0
31815.123,46.387,28.809,23.438,26.855,-318.848,0
31815.127,42.969,27.344,28.320,33.203,-171.875,0
31815.131,44.434,28.809,31.250,60.547,343.262,0
31815.135,47.852,32.715,25.391,51.758,290.527,0
31815.139,46.875,30.762,23.926,27.344,-228.516,0
31815.143,46.875,32.227,23.438,29.785,-266.602,0
31815.147,49.316,37.109,28.809,55.664,244.141,0
31815.151,45.898,37.109,31.250,56.641,391.113,0
31815.155,48.828,36.621,27.832,32.227,-88.379,0
31815.159,53.711,34.180,27.832,20.996,-332.520,0
31815.162,49.805,33.203,27.832,37.109,94.238,0
31815.166,36.621,30.273,28.809,53.223,424.316,0
31815.170,28.809,27.832,30.762,51.270,65.918,0
31815.174,35.645,33.203,28.809,32.715,-340.820,0
31815.178,37.598,36.133,32.227,31.738,-61.523,0
31815.182,35.645,35.156,38.086,52.734,396.973,0
31815.186,33.203,35.156,41.504,47.852,204.102,0
31815.190,32.227,36.133,34.668,28.320,-288.574,0
31815.194,33.691,34.668,27.832,19.531,-184.082,0
31815.198,37.598,34.668,26.855,39.062,331.055,0
31815.202,40.039,33.203,26.367,50.781,327.637,0
31815.205,38.086,29.785,27.832,27.832,-197.266,0
31815.209,42.969,29.785,34.180,20.020,-294.434,0
31815.213,38.086,34.180,31.250,39.551,212.891,0
31815.217,25.391,32.715,22.949,53.223,406.738,0
31815.221,32.227,28.809,23.438,40.039,-62.012,0
31815.225,39.551,29.297,23.438,27.832,-357.910,0
31815.229,32.715,35.156,25.879,41.504,47.363,0
31815.233,29.785,34.668,30.762,53.711,422.363,0
31815.237,36.133,27.344,27.344,42.969,85.938,0
31815.241,47.852,29.297,23.926,21.973,-349.609,0
31815.245,54.688,31.738,29.785,30.762,-97.168,0
31815.248,43.945,30.273,24.414,49.805,379.883,0
31815.252,34.668,28.320,13.184,46.387,230.957,0
31815.256,43.457,28.320,20.996,32.715,-275.391,0
31815.260,48.340,30.762,26.855,26.855,-231.445,0
31815.264,42.969,34.668,29.785,52.734,286.621,0
31815.268,35.645,32.227,31.738,68.848,351.562,0
31815.272,32.715,30.762,31.250,44.922,-154.785,0
31815.276,35.156,33.691,31.250,27.344,-314.453,0
31815.280,34.668,31.738,30.762,37.109,155.762,0
31815.284,30.273,29.297,22.949,45.410,404.297,0
31815.287,27.832,28.809,18.066,28.809,-19.043,0
31815.291,32.715,28.809,23.926,18.066,-355.957,0
31815.295,30.762,31.738,27.832,33.203,-7.324,0
31815.299,20.020,30.762,27.344,42.969,399.414,0
31815.303,20.020,31.250,29.297,34.180,114.746,0
31815.307,27.832,32.715,29.785,16.602,-358.887,0
31815.311,27.832,32.715,26.855,22.461,-163.574,0
31815.315,24.414,29.297,25.879,43.945,346.680,0
31815.319,28.320,26.367,25.879,45.898,263.184,0
31815.323,38.086,26.855,29.785,36.133,-252.441,0
31815.327,44.434,30.762,29.785,26.855,-265.137,0
31815.330,38.086,32.227,28.809,34.180,240.723,0
31815.334,38.086,30.273,28.320,44.922,363.770,0
31815.338,41.504,29.297,22.949,37.598,-125.488,0
31815.342,42.969,29.297,26.367,29.785,-338.867,0
31815.346,38.574,32.227,31.738,39.062,115.723,0
31815.350,31.738,32.227,22.949,43.457,413.574,0
31815.354,39.551,34.180,14.160,35.645,13.672,0
31815.358,47.852,35.645,19.043,16.113,-369.629,0
31815.362,41.504,35.156,21.484,6.836,-55.176,0
31815.366,36.621,34.180,18.555,31.250,386.230,0
31815.370,30.273,35.645,22.949,30.762,156.250,0
31815.373,31.738,37.109,24.902,14.160,-326.172,0
31815.377,33.691,38.086,24.902,23.438,-180.176,0
31815.381,25.391,38.574,27.344,37.109,328.125,0
31815.385,23.926,34.668,25.879,41.992,288.086,0
31815.389,27.344,31.738,23.926,26.367,-225.586,0
31815.393,29.785,31.738,24.414,18.066,-285.156,0
31815.397,24.414,33.203,27.344,38.086,211.426,0
31815.401,17.578,31.250,33.691,52.734,376.465,0
31815.405,21.973,27.832,30.762,36.133,-93.750,0
31815.409,25.391,30.762,24.414,12.207,-367.676,0
31815.412,20.020,33.691,23.438,18.066,46.875,0
31815.416,18.555,32.715,22.461,36.133,399.902,0
31815.420,13.672,32.715,23.438,15.625,47.363,0
31815.424,18.555,36.133,21.973,-1.953,-368.652,0
31815.428,24.414,35.645,21.973,8.301,-95.215,0
31815.432,17.090,29.297,26.367,23.438,369.629,0
31815.436,17.578,30.273,26.855,26.367,192.383,0
31815.440,20.020,34.180,24.902,14.160,-312.012,0
31815.444,20.508,34.668,27.832,12.207,-227.539,0
31815.448,22.461,36.621,33.691,26.855,289.551,0
31815.452,28.809,41.992,33.203,36.621,302.734,0
31815.455,24.902,41.992,28.809,15.137,-215.332,0
31815.459,15.137,33.203,24.902,0.488,-329.590,0
31815.463,8.301,32.227,22.461,11.719,151.855,0
31815.467,-0.488,34.668,31.738,21.484,355.469,0
31815.471,-7.324,32.715,33.203,5.371,-90.332,0
31815.475,-4.883,36.621,31.250,-20.996,-394.531,1
31815.479,-8.789,33.203,30.762,-17.578,-15.625,0
31815.483,-22.461,35.156,24.414,-3.906,359.375,0
31815.487,-21.973,38.086,34.668,-1.465,39.551,0
31815.491,-25.879,28.320,40.039,-20.020,-412.598,0
31815.495,-40.039,30.273,36.133,-30.762,-186.035,0
31815.498,-43.457,36.133,35.645,-15.625,301.270,0
31815.502,-42.480,35.156,36.621,-8.789,164.551,0
31815.506,-53.711,31.738,39.062,-40.039,-363.770,0
31815.510,-61.035,33.203,41.992,-61.035,-328.613,0
31815.514,-56.641,36.133,44.434,-51.758,192.871,0
31815.518,-59.570,34.180,47.852,-49.316,248.047,0
31815.522,-62.988,31.250,46.875,-72.266,-269.043,0
31815.526,-62.988,29.297,41.992,-85.938,-430.664,0
31815.530,-67.871,29.785,39.062,-64.453,44.922,0
31815.534,-60.059,35.156,34.668,-43.945,321.777,0
31815.537,-48.828,34.180,33.203,-49.805,-86.426,0
31815.541,-39.062,31.738,38.086,-59.082,-436.035,0
31815.545,-35.645,31.738,39.551,-43.457,-79.102,0
31815.549,-34.668,30.762,37.598,-16.113,353.027,0
31815.553,-24.414,31.738,38.086,-12.695,85.449,0
31815.557,-16.113,30.273,35.645,-31.738,-395.508,0
31815.561,-10.742,32.715,35.645,-21.484,-210.449,0
31815.565,-6.836,32.715,35.645,7.812,297.852,0
31815.569,-0.977,29.785,31.250,12.695,231.445,0
31815.573,10.742,30.762,31.738,2.930,-266.602,0
31815.577,21.484,27.832,27.832,1.953,-274.414,0
31815.580,20.020,26.367,28.320,28.320,237.793,0
31815.584,25.879,29.785,30.273,49.316,360.352,0
31815.588,34.668,29.785,30.273,38.574,-130.371,0
31815.592,33.691,26.367,30.273,30.762,-347.168,0
31815.596,33.203,28.320,32.227,48.828,105.957,0
31815.600,35.156,29.785,36.133,64.941,418.457,0
31815.604,37.109,27.344,28.320,55.664,37.598,0
31815.608,47.363,29.785,23.926,43.457,-343.750,0
31815.612,56.641,32.715,27.344,51.758,-28.809,0
31815.616,48.340,32.715,24.414,70.801,416.016,0
31815.620,44.922,31.738,24.414,65.430,193.848,0
31815.623,54.688,31.250,24.414,44.922,-294.434,0
31815.627,62.500,31.738,25.879,49.316,-157.227,0
31815.631,58.105,30.273,30.762,73.242,366.699,0
31815.635,53.711,29.297,30.762,70.312,340.332,0
31815.639,55.664,27.344,23.438,47.363,-180.176,0
31815.643,60.059,27.344,22.949,57.617,-245.117,0
31815.647,55.664,27.344,27.832,74.219,257.812,0
31815.651,53.223,29.297,24.414,75.195,428.223,0
31815.655,58.105,22.949,22.461,59.082,-44.434,0
31815.659,63.965,20.020,22.949,43.457,-319.824,0
31815.662,64.453,24.414,25.879,59.570,86.914,0
31815.666,54.688,23.926,25.879,75.684,426.758,0
31815.670,54.199,22.949,24.414,70.312,75.195,0
31815.674,61.523,24.902,21.973,46.387,-345.215,0
31815.678,60.059,29.785,20.996,48.828,-81.543,0
31815.682,53.223,28.809,24.414,73.242,389.160,0
31815.686,51.270,26.367,23.438,73.242,227.051,0
31815.690,51.758,28.320,22.461,54.688,-271.973,0
31815.694,56.641,28.320,20.996,51.758,-191.406,0
31815.698,57.129,30.273,22.461,66.406,337.402,0
31815.702,51.758,29.785,23.926,72.754,376.953,0
31815.705,57.617,27.344,26.855,57.617,-134.277,0
31815.709,61.523,26.367,30.273,47.852,-259.277,0
31815.713,64.941,30.273,31.250,68.848,226.562,0
31815.717,57.129,30.273,32.715,81.055,451.172,0
31815.721,51.758,24.902,27.832,60.059,12.207,0
31815.725,62.500,24.414,23.926,43.945,-308.105,0
31815.729,60.059,28.809,24.902,57.129,58.594,0
31815.733,55.664,28.809,25.391,75.684,444.824,0
31815.737,59.082,28.320,22.949,62.012,141.113,0
31815.741,58.105,27.832,22.949,33.203,-313.965,0
31815.745,62.988,31.250,25.879,37.598,-103.027,0
31815.748,61.035,34.668,26.367,59.570,377.930,0
31815.752,47.852,31.250,22.461,59.570,253.418,0
31815.756,47.363,32.227,23.438,41.992,-258.301,0
31815.760,47.363,32.227,24.902,34.668,-232.422,0
31815.764,45.410,37.109,32.227,52.734,278.320,0
31815.768,44.434,32.715,34.668,57.617,349.121,0
31815.772,40.039,27.832,22.461,39.062,-151.367,0
31815.776,34.180,30.273,22.949,29.785,-332.031,0
31815.780,27.832,28.320,32.227,41.016,136.719,0
31815.784,27.344,28.320,28.320,51.758,414.551,0
31815.787,33.203,29.297,23.926,48.828,1.953,0
31815.791,39.551,30.273,27.832,31.738,-353.516,0
31815.795,36.621,28.320,26.367,25.879,-18.555,0
31815.799,36.621,28.320,26.855,46.875,400.391,0
31815.803,41.992,30.762,28.320,54.199,145.020,0
31815.807,41.016,30.762,23.926,26.367,-315.918,0
31815.811,42.969,35.156,28.809,28.320,-135.742,0
31815.815,47.363,41.016,37.109,57.129,362.793,0
31815.819,39.551,35.156,30.762,48.340,280.762,0
31815.823,40.527,32.227,23.926,25.391,-237.305,0
31815.827,44.922,33.691,22.461,30.273,-257.324,0
31815.830,41.016,36.621,22.949,46.387,263.184,0
31815.834,41.504,34.180,29.785,64.941,410.156,0
31815.838,46.875,30.762,30.762,49.316,-66.895,0
31815.842,55.664,32.715,22.461,34.668,-293.945,0
31815.846,56.641,33.691,21.484,54.199,141.113,0
31815.850,46.875,33.203,20.020,65.918,452.637,0
31815.854,37.598,35.156,17.578,62.012,67.871,0
31815.858,37.109,31.738,20.996,45.410,-324.707,0
31815.862,42.969,31.250,31.250,46.875,-13.672,0
31815.866,36.133,30.762,34.668,58.594,431.152,0
31815.870,28.809,28.320,26.855,47.852,205.566,0
31815.873,34.668,31.738,29.785,35.156,-293.945,0
31815.877,42.969,38.574,31.738,48.828,-167.480,0
31815.881,36.133,38.086,26.367,63.965,341.797,0
31815.885,34.668,36.133,32.715,62.988,318.359,0
31815.889,37.109,36.133,31.250,41.016,-206.055,0
31815.893,35.645,33.691,30.273,27.832,-294.434,0
31815.897,31.250,30.762,36.133,36.133,203.125,0
31815.901,19.531,33.203,30.762,41.504,380.859,0
31815.905,16.113,34.180,33.203,19.043,-90.820,0
31815.909,8.789,33.691,40.527,-7.812,-377.930,0
31815.912,-0.488,32.715,42.480,2.930,33.203,0
31815.916,-12.695,33.203,41.016,1.953,382.324,0
31815.920,-10.254,40.039,41.992,-10.742,33.691,0
31815.924,-7.324,34.668,47.363,-20.996,-403.320,0
31815.928,-33.691,28.809,54.688,-42.480,-172.363,0
31815.932,-62.012,29.785,48.828,-55.664,284.180,0
31815.936,-73.730,30.762,48.340,-62.988,113.770,0
31815.940,-81.055,30.273,56.152,-83.496,-399.902,0
31815.944,-90.820,28.320,51.758,-89.355,-344.727,0
31815.948,-109.375,26.855,49.316,-82.031,166.016,0
31815.952,-117.188,28.809,54.199,-98.633,207.031,0
31815.955,-111.816,28.809,51.270,-120.117,-312.012,0
31815.959,-107.422,31.250,46.875,-120.117,-459.961,0
31815.963,-104.004,35.645,46.875,-104.004,17.090,0
31815.967,-103.027,35.156,48.828,-85.938,257.812,0
31815.971,-98.633,31.250,46.875,-89.844,-167.480,0
31815.975,-86.426,30.762,42.969,-100.098,-482.422,0
31815.979,-74.219,31.738,44.434,-88.379,-98.633,0
31815.983,-66.406,33.203,46.387,-55.176,309.082,0
31815.987,-54.199,34.180,48.340,-41.504,24.902,0
31815.991,-38.574,28.320,47.852,-53.223,-419.434,0
31815.995,-24.902,22.949,46.387,-47.852,-199.707,0
31815.998,-15.137,25.879,37.598,-20.996,299.316,0
31816.002,-16.113,26.855,30.762,-7.812,193.359,0
31816.006,-9.277,28.809,32.715,-15.137,-309.082,0
31816.010,6.348,29.297,33.691,-4.395,-285.645,0
31816.014,14.648,30.762,28.809,23.926,238.281,0
31816.018,31.250,32.227,30.273,45.410,346.191,0
31816.022,42.969,29.785,34.180,42.969,-137.695,0
31816.026,45.410,28.320,31.738,34.180,-323.242,0
31816.030,49.805,32.715,26.367,46.387,146.484,0
31816.034,51.758,34.180,24.414,70.801,440.918,0
31816.037,54.688,25.879,24.414,72.266,44.922,1
31816.041,62.500,23.438,22.949,56.152,-312.012,0
31816.045,70.801,25.879,27.832,68.848,21.484,0
31816.049,70.312,27.344,25.879,90.820,441.406,0
31816.053,66.895,28.809,22.949,85.449,189.941,0
31816.057,71.777,26.367,24.414,73.730,-285.645,0
31816.061,80.078,29.297,28.809,83.496,-117.188,0
31816.065,84.473,33.203,37.109,105.469,396.484,0
31816.069,83.496,29.785,32.227,109.375,338.379,0
31816.073,84.961,28.320,20.996,87.891,-168.945,0
31816.077,87.402,27.344,21.973,75.684,-213.379,0
31816.080,79.590,23.926,22.949,94.727,273.926,0
31816.084,69.336,21.973,18.066,96.191,409.180,0
31816.088,76.172,25.879,15.137,77.148,-67.383,0
31816.092,85.938,32.227,19.531,75.195,-300.293,0
31816.096,82.520,32.227,24.414,84.961,132.812,0
31816.100,75.195,30.762,21.973,94.238,453.613,0
31816.104,75.195,30.273,20.020,83.496,78.125,0
31816.108,79.590,29.297,24.902,65.918,-317.383,0
31816.112,77.637,30.273,29.297,77.637,-20.996,0
31816.116,70.312,31.250,22.949,96.191,434.570,0
31816.120,72.266,32.715,19.531,91.309,239.258,0
31816.123,75.684,31.250,19.531,75.195,-258.789,0
31816.127,75.684,28.320,21.484,68.848,-148.926,0
31816.131,66.895,30.273,24.902,77.637,361.816,0
31816.135,62.988,31.250,26.855,82.520,353.516,0
31816.139,71.777,27.344,24.414,73.242,-163.574,0
31816.143,73.242,28.320,21.973,62.500,-268.066,0
31816.147,66.406,32.227,22.949,76.660,228.516,0
31816.151,61.523,29.297,23.438,88.867,428.711,0
31816.155,57.617,27.344,22.461,71.777,-40.527,0
31816.159,54.199,27.344,24.414,53.711,-335.449,0
31816.162,50.781,30.762,28.809,62.988,58.594,0
31816.166,43.457,32.227,27.344,78.125,413.086,0
31816.170,41.992,28.809,24.414,70.801,94.238,0
31816.174,51.758,26.367,22.949,50.781,-325.195,0
31816.178,56.152,30.273,21.484,49.805,-77.637,0
31816.182,54.688,32.227,24.902,68.848,406.738,0
31816.186,61.035,27.832,28.809,70.312,264.160,0
31816.190,57.617,27.832,24.902,47.363,-248.535,0
31816.194,48.340,32.715,20.020,39.062,-201.660,0
31816.198,52.246,33.691,19.531,51.270,312.012,0
31816.202,58.594,28.809,17.578,57.129,355.469,0
31816.205,58.594,29.785,18.066,42.969,-153.809,0
31816.209,54.688,32.715,20.020,36.133,-300.781,0
31816.213,42.969,34.668,19.531,53.711,167.969,0
31816.217,38.574,35.156,19.043,63.477,410.156,0
31816.221,49.316,34.668,21.973,50.781,-13.672,0
31816.225,57.129,32.715,22.949,40.039,-339.355,0
31816.229,54.688,30.762,19.531,49.316,28.320,0
31816.233,49.316,30.273,20.020,65.918,427.246,0
31816.237,51.758,29.785,22.949,56.152,136.719,0
31816.241,65.430,29.297,27.344,37.109,-322.266,0
31816.245,65.430,32.227,28.809,40.039,-125.000,0
31816.248,54.199,34.180,25.391,61.035,362.793,0
31816.252,51.758,33.203,24.414,59.082,258.301,0
31816.256,45.410,28.809,21.973,33.691,-258.301,0
31816.260,42.480,27.344,20.996,35.645,-253.418,0
31816.264,43.945,26.855,25.879,56.152,271.973,0
31816.268,39.062,25.391,27.344,58.105,386.719,0
31816.272,30.762,30.762,25.391,44.922,-108.887,0
31816.276,37.109,30.273,26.855,29.785,-312.500,0
31816.280,37.598,21.484,29.785,41.016,139.648,0
31816.284,34.668,25.391,30.273,62.500,433.105,0
31816.287,43.945,28.320,33.691,49.316,38.574,0
31816.291,46.387,25.879,35.645,23.926,-345.703,0
31816.295,49.316,27.832,34.180,29.785,-28.809,0
31816.299,46.875,29.785,27.344,53.223,397.461,0
31816.303,40.039,32.227,26.855,45.410,151.855,0
31816.307,41.992,32.227,30.762,18.066,-326.660,0
31816.311,39.062,32.715,28.809,13.184,-178.711,0
31816.315,39.551,34.180,29.785,28.809,329.590,0
31816.319,45.898,32.227,29.785,35.156,283.203,0
31816.323,42.480,32.715,27.832,19.043,-229.492,0
31816.327,39.551,35.156,29.785,18.066,-276.855,0
31816.330,40.527,36.621,29.785,39.062,227.051,0
31816.334,35.156,36.133,30.762,50.781,384.766,0
31816.338,38.574,34.668,30.273,31.738,-89.844,0
31816.342,38.086,37.109,26.367,5.371,-344.238,0
31816.346,36.133,35.156,27.344,20.508,74.219,0
31816.350,41.016,34.668,31.738,52.734,406.250,0
31816.354,33.691,36.621,29.785,35.156,44.434,0
31816.358,33.203,31.738,21.484,6.348,-360.352,0
31816.362,41.504,31.738,27.832,24.414,-73.730,0
31816.366,32.715,31.738,34.668,50.293,386.719,0
31816.370,25.879,27.832,33.203,42.969,200.195,0
31816.373,36.133,27.832,34.668,23.438,-304.688,0
31816.377,39.551,28.809,33.691,27.344,-214.844,0
31816.381,34.180,28.320,34.180,48.340,303.711,0
31816.385,33.691,27.344,34.180,51.758,319.336,0
31816.389,34.668,29.785,32.715,25.391,-185.059,0
31816.393,42.480,34.180,36.133,9.766,-286.133,0
31816.397,42.480,33.203,36.621,31.738,204.102,0
31816.401,35.645,31.250,34.180,46.875,404.297,0
31816.405,38.574,33.691,28.320,34.668,-45.898,0
31816.409,40.527,35.156,24.414,24.414,-337.891,0
31816.412,39.062,34.668,30.273,43.457,54.688,0
31816.416,44.434,38.574,36.621,63.965,435.547,0
31816.420,43.945,35.156,33.691,40.527,112.793,0
31816.424,41.504,30.273,27.832,14.160,-330.566,0
31816.428,44.922,31.738,29.297,22.461,-90.820,0
31816.432,44.434,34.180,30.762,52.734,388.672,0
31816.436,39.551,34.180,32.715,49.805,240.234,0
31816.440,38.574,29.297,35.156,17.578,-267.578,0
31816.444,40.039,26.367,33.691,23.926,-217.285,0
31816.448,35.645,26.855,32.227,46.875,292.480,0
31816.452,29.297,28.320,32.227,46.875,349.609,0
31816.455,29.297,29.297,35.156,31.738,-154.297,0
31816.459,25.879,26.855,35.645,17.578,-322.754,0
31816.463,20.996,25.391,34.668,32.227,154.785,0
31816.467,18.066,26.367,34.668,42.969,406.250,0
31816.471,14.648,28.809,32.715,29.785,-36.133,0
31816.475,25.391,28.809,32.227,18.555,-370.605,0
31816.479,22.461,26.855,32.227,21.973,-4.395,0
31816.483,12.695,22.949,29.785,32.227,392.578,0
31816.487,20.020,22.949,29.297,31.738,115.234,0
31816.491,32.715,24.414,32.227,11.230,-338.379,0
31816.495,32.715,26.855,37.109,8.789,-144.531,0
31816.498,24.414,27.344,39.062,32.715,349.609,0
31816.502,25.391,29.297,34.180,38.086,250.488,0
31816.506,30.273,29.785,33.203,12.695,-266.602,0
31816.510,29.785,32.227,32.715,4.395,-277.344,0
31816.514,24.902,37.109,34.180,21.973,232.422,0
31816.518,23.926,32.227,36.621,31.738,345.703,0
31816.522,31.250,26.367,32.715,23.438,-139.160,0
31816.526,41.992,28.809,28.320,13.672,-329.590,0
31816.530,36.621,29.785,29.785,25.391,112.793,0
31816.534,29.297,28.320,28.809,35.645,389.648,0
31816.537,33.203,30.762,28.320,23.438,-1.465,0
31816.541,44.922,34.180,31.738,8.789,-364.746,0
31816.545,42.969,38.086,33.203,23.438,-36.133,0
31816.549,26.855,38.574,30.762,35.156,390.137,0
31816.553,24.902,35.645,28.809,32.715,158.691,0
31816.557,25.879,34.180,29.785,13.672,-326.172,0
31816.561,27.832,31.738,30.273,9.277,-199.219,0
31816.565,23.438,32.227,33.691,32.715,313.965,0
31816.569,12.207,30.762,31.738,30.762,284.180,0
31816.573,18.555,27.832,28.809,15.625,-243.164,0
31816.577,23.926,30.273,34.180,19.043,-313.477,0
31816.580,25.391,30.273,38.574,31.738,200.195,0
31816.584,33.691,27.832,35.645,33.203,372.070,0
31816.588,39.062,31.738,30.762,22.949,-96.191,0
31816.592,38.086,34.180,31.250,12.695,-354.980,0
31816.596,24.902,33.203,32.715,22.461,67.871,0
31816.600,21.484,31.250,35.156,47.363,415.527,0
31816.604,31.738,32.227,31.738,33.203,54.199,0
31816.608,37.109,34.180,28.809,4.395,-357.910,0
31816.612,40.039,36.621,33.691,18.555,-67.383,0
31816.616,39.551,35.645,35.645,36.621,397.461,0
31816.620,41.016,29.785,32.227,41.992,205.566,0
31816.623,42.480,25.879,32.227,22.949,-292.480,0
31816.627,37.109,27.832,32.227,8.301,-197.754,0
31816.631,33.203,31.250,30.273,30.273,302.246,0
31816.635,30.273,27.832,26.855,43.457,310.059,0
31816.639,30.273,29.297,24.414,26.367,-189.941,0
31816.643,35.156,31.250,29.297,18.555,-301.758,0
31816.647,31.250,29.785,35.645,34.180,183.105,0
31816.651,24.902,28.320,38.574,41.504,397.461,0
31816.655,23.926,30.273,41.992,36.133,-41.992,0
31816.659,25.391,28.320,42.969,22.949,-362.793,0
31816.662,28.809,26.855,38.574,31.250,5.371,0
31816.666,19.531,28.320,35.156,48.828,389.160,0
31816.670,13.184,30.762,35.645,32.715,83.008,0
31816.674,23.438,32.227,36.621,10.254,-362.305,1
31816.678,25.391,30.762,39.062,20.996,-135.254,0
31816.682,20.020,30.273,38.086,44.434,355.957,0
31816.686,17.090,28.320,33.691,41.992,234.375,0
31816.690,23.438,25.879,29.785,19.531,-277.832,0
31816.694,26.855,28.809,32.715,19.531,-243.164,0
31816.698,25.879,31.250,39.551,38.574,289.062,0
31816.702,28.320,32.715,31.738,41.992,360.352,0
31816.705,41.992,32.715,23.926,31.738,-157.227,0
31816.709,48.340,29.297,25.879,20.508,-331.543,0
31816.713,35.645,29.297,27.832,31.250,144.531,0
31816.717,33.691,29.785,24.414,50.293,422.363,0
31816.721,36.621,32.227,22.461,40.039,2.441,0
31816.725,31.738,33.203,28.320,21.973,-364.258,0
31816.729,29.785,32.227,31.250,20.508,-13.672,0
31816.733,23.438,32.715,27.344,39.551,414.551,0
31816.737,22.949,32.715,28.320,41.016,124.512,0
31816.741,40.039,31.738,35.156,29.297,-358.887,0
31816.745,34.180,31.250,34.668,23.438,-175.781,0
31816.748,20.020,29.297,31.738,33.203,333.008,0
31816.752,19.043,29.297,33.203,41.504,259.277,0
31816.756,26.367,29.785,29.785,30.273,-264.648,0
31816.760,31.738,28.809,27.832,18.066,-281.738,0
31816.764,27.344,24.414,31.250,29.297,244.629,0
31816.768,21.973,22.949,36.133,53.711,374.023,0
31816.772,25.391,23.438,36.133,33.691,-128.418,0
31816.776,32.715,21.973,29.297,13.672,-354.492,0
31816.780,29.785,22.949,26.367,39.551,103.516,0
31816.784,21.484,25.879,31.738,58.594,421.387,0
31816.787,19.531,25.391,34.180,33.691,23.438,0
31816.791,25.879,23.926,34.180,8.301,-375.488,0
31816.795,31.738,27.344,36.133,20.996,-61.035,0
31816.799,32.715,29.785,37.109,44.922,396.484,0
31816.803,28.320,26.367,31.738,41.992,172.852,0
31816.807,32.715,22.461,29.297,22.461,-328.125,0
31816.811,44.922,27.832,34.180,22.949,-191.406,0
31816.815,42.969,30.273,39.062,43.457,334.473,0
31816.819,37.109,26.855,33.691,46.875,302.246,0
31816.823,38.086,24.414,27.832,35.156,-226.074,0
31816.827,46.387,25.879,30.762,30.762,-295.410,0
31816.830,44.434,29.297,33.203,43.457,221.680,0
31816.834,39.551,27.832,31.738,57.617,404.297,0
31816.838,38.086,26.855,26.367,43.945,-78.125,0
31816.842,34.668,27.832,26.855,21.484,-357.910,0
31816.846,38.086,22.461,31.738,31.738,66.895,0
31816.850,34.180,21.973,35.156,54.199,434.082,0
31816.854,30.762,24.902,28.809,52.246,81.543,0
31816.858,33.691,22.949,26.855,28.809,-355.957,0
31816.862,34.180,23.438,28.320,29.297,-83.984,0
31816.866,32.227,26.367,26.855,46.387,392.578,0
31816.870,25.879,26.367,28.809,45.410,215.332,0
31816.873,41.016,30.273,30.762,32.227,-293.457,0
31816.877,49.316,32.715,30.762,26.855,-217.773,0
31816.881,29.785,28.809,32.227,42.480,305.176,0
31816.885,24.902,25.391,33.203,49.805,332.031,0
31816.889,29.297,28.320,25.391,34.668,-194.336,0
31816.893,44.922,36.621,25.879,28.320,-320.312,0
31816.897,53.711,36.133,32.227,45.410,184.570,0
31816.901,46.387,29.785,28.320,60.547,429.199,0
31816.905,47.363,29.785,31.250,48.828,-15.625,0
31816.909,48.828,32.715,36.133,38.574,-342.773,0
31816.912,46.875,34.668,32.227,48.340,43.945,0
31816.916,44.434,30.762,30.273,53.711,435.059,0
31816.920,41.992,27.344,31.250,46.875,111.328,0
31816.924,44.434,28.809,31.250,28.809,-354.492,0
31816.928,42.969,27.832,33.203,32.715,-127.441,0
31816.932,35.645,30.762,34.180,56.152,374.023,0
31816.936,32.715,28.809,35.156,59.082,251.465,0
31816.940,34.180,26.367,35.645,36.133,-272.461,0
31816.944,33.691,31.738,30.273,20.020,-253.418,0
31816.948,28.320,32.715,28.809,31.250,262.207,0
31816.952,23.438,24.414,34.180,38.086,342.773,0
31816.955,26.367,21.973,33.691,28.809,-158.203,0
31816.959,30.762,25.879,32.715,15.137,-340.820,0
31816.963,32.227,26.367,30.762,19.531,127.441,0
31816.967,33.203,28.809,26.855,37.598,414.062,0
31816.971,37.109,29.297,26.855,32.715,1.953,0
31816.975,48.340,28.809,27.344,20.020,-361.328,0
31816.979,49.316,31.738,28.320,33.203,-15.137,0
31816.983,40.527,33.203,29.297,50.293,417.969,0
31816.987,34.180,32.227,33.691,44.434,162.598,0
31816.991,37.109,35.645,36.133,22.949,-311.523,0
31816.995,43.457,39.062,37.598,17.090,-150.879,0
31816.998,42.480,37.598,33.691,39.062,352.539,0
31817.002,40.039,33.691,22.461,45.898,291.992,0
31817.006,38.574,33.203,23.438,24.902,-232.910,0
31817.010,39.551,35.156,28.809,17.090,-272.949,0
31817.014,38.574,33.691,31.250,39.551,253.906,0
31817.018,35.156,33.203,31.738,49.316,403.809,0
31817.022,36.133,35.156,32.227,35.645,-97.168,0
31817.026,40.039,33.203,33.691,28.809,-343.750,0
31817.030,39.551,35.645,31.250,41.992,97.656,0
31817.034,41.016,38.086,25.391,52.246,426.270,0
31817.037,35.156,35.645,19.531,36.621,44.922,0
31817.041,36.621,33.203,20.020,18.555,-372.070,0
31817.045,45.410,33.203,24.902,28.320,-71.289,0
31817.049,42.480,31.250,29.785,51.758,400.879,0
31817.053,35.156,29.785,27.344,50.781,191.406,0
31817.057,33.691,28.809,30.762,23.926,-317.871,0
31817.061,30.762,28.809,32.715,14.160,-199.707,0
31817.065,30.273,30.762,32.715,38.574,339.844,0
31817.069,32.227,30.273,33.691,43.457,331.055,0
31817.073,35.156,29.297,35.156,24.414,-218.750,0
31817.077,31.250,28.809,31.738,19.043,-315.918,0
31817.080,25.391,25.879,29.785,27.832,209.473,0
31817.084,20.020,21.484,31.250,32.715,404.297,0
31817.088,23.926,22.949,29.785,27.832,-69.336,0
31817.092,37.598,31.738,35.156,24.414,-356.934,0
31817.096,41.992,32.227,38.574,27.344,41.504,0
31817.100,35.645,22.949,30.762,38.086,407.227,0
31817.104,34.668,25.879,24.414,35.156,70.312,0
31817.108,44.434,32.715,28.809,17.090,-370.117,0
31817.112,46.387,29.785,31.250,21.484,-108.887,0
31817.116,40.039,31.250,31.738,41.992,388.672,0
31817.120,33.203,32.227,33.203,41.992,227.539,0
31817.123,26.855,31.250,32.227,19.043,-295.410,0
31817.127,30.762,30.273,32.227,14.648,-225.586,0
31817.131,37.598,30.273,34.668,38.086,309.082,0
31817.135,34.180,26.855,33.691,42.969,333.984,0
31817.139,33.203,26.367,28.320,26.367,-195.312,0
31817.143,39.062,31.738,27.832,22.949,-332.520,0
31817.147,39.062,32.715,31.250,39.551,171.387,0
31817.151,39.551,32.715,33.691,47.363,433.105,0
31817.155,37.598,30.762,35.645,34.668,-7.812,0
31817.159,33.691,32.227,31.738,18.066,-344.727,0
31817.162,35.156,30.273,34.668,31.250,27.344,0
31817.166,29.297,25.391,38.086,50.293,425.293,0
31817.170,28.320,29.785,36.621,47.363,123.535,0
31817.174,36.133,33.203,42.969,27.344,-342.285,0
31817.178,38.086,31.738,40.527,23.438,-136.230,0
31817.182,33.691,33.203,32.715,42.480,365.723,0
31817.186,29.297,27.344,31.250,42.969,267.578,0
31817.190,34.668,26.855,28.809,31.250,-256.348,0
31817.194,33.691,32.227,29.297,25.879,-252.930,0
31817.198,29.785,33.691,28.809,36.133,269.531,0
31817.202,34.668,33.203,26.367,55.664,369.141,0
31817.205,39.062,29.297,28.809,38.574,-143.555,0
31817.209,39.062,29.297,26.367,16.602,-351.562,0
31817.213,43.457,32.227,30.273,41.016,126.465,0
31817.217,41.016,29.297,35.645,67.871,435.059,0
31817.221,34.668,28.809,27.832,59.570,26.855,0
31817.225,37.109,31.738,26.367,30.273,-359.375,0
31817.229,35.156,26.855,27.832,18.555,-28.809,0
31817.233,27.832,27.832,28.809,35.645,414.551,0
31817.237,25.391,28.320,28.809,31.250,159.180,0
31817.241,32.227,27.832,32.227,20.996,-337.891,0
31817.245,31.250,29.297,35.645,29.785,-181.152,0
31817.248,25.879,23.926,34.180,38.086,341.309,0
31817.252,17.090,22.461,32.227,28.320,285.645,0
31817.256,19.043,24.414,28.320,8.301,-248.535,0
31817.260,26.367,25.391,32.227,13.184,-290.527,0
31817.264,22.949,25.391,35.156,32.715,229.492,0
31817.268,20.020,23.438,30.762,35.156,388.184,0
31817.272,24.902,25.391,33.691,30.762,-90.820,0
31817.276,28.320,27.832,40.527,22.461,-356.445,0
31817.280,27.344,27.832,38.574,29.785,78.613,0
31817.284,25.879,25.391,30.273,48.828,427.246,0
31817.287,24.902,25.879,25.391,38.086,52.246,0
31817.291,34.180,30.273,24.414,15.625,-363.770,1
31817.295,31.738,30.762,28.809,17.090,-75.195,0
31817.299,24.902,28.809,32.715,33.691,383.301,0
31817.303,26.855,30.762,27.832,35.156,186.523,0
31817.307,35.645,33.691,26.855,18.555,-311.035,0
31817.311,46.387,34.668,29.297,20.020,-203.125,0
31817.315,42.969,35.645,32.715,38.574,319.824,0
31817.319,36.133,32.227,36.133,35.645,318.848,0
31817.323,35.645,30.762,33.691,21.973,-203.613,0
31817.327,35.645,31.738,27.832,20.996,-309.570,0
31817.330,35.156,30.762,23.926,33.691,190.918,0
31817.334,32.227,30.273,26.367,51.270,414.062,0
31817.338,41.016,29.785,27.344,40.527,-37.109,0
31817.342,46.387,33.691,24.902,14.648,-348.633,0
31817.346,40.039,33.203,29.297,29.297,49.316,0
31817.350,36.621,27.344,30.273,44.922,424.316,0
31817.354,34.668,30.273,25.879,39.062,82.520,0
31817.358,34.668,33.203,28.320,24.414,-362.793,0
31817.362,32.227,26.367,28.809,27.344,-108.887,0
31817.366,22.949,22.949,25.879,48.340,372.559,0
31817.370,20.508,22.949,22.949,46.875,214.844,0
31817.373,26.855,25.879,27.344,21.973,-294.922,0
31817.377,33.203,28.320,34.668,22.461,-233.887,0
31817.381,31.738,28.809,41.016,61.035,290.039,0
31817.385,34.180,26.855,41.992,68.359,341.797,0
31817.389,42.969,29.785,37.109,35.645,-169.434,0
31817.393,42.969,32.715,34.668,20.020,-331.055,0
31817.397,30.762,30.762,34.180,30.762,132.324,0
31817.401,29.297,28.809,30.762,43.457,383.789,0
31817.405,34.180,29.785,31.250,40.039,-39.062,0
31817.409,32.715,34.180,33.203,25.391,-375.000,0
31817.412,34.180,37.109,34.668,36.621,-2.441,0
31817.416,25.879,35.156,36.621,49.316,408.203,0
31817.420,25.879,32.227,35.645,39.062,126.465,0
31817.424,41.504,32.715,33.691,28.320,-325.684,0
31817.428,41.504,32.715,30.273,28.809,-134.766,0
31817.432,30.273,35.156,29.785,49.805,352.539,0
31817.436,22.461,31.250,32.715,52.734,255.371,0
31817.440,21.973,28.320,29.297,25.879,-267.090,0
31817.444,29.785,33.203,26.855,12.695,-271.484,0
31817.448,24.902,33.203,29.297,30.273,246.582,0
31817.452,22.949,31.738,32.227,47.852,362.305,0
31817.455,30.762,30.762,36.133,31.738,-127.441,0
31817.459,32.715,32.715,37.109,22.461,-334.473,0
31817.463,32.715,35.156,36.621,49.316,116.211,0
31817.467,26.855,33.203,31.738,59.570,413.574,0
31817.471,23.926,31.250,28.320,39.062,24.414,0
31817.475,25.879,29.785,28.320,21.484,-357.422,0
31817.479,34.668,29.297,27.832,41.016,-37.598,0
31817.483,33.691,30.273,29.297,62.988,406.738,0
31817.487,33.691,29.785,31.250,53.711,180.664,0
31817.491,46.387,27.832,31.738,39.551,-291.504,0
31817.495,44.434,25.879,31.250,41.992,-138.672,0
31817.498,33.203,26.855,27.344,53.223,360.352,0
31817.502,39.062,28.809,35.156,56.641,311.035,0
31817.506,46.875,28.320,37.598,34.180,-205.566,0
31817.510,38.574,28.809,27.344,14.648,-279.785,0
31817.514,26.855,28.320,27.344,31.250,208.984,0
31817.518,21.973,25.879,27.832,37.598,364.258,0
31817.522,24.414,25.391,27.344,20.020,-125.488,0
31817.526,30.273,26.855,30.762,6.836,-386.719,0
31817.530,28.320,27.832,35.645,23.926,56.152,0
31817.534,24.414,29.297,36.621,41.016,411.133,0
31817.537,27.344,28.320,36.133,30.273,63.477,0
31817.541,35.156,27.344,38.574,22.949,-340.820,0
31817.545,40.039,27.344,43.457,35.156,-63.965,0
31817.549,38.086,26.367,39.551,52.246,386.719,0
31817.553,35.645,30.273,38.086,58.105,198.242,0
31817.557,36.621,31.250,39.551,47.852,-286.621,0
31817.561,35.156,25.391,34.180,43.457,-187.500,0
31817.565,32.227,23.926,33.203,57.129,326.172,0
31817.569,26.367,26.855,35.156,63.477,340.332,0
31817.573,29.785,27.344,37.109,50.781,-179.688,0
31817.577,35.156,27.832,35.645,36.621,-304.199,0
31817.580,26.855,28.320,31.250,41.016,182.617,0
31817.584,23.438,23.926,34.668,54.688,392.578,0
31817.588,25.879,21.973,40.527,41.992,-65.918,0
31817.592,26.855,24.414,32.227,21.973,-372.559,0
31817.596,30.762,22.461,25.879,29.297,23.926,0
31817.600,29.297,22.461,30.762,43.457,409.180,0
31817.604,25.391,24.902,32.227,35.645,86.426,0
31817.608,39.551,24.414,33.203,18.066,-352.539,0
31817.612,47.363,26.367,33.203,34.180,-108.887,0
31817.616,40.039,28.809,33.203,53.223,379.395,0
31817.620,49.805,30.273,38.574,45.898,245.117,0
31817.623,57.617,32.227,37.109,30.273,-268.555,0
31817.627,47.363,36.133,30.273,32.715,-226.074,0
31817.631,39.062,35.156,35.156,50.293,305.176,0
31817.635,32.715,33.203,33.691,47.852,372.070,0
31817.639,31.738,28.809,26.855,22.461,-152.344,0
31817.643,40.527,29.297,30.762,10.254,-329.102,0
31817.647,37.109,33.203,32.227,35.156,148.926,0
31817.651,32.227,31.738,33.203,55.664,416.504,0
31817.655,29.785,31.738,31.250,37.598,-5.371,0
31817.659,20.996,31.250,29.297,28.320,-350.098,0
31817.662,20.996,27.832,34.180,42.969,-3.906,0
31817.666,28.809,28.320,36.133,44.922,414.062,0
31817.670,28.809,29.297,36.621,37.109,145.508,0
31817.674,33.691,28.320,37.598,25.391,-330.078,0
31817.678,39.551,30.762,40.039,30.273,-136.719,0
31817.682,34.668,30.762,40.039,51.270,371.094,0
31817.686,29.785,26.855,31.738,54.199,274.414,0
31817.690,36.133,26.855,27.832,34.668,-245.605,0
31817.694,43.945,29.785,34.668,26.367,-257.812,0
31817.698,43.945,32.715,39.551,42.480,250.000,0
31817.702,38.086,32.227,34.668,52.734,372.070,0
31817.705,36.621,27.344,34.668,40.039,-117.676,0
31817.709,43.457,25.879,32.715,31.738,-336.914,0
31817.713,43.945,29.785,32.227,45.410,107.422,0
31817.717,43.945,26.855,34.180,44.434,406.738,0
31817.721,43.945,21.973,27.832,25.391,10.742,0
31817.725,38.086,23.926,26.855,12.695,-383.789,0
31817.729,43.945,27.344,30.273,20.508,-64.941,0
31817.733,42.969,29.785,34.180,42.480,391.602,0
31817.737,32.715,28.809,34.180,45.410,164.062,0
31817.741,38.086,26.367,26.367,26.367,-325.195,0
31817.745,40.527,28.809,21.973,22.949,-192.383,0
31817.748,32.227,30.273,21.973,38.086,319.824,0
31817.752,30.273,29.297,23.926,43.945,291.504,0
31817.756,33.691,33.203,30.273,29.297,-231.934,0
31817.760,41.992,35.156,36.621,27.344,-304.688,0
31817.764,35.156,30.762,36.133,45.898,200.684,0
31817.768,21.973,27.344,32.715,44.922,373.047,0
31817.772,28.320,27.344,30.762,24.902,-101.074,0
31817.776,35.645,29.785,33.691,15.137,-365.723,0
31817.780,29.297,30.762,32.227,24.414,56.641,0
31817.784,26.855,28.809,30.762,39.551,414.551,0
31817.787,32.715,28.320,36.133,38.574,68.848,0
31817.791,36.133,29.785,36.133,19.043,-363.770,0
31817.795,29.785,30.273,29.297,21.484,-101.074,0
31817.799,28.320,31.250,24.902,42.969,377.930,0
31817.803,37.109,31.738,26.367,49.316,202.637,0
31817.807,39.551,33.203,30.762,26.855,-301.270,0
31817.811,41.992,34.668,33.691,20.996,-211.914,0
31817.815,38.086,32.715,35.156,41.992,300.781,0
31817.819,29.785,30.762,34.668,42.480,316.406,0
31817.823,32.227,33.691,30.762,24.902,-199.219,0
31817.827,32.715,34.668,27.832,16.113,-320.801,0
31817.830,29.785,36.621,29.785,33.203,178.223,0
31817.834,28.320,36.133,36.133,44.434,400.879,0
31817.838,30.762,32.715,33.691,33.691,-59.082,0
31817.842,37.109,33.203,29.297,18.555,-373.535,1
31817.846,35.645,33.691,34.180,28.809,22.461,0
31817.850,28.809,30.273,33.691,51.758,419.434,0
31817.854,23.438,26.367,27.344,41.504,105.469,0
31817.858,24.902,31.738,25.391,15.625,-344.238,0
31817.862,28.320,34.180,31.250,20.020,-116.699,0
31817.866,23.926,32.227,36.133,39.062,362.305,0
31817.870,23.438,29.785,36.621,37.598,229.492,0
31817.873,32.227,27.344,36.133,20.020,-282.715,0
31817.877,36.621,28.809,35.645,22.461,-253.906,0
31817.881,28.809,28.809,36.133,44.434,268.066,0
31817.885,24.414,26.855,36.621,50.781,347.168,0
31817.889,30.762,25.879,35.645,38.574,-162.598,0
31817.893,34.668,26.855,33.691,25.391,-341.309,0
31817.897,29.785,28.320,35.645,35.645,131.348,0
31817.901,20.508,26.367,36.133,51.270,401.855,0
31817.905,22.461,21.973,36.133,38.574,-10.254,0
31817.909,26.367,23.438,38.086,21.484,-359.375,0
31817.912,29.785,27.344,34.180,26.855,-8.789,0
31817.916,26.367,24.902,32.715,45.410,410.156,0
31817.920,22.949,23.438,32.715,42.969,135.254,0
31817.924,25.391,23.438,29.785,15.137,-336.426,0
31817.928,23.926,22.949,28.809,22.949,-158.691,0
31817.932,25.391,25.391,32.715,44.922,343.750,0
31817.936,21.973,25.391,32.715,38.574,266.602,0
31817.940,19.531,23.926,30.273,16.113,-257.324,0
31817.944,21.484,26.367,30.762,10.742,-286.133,0
31817.948,18.555,26.367,33.691,30.762,228.516,0
31817.952,19.043,26.367,39.062,47.852,365.234,0
31817.955,22.949,26.855,34.668,29.297,-119.141,0
31817.959,23.926,24.902,27.344,9.766,-344.727,0
31817.963,27.344,24.902,23.926,26.367,91.797,0
31817.967,25.391,28.809,25.391,35.645,394.043,0
31817.971,21.973,25.879,29.297,20.020,6.348,0
31817.975,26.855,25.391,26.855,12.695,-379.395,0
31817.979,28.320,26.855,27.832,27.832,-61.035,0
31817.983,27.344,25.391,30.762,42.480,388.184,0
31817.987,25.391,24.414,32.715,33.691,158.203,0
31817.991,34.180,25.391,33.691,20.508,-336.914,0
31817.995,34.668,27.344,36.621,19.043,-213.867,0
31817.998,26.855,27.344,32.715,35.645,299.316,0
31818.002,32.715,27.344,28.320,49.805,292.480,0
31818.006,36.621,25.879,30.273,28.809,-223.633,0
31818.010,36.621,27.344,35.156,17.090,-296.875,0
31818.014,38.574,25.879,39.062,42.969,220.703,0
31818.018,39.062,19.531,31.250,51.758,398.926,0
31818.022,33.203,20.508,26.855,28.809,-63.965,0
31818.026,32.715,26.367,29.785,20.996,-333.984,0
31818.030,35.645,27.832,30.762,40.527,65.430,0
31818.034,30.762,25.879,32.227,53.223,424.805,0
31818.037,20.020,23.438,29.785,36.133,70.801,0
31818.041,19.043,25.391,28.320,18.066,-365.723,0
31818.045,24.902,28.809,32.227,27.344,-92.773,0
31818.049,21.973,28.320,39.062,45.898,386.230,0
31818.053,20.996,28.320,34.180,39.062,212.891,0
31818.057,35.645,32.715,27.344,27.344,-302.246,0
31818.061,41.016,32.227,30.762,33.203,-229.980,0
31818.065,34.668,26.855,26.855,48.828,291.504,0
31818.069,37.598,30.762,25.879,53.711,329.102,0
31818.073,38.574,34.180,32.715,32.715,-181.641,0
31818.077,43.457,30.273,31.738,15.137,-314.941,0
31818.080,46.875,32.715,29.297,33.203,170.410,0
31818.084,41.992,38.574,30.762,58.105,403.320,0
31818.088,42.480,34.668,29.785,46.387,-26.367,0
31818.092,45.410,28.320,29.785,24.902,-336.426,0
31818.096,42.969,27.344,26.367,34.668,42.969,0
31818.100,37.598,28.320,25.391,55.664,426.758,0
31818.104,35.156,29.297,30.273,48.340,121.582,0
31818.108,35.645,26.367,36.133,30.273,-326.172,0
31818.112,40.527,26.855,32.227,40.527,-101.074,0
31818.116,35.645,27.832,31.738,55.664,390.625,0
31818.120,28.809,24.414,31.738,54.688,259.766,0
31818.123,31.250,30.762,31.250,41.992,-255.371,0
31818.127,31.738,31.250,33.203,30.273,-234.375,0
31818.131,30.273,29.297,29.785,41.016,278.320,0
31818.135,22.461,28.809,28.809,52.246,355.469,0
31818.139,23.438,26.855,30.762,36.621,-159.180,0
31818.143,33.203,28.320,30.762,22.461,-337.402,0
31818.147,31.250,31.738,32.227,37.109,134.277,0
31818.151,21.973,35.645,35.156,53.711,402.832,0
31818.155,21.484,34.668,34.180,43.945,-7.324,0
31818.159,29.785,30.273,33.691,25.879,-373.535,0
31818.162,30.762,32.227,32.715,31.250,-35.156,0
31818.166,27.344,33.691,27.344,41.504,406.738,0
31818.170,30.273,31.738,25.391,42.969,153.320,0
31818.174,39.551,31.738,27.344,27.344,-336.426,0
31818.178,43.457,31.738,27.832,20.996,-177.734,0
31818.182,36.621,33.203,26.367,41.016,338.379,0
31818.186,37.109,31.250,30.273,50.293,290.039,0
31818.190,35.645,29.297,35.645,30.762,-237.793,0
31818.194,31.250,26.367,32.227,25.879,-281.738,0
31818.198,29.297,24.414,26.367,52.246,235.352,0
31818.202,28.320,23.926,27.832,59.570,377.930,0
31818.205,30.273,25.391,29.297,35.645,-102.539,0
31818.209,32.715,29.785,28.320,21.973,-335.938,0
31818.213,31.738,33.203,32.227,35.645,104.004,0
31818.217,26.367,29.785,36.621,45.898,429.688,0
31818.221,30.762,25.391,34.180,43.457,59.570,0
31818.225,39.551,29.297,32.715,25.879,-333.984,0
31818.229,34.180,30.762,34.668,30.273,-39.551,0
31818.233,25.391,27.344,31.738,48.828,416.016,0
31818.237,25.391,28.320,27.344,43.945,202.148,0
31818.241,31.738,28.320,29.785,33.691,-301.270,0
31818.245,37.109,25.879,32.227,35.156,-180.664,0
31818.248,31.250,26.367,33.203,47.852,347.168,0
31818.252,31.250,29.297,37.109,56.152,349.609,0
31818.256,41.992,27.832,40.527,43.945,-183.594,0
31818.260,46.387,27.832,40.039,22.461,-307.617,0
31818.264,38.574,31.250,40.039,34.180,181.152,0
31818.268,34.180,29.297,39.551,53.223,382.812,0
31818.272,39.062,32.715,37.598,41.504,-78.125,0
31818.276,36.133,39.062,34.180,23.926,-375.977,0
31818.280,32.715,36.133,31.738,27.832,29.297,0
31818.284,27.832,31.250,30.762,39.551,391.602,0
31818.287,29.297,31.250,28.320,32.227,52.246,0
31818.291,37.109,33.203,31.250,17.090,-374.023,0
31818.295,35.156,33.691,37.598,28.320,-111.816,0
31818.299,21.973,30.762,41.992,50.781,374.512,0
31818.303,12.207,29.297,30.273,44.434,214.844,0
31818.307,20.020,33.203,19.043,26.855,-298.340,0
31818.311,29.297,29.785,25.879,28.809,-234.375,0
31818.315,29.297,23.438,33.203,54.199,288.086,0
31818.319,25.391,21.973,26.855,55.664,331.543,0
31818.323,25.879,24.902,22.461,18.555,-174.805,0
31818.327,26.855,27.344,26.855,11.230,-320.801,0
31818.330,24.902,28.809,29.785,42.480,163.086,0
31818.334,20.020,26.367,28.809,55.176,408.691,0
31818.338,23.438,23.926,28.320,39.062,-33.691,0
31818.342,37.109,28.809,32.715,23.926,-361.328,0
31818.346,39.062,33.203,36.621,34.180,11.230,0
31818.350,33.691,28.809,31.738,48.828,408.203,0
31818.354,30.762,27.832,23.926,39.062,108.398,0
31818.358,33.203,29.297,25.391,21.484,-349.609,0
31818.362,40.039,29.297,30.273,25.391,-142.578,0
31818.366,38.086,30.273,28.320,37.109,346.191,0
31818.370,28.809,28.320,28.320,30.762,244.629,0
31818.373,20.996,26.367,31.738,14.160,-275.879,0
31818.377,24.414,24.414,33.691,14.648,-272.461,0
31818.381,28.320,25.391,35.645,33.203,246.094,0
31818.385,21.973,25.391,32.715,37.598,348.633,0
31818.389,19.043,24.902,27.832,21.973,-148.926,0
31818.393,22.461,26.367,27.344,9.766,-354.980,0
31818.397,23.438,28.809,27.832,23.438,103.516,0
31818.401,21.973,30.762,30.762,45.410,405.273,0
31818.405,21.973,30.273,32.715,33.691,8.789,1
31818.409,23.438,28.809,26.855,6.836,-357.422,0
31818.412,18.066,28.809,22.461,16.113,-27.832,0
31818.416,12.207,24.414,24.902,39.062,402.344,0
31818.420,15.137,19.531,23.926,28.809,160.645,0
31818.424,23.926,20.996,22.949,13.184,-316.406,0
31818.428,33.203,27.344,25.879,21.484,-160.156,0
31818.432,30.273,28.809,28.320,42.969,345.215,0
31818.436,24.902,29.297,30.273,46.875,295.898,0
31818.440,27.832,31.738,30.273,24.902,-216.309,0
31818.444,30.273,28.809,24.902,16.113,-285.645,0
31818.448,28.809,20.996,21.973,34.180,186.035,0
31818.452,31.250,22.949,19.531,38.574,336.914,0
31818.455,33.691,27.344,17.090,20.020,-131.348,0
31818.459,35.645,30.273,19.043,9.766,-383.301,0
31818.463,37.598,32.227,26.855,24.902,51.270,0
31818.467,38.574,33.203,27.344,43.945,398.438,0
31818.471,41.992,32.227,24.414,33.203,43.945,0
31818.475,50.293,30.762,26.367,16.113,-366.211,0
31818.479,50.781,32.227,24.902,27.344,-89.355,0
31818.483,39.551,32.715,28.320,47.852,376.953,0
31818.487,34.180,30.762,31.738,41.992,187.012,0
31818.491,37.109,28.320,30.273,26.367,-308.594,0
31818.495,41.992,31.738,28.809,32.227,-197.266,0
31818.498,33.203,30.273,30.762,43.457,324.219,0
31818.502,25.879,23.926,32.227,45.898,326.660,0
31818.506,34.668,26.367,34.668,31.738,-185.547,0
31818.510,38.086,28.320,36.133,15.137,-293.945,0
31818.514,34.668,27.344,37.598,25.391,193.848,0
31818.518,36.133,28.320,37.598,41.992,398.926,0
31818.522,37.109,26.367,28.809,27.344,-62.988,0
31818.526,36.621,25.391,26.367,11.719,-357.422,0
31818.530,38.574,32.715,28.809,30.762,42.969,0
31818.534,37.109,33.203,28.809,45.410,420.410,0
31818.537,31.250,25.879,30.762,36.133,93.262,0
31818.541,26.367,25.391,32.715,18.555,-364.258,0
31818.545,30.273,26.367,38.086,32.715,-129.395,0
31818.549,32.227,25.391,40.039,58.105,359.375,0
31818.553,32.227,29.297,36.133,41.016,212.402,0
31818.557,44.922,31.738,28.809,18.555,-297.363,0
31818.561,49.316,31.738,26.855,20.020,-238.770,0
31818.565,43.945,35.156,30.273,36.133,282.715,0
31818.569,39.551,35.156,27.344,51.758,347.656,0
31818.573,41.016,32.715,25.879,40.039,-145.020,0
31818.577,40.039,28.809,27.832,23.438,-300.781,0
31818.580,32.227,24.414,30.762,37.109,173.340,0
31818.584,26.367,24.902,32.715,53.223,428.223,0
31818.588,30.273,25.879,35.645,41.992,-5.371,0
31818.592,34.668,23.926,34.668,23.438,-349.121,0
31818.596,25.879,24.902,31.738,34.668,5.859,0
31818.600,17.578,23.926,35.156,53.223,407.715,0
31818.604,22.949,23.438,35.156,43.457,128.906,0
31818.608,28.320,26.855,27.832,20.020,-333.984,0
31818.612,26.367,24.902,23.926,18.555,-146.484,0
31818.616,19.531,20.508,26.367,35.156,347.168,0
31818.620,21.484,20.508,28.809,33.203,249.023,0
31818.623,29.785,20.996,27.832,12.207,-263.672,0
31818.627,35.645,22.461,30.273,14.648,-259.766,0
31818.631,36.133,21.484,36.621,38.086,252.441,0
31818.635,32.715,22.949,29.785,45.898,360.352,0
31818.639,40.039,24.414,24.902,31.738,-130.371,0
31818.643,43.945,24.414,32.227,25.879,-337.402,0
31818.647,34.668,26.367,29.785,46.875,115.234,0
31818.651,31.738,29.785,28.320,59.082,420.898,0
31818.655,35.156,32.227,31.250,39.062,27.344,0
31818.659,39.062,31.250,28.809,23.926,-353.027,0
31818.662,33.203,31.738,23.438,30.762,-35.645,0
31818.666,25.879,31.738,26.367,42.969,398.438,0
31818.670,26.367,27.832,32.715,36.621,163.086,0
31818.674,26.367,25.391,36.133,16.602,-326.172,0
31818.678,15.137,24.414,36.133,11.230,-191.895,0
31818.682,10.254,24.902,34.668,32.715,314.453,0
31818.686,6.836,24.902,31.738,41.504,282.227,0
31818.690,6.836,22.949,30.762,20.508,-226.562,0
31818.694,11.719,21.973,30.273,8.301,-291.992,0
31818.698,9.766,21.973,26.855,28.320,208.984,0
31818.702,11.719,26.855,28.809,41.016,379.395,0
31818.705,19.531,28.809,33.691,25.391,-98.145,0
31818.709,27.344,26.855,31.250,12.207,-360.352,0
31818.713,31.738,32.227,30.273,19.531,76.660,0
31818.717,39.551,34.668,32.715,42.480,426.270,0
31818.721,40.527,34.668,29.297,36.133,69.824,0
31818.725,37.109,38.086,27.832,15.137,-333.008,0
31818.729,38.574,35.156,25.391,24.902,-52.734,0
31818.733,30.273,28.809,27.832,34.180,398.926,0
31818.737,28.320,29.297,31.250,31.738,205.078,0
31818.741,38.574,32.715,30.273,21.973,-289.551,0
31818.745,41.992,36.133,33.691,19.531,-189.453,0
31818.748,38.574,36.621,34.180,38.086,316.895,0
31818.752,33.691,35.156,32.715,38.574,318.359,0
31818.756,33.691,35.645,32.715,19.043,-191.895,0
31818.760,37.109,34.668,37.598,21.973,-300.781,0
31818.764,35.645,31.738,38.086,45.410,189.453,0
31818.768,34.180,32.715,31.250,56.152,403.809,0
31818.772,36.133,32.715,27.344,37.598,-41.992,0
31818.776,34.668,28.809,26.855,16.602,-346.191,0
31818.780,29.297,29.297,31.738,32.715,41.016,0
31818.784,29.297,29.297,35.156,62.500,421.387,0
31818.787,34.668,28.320,37.109,51.270,103.027,0
31818.791,37.109,29.785,41.016,29.297,-335.938,0
31818.795,28.809,29.785,34.668,35.645,-102.539,0
31818.799,21.973,29.297,28.320,47.363,379.883,0
31818.803,23.438,28.320,27.832,47.852,242.676,0
31818.807,27.832,27.344,25.879,29.297,-271.484,0
31818.811,31.738,28.809,26.855,20.020,-232.422,0
31818.815,32.227,35.156,30.762,38.574,286.621,0
31818.819,30.273,34.180,35.645,42.969,348.145,0
31818.823,30.762,32.227,32.715,27.832,-158.203,0
31818.827,30.762,36.621,25.879,27.832,-324.707,0
31818.830,32.715,34.668,31.738,45.410,136.230,0
31818.834,27.832,34.180,35.156,45.898,390.137,0
31818.838,34.180,36.621,28.320,29.785,-21.973,0
31818.842,42.480,34.668,32.227,16.602,-360.352,0
31818.846,29.785,35.156,30.762,25.879,-15.137,0
31818.850,25.879,33.203,23.438,38.086,405.273,0
31818.854,20.996,30.273,27.344,27.832,135.742,0
31818.858,20.996,31.738,32.715,8.789,-340.332,0
31818.862,27.832,32.227,36.133,11.719,-157.227,0
31818.866,28.809,31.250,35.645,37.598,342.285,0
31818.870,22.461,31.738,34.180,41.016,259.277,0
31818.873,22.949,31.738,35.645,25.879,-250.000,0
31818.877,25.391,28.320,30.273,19.043,-267.578,0
31818.881,25.879,28.320,32.227,36.133,242.676,0
31818.885,26.367,30.762,37.109,45.898,365.723,0
31818.889,22.949,27.832,32.227,26.367,-133.789,0
31818.893,18.555,26.855,27.344,19.043,-359.375,0
31818.897,18.066,31.738,29.785,34.668,103.516,0
31818.901,10.742,30.273,31.250,35.645,417.480,0
31818.905,15.137,27.344,33.203,26.367,18.066,0
31818.909,29.785,28.320,31.738,18.066,-375.000,0
31818.912,27.832,28.809,28.809,25.879,-71.289,0
31818.916,20.508,30.273,30.762,47.852,385.254,0
31818.920,22.949,30.273,39.062,44.434,175.781,0
31818.924,30.273,29.297,37.598,21.484,-330.078,0
31818.928,28.809,30.273,23.438,12.695,-214.844,0
31818.932,26.855,30.762,22.461,28.320,298.828,0
31818.936,29.785,29.785,26.855,41.992,280.273,0
31818.940,35.156,32.715,29.297,23.926,-228.516,1
31818.944,35.156,37.598,30.273,2.441,-301.758,0
31818.948,24.902,36.133,29.297,21.973,201.172,0
31818.952,23.926,36.621,29.297,41.016,379.395,0
31818.955,33.691,32.715,30.273,29.297,-82.520,0
31818.959,32.715,27.832,27.832,18.066,-345.215,0
31818.963,26.367,29.785,32.227,29.785,67.871,0
31818.967,27.832,30.762,35.645,41.992,418.457,0
31818.971,32.227,31.738,39.551,32.715,61.035,0
31818.975,34.668,27.344,39.062,14.648,-365.234,0
31818.979,30.762,23.438,30.273,14.648,-95.703,0
31818.983,27.344,27.344,27.344,34.180,375.977,0
31818.987,25.879,27.832,29.297,39.062,208.008,0
31818.991,24.414,25.879,28.809,26.367,-290.527,0
31818.995,26.367,30.273,27.344,16.602,-220.215,0
31818.998,26.855,30.762,27.832,32.227,281.250,0
31819.002,22.461,21.973,30.273,46.875,313.965,0
31819.006,23.438,21.973,34.180,37.109,-184.570,0
31819.010,32.715,22.949,30.762,24.902,-310.059,0
31819.014,32.227,21.973,30.762,40.039,180.176,0
31819.018,25.879,23.438,34.668,59.082,416.504,0
31819.022,27.344,24.902,35.645,45.898,-37.109,0
31819.026,37.109,23.926,35.156,23.926,-362.305,0
31819.030,40.527,22.461,31.250,30.762,23.438,0
31819.034,35.156,21.484,27.832,47.852,415.527,0
31819.037,37.598,20.508,28.320,41.504,120.117,0
31819.041,43.457,26.367,30.273,17.578,-333.984,0
31819.045,41.504,30.762,29.785,18.555,-127.441,0
31819.049,40.039,30.762,24.902,39.551,362.305,0
31819.053,38.574,31.250,23.438,41.504,241.699,0
31819.057,35.645,31.738,23.438,23.926,-276.367,0
31819.061,40.039,34.668,32.715,16.602,-252.930,0
31819.065,36.133,34.180,37.109,29.785,256.348,0
31819.069,33.691,28.320,25.879,39.551,334.961,0
31819.073,39.551,33.203,25.391,28.320,-156.738,0
31819.077,45.410,38.574,27.344,18.555,-332.031,0
31819.080,48.828,35.645,28.809,39.062,134.766,0
31819.084,43.945,33.203,28.320,56.152,407.715,0
31819.088,37.109,32.715,29.297,46.387,-1.465,0
31819.092,41.016,32.227,31.738,30.273,-361.328,0
31819.096,36.621,27.832,29.297,32.227,-31.250,0
31819.100,28.809,24.902,24.902,50.781,394.531,0
31819.104,27.832,25.391,25.879,46.387,149.414,0
31819.108,24.902,23.438,22.949,25.391,-318.359,0
31819.112,30.273,23.926,25.879,31.250,-149.414,0
31819.116,25.879,23.926,28.320,44.922,357.422,0
31819.120,26.855,24.414,24.414,48.340,307.617,0
31819.123,36.133,28.320,23.438,39.062,-210.938,0
31819.127,37.598,31.250,22.461,34.668,-261.230,0
31819.131,39.062,33.203,31.738,50.781,240.723,0
31819.135,40.039,32.227,35.645,55.176,370.117,0
31819.139,44.922,30.273,33.691,28.320,-121.582,0
31819.143,47.852,30.273,30.273,6.836,-356.445,0
31819.147,41.016,30.273,28.320,22.949,82.520,0
31819.151,42.480,32.227,30.273,50.293,411.621,0
31819.155,47.363,33.203,29.785,43.945,47.363,0
31819.159,51.270,34.180,31.250,27.832,-349.609,0
31819.162,53.711,35.645,33.691,36.133,-57.129,0
31819.166,47.363,34.668,30.762,48.828,394.043,0
31819.170,42.969,34.180,29.297,53.711,191.406,0
31819.174,51.270,30.273,29.297,43.457,-291.992,0
31819.178,50.293,27.344,28.320,33.203,-173.340,0
31819.182,36.621,28.809,28.320,41.992,338.379,0
31819.186,34.668,29.297,32.227,52.246,329.590,0
31819.190,44.434,27.344,34.180,39.062,-185.547,0
31819.194,46.875,25.879,33.691,23.438,-270.996,0
31819.198,38.086,22.949,32.715,44.922,224.609,0
31819.202,32.227,24.902,32.715,65.918,411.133,0
31819.205,27.832,28.809,26.855,45.410,-55.664,0
31819.209,34.668,26.855,27.344,28.320,-335.938,0
31819.213,34.180,26.367,30.762,42.480,68.359,0
31819.217,24.902,23.438,30.762,54.688,417.969,0
31819.221,29.785,22.461,31.738,40.527,89.844,0
31819.225,35.645,25.391,34.668,26.367,-346.191,0
31819.229,31.250,28.809,43.457,37.109,-108.887,0
31819.233,28.320,26.855,40.527,49.805,367.188,0
31819.237,29.785,26.855,32.227,40.039,205.566,0
31819.241,31.250,30.762,37.109,21.973,-313.965,0
31819.245,30.273,32.715,36.133,21.973,-251.465,0
31819.248,32.227,31.250,27.832,42.480,279.785,0
31819.252,32.715,27.832,28.320,48.828,323.730,0
31819.256,36.133,29.297,29.785,27.344,-185.059,0
31819.260,42.480,33.691,31.738,13.672,-325.195,0
31819.264,41.504,31.250,31.250,24.902,148.926,0
31819.268,33.691,28.809,31.250,41.992,388.184,0
31819.272,33.691,30.762,30.273,30.762,-42.480,0
31819.276,41.992,38.574,27.832,13.672,-368.652,0
31819.280,46.875,39.062,28.809,22.949,-0.488,0
31819.284,44.434,35.645,34.668,41.992,402.344,0
31819.287,41.504,34.180,33.203,42.480,119.141,0
31819.291,50.293,35.645,34.668,31.738,-328.125,0
31819.295,47.852,33.691,37.109,35.645,-123.047,0
31819.299,37.109,28.320,29.785,48.340,369.629,0
31819.303,36.621,27.832,26.855,48.828,269.043,0
31819.307,38.574,30.273,24.902,34.180,-250.977,0
31819.311,41.016,35.645,28.320,31.738,-241.211,0
31819.315,39.551,32.715,32.227,41.504,284.668,0
31819.319,35.156,30.273,33.203,44.922,382.812,0
31819.323,37.598,28.320,32.227,35.645,-116.211,0
31819.327,40.527,28.320,28.320,30.273,-319.336,0
31819.330,39.062,30.273,23.926,34.668,124.023,0
31819.334,37.109,26.855,23.438,42.969,412.598,0
31819.338,42.969,30.762,24.902,48.340,24.902,0
31819.342,47.852,33.203,29.297,35.645,-347.168,0
31819.346,51.758,33.691,31.250,31.738,-30.762,0
31819.350,46.875,35.645,31.250,51.758,397.461,0
31819.354,36.621,35.645,28.320,47.852,148.438,0
31819.358,45.898,38.574,27.832,25.391,-336.426,0
31819.362,48.828,39.551,32.715,22.461,-180.176,0
31819.366,37.598,37.109,29.297,43.457,328.125,0
31819.370,32.227,33.203,26.367,49.805,274.902,0
31819.373,36.133,33.691,30.273,26.855,-248.535,0
31819.377,45.410,36.133,33.203,19.531,-294.922,0
31819.381,45.898,34.180,31.738,45.410,213.379,0
31819.385,43.457,35.645,33.691,56.152,369.141,0
31819.389,41.992,37.598,39.062,34.180,-97.656,0
31819.393,43.945,37.109,35.156,25.391,-343.750,0
31819.397,37.109,34.668,32.715,44.434,83.984,0
31819.401,26.855,31.250,35.156,60.059,418.945,0
31819.405,29.297,31.738,34.180,49.316,62.988,0
31819.409,27.344,31.250,33.691,26.855,-345.703,0
31819.412,23.926,32.715,38.086,36.621,-69.824,0
31819.416,22.949,33.203,37.109,49.805,391.602,0
31819.420,23.926,29.785,31.250,34.668,193.359,0
31819.424,31.738,26.367,32.715,18.555,-309.082,0
31819.428,37.109,26.367,38.086,22.461,-201.172,0
31819.432,33.691,26.367,40.039,41.504,320.801,0
31819.436,30.273,24.902,32.227,48.340,327.637,0
31819.440,36.621,27.344,33.691,34.180,-189.941,0
31819.444,42.480,29.297,37.598,26.367,-304.199,0
31819.448,41.016,35.645,38.086,40.039,173.828,0
31819.452,35.156,36.621,34.668,41.992,371.094,0
31819.455,34.668,29.785,28.809,24.902,-75.195,0
31819.459,42.969,31.738,30.762,13.184,-363.281,0
31819.463,40.527,32.715,32.227,24.414,22.461,0
31819.467,32.715,26.367,27.832,34.180,388.184,0
31819.471,35.156,25.391,26.367,31.738,77.637,0
31819.475,34.180,29.785,31.250,18.555,-359.863,0
31819.479,31.250,30.273,32.715,16.602,-124.023,0
31819.483,30.762,29.297,29.297,35.156,371.582,0
31819.487,29.785,33.691,32.715,41.016,234.375,0
31819.491,35.645,37.109,34.180,29.785,-276.855,0
31819.495,40.527,34.668,29.297,30.273,-227.051,0
31819.498,32.227,30.762,31.250,45.898,289.551,0
31819.502,27.344,31.738,29.297,51.270,349.121,0
31819.506,29.297,30.762,28.320,35.645,-148.926,0
31819.510,33.203,30.273,31.738,24.902,-303.711,0
31819.514,28.809,32.227,33.203,38.086,162.598,0
31819.518,20.996,35.156,31.738,47.852,410.156,0
31819.522,26.855,34.668,28.320,37.598,-15.137,0
31819.526,32.715,30.762,26.367,18.555,-353.516,0
31819.530,34.668,33.203,26.855,31.250,6.836,0
31819.534,38.574,31.250,27.832,51.270,420.898,0
31819.537,48.340,32.715,33.691,50.781,150.391,0
31819.541,54.199,36.133,33.203,33.203,-317.383,0
31819.545,51.758,37.109,27.344,31.738,-140.137,0
31819.549,42.969,36.133,31.250,56.152,344.238,0
31819.553,40.527,34.180,27.832,59.570,254.395,0
31819.557,45.898,35.156,23.438,27.832,-250.488,0
31819.561,50.781,31.738,25.879,16.113,-262.207,0
31819.565,51.758,31.738,28.809,43.945,245.605,0
31819.569,48.340,30.762,28.320,54.199,359.863,0
31819.573,43.457,30.762,26.855,34.668,-133.301,0
31819.577,41.016,31.250,27.344,22.949,-349.121,0
31819.580,36.621,32.227,30.273,35.156,105.469,0
31819.584,31.738,30.762,31.250,44.434,408.203,0
31819.588,27.832,26.367,31.738,38.574,12.695,0
31819.592,24.902,27.344,33.691,22.949,-367.188,0
31819.596,30.273,30.273,30.273,24.902,-49.316,0
31819.600,36.621,30.273,34.668,53.711,401.367,0
31819.604,40.039,29.785,38.574,56.152,176.270,0
31819.608,38.574,29.297,31.738,32.227,-310.059,0
31819.612,36.133,31.250,28.809,31.738,-170.898,0
31819.616,32.715,30.273,28.809,48.828,333.008,0
31819.620,32.227,28.809,30.762,47.852,297.852,0
31819.623,35.156,29.785,28.320,28.809,-215.820,0
31819.627,40.527,30.273,29.785,22.949,-277.832,0
31819.631,40.039,29.785,29.785,44.434,225.586,0
31819.635,37.109,28.320,26.855,54.199,395.020,1
31819.639,34.668,26.367,24.902,41.504,-71.289,0
31819.643,41.016,30.273,26.855,26.855,-333.008,0
31819.647,38.086,31.738,37.109,30.273,83.984,0
31819.651,28.809,25.879,35.156,50.781,430.664,0
31819.655,32.715,27.344,31.250,40.039,73.242,0
31819.659,39.062,31.250,37.109,13.184,-353.027,0
31819.662,34.668,30.762,33.691,19.531,-83.984,0
31819.666,29.297,25.879,24.902,39.551,387.207,0
31819.670,32.227,24.902,24.902,32.715,212.891,0
31819.674,36.621,28.809,22.461,16.602,-287.109,0
31819.678,41.504,29.785,20.996,24.902,-208.984,0
31819.682,36.621,27.344,22.949,48.340,297.852,0
31819.686,27.832,25.391,26.855,48.828,322.754,0
31819.690,25.391,28.809,24.414,20.508,-187.500,0
31819.694,28.320,32.715,22.461,10.742,-314.453,0
31819.698,24.414,29.297,22.461,25.879,166.504,0
31819.702,25.391,25.391,17.090,31.738,383.301,0
31819.705,31.250,28.320,16.602,20.996,-65.918,0
31819.709,33.691,33.691,21.484,8.789,-369.141,0
31819.713,33.203,30.762,21.484,19.043,25.391,0
31819.717,30.762,25.879,19.043,45.410,410.156,0
31819.721,35.156,26.367,22.461,42.480,101.074,0
31819.725,36.621,27.832,22.461,15.625,-343.262,0
31819.729,36.621,33.203,22.949,20.508,-118.164,0
31819.733,43.945,35.156,29.785,46.875,376.465,0
31819.737,42.480,35.645,26.855,50.781,253.906,0
31819.741,43.945,36.621,16.602,35.156,-261.230,0
31819.745,51.270,34.668,22.949,23.926,-224.121,0
31819.748,43.457,33.691,31.250,37.109,291.992,0
31819.752,36.133,31.738,26.855,48.828,360.840,0
31819.756,35.156,26.367,24.414,25.879,-147.461,0
31819.760,34.180,26.367,26.855,7.812,-324.219,0
31819.764,28.809,29.785,26.855,25.391,142.090,0
31819.768,17.578,28.320,18.555,35.156,402.832,0
31819.772,20.996,26.855,19.043,23.926,-13.184,0
31819.776,27.344,26.855,27.344,14.160,-369.629,0
31819.780,30.273,31.738,31.250,26.855,-19.043,0
31819.784,27.344,31.738,34.668,53.223,407.227,0
31819.787,21.484,26.855,27.344,42.480,133.301,0
31819.791,26.367,26.855,25.391,18.555,-341.797,0
31819.795,32.715,33.203,33.691,25.391,-169.434,0
31819.799,29.297,30.762,35.645,49.316,335.449,0
31819.803,28.320,24.902,29.297,55.176,267.578,0
31819.807,26.855,24.902,24.414,33.203,-246.094,0
31819.811,28.320,27.344,31.250,33.691,-265.625,0
31819.815,29.297,29.785,34.668,48.828,250.977,0
31819.819,27.832,30.273,30.762,47.852,386.230,0
31819.823,35.156,29.297,29.785,36.133,-91.797,0
31819.827,39.062,30.273,25.879,22.461,-320.312,0
31819.830,36.621,33.691,26.855,29.785,106.934,0
31819.834,31.738,25.879,32.227,42.969,419.922,0
31819.838,33.203,24.414,31.738,38.574,40.039,0
31819.842,36.621,28.809,25.879,27.832,-347.168,0
31819.846,36.621,28.320,27.344,38.086,-45.898,0
31819.850,34.668,28.320,33.691,60.059,395.020,0
31819.854,34.180,30.762,30.762,53.711,176.758,0
31819.858,38.086,30.762,27.344,27.344,-308.594,0
31819.862,43.945,30.762,28.809,22.949,-170.898,0
31819.866,42.969,30.762,36.133,50.781,342.773,0
31819.870,37.598,28.320,38.574,58.105,319.824,0
31819.873,45.410,29.785,36.621,41.504,-200.195,0
31819.877,50.781,27.832,32.227,39.551,-295.898,0
31819.881,49.316,30.762,30.762,54.688,205.078,0
31819.885,45.410,33.691,34.180,55.176,401.855,0
31819.889,31.250,29.297,31.250,39.551,-58.594,0
31819.893,28.320,27.832,32.715,27.832,-340.332,0
31819.897,30.273,27.344,32.227,33.691,59.570,0
31819.901,24.902,32.227,30.762,46.387,410.645,0
31819.905,20.020,32.715,32.227,41.504,70.801,0
31819.909,21.484,29.785,32.227,17.578,-357.910,0
31819.912,23.926,29.785,30.273,24.414,-107.422,0
31819.916,22.461,28.809,30.762,45.410,358.887,0
31819.920,24.902,28.320,25.879,29.297,185.547,0
31819.924,29.297,31.250,24.414,14.160,-315.918,0
31819.928,29.297,33.691,30.273,16.113,-235.352,0
31819.932,22.461,34.668,27.832,33.203,281.738,0
31819.936,23.926,32.715,26.367,47.852,322.754,0
31819.940,31.250,34.180,27.344,34.668,-178.223,0
31819.944,32.227,36.133,29.297,25.391,-301.270,0
31819.948,26.855,34.180,25.391,34.668,185.059,0
31819.952,25.879,33.691,22.949,48.828,413.086,0
31819.955,31.738,30.273,29.785,44.434,-20.508,0
31819.959,33.203,29.785,29.785,33.203,-338.379,0
31819.963,31.738,28.809,28.320,40.527,29.785,0
31819.967,35.156,28.320,31.250,56.641,416.016,0
31819.971,32.227,31.738,37.598,45.410,110.840,0
31819.975,21.973,30.762,36.621,11.719,-342.773,0
31819.979,22.461,33.203,28.809,20.020,-122.559,0
31819.983,24.414,32.227,29.297,49.316,375.488,0
31819.987,19.043,30.762,26.367,49.805,260.254,0
31819.991,22.949,34.668,24.414,36.133,-249.512,0
31819.995,32.227,32.715,29.785,34.668,-229.004,0
31819.998,32.227,26.367,34.180,54.199,281.738,0
31820.002,31.250,20.996,32.715,68.359,371.094,0
31820.006,31.738,21.484,26.367,41.992,-134.766,0
31820.010,32.227,27.344,28.809,26.367,-330.078,0
31820.014,26.855,28.320,37.598,44.922,136.230,0
31820.018,22.949,27.832,37.109,49.805,423.828,0
31820.022,29.785,26.367,27.832,31.738,22.461,0
31820.026,36.621,30.762,25.391,22.949,-341.309,0
31820.030,34.668,32.715,27.344,36.621,-16.113,0
31820.034,31.250,30.762,30.273,48.340,398.926,0
31820.037,27.832,35.156,30.273,42.480,142.090,0
31820.041,36.621,36.133,35.156,30.273,-325.684,0
31820.045,41.016,35.156,35.645,28.809,-153.320,0
31820.049,35.645,35.156,27.832,48.828,356.934,0
31820.053,36.133,34.180,28.809,55.664,294.922,0
31820.057,41.504,36.133,30.762,32.715,-233.398,0
31820.061,45.898,37.598,25.391,31.738,-276.855,0
31820.065,42.480,35.645,23.926,48.340,230.957,0
31820.069,39.551,35.156,30.273,52.246,372.070,0
31820.073,41.992,37.109,29.297,40.527,-113.770,0
31820.077,42.480,42.480,30.762,22.949,-349.609,0
31820.080,35.645,39.062,33.691,31.250,87.891,0
31820.084,35.645,34.180,30.762,49.316,419.434,0
31820.088,40.039,33.203,26.367,36.133,51.758,0
31820.092,41.504,32.715,25.879,19.043,-346.680,0
31820.096,39.551,33.691,29.297,28.809,-52.734,0
31820.100,39.062,31.738,31.738,50.781,391.113,0
31820.104,45.898,32.715,34.180,46.875,179.199,0
31820.108,46.387,34.180,33.203,24.902,-315.430,0
31820.112,41.504,32.715,29.785,24.902,-204.102,0
31820.116,39.062,31.250,26.855,36.133,309.082,0
31820.120,37.598,32.227,27.344,40.527,305.664,0
31820.123,46.387,38.086,32.227,34.180,-201.660,0
31820.127,47.852,35.645,32.715,24.902,-298.340,0
31820.131,40.527,28.320,34.180,36.621,187.988,0
31820.135,41.504,29.785,32.715,53.711,386.719,0
31820.139,45.410,31.738,24.902,43.457,-64.453,0
31820.143,47.363,29.785,24.902,26.367,-354.004,2
31820.147,41.016,29.297,28.809,33.691,47.852,0
31820.151,38.086,29.785,30.762,50.293,414.062,0
31820.155,43.457,29.785,32.715,44.434,79.590,0
31820.159,49.805,35.645,35.645,23.926,-340.332,0
31820.162,40.527,36.621,32.227,25.391,-90.820,0
31820.166,38.574,34.668,31.738,52.246,382.812,0
31820.170,45.898,37.109,35.645,49.805,233.398,0
31820.174,41.504,36.621,33.691,21.484,-270.020,0
31820.178,39.062,31.738,30.273,22.461,-208.984,0
31820.182,35.156,27.832,27.344,42.480,297.852,0
31820.186,30.762,31.738,28.320,46.875,331.055,0
31820.190,36.133,36.133,30.273,27.344,-170.410,0
31820.194,35.645,33.203,26.855,14.648,-312.012,0
31820.198,27.832,30.273,26.855,27.832,155.762,0
31820.202,23.926,31.250,26.367,48.828,395.508,0
31820.205,27.344,31.250,26.367,44.434,-29.297,0
31820.209,35.156,31.738,30.273,24.414,-349.609,0
31820.213,35.645,32.715,35.645,26.855,22.461,0
31820.217,31.738,29.785,32.715,44.922,415.527,0
31820.221,29.297,31.738,25.879,39.062,117.676,0
31820.225,34.180,33.691,25.879,20.020,-344.238,0
31820.229,39.062,33.203,29.297,30.273,-145.996,0
31820.233,33.691,34.180,29.297,47.852,347.168,0
31820.237,27.832,35.156,25.879,46.875,248.535,0
31820.241,41.016,39.551,27.832,31.738,-262.695,0
31820.245,51.270,40.039,27.344,23.438,-263.184,0
31820.248,40.039,35.645,23.926,38.574,249.023,0
31820.252,30.762,34.668,31.250,49.805,360.840,0
31820.256,30.273,35.156,36.621,35.645,-121.094,0
31820.260,33.203,33.203,34.668,21.973,-323.242,0
31820.264,34.668,35.645,26.367,26.367,121.094,0
31820.268,34.668,38.086,21.973,41.016,406.250,0
31820.272,40.527,35.156,25.391,33.203,8.789,0
31820.276,39.062,35.645,24.902,13.184,-364.258,0
31820.280,31.738,36.621,19.531,20.508,-51.270,0
31820.284,30.762,37.598,21.973,45.410,382.812,0
31820.287,29.785,34.180,31.250,44.434,144.531,0
31820.291,30.273,34.180,32.227,20.508,-336.914,0
31820.295,37.598,37.109,32.715,14.160,-179.688,0
31820.299,43.945,37.598,33.203,41.504,336.426,0
31820.303,41.016,38.086,30.762,55.664,298.340,0
31820.307,41.016,35.645,29.785,36.133,-212.891,0
31820.311,44.922,35.156,26.855,19.531,-274.902,0
31820.315,37.109,35.645,25.391,32.715,220.703,0
31820.319,33.691,34.180,26.367,44.922,379.395,0
31820.323,48.828,38.574,29.297,38.574,-91.797,0
31820.327,58.105,41.504,37.109,38.086,-335.938,0
31820.330,46.387,40.039,34.668,40.527,78.125,0
31820.334,38.086,39.062,31.738,55.664,401.367,0
31820.338,44.922,39.062,36.621,48.828,47.363,0
31820.342,45.410,38.574,38.086,14.648,-349.609,0
31820.346,37.109,35.156,32.227,15.137,-76.660,0
31820.350,30.762,32.715,29.785,36.133,370.605,0
31820.354,32.715,36.621,33.691,40.527,185.059,0
31820.358,36.621,36.621,35.156,20.508,-305.664,0
31820.362,37.598,38.086,30.762,19.043,-218.262,0
31820.366,36.621,41.504,28.809,45.898,295.410,0
31820.370,33.203,35.156,31.250,45.410,312.012,0
31820.373,37.109,32.227,31.250,24.414,-209.473,0
31820.377,40.527,36.133,31.250,19.043,-312.012,0
31820.381,38.086,34.180,38.086,44.922,197.266,0
31820.385,29.297,31.250,31.250,60.547,401.855,0
31820.389,25.879,28.320,22.949,41.504,-50.781,0
31820.393,38.574,28.809,28.809,29.785,-340.332,0
31820.397,43.945,34.668,33.691,34.180,49.805,0
31820.401,39.551,33.691,32.227,42.480,421.387,0
31820.405,42.480,32.715,32.227,44.434,111.816,0
31820.409,49.805,34.668,34.180,35.645,-318.359,0
31820.412,49.316,39.551,31.250,41.992,-83.984,0
31820.416,44.922,41.016,34.668,61.523,393.555,0
31820.420,44.922,36.621,33.691,56.641,238.770,0
31820.424,45.898,33.203,27.344,37.598,-274.414,0
31820.428,43.457,31.738,30.762,31.738,-225.586,0
31820.432,34.180,35.645,34.180,38.574,279.297,0
31820.436,32.715,38.574,40.039,46.387,339.355,0
31820.440,36.621,35.645,42.969,34.180,-160.156,0
31820.444,33.203,37.598,33.691,16.602,-320.312,0
31820.448,27.832,41.016,27.832,32.227,146.484,0
31820.452,27.832,36.133,30.762,51.270,394.043,0
31820.455,27.832,31.738,27.832,30.762,-31.738,0
31820.459,27.832,35.156,25.879,11.719,-376.465,0
31820.463,26.367,36.621,32.227,21.973,-19.043,0
31820.467,24.414,32.715,36.133,40.039,400.391,0
31820.471,26.367,28.809,35.156,34.180,118.652,0
31820.475,29.785,31.250,33.203,15.137,-348.145,0
31820.479,31.250,34.668,32.715,24.902,-146.973,0
31820.483,30.273,32.715,30.273,42.969,358.887,0
31820.487,32.715,29.785,28.320,42.480,267.090,0
31820.491,41.504,32.227,28.320,29.297,-246.094,0
31820.495,42.969,29.785,27.344,20.020,-256.836,0
31820.498,35.156,29.297,29.297,31.250,247.070,0
31820.502,37.109,31.250,31.738,41.016,364.258,0
31820.506,31.738,27.344,32.715,38.086,-121.094,0
31820.510,30.273,27.344,32.715,26.367,-328.613,0
31820.514,33.203,32.227,35.645,32.715,116.211,0
31820.518,26.367,28.320,36.621,46.875,419.434,0
31820.522,28.320,25.391,30.273,39.062,33.203,0
31820.526,39.551,33.691,26.855,24.414,-348.633,0
31820.530,42.480,35.156,24.902,30.273,-33.691,0
31820.534,41.016,33.691,24.902,51.758,402.344,0
31820.537,46.875,35.645,32.715,48.828,182.617,0
31820.541,45.410,36.621,35.645,23.926,-299.316,0
31820.545,35.645,35.156,30.762,20.508,-176.758,0
31820.549,37.598,36.133,35.156,40.527,330.078,0
31820.553,39.062,35.156,35.156,49.316,291.992,0
31820.557,32.227,31.738,26.855,41.504,-232.910,0
31820.561,29.785,32.715,28.320,36.621,-298.340,0
31820.565,30.762,35.645,37.598,40.527,205.566,0
31820.569,34.668,37.109,38.086,41.504,381.836,0
31820.573,34.668,31.738,27.344,27.832,-86.426,0
31820.577,38.574,31.738,30.273,23.438,-354.980,0
31820.580,40.527,31.250,31.250,34.180,62.988,0
31820.584,32.227,22.461,26.367,40.039,417.480,0
31820.588,32.715,22.949,27.832,31.738,66.895,0
31820.592,41.992,26.367,28.809,20.020,-358.398,0
31820.596,41.504,29.297,30.762,27.832,-89.844,0
31820.600,33.203,32.227,29.785,49.805,380.371,0
31820.604,26.855,30.762,25.879,48.340,205.566,0
31820.608,33.203,31.738,27.832,26.855,-289.062,0
31820.612,41.992,34.180,32.227,28.320,-205.566,0
31820.616,42.969,35.645,31.250,46.387,306.152,0
31820.620,41.992,38.574,33.691,47.852,333.984,0
31820.623,39.551,35.156,34.180,28.809,-179.199,0
31820.627,42.480,29.785,30.762,19.043,-309.082,0
31820.631,39.062,33.203,29.785,31.250,177.246,0
31820.635,27.832,33.691,27.344,41.992,408.203,0
31820.639,27.832,29.297,25.391,33.691,-34.180,0
31820.643,31.738,27.832,28.320,31.250,-350.098,0
31820.647,32.227,26.855,31.250,42.480,20.996,0
31820.651,33.203,30.762,35.156,46.875,405.762,0
31820.655,29.785,32.715,29.785,33.203,103.516,0
31820.659,29.297,32.715,25.879,13.672,-341.309,0
31820.662,30.273,33.691,30.762,17.578,-115.234,0
31820.666,29.297,28.809,33.203,39.551,373.535,0
31820.670,28.320,26.367,36.133,38.574,243.652,0
31820.674,22.461,25.391,30.762,19.531,-278.320,0
31820.678,24.414,23.926,29.297,22.949,-243.652,0
31820.682,22.949,24.414,36.133,41.016,279.297,1
31820.686,19.531,24.902,32.715,46.387,358.398,0
31820.690,25.879,22.949,27.832,33.691,-134.277,0
31820.694,32.227,27.344,32.715,19.531,-312.012,0
31820.698,28.809,31.250,34.180,27.832,137.207,0
31820.702,26.367,27.832,30.762,37.598,402.832,0
31820.705,30.762,27.832,33.203,24.414,-3.906,0
31820.709,35.156,31.250,33.203,8.789,-358.398,0
31820.713,36.621,29.297,32.715,23.438,-12.695,0
31820.717,31.738,27.832,36.133,50.293,404.785,0
31820.721,27.832,26.855,32.715,42.480,133.301,0
31820.725,29.297,27.344,29.297,18.555,-326.172,0
31820.729,32.715,32.227,33.203,24.414,-145.020,0
31820.733,34.180,32.715,37.109,43.945,351.074,0
31820.737,27.832,31.250,37.109,48.828,284.668,0
31820.741,30.273,30.273,34.668,28.809,-225.098,0
31820.745,37.109,26.855,33.691,18.066,-258.301,0
31820.748,29.785,29.297,35.156,38.086,235.840,0
31820.752,23.438,28.809,35.156,47.852,354.004,0
31820.756,23.926,25.391,26.855,25.879,-129.395,0
31820.760,33.203,29.785,28.809,18.066,-346.191,0
31820.764,33.691,29.297,34.180,37.598,94.238,0
31820.768,20.508,24.414,29.297,47.363,419.434,0
31820.772,20.020,25.391,30.273,38.086,57.129,0
31820.776,26.367,25.391,32.227,14.160,-353.516,0
31820.780,27.832,23.926,28.320,17.090,-71.777,0
31820.784,31.250,30.273,35.645,44.922,384.766,0
31820.787,28.320,30.273,38.574,43.457,187.988,0
31820.791,28.809,25.879,31.738,19.531,-299.316,0
31820.795,25.879,27.832,30.762,23.926,-189.453,0
31820.799,15.137,25.391,27.832,40.039,312.012,0
31820.803,17.090,24.414,25.879,40.039,291.992,0
31820.807,22.461,29.785,23.926,29.785,-218.262,0
31820.811,27.832,33.691,23.438,29.297,-297.852,0
31820.815,27.344,35.156,30.273,43.945,199.219,0
31820.819,27.832,36.133,36.133,51.270,390.625,0
31820.823,29.297,36.621,33.691,35.156,-71.289,0
31820.827,30.273,34.180,26.855,20.508,-360.352,0
31820.830,35.645,33.691,26.855,32.227,45.410,0
31820.834,31.738,33.691,26.855,49.805,409.668,0
31820.838,29.785,33.691,27.832,39.551,71.289,0
31820.842,33.203,37.109,28.320,22.461,-353.516,0
31820.846,31.738,34.180,26.367,21.973,-95.215,0
31820.850,37.109,34.668,35.156,36.621,389.648,0
31820.854,41.016,34.180,35.645,41.504,238.281,0
31820.858,41.504,32.715,26.367,21.484,-275.879,0
31820.862,47.852,36.133,27.832,20.508,-210.938,0
31820.866,44.922,34.180,31.738,37.598,309.570,0
31820.870,37.598,31.738,29.785,48.340,350.098,0
31820.873,40.039,30.762,27.344,38.574,-158.691,0
31820.877,41.016,28.809,28.809,26.367,-305.664,0
31820.881,40.527,31.250,29.297,38.574,165.039,0
31820.885,40.527,36.621,32.715,58.594,411.621,0
31820.889,43.457,39.551,31.738,53.711,-15.625,0
31820.893,45.410,36.133,25.391,29.785,-341.309,0
31820.897,44.434,35.156,30.273,37.109,37.109,0
31820.901,42.480,37.109,37.598,58.594,442.383,0
31820.905,44.922,35.156,33.691,50.293,143.555,0
31820.909,51.270,33.203,29.297,28.809,-321.289,0
31820.912,45.898,33.691,31.738,28.320,-115.234,0
31820.916,31.738,32.715,30.273,43.945,372.070,0
31820.920,31.250,31.250,29.297,44.922,266.602,0
31820.924,45.410,28.809,25.879,33.203,-239.746,0
31820.928,46.875,27.832,25.879,30.762,-226.074,0
31820.932,38.574,31.250,33.691,49.316,286.133,0
31820.936,36.133,29.785,33.691,57.617,376.953,0
31820.940,35.156,27.344,27.344,28.809,-126.953,0
31820.944,37.598,30.273,27.344,19.043,-322.754,0
31820.948,36.621,34.668,34.180,42.480,144.531,0
31820.952,34.180,35.645,39.062,50.293,437.012,0
31820.955,38.574,35.156,35.156,37.598,26.367,0
31820.959,41.504,33.203,27.832,23.438,-351.074,0
31820.963,33.691,32.227,25.879,28.809,-31.738,0
31820.967,26.367,32.715,27.344,46.387,395.020,0
31820.971,23.438,31.250,30.273,38.574,149.902,0
31820.975,26.367,28.320,31.250,15.137,-331.055,0
31820.979,27.344,28.320,26.367,13.184,-174.316,0
31820.983,25.879,32.715,26.367,26.855,324.219,0
31820.987,26.367,28.320,29.785,30.273,266.602,0
31820.991,34.180,26.367,29.297,15.137,-241.211,0
31820.995,39.551,33.691,25.391,16.113,-292.480,0
31820.998,32.227,34.180,28.809,44.922,204.102,0
31821.002,27.344,33.691,31.250,42.969,359.863,0
31821.006,35.645,32.715,27.832,18.066,-106.934,0
31821.010,41.016,32.715,22.461,10.742,-348.633,0
31821.014,35.156,35.156,20.020,24.902,86.426,0
31821.018,34.668,35.156,29.785,42.480,425.781,0
31821.022,36.133,33.691,36.621,34.668,54.688,0
31821.026,41.016,31.738,32.227,21.973,-343.750,0
31821.030,44.922,34.668,29.297,36.621,-52.246,0
31821.034,41.992,38.086,34.180,56.152,404.297,0
31821.037,38.574,38.574,35.156,50.293,209.961,0
31821.041,46.875,38.086,34.668,42.969,-276.855,0
31821.045,48.828,30.273,34.668,40.527,-178.223,0
31821.049,39.551,27.832,33.691,45.410,324.219,0
31821.053,37.109,27.344,35.156,50.781,323.730,0
31821.057,39.551,24.902,31.738,31.738,-182.617,0
31821.061,43.945,29.785,27.832,22.949,-274.902,0
31821.065,41.504,31.250,27.344,31.738,197.754,0
31821.069,38.086,28.809,28.320,39.551,394.531,0
31821.073,43.457,29.297,31.738,32.715,-53.223,0
31821.077,45.898,29.785,30.762,16.113,-355.957,0
31821.080,40.527,26.367,26.367,30.762,34.668,0
31821.084,36.133,29.785,25.879,53.223,407.227,0
31821.088,37.109,32.227,30.762,46.875,83.984,0
31821.092,41.992,27.344,30.762,23.926,-348.145,0
31821.096,43.457,26.367,34.180,33.691,-101.562,0
31821.100,39.062,23.926,37.109,52.734,371.094,0
31821.104,33.203,21.973,27.344,32.715,226.074,0
31821.108,35.156,25.391,24.414,9.277,-283.691,0
31821.112,42.969,30.273,30.762,21.484,-242.188,0
31821.116,41.992,33.691,31.738,43.457,279.785,0
31821.120,37.598,33.691,29.297,43.945,331.055,0
31821.123,41.504,33.203,26.367,28.320,-172.363,0
31821.127,46.875,34.180,34.668,19.043,-323.242,0
31821.131,43.945,35.156,41.504,39.551,145.020,0
31821.135,41.504,36.133,41.016,55.176,398.926,0
31821.139,41.504,33.691,38.574,38.574,-22.461,0
31821.143,39.551,35.645,36.133,16.602,-361.816,0
31821.147,30.762,30.762,38.574,26.855,-13.672,0
31821.151,27.344,23.926,33.203,45.410,398.926,0
31821.155,29.785,27.344,29.297,37.598,138.672,0
31821.159,30.762,29.297,33.691,20.996,-327.637,0
31821.162,36.133,31.738,32.227,28.320,-149.902,0
31821.166,33.691,30.273,30.762,48.828,342.285,0
31821.170,33.691,29.785,33.691,47.363,249.512,0
31821.174,38.574,33.691,36.621,29.785,-261.230,0
31821.178,34.180,31.250,31.738,23.926,-267.578,0
31821.182,30.762,29.297,29.297,42.969,236.816,0
31821.186,34.180,27.344,34.180,53.711,351.562,0
31821.190,36.133,27.832,31.738,32.227,-133.789,0
31821.194,36.133,32.227,31.738,18.066,-342.285,0
31821.198,25.879,28.809,35.645,29.297,99.121,0
31821.202,21.484,26.367,28.809,43.457,395.996,0
31821.205,27.344,30.273,25.879,33.691,18.555,0
31821.209,34.668,30.762,28.320,18.066,-356.934,0
31821.213,44.922,34.668,32.715,25.391,-53.711,0
31821.217,37.109,39.062,31.738,47.363,379.395,0
31821.221,24.902,38.086,31.250,41.016,149.414,0
31821.225,25.879,33.691,35.645,17.090,-326.172,0
31821.229,32.715,34.668,35.645,19.531,-166.504,0
31821.233,28.809,34.180,32.227,43.945,342.285,0
31821.237,24.902,27.832,28.320,46.875,286.621,0
31821.241,32.715,30.273,29.785,22.461,-228.027,0
31821.245,41.016,35.156,33.203,15.137,-275.879,0
31821.248,39.062,34.668,35.645,37.598,229.980,0
31821.252,32.715,30.762,41.016,50.293,387.207,0
31821.256,33.691,30.762,45.898,35.645,-91.309,0
31821.260,33.691,29.297,40.039,26.367,-353.516,0
31821.264,30.762,30.762,32.715,42.969,70.312,0
31821.268,27.344,31.738,31.738,56.152,416.504,0
31821.272,30.273,27.832,27.344,44.434,62.012,0
31821.276,39.062,29.785,27.344,28.809,-349.121,0
31821.280,38.574,31.250,31.250,34.180,-73.730,0
31821.284,32.715,33.203,31.738,50.293,385.742,0
31821.287,29.785,32.227,32.715,47.363,198.242,0
31821.291,36.133,32.715,33.203,28.809,-293.457,0
31821.295,39.062,36.621,32.227,32.715,-197.754,0
31821.299,30.762,37.598,28.809,46.387,315.918,0
31821.303,27.832,36.133,28.320,40.527,329.590,0
31821.307,36.621,35.156,32.227,32.715,-188.965,0
31821.311,47.363,33.691,38.574,34.668,-312.988,0
31821.315,42.969,31.738,31.738,39.551,172.852,0
31821.319,34.668,34.180,32.227,51.270,395.508,0
31821.323,34.180,32.227,33.691,45.410,-58.105,0
31821.327,31.250,28.320,27.344,18.066,-366.211,0
31821.330,24.902,30.273,31.738,26.855,20.996,0
31821.334,21.484,27.832,34.180,49.805,399.414,1
31821.338,19.531,27.344,28.320,32.227,84.961,0
31821.342,24.902,33.691,23.926,12.695,-353.027,0
31821.346,28.320,34.668,26.367,24.902,-120.605,0
31821.350,20.996,34.668,28.809,41.992,359.375,0
31821.354,17.578,35.645,31.250,38.574,235.840,0
31821.358,22.949,33.203,28.809,13.184,-273.926,0
31821.362,28.320,32.715,29.297,11.230,-242.188,0
31821.366,22.461,27.832,34.668,33.203,276.367,0
31821.370,17.090,23.926,28.320,41.504,349.609,0
31821.373,24.414,28.320,22.461,32.227,-153.320,0
31821.377,32.227,30.762,27.344,22.461,-313.965,0
31821.381,31.738,29.785,24.902,30.762,157.715,0
31821.385,32.227,30.762,25.879,43.457,405.762,0
31821.389,33.691,31.250,27.832,46.387,-15.625,0
31821.393,36.621,34.668,27.344,29.297,-353.027,0
31821.397,34.668,34.668,38.574,23.926,0.488,0
31821.401,27.344,30.762,38.574,36.621,411.133,0
31821.405,31.250,33.691,31.738,31.738,141.113,0
31821.409,37.109,36.133,26.855,19.531,-333.008,0
31821.412,39.062,37.598,33.691,31.738,-147.461,0
31821.416,34.180,34.180,38.086,54.688,352.051,0
31821.420,30.273,28.809,31.250,57.617,266.113,0
31821.424,42.480,33.203,32.227,37.109,-241.211,0
31821.428,42.969,37.109,33.203,28.809,-263.672,0
31821.432,34.180,33.203,29.785,53.711,241.211,0
31821.436,33.691,29.297,32.715,64.941,369.629,0
31821.440,39.551,29.297,39.062,38.574,-114.746,0
31821.444,40.527,31.250,34.668,28.809,-338.379,0
31821.448,29.785,34.180,30.273,41.504,101.562,0
31821.452,26.367,29.785,32.227,45.410,409.180,0
31821.455,30.762,25.391,29.785,39.551,36.621,0
31821.459,33.691,26.855,30.273,26.367,-344.238,0
31821.463,30.273,28.809,29.785,34.180,-50.781,0
31821.467,27.344,28.320,30.273,60.059,389.648,0
31821.471,29.297,26.855,30.762,54.688,176.758,0
31821.475,32.715,28.809,33.691,24.902,-306.152,0
31821.479,30.762,28.809,38.574,19.043,-184.570,0
31821.483,25.879,29.297,37.598,45.898,318.848,0
31821.487,27.344,28.809,34.180,50.781,300.781,0
31821.491,29.785,25.391,27.344,20.020,-206.543,0
31821.495,32.227,31.250,28.809,12.695,-277.344,0
31821.498,26.855,31.250,34.180,35.645,218.262,0
31821.502,18.555,26.855,31.738,49.805,384.766,0
31821.506,21.973,28.809,27.832,31.738,-78.125,0
31821.510,25.879,33.203,34.668,24.902,-343.750,0
31821.514,20.996,35.156,32.715,36.133,54.199,0
31821.518,21.973,32.715,24.902,43.457,399.902,0
31821.522,25.391,31.738,24.414,35.156,65.918,0
31821.526,28.320,34.180,26.367,14.160,-349.609,0
31821.530,29.297,32.715,28.320,14.648,-91.797,0
31821.534,24.414,30.762,28.320,32.715,369.629,0
31821.537,25.391,28.320,28.809,31.250,194.824,0
31821.541,28.809,25.879,27.344,17.090,-309.570,0
31821.545,30.273,28.809,30.273,20.508,-225.098,0
31821.549,27.832,32.227,33.691,38.574,295.898,0
31821.553,24.902,29.785,31.738,46.387,323.730,0
31821.557,32.227,29.297,25.879,34.668,-174.316,0
31821.561,36.621,33.691,28.809,24.902,-289.062,0
31821.565,32.715,36.621,36.133,43.457,201.172,0
31821.569,28.320,33.691,33.691,52.246,425.781,0
31821.573,35.645,32.715,34.180,34.668,-5.859,0
31821.577,45.410,35.156,39.551,26.855,-309.570,0
31821.580,43.945,33.691,37.109,41.016,66.406,0
31821.584,36.133,29.297,30.273,59.570,450.684,0
31821.588,35.645,29.297,32.715,58.594,147.461,0
31821.592,45.898,31.738,38.086,47.852,-305.664,0
31821.596,45.410,30.273,32.715,41.504,-105.469,0
31821.600,37.598,30.762,31.738,50.781,381.348,0
31821.604,33.691,33.691,37.598,53.711,269.531,0
31821.608,31.738,30.762,34.180,32.715,-255.859,0
31821.612,29.785,31.250,26.855,20.508,-254.395,0
31821.616,31.250,36.621,26.855,36.133,254.395,0
31821.620,26.855,32.227,29.297,44.922,337.891,0
31821.623,25.879,30.762,32.227,30.273,-153.809,0
31821.627,27.344,31.738,33.691,11.230,-331.055,0
31821.631,25.391,31.738,34.668,26.855,125.000,0
31821.635,24.902,33.691,30.762,47.363,386.230,0
31821.639,21.484,32.715,27.344,30.273,-22.949,0
31821.643,23.926,33.691,28.320,16.602,-373.047,0
31821.647,25.391,33.691,27.344,30.273,-31.738,0
31821.651,25.879,35.645,31.738,58.105,397.461,0
31821.655,32.715,32.227,34.180,53.711,150.391,0
31821.659,34.668,30.273,28.809,20.996,-314.941,0
31821.662,30.762,30.762,26.367,19.531,-157.715,0
31821.666,29.785,26.855,29.297,46.387,342.285,0
31821.670,33.691,26.855,32.227,55.664,292.969,0
31821.674,39.551,29.297,32.227,35.645,-208.008,0
31821.678,39.551,29.297,31.738,25.879,-235.352,0
31821.682,38.574,30.762,35.156,49.316,264.648,0
31821.686,44.434,32.715,35.645,66.895,399.902,0
31821.690,39.062,31.250,27.344,40.039,-85.938,0
31821.694,34.668,36.621,33.203,19.043,-325.684,0
31821.698,30.273,38.086,34.180,24.414,96.191,0
31821.702,22.949,33.203,29.297,36.621,412.109,0
31821.705,29.785,38.574,39.062,35.156,47.852,0
31821.709,20.508,37.109,48.828,11.719,-363.281,0
31821.713,1.953,37.109,47.852,5.371,-92.773,0
31821.717,-4.395,42.480,39.551,10.254,353.027,0
31821.721,-15.625,38.574,42.969,-1.465,135.742,0
31821.725,-31.250,33.691,56.152,-30.273,-373.535,0
31821.729,-39.062,36.133,51.270,-41.504,-272.949,0
31821.733,-46.387,35.645,47.852,-29.785,239.258,0
31821.737,-59.570,37.598,51.758,-34.668,230.469,0
31821.741,-64.453,41.992,52.246,-57.617,-299.805,0
31821.745,-65.430,42.480,54.688,-70.312,-410.156,0
31821.748,-73.242,45.898,56.641,-63.965,75.684,0
31821.752,-85.449,47.363,59.082,-56.641,273.438,0
31821.756,-90.820,41.016,57.129,-84.473,-187.012,0
31821.760,-89.355,40.527,53.711,-112.793,-476.074,0
31821.764,-84.473,42.969,55.664,-96.680,-70.312,0
31821.768,-84.961,39.062,58.105,-70.801,296.387,0
31821.772,-82.520,39.062,58.594,-74.219,-33.203,0
31821.776,-75.684,38.574,56.152,-96.680,-459.961,0
31821.780,-72.266,35.156,53.711,-90.332,-206.543,0
31821.784,-67.871,34.668,51.758,-67.383,273.926,0
31821.787,-64.453,35.645,50.293,-55.664,129.395,0
31821.791,-58.105,38.574,44.434,-61.523,-366.211,0
31821.795,-56.641,35.645,38.574,-65.430,-312.012,0
31821.799,-57.129,33.203,45.410,-45.898,207.520,0
31821.803,-48.828,31.738,43.945,-33.203,273.926,0
31821.807,-34.180,29.785,33.691,-33.203,-219.238,0
31821.811,-23.926,34.180,34.668,-27.344,-355.469,0
31821.815,-15.137,35.156,41.504,-6.836,118.164,0
31821.819,-5.371,36.133,43.945,12.207,359.375,0
31821.823,9.277,39.551,41.992,12.207,-57.129,0
31821.827,16.602,34.668,36.133,2.441,-385.742,0
31821.830,24.902,39.062,37.109,23.926,-9.766,0
31821.834,36.621,41.504,42.480,53.223,404.785,0
31821.838,34.180,32.715,33.203,44.922,105.469,0
31821.842,43.457,33.203,24.902,32.227,-345.703,0
31821.846,46.387,34.668,29.785,41.504,-130.371,0
31821.850,41.016,35.156,30.762,67.871,368.652,0
31821.854,42.480,34.668,28.809,65.430,277.832,0
31821.858,48.828,30.273,29.785,39.551,-236.816,1
31821.862,60.547,26.367,31.738,45.410,-236.328,0
31821.866,57.617,22.949,27.344,67.383,275.879,0
31821.870,53.711,25.879,27.832,75.195,384.277,0
31821.873,65.430,31.250,22.461,64.941,-92.773,0
31821.877,78.125,34.180,19.043,67.383,-286.133,0
31821.881,74.219,32.227,27.832,84.961,162.109,0
31821.885,74.219,31.250,27.344,93.750,461.426,0
31821.889,85.938,35.156,24.414,85.449,85.449,0
31821.893,93.750,37.598,27.344,74.707,-276.855,0
31821.897,83.496,32.227,23.926,84.473,30.762,0
31821.901,71.289,28.809,22.949,96.680,454.102,0
31821.905,77.148,33.203,24.414,90.820,227.539,0
31821.909,83.984,37.598,23.438,75.684,-257.812,0
31821.912,78.613,32.715,25.391,73.730,-122.559,0
31821.916,70.801,30.273,26.855,89.355,385.742,0
31821.920,67.383,30.762,26.367,95.703,338.867,0
31821.924,73.242,32.227,22.949,73.242,-187.988,0
31821.928,75.195,32.227,21.484,58.594,-246.582,0
31821.932,72.754,30.273,27.344,81.543,255.859,0
31821.936,67.871,25.391,29.785,97.656,404.297,0
31821.940,63.965,25.879,20.508,80.566,-66.895,0
31821.944,65.918,31.250,13.672,60.059,-311.035,0
31821.948,60.547,26.855,18.555,75.195,108.887,0
31821.952,57.129,25.391,23.926,93.262,447.754,0
31821.955,64.941,29.297,25.879,77.148,90.332,0
31821.959,75.684,31.738,25.879,57.129,-312.500,0
31821.963,74.219,33.203,22.949,62.988,-30.273,0
31821.967,70.312,33.691,21.973,85.449,418.945,0
31821.971,65.430,34.180,24.414,87.402,228.516,0
31821.975,59.570,35.645,26.367,58.594,-266.113,0
31821.979,58.594,38.086,23.438,52.246,-170.410,0
31821.983,54.688,35.156,22.949,71.777,344.727,0
31821.987,44.434,29.297,19.043,73.242,347.656,0
31821.991,46.387,29.297,14.648,60.059,-167.480,0
31821.995,49.805,33.691,23.926,47.852,-270.020,0
31821.998,42.480,31.250,24.414,50.781,212.891,0
31822.002,41.992,30.273,20.508,70.312,418.457,0
31822.006,46.387,32.715,19.043,66.406,-33.691,0
31822.010,49.316,34.180,20.996,52.734,-332.520,0
31822.014,48.828,35.156,31.250,64.941,70.801,0
31822.018,42.480,32.715,30.273,74.707,440.918,0
31822.022,39.062,34.180,21.973,57.129,116.699,0
31822.026,50.293,37.109,23.438,35.645,-324.707,0
31822.030,54.199,34.180,30.762,42.480,-87.891,0
31822.034,45.898,31.738,30.762,64.453,400.879,0
31822.037,40.039,30.273,26.367,67.383,268.066,0
31822.041,44.434,30.762,27.344,45.898,-245.117,0
31822.045,52.734,33.203,28.809,39.551,-203.613,0
31822.049,47.363,32.715,31.738,64.941,305.664,0
31822.053,36.621,31.250,34.668,68.359,359.863,0
31822.057,38.086,31.250,31.250,46.387,-134.766,0
31822.061,40.527,33.203,25.879,38.086,-305.176,0
31822.065,36.621,35.156,22.949,47.852,153.320,0
31822.069,41.016,32.715,26.367,54.199,422.363,0
31822.073,42.480,35.156,29.297,50.293,11.230,0
31822.077,41.992,37.109,29.785,34.668,-327.637,0
31822.080,39.062,26.855,31.250,36.133,19.043,0
31822.084,35.645,26.367,33.203,59.570,422.363,0
31822.088,33.203,26.855,32.227,53.223,154.297,0
31822.092,34.668,21.484,31.738,30.762,-311.523,0
31822.096,38.574,21.973,32.715,35.156,-128.906,0
31822.100,38.086,27.344,33.691,56.641,377.441,0
31822.104,38.086,29.785,28.809,57.129,292.480,0
31822.108,39.062,29.297,23.926,39.551,-236.816,0
31822.112,42.969,29.297,21.973,25.391,-249.023,0
31822.116,46.875,30.273,20.508,40.527,268.066,0
31822.120,50.781,34.180,25.391,60.059,380.859,0
31822.123,48.340,33.203,28.809,51.270,-109.375,0
31822.127,45.410,28.809,34.180,36.621,-319.336,0
31822.131,41.016,31.738,34.668,43.945,109.863,0
31822.135,38.574,34.668,27.344,62.988,395.020,0
31822.139,39.062,29.297,26.855,47.363,17.578,0
31822.143,37.598,28.809,26.367,19.043,-360.840,0
