timestamps,TP9,AF7,AF8,TP10,Right AUX,Marker0
1542907670.948,10.742,28.809,38.086,24.414,38.086,0
1542907670.952,-5.859,26.855,35.156,42.969,-14.648,0
1542907670.955,-59.570,25.879,27.344,-20.508,4.883,0
1542907670.959,-51.758,26.855,28.809,-53.711,-3.906,0
1542907670.963,-25.879,30.762,30.762,-29.297,-2.441,0
1542907670.967,-24.414,34.668,27.832,-12.207,3.418,0
1542907670.971,-21.973,29.785,28.320,-8.789,25.879,0
1542907670.975,-13.184,27.344,29.297,-1.953,49.805,0
1542907670.979,2.930,32.227,27.344,-19.043,4.883,0
1542907670.983,-30.273,34.180,26.855,-21.973,-63.965,0
1542907670.987,-53.711,31.738,25.879,-19.043,-20.020,0
1542907670.991,-36.133,25.879,31.738,4.883,54.199,0
1542907670.994,-33.203,32.715,29.297,-12.207,8.301,0
1542907670.998,-38.574,30.273,30.273,-44.922,35.645,0
1542907671.002,-50.781,26.367,35.645,-21.973,28.809,0
1542907671.006,-20.020,36.133,32.227,-4.395,-1.953,0
1542907671.010,-17.578,36.133,34.180,12.695,-2.441,0
1542907671.014,-42.480,33.203,37.598,-1.953,3.418,0
1542907671.018,-18.066,31.250,37.598,-9.766,-7.324,0
1542907671.022,13.672,32.715,35.156,22.949,-6.348,0
1542907671.026,-23.438,31.738,36.621,-14.648,46.387,0
1542907671.030,-56.641,31.250,44.922,-42.480,27.344,0
1542907671.034,-34.668,34.180,44.922,-3.906,19.043,0
1542907671.037,-39.551,30.762,40.039,-2.930,25.879,0
1542907671.041,-57.129,28.320,37.598,-6.348,-32.227,0
1542907671.045,-19.531,33.691,35.156,11.719,-11.719,0
1542907671.049,-16.113,30.762,36.133,12.695,62.988,0
1542907671.053,-61.523,26.855,38.086,-11.230,31.250,0
1542907671.057,-45.410,32.227,35.645,-13.184,-4.883,0
1542907671.061,-12.695,31.738,33.691,-22.949,26.855,0
1542907671.065,-3.906,33.203,30.762,-1.465,41.016,0
1542907671.069,-32.227,35.156,31.250,7.324,29.297,0
1542907671.073,34.668,37.109,30.273,6.836,50.293,0
1542907671.077,42.969,33.691,31.738,13.184,53.711,0
1542907671.080,-69.824,23.438,34.668,-6.836,17.578,0
1542907671.084,-85.938,29.785,27.344,-51.270,65.918,0
1542907671.088,-43.945,37.109,27.344,-50.781,125.488,0
1542907671.092,-1.953,39.062,30.762,-25.879,64.941,0
1542907671.096,23.438,41.016,29.785,7.324,45.898,0
1542907671.100,7.324,32.715,32.715,26.855,93.262,0
1542907671.104,-44.922,22.949,41.016,24.414,38.086,0
1542907671.108,-56.152,28.320,38.574,-1.465,19.043,0
1542907671.112,-48.340,26.367,35.156,-23.926,23.438,0
1542907671.116,-36.133,29.297,33.691,-18.066,37.598,0
1542907671.119,-3.906,37.598,34.180,-27.344,41.992,0
1542907671.123,3.906,37.109,29.785,-0.488,-8.789,0
1542907671.127,-10.742,31.738,24.902,5.371,24.414,0
1542907671.131,5.859,28.320,26.367,-20.508,27.344,0
1542907671.135,12.695,31.250,23.926,-4.883,23.438,0
1542907671.139,-35.645,32.227,25.391,0.000,30.762,0
1542907671.143,-21.484,33.203,29.785,-27.832,84.473,0
1542907671.147,-5.859,32.715,26.367,-22.461,109.863,0
1542907671.151,2.930,32.715,21.973,2.930,96.191,0
1542907671.155,1.465,31.738,21.484,13.184,86.426,0
1542907671.159,-4.883,25.879,26.855,-16.113,27.832,0
1542907671.162,21.973,24.414,31.250,-12.695,61.035,0
1542907671.166,3.906,23.926,27.344,10.254,72.754,0
1542907671.170,5.371,26.855,20.020,8.789,11.230,0
1542907671.174,104.492,28.809,21.484,4.883,18.555,0
1542907671.178,47.852,20.020,30.273,-3.906,48.828,0
1542907671.182,-59.082,26.367,27.832,-8.301,98.633,0
1542907671.186,40.527,34.180,19.043,-35.156,71.289,0
1542907671.190,58.594,29.297,17.090,-47.852,77.148,0
1542907671.194,5.371,25.879,16.602,-11.719,99.609,0
1542907671.198,-43.457,13.184,22.461,-17.578,56.641,0
1542907671.202,0.000,20.020,20.020,-8.301,32.715,0
1542907671.205,55.176,30.273,17.578,18.066,41.504,0
1542907671.209,76.172,25.879,14.160,-13.672,40.527,0
1542907671.213,43.457,18.555,13.672,-49.316,50.293,0
1542907671.217,17.090,18.066,15.137,-15.137,33.691,0
1542907671.221,35.156,24.902,6.348,-41.504,-22.949,0
1542907671.225,-6.348,21.484,2.441,-72.754,-2.441,0
1542907671.229,88.867,11.230,0.977,-40.039,15.137,0
1542907671.233,69.824,-3.906,20.996,-8.789,12.695,0
1542907671.237,-41.016,-4.883,33.691,12.207,30.273,0
1542907671.241,-39.551,8.301,11.719,-78.613,19.043,0
1542907671.244,29.297,0.488,10.742,-120.117,37.598,0
1542907671.248,43.945,-7.812,14.160,-69.336,2.441,0
1542907671.252,0.000,-11.719,13.672,-63.477,-8.789,0
1542907671.256,-13.184,-16.113,20.020,-81.543,34.180,0
1542907671.260,-11.230,-12.695,14.648,-43.457,0.000,0
1542907671.264,0.488,-3.906,2.441,-82.031,48.828,0
1542907671.268,10.254,-7.812,2.930,-136.719,47.363,0
1542907671.272,39.062,-23.926,-0.488,-121.094,52.246,0
1542907671.276,73.242,-30.762,-3.906,-88.379,69.824,0
1542907671.280,47.852,-37.109,-3.906,-63.965,42.969,0
1542907671.284,-19.531,-35.156,-11.719,-76.172,97.168,0
1542907671.287,38.086,-30.762,-21.973,-109.375,142.578,0
1542907671.291,135.742,-35.156,-18.555,-75.195,141.602,0
1542907671.295,125.977,-43.945,-15.137,-69.336,82.031,0
1542907671.299,13.184,-48.340,-26.367,-105.957,8.301,0
1542907671.303,28.809,-44.922,-30.273,-55.664,17.578,0
1542907671.307,102.051,-55.664,-22.949,-63.477,41.016,0
1542907671.311,117.676,-52.246,-31.250,-102.539,19.043,0
1542907671.315,136.230,-51.270,-35.156,-92.285,5.371,0
1542907671.319,125.000,-67.383,-28.809,-79.102,15.625,0
1542907671.323,92.285,-63.965,-38.086,-111.328,91.309,0
1542907671.327,191.406,-53.223,-46.875,-129.395,106.934,0
1542907671.330,186.523,-56.641,-40.527,-78.125,21.973,0
1542907671.334,45.410,-63.965,-41.016,-88.379,10.254,0
1542907671.338,89.844,-73.242,-42.480,-108.887,36.621,0
1542907671.342,186.523,-72.754,-45.410,-87.891,27.832,0
1542907671.346,157.715,-67.871,-56.152,-124.023,29.785,0
1542907671.350,152.832,-74.707,-51.270,-123.535,33.203,0
1542907671.354,187.500,-85.449,-49.805,-79.102,51.270,0
1542907671.358,110.840,-91.309,-61.523,-98.633,60.547,0
1542907671.362,126.953,-93.750,-67.383,-107.910,-0.488,0
1542907671.366,142.578,-99.609,-70.801,-97.656,5.371,0
1542907671.369,103.516,-102.051,-74.219,-148.438,46.387,0
1542907671.373,124.023,-94.238,-83.496,-167.480,55.664,0
1542907671.377,218.262,-93.262,-100.586,-130.371,33.691,0
1542907671.381,208.496,-110.352,-96.680,-87.891,5.371,0
1542907671.385,147.461,-125.977,-86.426,-162.598,25.391,0
1542907671.389,176.758,-136.230,-82.520,-208.008,65.918,0
1542907671.393,132.812,-139.160,-83.496,-193.359,86.426,0
1542907671.397,163.086,-131.836,-94.238,-174.316,70.312,0
1542907671.401,152.344,-153.809,-84.961,-184.082,-0.488,0
1542907671.405,11.230,-165.527,-82.520,-250.000,10.742,0
1542907671.409,27.344,-156.738,-89.355,-287.598,16.113,0
1542907671.412,73.242,-169.434,-86.914,-307.617,-0.488,0
1542907671.416,84.473,-179.199,-89.355,-260.742,14.160,0
1542907671.420,78.125,-179.199,-90.820,-248.535,1.953,0
1542907671.424,8.301,-182.617,-79.590,-316.406,4.395,0
1542907671.428,-6.836,-191.895,-83.008,-321.777,35.156,0
1542907671.432,21.973,-199.219,-96.191,-329.102,29.297,0
1542907671.436,20.020,-206.543,-75.195,-300.781,0.000,0
1542907671.440,-24.414,-214.844,-69.824,-240.234,-8.301,0
1542907671.444,-38.086,-221.680,-84.961,-292.969,2.441,0
1542907671.448,-30.762,-240.723,-87.891,-326.172,28.320,0
1542907671.452,-101.562,-255.371,-83.984,-298.340,-10.742,0
1542907671.455,-108.398,-232.422,-106.445,-305.664,-20.508,0
1542907671.459,-66.406,-231.445,-108.398,-257.324,32.227,0
1542907671.463,-72.266,-235.352,-110.352,-289.062,20.996,0
1542907671.467,-48.340,-224.121,-127.930,-284.180,13.184,0
1542907671.471,-66.895,-230.957,-119.629,-206.543,19.043,0
1542907671.475,-88.867,-213.867,-128.906,-287.109,12.695,0
1542907671.479,-38.574,-214.355,-129.883,-239.746,49.316,0
1542907671.483,-34.180,-221.191,-125.000,-191.406,-1.953,0
1542907671.487,-41.016,-208.496,-135.742,-246.094,-72.266,0
1542907671.491,10.742,-207.520,-127.930,-172.363,19.531,0
1542907671.494,30.762,-201.660,-133.789,-159.668,77.637,0
1542907671.498,-1.465,-208.496,-134.277,-147.949,62.988,0
1542907671.502,24.902,-208.984,-131.836,-151.855,73.242,0
1542907671.506,20.508,-192.871,-143.066,-189.453,57.129,0
1542907671.510,26.855,-181.641,-152.832,-206.543,32.715,0
1542907671.514,78.125,-191.406,-128.906,-200.684,36.621,0
1542907671.518,24.414,-188.965,-107.422,-140.625,47.363,0
1542907671.522,-36.621,-183.105,-112.305,-105.469,78.613,0
1542907671.526,-22.461,-173.340,-111.816,-125.488,37.598,0
1542907671.530,-8.301,-162.109,-119.629,-209.961,19.531,0
1542907671.534,2.441,-170.410,-121.094,-137.207,78.125,0
1542907671.537,-25.391,-171.387,-113.770,-80.566,23.438,0
1542907671.541,-50.781,-166.016,-114.258,-143.555,-6.836,0
1542907671.545,-47.363,-158.691,-113.770,-123.047,36.621,0
1542907671.549,-37.109,-145.508,-130.859,-123.535,65.918,0
1542907671.553,-68.848,-162.598,-122.559,-109.375,41.504,0
1542907671.557,-86.426,-173.828,-105.957,-86.914,104.980,0
1542907671.561,-8.789,-144.043,-124.512,-126.465,115.723,0
1542907671.565,-27.344,-138.184,-121.582,-143.066,68.848,0
1542907671.569,-127.930,-155.273,-105.469,-83.984,103.516,0
1542907671.573,-54.688,-149.902,-105.957,-65.918,22.461,0
1542907671.577,-76.660,-142.090,-110.840,-137.695,12.695,0
1542907671.580,-131.348,-142.578,-99.121,-135.742,87.891,0
1542907671.584,-84.473,-134.277,-94.727,-107.422,61.523,0
1542907671.588,-27.344,-117.676,-108.887,-112.793,42.969,0
1542907671.592,-50.781,-124.023,-99.121,-97.656,23.926,0
1542907671.596,-101.562,-127.930,-94.727,-102.051,36.621,0
1542907671.600,-83.008,-116.211,-102.051,-145.020,78.613,0
1542907671.604,-62.012,-126.465,-92.773,-98.145,58.105,0
1542907671.608,-57.129,-132.812,-95.215,-61.523,23.438,0
1542907671.612,-94.238,-119.629,-110.352,-118.652,62.500,0
1542907671.616,-116.211,-121.582,-90.332,-122.559,65.430,0
1542907671.619,-92.285,-121.094,-84.473,-107.422,-8.789,0
1542907671.623,-80.078,-109.863,-97.656,-111.816,7.812,0
1542907671.627,-76.660,-114.746,-90.332,-85.449,55.664,0
1542907671.631,-98.145,-112.793,-89.355,-121.582,33.203,0
1542907671.635,-138.184,-115.234,-87.891,-149.414,29.785,0
1542907671.639,-55.176,-108.398,-92.773,-79.102,2.441,0
1542907671.643,-3.418,-109.863,-89.844,-63.477,31.738,0
1542907671.647,-38.574,-115.234,-83.496,-138.184,75.195,0
1542907671.651,-60.059,-105.957,-86.914,-124.023,81.055,0
1542907671.655,-84.473,-106.934,-84.473,-83.984,124.023,0
1542907671.659,-83.008,-98.145,-81.055,-93.262,80.566,0
1542907671.662,-109.375,-96.191,-80.566,-117.676,24.414,0
1542907671.666,-139.648,-101.562,-78.125,-150.879,-17.090,0
1542907671.670,-102.539,-103.516,-69.824,-115.723,-22.949,0
1542907671.674,-53.711,-96.680,-66.895,-87.891,-20.996,0
1542907671.678,-45.898,-87.402,-76.660,-135.254,7.324,0
1542907671.682,-91.797,-105.469,-74.219,-128.906,61.523,0
1542907671.686,-81.055,-108.887,-70.801,-74.707,38.574,0
1542907671.690,-49.316,-86.914,-89.844,-83.496,29.785,0
1542907671.694,-75.195,-83.008,-94.727,-105.469,26.367,0
1542907671.698,-100.098,-100.098,-77.637,-106.445,5.859,0
1542907671.702,-125.000,-108.398,-75.195,-113.770,56.641,0
1542907671.705,-121.094,-101.074,-76.660,-121.582,38.086,0
1542907671.709,-39.062,-84.473,-81.543,-110.840,34.668,0
1542907671.713,-4.395,-76.660,-81.543,-66.895,57.617,0
1542907671.717,-79.102,-83.008,-71.289,-82.520,25.879,0
1542907671.721,-137.207,-97.656,-58.594,-103.027,25.879,0
1542907671.725,-148.926,-94.727,-57.617,-100.586,43.457,0
1542907671.729,-89.844,-64.453,-75.195,-110.840,12.695,0
1542907671.733,-56.152,-59.570,-71.289,-82.031,-4.395,0
1542907671.737,-167.969,-88.867,-53.223,-127.441,25.879,0
1542907671.741,-163.086,-75.684,-63.965,-114.258,39.062,0
1542907671.744,-126.953,-52.246,-75.684,-85.938,20.020,0
1542907671.748,-93.262,-68.848,-66.406,-106.934,20.996,0
1542907671.752,-10.254,-71.289,-65.918,-99.609,37.598,0
1542907671.756,-97.656,-72.266,-71.777,-98.145,64.941,0
1542907671.760,-132.812,-82.520,-73.730,-76.172,85.449,0
1542907671.764,-102.051,-76.172,-67.871,-69.824,69.824,0
1542907671.768,-134.766,-70.801,-48.828,-52.734,49.316,0
1542907671.772,-96.191,-61.523,-62.012,-37.109,99.609,0
1542907671.776,-107.422,-61.035,-70.801,-92.285,129.883,0
1542907671.780,-158.691,-81.543,-40.527,-96.680,82.031,0
1542907671.784,-61.035,-73.730,-44.922,-70.312,30.762,0
1542907671.787,-69.336,-62.988,-57.617,-57.129,34.180,0
1542907671.791,-150.391,-83.008,-53.711,-0.488,36.621,0
1542907671.795,-103.027,-80.078,-58.594,-23.926,11.719,0
1542907671.799,-77.148,-62.012,-63.477,-93.750,19.043,0
1542907671.803,-97.656,-60.547,-65.918,-62.988,28.320,0
1542907671.807,-112.305,-66.406,-67.383,-38.574,56.641,0
1542907671.811,-124.512,-73.730,-50.781,-38.574,34.668,0
1542907671.815,-119.141,-68.359,-41.504,-52.734,30.273,0
1542907671.819,-63.965,-62.988,-45.898,-48.828,55.664,0
1542907671.823,-14.648,-54.688,-50.293,-15.137,26.855,0
1542907671.827,-61.523,-68.848,-45.898,5.371,7.812,0
1542907671.830,-139.160,-69.336,-50.781,-22.461,6.836,0
1542907671.834,-173.340,-62.012,-59.570,-93.750,61.035,0
1542907671.838,-106.934,-55.176,-53.223,-58.105,67.383,0
1542907671.842,-82.031,-64.941,-43.945,-45.898,-9.766,0
1542907671.846,-36.133,-65.430,-52.246,-66.895,-20.020,0
1542907671.850,-77.637,-61.523,-49.805,11.719,-10.254,0
1542907671.854,-152.832,-68.359,-41.992,-19.531,0.000,0
1542907671.858,-126.953,-79.102,-22.461,-78.125,8.301,0
1542907671.862,-79.102,-70.801,-33.691,-15.625,8.301,0
1542907671.866,-47.852,-60.547,-53.223,0.488,90.332,0
1542907671.869,-29.785,-63.477,-53.223,-28.320,50.781,0
1542907671.873,-113.281,-51.270,-59.570,-91.309,30.273,0
1542907671.877,-153.320,-47.363,-61.035,-84.961,22.949,0
1542907671.881,-113.770,-64.941,-47.363,-75.195,20.508,0
1542907671.885,-122.070,-77.148,-37.109,-20.996,83.496,0
1542907671.889,-105.957,-67.871,-57.617,-35.645,36.621,0
1542907671.893,-81.543,-58.594,-66.406,-80.566,-19.531,0
1542907671.897,-77.148,-65.918,-48.340,-68.848,17.090,0
1542907671.901,-110.840,-87.891,-49.805,-75.684,38.086,0
1542907671.905,-70.312,-69.336,-62.988,-55.176,40.039,0
1542907671.909,-23.438,-51.270,-68.359,-22.461,43.945,0
1542907671.912,-32.227,-65.430,-71.289,-70.801,75.684,0
1542907671.916,-16.113,-76.660,-51.758,-40.527,52.246,0
1542907671.920,-78.125,-71.777,-46.387,-15.137,15.625,0
1542907671.924,-118.652,-59.082,-53.223,-82.520,101.074,0
1542907671.928,-59.570,-57.129,-47.363,-63.965,40.039,0
1542907671.932,-67.383,-64.941,-46.875,-27.832,18.555,0
1542907671.936,-24.902,-56.641,-50.293,-60.059,48.340,0
1542907671.940,-35.156,-52.246,-52.246,-68.359,16.602,0
1542907671.944,-96.191,-62.012,-46.875,-39.062,-12.695,0
1542907671.948,-20.508,-62.012,-45.898,-51.270,4.883,0
1542907671.952,-68.848,-60.547,-59.082,-75.195,30.762,0
1542907671.955,-149.414,-52.734,-62.500,-91.797,11.230,0
1542907671.959,-110.352,-56.641,-45.898,-48.828,23.926,0
1542907671.963,-68.359,-68.848,-42.969,-93.262,32.715,0
1542907671.967,-35.156,-60.059,-47.363,-44.922,59.570,0
1542907671.971,-68.848,-51.758,-55.664,-44.922,98.633,0
1542907671.975,-100.098,-55.664,-60.059,-108.887,41.504,0
1542907671.979,-84.961,-59.082,-50.293,-55.176,9.766,0
1542907671.983,-73.242,-50.781,-46.387,-64.453,16.602,0
1542907671.987,-56.641,-62.012,-46.387,-58.105,3.906,0
1542907671.991,-121.094,-81.543,-41.992,-41.016,29.785,0
1542907671.994,-148.438,-69.824,-46.875,-50.781,41.504,0
1542907671.998,-73.242,-60.059,-55.176,-21.484,27.344,0
1542907672.002,-81.055,-63.477,-50.293,-58.105,56.641,0
1542907672.006,-131.836,-56.641,-50.781,-77.148,3.418,0
1542907672.010,-135.742,-61.035,-48.340,-33.691,-54.199,0
1542907672.014,-147.461,-64.941,-46.875,-54.688,62.500,0
1542907672.018,-61.523,-51.758,-61.035,-97.168,109.375,0
1542907672.022,-44.434,-53.223,-50.781,-69.824,94.238,0
1542907672.026,-84.961,-67.383,-34.180,-10.254,83.008,0
1542907672.030,-128.906,-71.777,-35.156,-22.461,10.254,0
1542907672.034,-156.738,-56.152,-37.598,-93.750,1.465,0
1542907672.037,-109.375,-57.129,-31.250,-67.871,-9.766,0
1542907672.041,-109.863,-54.688,-32.715,-45.410,10.254,0
1542907672.045,-125.488,-45.898,-38.086,-89.355,75.684,0
1542907672.049,-90.332,-47.852,-30.762,-79.102,56.152,0
1542907672.053,-85.449,-37.109,-33.691,-51.270,66.406,0
1542907672.057,-127.441,-42.480,-36.621,-0.488,31.250,0
1542907672.061,-130.371,-55.176,-26.855,-15.625,-21.484,0
1542907672.065,-112.793,-53.223,-31.250,-94.238,19.531,0
1542907672.069,-48.828,-31.738,-35.645,-92.773,13.672,0
1542907672.073,-58.594,-16.602,-36.621,-33.203,-17.090,0
1542907672.077,-145.020,-34.668,-30.762,-30.762,27.344,0
1542907672.080,-152.832,-57.617,-11.230,-60.059,45.410,0
1542907672.084,-129.395,-49.316,-21.484,-35.156,56.641,0
1542907672.088,-127.441,-35.156,-35.645,-65.430,19.043,0
1542907672.092,-106.934,-38.086,-22.949,-70.801,-16.113,0
1542907672.096,-56.641,-33.691,-23.926,-49.316,53.711,0
1542907672.100,-130.371,-32.227,-23.926,-26.855,83.008,0
1542907672.104,-183.105,-43.457,-15.625,-41.992,30.273,0
1542907672.108,-77.148,-36.133,-27.832,-124.023,60.547,0
1542907672.112,-76.172,-31.738,-20.996,-58.594,44.434,0
1542907672.116,-141.602,-36.133,-9.277,-8.301,-24.902,0
1542907672.119,-104.492,-26.367,-22.949,-63.965,32.715,0
1542907672.123,-62.012,-31.250,-25.391,-74.707,58.105,0
1542907672.127,-81.055,-41.992,-12.695,-57.617,13.184,0
1542907672.131,-134.277,-39.062,-14.160,-37.109,2.441,0
1542907672.135,-127.930,-29.297,-25.391,-82.031,-3.906,0
1542907672.139,-58.594,-33.203,-20.020,-111.328,43.457,0
1542907672.143,-91.797,-43.457,-9.766,-38.086,82.031,0
1542907672.147,-152.344,-37.598,-10.742,-72.266,17.578,0
1542907672.151,-120.117,-38.086,-14.648,-88.379,-23.926,0
1542907672.155,-141.113,-41.016,-11.230,-53.223,21.484,0
1542907672.159,-92.285,-23.438,-20.996,-79.590,37.598,0
1542907672.162,-45.898,-17.578,-32.227,-101.074,0.977,0
1542907672.166,-110.840,-34.668,-12.695,-36.621,-50.781,0
1542907672.170,-91.797,-38.574,-6.348,-46.387,42.480,0
1542907672.174,-66.895,-20.020,-33.203,-74.219,111.816,0
1542907672.178,-75.195,-21.973,-28.809,-54.199,54.199,0
1542907672.182,-72.266,-36.621,-8.301,-53.711,-1.465,0
1542907672.186,-76.172,-31.250,-10.742,-34.668,11.230,0
1542907672.190,-29.297,-20.996,-24.414,-20.020,30.762,0
1542907672.194,-62.012,-24.902,-27.832,-55.176,3.906,0
1542907672.198,-150.879,-38.086,0.000,-41.504,2.930,0
1542907672.202,-107.910,-36.133,6.836,-79.102,19.531,0
1542907672.205,-84.961,-34.668,6.348,-77.148,57.617,0
1542907672.209,-81.543,-43.457,5.371,-11.230,51.758,0
1542907672.213,-53.711,-45.898,-2.930,-37.598,49.805,0
1542907672.217,-96.680,-47.363,4.883,-34.180,48.828,0
1542907672.221,-127.441,-44.434,10.742,-45.898,24.902,0
1542907672.225,-108.398,-39.551,3.418,-99.121,28.809,0
1542907672.229,-99.121,-47.363,4.883,-65.430,79.590,0
1542907672.233,-20.508,-38.574,0.977,-23.438,94.727,0
1542907672.237,-32.715,-29.785,-4.395,-38.086,66.406,0
1542907672.241,-64.941,-34.668,1.465,43.945,76.660,0
1542907672.244,-21.484,-27.832,-6.836,9.277,6.348,0
1542907672.248,-43.457,-18.066,-3.418,-92.285,-2.441,0
1542907672.252,28.320,-23.926,10.254,-41.992,25.391,0
1542907672.256,-56.641,-24.414,12.207,-20.996,4.395,0
1542907672.260,-62.988,-16.602,9.277,-53.711,33.203,0
1542907672.264,37.109,-10.742,3.906,-44.434,20.508,0
1542907672.268,-97.656,-12.207,-0.977,-75.684,-9.277,0
1542907672.272,-101.562,-8.789,-3.906,-58.594,16.602,0
1542907672.276,-62.012,-3.418,14.160,-5.859,51.758,0
1542907672.280,-33.691,-9.766,21.484,-36.621,20.996,0
1542907672.284,5.859,-7.812,19.531,-5.371,37.109,0
1542907672.287,29.297,-6.348,18.066,-13.184,9.277,0
1542907672.291,-15.625,-14.160,30.762,17.090,-28.809,0
1542907672.295,-67.871,-7.812,17.090,1.953,32.227,0
1542907672.299,4.883,-1.953,-1.465,-38.086,49.805,0
1542907672.303,25.879,-7.812,6.836,-30.273,21.484,0
1542907672.307,-84.961,-11.719,14.648,-64.453,65.918,0
1542907672.311,-8.301,-10.742,9.277,-32.227,49.805,0
1542907672.315,20.508,-6.836,4.883,-16.602,48.828,0
1542907672.319,-69.824,3.418,5.859,1.953,60.059,0
1542907672.323,-42.480,-0.488,7.324,-14.160,19.043,0
1542907672.327,-0.488,-7.812,13.672,-51.758,47.363,0
1542907672.330,7.324,-0.488,4.883,-26.367,68.848,0
1542907672.334,-9.277,6.348,0.000,-18.555,43.457,0
1542907672.338,-5.859,13.672,-3.418,-38.574,51.758,0
1542907672.342,46.387,13.184,-8.301,-35.156,34.180,0
1542907672.346,58.105,0.977,1.953,-49.316,11.719,0
1542907672.350,-32.227,-5.371,13.184,-57.617,28.320,0
1542907672.354,-50.293,2.930,4.883,-4.883,78.613,0
1542907672.358,22.461,9.277,7.324,32.227,92.285,0
1542907672.362,57.129,16.113,8.301,13.672,52.246,0
1542907672.366,41.992,-0.977,7.812,-28.320,30.273,0
1542907672.369,43.945,-8.789,13.672,-36.133,47.852,0
1542907672.373,-38.574,3.906,17.090,26.855,57.129,0
1542907672.377,-125.488,9.277,6.348,-5.371,-23.438,0
1542907672.381,-119.141,9.766,1.953,-86.914,-58.105,0
1542907672.385,-62.988,10.254,11.719,-45.898,34.668,0
1542907672.389,4.883,15.137,5.859,-1.953,76.660,0
1542907672.393,34.668,12.695,8.301,17.578,47.363,0
1542907672.397,-37.109,-0.488,22.461,50.293,36.621,0
1542907672.401,-108.887,0.977,12.695,-47.852,14.160,0
1542907672.405,-17.090,10.254,4.883,-81.055,41.504,0
1542907672.409,3.906,5.371,13.184,-12.207,78.613,0
1542907672.412,-47.363,6.836,7.812,-17.578,24.902,0
1542907672.416,21.484,10.742,5.371,-36.133,10.254,0
1542907672.420,-21.973,6.348,4.395,-34.180,48.828,0
1542907672.424,-79.590,-4.395,13.672,8.301,9.277,0
1542907672.428,10.742,7.324,15.625,8.789,22.461,0
1542907672.432,42.480,20.996,5.371,-47.852,9.766,0
1542907672.436,-18.555,17.090,0.488,-47.363,20.020,0
1542907672.440,-34.180,18.555,-0.488,-8.789,66.406,0
1542907672.444,26.367,21.484,-0.977,-1.953,56.152,0
1542907672.448,20.020,18.066,5.859,-51.758,9.766,0
1542907672.452,-35.156,25.879,11.230,-29.785,12.695,0
1542907672.455,-14.648,23.926,8.301,14.648,58.594,0
1542907672.459,46.387,9.277,16.602,-15.137,82.031,0
1542907672.463,66.895,14.648,25.391,16.113,71.289,0
1542907672.467,31.250,20.508,19.043,5.371,48.828,0
1542907672.471,12.695,10.742,16.113,3.418,88.867,0
1542907672.475,56.641,3.906,23.926,62.988,56.641,0
1542907672.479,-43.945,15.625,16.602,-12.695,46.387,0
1542907672.483,-100.098,16.602,14.160,-65.430,54.199,0
1542907672.487,-0.977,14.648,11.230,-27.832,38.574,0
1542907672.491,55.664,13.672,10.254,17.090,17.578,0
1542907672.494,57.617,5.371,22.949,32.227,-27.344,0
1542907672.498,33.691,10.254,18.066,-4.883,-52.734,0
1542907672.502,47.852,16.602,2.441,-36.621,5.859,0
1542907672.506,-20.996,5.371,0.488,-51.270,35.645,0
1542907672.510,-50.781,2.441,-4.395,-44.434,28.809,0
1542907672.514,-64.453,2.441,-2.930,-47.852,10.742,0
1542907672.518,-46.875,3.418,-1.465,-80.566,10.742,0
1542907672.522,-4.883,6.836,-2.930,-35.645,45.898,0
1542907672.526,7.812,4.883,5.371,28.809,54.688,0
1542907672.530,23.438,9.766,-5.859,-26.367,24.414,0
1542907672.534,87.891,10.254,-11.230,-40.527,-12.695,0
1542907672.537,42.480,0.000,2.441,13.672,18.066,0
1542907672.541,-31.738,-1.953,11.230,4.883,25.391,0
1542907672.545,32.227,2.930,7.324,-51.270,1.465,0
1542907672.549,47.852,4.883,-1.465,-11.719,12.695,0
1542907672.553,-23.438,-1.953,0.000,-5.371,51.270,0
1542907672.557,-42.480,-2.930,9.766,-12.207,50.293,0
1542907672.561,1.465,6.836,12.207,20.508,51.270,0
1542907672.565,83.984,5.859,8.789,12.207,72.754,0
1542907672.569,47.363,7.812,6.348,-43.945,89.844,0
1542907672.573,-30.762,19.043,1.465,-40.039,82.031,0
1542907672.577,101.074,25.391,-3.906,8.789,73.242,0
1542907672.580,67.383,10.742,3.906,-6.348,74.219,0
1542907672.584,-30.762,8.301,12.695,-14.648,83.984,0
1542907672.588,14.648,14.160,16.602,42.480,73.730,0
1542907672.592,3.906,15.137,14.648,-27.344,0.977,0
1542907672.596,25.879,25.391,5.859,-72.266,-31.250,0
1542907672.600,45.898,21.973,12.207,7.324,-26.855,0
1542907672.604,51.758,14.160,14.160,-11.230,18.066,0
1542907672.608,99.121,18.066,9.277,-8.789,8.789,0
1542907672.612,58.594,5.859,26.367,34.668,41.016,0
1542907672.616,63.477,5.859,21.973,40.527,15.137,0
1542907672.619,48.828,29.297,6.836,8.301,13.184,0
1542907672.623,-33.203,36.621,10.254,-29.297,60.547,0
1542907672.627,-5.859,27.344,13.184,-23.926,70.312,0
1542907672.631,31.738,27.832,11.719,-28.320,70.312,0
1542907672.635,44.434,26.855,23.438,40.527,39.551,0
1542907672.639,74.219,18.066,33.203,94.238,47.852,0
1542907672.643,57.617,23.438,21.973,-1.953,90.332,0
1542907672.647,12.207,20.020,13.184,-80.566,76.172,0
1542907672.651,15.137,10.742,21.484,8.789,41.992,0
1542907672.655,5.371,9.766,23.926,45.898,25.391,0
1542907672.659,31.738,16.602,13.672,-0.488,55.664,0
1542907672.662,23.926,15.625,11.230,-26.855,105.469,0
1542907672.666,-2.930,11.230,13.672,-18.555,49.805,0
1542907672.670,111.328,18.555,12.207,0.000,19.531,0
1542907672.674,90.332,21.484,14.160,50.293,49.316,0
1542907672.678,-6.348,20.996,0.000,3.906,83.984,0
1542907672.682,88.867,24.414,-8.789,-75.684,91.309,0
1542907672.686,84.961,21.484,6.348,-18.066,39.551,0
1542907672.690,41.992,12.207,19.531,3.906,36.133,0
1542907672.694,16.113,5.371,25.879,1.465,81.055,0
1542907672.698,10.742,16.602,10.254,-21.484,99.609,0
1542907672.702,71.777,30.762,-2.930,-63.965,84.961,0
1542907672.705,50.293,25.391,7.324,-31.738,94.727,0
1542907672.709,38.574,20.996,9.277,-26.855,45.898,0
1542907672.713,64.941,27.832,5.371,-41.992,-14.648,0
1542907672.717,50.293,22.461,15.137,3.906,29.297,0
1542907672.721,75.195,12.695,21.484,21.973,26.855,0
1542907672.725,80.078,15.137,15.137,15.137,-16.113,0
1542907672.729,80.566,18.066,8.301,-38.086,18.555,0
1542907672.733,82.031,18.555,14.648,-29.785,14.160,0
1542907672.737,81.543,17.090,15.625,22.461,16.113,0
1542907672.741,106.934,21.973,9.766,9.766,29.785,0
1542907672.744,95.215,21.973,13.672,5.371,24.902,0
1542907672.748,108.887,13.672,19.531,17.578,-7.324,0
1542907672.752,142.090,24.414,10.254,-17.578,-26.367,0
1542907672.756,116.211,40.527,-5.859,-39.062,20.996,0
1542907672.760,142.090,32.715,-4.883,-14.648,64.941,0
1542907672.764,117.676,16.113,15.137,-62.988,74.219,0
1542907672.768,35.156,15.137,20.996,-36.133,63.477,0
1542907672.772,46.875,18.555,9.277,-4.395,30.762,0
1542907672.776,100.098,16.113,5.371,-19.531,18.555,0
1542907672.780,58.594,17.578,7.812,-14.160,16.113,0
1542907672.784,93.750,19.043,12.695,-28.809,15.625,0
1542907672.787,158.691,26.855,11.719,-4.883,22.949,0
1542907672.791,129.395,20.508,13.184,6.836,-2.441,0
1542907672.795,95.703,15.137,18.555,-20.508,47.852,0
1542907672.799,90.332,27.344,14.160,-37.109,44.434,0
1542907672.803,68.359,26.367,6.836,-20.996,21.973,0
1542907672.807,117.676,32.227,0.488,5.371,20.996,0
1542907672.811,111.816,29.297,5.859,-36.621,25.879,0
1542907672.815,29.785,10.742,24.414,-34.668,27.832,0
1542907672.819,89.355,20.508,20.020,-16.113,7.324,0
1542907672.823,145.996,28.320,11.230,-7.812,23.438,0
1542907672.827,182.617,23.926,23.438,-6.836,31.738,0
1542907672.830,111.328,32.715,18.066,-20.508,92.285,0
1542907672.834,24.414,30.273,14.160,-2.930,103.027,0
1542907672.838,47.852,18.555,28.809,-0.488,80.078,0
1542907672.842,81.055,26.855,25.879,-23.438,36.621,0
1542907672.846,129.395,37.598,17.090,-31.250,-13.184,0
1542907672.850,106.445,30.762,27.832,11.719,0.000,0
1542907672.854,71.289,26.367,36.621,33.203,0.000,0
1542907672.858,109.375,33.203,28.809,24.414,40.039,0
1542907672.862,26.855,32.715,22.461,-2.930,55.664,0
1542907672.866,80.566,41.992,17.578,-32.715,71.289,0
1542907672.869,148.926,43.945,16.113,27.832,114.746,0
1542907672.873,37.598,27.344,37.598,22.949,72.266,0
1542907672.877,71.289,35.156,52.734,-7.324,8.301,0
1542907672.881,78.125,46.387,51.270,12.207,19.531,0
1542907672.885,29.785,48.828,44.434,21.484,20.996,0
1542907672.889,84.473,51.758,40.527,30.273,25.391,0
1542907672.893,72.754,50.781,34.180,-4.883,74.707,0
1542907672.897,-16.602,41.992,28.320,-32.227,102.539,0
1542907672.901,-83.496,36.133,28.809,-49.805,100.586,0
1542907672.905,-13.672,40.527,30.762,-9.277,37.109,0
1542907672.909,57.617,49.805,30.762,80.078,41.504,0
1542907672.912,-10.742,51.270,23.438,-33.203,89.355,0
1542907672.916,22.949,46.875,28.320,-64.941,11.719,0
1542907672.920,68.359,43.457,40.527,53.223,27.344,0
1542907672.924,-3.906,37.109,40.527,36.133,76.660,0
1542907672.928,62.500,41.504,28.809,-22.949,49.805,0
1542907672.932,67.383,48.828,22.949,-7.812,31.250,0
1542907672.936,-23.926,46.875,22.949,-24.902,51.270,0
1542907672.940,-25.391,37.598,21.973,-31.250,26.855,0
1542907672.944,38.574,38.086,24.902,30.762,17.578,0
1542907672.948,97.656,41.504,25.391,38.574,55.176,0
1542907672.952,-1.465,34.180,33.203,-8.789,17.090,0
1542907672.955,-61.035,29.297,31.738,-28.809,-7.812,0
1542907672.959,63.965,32.715,28.320,-7.812,29.785,0
1542907672.963,55.176,37.598,26.855,-3.418,41.992,0
1542907672.967,-15.137,33.203,30.273,-2.930,-8.301,0
1542907672.971,92.773,34.668,31.738,24.902,-51.270,0
1542907672.975,54.688,42.480,25.391,73.242,-15.137,0
1542907672.979,-34.668,40.039,20.508,13.672,-5.859,0
1542907672.983,-1.953,29.785,27.832,-55.176,-11.230,0
1542907672.987,16.602,30.762,35.156,11.230,12.695,0
1542907672.991,33.691,36.621,27.832,41.992,32.715,0
1542907672.994,-51.758,35.156,27.832,1.465,18.066,0
1542907672.998,-47.363,37.598,30.273,11.230,46.875,0
1542907673.002,61.523,44.922,27.832,18.555,61.523,0
1542907673.006,41.504,44.922,23.926,8.301,33.691,0
1542907673.010,-13.672,38.574,25.879,38.574,78.613,0
1542907673.014,20.020,39.062,23.926,59.570,30.273,0
1542907673.018,-12.695,47.363,13.184,1.953,-43.945,0
1542907673.022,-17.090,52.734,15.137,-30.273,-16.113,0
1542907673.026,52.246,51.270,23.926,-3.906,14.648,0
1542907673.030,61.523,45.410,29.785,54.199,30.273,0
1542907673.034,21.973,44.434,31.738,43.945,64.453,0
1542907673.037,1.953,46.387,29.297,7.324,88.867,0
1542907673.041,40.527,46.387,34.180,47.852,37.598,0
1542907673.045,-5.371,44.434,31.250,50.781,15.137,0
1542907673.049,59.570,51.758,22.461,39.551,-7.324,0
1542907673.053,78.613,49.805,28.320,20.020,-27.344,0
1542907673.057,-84.961,37.109,36.133,24.414,22.949,0
1542907673.061,-32.715,40.039,32.715,81.055,67.871,0
1542907673.065,18.066,41.504,30.762,62.500,52.734,0
1542907673.069,-10.254,43.457,28.320,6.348,0.488,0
1542907673.073,86.426,42.969,16.113,10.742,-22.949,0
1542907673.077,86.426,36.621,5.859,32.227,65.430,0
1542907673.080,-54.688,28.320,9.277,12.207,90.820,0
1542907673.084,-47.363,38.086,19.043,-18.066,42.969,0
1542907673.088,-18.555,41.016,20.508,-48.828,69.824,0
1542907673.092,-7.812,48.828,9.277,-24.902,33.691,0
1542907673.096,-12.207,65.430,6.836,22.461,34.668,0
1542907673.100,-28.809,68.848,19.531,37.109,83.496,0
1542907673.104,-21.973,79.102,29.785,83.496,71.777,0
1542907673.108,-7.812,84.961,20.020,96.680,71.289,0
1542907673.112,-14.160,70.312,22.461,50.781,95.703,0
1542907673.116,-28.320,55.664,58.105,23.438,66.895,0
1542907673.119,-60.547,44.922,70.312,52.246,34.668,0
1542907673.123,-20.996,36.621,56.152,1.953,70.801,0
1542907673.127,-58.105,45.898,49.316,-47.363,86.914,0
1542907673.131,-133.789,30.762,33.691,15.625,51.758,0
1542907673.135,-99.609,-33.691,51.758,86.426,17.578,0
1542907673.139,-111.816,-25.879,87.402,11.719,5.859,0
1542907673.143,-157.715,37.598,66.895,-62.500,-15.137,0
1542907673.147,-161.133,0.977,30.762,-27.344,20.996,0
1542907673.151,-189.453,-30.762,64.453,-84.961,46.387,0
1542907673.155,-226.562,57.617,107.422,-89.355,20.020,0
1542907673.159,-158.691,128.418,99.121,-37.109,29.297,0
1542907673.162,-180.664,137.207,95.215,-131.348,20.508,0
1542907673.166,-288.086,89.355,155.762,-135.742,38.574,0
1542907673.170,-286.133,68.359,201.172,-51.758,4.395,0
1542907673.174,-282.715,74.219,196.289,-11.719,11.230,0
1542907673.178,-258.789,47.852,192.871,-69.336,42.969,0
1542907673.182,-197.754,74.707,160.645,-53.711,9.277,0
1542907673.186,-217.285,82.031,156.250,-31.738,4.883,0
1542907673.190,-206.543,52.246,230.957,-42.480,38.574,0
1542907673.194,-161.621,30.762,232.422,41.992,81.543,0
1542907673.198,-117.676,59.082,195.801,52.734,28.320,0
1542907673.202,-87.891,147.949,207.031,58.105,-6.348,0
1542907673.205,-9.277,157.715,207.031,106.445,52.734,0
1542907673.209,-24.414,139.648,264.160,169.922,59.082,0
1542907673.213,-127.441,119.141,319.824,160.156,54.688,0
1542907673.217,-36.133,139.648,344.238,88.379,36.621,0
1542907673.221,80.078,170.410,353.027,165.039,68.359,0
1542907673.225,141.113,200.195,282.227,219.727,107.910,0
1542907673.229,145.020,251.465,270.996,198.242,97.656,0
1542907673.233,143.066,261.719,345.703,245.605,94.727,0
1542907673.237,201.172,245.117,391.113,352.539,68.359,0
1542907673.241,308.594,251.465,389.160,332.031,54.199,0
1542907673.244,376.465,269.531,424.805,330.078,38.086,0
1542907673.248,454.102,281.738,488.770,421.875,23.926,0
1542907673.252,506.348,302.246,472.656,483.887,60.547,0
1542907673.256,462.402,353.027,441.406,514.160,54.688,0
1542907673.260,482.422,367.188,463.379,492.676,20.020,0
1542907673.264,558.105,326.172,500.488,499.512,-17.578,0
1542907673.268,625.977,334.473,535.645,518.066,4.395,0
1542907673.272,659.668,398.926,553.223,553.223,0.977,0
1542907673.276,667.480,421.387,537.109,545.898,-41.016,0
1542907673.280,701.172,401.367,527.344,528.320,13.672,0
1542907673.284,786.133,397.949,515.137,574.707,22.461,0
1542907673.287,835.449,389.648,488.281,589.844,39.551,0
1542907673.291,790.527,357.422,466.797,561.523,78.125,0
1542907673.295,751.465,340.332,440.918,563.477,60.059,0
1542907673.299,825.684,341.797,429.199,528.320,49.316,0
1542907673.303,854.980,331.543,428.223,502.441,22.461,0
1542907673.307,904.785,293.945,406.738,479.004,47.363,0
1542907673.311,873.047,231.934,419.922,444.824,86.426,0
1542907673.315,789.062,250.000,440.918,466.797,57.617,0
1542907673.319,895.996,299.805,401.855,479.492,84.961,0
1542907673.323,941.406,270.020,366.211,416.504,73.730,0
1542907673.327,938.965,235.840,355.469,382.812,-0.488,0
1542907673.330,950.684,217.773,319.824,366.211,15.137,0
1542907673.334,865.234,182.129,276.855,361.328,16.602,0
1542907673.338,882.812,171.387,252.930,375.977,29.785,0
1542907673.342,933.105,174.805,227.051,344.727,-13.672,0
1542907673.346,898.926,154.297,234.375,259.766,-66.406,0
1542907673.350,899.902,133.789,241.211,259.277,-23.438,0
1542907673.354,971.191,132.324,216.309,273.926,12.695,0
1542907673.358,987.305,124.512,192.383,263.672,52.734,0
1542907673.362,907.715,112.793,171.875,270.996,40.039,0
1542907673.366,937.988,104.492,159.668,250.977,-15.137,0
1542907673.369,978.027,107.910,147.461,236.328,-30.273,0
1542907673.373,838.379,104.980,141.602,203.613,-12.695,0
1542907673.377,822.266,85.938,140.625,181.641,-20.508,0
1542907673.381,862.793,78.613,113.281,175.781,17.578,0
1542907673.385,867.676,87.891,113.770,157.715,48.828,0
1542907673.389,829.102,78.613,131.348,145.020,53.711,0
1542907673.393,714.844,63.477,116.699,145.508,43.945,0
1542907673.397,740.723,61.035,102.539,201.172,38.086,0
1542907673.401,740.723,70.801,106.934,189.941,66.406,0
1542907673.405,638.184,72.266,111.328,91.797,110.840,0
1542907673.409,606.445,69.336,113.770,117.188,29.297,0
1542907673.412,635.742,73.730,120.117,156.738,-19.043,0
1542907673.416,645.508,50.293,106.934,151.855,12.207,0
1542907673.420,588.867,42.969,90.332,145.508,-13.672,0
1542907673.424,548.340,76.660,85.938,138.184,-28.809,0
1542907673.428,540.527,84.961,94.727,122.559,19.531,0
1542907673.432,510.742,88.867,117.676,131.836,40.039,0
1542907673.436,574.219,94.727,108.887,107.422,32.227,0
1542907673.440,529.297,90.332,102.051,93.262,41.016,0
1542907673.444,441.406,74.219,107.910,117.188,60.547,0
1542907673.448,429.688,45.410,107.910,101.562,88.379,0
1542907673.452,382.324,35.156,97.168,83.496,52.246,0
1542907673.455,386.719,56.152,74.219,109.863,20.508,0
1542907673.459,341.797,84.473,92.773,108.398,20.508,0
1542907673.463,282.715,102.539,121.094,85.938,11.719,0
1542907673.467,264.648,94.727,125.000,54.688,0.488,0
1542907673.471,248.047,84.473,134.277,69.336,70.801,0
1542907673.475,235.840,78.125,140.625,101.074,62.500,0
1542907673.479,227.051,73.730,132.324,91.797,21.484,0
1542907673.483,219.238,72.266,125.977,110.840,33.203,0
1542907673.487,232.422,66.895,119.629,94.727,68.359,0
1542907673.491,218.262,75.684,106.934,68.848,42.480,0
1542907673.494,156.738,64.941,109.863,64.941,-5.371,0
1542907673.498,65.430,60.547,121.582,60.059,41.504,0
1542907673.502,74.707,90.820,132.812,81.543,61.035,0
1542907673.506,80.078,96.191,141.113,64.453,53.711,0
1542907673.510,32.715,99.609,137.207,41.992,73.730,0
1542907673.514,31.738,95.703,131.836,56.641,42.480,0
1542907673.518,96.191,93.750,135.742,65.918,41.504,0
1542907673.522,42.969,83.984,134.277,58.105,70.312,0
1542907673.526,-23.926,61.035,126.465,77.637,72.754,0
1542907673.530,15.625,59.082,128.418,82.520,28.320,0
1542907673.534,-15.137,67.871,135.254,64.941,-0.488,0
1542907673.537,-35.156,80.078,131.836,13.184,23.926,0
1542907673.541,-20.996,83.008,127.930,9.277,33.203,0
1542907673.545,-1.953,83.008,128.906,59.570,37.109,0
1542907673.549,1.465,82.031,138.184,66.406,25.391,0
1542907673.553,-19.043,74.219,146.484,36.133,21.973,0
1542907673.557,-26.367,79.590,143.066,40.527,9.766,0
1542907673.561,-3.418,84.473,150.879,56.152,30.762,0
1542907673.565,-29.297,83.496,153.320,44.434,39.062,0
1542907673.569,-48.340,84.961,143.555,33.691,60.059,0
1542907673.573,-46.387,79.102,155.273,61.035,57.617,0
1542907673.577,-36.133,80.078,166.504,78.613,-11.230,0
1542907673.580,-39.062,83.496,161.621,51.758,16.113,0
1542907673.584,6.348,74.219,165.039,96.680,59.082,0
1542907673.588,47.852,83.984,163.086,102.539,34.668,0
1542907673.592,-51.270,96.680,158.203,35.156,49.316,0
1542907673.596,-44.922,88.379,161.133,82.031,109.863,0
1542907673.600,-14.160,89.355,153.809,81.055,64.941,0
1542907673.604,-79.590,87.402,151.367,57.129,0.488,0
1542907673.608,-53.223,79.102,137.207,71.777,-15.625,0
1542907673.612,-25.879,73.242,133.789,61.035,-21.484,0
1542907673.616,-27.832,79.590,142.090,66.406,13.184,0
1542907673.619,-38.574,74.219,150.391,71.289,16.602,0
1542907673.623,21.973,45.410,146.484,93.262,11.230,0
1542907673.627,16.113,52.734,107.422,36.133,15.625,0
1542907673.631,-34.668,78.125,93.262,-13.184,28.320,0
1542907673.635,-71.289,77.637,129.395,41.504,67.383,0
1542907673.639,-109.375,78.613,167.480,53.223,80.566,0
1542907673.643,-104.492,90.820,172.363,24.414,42.969,0
1542907673.647,-100.586,94.727,160.645,44.922,19.043,0
1542907673.651,-67.871,90.820,147.461,76.172,37.598,0
1542907673.655,-79.102,87.402,139.160,59.570,91.309,0
1542907673.659,-46.387,84.961,129.395,9.277,133.789,0
1542907673.662,-67.383,76.660,128.906,-7.324,106.934,0
1542907673.666,-136.230,67.871,138.672,28.320,42.969,0
1542907673.670,-83.496,67.871,141.602,55.176,48.340,0
1542907673.674,-81.055,67.871,132.324,88.867,76.660,0
1542907673.678,-100.586,72.266,124.023,37.109,43.457,0
1542907673.682,-48.828,76.660,123.047,14.648,22.461,0
1542907673.686,-48.340,71.777,129.395,78.613,2.930,0
1542907673.690,-36.133,72.754,122.559,23.926,41.992,0
1542907673.694,-26.855,71.777,120.605,10.254,67.383,0
1542907673.698,-70.312,66.895,123.535,38.086,26.855,0
1542907673.702,-60.547,70.801,114.746,11.719,30.762,0
1542907673.705,-45.898,68.359,117.188,29.785,38.574,0
1542907673.709,-36.133,64.941,121.582,41.504,30.762,0
1542907673.713,32.715,64.941,113.770,41.992,53.711,0
1542907673.717,-13.184,58.594,108.887,71.289,36.621,0
1542907673.721,-108.887,54.199,111.816,28.809,23.438,0
1542907673.725,-51.758,59.570,110.352,-20.996,-31.738,0
1542907673.729,-63.965,52.734,112.305,44.922,-41.016,0
1542907673.733,-61.523,42.480,116.699,14.160,11.230,0
1542907673.737,4.883,50.781,110.840,5.371,15.137,0
1542907673.741,81.543,57.617,102.051,7.324,54.199,0
1542907673.744,101.562,55.664,103.516,-26.855,49.805,0
1542907673.748,6.836,45.410,111.816,25.879,65.918,0
1542907673.752,-136.719,24.414,112.305,23.438,119.141,0
1542907673.756,-97.656,5.371,109.375,-11.719,91.797,0
1542907673.760,11.719,22.461,103.027,23.438,40.527,0
1542907673.764,37.598,56.641,88.867,40.527,11.230,0
1542907673.768,41.016,61.035,82.031,-27.344,32.715,0
1542907673.772,14.648,57.129,76.172,-68.359,-13.184,0
1542907673.776,-62.012,56.152,69.824,-52.734,17.090,0
1542907673.780,-16.113,59.082,57.129,-87.402,103.516,0
1542907673.784,0.977,60.059,47.852,-79.102,93.750,0
1542907673.787,-102.539,52.246,45.410,-20.020,36.621,0
1542907673.791,-129.883,45.410,39.062,-93.262,30.762,0
1542907673.795,-108.887,48.828,26.367,-199.219,58.105,0
1542907673.799,-41.992,59.570,11.719,-166.504,40.039,0
1542907673.803,-30.762,69.336,1.465,-122.559,60.547,0
1542907673.807,-38.086,65.430,-3.418,-142.578,45.410,0
1542907673.811,-62.500,57.617,-18.555,-182.129,-2.930,0
1542907673.815,-113.281,59.082,-31.250,-207.031,46.387,0
1542907673.819,-140.137,54.688,-26.855,-185.059,59.082,0
1542907673.823,-112.305,47.852,-30.762,-165.527,-2.441,0
1542907673.827,-148.438,50.293,-43.457,-188.477,21.973,0
1542907673.830,-126.465,52.246,-49.316,-181.641,49.316,0
1542907673.834,-113.770,52.734,-56.641,-203.613,25.879,0
1542907673.838,-233.887,49.316,-65.430,-253.906,71.777,0
1542907673.842,-239.258,45.410,-70.312,-189.941,-19.043,0
1542907673.846,-191.406,41.992,-84.473,-223.145,-25.391,0
1542907673.850,-190.430,39.062,-95.215,-276.367,32.227,0
1542907673.854,-251.465,35.156,-94.727,-228.027,-6.836,0
1542907673.858,-267.578,31.250,-96.680,-195.312,8.789,0
1542907673.862,-215.332,31.738,-98.633,-189.453,75.684,0
1542907673.866,-197.266,32.227,-104.004,-190.918,90.820,0
1542907673.869,-212.891,29.785,-116.699,-230.957,71.289,0
1542907673.873,-242.188,34.668,-128.906,-257.812,70.801,0
1542907673.877,-279.785,32.715,-125.977,-222.656,69.824,0
1542907673.881,-232.910,28.320,-127.930,-198.242,80.078,0
1542907673.885,-191.406,27.832,-136.719,-210.449,69.336,0
1542907673.889,-188.477,28.320,-145.996,-243.652,73.242,0
1542907673.893,-331.055,15.625,-147.949,-221.191,104.980,0
1542907673.897,-319.824,3.906,-143.555,-180.176,78.613,0
1542907673.901,-252.441,-3.906,-146.973,-136.719,-21.973,0
1542907673.905,-179.688,0.000,-155.762,-163.574,56.152,0
1542907673.909,-259.766,0.488,-157.715,-223.633,108.887,0
1542907673.912,-349.609,-11.719,-145.996,-188.477,0.488,0
1542907673.916,-235.352,-9.277,-147.461,-179.688,13.672,0
1542907673.920,-267.578,-16.113,-148.438,-153.809,57.129,0
1542907673.924,-271.973,-26.855,-144.043,-81.055,42.480,0
1542907673.928,-227.539,-21.973,-143.555,-102.051,12.695,0
1542907673.932,-229.980,-33.691,-139.648,-124.512,67.383,0
1542907673.936,-243.164,-50.293,-133.301,-88.867,95.703,0
1542907673.940,-206.055,-47.852,-133.789,-88.379,90.332,0
1542907673.944,-151.367,-46.875,-137.207,-94.727,81.055,0
1542907673.948,-208.496,-58.105,-133.301,-104.980,50.781,0
1542907673.952,-249.023,-70.312,-131.348,-94.727,80.566,0
1542907673.955,-212.402,-73.242,-130.859,-42.480,87.402,0
1542907673.959,-185.547,-76.172,-124.512,-39.062,40.039,0
1542907673.963,-203.613,-81.543,-120.605,-53.223,66.895,0
1542907673.967,-181.641,-83.496,-116.699,1.953,76.172,0
1542907673.971,-134.277,-85.449,-110.840,-11.230,7.324,0
1542907673.975,-174.805,-90.332,-106.445,-43.457,18.555,0
1542907673.979,-253.906,-90.820,-110.840,-15.137,33.691,0
1542907673.983,-187.988,-90.332,-107.910,4.395,26.855,0
1542907673.987,-172.363,-89.355,-95.215,39.551,79.102,0
1542907673.991,-198.242,-96.191,-88.867,40.039,63.965,0
1542907673.994,-189.941,-95.703,-81.543,21.484,34.668,0
1542907673.998,-194.336,-89.844,-78.125,15.625,41.992,0
1542907674.002,-163.086,-93.750,-76.660,-1.465,38.086,0
1542907674.006,-184.570,-98.145,-70.312,16.602,36.621,0
1542907674.010,-151.367,-92.285,-67.871,36.621,26.855,0
1542907674.014,-173.340,-86.914,-62.500,46.875,42.480,0
1542907674.018,-201.660,-85.449,-58.594,18.555,55.664,0
1542907674.022,-155.273,-80.566,-59.082,0.488,76.660,0
1542907674.026,-212.402,-82.520,-44.922,58.594,29.785,0
1542907674.030,-202.637,-80.078,-42.480,37.109,-64.453,0
1542907674.034,-164.551,-77.148,-47.363,8.301,-53.223,0
1542907674.037,-192.383,-78.125,-40.039,36.133,18.066,0
1542907674.041,-187.988,-69.824,-40.039,-0.488,43.457,0
1542907674.045,-146.484,-65.918,-34.180,20.508,81.543,0
1542907674.049,-131.836,-62.988,-26.855,54.688,55.176,0
1542907674.053,-92.285,-53.223,-24.414,44.922,11.719,0
1542907674.057,-109.863,-53.223,-17.578,41.992,35.156,0
1542907674.061,-149.902,-54.688,-11.230,89.355,74.219,0
1542907674.065,-95.703,-44.922,-14.160,97.656,42.969,0
1542907674.069,-92.285,-45.898,-12.207,33.691,-10.254,0
1542907674.073,-157.715,-49.316,-1.953,41.016,27.344,0
1542907674.077,-143.555,-38.086,-3.906,43.945,64.941,0
1542907674.080,-78.613,-27.832,-8.301,22.461,74.707,0
1542907674.084,-83.496,-24.414,-4.395,59.082,30.273,0
1542907674.088,-118.652,-26.367,0.977,73.730,19.531,0
1542907674.092,-120.605,-27.832,3.906,44.434,24.414,0
1542907674.096,-84.961,-24.414,2.930,46.387,13.184,0
1542907674.100,-55.664,-17.578,-1.465,56.641,19.043,0
1542907674.104,-78.613,-13.672,-1.953,42.969,27.832,0
1542907674.108,-79.102,-13.672,-1.953,18.555,-1.465,0
1542907674.112,-112.793,-17.578,5.859,53.223,23.438,0
1542907674.116,-115.723,-17.578,10.742,62.988,67.871,0
1542907674.119,-102.051,-18.555,10.742,32.715,3.906,0
1542907674.123,-101.562,-8.789,10.254,47.363,18.066,0
1542907674.127,-49.805,2.930,7.324,56.641,55.664,0
1542907674.131,-51.758,-0.488,7.812,93.262,26.855,0
1542907674.135,-30.762,1.953,6.348,77.148,6.836,0
1542907674.139,-5.371,7.324,7.324,47.852,-32.715,0
1542907674.143,-101.074,5.371,10.742,86.914,4.883,0
1542907674.147,-116.211,6.836,3.418,59.082,17.578,0
1542907674.151,-66.406,10.254,3.418,21.973,-5.371,0
1542907674.155,-73.730,11.719,11.230,74.219,12.207,0
1542907674.159,-89.844,2.930,13.184,99.121,22.949,0
1542907674.162,-62.012,2.930,9.766,34.668,71.777,0
1542907674.166,-31.738,12.695,3.906,40.527,72.754,0
1542907674.170,-34.180,11.719,4.395,79.590,26.367,0
1542907674.174,-78.613,13.184,6.836,111.816,38.574,0
1542907674.178,-24.414,20.508,0.977,76.172,52.734,0
1542907674.182,-32.715,12.695,4.883,46.387,19.043,0
1542907674.186,-155.273,3.418,12.207,83.496,-1.953,0
1542907674.190,-123.047,12.695,11.230,76.660,57.129,0
1542907674.194,-75.195,20.996,13.672,91.797,88.867,0
1542907674.198,-58.594,16.602,14.160,107.910,34.668,0
1542907674.202,-30.273,11.719,12.695,98.145,41.016,0
1542907674.205,-29.785,16.113,12.207,102.051,67.383,0
1542907674.209,-29.297,21.484,13.184,105.469,46.387,0
1542907674.213,-34.180,21.484,16.602,137.695,7.324,0
1542907674.217,-88.379,25.879,16.113,132.324,7.812,0
1542907674.221,-22.461,31.250,8.301,91.797,24.902,0
1542907674.225,58.594,32.715,8.789,127.441,-8.789,0
1542907674.229,-6.348,28.809,15.137,112.305,0.977,0
1542907674.233,-33.203,28.809,18.555,106.934,74.219,0
1542907674.237,-17.578,29.297,17.578,128.418,57.129,0
1542907674.241,-39.551,27.832,20.996,83.008,20.508,0
1542907674.244,-61.035,24.902,19.531,69.336,-23.438,0
1542907674.248,-32.227,24.414,10.742,112.793,-35.645,0
1542907674.252,2.930,28.320,9.766,119.629,43.457,0
1542907674.256,-5.371,24.414,9.766,98.145,-11.719,0
1542907674.260,72.754,31.250,6.348,86.914,-27.344,0
1542907674.264,24.902,34.668,8.301,103.516,43.945,0
1542907674.268,-103.027,25.879,13.672,121.582,79.590,0
1542907674.272,-41.504,30.762,16.602,86.914,38.086,0
1542907674.276,29.297,26.855,17.578,90.332,26.367,0
1542907674.280,13.672,20.996,18.066,101.562,50.781,0
1542907674.284,-15.625,33.203,19.531,104.004,53.711,0
1542907674.287,17.578,43.457,13.184,87.402,42.969,0
1542907674.291,5.859,40.039,5.371,45.898,39.062,0
1542907674.295,-11.719,34.180,1.953,62.012,35.156,0
1542907674.299,3.906,31.738,8.301,111.328,-2.930,0
1542907674.303,13.184,34.180,8.789,82.031,-19.043,0
1542907674.307,11.230,33.691,5.371,28.809,27.344,0
1542907674.311,20.020,25.391,9.277,77.637,95.215,0
1542907674.315,43.457,26.367,10.254,108.398,51.270,0
1542907674.319,-17.578,32.715,6.836,74.707,0.000,0
1542907674.323,0.000,27.832,3.418,23.438,-0.977,0
1542907674.327,35.645,26.367,4.883,46.387,-6.348,0
1542907674.330,-17.090,32.227,10.254,78.613,-15.625,0
1542907674.334,9.766,32.715,9.766,80.566,36.621,0
1542907674.338,13.672,31.738,6.348,84.961,77.148,0
1542907674.342,19.043,30.273,5.859,76.172,38.086,0
1542907674.346,43.945,30.762,7.812,70.312,14.648,0
1542907674.350,55.176,34.180,7.324,57.617,12.695,0
1542907674.354,65.430,34.180,7.812,55.176,6.836,0
1542907674.358,13.184,29.785,15.625,72.754,5.371,0
1542907674.362,38.086,27.832,16.113,81.055,35.156,0
1542907674.366,86.426,27.832,13.184,74.219,10.254,0
1542907674.369,-19.043,31.738,11.719,50.293,-29.785,0
1542907674.373,-20.020,36.621,17.578,47.852,28.809,0
1542907674.377,53.223,32.715,20.508,81.055,20.508,0
1542907674.381,49.316,25.879,14.648,91.797,10.254,0
1542907674.385,24.902,25.879,15.625,69.336,48.340,0
1542907674.389,33.203,29.785,8.301,55.664,21.484,0
1542907674.393,50.781,34.180,3.418,38.086,55.176,0
1542907674.397,68.848,36.133,5.371,54.688,51.758,0
1542907674.401,30.762,29.297,5.859,96.191,6.836,0
1542907674.405,-23.438,27.344,1.953,30.762,1.465,0
1542907674.409,55.664,35.645,9.277,20.508,-8.301,0
1542907674.412,46.387,26.367,15.625,72.754,12.695,0
1542907674.416,-49.316,17.578,9.766,71.289,29.297,0
1542907674.420,2.441,30.273,9.277,60.059,5.859,0
1542907674.424,18.555,35.156,10.254,18.555,3.418,0
1542907674.428,-20.020,30.273,12.695,36.133,32.715,0
1542907674.432,-25.391,28.320,17.090,60.059,46.387,0
1542907674.436,5.371,27.832,12.207,53.711,43.945,0
1542907674.440,34.180,31.738,7.812,52.734,20.996,0
1542907674.444,5.859,34.668,8.301,24.414,20.020,0
1542907674.448,-4.883,36.621,13.184,29.785,69.824,0
1542907674.452,-8.789,30.762,13.672,43.945,43.945,0
1542907674.455,-43.457,26.367,8.301,20.508,38.574,0
1542907674.459,-40.527,29.297,11.230,18.555,58.105,0
1542907674.463,-27.832,25.879,10.742,21.484,6.348,0
1542907674.467,-54.688,18.555,7.324,43.945,54.199,0
1542907674.471,-7.812,24.902,6.348,58.594,22.949,0
1542907674.475,54.199,35.156,4.883,41.016,26.367,0
1542907674.479,-22.949,36.133,6.348,40.039,52.246,0
1542907674.483,-21.973,33.691,3.906,-1.465,4.395,0
1542907674.487,-6.836,31.738,6.348,-9.277,11.230,0
1542907674.491,-48.828,30.762,9.766,33.203,-13.672,0
1542907674.494,-39.062,28.809,8.301,57.617,0.488,0
1542907674.498,-2.441,32.715,5.371,18.555,30.273,0
1542907674.502,-0.488,33.691,7.812,6.836,16.113,0
1542907674.506,-54.688,26.367,12.695,40.527,28.320,0
1542907674.510,-18.066,23.438,5.371,42.969,3.418,0
1542907674.514,2.930,29.297,-1.465,47.363,-8.789,0
1542907674.518,14.648,36.133,1.953,20.020,64.453,0
1542907674.522,15.625,30.273,10.742,5.371,90.820,0
1542907674.526,-35.645,26.367,10.254,45.410,51.758,0
1542907674.530,-12.695,27.344,5.371,35.645,72.754,0
1542907674.534,-8.301,27.832,2.930,19.043,60.059,0
1542907674.537,-62.988,28.320,4.395,15.137,-6.348,0
1542907674.541,-37.598,27.344,4.883,20.020,18.555,0
1542907674.545,46.387,33.691,2.930,28.809,77.637,0
1542907674.549,33.203,33.691,5.371,53.223,33.203,0
1542907674.553,-85.938,27.344,6.348,49.805,18.066,0
1542907674.557,-15.137,32.715,6.836,24.414,79.102,0
1542907674.561,1.953,31.250,10.254,24.902,56.641,0
1542907674.565,-81.055,30.762,9.766,7.324,14.160,0
1542907674.569,0.977,35.156,4.395,-7.812,4.395,0
1542907674.573,41.992,31.250,4.883,25.391,36.621,0
1542907674.577,-23.926,30.273,8.789,37.598,39.551,0
1542907674.580,-44.922,28.809,10.742,45.410,36.621,0
1542907674.584,-32.227,29.297,14.160,42.480,50.781,0
1542907674.588,32.715,34.180,18.066,25.391,40.527,0
1542907674.592,4.395,30.762,16.602,44.922,104.492,0
1542907674.596,-28.320,30.762,12.695,32.715,87.891,0
1542907674.600,15.137,37.598,9.277,25.391,61.035,0
1542907674.604,-17.578,35.645,11.719,48.340,40.039,0
1542907674.608,-8.301,37.109,14.648,41.016,27.344,0
1542907674.612,42.480,41.504,10.254,13.184,93.262,0
1542907674.616,30.273,41.016,8.789,-2.441,57.129,0
1542907674.619,-28.809,31.250,13.672,16.113,-9.766,0
1542907674.623,-71.289,32.227,14.648,35.645,-32.715,0
1542907674.627,9.766,41.504,14.160,23.926,66.406,0
1542907674.631,36.621,42.480,17.578,12.207,117.676,0
1542907674.635,-1.953,39.062,13.672,40.039,54.688,0
1542907674.639,-27.344,39.062,4.395,42.969,34.180,0
1542907674.643,17.578,39.551,8.789,28.320,60.547,0
1542907674.647,62.500,41.504,20.996,26.367,12.695,0
1542907674.651,20.996,41.504,29.297,-3.906,9.277,0
1542907674.655,6.348,35.156,32.227,8.789,17.090,0
1542907674.659,-21.973,24.414,35.156,22.461,15.137,0
1542907674.662,-50.293,17.578,34.668,13.672,52.734,0
1542907674.666,41.016,24.902,31.738,36.621,65.430,0
1542907674.670,-0.977,30.273,29.785,12.695,94.727,0
1542907674.674,-56.641,32.227,29.297,-21.973,68.359,0
1542907674.678,-11.230,36.133,28.809,0.488,21.484,0
1542907674.682,-11.719,35.156,29.785,35.645,39.062,0
1542907674.686,21.973,28.809,39.062,31.250,36.133,0
1542907674.690,14.648,25.391,35.156,27.344,18.066,0
1542907674.694,24.902,19.043,20.996,15.137,39.551,0
1542907674.698,0.977,11.230,19.043,-5.859,40.527,0
1542907674.702,-55.176,14.160,18.555,-6.348,-55.176,0
1542907674.705,1.465,21.484,20.020,11.230,-19.531,0
1542907674.709,-16.602,22.461,22.949,36.621,33.203,0
1542907674.713,-25.879,19.043,20.996,29.785,39.551,0
1542907674.717,15.625,20.996,20.020,16.113,55.664,0
1542907674.721,25.391,20.020,21.973,21.973,44.434,0
1542907674.725,-7.324,18.066,22.949,15.625,50.781,0
1542907674.729,-5.371,16.602,23.438,30.762,-24.414,0
1542907674.733,-18.066,21.484,18.555,44.434,16.602,0
1542907674.737,-20.020,24.414,9.766,22.949,47.363,0
1542907674.741,41.016,20.996,8.789,38.574,-6.836,0
1542907674.744,37.598,21.973,7.812,28.809,35.645,0
1542907674.748,-40.039,26.855,7.812,-1.953,37.598,0
1542907674.752,-69.824,20.508,13.184,20.020,34.668,0
1542907674.756,-23.438,16.602,9.277,21.484,37.109,0
1542907674.760,13.184,29.297,5.859,30.762,68.848,0
1542907674.764,-7.812,27.344,9.277,32.715,90.332,0
1542907674.768,43.945,25.879,8.789,62.988,34.668,0
1542907674.772,28.320,29.785,4.883,35.645,5.371,0
1542907674.776,-43.945,22.949,1.465,-25.879,-25.879,0
1542907674.780,-5.371,28.320,7.324,0.000,51.758,0
1542907674.784,-1.465,34.180,13.184,7.324,94.727,0
1542907674.787,-2.930,23.438,13.672,14.160,65.430,0
1542907674.791,-7.812,19.043,10.742,20.020,81.055,0
1542907674.795,14.160,23.926,8.301,24.414,64.941,0
1542907674.799,13.184,23.438,8.301,38.574,74.219,0
1542907674.803,6.836,26.855,8.301,24.902,53.711,0
1542907674.807,10.254,33.203,10.254,2.441,73.242,0
1542907674.811,11.719,29.785,11.230,22.461,72.754,0
1542907674.815,8.301,35.645,10.742,25.391,11.230,0
1542907674.819,26.855,40.527,12.695,33.691,31.250,0
1542907674.823,33.691,29.297,15.625,69.336,33.203,0
1542907674.827,1.953,25.391,16.602,15.625,3.418,0
1542907674.830,-24.902,27.344,12.695,-24.414,12.207,0
1542907674.834,36.133,32.227,14.648,-3.906,76.172,0
1542907674.838,68.848,34.668,18.066,28.809,50.781,0
1542907674.842,12.207,30.762,17.578,24.902,72.754,0
1542907674.846,-12.207,32.715,22.461,28.320,83.008,0
1542907674.850,-21.484,35.645,24.414,46.875,67.383,0
1542907674.854,17.578,39.062,18.066,6.348,31.250,0
1542907674.858,40.039,40.039,18.066,0.000,18.066,0
1542907674.862,-32.715,35.645,24.902,47.852,47.852,0
1542907674.866,-21.973,35.156,26.367,60.059,52.734,0
1542907674.869,20.020,37.598,23.438,27.344,78.613,0
1542907674.873,21.973,40.527,18.555,15.625,12.695,0
1542907674.877,23.926,41.504,16.602,-0.488,1.465,0
1542907674.881,20.996,41.016,18.066,1.465,60.547,0
1542907674.885,40.039,42.480,19.043,17.578,31.738,0
1542907674.889,17.578,41.016,30.273,19.531,46.875,0
1542907674.893,0.000,39.062,26.367,27.832,65.430,0
1542907674.897,17.090,39.551,19.043,28.809,-22.461,0
1542907674.901,3.906,35.645,20.996,12.695,-1.953,0
1542907674.905,49.316,35.156,17.578,-4.883,40.039,0
1542907674.909,39.551,38.574,12.695,24.902,25.879,0
1542907674.912,-12.695,34.180,10.742,50.293,69.336,0
1542907674.916,23.926,32.227,8.789,22.461,91.309,0
1542907674.920,21.484,32.715,14.648,9.277,110.352,0
1542907674.924,19.043,34.180,29.785,27.832,65.918,0
1542907674.928,11.719,38.086,31.250,41.992,-9.766,0
1542907674.932,30.762,32.715,24.414,20.996,16.113,0
1542907674.936,86.914,30.762,22.461,18.066,66.406,0
1542907674.940,47.852,32.715,25.879,28.320,35.645,0
1542907674.944,7.324,24.414,36.621,65.918,36.621,0
1542907674.948,29.785,22.949,40.527,90.332,59.570,0
1542907674.952,37.109,27.344,38.086,64.941,13.672,0
1542907674.955,86.914,33.203,34.668,72.266,33.203,0
1542907674.959,106.445,33.203,36.133,89.844,22.949,0
1542907674.963,29.785,23.926,39.551,65.430,28.809,0
1542907674.967,-6.348,25.391,34.668,55.176,34.180,0
1542907674.971,34.668,32.227,32.715,60.547,33.203,0
1542907674.975,113.281,26.855,34.180,67.871,73.242,0
1542907674.979,56.152,29.785,28.809,44.922,30.273,0
1542907674.983,-6.348,35.156,27.344,57.617,30.273,0
1542907674.987,34.668,34.668,20.996,21.973,90.332,0
1542907674.991,28.809,31.250,15.625,-10.742,73.242,0
1542907674.994,18.066,30.273,26.367,25.879,68.848,0
1542907674.998,22.461,31.250,34.668,46.875,54.688,0
1542907675.002,47.363,27.832,33.691,73.730,20.020,0
1542907675.006,78.613,31.738,28.809,70.312,46.387,0
1542907675.010,54.199,33.691,28.809,50.781,46.387,0
1542907675.014,-19.531,27.832,27.344,36.133,21.973,0
1542907675.018,-13.672,28.809,22.461,20.020,5.371,0
1542907675.022,49.805,33.203,22.461,39.551,11.230,0
1542907675.026,47.852,28.320,23.926,56.152,33.691,0
1542907675.030,-1.953,30.762,26.367,50.293,45.410,0
1542907675.034,-18.555,36.621,28.809,29.297,24.414,0
1542907675.037,-33.691,32.715,26.855,13.184,8.789,0
1542907675.041,-16.113,37.109,22.461,18.066,32.227,0
1542907675.045,1.953,37.109,23.438,43.945,11.230,0
1542907675.049,33.691,40.527,23.926,51.758,-1.953,0
1542907675.053,27.832,45.898,25.879,26.367,47.363,0
1542907675.057,2.441,42.480,27.344,-2.930,40.527,0
1542907675.061,3.906,41.992,25.879,21.973,7.812,0
1542907675.065,20.996,45.898,24.902,48.828,42.480,0
1542907675.069,29.785,42.480,26.367,33.691,40.039,0
1542907675.073,20.508,40.527,28.809,27.832,16.113,0
1542907675.077,-1.953,45.410,26.855,27.344,37.598,0
1542907675.080,-16.602,40.527,25.879,26.855,26.367,0
1542907675.084,1.465,41.504,21.973,39.062,-6.348,0
1542907675.088,41.504,47.852,20.996,45.898,0.977,0
1542907675.092,46.875,49.805,26.367,18.555,-20.996,0
1542907675.096,28.320,47.852,23.438,26.855,-16.113,0
1542907675.100,36.621,42.480,21.484,54.688,36.621,0
1542907675.104,40.039,40.039,25.391,52.734,67.871,0
1542907675.108,25.879,41.016,20.996,40.527,59.570,0
1542907675.112,-22.461,44.922,18.555,13.184,32.227,0
1542907675.116,-30.273,46.875,21.484,21.484,49.316,0
1542907675.119,2.930,45.898,21.973,41.992,35.156,0
1542907675.123,52.246,48.828,25.391,27.344,57.617,0
1542907675.127,47.363,52.734,25.879,37.109,56.152,0
1542907675.131,8.301,49.805,24.414,34.668,-16.113,0
1542907675.135,26.367,51.270,21.973,35.645,-12.207,0
1542907675.139,50.781,51.270,23.926,44.922,19.531,0
1542907675.143,38.086,48.340,25.879,28.809,72.266,0
1542907675.147,10.254,48.828,25.391,80.078,95.215,0
1542907675.151,26.367,50.781,21.973,62.988,78.125,0
1542907675.155,57.129,52.246,21.973,11.230,105.957,0
1542907675.159,34.180,50.293,25.879,30.762,75.684,0
1542907675.162,5.859,49.805,25.391,35.156,28.320,0
1542907675.166,6.836,45.898,31.250,43.457,62.988,0
1542907675.170,15.625,42.969,34.180,70.312,16.602,0
1542907675.174,29.297,50.293,29.785,66.895,12.207,0
1542907675.178,70.312,63.477,23.438,18.066,49.805,0
1542907675.182,38.574,62.500,23.926,28.320,40.527,0
1542907675.186,-7.324,51.270,30.762,52.246,60.547,0
1542907675.190,0.977,51.758,31.250,52.246,64.453,0
1542907675.194,21.484,57.129,26.855,46.387,53.223,0
1542907675.198,54.688,60.059,25.879,43.945,57.617,0
1542907675.202,24.902,56.641,33.203,32.715,49.316,0
1542907675.205,11.719,53.223,39.062,22.949,63.965,0
1542907675.209,47.852,59.082,37.109,28.809,36.133,0
1542907675.213,45.410,57.129,33.691,48.828,1.465,0
1542907675.217,6.836,61.035,31.250,57.129,15.137,0
1542907675.221,-5.371,63.965,28.320,53.223,22.461,0
1542907675.225,11.719,58.105,26.367,44.922,36.133,0
1542907675.229,22.949,57.617,26.367,29.297,54.199,0
1542907675.233,32.715,53.223,22.461,33.203,43.945,0
1542907675.237,43.945,55.176,22.949,47.852,18.555,0
1542907675.241,24.414,54.199,23.926,71.289,62.500,0
1542907675.244,13.672,56.152,25.391,59.082,70.312,0
1542907675.248,11.230,63.965,27.344,16.113,48.828,0
1542907675.252,38.574,64.941,25.391,20.508,25.391,0
1542907675.256,28.809,60.547,25.879,36.621,31.738,0
1542907675.260,7.324,57.129,29.785,72.754,73.730,0
1542907675.264,22.461,60.547,30.762,63.965,46.875,0
1542907675.268,-12.695,60.059,32.715,26.367,-8.301,0
1542907675.272,-34.180,61.523,35.645,30.273,-30.273,0
1542907675.276,3.906,66.406,29.297,28.809,6.348,0
1542907675.280,43.457,63.965,24.902,41.992,46.387,0
1542907675.284,34.180,57.617,24.902,50.781,62.012,0
1542907675.287,23.438,58.105,24.414,43.457,56.641,0
1542907675.291,50.781,62.012,27.832,48.340,66.406,0
1542907675.295,47.852,62.500,30.762,50.781,38.574,0
1542907675.299,20.508,57.129,29.297,52.734,44.922,0
1542907675.303,22.949,56.152,26.855,46.387,69.336,0
1542907675.307,12.207,58.594,26.855,50.293,48.828,0
1542907675.311,-11.230,53.711,22.949,17.578,37.598,0
1542907675.315,-37.109,46.387,24.414,28.320,37.598,0
1542907675.319,-23.438,48.340,31.738,65.918,42.480,0
1542907675.323,3.418,56.152,27.832,34.180,62.012,0
1542907675.327,-1.953,53.223,23.926,35.645,56.152,0
1542907675.330,48.340,54.688,24.902,44.434,52.734,0
1542907675.334,35.156,60.059,26.367,47.363,3.418,0
1542907675.338,-10.742,59.082,30.762,17.090,-14.648,0
1542907675.342,0.977,53.223,27.832,38.086,68.359,0
1542907675.346,6.836,56.641,25.391,60.547,37.109,0
1542907675.350,25.391,59.570,27.344,37.598,25.879,0
1542907675.354,7.324,52.246,25.391,49.316,90.820,0
1542907675.358,-3.906,54.199,23.438,36.133,77.148,0
1542907675.362,27.832,58.594,23.438,28.809,0.977,0
1542907675.366,1.465,58.594,26.367,46.387,-29.785,0
1542907675.369,-21.973,63.965,25.879,37.598,-17.578,0
1542907675.373,-11.719,69.336,29.297,30.273,-33.203,0
1542907675.377,17.578,69.824,36.621,48.828,6.348,0
1542907675.381,10.254,70.312,29.785,12.695,60.547,0
1542907675.385,-4.395,59.570,27.344,-15.625,31.738,0
1542907675.389,-5.859,57.617,36.621,19.043,19.531,0
1542907675.393,-10.742,79.590,40.039,-1.953,-5.371,0
1542907675.397,-40.039,87.891,41.504,-40.039,48.340,0
1542907675.401,-107.910,77.637,42.969,-24.414,36.133,0
1542907675.405,-127.930,87.891,40.039,-59.570,23.438,0
1542907675.409,-115.234,93.262,32.715,-106.934,50.781,0
1542907675.412,-115.723,95.215,30.273,-95.215,67.383,0
1542907675.416,-109.375,105.469,36.133,-97.168,78.125,0
1542907675.420,-96.191,106.934,33.203,-113.770,74.707,0
1542907675.424,-139.648,107.910,28.320,-145.508,51.758,0
1542907675.428,-174.805,100.098,26.855,-164.062,24.902,0
1542907675.432,-187.988,101.562,20.996,-137.207,18.066,0
1542907675.436,-173.340,102.051,29.297,-123.535,-20.508,0
1542907675.440,-103.027,89.355,38.574,-124.512,50.293,0
1542907675.444,-119.141,91.309,41.992,-117.676,73.730,0
1542907675.448,-133.789,93.750,34.668,-77.148,8.301,0
1542907675.452,-79.590,85.449,24.414,-62.012,-30.762,0
1542907675.455,-95.703,76.172,22.461,-68.848,-13.184,0
1542907675.459,-127.441,72.754,23.926,-57.617,41.992,0
1542907675.463,-53.223,74.707,29.297,-58.105,58.105,0
1542907675.467,-38.086,70.801,32.227,-3.418,75.195,0
1542907675.471,-64.941,70.312,23.926,22.949,7.324,0
1542907675.475,-39.062,70.312,16.602,-14.648,-29.785,0
1542907675.479,-31.738,63.477,15.137,-16.602,58.105,0
1542907675.483,-17.578,62.988,14.160,13.672,67.871,0
1542907675.487,23.438,58.105,14.160,51.270,-23.438,0
1542907675.491,46.875,52.734,18.555,71.777,-17.090,0
1542907675.494,21.484,50.293,18.555,77.637,38.574,0
1542907675.498,33.691,49.805,19.043,66.895,49.316,0
1542907675.502,55.664,50.293,19.531,58.594,106.934,0
1542907675.506,-3.418,51.270,20.020,58.594,66.895,0
1542907675.510,-16.602,52.246,19.043,69.336,47.363,0
1542907675.514,14.160,39.062,17.578,92.285,58.105,0
1542907675.518,5.371,33.691,15.625,88.867,13.184,0
1542907675.522,21.484,38.574,16.602,56.641,28.809,0
1542907675.526,46.387,41.016,19.043,64.453,47.852,0
1542907675.530,34.180,43.945,25.391,77.148,21.484,0
1542907675.534,52.246,43.457,30.762,75.684,18.066,0
1542907675.537,72.266,42.969,25.879,121.094,20.996,0
1542907675.541,37.109,41.992,22.461,125.488,29.785,0
1542907675.545,29.785,44.434,24.902,69.824,99.609,0
1542907675.549,59.570,48.828,24.902,57.617,65.918,0
1542907675.553,42.480,50.781,23.438,80.566,14.648,0
1542907675.557,22.461,52.734,25.391,83.984,-26.367,0
1542907675.561,26.855,51.270,27.832,102.051,-34.180,0
1542907675.565,21.973,50.781,25.391,81.543,-2.930,0
1542907675.569,60.547,52.246,29.785,87.402,18.066,0
1542907675.573,87.891,51.758,33.203,96.680,73.242,0
1542907675.577,51.758,53.711,23.926,72.266,73.730,0
1542907675.580,24.902,56.641,24.414,82.520,62.988,0
1542907675.584,37.598,57.617,27.344,112.305,55.176,0
1542907675.588,62.988,55.176,29.785,126.465,55.664,0
1542907675.592,66.895,53.223,33.691,104.980,14.160,0
1542907675.596,14.160,52.734,34.180,97.168,-1.465,0
1542907675.600,14.160,59.082,29.297,65.918,20.020,0
1542907675.604,60.059,60.059,30.762,101.074,38.574,0
1542907675.608,51.758,56.152,33.203,123.047,68.359,0
1542907675.612,33.691,57.617,31.250,89.355,25.879,0
1542907675.616,43.945,61.523,32.227,94.727,19.043,0
1542907675.619,44.434,61.523,39.062,86.426,36.621,0
1542907675.623,66.406,60.059,41.992,73.242,42.969,0
1542907675.627,79.102,59.082,36.133,97.168,46.387,0
1542907675.631,46.387,58.105,36.621,110.840,8.301,0
1542907675.635,13.184,57.129,32.715,85.938,15.137,0
1542907675.639,9.277,59.082,29.785,76.660,6.348,0
1542907675.643,47.363,60.547,34.180,82.520,0.000,0
1542907675.647,79.590,59.082,35.645,89.355,46.875,0
1542907675.651,18.555,56.641,33.203,91.309,47.852,0
1542907675.655,-3.906,59.082,35.645,80.566,17.090,0
1542907675.659,27.832,62.500,38.574,79.102,37.598,0
1542907675.662,12.207,59.082,37.598,95.215,51.270,0
1542907675.666,42.969,62.012,32.715,78.613,26.855,0
1542907675.670,54.199,66.406,31.250,74.707,33.203,0
1542907675.674,23.926,64.453,40.039,79.102,69.336,0
1542907675.678,43.457,61.035,41.016,69.336,64.453,0
1542907675.682,38.086,59.082,45.410,94.238,12.695,0
1542907675.686,34.668,61.523,44.922,88.379,39.062,0
1542907675.690,27.832,64.453,33.203,68.359,41.992,0
1542907675.694,37.109,66.895,32.227,96.191,24.902,0
1542907675.698,-4.395,70.801,29.785,56.152,32.227,0
1542907675.702,-37.109,67.871,31.738,41.992,55.664,0
1542907675.705,-6.836,67.871,35.156,65.430,38.574,0
1542907675.709,18.555,69.824,35.156,60.059,-19.043,0
1542907675.713,48.828,69.824,39.551,65.918,32.227,0
1542907675.717,38.086,64.941,42.969,74.219,53.711,0
1542907675.721,47.852,71.289,39.062,64.941,21.484,0
1542907675.725,86.426,76.660,36.621,66.895,29.297,0
1542907675.729,43.457,68.848,34.668,67.871,19.531,0
1542907675.733,-14.648,64.941,33.203,59.082,11.719,0
1542907675.737,2.930,64.453,36.133,70.801,24.902,0
1542907675.741,20.996,64.453,35.645,75.195,55.664,0
1542907675.744,14.648,64.941,33.691,101.074,82.520,0
1542907675.748,21.973,68.359,31.250,115.234,26.367,0
1542907675.752,70.312,71.777,32.227,79.102,21.484,0
1542907675.756,61.523,71.777,34.180,54.688,59.082,0
1542907675.760,34.180,64.941,32.227,53.223,45.898,0
1542907675.764,25.391,57.129,36.133,91.309,42.480,0
1542907675.768,-10.254,62.012,34.668,79.590,45.410,0
1542907675.772,-11.719,68.848,33.691,58.105,41.504,0
1542907675.776,23.926,71.777,34.668,77.637,30.273,0
1542907675.780,40.039,74.707,33.203,78.613,80.566,0
1542907675.784,37.598,73.242,38.574,81.055,55.664,0
1542907675.787,53.223,72.266,40.039,85.938,3.418,0
1542907675.791,30.273,72.266,40.527,59.082,21.484,0
1542907675.795,14.160,68.848,43.457,62.988,47.852,0
1542907675.799,38.574,71.289,41.992,70.312,45.898,0
1542907675.803,29.785,78.125,39.062,55.664,71.289,0
1542907675.807,8.789,72.754,41.504,66.406,71.777,0
1542907675.811,1.465,69.336,41.504,82.031,2.930,0
1542907675.815,20.996,74.219,40.527,61.035,-22.461,0
1542907675.819,30.273,68.359,37.109,44.434,-7.324,0
1542907675.823,-8.789,62.012,37.598,53.223,2.930,0
1542907675.827,5.371,65.430,39.551,58.105,2.930,0
1542907675.830,50.781,71.777,36.621,51.758,13.184,0
1542907675.834,35.156,72.754,35.156,48.340,28.320,0
1542907675.838,13.672,63.477,41.016,65.918,58.105,0
1542907675.842,34.668,65.918,42.969,67.871,94.238,0
1542907675.846,0.977,73.242,39.551,43.457,92.285,0
1542907675.850,-6.836,73.242,40.039,46.875,71.289,0
1542907675.854,11.719,73.242,39.551,62.500,61.035,0
1542907675.858,21.973,73.730,41.504,54.688,-4.883,0
1542907675.862,47.852,71.777,37.109,32.715,38.086,0
1542907675.866,60.059,65.918,31.250,46.387,85.938,0
1542907675.869,4.395,59.570,37.109,67.871,44.434,0
1542907675.873,-38.086,62.988,36.621,45.410,40.527,0
1542907675.877,-17.578,64.941,28.809,24.414,20.020,0
1542907675.881,-10.254,68.848,29.785,42.480,-13.672,0
1542907675.885,-21.484,70.312,33.691,49.316,13.672,0
1542907675.889,2.441,67.871,36.621,30.273,19.531,0
1542907675.893,31.250,68.359,33.203,32.715,43.945,0
1542907675.897,71.777,68.359,30.762,52.246,49.805,0
1542907675.901,47.363,75.195,37.109,44.434,47.852,0
1542907675.905,-25.391,73.242,41.992,51.270,91.797,0
1542907675.909,2.441,66.406,37.598,49.316,77.148,0
1542907675.912,21.973,69.824,36.133,34.180,6.836,0
1542907675.916,3.418,71.289,39.551,53.223,1.953,0
1542907675.920,21.484,72.266,38.574,58.594,14.160,0
1542907675.924,43.457,77.637,32.715,49.805,-35.645,0
1542907675.928,11.719,81.055,37.598,62.500,18.555,0
1542907675.932,-9.277,79.102,46.875,56.641,80.566,0
1542907675.936,5.859,77.148,44.922,34.668,72.754,0
1542907675.940,16.113,80.078,40.039,45.410,72.266,0
1542907675.944,48.828,83.496,42.969,28.320,27.832,0
1542907675.948,19.043,81.543,44.922,25.391,-9.277,0
1542907675.952,-32.227,74.707,44.922,33.203,11.230,0
1542907675.955,-22.949,72.266,42.969,30.273,2.930,0
1542907675.959,24.414,77.148,37.109,48.340,6.836,0
1542907675.963,52.246,83.008,38.086,58.105,14.648,0
1542907675.967,3.906,83.496,45.410,50.293,36.621,0
1542907675.971,-0.488,83.008,45.410,43.945,41.992,0
1542907675.975,16.113,81.543,41.504,32.715,30.273,0
1542907675.979,11.230,79.590,42.480,20.508,67.383,0
1542907675.983,8.789,81.543,46.875,52.734,20.020,0
1542907675.987,20.020,75.195,44.922,59.082,11.230,0
1542907675.991,21.484,69.824,38.574,38.086,72.754,0
1542907675.994,14.648,75.684,37.109,31.738,88.379,0
1542907675.998,30.273,78.125,36.621,46.875,42.480,0
1542907676.002,27.344,77.637,42.480,52.246,4.883,0
1542907676.006,-22.949,78.125,46.387,48.828,41.016,0
1542907676.010,2.930,78.125,48.828,64.941,73.242,0
1542907676.014,37.598,77.637,49.316,67.383,103.516,0
1542907676.018,32.715,76.660,44.434,52.734,65.430,0
1542907676.022,36.133,75.684,43.945,56.152,-1.465,0
1542907676.026,1.953,79.590,49.805,53.223,35.645,0
1542907676.030,-3.906,77.148,44.922,53.223,60.547,0
1542907676.034,54.199,64.453,38.086,67.871,27.344,0
1542907676.037,46.387,70.801,42.969,67.383,1.465,0
1542907676.041,-10.254,84.473,43.457,46.387,-4.395,0
1542907676.045,-23.438,80.078,36.621,11.719,79.102,0
1542907676.049,-18.555,74.707,37.598,-10.254,117.676,0
1542907676.053,-22.461,73.242,39.551,13.672,101.562,0
1542907676.057,-25.391,69.336,40.527,22.461,62.500,0
1542907676.061,-35.156,74.707,39.062,1.465,55.176,0
1542907676.065,-41.504,73.242,34.668,1.465,40.039,0
1542907676.069,23.438,61.035,36.133,24.414,4.395,0
1542907676.073,12.695,62.012,40.039,47.363,3.906,0
1542907676.077,-37.598,59.082,37.109,28.809,-5.371,0
1542907676.080,-16.113,58.594,29.297,6.836,10.742,0
1542907676.084,-10.254,63.477,29.297,12.207,47.363,0
1542907676.088,-17.578,62.988,29.297,6.348,75.195,0
1542907676.092,-25.879,56.152,29.297,17.090,15.137,0
1542907676.096,-3.418,53.711,31.250,34.668,-13.672,0
1542907676.100,23.926,59.082,27.832,30.273,35.156,0
1542907676.104,21.484,63.477,28.809,36.621,23.926,0
1542907676.108,2.441,64.453,35.645,29.297,3.906,0
1542907676.112,19.531,65.430,36.133,44.434,23.926,0
1542907676.116,32.227,70.801,35.156,62.988,1.465,0
1542907676.119,58.105,72.754,35.156,55.664,6.836,0
1542907676.123,50.781,67.383,39.062,53.223,22.461,0
1542907676.127,6.348,75.684,41.992,49.805,77.148,0
1542907676.131,5.371,77.148,42.969,44.434,97.168,0
1542907676.135,22.461,71.289,46.875,68.359,60.547,0
1542907676.139,27.832,74.707,51.270,82.520,23.926,0
1542907676.143,16.602,76.660,53.711,58.594,45.898,0
1542907676.147,14.160,81.543,50.781,56.641,51.270,0
1542907676.151,12.207,79.590,47.363,66.406,41.992,0
1542907676.155,18.066,73.730,52.734,65.918,32.715,0
1542907676.159,28.320,76.172,48.828,60.059,65.430,0
1542907676.162,27.832,82.520,41.016,58.594,86.426,0
1542907676.166,24.414,79.102,42.969,67.871,45.410,0
1542907676.170,24.902,70.801,49.316,66.406,60.059,0
1542907676.174,40.039,73.730,48.340,63.965,67.383,0
1542907676.178,47.363,78.125,46.875,70.312,54.688,0
1542907676.182,31.738,77.637,46.875,41.504,68.848,0
1542907676.186,8.789,79.102,49.805,49.316,72.266,0
1542907676.190,13.184,80.566,49.805,68.848,8.301,0
1542907676.194,6.836,78.613,47.363,65.918,-47.852,0
1542907676.198,13.672,74.707,54.199,78.613,-43.457,0
1542907676.202,35.156,79.102,53.711,68.848,33.203,0
1542907676.205,16.113,79.102,50.293,67.871,73.242,0
1542907676.209,5.371,75.195,48.828,64.941,37.598,0
1542907676.213,-0.977,74.219,51.758,66.895,-10.742,0
1542907676.217,-3.418,74.707,47.363,53.223,40.039,0
1542907676.221,12.207,77.148,42.480,49.316,72.266,0
1542907676.225,31.250,78.613,45.898,60.547,74.219,0
1542907676.229,24.902,72.754,45.898,62.500,81.055,0
1542907676.233,1.953,71.289,45.898,60.547,57.617,0
1542907676.237,6.836,76.660,48.828,49.316,49.316,0
1542907676.241,14.160,77.148,49.805,52.246,47.852,0
1542907676.244,2.441,80.566,48.828,49.316,-6.348,0
1542907676.248,27.344,81.055,52.734,42.969,0.000,0
1542907676.252,40.527,81.543,52.246,50.293,29.297,0
1542907676.256,25.391,82.520,47.852,51.270,6.348,0
1542907676.260,3.906,78.613,49.316,58.105,50.781,0
1542907676.264,-10.254,82.520,49.805,48.340,74.707,0
1542907676.268,8.789,83.984,50.781,37.109,25.879,0
1542907676.272,0.488,75.684,50.293,41.504,-26.367,0
1542907676.276,1.465,77.637,45.410,52.246,-6.348,0
1542907676.280,15.137,78.613,48.340,54.199,46.875,0
1542907676.284,31.250,81.055,53.711,48.340,20.996,0
1542907676.287,32.227,86.426,48.340,56.641,-48.828,0
1542907676.291,16.602,83.984,48.340,63.965,4.883,0
1542907676.295,15.625,79.590,53.711,47.852,56.641,0
1542907676.299,11.719,75.684,52.246,52.734,1.953,0
1542907676.303,9.766,80.078,53.711,58.105,-40.039,0
1542907676.307,10.254,81.543,48.828,54.199,3.418,0
1542907676.311,5.371,73.242,40.039,63.477,37.109,0
1542907676.315,22.461,72.754,41.016,75.684,48.340,0
1542907676.319,44.922,73.242,46.387,69.336,27.832,0
1542907676.323,11.719,75.684,46.875,57.617,38.086,0
1542907676.327,-18.555,80.078,46.387,30.273,33.203,0
1542907676.330,-1.465,76.660,50.781,14.648,17.090,0
1542907676.334,-13.672,73.242,52.246,28.320,49.316,0
1542907676.338,-26.367,75.684,53.711,46.387,-0.977,0
1542907676.342,-20.508,77.637,55.664,37.109,-35.645,0
1542907676.346,-2.441,76.660,46.875,29.785,68.359,0
1542907676.350,30.762,79.590,44.434,51.270,95.215,0
1542907676.354,33.691,79.590,56.641,57.617,46.875,0
1542907676.358,-22.461,77.637,66.406,57.617,35.156,0
1542907676.362,-21.484,82.520,68.848,64.453,-9.277,0
1542907676.366,16.602,81.543,66.895,72.266,-23.438,0
1542907676.369,24.902,74.219,66.895,89.355,10.742,0
1542907676.373,19.043,71.777,66.895,82.520,50.293,0
1542907676.377,17.090,73.730,68.848,81.055,76.172,0
1542907676.381,37.598,72.754,76.660,111.816,80.566,0
1542907676.385,40.039,70.312,75.195,104.980,61.035,0
1542907676.389,59.082,70.312,71.777,104.004,8.789,0
1542907676.393,88.379,72.754,75.195,98.145,14.160,0
1542907676.397,24.902,67.871,82.031,92.285,44.434,0
1542907676.401,-0.977,64.453,84.473,106.934,39.551,0
1542907676.405,34.668,66.406,85.449,124.023,61.035,0
1542907676.409,27.344,66.406,87.891,121.094,81.543,0
1542907676.412,33.203,70.801,85.449,109.375,49.805,0
1542907676.416,44.922,74.219,84.473,100.098,19.043,0
1542907676.420,51.758,75.195,81.055,78.125,-10.742,0
1542907676.424,29.297,78.125,73.242,84.961,28.320,0
1542907676.428,26.367,77.637,71.777,84.961,40.039,0
1542907676.432,64.941,73.242,75.195,88.379,47.852,0
1542907676.436,42.480,72.754,79.102,104.004,47.852,0
1542907676.440,19.531,80.078,72.266,83.984,44.434,0
1542907676.444,19.043,81.543,70.312,95.215,77.637,0
1542907676.448,6.348,75.684,74.219,108.398,70.801,0
1542907676.452,0.000,76.660,69.336,75.195,60.059,0
1542907676.455,28.320,78.613,70.801,82.520,64.941,0
1542907676.459,44.922,85.449,70.312,89.844,56.152,0
1542907676.463,32.227,83.008,61.523,54.199,62.500,0
1542907676.467,21.484,78.613,61.035,62.500,67.871,0
1542907676.471,29.297,79.102,59.570,93.262,23.438,0
1542907676.475,19.531,78.125,59.082,82.031,12.695,0
1542907676.479,14.648,76.172,62.012,84.473,37.109,0
1542907676.483,33.691,74.219,57.129,91.309,71.289,0
1542907676.487,38.574,75.195,56.641,63.477,57.617,0
1542907676.491,51.270,76.660,57.129,62.012,-11.230,0
1542907676.494,37.598,83.008,57.129,70.801,-18.066,0
1542907676.498,35.156,85.449,60.547,76.660,16.602,0
1542907676.502,55.176,84.961,65.430,95.215,61.523,0
1542907676.506,25.879,86.426,62.012,82.520,63.477,0
1542907676.510,38.086,81.543,55.176,78.613,49.805,0
1542907676.514,57.129,76.172,58.105,84.961,69.336,0
1542907676.518,9.766,77.148,56.641,72.266,35.645,0
1542907676.522,1.953,78.613,54.688,70.312,-3.418,0
1542907676.526,28.809,77.148,58.594,74.219,42.480,0
1542907676.530,42.480,83.008,54.199,85.449,84.473,0
1542907676.534,33.691,84.961,53.711,86.426,1.465,0
1542907676.537,45.410,83.984,59.570,70.312,-6.348,0
1542907676.541,37.109,79.590,57.129,74.707,108.398,0
1542907676.545,39.551,79.590,52.246,67.871,49.805,0
1542907676.549,21.973,77.637,58.105,70.312,10.254,0
1542907676.553,-28.320,75.684,56.641,63.965,64.453,0
1542907676.557,31.250,79.590,55.176,50.781,3.906,0
1542907676.561,75.684,80.566,57.129,60.547,16.113,0
1542907676.565,6.836,81.543,58.105,62.012,73.242,0
1542907676.569,-19.043,76.660,60.059,52.734,23.926,0
1542907676.573,12.207,79.102,52.246,60.059,-4.395,0
1542907676.577,23.926,78.613,52.734,68.848,27.344,0
1542907676.580,16.602,71.289,56.641,78.125,30.762,0
1542907676.584,35.156,71.777,55.664,82.520,10.254,0
1542907676.588,62.500,73.242,57.617,71.777,6.348,0
1542907676.592,55.664,83.984,59.082,62.500,36.133,0
1542907676.596,29.297,91.797,61.523,57.129,100.098,0
1542907676.600,25.391,77.637,58.105,60.547,111.816,0
1542907676.604,46.875,74.707,53.223,73.242,35.156,0
1542907676.608,32.227,76.660,62.500,66.406,1.465,0
1542907676.612,9.766,77.148,62.500,47.363,39.551,0
1542907676.616,15.137,75.195,64.453,80.078,38.086,0
1542907676.619,24.414,75.684,65.918,88.379,44.434,0
1542907676.623,43.457,77.637,62.500,53.711,33.691,0
1542907676.627,48.340,82.031,61.035,51.758,-3.418,0
1542907676.631,33.691,83.008,57.617,59.082,46.387,0
1542907676.635,31.250,78.125,57.129,66.895,36.621,0
1542907676.639,43.945,80.078,58.105,73.242,8.301,0
1542907676.643,54.688,83.496,62.988,72.754,49.805,0
1542907676.647,47.363,74.707,62.988,103.027,57.129,0
1542907676.651,17.578,79.590,61.523,104.004,-18.555,0
1542907676.655,1.953,81.543,58.105,61.035,-2.441,0
1542907676.659,54.199,76.660,51.270,56.641,69.336,0
1542907676.662,73.242,69.336,52.246,64.453,54.199,0
1542907676.666,50.293,64.453,59.570,86.426,11.719,0
1542907676.670,52.734,81.055,58.105,68.359,35.645,0
1542907676.674,10.254,89.355,50.293,21.973,62.500,0
1542907676.678,-20.996,87.891,43.945,15.625,64.941,0
1542907676.682,1.465,84.961,41.992,27.832,28.809,0
1542907676.686,19.531,96.191,41.992,19.531,-42.480,0
1542907676.690,-5.371,99.121,41.016,14.160,-8.789,0
1542907676.694,-11.230,96.191,36.133,3.418,27.832,0
1542907676.698,-33.203,95.703,26.855,1.465,18.066,0
1542907676.702,9.277,90.332,23.926,0.977,17.578,0
1542907676.705,18.066,90.820,26.367,-1.465,-9.277,0
1542907676.709,-48.828,85.938,30.273,11.230,27.832,0
1542907676.713,-35.645,79.590,29.297,-3.906,58.105,0
1542907676.717,-19.043,86.426,28.809,-7.812,81.543,0
1542907676.721,2.441,86.914,32.227,7.324,111.328,0
1542907676.725,25.879,79.102,37.109,32.227,41.992,0
1542907676.729,33.691,83.984,37.109,47.363,4.395,0
1542907676.733,58.594,83.008,34.180,40.039,47.852,0
1542907676.737,46.387,78.613,32.227,52.734,33.203,0
1542907676.741,22.461,81.543,36.133,52.246,9.766,0
1542907676.744,39.062,84.473,38.086,39.551,0.000,0
1542907676.748,19.043,80.566,38.574,34.180,-3.906,0
1542907676.752,15.137,80.078,39.062,26.855,-11.230,0
1542907676.756,19.531,79.590,39.062,22.461,11.719,0
1542907676.760,25.879,82.520,39.062,28.809,53.223,0
1542907676.764,54.199,89.355,41.504,29.297,28.809,0
1542907676.768,38.574,85.449,50.293,53.711,-31.250,0
1542907676.772,19.043,83.008,49.316,61.035,-11.719,0
1542907676.776,29.297,81.055,48.828,44.922,6.348,0
1542907676.780,32.715,82.031,53.223,61.523,40.527,0
1542907676.784,18.555,83.008,55.664,57.129,106.934,0
1542907676.787,21.973,81.543,53.223,51.270,37.109,0
1542907676.791,47.852,75.195,55.664,79.102,-9.766,0
1542907676.795,56.641,78.613,56.152,64.453,75.195,0
1542907676.799,22.949,86.426,48.340,36.621,53.223,0
1542907676.803,14.160,78.125,49.805,41.504,-7.812,0
1542907676.807,19.043,82.520,55.176,47.363,35.156,0
1542907676.811,16.602,85.449,54.688,60.059,49.805,0
1542907676.815,30.273,78.125,48.828,69.824,26.367,0
1542907676.819,52.246,75.195,48.340,72.266,20.508,0
1542907676.823,72.266,77.148,51.270,67.383,63.965,0
1542907676.827,60.059,78.125,52.246,52.734,32.715,0
1542907676.830,54.199,81.055,57.129,38.086,18.066,0
1542907676.834,20.996,79.590,57.617,55.176,76.660,0
1542907676.838,-29.785,64.941,53.711,44.922,0.977,0
1542907676.842,-13.184,66.895,48.340,48.828,24.414,0
1542907676.846,8.789,71.777,42.969,60.059,46.875,0
1542907676.850,30.273,69.824,43.945,37.109,-5.371,0
1542907676.854,31.250,67.383,44.434,58.105,-20.508,0
1542907676.858,1.465,71.289,50.781,52.246,-20.996,0
1542907676.862,5.859,66.406,50.781,64.453,-27.832,0
1542907676.866,63.965,60.059,41.016,96.680,1.465,0
1542907676.869,47.363,64.453,44.922,53.223,50.293,0
1542907676.873,-17.578,72.266,43.945,23.926,27.832,0
1542907676.877,-26.855,75.195,37.598,29.297,75.684,0
1542907676.881,-19.043,72.266,38.574,2.930,142.090,0
1542907676.885,-2.441,72.266,37.109,-9.277,101.562,0
1542907676.889,11.719,70.312,39.062,21.484,60.059,0
1542907676.893,12.695,65.430,42.969,39.551,56.641,0
1542907676.897,29.297,65.918,42.969,36.621,86.914,0
1542907676.901,38.086,66.895,44.434,34.180,38.574,0
1542907676.905,57.129,69.824,43.457,38.574,7.812,0
1542907676.909,47.852,68.848,39.551,57.129,74.707,0
1542907676.912,20.996,62.988,40.039,48.340,49.805,0
1542907676.916,-14.160,62.988,42.480,41.992,34.180,0
1542907676.920,19.531,62.012,44.434,40.039,34.180,0
1542907676.924,29.297,65.430,45.898,47.852,-8.789,0
1542907676.928,-7.324,65.430,42.480,27.344,22.461,0
1542907676.932,-9.766,66.895,42.969,15.137,44.922,0
1542907676.936,4.395,68.359,48.340,17.090,9.766,0
1542907676.940,10.742,63.477,42.480,15.625,10.742,0
1542907676.944,-3.906,62.012,41.504,34.668,42.969,0
1542907676.948,7.324,61.523,43.457,33.691,33.203,0
1542907676.952,19.043,64.453,41.504,30.273,-6.836,0
1542907676.955,14.160,66.895,36.621,28.809,45.898,0
1542907676.959,34.180,70.312,39.551,39.062,70.801,0
1542907676.963,65.430,72.754,43.945,40.039,34.180,0
1542907676.967,24.902,74.219,46.387,29.785,4.395,0
1542907676.971,11.230,74.707,49.805,27.832,-15.137,0
1542907676.975,38.574,74.707,40.527,37.598,5.371,0
1542907676.979,29.297,69.824,41.992,44.434,23.438,0
1542907676.983,-4.395,64.941,51.758,22.949,28.809,0
1542907676.987,-2.441,67.383,47.363,18.066,58.105,0
1542907676.991,1.465,73.242,46.387,35.156,54.688,0
1542907676.994,6.348,71.777,46.387,30.762,29.297,0
1542907676.998,36.621,70.801,44.922,50.293,45.898,0
1542907677.002,42.480,75.195,53.223,101.074,70.801,0
1542907677.006,23.438,76.660,53.711,44.922,16.113,0
1542907677.010,15.625,80.566,47.852,6.836,7.812,0
1542907677.014,20.996,77.637,51.270,39.062,65.918,0
1542907677.018,14.648,73.730,48.340,40.527,13.672,0
1542907677.022,7.324,71.777,46.387,41.504,48.828,0
1542907677.026,54.199,73.242,54.199,37.598,75.684,0
1542907677.030,57.617,74.707,54.688,41.016,3.906,0
1542907677.034,14.160,70.312,50.781,51.270,18.066,0
1542907677.037,13.184,71.777,53.223,49.316,64.453,0
1542907677.041,38.086,77.637,53.711,57.129,31.250,0
1542907677.045,35.156,77.148,56.152,65.430,38.574,0
1542907677.049,20.020,71.289,56.152,41.992,17.578,0
1542907677.053,15.625,69.336,50.293,34.180,-47.363,0
1542907677.057,1.465,66.895,49.805,33.203,2.441,0
1542907677.061,24.902,70.801,54.688,36.133,51.758,0
1542907677.065,57.129,78.613,51.270,57.129,45.410,0
1542907677.069,42.969,79.102,49.805,67.871,6.348,0
1542907677.073,13.672,72.754,55.176,36.133,30.762,0
1542907677.077,27.344,67.871,57.617,62.012,53.711,0
1542907677.080,17.578,72.754,54.199,68.848,1.465,0
1542907677.084,4.883,72.266,50.781,20.020,-43.457,0
1542907677.088,28.320,71.289,49.316,21.484,18.066,0
1542907677.092,36.133,70.312,50.781,40.039,47.363,0
1542907677.096,42.480,69.336,50.293,40.039,39.062,0
1542907677.100,23.926,79.102,52.246,14.160,43.457,0
1542907677.104,-2.441,78.125,58.594,36.133,42.969,0
1542907677.108,14.160,73.242,59.570,63.965,44.922,0
1542907677.112,38.574,76.172,56.152,57.129,17.090,0
1542907677.116,36.133,70.801,61.523,62.500,0.000,0
1542907677.119,14.160,61.035,64.941,56.641,-30.762,0
1542907677.123,41.016,63.965,64.453,71.289,6.836,0
1542907677.127,56.152,64.453,66.895,83.496,85.938,0
1542907677.131,59.570,65.430,66.895,65.430,74.707,0
1542907677.135,55.664,62.988,69.336,65.430,48.340,0
1542907677.139,52.734,60.059,72.266,69.824,51.270,0
1542907677.143,67.871,56.152,76.172,66.406,39.551,0
1542907677.147,41.992,56.152,75.684,74.707,15.137,0
1542907677.151,41.504,58.105,74.707,91.797,7.324,0
1542907677.155,49.316,58.105,73.730,88.867,-15.137,0
1542907677.159,30.273,62.012,66.406,76.660,9.766,0
1542907677.162,24.414,65.430,62.500,62.500,15.137,0
1542907677.166,21.973,66.895,62.012,54.688,8.789,0
1542907677.170,11.230,69.336,56.641,50.293,41.504,0
1542907677.174,36.133,70.312,56.152,54.199,39.062,0
1542907677.178,62.500,65.918,61.523,75.195,9.277,0
1542907677.182,42.480,63.965,57.617,71.289,36.621,0
1542907677.186,31.738,63.965,59.082,60.059,50.781,0
1542907677.190,31.738,61.035,64.453,65.918,-18.066,0
1542907677.194,45.898,65.918,55.664,55.176,-9.277,0
1542907677.198,37.109,73.242,55.176,51.758,3.906,0
1542907677.202,47.363,70.801,51.758,55.176,2.930,0
1542907677.205,44.922,59.082,42.480,62.012,75.684,0
1542907677.209,14.648,61.035,44.922,62.500,70.312,0
1542907677.213,34.180,64.453,42.969,59.082,68.848,0
1542907677.217,53.711,63.477,38.574,88.379,91.797,0
1542907677.221,48.828,66.895,43.457,75.684,53.223,0
1542907677.225,49.316,67.871,44.922,34.668,39.551,0
1542907677.229,36.133,67.383,39.062,52.246,-11.230,0
1542907677.233,55.176,72.754,40.039,77.637,7.324,0
1542907677.237,62.988,73.242,43.945,67.383,38.574,0
1542907677.241,56.152,70.312,45.898,62.500,30.762,0
1542907677.244,72.266,70.801,44.434,52.734,44.922,0
1542907677.248,46.875,74.219,45.410,45.410,20.508,0
1542907677.252,26.367,74.707,47.363,58.105,0.488,0
1542907677.256,29.297,68.359,51.270,67.871,55.664,0
1542907677.260,24.414,67.383,56.152,69.824,79.590,0
1542907677.264,48.828,70.801,56.152,67.383,67.871,0
1542907677.268,63.477,73.730,55.176,76.660,41.016,0
1542907677.272,53.223,74.707,44.922,66.406,55.176,0
1542907677.276,40.039,74.707,42.969,53.711,86.426,0
1542907677.280,17.578,70.312,49.316,52.734,62.012,0
1542907677.284,26.855,68.848,52.734,60.059,54.688,0
1542907677.287,49.805,73.730,46.387,68.848,35.645,0
1542907677.291,45.898,72.266,44.922,79.590,21.484,0
1542907677.295,26.855,72.754,60.059,57.617,12.207,0
1542907677.299,30.273,70.312,66.895,50.781,17.578,0
1542907677.303,24.414,57.617,70.312,71.289,30.273,0
1542907677.307,32.227,56.641,68.848,67.871,36.621,0
1542907677.311,57.617,57.617,65.918,87.402,61.523,0
1542907677.315,46.875,55.176,67.871,84.473,54.688,0
1542907677.319,31.738,58.594,66.406,62.500,9.277,0
1542907677.323,50.781,61.523,60.059,60.059,73.730,0
1542907677.327,66.895,62.988,59.082,56.152,84.473,0
1542907677.330,42.480,64.941,62.012,76.660,48.828,0
1542907677.334,34.180,63.477,59.570,68.848,71.777,0
1542907677.338,35.645,63.477,59.082,60.059,12.207,0
1542907677.342,41.016,63.477,62.500,77.637,24.414,0
1542907677.346,54.688,61.523,60.059,67.383,79.102,0
1542907677.350,32.715,62.988,55.664,54.199,69.824,0
1542907677.354,15.137,60.547,52.734,55.664,92.285,0
1542907677.358,38.086,60.547,55.176,50.781,78.613,0
1542907677.362,86.426,68.359,59.082,58.105,56.641,0
1542907677.366,70.312,70.312,59.570,51.758,36.621,0
1542907677.369,7.812,70.801,59.570,51.758,-15.625,0
1542907677.373,15.625,70.801,57.617,68.359,-11.719,0
1542907677.377,13.184,66.895,55.176,56.641,50.781,0
1542907677.381,14.160,65.918,51.270,53.711,34.668,0
1542907677.385,24.902,68.359,49.316,45.410,41.992,0
1542907677.389,29.785,70.312,54.688,41.016,36.621,0
1542907677.393,49.316,69.336,55.176,35.156,-38.574,0
1542907677.397,25.391,69.824,48.828,47.363,13.184,0
1542907677.401,15.137,72.754,49.316,62.012,86.914,0
1542907677.405,52.734,70.801,50.293,45.410,73.730,0
1542907677.409,72.754,71.289,54.199,51.758,-4.395,0
1542907677.412,35.156,76.172,55.176,51.758,-7.324,0
1542907677.416,5.371,70.312,55.176,60.059,35.645,0
1542907677.420,13.184,65.918,56.152,84.473,32.227,0
1542907677.424,31.738,67.871,51.758,30.762,44.922,0
1542907677.428,38.086,67.383,54.199,16.602,41.992,0
1542907677.432,12.207,66.406,56.152,53.711,22.949,0
1542907677.436,12.207,66.895,51.270,54.688,14.160,0
1542907677.440,50.293,68.848,51.270,44.922,15.625,0
1542907677.444,59.570,72.754,56.152,41.504,12.207,0
1542907677.448,7.324,71.777,61.035,56.152,0.000,0
1542907677.452,0.000,69.824,59.082,65.430,16.602,0
1542907677.455,23.438,71.777,55.176,44.922,18.555,0
1542907677.459,26.855,67.871,53.711,52.246,-5.859,0
1542907677.463,25.879,64.453,50.293,57.617,4.395,0
1542907677.467,26.367,65.430,50.293,46.387,17.090,0
1542907677.471,17.578,64.453,48.340,36.133,101.074,0
1542907677.475,7.812,65.918,48.340,41.504,66.895,0
1542907677.479,14.648,71.777,46.875,40.039,8.789,0
1542907677.483,16.113,75.195,47.363,26.367,66.406,0
1542907677.487,20.508,72.266,53.223,32.715,84.473,0
1542907677.491,37.598,68.848,55.664,33.691,76.660,0
1542907677.494,43.945,69.336,55.664,22.949,60.547,0
1542907677.498,38.086,70.801,53.711,35.156,61.035,0
1542907677.502,16.602,72.266,53.711,41.504,76.172,0
1542907677.506,11.719,70.801,55.176,38.574,80.566,0
1542907677.510,30.273,72.754,55.176,47.852,92.285,0
1542907677.514,36.621,74.707,53.711,50.293,44.434,0
1542907677.518,12.207,68.359,49.316,45.410,39.551,0
1542907677.522,0.488,62.500,51.758,48.340,58.105,0
1542907677.526,-1.953,60.059,60.059,34.180,17.090,0
1542907677.530,27.832,61.035,61.523,33.691,45.410,0
1542907677.534,53.223,61.523,62.012,58.594,75.684,0
1542907677.537,30.762,63.477,56.641,51.270,109.863,0
1542907677.541,24.414,60.059,58.105,41.504,128.906,0
1542907677.545,12.695,56.641,60.059,48.828,93.750,0
1542907677.549,-6.836,61.035,59.082,48.828,13.672,0
1542907677.553,13.672,63.965,61.035,48.340,-3.906,0
1542907677.557,16.602,62.988,58.105,48.340,77.148,0
1542907677.561,14.160,66.406,61.035,44.434,35.156,0
1542907677.565,27.344,65.430,59.082,48.828,-7.812,0
1542907677.569,58.105,57.129,52.734,55.664,35.156,0
1542907677.573,45.898,55.664,54.199,51.758,29.297,0
1542907677.577,10.742,59.082,52.734,49.805,57.617,0
1542907677.580,18.066,65.430,53.223,66.406,109.375,0
1542907677.584,41.504,61.035,54.199,63.477,79.102,0
1542907677.588,63.477,57.129,56.152,56.641,10.742,0
1542907677.592,62.500,69.336,62.012,72.266,-4.883,0
1542907677.596,54.688,72.266,61.523,59.082,26.855,0
1542907677.600,49.805,65.430,53.711,39.551,40.527,0
1542907677.604,65.918,69.336,51.270,61.035,-20.996,0
1542907677.608,58.105,70.312,54.199,86.426,-28.809,0
1542907677.612,15.137,61.035,56.152,61.035,-17.090,0
1542907677.616,3.906,59.082,56.641,24.414,-26.855,0
1542907677.619,25.391,62.500,55.176,28.809,63.965,0
1542907677.623,35.156,64.453,56.152,49.805,35.645,0
1542907677.627,24.414,67.383,52.734,41.504,5.371,0
1542907677.631,46.387,61.523,51.270,41.016,99.121,0
1542907677.635,51.270,60.059,54.199,49.316,102.539,0
1542907677.639,17.578,60.547,56.152,43.945,46.387,0
1542907677.643,22.461,61.523,57.129,41.504,69.336,0
1542907677.647,24.902,62.500,55.664,38.574,51.270,0
1542907677.651,35.645,65.430,52.734,30.762,10.742,0
1542907677.655,57.129,69.336,54.688,46.387,-39.551,0
1542907677.659,28.809,69.336,53.711,48.828,9.766,0
1542907677.662,17.090,69.824,58.594,39.062,66.406,0
1542907677.666,50.781,68.848,67.383,49.805,41.992,0
1542907677.670,48.340,69.824,65.430,51.270,-26.367,0
1542907677.674,41.992,71.777,60.547,55.664,-25.879,0
1542907677.678,28.320,71.777,60.059,45.898,36.621,0
1542907677.682,17.578,69.824,58.594,37.598,26.367,0
1542907677.686,42.480,68.848,57.129,51.758,20.508,0
1542907677.690,35.645,71.289,57.617,47.363,23.926,0
1542907677.694,33.203,65.918,55.664,60.547,23.926,0
1542907677.698,39.062,58.594,56.641,65.430,46.387,0
1542907677.702,28.809,69.824,63.477,38.086,42.480,0
1542907677.705,20.508,73.242,59.570,40.527,-8.301,0
1542907677.709,-0.977,61.035,50.293,33.203,3.418,0
1542907677.713,19.531,56.152,52.734,40.039,21.484,0
1542907677.717,41.504,53.711,57.129,68.848,23.926,0
1542907677.721,41.504,68.848,51.270,63.965,10.254,0
1542907677.725,39.551,88.867,46.875,36.133,41.504,0
1542907677.729,34.180,85.938,47.852,38.574,92.773,0
1542907677.733,35.645,86.426,43.457,33.691,61.523,0
1542907677.737,31.250,93.262,43.945,24.902,4.883,0
1542907677.741,29.785,95.703,39.551,38.574,17.578,0
1542907677.744,40.039,103.027,30.273,30.273,53.223,0
1542907677.748,31.738,104.980,26.367,21.973,50.293,0
1542907677.752,26.367,100.098,27.344,30.762,32.227,0
1542907677.756,38.086,95.215,30.273,34.180,34.668,0
1542907677.760,31.738,87.891,34.668,30.273,26.367,0
1542907677.764,21.484,81.055,37.598,14.160,20.020,0
1542907677.768,33.203,79.590,37.598,21.484,62.012,0
1542907677.772,43.945,82.031,39.551,49.805,54.688,0
1542907677.776,27.344,84.961,38.086,49.805,32.227,0
1542907677.780,25.391,81.543,38.086,23.438,36.621,0
1542907677.784,29.785,79.102,42.969,45.898,4.883,0
1542907677.787,31.250,80.078,42.969,62.012,-11.230,0
1542907677.791,33.203,82.031,42.969,12.695,51.270,0
1542907677.795,26.855,82.520,43.945,14.160,53.223,0
1542907677.799,17.090,81.543,41.992,36.133,17.090,0
1542907677.803,27.344,79.590,36.133,35.645,12.695,0
1542907677.807,40.039,78.125,36.133,40.039,19.531,0
1542907677.811,29.785,79.590,43.457,38.086,12.695,0
1542907677.815,44.922,82.031,49.316,37.598,46.875,0
1542907677.819,30.273,75.684,48.340,44.922,41.504,0
1542907677.823,-2.441,73.242,47.852,40.039,-1.953,0
1542907677.827,2.441,73.242,48.828,23.926,8.789,0
1542907677.830,2.930,66.406,42.969,25.879,47.852,0
1542907677.834,16.602,63.965,40.527,38.574,47.363,0
1542907677.838,30.273,70.801,41.504,34.180,66.895,0
1542907677.842,60.059,75.684,44.434,47.852,64.941,0
1542907677.846,83.008,73.242,46.875,62.012,47.852,0
1542907677.850,39.062,68.848,49.316,53.223,55.176,0
1542907677.854,13.672,74.219,57.617,38.086,35.645,0
1542907677.858,-1.953,71.777,53.223,29.297,61.523,0
1542907677.862,21.973,64.453,43.457,43.457,60.059,0
1542907677.866,44.434,66.406,46.387,45.898,31.250,0
1542907677.869,19.043,67.871,47.363,51.270,43.945,0
1542907677.873,23.438,72.266,43.945,45.410,48.340,0
1542907677.877,30.273,73.730,46.875,37.109,17.578,0
1542907677.881,44.434,75.684,49.805,50.293,38.574,0
1542907677.885,45.898,78.613,48.828,43.945,65.918,0
1542907677.889,24.414,74.219,50.293,36.621,45.410,0
1542907677.893,40.039,69.824,52.734,51.270,53.223,0
1542907677.897,58.105,71.289,52.734,67.383,22.949,0
1542907677.901,30.762,69.824,51.270,45.898,20.020,0
1542907677.905,39.551,73.730,55.176,44.922,22.461,0
1542907677.909,45.898,76.660,58.105,54.688,-27.344,0
1542907677.912,35.156,74.219,55.664,40.527,40.527,0
1542907677.916,23.926,75.195,53.223,34.180,114.746,0
1542907677.920,-3.906,70.801,49.805,24.414,29.785,0
1542907677.924,-1.953,64.453,48.340,18.555,20.020,0
1542907677.928,28.320,68.359,50.781,21.973,105.957,0
1542907677.932,39.062,70.801,50.781,62.500,61.523,0
1542907677.936,23.438,72.754,48.340,59.082,16.113,0
1542907677.940,41.016,72.754,48.340,31.250,20.020,0
1542907677.944,55.664,67.871,47.852,49.805,48.828,0
1542907677.948,32.715,64.941,44.922,58.594,35.156,0
1542907677.952,28.320,66.406,47.363,49.316,64.453,0
1542907677.955,8.789,69.336,50.781,34.668,84.473,0
1542907677.959,-5.859,69.336,53.711,11.719,29.785,0
1542907677.963,22.949,68.848,59.570,30.273,-5.859,0
1542907677.967,38.574,73.242,59.082,40.527,35.156,0
1542907677.971,13.184,67.871,57.129,32.227,83.984,0
1542907677.975,10.742,60.547,49.316,43.945,10.742,0
1542907677.979,20.996,64.453,41.016,42.969,9.277,0
1542907677.983,26.367,71.777,41.992,37.109,72.754,0
1542907677.987,66.406,72.754,48.340,32.715,47.363,0
1542907677.991,59.082,67.871,48.340,50.781,17.578,0
1542907677.994,5.371,63.477,48.828,53.223,7.324,0
1542907677.998,23.438,66.406,54.688,47.363,15.137,0
1542907678.002,53.223,67.871,51.758,48.340,28.320,0
1542907678.006,16.113,69.336,48.340,11.719,72.754,0
1542907678.010,-15.625,68.359,48.828,13.184,63.477,0
1542907678.014,2.930,70.801,50.781,35.156,41.504,0
1542907678.018,8.789,75.195,57.617,26.855,43.457,0
1542907678.022,-3.906,71.777,53.711,14.160,21.973,0
1542907678.026,14.160,76.172,53.711,20.508,20.508,0
1542907678.030,11.230,75.684,55.176,7.812,21.484,0
1542907678.034,18.555,81.055,53.711,0.977,36.133,0
1542907678.037,4.883,82.031,54.199,3.906,48.340,0
1542907678.041,-20.020,79.102,59.570,0.488,69.824,0
1542907678.045,-22.949,83.008,61.523,-8.301,96.191,0
1542907678.049,-41.992,79.102,58.105,-18.066,56.152,0
1542907678.053,-40.039,85.938,62.500,-16.602,67.871,0
1542907678.057,-47.363,93.750,59.570,-33.691,89.355,0
1542907678.061,-53.711,90.332,54.199,-56.152,76.660,0
1542907678.065,-72.266,97.168,57.617,-56.152,65.918,0
1542907678.069,-59.570,100.098,56.641,-64.453,66.406,0
1542907678.073,-53.223,97.656,59.570,-61.035,29.785,0
1542907678.077,-83.008,97.168,60.547,-60.059,35.645,0
1542907678.080,-85.938,102.539,54.688,-64.941,70.801,0
1542907678.084,-85.938,108.887,54.688,-82.520,32.227,0
1542907678.088,-83.008,106.445,49.316,-85.449,72.266,0
1542907678.092,-93.750,100.586,44.922,-91.797,63.965,0
1542907678.096,-111.816,99.121,46.875,-95.215,77.637,0
1542907678.100,-88.867,93.262,44.434,-83.008,76.172,0
1542907678.104,-71.777,94.727,40.039,-80.078,27.832,0
1542907678.108,-58.594,92.773,46.875,-60.547,7.812,0
1542907678.112,-52.734,79.102,44.922,-67.871,2.441,0
1542907678.116,-34.180,84.473,44.434,-49.316,64.941,0
1542907678.119,-39.062,86.914,45.898,-24.414,51.270,0
1542907678.123,-49.805,76.172,36.621,-33.203,-6.348,0
1542907678.127,-23.438,71.289,36.133,-20.508,32.715,0
1542907678.131,-8.301,68.848,41.504,13.184,60.059,0
1542907678.135,2.441,66.895,39.551,11.719,62.988,0
1542907678.139,26.855,59.570,32.227,-6.348,28.320,0
1542907678.143,43.457,63.965,34.668,2.441,12.207,0
1542907678.147,5.371,69.336,37.598,35.645,57.129,0
1542907678.151,7.812,59.570,35.645,48.828,95.215,0
1542907678.155,29.297,52.734,33.691,44.434,68.848,0
1542907678.159,31.738,57.617,37.598,51.270,54.688,0
1542907678.162,46.875,58.594,40.039,52.734,46.387,0
1542907678.166,68.848,52.246,38.086,49.805,63.965,0
1542907678.170,65.430,46.387,37.109,58.105,57.617,0
1542907678.174,50.781,45.898,36.621,58.105,61.523,0
1542907678.178,57.617,46.875,40.039,56.641,63.477,0
1542907678.182,35.645,42.969,39.551,52.734,45.898,0
1542907678.186,45.898,40.039,35.156,45.898,39.062,0
1542907678.190,75.195,42.969,29.785,59.570,24.414,0
1542907678.194,60.059,45.898,31.738,99.121,41.016,0
1542907678.198,60.059,47.363,38.086,77.637,37.598,0
1542907678.202,58.594,50.293,41.992,41.992,-16.602,0
1542907678.205,35.156,44.434,38.086,58.105,-2.930,0
1542907678.209,33.691,41.992,33.691,58.594,-10.254,0
1542907678.213,46.387,43.457,34.180,58.105,3.418,0
1542907678.217,41.016,41.016,38.086,59.570,22.461,0
1542907678.221,54.688,44.922,39.062,69.336,3.418,0
1542907678.225,61.035,47.852,36.621,74.219,22.949,0
1542907678.229,44.922,49.316,41.992,66.895,29.785,0
1542907678.233,64.453,49.805,41.504,62.500,11.719,0
1542907678.237,77.148,41.504,31.738,66.895,9.277,0
1542907678.241,63.477,39.551,35.156,87.891,34.180,0
1542907678.244,48.828,48.828,39.062,74.219,20.996,0
1542907678.248,50.781,47.852,38.574,75.195,-2.441,0
1542907678.252,66.406,42.480,43.457,92.285,37.109,0
1542907678.256,62.988,44.434,47.852,64.453,36.133,0
1542907678.260,53.711,46.875,51.270,63.965,-16.602,0
1542907678.264,52.734,48.828,52.246,79.102,7.812,0
1542907678.268,57.129,47.852,47.852,70.801,40.039,0
1542907678.272,53.223,48.340,42.480,58.105,35.156,0
1542907678.276,41.992,46.387,45.410,52.246,38.086,0
1542907678.280,62.500,48.828,43.457,63.477,38.574,0
1542907678.284,72.266,52.734,39.062,70.312,65.918,0
1542907678.287,37.109,52.246,42.969,69.336,101.562,0
1542907678.291,27.832,50.781,47.363,58.594,75.684,0
1542907678.295,19.043,43.945,46.387,43.945,8.789,0
1542907678.299,12.207,41.992,41.016,48.828,28.809,0
1542907678.303,31.250,51.758,47.852,65.918,-5.859,0
1542907678.307,48.828,53.711,52.246,74.219,-16.602,0
1542907678.311,47.363,47.363,40.039,51.270,49.805,0
1542907678.315,36.133,47.363,35.156,43.945,30.762,0
1542907678.319,45.410,49.805,41.504,53.223,-33.203,0
1542907678.323,67.383,49.316,44.922,44.434,-22.461,0
1542907678.327,61.523,51.758,44.922,52.246,39.551,0
1542907678.330,34.668,50.781,48.340,62.012,8.789,0
1542907678.334,47.852,52.246,52.246,57.129,-1.953,0
1542907678.338,57.617,51.270,49.316,43.945,54.688,0
1542907678.342,76.172,48.828,45.898,59.082,70.801,0
1542907678.346,68.359,55.664,46.387,73.730,57.129,0
1542907678.350,13.672,57.617,42.480,67.383,20.996,0
1542907678.354,4.395,50.293,39.551,49.805,26.367,0
1542907678.358,17.578,47.852,40.039,43.945,58.105,0
1542907678.362,24.902,52.246,42.969,50.293,37.598,0
1542907678.366,35.645,56.641,46.387,47.363,35.156,0
1542907678.369,45.410,58.105,41.016,52.246,39.551,0
1542907678.373,38.086,53.223,39.551,51.758,40.527,0
1542907678.377,36.621,56.152,42.969,35.156,43.457,0
1542907678.381,49.805,62.012,43.945,31.250,55.176,0
1542907678.385,22.461,59.570,44.434,41.016,76.172,0
1542907678.389,20.508,59.082,42.480,46.387,16.602,0
1542907678.393,49.805,58.594,42.969,52.734,29.297,0
1542907678.397,42.969,63.477,48.828,56.152,48.828,0
1542907678.401,22.461,67.871,47.363,24.902,50.781,0
1542907678.405,34.180,61.523,43.945,23.438,65.918,0
1542907678.409,30.762,64.453,50.781,48.828,36.621,0
1542907678.412,25.391,66.895,53.223,54.688,18.066,0
1542907678.416,23.438,60.059,38.574,33.691,19.043,0
1542907678.420,42.480,59.570,31.250,50.293,6.836,0
1542907678.424,58.105,59.570,41.016,57.617,12.695,0
1542907678.428,24.902,56.152,51.270,30.273,66.895,0
1542907678.432,6.348,51.270,53.223,45.410,58.105,0
1542907678.436,27.344,46.387,52.246,56.641,73.730,0
1542907678.440,28.809,46.387,51.270,37.598,78.125,0
1542907678.444,15.137,49.805,53.711,25.879,20.020,0
1542907678.448,5.371,50.781,50.781,35.156,11.719,0
1542907678.452,34.668,49.316,48.340,38.574,6.836,0
1542907678.455,44.922,48.828,48.828,26.855,10.254,0
1542907678.459,4.395,47.363,54.688,39.062,57.129,0
1542907678.463,-7.812,51.270,58.594,41.504,38.086,0
1542907678.467,11.230,55.664,56.152,37.109,46.875,0
1542907678.471,50.781,57.129,52.734,41.504,50.293,0
1542907678.475,43.945,56.641,49.805,42.480,2.441,0
1542907678.479,28.320,55.176,53.223,38.574,69.824,0
1542907678.483,37.109,60.547,63.477,42.969,69.824,0
1542907678.487,28.809,60.547,58.105,44.922,36.133,0
1542907678.491,41.992,52.246,48.340,43.945,14.648,0
1542907678.494,53.711,51.270,51.270,52.734,31.250,0
1542907678.498,29.297,51.758,54.199,57.617,64.453,0
1542907678.502,33.203,53.223,52.734,59.082,-0.488,0
1542907678.506,66.895,57.129,48.828,62.500,-21.484,0
1542907678.510,46.875,59.570,49.805,46.387,-28.809,0
1542907678.514,6.836,58.594,51.270,55.176,-16.113,0
1542907678.518,17.090,54.199,53.223,53.223,71.289,0
1542907678.522,43.945,55.664,57.129,41.016,69.824,0
1542907678.526,39.062,59.570,54.688,52.246,35.156,0
1542907678.530,30.762,61.523,53.223,44.434,82.031,0
1542907678.534,28.809,59.570,56.152,49.805,67.871,0
1542907678.537,25.879,51.270,50.293,41.504,19.531,0
1542907678.541,40.527,50.781,45.410,43.945,13.184,0
1542907678.545,42.480,48.828,44.922,49.805,94.238,0
1542907678.549,28.320,51.270,46.875,42.480,78.613,0
1542907678.553,24.414,57.617,50.293,43.945,43.945,0
1542907678.557,27.344,54.688,47.852,56.152,109.863,0
1542907678.561,36.133,56.152,45.898,58.594,57.129,0
1542907678.565,35.156,58.105,49.316,51.270,-23.438,0
1542907678.569,66.895,54.199,49.316,69.824,26.855,0
1542907678.573,76.172,51.270,56.152,90.332,54.688,0
1542907678.577,18.555,62.012,61.523,38.086,2.930,0
1542907678.580,-9.766,63.965,59.570,5.859,7.812,0
1542907678.584,-23.926,60.547,57.617,1.465,10.254,0
1542907678.588,-31.250,70.312,50.781,-23.926,-1.465,0
1542907678.592,-29.785,70.801,43.945,-41.016,16.602,0
1542907678.596,-48.340,64.453,38.086,-48.340,68.848,0
1542907678.600,-60.059,64.453,37.598,-57.617,43.457,0
1542907678.604,-63.477,64.941,31.738,-62.012,-24.414,0
1542907678.608,-66.406,62.988,29.785,-62.012,49.316,0
1542907678.612,-62.012,60.059,30.762,-54.688,57.129,0
1542907678.616,-58.105,58.105,31.250,-35.156,52.734,0
1542907678.619,-38.086,60.059,36.133,-48.828,119.141,0
1542907678.623,-35.156,56.641,36.133,-55.664,111.328,0
1542907678.627,-40.039,52.734,31.738,-36.621,37.109,0
1542907678.631,-20.996,50.293,35.156,-11.719,16.113,0
1542907678.635,7.324,49.316,38.086,-6.836,24.414,0
1542907678.639,20.020,55.664,36.621,-10.742,44.922,0
1542907678.643,-1.953,58.105,42.480,-3.418,76.660,0
1542907678.647,-14.648,57.617,43.457,0.488,79.102,0
1542907678.651,1.465,55.176,41.016,10.742,66.895,0
1542907678.655,14.160,59.082,41.504,28.320,36.133,0
1542907678.659,14.160,59.570,40.527,28.320,-40.527,0
1542907678.662,12.207,54.199,42.480,13.184,-46.875,0
1542907678.666,6.348,57.129,44.434,9.766,29.297,0
1542907678.670,12.695,60.547,44.434,28.320,66.406,0
1542907678.674,20.020,59.082,49.805,30.762,29.297,0
1542907678.678,17.578,58.105,47.363,14.160,41.016,0
1542907678.682,23.438,61.035,37.598,15.137,54.199,0
1542907678.686,37.598,61.035,41.016,35.156,44.922,0
1542907678.690,14.160,62.500,42.969,28.809,13.672,0
1542907678.694,4.883,63.477,39.551,15.625,-19.043,0
1542907678.698,20.020,62.988,45.898,41.992,-24.414,0
1542907678.702,19.043,62.012,48.828,30.762,-13.184,0
1542907678.705,36.621,59.082,47.363,12.207,19.531,0
1542907678.709,28.809,58.594,45.898,21.973,27.832,0
1542907678.713,-7.812,62.500,42.969,3.418,69.336,0
1542907678.717,-21.973,61.523,41.992,1.465,112.793,0
1542907678.721,-6.348,61.035,39.551,9.277,64.941,0
1542907678.725,5.859,61.035,44.434,7.812,69.336,0
1542907678.729,-1.953,56.641,47.363,17.578,64.941,0
1542907678.733,26.855,44.922,46.387,38.574,56.152,0
1542907678.737,37.598,47.852,41.992,31.250,44.922,0
1542907678.741,-0.488,69.824,42.480,17.578,30.273,0
1542907678.744,15.137,74.219,43.457,32.227,49.805,0
1542907678.748,40.039,69.336,42.969,41.992,1.465,0
1542907678.752,31.738,68.848,42.480,37.109,-14.648,0
1542907678.756,20.996,66.895,42.969,20.020,27.832,0
1542907678.760,26.367,69.824,41.992,26.367,90.820,0
1542907678.764,27.832,70.312,37.598,50.781,40.039,0
1542907678.768,20.996,64.453,44.922,32.227,-0.977,0
1542907678.772,33.691,61.523,44.922,25.391,48.340,0
1542907678.776,38.574,62.988,41.992,39.551,67.871,0
1542907678.780,37.598,68.848,44.434,42.480,58.105,0
1542907678.784,25.879,67.383,43.457,55.664,78.613,0
1542907678.787,29.785,61.035,43.457,46.387,81.055,0
1542907678.791,35.645,60.547,43.457,28.320,59.570,0
1542907678.795,29.297,64.941,42.969,46.875,42.969,0
1542907678.799,77.637,66.895,42.969,38.086,36.133,0
1542907678.803,80.078,67.383,43.945,32.715,48.340,0
1542907678.807,-6.348,62.500,50.781,62.988,-5.371,0
1542907678.811,-17.578,59.570,46.387,45.898,19.531,0
1542907678.815,8.301,59.570,43.945,23.926,30.762,0
1542907678.819,21.484,59.082,43.945,31.738,3.906,0
1542907678.823,24.414,59.570,42.969,54.199,44.434,0
1542907678.827,42.480,60.059,50.293,60.547,72.754,0
1542907678.830,49.805,58.105,53.711,45.898,33.691,0
1542907678.834,19.043,58.594,46.875,31.738,35.156,0
1542907678.838,9.766,62.988,44.434,10.254,95.215,0
1542907678.842,45.898,62.988,48.340,30.273,58.105,0
1542907678.846,54.688,62.500,48.340,64.941,46.875,0
1542907678.850,12.695,55.664,47.363,42.480,47.852,0
1542907678.854,18.066,56.641,39.551,22.461,74.707,0
1542907678.858,23.438,61.035,39.551,45.898,85.938,0
1542907678.862,10.254,59.082,43.945,45.898,62.500,0
1542907678.866,27.832,51.270,43.457,20.508,61.035,0
1542907678.869,38.574,51.758,41.016,21.484,34.668,0
1542907678.873,25.879,54.688,39.551,33.203,16.113,0
1542907678.877,30.273,57.617,42.480,36.621,21.484,0
1542907678.881,55.664,59.082,44.434,51.270,2.930,0
1542907678.885,27.832,49.805,41.016,42.480,38.086,0
1542907678.889,0.977,49.805,39.062,34.668,72.754,0
1542907678.893,23.438,53.223,42.480,34.668,13.184,0
1542907678.897,11.719,53.223,45.898,26.855,57.617,0
1542907678.901,45.410,57.129,44.434,39.062,128.418,0
1542907678.905,51.270,56.152,41.504,46.875,31.738,0
1542907678.909,26.855,55.176,42.969,23.926,36.133,0
1542907678.912,49.805,60.547,45.898,30.762,80.078,0
1542907678.916,0.977,53.223,49.805,57.617,15.137,0
1542907678.920,-17.090,51.270,48.828,41.016,23.926,0
1542907678.924,21.973,53.711,44.922,18.066,12.207,0
1542907678.928,32.715,49.316,42.480,42.480,-5.371,0
1542907678.932,21.973,47.852,43.945,49.316,6.836,0
1542907678.936,20.996,51.758,45.410,30.762,-23.438,0
1542907678.940,30.762,55.664,43.457,27.344,1.953,0
1542907678.944,48.340,53.711,44.434,22.949,31.250,0
1542907678.948,37.109,57.129,52.734,15.137,32.227,0
1542907678.952,21.484,53.223,52.734,26.367,20.020,0
1542907678.955,26.367,50.293,39.062,45.410,10.742,0
1542907678.959,20.508,57.129,39.551,50.781,25.391,0
1542907678.963,36.621,51.270,39.062,26.855,-2.930,0
1542907678.967,38.574,40.039,39.551,31.738,0.488,0
1542907678.971,20.508,38.574,45.410,38.574,-2.441,0
1542907678.975,14.160,55.664,39.551,20.996,5.371,0
1542907678.979,2.930,61.523,39.551,24.414,21.484,0
1542907678.983,1.953,58.594,39.551,13.184,17.090,0
1542907678.987,-6.836,57.617,40.039,-2.930,38.574,0
1542907678.991,0.000,54.688,46.875,1.953,56.152,0
1542907678.994,16.113,53.711,45.410,20.996,67.383,0
1542907678.998,15.625,51.758,42.969,29.785,2.930,0
1542907679.002,12.695,50.293,43.945,37.109,-11.719,0
1542907679.006,33.691,54.199,43.945,34.180,4.883,0
1542907679.010,33.203,53.711,43.457,17.578,36.133,0
1542907679.014,13.672,50.293,41.016,27.832,83.008,0
1542907679.018,42.969,50.781,40.039,44.922,91.309,0
1542907679.022,43.945,55.176,45.410,53.711,85.449,0
1542907679.026,25.879,55.176,50.293,45.898,41.016,0
1542907679.030,20.996,47.852,45.898,22.949,40.039,0
1542907679.034,10.742,48.340,40.039,29.297,55.176,0
1542907679.037,8.789,51.270,41.992,39.551,65.430,0
1542907679.041,24.902,53.223,43.945,34.180,90.332,0
1542907679.045,31.250,51.270,42.480,33.203,66.895,0
1542907679.049,10.254,45.898,41.992,14.648,41.016,0
1542907679.053,22.949,49.805,41.016,6.836,9.277,0
1542907679.057,41.992,52.734,38.086,21.484,-38.086,0
1542907679.061,35.645,53.223,37.598,41.016,-2.441,0
1542907679.065,20.508,56.152,39.551,47.363,33.691,0
1542907679.069,3.418,56.152,39.551,29.297,38.086,0
1542907679.073,17.578,54.688,43.945,29.785,26.367,0
1542907679.077,20.020,51.270,49.805,28.320,62.500,0
1542907679.080,17.578,49.316,45.410,29.297,75.195,0
1542907679.084,26.367,49.316,40.527,42.480,-17.578,0
1542907679.088,21.484,53.223,39.062,32.227,-23.438,0
1542907679.092,14.160,47.363,39.551,42.480,2.441,0
1542907679.096,17.090,47.363,44.434,38.574,67.383,0
1542907679.100,28.320,58.105,48.340,21.973,84.473,0
1542907679.104,31.250,61.523,51.270,38.086,39.551,0
1542907679.108,29.297,60.059,45.410,35.156,33.691,0
1542907679.112,31.738,59.082,44.922,29.785,-4.395,0
1542907679.116,38.086,58.105,45.410,33.203,-38.086,0
1542907679.119,35.156,53.223,45.410,44.922,11.719,0
1542907679.123,25.879,49.805,50.781,52.734,13.184,0
1542907679.127,32.227,53.223,47.363,48.828,5.859,0
1542907679.131,27.344,54.688,48.340,45.410,28.809,0
1542907679.135,27.832,55.664,51.758,35.156,57.129,0
1542907679.139,28.809,55.664,45.898,42.480,48.828,0
1542907679.143,56.152,54.199,44.922,41.016,-1.465,0
1542907679.147,55.664,52.734,45.898,34.180,60.059,0
1542907679.151,21.484,53.711,49.316,40.527,51.758,0
1542907679.155,19.043,57.129,51.758,28.809,-16.113,0
1542907679.159,26.855,54.199,45.898,29.785,42.480,0
1542907679.162,35.645,54.688,43.945,42.480,47.363,0
1542907679.166,32.715,55.176,48.828,38.086,64.453,0
1542907679.170,32.715,51.758,49.316,39.062,93.262,0
1542907679.174,17.578,53.223,48.340,43.457,92.285,0
1542907679.178,19.043,56.641,47.852,27.832,21.973,0
1542907679.182,44.434,58.594,47.363,26.367,-6.348,0
1542907679.186,39.551,57.617,52.246,42.969,12.695,0
1542907679.190,25.879,55.664,52.246,32.715,-19.043,0
1542907679.194,16.113,50.781,44.434,25.879,50.293,0
1542907679.198,-3.906,49.805,42.969,28.809,45.410,0
1542907679.202,5.371,51.270,43.457,26.367,6.836,0
1542907679.205,22.461,50.293,41.016,38.086,86.914,0
1542907679.209,34.668,52.734,39.551,34.668,83.984,0
1542907679.213,30.762,56.641,43.945,35.156,-2.441,0
1542907679.217,10.254,54.199,49.316,38.086,3.906,0
1542907679.221,5.859,53.223,52.246,21.973,18.555,0
1542907679.225,11.230,52.734,45.898,21.484,66.406,0
1542907679.229,26.367,51.270,40.039,27.832,71.289,0
1542907679.233,37.109,53.711,43.457,35.156,52.734,0
1542907679.237,30.762,53.711,49.316,45.898,60.059,0
1542907679.241,39.551,54.688,50.781,55.664,61.523,0
1542907679.244,33.691,58.594,51.758,49.316,63.965,0
1542907679.248,15.137,61.523,55.664,20.020,82.031,0
1542907679.252,-2.441,59.570,55.664,20.020,91.309,0
1542907679.256,4.883,50.781,57.129,36.621,62.988,0
1542907679.260,15.137,45.410,55.176,31.250,62.012,0
1542907679.264,17.090,46.387,51.270,36.133,59.082,0
1542907679.268,31.250,50.781,55.664,43.457,-8.789,0
1542907679.272,19.043,53.223,56.641,31.250,-18.066,0
1542907679.276,16.602,51.270,49.805,31.738,-0.977,0
1542907679.280,17.578,52.734,46.875,35.156,47.852,0
1542907679.284,14.648,54.199,47.852,33.691,23.438,0
1542907679.287,28.320,56.152,48.340,37.598,-11.719,0
1542907679.291,32.715,56.641,44.922,41.504,50.293,0
1542907679.295,16.113,52.246,46.387,41.504,49.805,0
1542907679.299,46.387,54.688,48.340,36.621,49.316,0
1542907679.303,61.035,60.059,49.805,35.645,39.062,0
1542907679.307,17.090,58.105,49.805,30.762,0.977,0
1542907679.311,16.602,55.664,49.805,41.504,16.602,0
1542907679.315,13.672,53.711,50.781,47.363,43.457,0
1542907679.319,9.277,56.152,46.387,41.992,58.105,0
1542907679.323,9.766,62.012,46.875,29.785,69.824,0
1542907679.327,18.066,62.500,51.270,14.648,111.328,0
1542907679.330,32.227,61.035,47.363,39.062,62.500,0
1542907679.334,28.809,57.617,46.387,40.039,16.602,0
1542907679.338,37.598,57.617,52.734,31.250,40.039,0
1542907679.342,32.715,61.523,51.758,37.598,41.992,0
1542907679.346,22.949,57.129,48.340,28.320,61.523,0
1542907679.350,14.160,61.035,45.410,20.508,-8.301,0
1542907679.354,15.625,57.617,47.852,34.668,-14.160,0
1542907679.358,18.555,53.223,51.270,25.879,32.715,0
1542907679.362,19.043,61.035,50.293,25.879,20.508,0
1542907679.366,52.734,61.035,48.340,30.273,33.203,0
1542907679.369,23.438,58.105,51.270,27.344,14.160,0
1542907679.373,0.488,54.199,53.223,31.738,-13.184,0
1542907679.377,33.203,59.082,52.246,38.086,32.715,0
1542907679.381,16.113,62.988,50.781,30.762,101.562,0
1542907679.385,-8.789,56.641,50.293,9.277,32.227,0
1542907679.389,-11.230,62.500,52.246,11.230,-9.766,0
1542907679.393,-9.277,66.895,50.293,6.348,-3.418,0
1542907679.397,0.488,65.430,52.734,7.812,32.715,0
1542907679.401,11.719,71.777,57.617,16.602,66.895,0
1542907679.405,11.719,78.125,58.105,4.395,38.574,0
1542907679.409,-13.672,79.590,59.082,-13.184,17.578,0
1542907679.412,-39.062,74.219,52.734,-25.879,-20.020,0
1542907679.416,-34.180,85.449,50.293,-33.203,47.852,0
1542907679.420,-38.574,92.773,55.664,-38.574,71.289,0
1542907679.424,-41.992,89.844,49.805,-30.273,48.828,0
1542907679.428,-44.922,104.004,52.734,-24.414,90.820,0
1542907679.432,-50.781,110.840,63.477,-50.293,68.359,0
1542907679.436,-66.406,106.934,62.012,-90.332,29.297,0
1542907679.440,-101.074,110.352,57.129,-96.191,50.781,0
1542907679.444,-104.004,114.258,60.547,-95.215,64.453,0
1542907679.448,-107.422,114.258,64.453,-107.910,21.484,0
1542907679.452,-120.117,116.699,61.523,-118.652,48.828,0
1542907679.455,-104.980,119.141,59.082,-128.906,128.418,0
1542907679.459,-116.211,120.117,65.430,-119.141,88.867,0
1542907679.463,-111.328,117.676,75.684,-126.465,7.324,0
1542907679.467,-119.629,106.934,72.754,-137.207,34.180,0
1542907679.471,-137.207,103.516,65.430,-114.746,72.754,0
1542907679.475,-108.887,100.586,61.035,-111.328,13.672,0
1542907679.479,-109.375,97.168,60.059,-114.258,-18.066,0
1542907679.483,-77.637,94.727,61.035,-86.426,20.020,0
1542907679.487,-62.988,84.473,54.688,-71.289,-20.020,0
1542907679.491,-83.008,69.336,54.688,-66.406,-23.926,0
1542907679.494,-71.777,59.082,55.176,-50.781,15.137,0
1542907679.498,-53.223,61.035,52.246,-20.508,-2.441,0
1542907679.502,-43.457,63.477,49.805,-12.207,20.508,0
1542907679.506,-20.020,56.152,50.293,-15.625,36.621,0
1542907679.510,2.441,48.340,51.758,-3.418,42.480,0
1542907679.514,16.602,49.805,50.781,28.809,77.637,0
1542907679.518,28.809,53.711,49.805,47.363,53.711,0
1542907679.522,34.668,52.246,51.758,39.551,48.828,0
1542907679.526,41.992,46.875,50.781,40.527,85.449,0
1542907679.530,48.828,42.969,44.434,57.617,60.547,0
1542907679.534,42.969,38.086,37.598,54.199,7.324,0
1542907679.537,42.480,38.574,38.086,47.363,18.066,0
1542907679.541,82.520,39.062,41.016,59.082,39.551,0
1542907679.545,62.988,33.691,38.574,59.570,7.324,0
1542907679.549,10.742,29.297,39.062,73.730,61.035,0
1542907679.553,27.832,27.344,41.016,51.270,41.992,0
1542907679.557,40.039,25.391,36.621,43.945,-15.137,0
1542907679.561,50.293,25.391,35.645,68.848,-22.949,0
1542907679.565,61.523,31.738,36.621,64.941,-7.812,0
1542907679.569,62.500,31.738,35.156,72.266,39.551,0
1542907679.573,68.359,28.320,31.250,75.195,23.438,0
1542907679.577,76.660,26.855,33.203,79.590,-10.254,0
1542907679.580,74.219,29.785,35.645,90.820,-24.414,0
1542907679.584,62.988,30.273,34.180,98.145,49.316,0
1542907679.588,67.871,28.320,34.180,90.332,80.566,0
1542907679.592,64.453,34.668,36.133,79.102,79.102,0
1542907679.596,74.219,37.109,41.016,83.984,80.078,0
1542907679.600,94.238,36.133,38.574,67.871,24.414,0
1542907679.604,61.523,33.203,40.527,60.059,9.766,0
1542907679.608,50.781,32.227,40.039,75.684,92.773,0
1542907679.612,56.641,29.785,31.250,72.266,60.059,0
1542907679.616,62.012,26.367,34.180,63.965,34.668,0
1542907679.619,71.289,27.832,37.109,90.332,65.430,0
1542907679.623,61.523,28.809,33.691,93.750,12.695,0
1542907679.627,63.965,29.785,34.180,68.848,84.473,0
1542907679.631,63.477,30.762,40.527,87.891,124.512,0
1542907679.635,62.988,33.691,41.504,80.566,75.195,0
1542907679.639,75.684,32.715,39.551,52.734,41.504,0
1542907679.643,69.336,31.738,41.504,68.359,0.000,0
1542907679.647,44.922,30.762,44.434,76.660,5.371,0
1542907679.651,48.828,28.809,41.992,69.824,29.785,0
1542907679.655,49.805,31.250,42.480,70.801,20.996,0
1542907679.659,57.129,32.715,40.527,65.918,-40.039,0
1542907679.662,65.430,37.598,36.133,56.152,3.906,0
1542907679.666,50.781,37.598,36.621,47.363,90.332,0
1542907679.670,54.199,29.297,36.621,47.852,41.504,0
1542907679.674,44.922,29.785,38.086,45.898,-25.879,0
1542907679.678,41.504,32.715,42.969,72.754,11.230,0
1542907679.682,54.199,34.668,46.387,85.938,-22.461,0
1542907679.686,88.867,39.062,43.457,58.105,-50.293,0
1542907679.690,79.590,42.969,44.434,48.340,-27.832,0
1542907679.694,44.434,39.062,44.434,55.664,-17.090,0
1542907679.698,46.387,32.715,45.410,60.547,44.922,0
1542907679.702,31.250,35.156,46.387,57.129,62.988,0
1542907679.705,49.316,43.457,47.852,57.617,38.574,0
1542907679.709,41.016,41.992,52.246,53.711,34.180,0
1542907679.713,33.691,41.016,50.781,50.293,99.609,0
1542907679.717,68.359,43.457,52.734,76.660,119.629,0
1542907679.721,46.387,37.109,46.875,80.566,62.988,0
1542907679.725,14.648,34.180,40.039,46.875,23.438,0
1542907679.729,27.344,32.715,42.480,31.250,31.738,0
1542907679.733,23.926,34.180,44.922,31.250,19.531,0
1542907679.737,20.508,34.180,50.293,49.805,50.293,0
1542907679.741,33.203,35.156,52.246,59.570,41.016,0
1542907679.744,61.523,42.969,49.316,43.457,10.742,0
1542907679.748,59.082,41.992,50.781,41.992,15.625,0
1542907679.752,20.020,39.062,52.734,43.945,-30.273,0
1542907679.756,20.996,41.016,50.781,40.039,-3.418,0
1542907679.760,43.457,45.898,47.852,52.246,0.488,0
1542907679.764,58.594,47.852,46.875,48.828,-9.277,0
1542907679.768,46.875,38.086,47.363,37.598,48.828,0
1542907679.772,26.367,33.203,49.316,58.594,46.875,0
