timestamps,TP9,AF7,AF8,TP10,Right AUX,Marker0
1553636187.160,44.922,32.715,34.668,-24.902,-9.766,0
1553636187.164,54.199,33.203,33.203,-23.438,-3.906,0
1553636187.168,57.129,30.762,31.250,-21.484,34.668,0
1553636187.172,49.316,35.156,32.715,-25.879,87.402,0
1553636187.176,52.734,26.367,31.250,-34.668,96.191,0
1553636187.179,50.293,31.250,33.203,-37.598,68.359,0
1553636187.183,49.805,35.645,32.227,-34.668,79.102,0
1553636187.187,49.316,28.320,29.785,-40.527,76.660,0
1553636187.191,44.434,30.762,33.691,-35.156,23.926,0
1553636187.195,43.457,30.273,33.203,-34.180,18.555,0
1553636187.199,44.434,26.367,32.715,-33.691,44.434,0
1553636187.203,40.527,34.668,31.250,-33.691,45.410,0
1553636187.207,42.969,36.621,30.762,-35.645,32.715,0
1553636187.211,42.480,34.180,29.297,-30.762,62.988,0
1553636187.215,36.621,41.016,27.344,-26.855,63.477,0
1553636187.219,43.457,36.133,32.715,-21.973,75.684,0
1553636187.222,36.133,28.320,32.715,-30.273,63.477,0
1553636187.226,27.832,29.785,30.273,-27.832,27.832,0
1553636187.230,27.344,28.809,35.156,-21.484,70.801,0
1553636187.234,29.297,22.949,31.250,-28.809,28.809,0
1553636187.238,36.133,20.996,32.227,-35.645,24.414,0
1553636187.242,37.598,26.367,42.969,-31.738,54.199,0
1553636187.246,40.527,26.367,36.621,-12.695,60.059,0
1553636187.250,40.527,1.465,20.020,-4.395,86.426,0
1553636187.254,41.016,1.465,34.668,-4.395,87.891,0
1553636187.258,39.551,38.086,43.945,-22.949,95.703,0
1553636187.262,19.531,39.062,29.785,-49.316,39.551,0
1553636187.265,25.391,28.320,37.598,-41.016,46.387,0
1553636187.269,37.598,39.062,35.156,-23.926,53.223,0
1553636187.273,40.527,41.992,20.996,-17.090,13.672,0
1553636187.277,53.223,43.457,24.414,-13.672,79.590,0
1553636187.281,48.340,45.898,27.832,-16.113,66.895,0
1553636187.285,43.945,34.180,27.832,-26.367,9.766,0
1553636187.289,36.621,20.020,30.273,-22.461,7.324,0
1553636187.293,40.527,26.367,29.785,-12.207,22.461,0
1553636187.297,45.898,33.203,29.297,-13.184,-9.766,0
1553636187.301,39.062,33.691,30.762,-15.137,19.531,0
1553636187.304,36.621,27.344,25.879,-26.367,84.961,0
1553636187.308,35.156,31.250,25.391,-20.508,5.859,0
1553636187.312,41.016,36.621,29.785,-10.254,-23.438,0
1553636187.316,44.922,28.809,31.250,-4.395,12.207,0
1553636187.320,41.992,20.996,31.250,-7.324,29.785,0
1553636187.324,35.156,31.250,28.320,-20.020,34.668,0
1553636187.328,27.832,25.391,25.391,-17.090,34.180,0
1553636187.332,33.203,20.508,23.926,-17.578,53.711,0
1553636187.336,24.414,26.367,25.879,-34.668,74.219,0
1553636187.340,31.738,28.320,31.738,-31.738,47.363,0
1553636187.344,36.133,30.273,30.273,-20.996,10.742,0
1553636187.347,35.156,30.762,28.320,-21.973,18.066,0
1553636187.351,46.387,36.133,34.180,-10.742,-0.977,0
1553636187.355,34.668,28.809,27.344,-22.461,52.246,0
1553636187.359,18.066,17.578,16.602,-46.875,93.262,0
1553636187.363,20.020,24.902,20.020,-43.457,50.781,0
1553636187.367,19.531,26.855,24.902,-44.922,26.855,0
1553636187.371,28.320,24.414,27.344,-44.434,16.602,0
1553636187.375,30.762,28.809,34.180,-32.715,21.484,0
1553636187.379,20.996,38.086,35.156,-33.691,-2.930,0
1553636187.383,21.973,38.086,36.621,-32.715,16.113,0
1553636187.387,20.508,24.902,35.645,-23.438,9.766,0
1553636187.390,15.625,22.949,33.203,-36.621,-12.207,0
1553636187.394,8.301,33.691,33.691,-38.574,4.395,0
1553636187.398,15.625,38.086,32.227,-29.297,27.344,0
1553636187.402,20.508,31.250,33.691,-33.203,33.203,0
1553636187.406,23.438,35.156,38.574,-34.668,46.875,0
1553636187.410,14.160,32.715,38.574,-34.668,49.805,0
1553636187.414,2.930,28.320,34.668,-35.156,-24.902,0
1553636187.418,17.578,36.621,36.621,-40.039,-26.367,0
1553636187.422,23.926,39.551,36.621,-37.109,60.059,0
1553636187.426,12.207,34.180,37.109,-32.227,71.777,0
1553636187.429,1.953,36.621,39.551,-46.387,28.809,0
1553636187.433,5.859,37.598,39.551,-47.852,45.898,0
1553636187.437,5.371,32.715,40.039,-47.363,37.109,0
1553636187.441,0.977,33.691,37.598,-54.199,4.883,0
1553636187.445,6.836,35.645,38.574,-41.016,-2.930,0
1553636187.449,7.324,28.320,36.133,-43.457,13.672,0
1553636187.453,3.418,28.809,31.738,-52.246,19.531,0
1553636187.457,8.789,34.668,36.133,-41.016,25.879,0
1553636187.461,3.418,29.785,41.504,-36.621,29.297,0
1553636187.465,2.441,28.809,39.551,-36.133,40.527,0
1553636187.469,6.348,33.691,35.156,-33.203,75.684,0
1553636187.472,5.859,35.156,35.156,-41.504,71.777,0
1553636187.476,2.441,34.180,38.086,-43.457,-0.977,0
1553636187.480,2.441,32.715,38.086,-44.922,-8.301,0
1553636187.484,-1.953,34.668,37.598,-43.457,34.180,0
1553636187.488,-7.812,33.691,36.621,-41.992,50.293,0
1553636187.492,-6.348,28.809,37.109,-40.039,36.621,0
1553636187.496,-8.789,29.785,36.621,-45.410,14.648,0
1553636187.500,-10.742,32.715,35.156,-56.641,45.410,0
1553636187.504,-15.137,34.180,34.668,-60.059,48.340,0
1553636187.508,-7.324,41.992,24.414,-56.152,42.480,0
1553636187.512,20.508,55.176,18.555,-30.762,63.965,0
1553636187.515,-2.441,44.434,36.621,-47.363,44.434,0
1553636187.519,-42.480,32.227,58.105,-79.590,6.836,0
1553636187.523,-38.574,41.504,58.105,-81.055,27.344,0
1553636187.527,-49.805,38.086,55.664,-83.008,34.668,0
1553636187.531,-54.199,30.762,66.406,-69.824,32.715,0
1553636187.535,-47.363,35.156,79.102,-70.312,59.570,0
1553636187.539,-43.945,44.434,94.727,-63.965,56.641,0
1553636187.543,-48.828,38.574,95.703,-57.617,62.012,0
1553636187.547,-56.641,32.227,90.332,-62.988,74.707,0
1553636187.551,-48.340,31.738,98.145,-49.805,9.766,0
1553636187.554,-41.504,24.902,107.422,-43.457,30.762,0
1553636187.558,-32.715,21.484,106.934,-37.109,80.078,0
1553636187.562,-19.531,20.508,109.863,-24.414,28.809,0
1553636187.566,-12.695,12.207,112.793,-24.414,5.371,0
1553636187.570,-1.465,8.789,116.211,-8.789,73.730,0
1553636187.574,8.789,4.395,119.141,12.695,130.859,0
1553636187.578,29.785,-3.906,117.676,26.367,76.172,0
1553636187.582,58.594,-2.930,121.094,52.246,58.594,0
1553636187.586,65.430,-7.324,123.535,70.312,42.969,0
1553636187.590,79.102,-19.043,123.535,88.379,24.902,0
1553636187.594,95.703,-21.973,120.117,105.469,41.016,0
1553636187.597,108.887,-15.625,116.211,115.234,40.039,0
1553636187.601,133.301,-20.020,116.211,134.766,10.254,0
1553636187.605,138.672,-24.902,115.234,135.742,40.527,0
1553636187.609,142.090,-16.602,113.281,137.695,90.820,0
1553636187.613,162.109,-16.602,108.887,144.531,72.754,0
1553636187.617,166.016,-4.395,99.609,137.207,57.129,0
1553636187.621,161.133,1.953,93.262,131.836,76.172,0
1553636187.625,168.945,-10.742,87.891,128.906,16.113,0
1553636187.629,171.875,-7.812,82.520,128.418,-27.344,0
1553636187.633,159.668,-4.883,82.031,121.582,27.344,0
1553636187.637,142.578,-3.906,78.125,119.141,1.953,0
1553636187.640,136.230,2.441,77.637,118.652,-26.855,0
1553636187.644,131.348,-2.441,76.660,111.816,21.973,0
1553636187.648,124.023,-4.395,76.172,107.910,58.105,0
1553636187.652,121.582,-1.953,77.637,107.910,20.508,0
1553636187.656,118.164,-3.418,73.730,104.492,28.809,0
1553636187.660,109.863,5.371,73.730,90.332,64.453,0
1553636187.664,111.816,15.137,72.754,89.355,10.254,0
1553636187.668,109.863,13.184,67.871,88.379,15.625,0
1553636187.672,96.680,6.836,63.965,83.984,44.922,0
1553636187.676,89.844,6.348,63.965,75.195,34.668,0
1553636187.679,95.215,12.695,60.547,69.336,48.828,0
1553636187.683,95.703,14.648,62.012,73.730,65.430,0
1553636187.687,88.379,9.766,60.059,70.801,35.645,0
1553636187.691,90.820,8.789,57.129,67.871,20.020,0
1553636187.695,94.727,13.184,58.594,67.383,93.750,0
1553636187.699,83.008,15.625,56.152,59.082,103.516,0
1553636187.703,79.590,19.531,57.129,51.270,10.742,0
1553636187.707,85.449,15.625,60.059,53.711,22.949,0
1553636187.711,77.637,11.230,57.129,50.293,87.891,0
1553636187.715,78.613,15.137,54.688,51.270,117.188,0
1553636187.719,86.914,17.090,61.523,53.711,52.246,0
1553636187.722,71.289,20.020,58.105,35.156,0.000,0
1553636187.726,71.777,22.461,60.059,29.785,14.160,0
1553636187.730,74.219,22.461,64.453,37.598,-9.277,0
1553636187.734,61.035,20.020,56.641,26.367,37.598,0
1553636187.738,63.965,25.879,55.176,17.578,15.625,0
1553636187.742,54.199,29.785,54.199,15.137,-14.648,0
1553636187.746,36.133,28.320,52.734,-1.953,41.504,0
1553636187.750,25.879,33.691,58.594,-24.414,64.941,0
1553636187.754,2.930,38.086,56.641,-35.156,63.965,0
1553636187.758,0.000,42.969,57.617,-39.551,27.344,0
1553636187.762,-6.836,40.527,65.918,-61.035,41.992,0
1553636187.765,-25.879,43.457,55.664,-87.891,67.383,0
1553636187.769,-27.832,42.969,53.711,-83.496,14.648,0
1553636187.773,-25.879,39.062,74.707,-67.871,0.000,0
1553636187.777,-56.152,37.109,82.520,-92.773,15.137,0
1553636187.781,-70.801,37.598,74.707,-110.840,20.996,0
1553636187.785,-54.199,41.504,74.707,-92.285,41.016,0
1553636187.789,-58.105,39.551,79.102,-86.426,57.617,0
1553636187.793,-67.871,36.133,74.707,-98.633,12.207,0
1553636187.797,-49.805,42.480,70.801,-98.145,-27.832,0
1553636187.801,-42.480,43.457,69.824,-92.773,-1.465,0
1553636187.804,-43.945,41.016,66.895,-86.426,39.551,0
1553636187.808,-27.344,43.945,61.035,-71.289,26.855,0
1553636187.812,-17.090,35.645,57.129,-57.129,-15.137,0
1553636187.816,-13.672,26.855,53.223,-48.340,41.992,0
1553636187.820,3.418,27.344,50.781,-36.133,23.926,0
1553636187.824,24.414,23.438,46.387,-18.555,-24.902,0
1553636187.828,37.109,22.461,39.062,-11.230,9.277,0
1553636187.832,40.039,21.484,34.668,0.000,18.555,0
1553636187.836,47.363,19.043,35.645,5.371,53.223,0
1553636187.840,51.270,20.996,26.855,0.977,78.125,0
1553636187.844,53.711,25.879,26.855,11.719,57.129,0
1553636187.847,64.941,23.926,35.156,17.578,31.738,0
1553636187.851,64.453,13.184,29.785,19.531,60.059,0
1553636187.855,72.266,10.742,27.832,33.691,86.914,0
1553636187.859,81.543,19.531,26.367,41.992,75.684,0
1553636187.863,75.195,24.902,22.949,47.852,65.918,0
1553636187.867,64.941,21.973,27.344,42.969,26.855,0
1553636187.871,71.777,24.414,28.809,35.645,28.320,0
1553636187.875,75.684,18.555,23.438,42.969,6.836,0
1553636187.879,65.918,18.555,24.902,35.645,-25.879,0
1553636187.883,69.824,32.227,30.762,29.785,30.273,0
1553636187.887,72.266,32.715,27.832,31.250,42.969,0
1553636187.890,69.336,26.855,24.414,35.645,32.227,0
1553636187.894,68.848,27.832,24.902,38.086,42.969,0
1553636187.898,67.383,31.250,30.762,36.621,-7.324,0
1553636187.902,69.336,20.996,36.621,42.969,-31.250,0
1553636187.906,58.594,13.184,32.715,39.551,6.348,0
1553636187.910,45.898,15.137,30.273,29.785,-0.488,0
1553636187.914,49.805,13.672,30.273,21.484,-16.113,0
1553636187.918,56.641,19.043,32.715,30.273,41.504,0
1553636187.922,56.641,23.438,31.738,38.086,51.758,0
1553636187.926,50.293,16.113,28.320,30.762,58.594,0
1553636187.929,49.316,15.137,30.273,26.855,89.844,0
1553636187.933,51.758,22.461,31.250,24.414,26.855,0
1553636187.937,53.711,22.461,29.297,16.113,17.090,0
1553636187.941,52.246,18.555,30.762,12.207,17.578,0
1553636187.945,53.223,19.531,33.203,17.090,20.508,0
1553636187.949,51.758,18.555,30.273,11.230,129.395,0
1553636187.953,47.363,16.113,28.809,8.301,60.059,0
1553636187.957,50.293,18.066,27.344,8.301,37.109,0
1553636187.961,51.270,20.508,29.297,2.441,71.289,0
1553636187.965,45.410,22.949,29.297,4.883,-26.367,0
1553636187.969,47.852,26.367,30.273,8.301,-26.855,0
1553636187.972,49.316,32.227,26.367,7.324,27.344,0
1553636187.976,47.852,26.367,25.391,8.301,31.738,0
1553636187.980,42.969,22.461,32.227,8.789,-6.836,0
1553636187.984,37.598,18.066,30.762,2.930,-29.785,0
1553636187.988,47.852,21.484,30.762,2.441,16.602,0
1553636187.992,45.410,28.320,34.668,2.441,25.391,0
1553636187.996,38.574,20.508,32.715,-0.977,1.465,0
1553636188.000,41.016,21.484,32.227,-1.465,69.824,0
1553636188.004,42.480,22.461,32.715,-2.930,99.609,0
1553636188.008,38.086,21.484,30.762,-0.977,104.492,0
1553636188.012,40.527,18.555,32.227,0.000,105.469,0
1553636188.015,49.316,20.996,32.227,0.977,39.062,0
1553636188.019,35.645,28.320,29.297,7.324,30.762,0
1553636188.023,29.297,27.832,30.762,-1.465,46.875,0
1553636188.027,37.109,31.250,28.809,-3.906,55.176,0
1553636188.031,41.016,35.156,27.344,0.488,28.320,0
1553636188.035,36.133,22.461,30.273,-8.789,30.273,0
1553636188.039,34.180,18.066,30.762,-8.301,63.965,0
1553636188.043,23.926,20.508,31.250,-1.953,41.504,0
1553636188.047,6.348,19.043,30.762,-10.742,56.641,0
1553636188.051,5.859,21.973,27.832,-13.672,25.879,0
1553636188.054,6.348,25.391,29.297,-5.371,0.000,0
1553636188.058,5.859,23.926,31.250,-16.113,37.598,0
1553636188.062,9.766,18.066,31.250,-16.602,-1.465,0
1553636188.066,14.160,19.043,28.809,-4.395,-11.719,0
1553636188.070,20.508,21.484,26.367,-6.836,26.367,0
1553636188.074,25.879,21.973,30.762,0.000,43.945,0
1553636188.078,29.297,28.320,34.668,-8.301,15.137,0
1553636188.082,31.250,26.855,34.180,-21.484,41.016,0
1553636188.086,33.203,18.066,32.227,-13.672,54.199,0
1553636188.090,31.738,20.996,32.715,-9.277,41.992,0
1553636188.094,31.738,27.832,32.715,-6.836,73.730,0
1553636188.097,39.062,25.391,30.762,-7.324,52.734,0
1553636188.101,39.062,26.855,30.762,-11.230,6.348,0
1553636188.105,38.574,29.297,27.832,-11.230,5.859,0
1553636188.109,35.156,18.555,31.250,-9.766,52.734,0
1553636188.113,34.668,20.020,30.273,-12.207,50.293,0
1553636188.117,38.086,23.438,30.762,-8.301,28.320,0
1553636188.121,42.480,24.902,37.109,0.977,45.410,0
1553636188.125,50.293,33.203,36.133,-10.254,21.484,0
1553636188.129,44.922,27.344,35.156,-20.996,31.738,0
1553636188.133,39.551,16.602,32.227,-17.090,49.316,0
1553636188.137,37.109,19.043,37.109,-22.461,53.223,0
1553636188.140,37.598,24.414,38.086,-16.602,42.969,0
1553636188.144,40.039,22.949,34.668,-5.859,10.742,0
1553636188.148,42.969,22.461,37.109,-8.301,28.809,0
1553636188.152,41.504,23.926,36.133,-15.137,33.691,0
1553636188.156,35.156,21.973,33.691,-13.672,11.230,0
1553636188.160,60.059,30.762,26.367,2.441,8.301,0
1553636188.164,77.637,34.668,23.438,20.996,20.508,0
1553636188.168,38.574,23.438,37.109,-4.395,59.570,0
1553636188.172,15.625,16.113,47.852,-27.344,69.824,0
1553636188.176,23.438,11.230,49.805,-15.137,59.082,0
1553636188.179,34.180,13.184,52.734,3.906,36.133,0
1553636188.183,47.363,13.184,53.711,19.531,45.410,0
1553636188.187,50.781,13.672,49.316,15.625,35.156,0
1553636188.191,46.875,14.648,48.340,0.977,-14.648,0
1553636188.195,41.504,16.602,49.805,-0.488,16.602,0
1553636188.199,43.945,22.461,49.805,4.883,46.387,0
1553636188.203,40.039,21.973,45.410,0.488,48.340,0
1553636188.207,33.691,18.066,42.969,0.488,50.781,0
1553636188.211,30.273,9.277,40.527,-2.441,83.008,0
1553636188.215,30.762,10.254,41.504,-0.488,47.852,0
1553636188.219,33.691,15.625,44.922,3.418,61.035,0
1553636188.222,38.086,18.066,43.457,10.742,62.500,0
1553636188.226,43.945,22.461,42.969,15.137,28.809,0
1553636188.230,40.527,21.973,41.016,10.742,57.129,0
1553636188.234,39.062,18.555,44.922,7.324,59.570,0
1553636188.238,41.504,16.602,51.270,15.625,86.426,0
1553636188.242,39.551,19.531,48.340,20.508,114.746,0
1553636188.246,32.715,21.973,41.016,6.348,67.383,0
1553636188.250,40.527,22.461,38.574,0.000,-34.668,0
1553636188.254,40.039,21.973,41.992,-6.836,-67.383,0
1553636188.258,30.762,21.484,41.016,-10.742,8.301,0
1553636188.262,35.645,25.391,41.016,-7.812,91.797,0
1553636188.265,34.180,27.344,43.945,-6.836,36.133,0
1553636188.269,31.250,22.949,43.457,-3.906,-44.434,0
1553636188.273,32.715,20.020,41.504,-7.324,-25.391,0
1553636188.277,36.621,27.344,42.480,-2.441,34.668,0
1553636188.281,29.297,24.902,44.922,3.906,59.082,0
1553636188.285,28.809,20.996,46.387,-0.488,29.785,0
1553636188.289,38.574,21.973,42.480,-5.859,26.367,0
1553636188.293,38.574,20.996,41.016,-4.395,80.566,0
1553636188.297,26.855,21.973,41.992,-2.441,33.203,0
1553636188.301,24.414,21.484,40.039,-6.836,22.461,0
1553636188.304,23.926,18.066,42.480,-13.672,44.434,0
1553636188.308,22.949,17.578,40.039,-14.648,9.766,0
1553636188.312,33.691,25.879,36.133,-12.207,45.898,0
1553636188.316,42.480,32.227,36.621,-10.254,31.738,0
1553636188.320,36.133,28.320,38.574,-20.020,24.902,0
1553636188.324,29.297,21.973,37.598,-21.484,61.523,0
1553636188.328,31.738,20.508,33.691,-16.113,71.777,0
1553636188.332,33.691,24.902,36.133,-19.531,80.566,0
1553636188.336,31.250,24.414,39.062,-10.254,5.371,0
1553636188.340,24.414,21.484,36.133,-12.207,4.395,0
1553636188.344,16.602,20.020,34.180,-31.738,86.914,0
1553636188.347,20.508,23.438,37.109,-21.973,25.391,0
1553636188.351,30.273,25.879,38.574,-12.695,24.902,0
1553636188.355,23.438,16.602,37.109,-21.484,70.312,0
1553636188.359,21.973,17.090,37.598,-16.602,65.430,0
1553636188.363,21.973,19.531,39.551,-14.160,24.414,0
1553636188.367,21.484,18.555,41.504,-17.578,81.055,0
1553636188.371,15.625,19.043,39.551,-20.020,88.379,0
1553636188.375,14.160,22.949,40.039,-28.809,-19.043,0
1553636188.379,23.926,26.855,40.527,-27.344,-2.930,0
1553636188.383,16.602,28.320,41.504,-21.484,46.875,0
1553636188.387,11.230,21.484,40.039,-26.855,34.668,0
1553636188.390,18.066,20.508,35.156,-23.438,41.992,0
1553636188.394,23.438,22.949,33.691,-18.066,66.895,0
1553636188.398,21.484,21.484,40.527,-23.438,21.973,0
1553636188.402,25.391,24.902,43.945,-20.508,-12.207,0
1553636188.406,20.508,24.902,39.551,-22.949,36.621,0
1553636188.410,20.508,23.926,40.527,-22.461,73.242,0
1553636188.414,25.391,29.297,43.945,-17.578,0.977,0
1553636188.418,24.414,29.297,43.457,-15.625,-7.812,0
1553636188.422,25.391,24.902,41.504,-7.324,42.480,0
1553636188.426,18.066,22.461,41.504,-7.324,-0.488,0
1553636188.429,22.949,30.762,41.016,-10.254,20.508,0
1553636188.433,33.691,35.645,40.039,-10.742,68.848,0
1553636188.437,24.414,26.367,39.551,-12.207,85.449,0
1553636188.441,19.531,20.508,37.598,-15.137,22.949,0
1553636188.445,33.203,26.367,37.598,-16.113,32.715,0
1553636188.449,42.969,32.715,39.551,-9.277,31.250,0
1553636188.453,41.016,29.785,39.062,-10.254,20.996,0
1553636188.457,45.410,27.344,40.039,-9.766,39.062,0
1553636188.461,42.480,25.391,41.016,-9.766,-0.977,0
1553636188.465,37.598,25.879,41.992,-16.113,12.695,0
1553636188.469,39.062,32.227,39.062,-6.836,70.801,0
1553636188.472,29.785,27.344,37.598,6.348,45.898,0
1553636188.476,24.902,28.809,39.551,-2.441,-12.695,0
1553636188.480,32.715,33.203,37.598,-9.277,-27.832,0
1553636188.484,29.297,25.391,37.109,-9.766,1.953,0
1553636188.488,27.344,26.367,39.062,-6.836,44.434,0
1553636188.492,35.645,29.297,41.504,-3.418,46.387,0
1553636188.496,32.227,26.367,40.527,-4.883,32.715,0
1553636188.500,34.180,28.320,37.598,-3.418,32.227,0
1553636188.504,41.992,30.762,39.551,-0.977,28.809,0
1553636188.508,41.992,27.832,39.551,-6.836,12.207,0
1553636188.512,39.062,27.344,39.062,0.977,26.367,0
1553636188.515,43.457,30.273,41.016,2.930,6.348,0
1553636188.519,45.410,36.133,42.480,-2.930,17.090,0
1553636188.523,40.527,39.062,44.922,1.953,68.359,0
1553636188.527,43.457,26.367,41.016,1.465,91.797,0
1553636188.531,29.785,22.461,35.645,-7.324,53.711,0
1553636188.535,28.809,24.902,36.621,-6.836,27.344,0
1553636188.539,37.598,23.438,39.062,-5.859,31.738,0
1553636188.543,36.621,25.879,38.086,-5.859,18.066,0
1553636188.547,39.551,29.785,35.645,-3.906,28.320,0
1553636188.551,33.691,29.297,39.551,3.906,36.621,0
1553636188.554,30.273,24.414,42.969,3.906,48.340,0
1553636188.558,26.855,25.391,41.504,-0.977,96.191,0
1553636188.562,26.855,27.832,37.109,-3.418,102.539,0
1553636188.566,31.250,28.320,38.574,-2.441,67.383,0
1553636188.570,26.367,32.227,40.527,-7.812,33.691,0
1553636188.574,29.785,30.762,38.086,-12.695,46.875,0
1553636188.578,31.738,26.367,36.621,-11.230,73.242,0
1553636188.582,27.832,28.320,32.227,-7.324,69.336,0
1553636188.586,31.738,32.715,31.738,-6.348,19.043,0
1553636188.590,30.273,36.133,36.133,-9.766,17.578,0
1553636188.594,26.367,24.414,34.668,-7.812,25.879,0
1553636188.597,24.902,19.531,33.203,-10.254,0.000,0
1553636188.601,11.719,20.996,32.227,-13.672,-17.578,0
1553636188.605,14.160,20.508,30.273,-7.324,18.066,0
1553636188.609,24.414,22.461,32.715,-6.348,9.277,0
1553636188.613,20.508,23.926,35.645,-14.160,-21.973,0
1553636188.617,18.555,24.414,36.621,-10.254,33.203,0
1553636188.621,14.648,23.926,35.645,-4.395,45.410,0
1553636188.625,17.090,23.438,36.133,-7.812,-8.789,0
1553636188.629,22.949,21.973,35.156,-8.789,-12.207,0
1553636188.633,24.414,24.902,33.203,-11.230,18.555,0
1553636188.637,21.973,24.902,34.180,-12.207,-5.371,0
1553636188.640,18.066,24.902,38.574,-12.695,26.367,0
1553636188.644,20.020,30.762,39.062,-9.277,54.199,0
1553636188.648,15.625,32.227,37.109,-8.301,56.152,0
1553636188.652,18.066,28.320,38.574,-8.789,101.074,0
1553636188.656,20.020,22.949,39.551,-3.418,78.613,0
1553636188.660,14.648,19.531,36.621,-1.953,15.137,0
1553636188.664,20.508,20.996,33.691,-4.395,14.160,0
1553636188.668,22.949,28.320,38.086,-6.348,56.152,0
1553636188.672,19.531,34.180,39.551,-5.859,43.945,0
1553636188.676,17.090,26.367,34.668,-8.301,63.965,0
1553636188.679,16.113,20.508,35.156,-8.789,53.223,0
1553636188.683,13.672,23.926,30.273,-13.672,38.086,0
1553636188.687,14.160,24.414,27.344,-10.254,56.152,0
1553636188.691,14.160,26.855,30.273,-17.578,66.406,0
1553636188.695,10.742,28.809,25.391,-25.391,66.406,0
1553636188.699,12.695,25.391,26.855,-19.531,20.508,0
1553636188.703,15.625,27.344,32.227,-24.414,45.898,0
1553636188.707,13.672,26.367,28.809,-29.297,49.805,0
1553636188.711,13.672,21.973,28.320,-27.344,-1.465,0
1553636188.715,14.160,25.879,30.762,-23.438,27.832,0
1553636188.719,12.695,25.391,33.203,-19.531,48.828,0
1553636188.722,17.578,12.695,39.551,-12.695,21.973,0
1553636188.726,39.062,16.602,40.039,12.695,-17.090,0
1553636188.730,37.598,39.551,36.133,5.859,20.508,0
1553636188.734,18.066,39.062,26.855,-16.602,-2.930,0
1553636188.738,9.277,29.297,17.090,-30.762,-4.395,0
1553636188.742,13.184,36.133,13.184,-38.574,63.965,0
1553636188.746,19.043,38.574,14.648,-30.762,26.855,0
1553636188.750,16.602,35.645,15.625,-27.344,-20.508,0
1553636188.754,11.230,35.156,15.625,-29.785,-6.836,0
1553636188.758,6.348,31.738,19.043,-33.203,62.012,0
1553636188.762,0.488,34.180,21.484,-26.367,44.434,0
1553636188.765,8.789,31.250,24.414,-23.926,-17.578,0
1553636188.769,20.020,20.508,21.484,-26.367,-16.602,0
1553636188.773,19.531,29.297,20.020,-33.203,-13.184,0
1553636188.777,15.625,34.668,27.344,-28.809,-28.809,0
1553636188.781,16.602,25.391,28.320,-25.879,8.789,0
1553636188.785,19.531,26.367,22.461,-29.785,40.527,0
1553636188.789,18.066,26.855,23.926,-16.113,27.344,0
1553636188.793,21.484,26.855,29.785,-15.625,20.996,0
1553636188.797,20.996,24.414,32.715,-25.391,44.434,0
1553636188.801,21.973,32.227,32.715,-18.555,51.758,0
1553636188.804,13.672,30.762,31.250,-21.973,35.156,0
1553636188.808,13.184,22.461,32.715,-25.879,52.246,0
1553636188.812,32.715,30.273,33.203,-14.648,39.062,0
1553636188.816,32.227,33.203,33.691,-19.531,25.879,0
1553636188.820,21.484,33.691,32.227,-23.438,56.152,0
1553636188.824,20.508,28.809,31.250,-17.578,35.645,0
1553636188.828,18.555,21.973,31.738,-24.414,73.730,0
1553636188.832,21.973,23.438,31.250,-22.949,73.730,0
1553636188.836,23.926,30.762,31.738,-14.648,11.719,0
1553636188.840,28.320,27.832,28.809,-20.508,77.148,0
1553636188.844,33.203,24.902,29.297,-18.066,73.242,0
1553636188.847,26.855,30.273,32.227,-8.789,48.828,0
1553636188.851,23.926,31.738,29.785,-8.301,85.938,0
1553636188.855,25.391,27.832,30.273,-12.695,83.984,0
1553636188.859,27.832,30.762,35.645,-14.648,80.566,0
1553636188.863,17.578,28.320,35.156,-16.113,30.762,0
1553636188.867,16.602,20.020,33.203,-21.973,32.227,0
1553636188.871,27.344,22.461,38.086,-16.602,12.207,0
1553636188.875,24.414,25.879,36.621,-15.137,42.969,0
1553636188.879,17.090,22.949,27.832,-16.113,54.688,0
1553636188.883,17.090,25.391,35.156,-5.371,47.363,0
1553636188.887,13.184,22.949,42.480,-12.207,70.312,0
1553636188.890,12.695,17.578,38.086,-13.184,4.883,0
1553636188.894,17.578,22.949,39.062,-14.160,24.902,0
1553636188.898,17.578,24.414,39.551,-21.973,73.242,0
1553636188.902,19.043,22.461,40.039,-19.043,67.383,0
1553636188.906,19.531,20.996,38.086,-17.090,35.645,0
1553636188.910,21.973,22.949,33.691,-16.602,38.574,0
1553636188.914,20.996,26.855,36.621,-10.254,32.227,0
1553636188.918,24.414,27.344,41.016,-6.348,18.555,0
1553636188.922,27.344,32.227,39.551,-8.301,61.523,0
1553636188.926,17.090,24.414,37.598,-9.766,87.891,0
1553636188.929,19.043,18.066,38.086,-11.230,30.273,0
1553636188.933,21.973,24.414,40.039,-14.648,-4.395,0
1553636188.937,24.414,26.855,39.551,-15.137,59.570,0
1553636188.941,27.832,26.855,39.062,-3.906,45.410,0
1553636188.945,23.926,22.461,38.086,-9.277,-4.395,0
1553636188.949,25.879,26.855,37.109,-23.438,-28.809,0
1553636188.953,39.551,33.691,38.574,-16.113,-0.488,0
1553636188.957,49.805,34.668,40.039,-6.348,16.602,0
1553636188.961,44.434,31.738,42.480,-9.277,10.254,0
1553636188.965,40.527,28.809,43.945,-12.207,35.645,0
1553636188.969,35.645,28.809,39.062,-5.859,38.086,0
1553636188.972,31.738,28.320,37.598,1.465,80.078,0
1553636188.976,40.039,32.715,42.480,10.742,45.898,0
1553636188.980,34.180,30.762,44.922,6.348,0.000,0
1553636188.984,30.273,26.367,40.527,-5.859,18.555,0
1553636188.988,37.598,27.832,37.109,-1.465,23.438,0
1553636188.992,35.645,24.414,41.992,4.395,7.324,0
1553636188.996,31.250,23.926,41.992,0.977,-5.859,0
1553636189.000,32.227,28.320,40.527,5.371,4.395,0
1553636189.004,30.273,25.391,40.039,7.324,-13.184,0
1553636189.008,33.691,21.484,39.551,-1.953,-11.719,0
1553636189.012,37.109,20.996,40.527,-1.465,38.086,0
1553636189.015,30.273,21.973,44.922,3.418,44.922,0
1553636189.019,21.973,21.484,47.852,0.000,45.898,0
1553636189.023,25.391,21.973,43.945,-6.836,60.059,0
1553636189.027,33.203,26.367,41.504,-10.742,78.613,0
1553636189.031,37.109,21.973,42.480,-1.465,68.848,0
1553636189.035,33.203,26.367,43.945,-1.465,62.988,0
1553636189.039,28.809,26.855,44.922,-2.441,18.555,0
1553636189.043,32.715,25.879,44.434,1.953,23.438,0
1553636189.047,34.180,28.809,40.527,-2.441,88.379,0
1553636189.051,34.180,20.508,41.016,5.859,20.020,0
1553636189.054,28.809,19.043,42.480,16.113,-6.348,0
1553636189.058,18.066,23.438,45.898,7.324,6.348,0
1553636189.062,29.297,24.902,46.875,4.883,44.434,0
1553636189.066,26.367,22.461,43.945,-1.953,79.102,0
1553636189.070,21.973,29.785,43.457,-7.812,83.008,0
1553636189.074,40.039,27.832,43.945,6.836,111.816,0
1553636189.078,36.133,20.996,43.457,6.348,43.945,0
1553636189.082,36.621,26.367,41.504,-2.930,4.883,0
1553636189.086,46.387,28.809,42.969,-4.395,71.289,0
1553636189.090,38.086,29.785,41.016,-13.672,25.879,0
1553636189.094,37.598,29.297,40.039,-15.137,-8.789,0
1553636189.097,38.574,32.715,42.969,-10.742,40.527,0
1553636189.101,25.879,27.344,41.992,-4.883,20.508,0
1553636189.105,25.879,19.531,41.504,-2.441,41.992,0
1553636189.109,28.809,21.484,40.039,-6.836,16.113,0
1553636189.113,26.855,21.973,42.969,-3.418,21.484,0
1553636189.117,23.926,22.949,47.363,-9.277,75.684,0
1553636189.121,29.297,24.414,46.387,-6.348,33.203,0
1553636189.125,26.367,26.855,46.387,2.930,41.016,0
1553636189.129,31.250,29.297,47.363,-1.465,29.785,0
1553636189.133,38.086,26.367,48.828,1.465,-33.203,0
1553636189.137,29.785,22.461,47.852,5.371,-29.297,0
1553636189.140,33.203,25.391,43.945,-2.441,4.883,0
1553636189.144,35.156,30.762,43.457,-10.742,20.020,0
1553636189.148,24.902,23.438,47.363,-2.930,42.480,0
1553636189.152,23.438,19.043,48.828,0.000,93.750,0
1553636189.156,31.738,32.715,47.852,-3.418,72.754,0
1553636189.160,39.551,35.156,50.293,5.371,68.359,0
1553636189.164,34.668,30.762,51.758,7.324,101.074,0
1553636189.168,27.832,27.832,48.828,1.465,65.918,0
1553636189.172,32.227,22.461,46.875,3.906,28.320,0
1553636189.176,38.086,25.391,47.852,0.977,19.043,0
1553636189.179,30.273,26.855,43.457,-5.371,19.531,0
1553636189.183,21.973,28.320,39.551,-3.906,45.410,0
1553636189.187,30.762,29.297,42.969,0.977,42.969,0
1553636189.191,26.855,26.367,42.480,-5.371,25.391,0
1553636189.195,16.113,21.484,42.969,-8.789,37.109,0
1553636189.199,26.367,22.461,42.969,-7.324,66.406,0
1553636189.203,23.926,24.414,42.480,-6.836,52.734,0
1553636189.207,20.020,26.855,43.945,-7.324,28.320,0
1553636189.211,30.762,31.250,41.992,-13.672,39.062,0
1553636189.215,24.414,25.879,42.480,-8.789,-9.766,0
1553636189.219,25.879,24.902,46.387,10.742,21.973,0
1553636189.222,29.297,24.414,47.852,5.371,51.270,0
1553636189.226,20.020,21.484,45.898,-8.301,-12.695,0
1553636189.230,22.949,21.973,42.969,-7.324,33.691,0
1553636189.234,24.414,23.926,42.969,-9.766,77.637,0
1553636189.238,23.926,24.902,41.016,-9.766,-20.020,0
1553636189.242,18.555,22.949,35.645,-11.230,-12.207,0
1553636189.246,20.508,24.902,39.062,-11.230,41.992,0
1553636189.250,22.949,26.367,43.457,-8.789,39.062,0
1553636189.254,21.973,26.367,42.480,-1.953,19.531,0
1553636189.258,24.414,27.832,43.945,-2.441,20.996,0
1553636189.262,24.902,30.273,44.922,-2.930,-7.324,0
1553636189.265,28.809,37.598,41.504,4.395,-3.906,0
1553636189.269,27.344,33.203,41.504,1.953,11.719,0
1553636189.273,28.320,24.902,44.434,8.301,-20.020,0
1553636189.277,36.621,31.250,43.945,20.020,-2.441,0
1553636189.281,30.273,30.762,43.945,18.555,40.527,0
1553636189.285,32.227,25.879,40.527,20.996,-6.348,0
1553636189.289,35.156,26.855,36.621,23.438,-36.133,0
1553636189.293,30.273,30.762,40.039,8.301,46.387,0
1553636189.297,25.879,28.320,43.945,0.977,75.684,0
1553636189.301,28.320,30.762,40.527,11.719,43.945,0
1553636189.304,37.598,35.156,38.086,10.254,48.340,0
1553636189.308,34.668,29.297,41.992,1.953,32.715,0
1553636189.312,26.855,27.344,39.551,5.859,37.598,0
1553636189.316,24.902,26.855,39.551,16.113,71.289,0
1553636189.320,24.902,28.809,42.969,13.672,44.922,0
1553636189.324,22.461,28.320,39.062,8.301,51.758,0
1553636189.328,25.391,29.785,38.574,15.625,51.758,0
1553636189.332,32.227,28.320,37.598,9.766,46.875,0
1553636189.336,37.109,27.344,34.180,12.207,94.727,0
1553636189.340,30.762,29.785,36.133,14.648,65.430,0
1553636189.344,23.438,29.297,41.992,4.395,20.020,0
1553636189.347,22.949,30.273,41.016,5.371,19.531,0
1553636189.351,26.855,24.414,37.598,8.301,35.645,0
1553636189.355,27.832,19.531,39.551,11.230,39.551,0
1553636189.359,12.695,22.949,39.062,15.137,33.691,0
1553636189.363,17.578,24.902,35.645,17.090,47.363,0
1553636189.367,27.832,26.367,35.156,13.184,48.828,0
1553636189.371,25.391,30.762,36.621,6.836,69.824,0
1553636189.375,27.832,33.691,35.645,2.930,46.387,0
1553636189.379,21.973,29.785,32.715,3.418,39.062,0
1553636189.383,22.949,27.344,36.621,7.324,38.086,0
1553636189.387,28.320,31.738,37.598,7.324,12.207,0
1553636189.390,27.344,28.809,35.156,12.207,-6.836,0
1553636189.394,25.879,27.832,37.109,12.207,56.641,0
1553636189.398,26.367,28.320,34.668,0.977,69.336,0
1553636189.402,27.832,29.297,32.715,3.418,54.199,0
1553636189.406,22.949,27.832,34.180,7.812,60.059,0
1553636189.410,16.602,23.926,37.109,2.441,19.531,0
1553636189.414,17.090,24.414,37.109,0.000,40.039,0
1553636189.418,18.555,27.344,33.691,-3.906,38.574,0
1553636189.422,27.832,32.715,37.598,5.859,-30.273,0
1553636189.426,33.691,34.180,39.551,9.766,-5.371,0
1553636189.429,26.367,26.367,37.109,2.441,56.641,0
1553636189.433,27.344,22.949,36.621,-3.906,40.039,0
1553636189.437,31.738,26.367,36.621,3.418,53.223,0
1553636189.441,25.879,27.832,37.109,5.371,46.387,0
1553636189.445,24.414,29.297,38.574,-1.953,57.617,0
1553636189.449,28.320,30.762,36.133,-8.789,53.711,0
1553636189.453,28.809,33.203,36.133,-10.742,19.043,0
1553636189.457,31.250,37.109,38.574,-4.395,3.906,0
1553636189.461,32.227,35.156,34.668,-4.395,-22.461,0
1553636189.465,35.645,32.227,34.180,2.930,-34.668,0
1553636189.469,33.203,33.691,35.156,4.883,7.324,0
1553636189.472,32.227,32.227,34.180,0.488,17.578,0
1553636189.476,30.273,34.668,33.203,-6.348,46.875,0
1553636189.480,26.367,33.203,31.250,-1.465,55.664,0
1553636189.484,26.367,27.344,34.668,0.977,30.762,0
1553636189.488,22.461,30.762,38.574,-11.719,56.152,0
1553636189.492,23.438,36.621,38.574,-7.324,32.227,0
1553636189.496,15.625,27.832,37.109,-2.441,47.852,0
1553636189.500,13.672,23.926,35.645,-1.465,99.121,0
1553636189.504,18.555,27.832,34.668,-0.488,46.387,0
1553636189.508,11.230,25.879,31.738,-11.719,39.062,0
1553636189.512,12.207,28.320,25.879,-9.766,79.590,0
1553636189.515,23.926,25.391,30.762,-7.812,33.691,0
1553636189.519,25.391,32.715,40.039,-9.766,64.941,0
1553636189.523,19.531,35.156,38.086,-7.812,84.961,0
1553636189.527,20.508,24.902,36.133,-5.371,15.137,0
1553636189.531,19.531,23.926,38.574,1.953,-13.672,0
1553636189.535,15.137,21.973,37.109,-0.977,28.809,0
1553636189.539,13.672,26.855,35.645,-0.488,81.543,0
1553636189.543,17.090,27.344,38.086,2.441,55.176,0
1553636189.547,20.508,24.902,39.551,-4.395,18.066,0
1553636189.551,25.879,33.203,34.180,-8.789,20.020,0
1553636189.554,29.785,37.598,31.250,-5.371,17.578,0
1553636189.558,29.297,30.273,34.180,4.883,38.574,0
1553636189.562,25.391,26.855,35.156,-2.441,72.754,0
1553636189.566,29.297,27.832,36.621,-1.953,6.836,0
1553636189.570,28.320,31.250,40.039,-0.488,9.766,0
1553636189.574,31.250,28.809,40.039,0.000,37.109,0
1553636189.578,31.738,28.320,35.156,5.371,-15.137,0
1553636189.582,26.367,39.551,40.039,0.000,14.160,0
1553636189.586,34.668,32.715,43.945,3.906,62.500,0
1553636189.590,23.926,21.973,40.039,4.883,41.016,0
1553636189.594,13.672,25.879,39.062,4.395,52.734,0
1553636189.597,13.184,25.391,40.527,1.953,78.125,0
1553636189.601,12.207,21.973,39.062,0.977,91.797,0
1553636189.605,16.602,23.438,37.109,-2.930,76.660,0
1553636189.609,20.996,27.832,35.645,-2.930,21.973,0
1553636189.613,18.066,26.855,37.109,2.441,38.086,0
1553636189.617,20.020,26.855,40.527,-4.395,30.273,0
1553636189.621,19.043,24.902,39.551,-7.812,-10.254,0
1553636189.625,17.090,24.902,41.504,-9.277,39.062,0
1553636189.629,20.996,25.879,42.480,-8.301,48.828,0
1553636189.633,20.996,22.461,38.574,-5.859,33.691,0
1553636189.637,16.602,24.414,37.598,-7.324,47.363,0
1553636189.640,16.602,27.832,37.598,-5.371,74.707,0
1553636189.644,24.902,27.344,35.156,-4.395,78.125,0
1553636189.648,19.043,26.855,36.133,-2.441,12.207,0
1553636189.652,12.207,24.414,34.668,5.859,-7.812,0
1553636189.656,24.902,30.273,33.203,6.348,72.754,0
1553636189.660,25.879,29.785,34.668,2.441,74.219,0
1553636189.664,21.973,21.484,34.180,4.395,36.133,0
1553636189.668,21.484,19.531,32.715,0.977,6.836,0
1553636189.672,22.461,22.461,35.645,-9.766,-4.883,0
1553636189.676,29.785,24.902,39.062,-10.742,59.570,0
1553636189.679,26.855,25.391,39.062,4.395,85.449,0
1553636189.683,20.020,31.738,38.574,2.930,52.734,0
1553636189.687,17.578,31.738,39.551,4.395,0.488,0
1553636189.691,14.648,23.926,31.738,8.301,-5.371,0
1553636189.695,20.508,25.879,26.855,12.695,15.137,0
1553636189.699,24.414,25.879,34.668,13.184,39.062,0
1553636189.703,21.484,25.879,38.574,-5.371,58.594,0
1553636189.707,24.414,23.926,37.109,-0.977,54.688,0
1553636189.711,14.160,29.297,37.109,3.906,21.973,0
1553636189.715,16.113,32.715,41.016,3.906,20.508,0
1553636189.719,25.879,20.020,42.969,-1.465,42.480,0
1553636189.722,25.879,22.949,41.992,-8.789,67.871,0
1553636189.726,19.531,26.855,39.551,2.930,28.809,0
1553636189.730,18.555,24.414,37.109,-1.465,26.367,0
1553636189.734,21.973,23.438,35.645,-10.742,34.668,0
1553636189.738,20.508,31.738,37.598,-8.301,45.410,0
1553636189.742,22.461,32.715,38.574,-11.719,79.590,0
1553636189.746,24.414,26.855,35.156,-16.113,78.613,0
1553636189.750,23.926,27.344,35.645,-7.324,34.668,0
1553636189.754,20.020,22.949,39.062,-1.953,-9.277,0
1553636189.758,17.090,23.438,40.039,-8.301,-39.062,0
1553636189.762,23.926,28.320,38.574,-2.930,-57.129,0
1553636189.765,22.461,25.391,37.598,-4.395,1.465,0
1553636189.769,20.508,25.391,38.574,-12.207,40.039,0
1553636189.773,22.949,27.344,38.086,-8.789,63.965,0
1553636189.777,21.973,27.344,40.039,-8.789,13.672,0
1553636189.781,22.461,27.832,38.086,-14.160,12.695,0
1553636189.785,10.742,29.297,40.039,-12.207,22.461,0
1553636189.789,14.648,28.809,40.527,-8.789,61.035,0
1553636189.793,32.227,33.203,37.109,-2.441,61.523,0
1553636189.797,18.555,27.832,37.598,0.488,-61.035,0
1553636189.801,11.230,27.832,36.621,-11.719,-56.152,0
1553636189.804,26.367,31.738,33.691,-14.648,40.039,0
1553636189.808,26.367,19.043,39.551,-10.742,42.969,0
1553636189.812,24.902,22.949,42.480,-3.906,74.219,0
1553636189.816,29.785,25.391,39.062,-7.812,115.234,0
1553636189.820,39.062,29.297,37.109,-14.160,48.340,0
1553636189.824,35.645,30.273,37.598,-7.324,56.152,0
1553636189.828,23.926,23.926,39.551,-4.883,66.406,0
1553636189.832,28.320,24.902,35.645,-7.324,27.344,0
1553636189.836,32.227,25.391,31.738,-9.277,28.320,0
1553636189.840,30.273,25.391,37.109,-4.883,36.133,0
1553636189.844,18.555,27.344,36.133,-5.371,49.805,0
1553636189.847,17.090,27.344,38.086,-7.812,56.641,0
1553636189.851,25.391,30.273,40.527,-3.418,73.242,0
1553636189.855,28.320,32.227,38.574,-10.254,37.109,0
1553636189.859,16.113,33.691,38.574,-14.160,42.969,0
1553636189.863,12.207,31.250,38.086,-4.395,68.848,0
1553636189.867,24.902,25.879,36.133,-4.395,52.734,0
1553636189.871,25.879,22.461,35.156,-11.230,32.227,0
1553636189.875,17.090,20.020,37.598,-10.742,60.547,0
1553636189.879,19.531,23.926,39.551,-4.883,36.133,0
1553636189.883,23.926,28.320,36.621,-2.441,25.391,0
1553636189.887,24.902,28.320,37.109,3.418,47.852,0
1553636189.890,26.855,27.344,42.969,3.418,22.461,0
1553636189.894,32.227,28.809,39.062,-6.348,23.926,0
1553636189.898,32.227,25.391,37.109,-11.230,0.977,0
1553636189.902,22.949,22.949,37.598,-18.555,36.621,0
1553636189.906,23.438,24.414,38.086,-8.301,52.734,0
1553636189.910,31.250,26.367,36.621,-0.977,50.293,0
1553636189.914,23.438,25.879,38.086,-14.648,61.035,0
1553636189.918,28.320,22.949,42.969,-8.789,37.598,0
1553636189.922,34.668,22.461,42.480,6.348,20.996,0
1553636189.926,21.484,22.461,42.969,-3.418,15.137,0
1553636189.929,26.855,24.902,45.410,-1.953,26.855,0
1553636189.933,28.320,23.438,44.434,-0.977,20.508,0
1553636189.937,24.902,25.879,43.457,-12.207,7.812,0
1553636189.941,28.320,28.809,42.969,-12.207,29.785,0
1553636189.945,27.832,20.508,41.504,-8.301,30.273,0
1553636189.949,14.648,23.438,40.527,-10.742,-0.977,0
1553636189.953,17.090,31.738,41.504,-15.625,-10.254,0
1553636189.957,23.438,20.508,41.992,-6.836,-13.184,0
1553636189.961,22.461,19.043,38.086,-12.695,-15.625,0
1553636189.965,23.438,23.438,36.133,-22.949,-13.184,0
1553636189.969,20.508,20.996,37.109,-13.184,37.109,0
1553636189.972,12.695,20.020,37.598,-11.719,67.871,0
1553636189.976,10.742,23.438,39.062,-16.602,34.180,0
1553636189.980,21.973,28.809,38.086,-11.230,6.348,0
1553636189.984,22.949,29.297,38.574,-14.648,54.199,0
1553636189.988,17.090,27.344,39.551,-25.391,100.098,0
1553636189.992,21.484,26.855,40.527,-12.207,104.492,0
1553636189.996,22.949,29.785,39.551,-4.883,80.566,0
1553636190.000,17.090,29.297,36.621,-10.742,-15.137,0
1553636190.004,11.230,23.926,40.039,-2.441,-25.879,0
1553636190.008,19.531,22.461,42.969,1.465,22.949,0
1553636190.012,30.762,25.879,41.016,-0.977,-22.461,0
1553636190.015,31.250,32.227,37.109,-7.324,-14.648,0
1553636190.019,28.320,34.180,37.109,-13.184,38.086,0
1553636190.023,24.902,27.832,40.039,0.977,-1.953,0
1553636190.027,22.461,26.367,40.039,2.441,-5.371,0
1553636190.031,18.066,25.879,38.086,-16.113,70.312,0
1553636190.035,20.020,35.156,42.480,-10.254,69.336,0
1553636190.039,20.996,36.133,44.922,0.977,35.156,0
1553636190.043,17.578,22.949,41.016,-7.324,15.137,0
1553636190.047,20.508,22.461,37.598,-10.254,49.316,0
1553636190.051,30.273,24.902,38.086,-2.930,110.352,0
1553636190.054,31.250,27.344,39.551,-5.859,104.004,0
1553636190.058,26.367,29.297,34.180,-8.789,74.707,0
1553636190.062,31.250,28.809,35.156,-2.441,50.293,0
1553636190.066,27.832,27.832,39.551,-4.883,47.852,0
1553636190.070,23.926,27.832,39.062,-5.859,86.914,0
1553636190.074,25.391,27.832,40.527,4.883,78.125,0
1553636190.078,23.926,28.809,40.039,8.789,20.996,0
1553636190.082,28.320,28.320,42.480,15.625,16.602,0
1553636190.086,30.273,25.391,42.969,12.207,28.809,0
1553636190.090,36.133,26.367,42.480,3.418,-6.836,0
1553636190.094,33.203,28.809,41.504,3.418,44.434,0
1553636190.097,30.762,31.250,38.574,-2.441,82.031,0
1553636190.101,29.785,30.762,40.039,-10.254,27.832,0
1553636190.105,26.855,23.926,41.504,4.395,19.531,0
1553636190.109,31.250,25.391,39.062,14.160,1.953,0
1553636190.113,28.809,29.785,37.109,7.324,-17.578,0
1553636190.117,29.785,34.180,37.598,2.930,36.133,0
1553636190.121,25.879,27.832,40.039,0.977,56.152,0
1553636190.125,24.902,21.973,39.062,10.742,51.758,0
1553636190.129,36.133,32.227,36.133,12.207,66.895,0
1553636190.133,33.203,32.715,38.086,4.883,42.480,0
1553636190.137,31.738,26.855,37.598,7.812,11.230,0
1553636190.140,28.809,24.902,37.598,5.371,-21.484,0
1553636190.144,23.926,26.367,36.621,2.930,-47.363,0
1553636190.148,31.250,29.297,37.109,10.254,-24.414,0
1553636190.152,34.180,29.785,41.016,14.160,23.438,0
1553636190.156,25.879,29.297,38.086,12.207,52.246,0
1553636190.160,29.297,28.320,38.574,14.160,35.645,0
1553636190.164,36.133,31.250,41.992,17.090,77.148,0
1553636190.168,24.902,27.832,40.527,18.066,71.289,0
1553636190.172,24.902,23.926,39.062,15.625,53.223,0
1553636190.176,29.785,24.902,40.039,3.906,75.195,0
1553636190.179,23.926,24.414,38.086,-1.465,13.184,0
1553636190.183,25.391,27.344,33.691,0.000,26.367,0
1553636190.187,35.156,30.762,30.762,4.395,43.945,0
1553636190.191,36.621,27.832,38.574,9.766,40.527,0
1553636190.195,33.203,24.902,43.457,0.977,92.285,0
1553636190.199,24.902,20.996,40.039,0.977,113.281,0
1553636190.203,25.879,20.020,41.504,6.348,85.938,0
1553636190.207,30.762,26.855,41.016,0.000,30.762,0
1553636190.211,33.203,27.832,40.039,1.953,20.996,0
1553636190.215,30.273,23.926,42.480,4.395,114.258,0
1553636190.219,24.902,20.508,40.039,-3.418,121.094,0
1553636190.222,28.320,21.484,40.527,2.930,56.152,0
1553636190.226,29.785,21.973,41.016,9.766,86.426,0
1553636190.230,35.645,22.461,37.598,9.277,56.152,0
1553636190.234,35.156,26.855,39.551,1.465,23.438,0
1553636190.238,27.344,26.367,41.992,-0.488,57.129,0
1553636190.242,32.227,25.391,41.504,5.859,78.125,0
1553636190.246,39.062,28.320,44.434,14.648,53.711,0
1553636190.250,42.969,33.203,45.410,13.184,89.844,0
1553636190.254,39.551,32.715,42.969,-3.418,80.078,0
1553636190.258,27.832,27.832,43.457,4.883,5.859,0
1553636190.262,27.832,26.367,44.434,10.254,-3.906,0
1553636190.265,25.391,30.273,46.875,3.906,-24.414,0
1553636190.269,25.879,26.367,46.875,8.789,-10.742,0
1553636190.273,30.762,28.809,47.363,9.277,83.496,0
1553636190.277,27.344,31.738,45.410,4.883,96.680,0
1553636190.281,22.949,20.996,43.945,-1.953,-8.301,0
1553636190.285,28.809,22.461,44.922,-7.812,20.020,0
1553636190.289,34.180,25.879,43.945,-2.441,51.758,0
1553636190.293,34.668,27.832,47.363,2.930,-25.879,0
1553636190.297,21.973,24.414,48.340,-4.883,-15.625,0
1553636190.301,34.668,10.254,43.945,13.184,-15.137,0
1553636190.304,68.848,24.414,51.758,48.828,-20.996,0
1553636190.308,28.809,35.156,46.875,14.648,-14.648,0
1553636190.312,-3.418,36.621,49.316,-21.484,-16.113,0
1553636190.316,-19.043,42.969,50.293,-40.527,24.414,0
1553636190.320,-42.969,36.621,28.320,-62.500,-3.418,0
1553636190.324,-42.969,44.434,44.434,-63.965,4.395,0
1553636190.328,-68.359,53.711,46.875,-105.957,71.777,0
1553636190.332,-105.957,56.641,20.508,-153.320,79.590,0
1553636190.336,-126.953,55.176,17.090,-156.250,44.922,0
1553636190.340,-121.582,56.641,29.785,-154.785,16.113,0
1553636190.344,-127.441,66.406,42.969,-167.480,41.016,0
1553636190.347,-180.664,64.453,31.250,-214.844,36.133,0
1553636190.351,-198.242,69.336,15.137,-242.188,30.762,0
1553636190.355,-180.176,80.078,20.020,-225.098,32.227,0
1553636190.359,-191.895,70.312,26.367,-235.352,-20.996,0
1553636190.363,-219.727,63.965,31.738,-258.789,-7.812,0
1553636190.367,-232.422,66.895,28.809,-266.602,30.273,0
1553636190.371,-221.191,72.754,20.996,-266.113,76.172,0
1553636190.375,-214.355,79.590,17.578,-276.855,87.402,0
1553636190.379,-228.027,79.102,4.883,-298.828,20.508,0
1553636190.383,-216.309,81.543,2.930,-285.645,25.879,0
1553636190.387,-207.520,81.543,5.371,-281.250,72.266,0
1553636190.390,-213.379,78.613,-1.953,-282.715,14.160,0
1553636190.394,-204.102,79.102,-4.395,-271.973,14.160,0
1553636190.398,-202.637,76.172,-4.395,-274.902,43.457,0
1553636190.402,-193.848,70.801,-10.742,-268.066,-44.922,0
1553636190.406,-181.152,75.195,-14.160,-254.395,13.184,0
1553636190.410,-181.152,76.172,-18.066,-260.742,48.340,0
1553636190.414,-167.480,68.359,-20.020,-245.605,7.812,0
1553636190.418,-153.809,67.871,-24.902,-225.586,31.738,0
1553636190.422,-147.461,70.312,-33.691,-229.492,23.438,0
1553636190.426,-127.441,69.336,-33.203,-220.215,9.277,0
1553636190.429,-118.164,68.848,-29.297,-204.102,-4.883,0
1553636190.433,-110.840,65.918,-33.203,-201.172,-1.465,0
1553636190.437,-88.379,67.871,-35.645,-193.359,19.531,0
1553636190.441,-79.590,68.848,-38.086,-187.012,2.930,0
1553636190.445,-65.918,64.453,-42.969,-169.434,20.020,0
1553636190.449,-48.340,65.918,-40.039,-134.277,-0.488,0
1553636190.453,-42.969,62.012,-32.227,-120.605,47.852,0
1553636190.457,-36.621,52.734,-27.344,-113.281,49.805,0
1553636190.461,-22.949,49.805,-24.902,-101.562,-6.836,0
1553636190.465,-15.625,44.922,-20.020,-96.191,33.203,0
1553636190.469,-17.578,32.715,-16.602,-81.543,27.832,0
1553636190.472,-11.719,36.621,-22.461,-75.195,49.805,0
1553636190.476,-1.465,46.875,-14.648,-66.895,94.727,0
1553636190.480,12.695,34.180,-10.742,-50.293,77.637,0
1553636190.484,15.137,28.809,-30.273,-30.273,45.898,0
1553636190.488,11.230,32.715,-23.926,-31.250,48.340,0
1553636190.492,19.043,31.250,2.930,-33.203,3.418,0
1553636190.496,28.320,26.367,3.418,-20.508,-41.504,0
1553636190.500,34.668,21.973,-2.930,-6.836,37.598,0
1553636190.504,57.129,6.836,10.254,9.766,56.152,0
1553636190.508,72.754,1.465,11.719,11.230,-7.812,0
1553636190.512,58.594,22.949,8.789,8.789,20.996,0
1553636190.515,59.082,39.551,10.254,9.277,63.965,0
1553636190.519,75.195,35.156,4.883,24.414,50.293,0
1553636190.523,70.801,21.973,8.301,23.926,4.395,0
1553636190.527,68.848,24.414,24.414,23.438,-9.766,0
1553636190.531,78.125,22.461,27.832,27.344,1.953,0
1553636190.535,75.195,21.484,22.949,33.203,31.738,0
1553636190.539,77.148,19.043,14.648,37.109,53.223,0
1553636190.543,81.055,10.742,13.184,32.715,3.418,0
1553636190.547,91.309,7.812,28.809,37.598,-29.785,0
1553636190.551,102.539,6.348,35.156,49.316,39.062,0
1553636190.554,108.887,17.578,33.691,55.664,54.199,0
1553636190.558,114.258,23.438,32.227,62.988,79.590,0
1553636190.562,114.258,20.508,33.203,70.312,113.281,0
1553636190.566,106.445,14.648,32.715,66.406,52.246,0
1553636190.570,105.469,7.324,28.809,72.266,32.227,0
1553636190.574,117.676,10.742,29.297,83.984,-14.160,0
1553636190.578,112.793,18.555,33.691,68.848,11.230,0
1553636190.582,96.191,20.020,29.297,52.246,35.645,0
1553636190.586,103.516,10.254,28.809,69.336,79.590,0
1553636190.590,121.582,0.488,40.527,71.777,67.383,0
1553636190.594,115.723,1.465,39.551,69.336,11.719,0
1553636190.597,107.910,0.977,35.156,68.848,1.953,0
1553636190.601,112.793,12.695,34.180,68.359,28.320,0
1553636190.605,102.539,11.230,35.156,76.172,-20.508,0
1553636190.609,100.098,6.836,37.598,63.477,-34.180,0
1553636190.613,111.816,10.742,36.621,64.453,55.176,0
1553636190.617,112.305,8.301,36.133,71.777,57.617,0
1553636190.621,106.934,7.324,37.109,58.594,60.059,0
1553636190.625,103.027,10.254,41.992,56.641,31.738,0
1553636190.629,102.051,10.254,44.434,64.941,-20.020,0
1553636190.633,98.145,7.324,40.527,52.246,53.223,0
1553636190.637,83.984,6.348,39.551,52.734,105.469,0
1553636190.640,94.727,11.719,44.434,60.547,-0.977,0
1553636190.644,98.145,14.160,47.363,56.152,-43.945,0
1553636190.648,86.914,13.184,43.457,57.617,41.016,0
1553636190.652,98.633,22.461,38.574,51.758,65.918,0
1553636190.656,94.238,17.090,36.133,40.527,63.477,0
1553636190.660,80.078,4.395,36.621,32.227,51.758,0
1553636190.664,80.078,11.230,40.527,36.621,62.012,0
1553636190.668,82.520,19.043,41.992,38.086,23.438,0
1553636190.672,77.637,15.137,40.039,32.227,1.465,0
1553636190.676,73.730,8.789,43.457,41.016,28.320,0
1553636190.679,74.707,10.254,46.387,46.387,66.895,0
1553636190.683,72.754,11.230,45.898,45.410,55.664,0
1553636190.687,64.453,11.719,49.805,41.504,67.871,0
1553636190.691,51.758,14.160,49.805,34.668,79.590,0
1553636190.695,61.523,18.066,48.828,38.086,45.410,0
1553636190.699,57.129,13.672,50.781,33.691,33.691,0
1553636190.703,39.551,11.230,51.270,22.949,0.977,0
1553636190.707,47.363,15.625,51.758,20.508,49.316,0
1553636190.711,51.270,17.578,51.758,17.578,114.746,0
1553636190.715,37.598,17.090,50.781,20.508,74.219,0
1553636190.719,34.180,20.508,48.828,14.648,35.156,0
1553636190.722,36.133,23.438,46.387,8.789,-8.789,0
1553636190.726,39.551,18.066,45.898,10.254,43.945,0
1553636190.730,41.504,14.648,48.340,15.137,64.941,0
1553636190.734,33.203,16.113,46.387,13.672,-4.883,0
1553636190.738,42.480,18.066,42.969,20.020,-7.812,0
1553636190.742,61.035,24.414,45.410,32.715,15.625,0
1553636190.746,52.734,17.578,46.875,40.039,10.254,0
1553636190.750,54.688,6.348,49.805,43.457,20.508,0
1553636190.754,51.758,24.414,51.270,25.879,57.129,0
1553636190.758,13.672,37.598,45.410,-2.930,27.832,0
1553636190.762,35.645,36.133,36.133,-0.977,17.578,0
1553636190.765,53.711,34.668,35.645,20.508,64.941,0
1553636190.769,34.180,24.902,42.480,29.297,73.242,0
1553636190.773,33.691,23.438,43.457,28.320,73.242,0
1553636190.777,29.785,25.391,41.504,28.320,47.852,0
1553636190.781,36.133,26.855,39.551,16.602,25.391,0
1553636190.785,51.758,26.367,40.039,20.020,8.301,0
1553636190.789,37.598,30.273,42.969,33.203,16.113,0
1553636190.793,20.508,27.344,42.969,35.645,61.035,0
1553636190.797,43.457,21.973,42.480,33.691,74.219,0
1553636190.801,60.547,25.391,43.457,19.531,45.410,0
1553636190.804,42.480,27.832,38.086,15.137,53.711,0
1553636190.808,34.180,27.344,38.574,15.137,31.250,0
1553636190.812,37.109,19.531,40.039,10.742,78.125,0
1553636190.816,25.391,21.484,37.598,6.836,83.496,0
1553636190.820,30.762,27.344,40.527,5.371,-19.043,0
1553636190.824,31.738,25.879,44.434,14.648,-16.602,0
1553636190.828,20.020,24.902,42.480,14.648,-10.254,0
1553636190.832,0.977,20.996,36.621,13.672,-4.883,0
1553636190.836,-20.996,18.066,38.574,29.785,58.594,0
1553636190.840,-13.672,23.438,42.480,23.438,65.918,0
1553636190.844,-12.695,24.414,39.062,8.789,67.383,0
1553636190.847,-22.461,22.461,40.039,10.254,16.113,0
1553636190.851,-17.578,22.949,41.992,14.160,0.488,0
1553636190.855,1.953,23.438,42.480,17.090,59.082,0
1553636190.859,-3.906,23.438,42.969,14.648,34.180,0
1553636190.863,-7.324,19.531,45.898,28.320,0.488,0
1553636190.867,4.883,15.625,45.410,30.273,58.594,0
1553636190.871,-0.977,18.555,39.551,18.555,84.961,0
1553636190.875,-9.766,14.648,41.504,20.020,-36.133,0
1553636190.879,0.977,13.184,43.457,20.020,-44.434,0
1553636190.883,10.254,18.066,44.434,18.066,-0.977,0
1553636190.887,2.930,19.043,47.852,15.137,-18.555,0
1553636190.890,8.301,17.578,44.922,17.090,-12.207,0
1553636190.894,9.766,24.414,43.945,16.602,4.883,0
1553636190.898,3.906,24.414,41.992,6.348,48.828,0
1553636190.902,3.906,16.113,41.992,2.930,38.086,0
1553636190.906,4.883,17.578,44.922,-1.953,-20.020,0
1553636190.910,6.836,18.066,48.340,5.859,58.105,0
1553636190.914,19.043,18.555,50.781,19.043,85.449,0
1553636190.918,17.578,15.625,49.805,13.672,22.949,0
1553636190.922,15.625,15.137,46.387,1.465,67.383,0
1553636190.926,17.578,20.508,47.852,-5.859,47.363,0
1553636190.929,8.301,23.926,49.316,0.977,39.062,0
1553636190.933,11.230,24.414,47.363,9.766,74.707,0
1553636190.937,9.277,20.508,46.387,9.766,71.289,0
1553636190.941,7.324,17.578,47.363,1.953,85.449,0
1553636190.945,6.348,20.996,45.410,-5.859,115.723,0
1553636190.949,-0.488,26.367,44.922,-0.488,63.477,0
1553636190.953,-7.812,23.438,43.945,5.371,21.973,0
1553636190.957,5.859,16.113,43.457,5.859,9.766,0
1553636190.961,9.766,20.508,45.898,6.836,1.953,0
1553636190.965,5.859,16.602,47.852,11.719,-15.137,0
1553636190.969,15.625,10.254,46.875,6.348,-18.066,0
1553636190.972,9.277,18.066,45.410,-2.441,15.625,0
1553636190.976,19.043,23.438,45.898,4.395,23.438,0
1553636190.980,21.484,18.555,48.828,17.090,33.691,0
1553636190.984,10.254,15.137,54.199,20.996,20.996,0
1553636190.988,5.371,11.230,53.711,16.602,43.945,0
1553636190.992,18.066,20.996,59.570,20.996,56.152,0
1553636190.996,23.926,26.367,55.664,21.484,64.453,0
1553636191.000,14.160,21.973,51.270,2.930,37.598,0
1553636191.004,21.484,36.621,58.105,2.441,20.508,0
1553636191.008,17.090,31.250,49.805,-2.930,53.711,0
1553636191.012,20.020,29.297,55.176,-7.812,42.480,0
1553636191.015,20.020,33.691,64.453,-10.254,80.078,0
1553636191.019,13.672,29.297,50.781,-29.785,77.148,0
1553636191.023,28.320,39.551,58.105,-30.273,20.996,0
1553636191.027,25.391,39.062,65.918,-39.551,-29.785,0
1553636191.031,0.977,40.039,57.617,-68.359,-4.395,0
1553636191.035,-13.672,49.316,64.453,-81.055,66.406,0
1553636191.039,-24.414,54.688,68.359,-93.750,38.086,0
1553636191.043,-31.738,60.547,61.523,-115.234,61.035,0
1553636191.047,-32.715,57.617,62.500,-128.418,76.172,0
1553636191.051,-54.199,53.223,85.938,-136.230,41.992,0
1553636191.054,-94.238,56.641,88.379,-175.293,92.285,0
1553636191.058,-97.168,57.617,70.801,-183.105,83.984,0
1553636191.062,-87.891,55.664,76.660,-162.598,67.383,0
1553636191.066,-102.539,42.969,83.984,-173.340,85.938,0
1553636191.070,-99.121,36.133,84.473,-174.316,53.223,0
1553636191.074,-81.543,45.898,85.938,-162.598,27.832,0
1553636191.078,-62.988,33.691,84.961,-153.809,49.805,0
1553636191.082,-64.941,16.602,78.125,-141.113,93.262,0
1553636191.086,-63.477,32.715,62.500,-126.465,67.871,0
1553636191.090,-33.203,47.363,59.570,-96.680,34.668,0
1553636191.094,-28.809,40.527,62.500,-89.844,64.941,0
1553636191.097,-26.855,33.691,62.500,-83.496,34.668,0
1553636191.101,12.695,34.180,61.523,-62.988,23.438,0
1553636191.105,36.133,28.320,53.711,-57.617,21.973,0
1553636191.109,30.273,24.902,41.992,-40.039,27.344,0
1553636191.113,40.527,24.902,44.434,-23.926,60.547,0
1553636191.117,61.523,18.066,54.199,-1.953,78.125,0
1553636191.121,87.402,12.695,48.340,10.742,41.992,0
1553636191.125,91.309,2.930,39.551,3.906,29.785,0
1553636191.129,87.891,0.977,38.086,5.859,44.434,0
1553636191.133,94.727,11.230,38.086,22.949,12.695,0
1553636191.137,108.887,10.742,35.645,40.527,28.809,0
1553636191.140,118.164,13.184,35.156,39.062,-2.930,0
1553636191.144,121.094,12.695,40.039,42.969,12.695,0
1553636191.148,118.164,9.766,39.551,55.664,-2.441,0
1553636191.152,115.234,13.184,32.227,60.059,-10.254,0
1553636191.156,130.859,13.184,30.273,55.664,42.480,0
1553636191.160,127.441,8.301,27.344,59.082,13.184,0
1553636191.164,120.605,11.230,30.273,64.941,-12.695,0
1553636191.168,122.070,14.160,33.691,52.246,11.719,0
1553636191.172,125.000,13.184,27.832,49.805,50.293,0
1553636191.176,137.695,14.160,22.461,58.105,1.953,0
1553636191.179,147.461,11.230,27.832,60.547,-28.320,0
1553636191.183,139.648,10.742,36.133,60.547,19.043,0
1553636191.187,128.906,16.113,32.227,55.664,5.859,0
1553636191.191,132.324,10.254,32.227,57.129,31.738,0
1553636191.195,126.465,2.930,32.227,60.059,31.250,0
1553636191.199,122.070,10.742,27.832,58.105,-7.812,0
1553636191.203,120.605,14.648,26.367,53.223,4.883,0
1553636191.207,114.258,14.160,29.297,47.363,91.309,0
1553636191.211,116.699,17.578,30.762,47.363,40.527,0
1553636191.215,120.605,19.043,34.668,49.316,-3.906,0
1553636191.219,118.652,20.508,40.039,47.363,62.988,0
1553636191.222,108.398,15.625,36.133,39.551,48.828,0
1553636191.226,107.422,14.648,36.621,39.062,32.715,0
1553636191.230,110.352,20.020,40.039,49.316,-22.461,0
1553636191.234,112.793,18.555,44.922,47.363,-15.625,0
1553636191.238,103.516,20.020,51.270,35.156,69.824,0
1553636191.242,83.008,20.508,41.992,18.066,32.227,0
1553636191.246,74.707,20.508,37.109,10.254,3.906,0
1553636191.250,71.289,29.297,52.246,20.020,-4.883,0
1553636191.254,44.922,33.691,47.852,-14.160,49.316,0
1553636191.258,19.043,32.715,37.109,-47.363,93.750,0
1553636191.262,11.719,40.039,54.688,-47.363,34.180,0
1553636191.265,-19.043,41.504,60.059,-76.172,27.344,0
1553636191.269,-48.340,41.992,59.082,-92.285,20.996,0
1553636191.273,-59.082,55.176,66.895,-113.770,29.785,0
1553636191.277,-65.430,55.664,62.012,-136.719,67.383,0
1553636191.281,-58.594,54.688,45.410,-122.559,72.266,0
1553636191.285,-70.801,53.223,53.711,-122.559,11.719,0
1553636191.289,-108.887,41.504,82.520,-150.879,0.000,0
1553636191.293,-96.680,35.156,85.449,-151.367,52.246,0
1553636191.297,-74.707,43.457,76.172,-130.371,30.762,0
1553636191.301,-83.984,43.457,83.008,-125.000,14.160,0
1553636191.304,-63.965,33.203,82.520,-130.371,56.641,0
1553636191.308,-35.645,22.461,74.707,-128.418,62.012,0
1553636191.312,-47.852,19.531,81.055,-107.910,40.039,0
1553636191.316,-40.039,25.879,70.801,-90.820,8.301,0
1553636191.320,-22.949,24.414,61.035,-83.496,21.484,0
1553636191.324,-20.996,22.949,67.871,-57.617,71.289,0
1553636191.328,-13.672,22.949,69.336,-41.992,81.055,0
1553636191.332,5.859,6.348,61.035,-21.973,77.637,0
1553636191.336,16.113,1.953,52.246,0.000,15.625,0
1553636191.340,20.020,12.207,47.363,8.789,-32.715,0
1553636191.344,34.668,10.742,41.504,18.555,78.613,0
1553636191.347,38.086,5.859,41.016,15.137,73.242,0
1553636191.351,45.410,4.883,44.922,28.809,29.297,0
1553636191.355,66.895,6.836,47.363,49.316,58.594,0
1553636191.359,72.754,8.301,43.945,45.898,75.195,0
1553636191.363,72.754,15.625,49.316,52.734,38.574,0
1553636191.367,88.867,9.277,45.898,61.035,19.043,0
1553636191.371,86.914,4.395,40.039,59.082,63.477,0
1553636191.375,77.148,10.254,40.039,60.547,90.332,0
1553636191.379,77.148,8.301,38.086,67.871,39.062,0
1553636191.383,89.844,7.324,38.086,81.543,13.672,0
1553636191.387,93.750,6.348,36.133,87.891,63.965,0
1553636191.390,90.820,3.906,33.203,74.219,74.707,0
1553636191.394,98.145,8.301,31.738,66.406,35.156,0
1553636191.398,93.750,10.742,29.785,50.293,7.324,0
1553636191.402,91.309,12.207,25.879,44.922,3.418,0
1553636191.406,102.051,9.277,24.902,55.176,3.906,0
1553636191.410,102.051,6.348,25.879,46.387,35.645,0
1553636191.414,87.402,9.766,28.320,59.082,18.066,0
1553636191.418,83.984,15.625,30.762,69.336,13.184,0
1553636191.422,84.473,13.184,33.203,62.500,23.438,0
1553636191.426,88.379,6.836,32.227,64.453,75.684,0
1553636191.429,88.867,17.090,29.297,62.988,22.461,0
1553636191.433,85.449,16.113,28.320,68.848,27.344,0
1553636191.437,94.727,17.578,29.297,70.312,95.215,0
1553636191.441,93.750,29.785,29.297,70.312,81.055,0
1553636191.445,97.656,23.438,26.855,78.613,60.547,0
1553636191.449,99.121,17.578,28.320,67.383,20.996,0
1553636191.453,90.332,23.438,32.715,65.430,100.586,0
1553636191.457,87.891,18.066,35.645,69.824,99.609,0
1553636191.461,87.891,12.207,33.203,65.918,16.602,0
1553636191.465,85.449,18.555,32.227,65.918,37.109,0
1553636191.469,82.520,19.043,33.691,63.965,64.453,0
1553636191.472,82.520,17.090,35.156,55.664,40.527,0
1553636191.476,82.520,18.555,34.180,51.270,-4.395,0
1553636191.480,77.148,18.555,35.645,56.641,41.992,0
1553636191.484,67.383,23.438,35.645,64.453,36.133,0
1553636191.488,62.012,21.484,38.086,62.012,9.766,0
1553636191.492,63.965,17.090,40.527,51.270,55.176,0
1553636191.496,58.594,18.555,39.062,45.410,41.992,0
1553636191.500,52.734,21.484,39.062,43.457,20.508,0
1553636191.504,59.570,26.855,40.039,41.992,25.879,0
1553636191.508,67.383,26.855,36.621,47.363,50.293,0
1553636191.512,90.820,32.227,23.926,75.684,28.809,0
1553636191.515,94.238,36.133,32.227,81.055,29.785,0
1553636191.519,62.500,26.855,56.152,52.734,56.641,0
1553636191.523,54.688,24.414,61.523,52.246,7.812,0
1553636191.527,83.008,26.855,57.617,78.613,31.738,0
1553636191.531,97.656,23.438,63.965,102.539,79.102,0
1553636191.535,79.102,18.066,79.102,100.586,28.320,0
1553636191.539,74.707,10.254,87.891,103.027,-5.859,0
1553636191.543,81.055,4.883,93.750,118.164,45.410,0
1553636191.547,87.402,6.348,96.191,99.609,60.547,0
1553636191.551,99.609,13.672,89.844,89.355,-3.418,0
1553636191.554,108.398,22.461,83.496,95.703,19.043,0
1553636191.558,99.121,28.320,83.008,100.586,68.848,0
1553636191.562,95.703,22.949,81.543,99.609,78.125,0
1553636191.566,104.004,13.672,77.637,100.586,67.871,0
1553636191.570,83.984,12.695,79.590,115.723,21.484,0
1553636191.574,81.543,17.578,75.195,114.746,25.391,0
1553636191.578,88.379,20.020,69.824,107.910,28.320,0
1553636191.582,80.566,8.301,74.219,108.398,36.621,0
1553636191.586,77.637,8.789,74.707,115.723,10.254,0
1553636191.590,69.336,15.625,66.895,109.375,-11.230,0
1553636191.594,65.430,16.602,64.941,108.887,32.227,0
1553636191.597,69.824,18.555,66.406,109.863,51.758,0
1553636191.601,75.195,22.949,61.523,109.375,23.926,0
1553636191.605,75.195,24.414,57.129,113.770,3.906,0
1553636191.609,64.941,18.555,54.688,112.793,38.574,0
1553636191.613,61.523,18.555,55.176,109.863,58.594,0
1553636191.617,56.641,20.020,53.711,111.328,11.230,0
1553636191.621,51.758,20.508,49.805,102.539,34.668,0
1553636191.625,51.270,20.508,48.340,93.262,62.012,0
1553636191.629,46.387,19.531,46.387,99.121,62.988,0
1553636191.633,40.527,21.484,43.457,98.145,9.766,0
1553636191.637,38.086,22.949,43.457,94.727,13.672,0
1553636191.640,35.156,18.066,39.551,85.449,91.797,0
1553636191.644,36.621,20.996,41.504,92.285,89.844,0
1553636191.648,34.668,20.996,48.340,94.727,39.062,0
1553636191.652,36.621,16.113,47.363,81.055,10.742,0
1553636191.656,37.109,21.973,42.480,80.566,-49.805,0
1553636191.660,25.391,23.438,46.875,84.473,-34.668,0
1553636191.664,21.484,20.508,48.828,80.078,-7.324,0
1553636191.668,20.020,20.996,43.457,65.918,-13.184,0
1553636191.672,19.043,16.602,44.922,85.449,33.203,0
1553636191.676,23.926,16.113,44.434,91.797,87.891,0
1553636191.679,18.555,21.973,41.504,76.172,43.457,0
1553636191.683,9.277,22.461,45.410,90.820,-11.719,0
1553636191.687,20.020,25.391,34.180,97.168,41.504,0
1553636191.691,17.090,31.250,22.949,72.754,49.316,0
1553636191.695,32.227,35.156,23.926,70.312,68.848,0
1553636191.699,67.871,44.434,24.902,98.633,64.941,0
1553636191.703,39.062,32.715,45.410,90.332,43.457,0
1553636191.707,5.371,12.207,61.523,60.547,105.957,0
1553636191.711,27.344,13.672,63.477,79.590,69.824,0
1553636191.715,53.711,8.301,69.824,107.422,38.086,0
1553636191.719,61.035,7.812,75.684,105.957,52.734,0
1553636191.722,53.223,12.695,77.148,100.586,49.805,0
1553636191.726,52.246,9.766,81.055,116.211,48.828,0
1553636191.730,62.012,8.789,92.285,133.789,40.527,0
1553636191.734,62.988,3.418,103.516,131.348,69.336,0
1553636191.738,60.059,-1.953,110.352,128.418,52.734,0
1553636191.742,68.359,0.977,115.723,136.719,22.461,0
1553636191.746,64.941,-1.953,120.605,145.508,44.922,0
1553636191.750,52.734,-13.672,126.465,129.883,107.910,0
1553636191.754,64.453,-15.137,120.117,132.812,84.961,0
1553636191.758,83.984,-5.859,114.746,138.184,53.711,0
1553636191.762,84.473,5.371,111.328,132.812,51.270,0
1553636191.765,68.848,7.812,106.445,136.719,21.973,0
1553636191.769,66.895,7.324,106.934,132.812,47.363,0
1553636191.773,68.359,10.254,102.539,115.723,14.160,0
1553636191.777,65.918,6.348,93.262,98.633,-14.160,0
1553636191.781,66.895,7.324,87.891,89.355,9.277,0
1553636191.785,64.941,10.254,84.961,78.125,-23.438,0
1553636191.789,61.035,10.742,85.449,80.566,11.230,0
1553636191.793,65.918,12.207,79.590,83.984,30.762,0
1553636191.797,62.012,10.254,72.266,82.520,2.930,0
1553636191.801,59.082,12.207,75.684,82.031,7.324,0
1553636191.804,58.105,11.230,75.684,81.543,13.184,0
1553636191.808,46.387,14.648,68.848,63.477,20.508,0
1553636191.812,45.898,10.254,64.941,61.523,55.664,0
1553636191.816,49.316,3.906,64.453,68.359,60.059,0
1553636191.820,41.016,6.836,60.547,66.406,52.246,0
1553636191.824,38.086,10.254,57.617,69.336,62.012,0
1553636191.828,39.551,14.160,51.758,58.105,41.504,0
1553636191.832,38.574,12.207,49.316,59.570,28.320,0
1553636191.836,41.016,15.625,52.246,69.336,10.742,0
1553636191.840,44.434,20.020,50.293,79.590,19.043,0
1553636191.844,48.828,17.578,45.898,78.125,36.133,0
1553636191.847,53.711,19.043,46.875,68.359,6.348,0
1553636191.851,55.176,21.484,40.039,82.520,9.766,0
1553636191.855,49.805,16.113,42.969,91.797,76.172,0
1553636191.859,51.758,12.695,52.246,83.984,62.012,0
1553636191.863,38.086,20.020,52.734,74.707,5.371,0
1553636191.867,29.785,24.902,51.758,72.754,-1.953,0
1553636191.871,40.527,24.902,51.270,65.430,1.465,0
1553636191.875,33.691,25.391,47.363,57.617,-31.250,0
1553636191.879,32.227,26.855,35.645,41.504,36.621,0
1553636191.883,34.668,31.250,35.645,25.391,77.637,0
1553636191.887,26.367,30.762,37.109,30.273,69.336,0
1553636191.890,21.484,31.738,32.227,17.578,86.426,0
1553636191.894,10.254,34.668,28.320,2.441,66.406,0
1553636191.898,8.789,29.297,27.344,17.578,37.598,0
1553636191.902,19.531,36.133,33.691,25.391,1.953,0
1553636191.906,14.160,36.133,28.809,13.672,26.855,0
1553636191.910,12.207,21.484,26.367,3.418,38.574,0
1553636191.914,19.531,28.320,31.738,4.395,-21.484,0
1553636191.918,12.207,30.762,30.273,-2.930,17.578,0
1553636191.922,16.602,28.809,26.367,-9.277,45.410,0
1553636191.926,23.926,25.879,22.461,0.000,48.340,0
1553636191.929,6.348,25.391,17.090,6.836,48.828,0
1553636191.933,14.160,34.180,15.137,12.207,21.973,0
1553636191.937,26.855,35.645,17.578,14.160,35.156,0
1553636191.941,18.066,30.762,23.438,16.113,24.902,0
1553636191.945,19.531,32.715,23.926,20.996,1.465,0
1553636191.949,24.414,34.668,19.043,25.879,19.043,0
1553636191.953,25.879,35.645,19.531,20.996,57.129,0
1553636191.957,34.668,36.621,21.484,10.254,72.754,0
1553636191.961,41.992,35.156,20.996,11.719,51.758,0
1553636191.965,54.199,35.645,18.066,3.906,0.977,0
1553636191.969,53.223,30.273,19.531,-1.953,41.016,0
1553636191.972,47.363,25.879,21.484,13.672,69.824,0
1553636191.976,52.734,36.621,17.090,5.371,53.711,0
1553636191.980,45.898,37.109,24.414,-12.207,36.133,0
1553636191.984,44.922,27.344,27.832,-11.230,-34.668,0
1553636191.988,37.598,36.133,19.531,-8.301,-61.035,0
1553636191.992,26.367,35.645,28.809,-10.742,-46.875,0
1553636191.996,37.109,28.320,33.691,-5.371,-12.695,0
1553636192.000,47.363,31.250,33.203,15.137,46.875,0
1553636192.004,22.949,28.320,37.598,0.977,53.711,0
1553636192.008,6.348,31.250,28.809,-26.367,47.363,0
1553636192.012,-27.832,33.203,24.414,-50.781,62.500,0
1553636192.015,-44.922,34.668,26.855,-48.828,29.785,0
1553636192.019,-64.941,43.945,18.066,-56.152,26.367,0
1553636192.023,-92.285,45.898,14.648,-74.219,47.363,0
1553636192.027,-77.637,42.480,12.695,-69.336,53.711,0
1553636192.031,-86.914,43.457,2.441,-66.406,45.410,0
1553636192.035,-97.656,48.828,-2.441,-80.566,46.875,0
1553636192.039,-112.793,59.570,-11.230,-117.188,32.715,0
1553636192.043,-126.465,61.523,-13.184,-138.672,22.949,0
1553636192.047,-115.234,61.523,-18.066,-142.578,53.711,0
1553636192.051,-121.094,69.336,-30.273,-162.109,91.309,0
1553636192.054,-134.766,69.336,-19.531,-180.176,69.336,0
1553636192.058,-134.766,78.613,-13.672,-186.523,11.230,0
1553636192.062,-150.391,87.891,-30.273,-208.984,32.227,0
1553636192.066,-170.410,90.820,-37.109,-225.098,62.988,0
1553636192.070,-182.129,96.680,-46.387,-243.652,33.691,0
1553636192.074,-173.828,101.074,-52.734,-242.676,38.574,0
1553636192.078,-180.664,100.586,-49.316,-249.512,66.895,0
1553636192.082,-201.172,98.633,-59.570,-261.230,43.945,0
1553636192.086,-184.570,96.191,-66.406,-248.535,62.012,0
1553636192.090,-165.039,99.121,-66.406,-244.629,56.641,0
1553636192.094,-162.109,101.074,-80.566,-242.188,28.320,0
1553636192.097,-145.020,84.961,-90.820,-238.281,66.895,0
1553636192.101,-127.441,85.449,-80.566,-240.723,42.480,0
1553636192.105,-103.027,86.914,-69.336,-224.121,-29.785,0
1553636192.109,-83.008,60.547,-73.242,-201.660,-4.395,0
1553636192.113,-72.266,67.871,-89.844,-185.547,-5.859,0
1553636192.117,-51.270,94.238,-97.168,-161.133,-30.762,0
1553636192.121,-34.180,96.680,-93.750,-153.809,1.465,0
1553636192.125,-22.461,94.727,-86.914,-131.836,13.184,0
1553636192.129,-12.207,91.309,-82.031,-105.957,21.973,0
1553636192.133,13.672,75.195,-84.473,-86.914,90.820,0
1553636192.137,60.059,65.918,-79.590,-70.801,100.586,0
1553636192.140,86.914,63.477,-69.824,-53.711,56.152,0
1553636192.144,94.238,55.664,-56.152,-40.039,25.879,0
1553636192.148,94.238,50.781,-48.340,-29.297,35.156,0
1553636192.152,91.797,49.805,-47.363,-13.672,76.172,0
1553636192.156,96.191,44.922,-42.480,-4.395,68.848,0
1553636192.160,111.328,41.504,-37.598,-3.418,41.992,0
1553636192.164,115.723,40.039,-31.738,1.953,73.730,0
1553636192.168,119.141,35.645,-26.855,7.812,18.066,0
1553636192.172,120.117,31.738,-21.973,7.812,3.906,0
1553636192.176,105.957,27.344,-18.066,13.672,84.473,0
1553636192.179,104.980,21.973,-14.160,26.367,13.184,0
1553636192.183,108.398,22.949,-13.184,23.438,20.020,0
1553636192.187,110.352,26.855,-8.301,13.672,95.215,0
1553636192.191,107.910,26.855,-2.441,20.508,44.434,0
1553636192.195,100.586,22.461,1.953,27.832,19.043,0
1553636192.199,95.703,20.020,7.324,27.832,7.812,0
1553636192.203,95.703,22.461,5.859,27.344,-1.953,0
1553636192.207,103.027,25.391,5.859,27.832,30.762,0
1553636192.211,94.238,16.113,6.836,30.762,44.922,0
1553636192.215,83.496,14.160,9.277,40.039,31.738,0
1553636192.219,90.820,19.043,19.043,59.082,56.641,0
1553636192.222,99.121,25.879,22.949,69.824,31.738,0
1553636192.226,92.285,23.438,22.949,76.660,35.156,0
1553636192.230,83.008,18.555,24.414,74.219,-1.953,0
1553636192.234,84.961,15.137,20.020,73.730,-24.902,0
1553636192.238,89.844,9.277,17.578,77.637,7.812,0
1553636192.242,84.961,20.508,21.973,55.176,3.418,0
1553636192.246,83.984,27.344,28.320,53.223,6.348,0
1553636192.250,89.844,24.414,30.273,71.289,-28.809,0
1553636192.254,84.961,23.438,26.367,72.754,-43.457,0
1553636192.258,77.148,23.438,28.809,63.965,-36.133,0
1553636192.262,74.219,16.602,32.715,51.758,-14.648,0
1553636192.265,69.824,11.719,34.180,53.223,0.000,0
1553636192.269,63.965,18.555,35.645,56.152,-10.254,0
1553636192.273,53.711,23.438,37.598,63.477,45.410,0
1553636192.277,61.523,20.996,38.574,62.500,31.250,0
1553636192.281,65.430,20.508,36.133,56.152,14.160,0
1553636192.285,59.082,22.461,36.133,58.105,35.156,0
1553636192.289,54.688,23.926,37.598,57.129,44.922,0
1553636192.293,54.199,8.789,34.668,43.457,48.828,0
1553636192.297,53.223,-5.371,30.273,47.852,34.668,0
1553636192.301,49.316,9.277,25.391,52.734,59.570,0
1553636192.304,41.992,24.414,29.297,44.922,32.227,0
1553636192.308,32.715,26.855,41.016,41.992,40.039,0
1553636192.312,37.598,17.578,39.551,41.016,94.238,0
1553636192.316,37.598,17.578,35.645,46.387,47.852,0
1553636192.320,36.133,22.461,41.992,47.852,36.621,0
1553636192.324,38.086,22.461,46.387,32.715,8.301,0
1553636192.328,37.109,25.879,43.945,17.090,-28.320,0
1553636192.332,32.715,15.137,44.922,27.344,-8.301,0
1553636192.336,29.785,12.695,44.922,33.203,2.930,0
1553636192.340,27.832,19.531,42.969,39.551,48.828,0
1553636192.344,33.203,19.531,43.457,51.758,69.824,0
1553636192.347,40.527,22.461,41.504,28.320,41.992,0
1553636192.351,36.621,18.066,40.527,9.766,34.180,0
1553636192.355,34.668,9.766,40.527,14.160,41.504,0
1553636192.359,30.273,16.113,40.527,17.090,59.570,0
1553636192.363,36.621,26.855,36.621,20.020,72.754,0
1553636192.367,35.645,26.367,37.109,19.531,30.762,0
1553636192.371,23.438,19.043,46.387,25.879,6.836,0
1553636192.375,29.297,16.602,46.875,22.461,3.418,0
1553636192.379,28.809,23.926,48.828,5.371,9.277,0
1553636192.383,33.691,25.391,47.363,20.996,51.270,0
1553636192.387,33.691,20.508,43.945,41.504,63.477,0
1553636192.390,29.785,22.461,42.480,35.156,6.836,0
1553636192.394,39.062,21.973,43.945,32.227,-37.598,0
1553636192.398,40.527,15.625,48.340,31.738,26.367,0
1553636192.402,41.016,18.066,45.410,31.250,-0.488,0
1553636192.406,32.227,21.973,45.898,28.809,-24.902,0
1553636192.410,26.855,25.879,47.363,20.508,-12.695,0
1553636192.414,29.785,25.879,47.363,15.625,-34.180,0
1553636192.418,32.227,22.461,41.992,19.043,-29.785,0
1553636192.422,31.250,23.438,42.480,19.531,22.461,0
1553636192.426,24.902,20.996,46.875,14.648,48.828,0
1553636192.429,25.391,22.949,46.387,-1.953,34.180,0
1553636192.433,27.832,25.879,44.434,-1.953,64.453,0
1553636192.437,26.855,20.996,47.852,23.438,46.875,0
1553636192.441,27.344,20.996,44.434,16.113,2.930,0
1553636192.445,27.832,25.391,41.992,17.578,24.902,0
1553636192.449,26.855,20.508,47.852,20.996,37.109,0
1553636192.453,26.367,17.578,48.340,8.301,46.387,0
1553636192.457,33.203,20.508,47.363,11.230,15.625,0
1553636192.461,33.691,22.461,46.387,17.578,-19.531,0
1553636192.465,30.762,20.996,46.387,16.113,47.852,0
1553636192.469,33.203,19.531,41.504,14.648,59.082,0
1553636192.472,30.762,20.508,37.109,17.090,65.918,0
1553636192.476,36.133,24.414,41.992,23.438,48.828,0
1553636192.480,40.039,24.414,46.875,34.180,-14.648,0
1553636192.484,30.762,20.996,49.805,45.898,-5.859,0
1553636192.488,25.391,17.090,50.781,40.527,27.832,0
1553636192.492,32.227,19.531,48.828,26.855,29.297,0
1553636192.496,32.715,25.391,49.805,21.973,24.414,0
1553636192.500,32.227,25.391,43.945,20.996,35.156,0
1553636192.504,37.598,19.043,35.645,22.461,13.672,0
1553636192.508,39.062,10.254,40.527,15.137,2.930,0
1553636192.512,29.297,18.066,44.922,7.324,72.754,0
1553636192.515,42.969,35.156,30.273,17.578,71.777,0
1553636192.519,73.242,36.133,25.391,48.828,43.945,0
1553636192.523,48.828,21.484,48.340,41.504,27.832,0
1553636192.527,8.789,15.137,66.406,6.348,45.898,0
1553636192.531,6.836,15.137,72.266,6.348,41.992,0
1553636192.535,20.020,10.742,80.566,13.184,46.387,0
1553636192.539,18.066,4.883,91.797,22.949,81.055,0
1553636192.543,6.836,0.488,103.027,36.621,26.855,0
1553636192.547,6.836,-5.371,113.281,45.410,70.312,0
1553636192.551,18.555,-6.348,121.094,60.547,65.918,0
1553636192.554,23.926,-4.395,131.348,62.988,28.809,0
1553636192.558,13.184,-7.812,138.672,57.617,87.891,0
1553636192.562,7.812,-10.254,145.508,74.219,74.219,0
1553636192.566,9.766,-20.020,155.762,80.078,63.477,0
1553636192.570,8.789,-30.762,160.645,77.637,44.434,0
1553636192.574,10.254,-30.273,166.992,87.402,-22.461,0
1553636192.578,5.859,-32.227,172.363,85.449,24.414,0
1553636192.582,12.207,-34.668,169.434,85.449,44.922,0
1553636192.586,29.297,-29.785,165.527,94.727,9.766,0
1553636192.590,31.250,-23.438,159.180,93.262,62.012,0
1553636192.594,28.320,-15.625,151.855,83.984,93.262,0
1553636192.597,31.250,-6.348,143.066,90.332,38.574,0
1553636192.601,33.691,-7.812,136.230,95.703,8.301,0
1553636192.605,32.715,-10.254,133.301,80.566,22.461,0
1553636192.609,28.320,-6.836,132.324,74.219,48.340,0
1553636192.613,29.297,-2.441,126.953,85.938,24.414,0
1553636192.617,34.180,-2.930,118.652,85.449,-1.465,0
1553636192.621,39.551,1.953,118.164,83.984,53.711,0
1553636192.625,40.039,5.371,116.211,85.938,53.711,0
1553636192.629,38.574,1.465,107.422,77.148,42.969,0
1553636192.633,41.992,4.883,101.074,69.824,53.711,0
1553636192.637,45.898,7.812,99.121,57.129,40.039,0
1553636192.640,46.875,7.324,97.168,55.176,51.758,0
1553636192.644,43.457,10.254,92.773,53.223,35.156,0
1553636192.648,39.551,10.742,87.402,40.527,24.414,0
1553636192.652,41.992,9.277,81.055,41.992,99.121,0
1553636192.656,49.316,9.766,78.125,42.480,99.121,0
1553636192.660,59.570,9.766,79.590,45.410,11.230,0
1553636192.664,48.340,12.207,79.590,43.945,55.176,0
1553636192.668,34.668,13.184,76.660,34.668,37.109,0
1553636192.672,36.133,12.207,72.266,39.062,-24.902,0
1553636192.676,15.625,15.137,69.336,40.039,25.879,0
1553636192.679,26.855,17.090,65.430,39.062,61.035,0
1553636192.683,44.922,18.066,65.918,65.430,52.734,0
1553636192.687,51.270,18.066,65.430,61.523,48.340,0
1553636192.691,49.805,18.555,61.035,43.945,17.090,0
1553636192.695,17.090,19.043,60.547,55.176,-15.137,0
1553636192.699,11.230,22.461,58.594,33.203,41.992,0
1553636192.703,13.184,23.926,55.664,19.043,12.207,0
1553636192.707,38.086,20.020,57.617,36.621,20.996,0
1553636192.711,17.090,18.555,60.059,46.875,66.895,0
1553636192.715,-7.324,19.043,58.105,73.730,79.590,0
1553636192.719,33.203,19.043,54.199,58.594,68.359,0
1553636192.722,23.926,23.438,51.270,16.602,81.543,0
1553636192.726,39.551,25.879,50.293,50.293,64.453,0
1553636192.730,50.293,23.438,50.293,55.176,32.715,0
1553636192.734,-1.465,22.461,49.316,12.207,52.734,0
1553636192.738,9.766,23.926,46.387,25.391,33.203,0
1553636192.742,17.090,20.996,47.852,31.738,33.691,0
1553636192.746,19.531,6.348,49.316,30.273,22.461,0
1553636192.750,51.270,10.254,44.434,52.734,6.348,0
1553636192.754,63.965,31.250,43.457,44.434,6.836,0
1553636192.758,43.457,44.434,35.156,-6.836,-35.645,0
1553636192.762,4.883,44.434,15.137,-84.961,15.137,0
1553636192.765,-36.133,34.668,1.465,-155.273,50.293,0
1553636192.769,32.227,48.340,-2.930,-83.008,48.340,0
1553636192.773,93.262,63.965,-6.836,-43.945,50.781,0
1553636192.777,26.367,63.477,-24.902,-158.691,-0.977,0
1553636192.781,-12.695,62.012,-45.410,-138.184,7.812,0
1553636192.785,42.969,64.941,-55.176,-78.125,41.016,0
1553636192.789,71.777,75.195,-59.570,-56.641,17.578,0
1553636192.793,86.426,80.078,-58.594,41.016,32.227,0
1553636192.797,52.246,84.473,-66.406,81.543,84.961,0
1553636192.801,-48.340,85.938,-83.008,69.824,10.254,0
1553636192.804,-116.211,85.938,-90.332,176.270,19.043,0
1553636192.808,-177.246,87.891,-96.680,327.148,103.516,0
1553636192.812,-229.980,81.055,-101.074,450.684,62.500,0
1553636192.816,-235.840,80.078,-101.074,555.664,100.098,0
1553636192.820,-238.281,81.055,-105.469,604.980,83.984,0
1553636192.824,-225.098,76.660,-104.980,699.707,10.742,0
1553636192.828,-231.934,79.102,-99.121,830.566,41.504,0
1553636192.832,-245.605,78.613,-92.773,951.660,40.527,0
1553636192.836,-301.758,70.312,-80.078,-999.023,74.219,0
1553636192.840,-374.512,62.988,-71.777,996.582,119.141,0
1553636192.844,-339.355,57.129,-69.336,999.023,66.406,0
1553636192.847,-283.203,53.711,-62.012,999.512,29.785,0
1553636192.851,-257.812,49.805,-56.641,999.512,53.223,0
1553636192.855,-219.727,43.945,-51.758,999.512,38.574,0
1553636192.859,-161.133,43.945,-49.805,999.512,43.945,0
1553636192.863,-99.609,46.875,-49.316,999.512,49.805,0
1553636192.867,-57.617,46.387,-45.410,999.512,28.809,0
1553636192.871,-30.762,43.457,-34.668,999.512,46.875,0
1553636192.875,-21.973,33.203,-29.785,999.512,74.219,0
1553636192.879,-9.766,38.086,-31.250,999.512,37.598,0
1553636192.883,6.836,36.621,-23.438,999.512,45.410,0
1553636192.887,62.500,27.344,-18.066,999.512,65.430,0
1553636192.890,111.816,30.762,-17.090,999.512,71.777,0
1553636192.894,85.449,28.320,-13.672,999.512,95.215,0
1553636192.898,66.895,25.879,-7.324,999.512,94.238,0
1553636192.902,83.008,28.809,-4.395,999.512,36.621,0
1553636192.906,109.863,32.715,-5.859,999.512,30.273,0
1553636192.910,107.910,30.762,-2.441,999.512,53.223,0
1553636192.914,78.613,21.973,2.930,999.512,31.250,0
1553636192.918,58.105,17.090,6.836,999.512,-7.812,0
1553636192.922,61.523,17.578,1.953,999.512,24.902,0
1553636192.926,80.078,19.043,-0.977,999.512,-12.695,0
1553636192.929,90.820,23.438,2.930,999.512,24.902,0
1553636192.933,100.586,20.996,6.836,999.512,120.605,0
1553636192.937,90.332,9.766,15.137,999.512,107.422,0
1553636192.941,102.539,14.648,20.996,997.559,12.695,0
1553636192.945,138.184,26.367,20.996,-999.023,-64.453,0
1553636192.949,154.297,28.320,24.414,986.328,-20.508,0
1553636192.953,130.859,22.949,28.809,933.105,12.207,0
1553636192.957,124.023,18.066,27.832,891.113,4.883,0
1553636192.961,139.160,19.043,23.438,852.539,13.184,0
1553636192.965,132.324,13.672,31.738,805.664,14.160,0
1553636192.969,134.277,11.230,36.621,770.508,-15.137,0
1553636192.972,140.625,19.043,32.227,743.164,1.465,0
1553636192.976,132.812,19.043,36.133,703.613,16.602,0
1553636192.980,126.953,20.996,37.598,656.738,65.918,0
1553636192.984,120.117,21.973,41.504,629.395,50.781,0
1553636192.988,104.492,12.695,53.711,603.027,29.785,0
1553636192.992,102.539,15.625,54.199,544.922,21.484,0
1553636192.996,92.773,20.508,50.781,514.160,13.672,0
1553636193.000,81.543,14.160,49.805,502.930,-19.043,0
1553636193.004,77.148,12.207,52.246,474.609,11.230,0
1553636193.008,67.871,15.137,52.246,439.453,126.953,0
1553636193.012,64.941,10.742,52.246,410.156,109.375,0
1553636193.015,60.547,8.789,53.223,375.000,45.410,0
1553636193.019,41.992,10.742,55.176,346.680,58.594,0
1553636193.023,33.203,4.883,65.430,343.750,20.508,0
1553636193.027,34.180,7.324,64.453,321.777,19.531,0
1553636193.031,25.879,17.090,56.152,286.133,51.270,0
1553636193.035,19.043,14.160,59.082,262.695,45.410,0
1553636193.039,7.812,3.906,61.035,250.488,44.434,0
1553636193.043,0.488,3.906,61.035,234.863,89.355,0
1553636193.047,23.438,14.648,62.012,215.820,118.164,0
1553636193.051,19.043,17.090,65.918,221.680,48.340,0
1553636193.054,-5.859,17.090,61.035,211.426,41.504,0
1553636193.058,1.953,21.973,62.012,218.262,82.031,0
1553636193.062,5.859,16.113,70.801,234.375,15.625,0
1553636193.066,-5.371,10.742,69.336,228.516,54.688,0
1553636193.070,-3.418,10.742,61.523,234.375,47.852,0
1553636193.074,-28.809,1.465,62.012,222.656,20.020,0
1553636193.078,-27.832,6.836,75.684,220.215,52.246,0
1553636193.082,-14.160,17.090,85.938,233.398,13.184,0
1553636193.086,-31.738,3.418,97.656,229.980,-33.691,0
1553636193.090,-26.855,-6.348,98.633,209.473,-0.977,0
1553636193.094,-9.766,6.836,86.426,190.918,62.500,0
1553636193.097,-20.996,14.160,84.961,186.035,81.055,0
1553636193.101,-25.879,9.766,87.402,186.035,110.840,0
1553636193.105,-39.551,5.859,88.379,175.293,68.359,0
1553636193.109,-60.547,-7.324,85.938,142.578,-18.066,0
1553636193.113,-13.184,1.953,97.168,167.969,-25.879,0
1553636193.117,-0.977,15.625,98.633,186.523,22.461,0
1553636193.121,-39.062,7.324,89.844,160.156,59.082,0
1553636193.125,-45.410,1.465,82.520,141.602,64.941,0
1553636193.129,-56.152,5.371,69.824,104.980,45.410,0
1553636193.133,-44.434,17.578,82.031,119.141,56.152,0
1553636193.137,-42.969,10.742,93.750,138.184,40.527,0
1553636193.140,-70.312,0.488,78.613,114.258,32.227,0
1553636193.144,-73.242,2.930,79.102,119.629,73.730,0
1553636193.148,-62.500,9.766,79.590,106.445,19.531,0
1553636193.152,-61.035,20.508,74.707,80.566,-17.578,0
1553636193.156,-62.500,28.809,77.148,81.543,43.457,0
1553636193.160,-68.848,22.461,74.219,73.242,47.852,0
1553636193.164,-64.453,15.625,78.125,72.266,11.230,0
1553636193.168,-60.547,18.066,76.172,63.965,20.508,0
1553636193.172,-80.566,13.672,71.289,39.551,25.879,0
1553636193.176,-85.449,13.184,62.012,29.785,63.965,0
1553636193.179,-74.219,16.602,63.965,28.320,16.113,0
1553636193.183,-61.035,27.832,70.801,31.738,-9.766,0
1553636193.187,-51.758,24.414,67.871,34.180,-11.719,0
1553636193.191,-62.988,19.531,65.918,16.602,-41.504,0
1553636193.195,-73.730,20.996,64.453,-2.930,4.395,0
1553636193.199,-74.707,15.625,65.430,3.418,55.664,0
1553636193.203,-75.684,14.160,67.383,16.602,60.547,0
1553636193.207,-61.523,19.043,62.988,8.789,26.367,0
1553636193.211,-62.500,26.367,58.105,-7.812,-5.371,0
1553636193.215,-64.453,26.367,57.617,-9.766,28.809,0
1553636193.219,-64.453,18.555,56.152,-16.602,38.086,0
1553636193.222,-69.336,20.020,53.223,-24.902,-28.809,0
1553636193.226,-61.523,22.461,53.223,-19.531,3.418,0
1553636193.230,-49.316,26.367,55.176,-16.113,3.418,0
1553636193.234,-61.523,19.531,54.199,-15.625,2.441,0
1553636193.238,-65.918,23.926,52.246,-21.484,67.383,0
1553636193.242,-36.133,37.109,52.246,-20.020,43.945,0
1553636193.246,-53.223,31.250,57.129,-27.832,46.875,0
1553636193.250,-66.406,26.367,63.477,-41.016,78.613,0
1553636193.254,-47.852,26.367,61.523,-36.621,56.641,0
1553636193.258,-66.406,22.949,54.199,-48.340,73.242,0
1553636193.262,-80.078,20.996,53.223,-53.711,94.727,0
1553636193.265,-64.453,22.949,53.223,-49.316,94.727,0
1553636193.269,-75.684,20.996,50.781,-58.594,58.105,0
1553636193.273,-86.426,13.184,50.781,-62.500,45.410,0
1553636193.277,-75.684,12.695,56.152,-48.340,99.121,0
1553636193.281,-74.707,22.461,57.617,-47.363,99.609,0
1553636193.285,-83.008,13.184,49.316,-76.660,85.449,0
1553636193.289,-64.941,18.066,54.688,-70.801,96.191,0
1553636193.293,-46.387,36.133,62.500,-44.922,94.238,0
1553636193.297,-61.035,26.855,54.199,-66.895,49.805,0
1553636193.301,-76.172,23.926,46.875,-79.590,-15.625,0
1553636193.304,-74.707,24.902,50.293,-67.871,-0.977,0
1553636193.308,-68.359,23.926,53.711,-64.453,-43.945,0
1553636193.312,-65.918,29.785,55.176,-55.176,3.906,0
1553636193.316,-61.035,20.020,50.293,-72.754,64.453,0
1553636193.320,-69.824,15.625,43.457,-90.820,16.602,0
1553636193.324,-83.496,16.602,44.922,-86.914,12.207,0
1553636193.328,-74.707,21.973,41.016,-88.379,75.195,0
1553636193.332,-77.148,25.879,35.156,-97.168,99.121,0
1553636193.336,-83.008,20.020,46.875,-88.867,67.383,0
1553636193.340,-67.871,19.531,51.270,-73.242,45.410,0
1553636193.344,-66.895,22.461,38.086,-84.961,-3.906,0
1553636193.347,-61.523,28.809,40.527,-91.797,41.992,0
1553636193.351,-65.918,27.832,42.480,-90.332,87.402,0
1553636193.355,-66.895,28.809,45.898,-85.449,65.918,0
1553636193.359,-66.895,27.344,47.852,-85.449,47.852,0
1553636193.363,-83.496,19.531,36.621,-97.656,10.254,0
1553636193.367,-81.055,22.949,34.668,-101.074,50.293,0
1553636193.371,-64.453,29.297,42.480,-88.379,60.059,0
1553636193.375,-66.406,25.391,41.992,-91.309,10.254,0
1553636193.379,-67.383,22.461,40.527,-101.562,7.324,0
1553636193.383,-64.453,26.367,35.645,-102.051,17.578,0
1553636193.387,-65.918,20.020,41.992,-89.844,30.762,0
1553636193.390,-51.758,14.648,51.270,-68.359,78.125,0
1553636193.394,-39.551,32.227,40.039,-71.777,37.598,0
1553636193.398,-59.082,37.598,30.273,-103.516,-8.789,0
1553636193.402,-64.453,31.738,23.926,-115.723,21.484,0
1553636193.406,-41.504,38.086,20.996,-96.680,2.441,0
1553636193.410,-51.270,37.598,15.137,-93.262,8.301,0
1553636193.414,-71.289,32.715,14.648,-95.215,-9.277,0
1553636193.418,-57.617,38.574,20.996,-91.309,-12.207,0
1553636193.422,-47.363,41.504,18.555,-89.844,1.465,0
1553636193.426,-40.527,40.039,20.508,-76.660,18.066,0
1553636193.429,-34.180,39.062,24.414,-76.172,85.449,0
1553636193.433,-44.434,33.203,24.414,-83.984,43.457,0
1553636193.437,-56.641,34.180,20.996,-95.703,-15.137,0
1553636193.441,-44.922,39.551,24.902,-89.844,15.625,0
1553636193.445,-40.527,37.598,25.879,-84.473,22.949,0
1553636193.449,-43.945,36.133,21.484,-88.379,13.184,0
1553636193.453,-31.250,36.621,22.949,-80.566,6.348,0
1553636193.457,-29.785,34.180,23.438,-86.426,6.348,0
1553636193.461,-48.828,32.227,21.484,-101.074,49.316,0
1553636193.465,-55.176,25.391,20.508,-115.723,73.730,0
1553636193.469,-41.504,31.738,22.949,-112.793,19.531,0
1553636193.472,-23.926,41.504,21.973,-100.098,-18.066,0
1553636193.476,-14.160,36.133,22.949,-92.285,11.719,0
1553636193.480,-17.090,33.203,26.367,-83.984,50.781,0
1553636193.484,-36.621,33.203,29.785,-80.078,53.223,0
1553636193.488,-45.410,30.762,29.297,-83.984,39.062,0
1553636193.492,-40.039,31.738,24.902,-93.262,2.930,0
1553636193.496,-41.504,33.203,26.367,-83.496,-18.555,0
1553636193.500,-42.480,32.715,23.926,-88.379,17.578,0
1553636193.504,-41.016,35.156,25.391,-86.426,27.344,0
1553636193.508,-40.527,32.227,27.832,-85.449,-6.836,0
1553636193.512,-32.715,32.715,28.320,-88.867,-17.090,0
1553636193.515,-26.367,34.180,31.250,-82.031,-13.672,0
1553636193.519,-27.832,26.855,32.715,-72.266,-14.648,0
1553636193.523,-19.531,28.320,30.273,-70.312,13.672,0
1553636193.527,-35.645,29.297,28.320,-82.520,38.574,0
1553636193.531,-33.203,27.832,33.203,-72.754,-3.418,0
1553636193.535,-20.020,28.320,33.691,-80.566,-17.578,0
1553636193.539,-27.344,33.691,35.645,-96.680,29.785,0
1553636193.543,-26.367,32.227,34.180,-96.191,52.734,0
1553636193.547,-28.320,27.344,31.250,-105.957,-11.719,0
1553636193.551,-36.133,27.344,33.691,-107.422,-35.156,0
1553636193.554,-34.668,26.855,31.738,-99.609,49.805,0
1553636193.558,-22.461,29.785,33.691,-96.191,90.820,0
1553636193.562,-23.438,29.785,38.574,-100.098,74.219,0
1553636193.566,-25.391,25.391,37.598,-101.562,47.363,0
1553636193.570,-29.785,27.344,33.691,-99.121,64.941,0
1553636193.574,-26.855,29.785,31.250,-104.492,59.082,0
1553636193.578,-19.531,30.762,31.250,-112.305,34.180,0
1553636193.582,-29.297,25.879,34.668,-107.422,30.273,0
1553636193.586,-35.156,20.996,36.133,-98.633,29.297,0
1553636193.590,-30.273,22.461,31.738,-102.539,45.410,0
1553636193.594,-32.227,23.926,33.691,-96.191,79.590,0
1553636193.597,-28.320,25.879,39.062,-86.914,81.055,0
1553636193.601,-27.832,23.438,32.715,-95.215,46.387,0
1553636193.605,-32.227,29.785,31.738,-93.262,20.020,0
1553636193.609,-26.367,31.738,30.762,-88.379,31.738,0
1553636193.613,-20.020,19.043,31.250,-91.309,47.363,0
1553636193.617,-14.160,22.949,39.551,-83.008,49.316,0
1553636193.621,-13.184,32.715,40.039,-76.660,41.992,0
1553636193.625,-20.508,26.855,43.945,-81.055,91.309,0
1553636193.629,-29.297,22.461,37.109,-81.055,127.930,0
1553636193.633,-13.672,36.133,39.551,-67.383,17.090,0
1553636193.637,-20.996,34.180,38.086,-75.684,9.766,0
1553636193.640,-27.832,30.762,35.156,-75.684,81.543,0
1553636193.644,-12.695,38.086,54.199,-58.105,77.148,0
1553636193.648,-41.504,34.180,43.457,-85.938,92.773,0
1553636193.652,-55.664,34.180,39.551,-92.285,56.152,0
1553636193.656,-62.988,33.691,48.828,-97.168,26.367,0
1553636193.660,-63.477,43.457,49.805,-104.492,29.297,0
1553636193.664,-65.918,51.270,52.734,-101.074,42.969,0
1553636193.668,-92.773,45.410,45.410,-121.094,38.086,0
1553636193.672,-103.027,55.176,39.551,-134.766,0.488,0
1553636193.676,-99.121,62.012,40.527,-130.371,34.668,0
1553636193.679,-85.938,62.012,49.805,-111.328,58.594,0
1553636193.683,-112.305,54.688,63.477,-135.254,53.711,0
1553636193.687,-144.043,51.758,61.523,-153.809,39.551,0
1553636193.691,-141.113,55.176,64.453,-139.160,38.574,0
1553636193.695,-150.879,49.805,85.938,-144.531,41.504,0
1553636193.699,-158.691,41.016,96.680,-130.859,12.207,0
1553636193.703,-131.348,34.180,93.750,-109.863,12.695,0
1553636193.707,-126.465,25.391,91.309,-114.258,24.414,0
1553636193.711,-121.582,17.578,91.309,-100.098,22.461,0
1553636193.715,-111.328,23.438,88.379,-83.496,-8.789,0
1553636193.719,-109.375,30.273,78.125,-85.449,-0.488,0
1553636193.722,-93.750,21.973,71.777,-74.707,30.273,0
1553636193.726,-75.684,14.648,64.941,-58.105,-0.488,0
1553636193.730,-62.500,12.695,53.711,-52.246,-15.625,0
1553636193.734,-68.848,15.137,53.223,-56.152,-7.812,0
1553636193.738,-56.152,23.438,44.434,-57.129,29.785,0
1553636193.742,-37.598,22.461,27.832,-39.551,33.691,0
1553636193.746,-36.133,19.531,34.180,-29.785,-3.906,0
1553636193.750,-28.320,14.648,46.387,-27.832,30.762,0
1553636193.754,-30.762,6.836,49.316,-27.832,84.473,0
1553636193.758,-28.809,9.766,44.922,-23.438,84.473,0
1553636193.762,-12.207,13.184,43.457,-14.648,29.785,0
1553636193.765,-2.930,17.090,42.969,-6.348,28.809,0
1553636193.769,-3.906,17.090,40.039,5.859,54.199,0
1553636193.773,-5.859,12.207,36.621,5.371,57.617,0
1553636193.777,-11.230,16.602,33.203,-1.465,24.414,0
1553636193.781,-12.207,17.578,31.738,0.000,21.484,0
1553636193.785,-1.465,16.113,33.691,6.348,32.715,0
1553636193.789,3.906,18.066,37.109,5.371,-28.320,0
1553636193.793,4.883,13.672,35.156,0.000,-8.301,0
1553636193.797,10.742,12.695,28.320,0.977,34.180,0
1553636193.801,5.859,15.625,30.762,-0.977,22.461,0
1553636193.804,11.230,12.207,35.645,-3.418,3.418,0
1553636193.808,14.648,13.672,34.668,-12.207,24.414,0
1553636193.812,-0.977,16.113,38.574,-14.160,54.688,0
1553636193.816,-5.371,17.090,38.574,-7.812,30.762,0
1553636193.820,-8.789,17.090,32.715,-24.902,23.926,0
1553636193.824,-9.766,17.090,30.273,-37.598,59.082,0
1553636193.828,-5.371,18.555,28.320,-36.133,50.781,0
1553636193.832,-9.277,13.672,31.250,-33.203,12.207,0
1553636193.836,-8.301,14.160,36.621,-34.180,-2.441,0
1553636193.840,-11.230,17.090,32.227,-38.574,-21.484,0
1553636193.844,-12.207,15.137,28.809,-36.621,-7.812,0
1553636193.847,-14.648,13.672,31.250,-34.668,39.551,0
1553636193.851,-15.137,13.672,29.297,-43.945,25.391,0
1553636193.855,-7.324,15.625,26.855,-47.363,8.301,0
1553636193.859,-9.277,16.602,27.344,-43.945,29.297,0
1553636193.863,-18.555,20.020,28.320,-46.387,24.902,0
1553636193.867,-13.184,18.066,30.273,-51.758,21.484,0
1553636193.871,-3.906,22.461,30.273,-46.875,23.438,0
1553636193.875,-13.184,20.996,32.227,-40.039,69.824,0
1553636193.879,-15.137,11.719,30.762,-41.992,54.688,0
1553636193.883,-8.301,17.578,26.367,-50.293,3.906,0
1553636193.887,-10.254,22.949,26.367,-49.316,63.477,0
1553636193.890,-10.742,21.484,28.320,-41.992,73.730,0
1553636193.894,-9.277,18.555,26.367,-39.062,29.785,0
1553636193.898,-11.719,19.043,28.320,-34.668,33.691,0
1553636193.902,-12.695,20.508,34.180,-38.574,38.574,0
1553636193.906,-17.578,19.043,34.180,-45.898,57.129,0
1553636193.910,-19.043,20.508,33.203,-50.781,79.102,0
1553636193.914,-17.578,20.996,33.203,-56.641,42.480,0
1553636193.918,-15.625,20.508,32.715,-51.758,7.812,0
1553636193.922,-11.230,22.949,33.691,-51.270,23.438,0
1553636193.926,-15.625,23.926,36.133,-62.988,20.508,0
1553636193.929,-22.949,23.926,33.691,-64.453,-49.805,0
1553636193.933,-20.508,17.090,28.320,-53.223,-24.414,0
1553636193.937,-13.672,23.926,28.809,-60.547,92.773,0
1553636193.941,-25.879,35.645,27.344,-78.613,108.398,0
1553636193.945,-27.832,36.621,23.438,-85.449,53.711,0
1553636193.949,-31.250,36.621,20.996,-92.285,78.125,0
1553636193.953,-44.922,36.621,25.391,-92.773,98.145,0
1553636193.957,-40.039,28.320,27.832,-92.285,3.906,0
1553636193.961,-35.645,19.043,24.902,-86.426,12.695,0
1553636193.965,-34.668,22.461,24.902,-81.055,55.664,0
1553636193.969,-34.180,22.461,26.855,-88.867,50.781,0
1553636193.972,-26.367,20.020,27.344,-91.309,53.223,0
1553636193.976,-28.320,22.949,26.855,-89.844,44.922,0
1553636193.980,-39.551,23.438,26.855,-84.961,32.715,0
1553636193.984,-35.645,20.996,26.367,-84.961,59.570,0
1553636193.988,-28.320,22.949,27.832,-83.984,48.340,0
1553636193.992,-18.555,25.879,28.320,-78.125,0.977,0
1553636193.996,-12.207,29.785,26.855,-74.707,-16.113,0
1553636194.000,-19.043,32.715,27.832,-71.777,47.363,0
1553636194.004,-24.902,29.785,28.809,-73.730,22.949,0
1553636194.008,-28.320,25.879,29.785,-71.289,-31.250,0
1553636194.012,-29.785,28.320,28.809,-66.406,-1.465,0
1553636194.015,-33.691,28.320,33.203,-70.801,37.109,0
1553636194.019,-37.109,24.902,34.668,-73.730,63.477,0
1553636194.023,-35.156,23.438,31.250,-67.871,20.020,0
1553636194.027,-39.551,22.461,32.715,-68.848,-30.762,0
1553636194.031,-45.898,23.926,32.227,-75.195,12.207,0
1553636194.035,-39.551,26.367,30.762,-75.684,77.637,0
1553636194.039,-36.133,23.438,30.273,-80.078,35.645,0
1553636194.043,-41.504,23.438,33.203,-75.684,44.434,0
1553636194.047,-44.434,22.949,34.180,-68.848,85.938,0
1553636194.051,-38.574,20.020,31.738,-67.383,81.543,0
1553636194.054,-28.809,20.508,34.180,-67.871,49.805,0
1553636194.058,-29.297,23.438,35.645,-76.660,11.719,0
1553636194.062,-29.785,23.926,33.691,-69.336,-13.672,0
1553636194.066,-24.414,24.414,33.203,-63.477,-10.254,0
1553636194.070,-26.367,23.926,33.203,-62.988,1.465,0
1553636194.074,-27.832,17.578,32.715,-60.547,15.625,0
1553636194.078,-24.902,20.996,31.738,-67.383,14.648,0
1553636194.082,-22.949,31.250,31.250,-71.777,39.062,0
1553636194.086,-24.414,30.273,30.273,-67.383,72.266,0
1553636194.090,-19.531,25.879,30.762,-66.406,-7.324,0
1553636194.094,-20.508,27.832,33.203,-73.242,27.832,0
1553636194.097,-22.949,30.762,34.180,-73.730,98.633,0
1553636194.101,-18.555,31.250,31.250,-72.754,75.195,0
1553636194.105,-11.719,30.762,30.273,-71.289,31.738,0
1553636194.109,-15.137,30.762,34.668,-67.383,10.742,0
1553636194.113,-27.832,29.785,35.645,-63.965,62.012,0
1553636194.117,-30.762,26.367,33.691,-59.082,55.664,0
1553636194.121,-30.762,25.879,38.574,-59.082,42.480,0
1553636194.125,-29.297,27.832,40.039,-64.941,98.145,0
1553636194.129,-26.367,26.367,36.621,-59.570,89.355,0
1553636194.133,-34.180,24.902,37.598,-54.688,48.828,0
1553636194.137,-40.039,20.996,38.086,-50.781,62.988,0
1553636194.140,-32.715,24.902,36.621,-53.711,92.773,0
1553636194.144,-16.113,34.668,27.832,-44.922,66.895,0
1553636194.148,-11.230,27.832,32.227,-27.832,65.430,0
1553636194.152,-40.039,18.066,47.852,-48.828,54.688,0
1553636194.156,-59.082,13.672,47.852,-63.477,52.246,0
1553636194.160,-42.969,14.648,48.340,-45.410,50.781,0
1553636194.164,-33.203,19.043,49.316,-47.363,30.273,0
1553636194.168,-37.109,20.508,47.363,-63.965,37.109,0
1553636194.172,-39.551,20.508,46.875,-62.012,32.715,0
1553636194.176,-30.762,21.484,44.922,-50.293,64.453,0
1553636194.179,-28.809,24.414,44.434,-43.945,81.055,0
1553636194.183,-35.156,25.879,44.922,-43.457,57.617,0
1553636194.187,-32.715,25.391,44.434,-40.039,1.465,0
1553636194.191,-34.180,21.973,45.898,-41.016,5.371,0
1553636194.195,-41.504,21.484,44.922,-45.410,60.547,0
1553636194.199,-43.457,24.414,43.457,-43.945,27.832,0
1553636194.203,-38.086,25.391,42.969,-42.969,-31.250,0
1553636194.207,-39.062,28.320,44.434,-38.086,-64.941,0
1553636194.211,-38.086,19.531,46.387,-40.039,-58.594,0
1553636194.215,-29.785,16.602,39.551,-49.316,-19.531,0
1553636194.219,-34.180,24.414,37.598,-50.781,16.602,0
1553636194.222,-41.992,25.391,43.945,-42.969,40.039,0
1553636194.226,-40.039,25.391,39.551,-41.016,53.711,0
1553636194.230,-39.062,22.461,40.527,-55.176,41.504,0
1553636194.234,-31.250,26.367,43.457,-52.246,45.898,0
1553636194.238,-24.414,31.250,39.551,-41.992,93.262,0
1553636194.242,-29.297,26.855,36.133,-49.316,41.016,0
1553636194.246,-26.855,26.855,37.598,-52.734,36.133,0
1553636194.250,-24.902,31.738,39.551,-44.922,72.754,0
1553636194.254,-28.809,31.250,36.621,-41.992,36.621,0
1553636194.258,-26.367,28.320,36.133,-36.621,-7.812,0
1553636194.262,-17.090,29.297,38.574,-39.062,-0.488,0
1553636194.265,-19.043,31.738,40.039,-34.180,64.453,0
1553636194.269,-20.020,32.227,40.039,-22.461,86.426,0
1553636194.273,-12.695,32.715,39.062,-18.066,125.977,0
1553636194.277,-20.020,29.297,38.086,-20.020,83.984,0
1553636194.281,-27.832,27.832,37.598,-22.949,-6.836,0
1553636194.285,-20.996,33.691,36.621,-14.160,-18.555,0
1553636194.289,-17.578,33.691,36.133,-19.531,46.387,0
1553636194.293,-23.926,30.762,36.621,-34.180,51.270,0
1553636194.297,-28.320,32.715,36.621,-35.645,24.414,0
1553636194.301,-29.297,33.203,37.109,-40.527,28.320,0
1553636194.304,-19.531,32.715,37.109,-48.828,40.039,0
1553636194.308,-19.043,29.297,34.668,-45.410,18.066,0
1553636194.312,-29.297,27.832,32.227,-42.480,32.715,0
1553636194.316,-17.090,26.367,35.156,-50.781,57.617,0
1553636194.320,-9.277,25.879,30.762,-46.875,53.711,0
1553636194.324,-23.438,28.320,29.297,-31.250,77.148,0
1553636194.328,-27.344,28.809,38.086,-31.250,58.594,0
1553636194.332,-25.391,27.832,33.203,-55.176,63.965,0
1553636194.336,-25.879,31.738,32.227,-63.477,98.145,0
1553636194.340,-28.809,26.855,40.527,-16.602,73.242,0
1553636194.344,-28.809,19.043,38.086,-16.602,27.344,0
1553636194.347,-22.949,25.391,33.203,-41.504,43.457,0
1553636194.351,-24.902,28.809,35.156,-28.320,35.156,0
1553636194.355,-16.113,23.438,36.621,-21.484,30.762,0
1553636194.359,-0.977,11.719,40.039,-5.371,33.691,0
1553636194.363,-7.812,20.996,40.039,-3.906,-24.414,0
1553636194.367,-16.113,40.039,30.273,-35.156,-5.371,0
1553636194.371,-23.438,39.551,21.973,-47.852,2.441,0
1553636194.375,-30.762,33.203,17.578,-39.551,-44.434,0
1553636194.379,-31.250,36.133,13.184,-34.668,-31.250,0
1553636194.383,-24.414,39.062,8.789,-27.832,29.785,0
1553636194.387,-11.719,44.922,0.488,-21.484,60.547,0
1553636194.390,-4.395,48.828,-5.371,-25.391,61.035,0
1553636194.394,-12.695,41.016,-1.953,-22.461,83.008,0
1553636194.398,-18.555,35.156,4.883,-34.668,66.895,0
1553636194.402,-15.137,36.133,7.812,-43.945,25.879,0
1553636194.406,-20.996,36.621,8.301,-31.738,47.852,0
1553636194.410,-16.113,34.668,5.859,-27.832,40.527,0
1553636194.414,-6.348,34.668,6.348,-20.020,12.695,0
1553636194.418,-6.836,33.691,9.766,-18.555,17.578,0
1553636194.422,0.000,34.668,11.230,-31.250,-26.367,0
1553636194.426,6.348,32.715,15.625,-30.273,3.418,0
1553636194.429,4.395,32.227,18.555,-19.531,47.363,0
1553636194.433,0.977,31.738,16.602,-9.766,48.340,0
1553636194.437,4.395,31.250,14.160,-9.766,24.902,0
1553636194.441,16.602,31.738,17.578,-19.531,71.777,0
1553636194.445,18.555,31.738,21.484,-24.414,69.824,0
1553636194.449,14.160,35.156,22.461,-25.879,20.996,0
1553636194.453,15.137,35.156,21.973,-31.738,-0.488,0
1553636194.457,18.555,35.645,22.949,-23.438,51.758,0
1553636194.461,13.672,34.180,25.391,-15.137,58.594,0
1553636194.465,9.766,32.715,24.414,-18.066,52.734,0
1553636194.469,14.160,32.227,24.414,-23.926,64.453,0
1553636194.472,16.113,30.762,25.879,-19.043,12.695,0
1553636194.476,13.184,31.250,23.926,-16.602,39.062,0
1553636194.480,19.531,32.715,24.902,-23.438,67.383,0
1553636194.484,17.578,30.762,27.344,-15.625,-9.277,0
1553636194.488,9.766,28.809,20.996,-8.301,35.156,0
1553636194.492,8.789,33.203,20.020,-12.207,73.242,0
1553636194.496,8.789,30.762,25.879,-19.531,40.039,0
1553636194.500,12.695,38.574,25.391,-22.461,64.453,0
1553636194.504,11.719,38.574,24.902,-21.484,80.078,0
1553636194.508,9.277,22.461,24.902,-14.160,65.430,0
1553636194.512,9.766,24.902,24.414,-13.184,13.184,0
1553636194.515,5.859,28.809,26.367,-22.949,-11.719,0
1553636194.519,7.324,28.320,26.855,-25.391,26.855,0
1553636194.523,11.230,29.785,23.438,-32.715,49.805,0
1553636194.527,12.207,28.809,24.902,-28.809,31.738,0
1553636194.531,14.160,27.832,27.344,-10.742,-1.953,0
1553636194.535,16.113,28.320,27.344,-10.254,47.363,0
1553636194.539,14.648,24.414,28.320,-19.531,82.031,0
1553636194.543,8.789,26.367,27.344,-33.691,43.457,0
1553636194.547,15.625,30.273,25.391,-36.133,57.617,0
1553636194.551,18.555,31.738,23.438,-19.531,61.035,0
1553636194.554,15.137,31.250,21.973,-25.879,20.508,0
1553636194.558,10.742,27.832,28.320,-30.762,2.441,0
1553636194.562,13.672,32.227,30.273,-35.156,-6.836,0
1553636194.566,16.113,35.645,24.902,-46.875,-1.953,0
1553636194.570,13.184,35.645,23.438,-37.598,8.301,0
1553636194.574,14.648,33.203,28.320,-34.180,-4.395,0
1553636194.578,16.602,31.250,29.297,-42.969,-13.672,0
1553636194.582,12.695,32.715,28.809,-41.016,38.086,0
1553636194.586,1.953,32.715,27.344,-26.855,47.363,0
1553636194.590,2.441,31.738,26.855,-32.227,28.320,0
1553636194.594,-1.465,32.715,30.762,-31.738,18.066,0
1553636194.597,-5.859,32.227,30.762,-30.273,44.434,0
1553636194.601,-2.441,27.832,28.809,-41.504,78.125,0
1553636194.605,-3.418,24.902,30.273,-32.715,118.652,0
1553636194.609,-10.254,24.902,33.691,-22.461,69.824,0
1553636194.613,-14.160,22.461,33.691,-27.344,27.832,0
1553636194.617,-4.883,20.996,31.738,-28.320,47.852,0
1553636194.621,11.719,26.855,28.320,-35.156,22.461,0
1553636194.625,9.277,27.344,27.344,-33.691,49.805,0
1553636194.629,5.859,28.809,33.691,-18.066,1.465,0
1553636194.633,9.277,35.156,35.156,-21.973,-23.926,0
1553636194.637,3.418,25.391,31.250,-36.621,21.973,0
1553636194.640,1.465,20.996,34.180,-28.809,17.578,0
1553636194.644,0.000,26.855,35.645,-25.879,29.297,0
1553636194.648,2.441,24.414,32.715,-35.645,56.641,0
1553636194.652,-1.953,20.508,33.203,-31.738,83.496,0
1553636194.656,-3.418,20.996,35.645,-27.832,44.434,0
1553636194.660,1.465,23.438,36.133,-30.273,21.484,0
1553636194.664,0.000,21.484,39.062,-24.902,35.645,0
1553636194.668,-5.859,18.066,39.062,-23.438,16.602,0
1553636194.672,-10.254,18.066,35.645,-31.738,-17.090,0
1553636194.676,-11.230,20.996,32.227,-35.645,21.484,0
1553636194.679,-10.742,19.531,32.227,-34.668,6.348,0
1553636194.683,-5.371,18.066,33.203,-35.156,-38.574,0
1553636194.687,0.000,20.020,30.273,-44.434,16.602,0
1553636194.691,-0.977,20.508,28.320,-56.152,81.055,0
1553636194.695,-1.465,19.531,31.250,-49.316,90.820,0
1553636194.699,2.930,24.902,29.785,-42.969,51.270,0
1553636194.703,1.465,27.832,30.273,-41.016,45.410,0
1553636194.707,3.906,25.879,34.668,-40.527,75.684,0
1553636194.711,17.578,28.320,19.043,-34.668,59.570,0
1553636194.715,37.109,27.832,14.648,-5.371,67.383,0
1553636194.719,21.973,20.020,42.480,-10.742,48.828,0
1553636194.722,-20.508,13.184,58.594,-45.898,2.441,0
1553636194.726,-29.297,15.137,55.664,-51.270,14.160,0
1553636194.730,-29.785,12.695,58.594,-45.410,79.102,0
1553636194.734,-34.180,8.301,63.965,-54.199,50.781,0
1553636194.738,-31.250,9.766,63.477,-54.688,22.949,0
1553636194.742,-30.273,9.277,65.918,-50.781,30.273,0
1553636194.746,-27.832,9.277,63.965,-51.758,6.348,0
1553636194.750,-21.973,13.184,59.570,-46.387,38.574,0
1553636194.754,-9.766,17.090,48.828,-39.551,50.781,0
1553636194.758,-7.324,16.602,37.109,-33.203,7.812,0
1553636194.762,-17.090,11.719,54.199,-33.203,-36.133,0
1553636194.765,-25.391,9.277,57.617,-17.090,-19.043,0
1553636194.769,-19.531,12.207,51.270,-0.488,58.105,0
1553636194.773,-10.254,14.160,60.059,-15.625,82.520,0
1553636194.777,-12.695,4.395,58.594,-30.273,-10.742,0
1553636194.781,24.414,14.160,46.387,-20.020,-14.648,0
1553636194.785,24.902,18.066,38.086,45.410,24.414,0
1553636194.789,-6.836,0.000,55.176,47.852,38.574,0
1553636194.793,-6.348,7.812,63.965,-2.441,94.238,0
1553636194.797,17.578,-7.812,53.711,0.977,118.164,0
1553636194.801,45.410,1.465,13.672,-15.137,77.637,0
1553636194.804,8.789,33.691,6.836,-54.688,21.973,0
1553636194.808,-26.367,41.016,57.129,-96.191,11.230,0
1553636194.812,-34.668,34.180,72.754,-87.891,-61.035,0
1553636194.816,-4.395,-17.578,50.781,-14.160,-35.156,0
1553636194.820,42.969,-10.254,6.836,39.062,63.965,0
1553636194.824,15.137,20.508,19.043,24.414,77.637,0
1553636194.828,-20.020,20.508,72.754,-23.926,41.016,0
1553636194.832,-23.438,35.645,66.895,-59.082,5.371,0
1553636194.836,-29.785,41.504,67.383,-22.949,54.199,0
1553636194.840,-39.062,36.621,66.406,17.090,27.832,0
1553636194.844,-35.156,32.227,59.570,30.273,20.508,0
1553636194.847,-22.461,30.273,65.430,38.086,22.949,0
1553636194.851,-14.160,30.762,66.406,32.715,44.922,0
1553636194.855,-8.301,35.645,65.430,51.270,102.539,0
1553636194.859,-15.137,33.203,62.988,57.617,55.176,0
1553636194.863,-14.648,35.645,59.082,41.992,0.488,0
1553636194.867,-6.836,33.691,59.570,40.039,4.395,0
1553636194.871,-5.859,33.203,61.523,40.527,56.152,0
1553636194.875,-5.859,37.598,64.941,61.523,46.387,0
1553636194.879,-9.766,34.180,68.848,84.473,-13.672,0
1553636194.883,-12.695,39.551,64.941,60.059,21.484,0
1553636194.887,-5.371,40.527,63.477,19.531,51.758,0
1553636194.890,4.883,43.457,62.012,9.766,18.066,0
1553636194.894,10.742,51.270,61.523,17.578,35.156,0
1553636194.898,2.930,51.270,61.523,15.625,40.039,0
1553636194.902,-1.465,51.758,61.523,32.715,20.508,0
1553636194.906,-4.883,50.293,63.477,43.945,31.250,0
1553636194.910,0.000,50.781,63.477,28.320,12.207,0
1553636194.914,-11.230,47.852,62.012,8.789,14.160,0
1553636194.918,-7.324,49.805,58.594,9.277,70.312,0
1553636194.922,3.906,54.688,53.711,25.879,102.539,0
1553636194.926,13.672,53.223,52.246,21.484,62.012,0
1553636194.929,11.719,49.316,52.246,11.230,0.977,0
1553636194.933,1.465,48.828,47.852,-4.395,-11.719,0
1553636194.937,7.324,48.828,42.969,-2.930,5.859,0
1553636194.941,11.719,50.781,41.504,8.301,35.645,0
1553636194.945,3.418,55.176,38.574,-1.465,50.781,0
1553636194.949,14.648,56.152,32.715,-14.160,53.223,0
1553636194.953,35.645,56.152,33.691,-13.672,12.207,0
1553636194.957,27.832,57.617,33.203,-15.625,23.926,0
1553636194.961,20.508,52.246,25.879,-35.645,56.641,0
1553636194.965,22.461,43.457,26.855,-45.898,45.898,0
1553636194.969,9.766,43.457,22.949,-54.199,30.273,0
1553636194.972,10.742,45.410,16.113,-57.129,23.926,0
1553636194.976,36.133,54.688,17.090,-56.641,43.457,0
1553636194.980,51.270,59.570,10.254,-69.824,27.832,0
1553636194.984,31.250,45.898,15.625,-63.965,24.414,0
1553636194.988,44.922,52.246,18.555,-66.895,53.223,0
1553636194.992,44.922,54.199,9.766,-101.074,88.379,0
1553636194.996,0.488,43.945,11.719,-103.027,40.039,0
1553636195.000,2.930,43.457,17.578,-92.773,21.973,0
1553636195.004,23.926,40.527,12.695,-116.211,31.250,0
1553636195.008,61.523,47.852,5.371,-142.090,35.156,0
1553636195.012,58.105,52.246,-1.953,-169.922,68.848,0
1553636195.015,41.016,45.410,-1.465,-173.340,22.949,0
1553636195.019,68.848,47.363,-0.488,-171.387,41.504,0
1553636195.023,81.055,50.293,-0.488,-178.711,77.148,0
1553636195.027,69.824,44.922,7.324,-174.805,35.156,0
1553636195.031,75.684,41.016,9.766,-194.824,48.828,0
1553636195.035,88.379,42.480,7.812,-200.195,67.383,0
1553636195.039,105.469,42.480,8.301,-196.777,72.266,0
1553636195.043,112.305,39.551,12.695,-196.777,80.078,0
1553636195.047,102.051,38.574,8.789,-202.637,48.340,0
1553636195.051,97.168,36.621,5.371,-201.172,33.691,0
1553636195.054,104.980,33.691,12.207,-195.801,6.348,0
1553636195.058,126.465,34.180,13.672,-172.852,6.836,0
1553636195.062,119.629,32.227,18.555,-168.457,51.758,0
1553636195.066,102.539,31.250,20.020,-171.875,20.020,0
1553636195.070,101.562,30.762,20.996,-161.133,-9.766,0
1553636195.074,109.863,29.785,17.090,-158.203,24.902,0
1553636195.078,98.633,26.855,20.020,-134.277,20.508,0
1553636195.082,85.449,23.438,30.273,-115.723,21.973,0
1553636195.086,92.773,23.926,31.250,-109.375,49.805,0
1553636195.090,98.633,26.855,27.344,-106.934,51.270,0
1553636195.094,78.125,21.973,26.367,-111.328,10.254,0
1553636195.097,67.871,18.066,31.738,-95.703,10.742,0
1553636195.101,64.941,17.090,34.668,-76.660,-30.273,0
1553636195.105,59.082,11.719,36.133,-58.105,-21.973,0
1553636195.109,60.547,16.113,38.574,-41.016,6.348,0
1553636195.113,54.199,17.090,45.410,-36.621,-3.906,0
1553636195.117,52.734,9.277,50.781,-31.738,32.227,0
1553636195.121,58.105,14.648,46.387,-22.461,78.125,0
1553636195.125,65.918,17.090,44.922,-12.695,17.090,0
1553636195.129,59.570,12.695,46.387,-20.996,-2.441,0
1553636195.133,52.246,13.184,44.434,-11.230,71.777,0
1553636195.137,58.105,15.625,46.387,29.785,43.457,0
1553636195.140,44.434,11.719,55.176,78.125,11.230,0
1553636195.144,33.203,5.859,61.523,87.402,59.082,0
1553636195.148,42.969,9.766,58.594,79.590,29.785,0
1553636195.152,45.410,11.230,55.664,98.633,48.340,0
1553636195.156,51.270,14.160,58.105,136.230,66.895,0
1553636195.160,39.551,9.766,65.918,164.551,14.648,0
1553636195.164,15.137,1.465,72.754,178.223,16.113,0
1553636195.168,10.254,4.395,68.359,186.523,53.711,0
1553636195.172,2.930,5.371,63.965,199.219,54.688,0
1553636195.176,10.254,6.836,65.430,219.238,6.348,0
1553636195.179,18.555,7.324,63.965,262.695,0.977,0
1553636195.183,3.906,-0.488,66.406,358.887,-38.086,0
1553636195.187,2.930,-2.441,68.848,420.898,-27.832,0
1553636195.191,7.324,3.418,65.430,405.273,-14.648,0
1553636195.195,8.789,4.883,62.988,376.465,4.395,0
1553636195.199,8.301,3.906,63.965,376.953,27.344,0
1553636195.203,-8.789,0.000,67.383,378.418,56.641,0
1553636195.207,-10.254,0.977,69.336,378.418,73.730,0
1553636195.211,-1.465,4.883,69.824,365.234,61.035,0
1553636195.215,0.488,7.812,67.383,352.539,78.613,0
1553636195.219,5.859,9.766,65.430,352.051,51.270,0
1553636195.222,-5.371,4.395,64.453,328.613,20.020,0
1553636195.226,-2.441,3.906,62.012,327.148,20.020,0
1553636195.230,7.812,7.812,64.453,347.656,32.715,0
1553636195.234,8.301,6.348,64.941,347.168,48.340,0
1553636195.238,-7.324,4.883,57.617,324.707,49.805,0
1553636195.242,-26.367,6.348,56.152,311.035,31.738,0
1553636195.246,-27.832,9.766,52.246,283.203,3.906,0
1553636195.250,-30.762,10.254,50.293,269.043,21.973,0
1553636195.254,-34.180,10.742,50.293,270.020,17.090,0
1553636195.258,-30.273,10.254,48.828,252.441,33.691,0
1553636195.262,-41.504,4.883,51.270,269.531,29.297,0
1553636195.265,-43.457,9.766,46.387,285.645,5.371,0
1553636195.269,-24.414,18.555,40.527,280.273,17.090,0
1553636195.273,-24.414,14.648,43.945,295.898,16.113,0
1553636195.277,-22.461,15.625,42.480,299.316,12.695,0
1553636195.281,-18.066,16.113,38.086,297.852,12.695,0
1553636195.285,-25.391,14.160,41.504,311.035,57.129,0
1553636195.289,-10.254,18.555,40.527,306.641,18.066,0
1553636195.293,-6.836,15.137,34.668,289.551,-3.906,0
1553636195.297,-25.879,17.090,31.738,264.648,22.461,0
1553636195.301,-37.598,17.090,32.227,256.348,-16.602,0
1553636195.304,-44.922,11.230,34.668,256.836,-11.230,0
1553636195.308,-53.711,19.043,28.320,230.957,22.461,0
1553636195.312,-36.133,20.508,23.438,217.285,-14.648,0
1553636195.316,-30.273,15.137,22.461,217.773,-3.418,0
1553636195.320,-35.156,12.207,23.438,212.402,51.270,0
1553636195.324,-23.438,20.996,20.020,196.777,34.668,0
1553636195.328,-25.391,20.996,13.184,179.688,58.594,0
1553636195.332,-21.973,15.137,16.602,176.270,41.992,0
1553636195.336,-10.254,19.043,17.090,169.434,61.035,0
1553636195.340,-23.438,17.578,13.184,135.742,74.707,0
1553636195.344,-5.371,20.996,12.207,122.559,17.578,0
1553636195.347,8.301,22.461,14.160,126.465,6.348,0
1553636195.351,-9.277,19.043,12.207,130.371,16.113,0
1553636195.355,-12.695,16.602,10.742,135.254,51.758,0
1553636195.359,2.441,17.578,8.789,122.559,52.734,0
1553636195.363,11.719,22.949,6.836,108.887,7.812,0
1553636195.367,8.301,21.484,9.277,109.863,5.859,0
1553636195.371,10.742,17.578,11.719,109.863,15.137,0
1553636195.375,9.277,20.020,12.695,110.840,36.133,0
1553636195.379,3.418,17.578,13.184,107.422,47.363,0
1553636195.383,16.113,20.508,13.184,103.516,37.109,0
1553636195.387,23.926,22.949,9.766,98.145,34.668,0
1553636195.390,19.531,19.531,10.254,79.102,-3.418,0
1553636195.394,5.371,20.996,10.254,57.617,32.715,0
1553636195.398,7.812,21.973,6.836,56.641,93.750,0
1553636195.402,25.391,23.926,5.859,62.012,93.750,0
1553636195.406,31.250,22.461,9.766,67.383,34.180,0
1553636195.410,22.461,22.461,14.160,57.129,22.949,0
1553636195.414,20.020,23.438,14.160,48.828,52.246,0
1553636195.418,24.414,19.531,15.625,54.688,27.344,0
1553636195.422,17.090,21.484,18.555,63.477,26.367,0
1553636195.426,20.508,20.020,21.973,68.848,58.594,0
1553636195.429,33.203,15.625,26.367,71.777,49.316,0
1553636195.433,26.367,15.625,29.297,71.289,12.695,0
1553636195.437,39.062,21.973,25.879,65.918,46.875,0
1553636195.441,40.527,24.902,28.809,61.523,95.703,0
1553636195.445,30.273,24.902,29.785,58.594,73.730,0
1553636195.449,39.551,28.320,28.320,67.383,23.926,0
1553636195.453,43.457,30.762,31.738,70.801,45.410,0
1553636195.457,42.969,28.809,31.250,61.523,19.043,0
1553636195.461,38.086,24.902,28.809,51.758,59.570,0
1553636195.465,41.992,28.809,28.320,45.410,84.961,0
1553636195.469,41.992,28.320,27.832,45.410,32.227,0
1553636195.472,28.809,21.484,27.832,42.480,48.340,0
1553636195.476,32.715,25.879,26.367,37.598,44.922,0
1553636195.480,39.551,29.785,27.832,40.039,37.598,0
1553636195.484,36.621,30.273,30.762,41.992,31.250,0
1553636195.488,30.762,28.320,30.762,31.250,1.465,0
1553636195.492,31.738,26.367,31.250,34.668,70.312,0
1553636195.496,36.133,29.785,28.320,17.090,87.402,0
1553636195.500,38.086,32.715,27.832,10.254,76.172,0
1553636195.504,26.367,32.715,28.320,21.973,39.062,0
1553636195.508,19.531,31.250,24.902,2.441,4.395,0
1553636195.512,16.113,30.762,27.832,3.418,68.359,0
1553636195.515,8.789,28.809,32.227,20.508,55.664,0
1553636195.519,6.348,24.414,30.273,12.695,-2.930,0
1553636195.523,20.020,17.090,23.926,13.184,38.574,0
1553636195.527,40.039,19.531,25.879,26.855,57.129,0
1553636195.531,17.090,29.785,29.297,-5.371,57.617,0
1553636195.535,-16.113,36.621,22.461,-49.805,50.293,0
1553636195.539,-21.484,34.180,21.484,-40.527,3.906,0
1553636195.543,-11.230,34.180,17.578,-29.297,23.926,0
1553636195.547,0.000,41.504,13.184,-30.762,57.129,0
1553636195.551,-15.625,37.598,11.719,-34.668,69.824,0
1553636195.554,-19.531,36.621,5.371,-52.734,57.617,0
1553636195.558,-31.738,37.598,8.301,-73.242,51.758,0
1553636195.562,-57.129,33.691,10.254,-76.172,51.758,0
1553636195.566,-71.289,27.832,8.301,-73.730,52.246,0
1553636195.570,-63.965,28.320,5.371,-73.730,15.137,0
1553636195.574,-64.941,29.785,6.348,-75.195,32.715,0
1553636195.578,-87.402,25.391,6.348,-83.984,23.438,0
1553636195.582,-73.242,25.391,4.883,-76.660,-1.953,0
1553636195.586,-69.824,25.879,4.395,-77.148,19.531,0
1553636195.590,-55.176,21.973,7.324,-78.125,16.602,0
1553636195.594,-35.645,22.949,11.719,-47.363,55.176,0
1553636195.597,-40.527,26.855,10.742,-37.598,43.457,0
1553636195.601,-24.414,25.391,10.742,-32.715,-17.578,0
1553636195.605,-5.371,21.973,12.695,0.488,0.488,0
1553636195.609,13.184,27.832,10.254,10.742,58.105,0
1553636195.613,24.902,27.832,7.812,0.977,94.727,0
1553636195.617,24.414,27.344,5.371,-15.625,41.992,0
1553636195.621,29.297,36.133,6.348,-12.207,-0.977,0
1553636195.625,27.832,24.414,20.508,-3.418,-15.137,0
1553636195.629,13.184,12.695,24.902,-17.578,-4.395,0
1553636195.633,-4.883,15.625,19.531,11.230,20.508,0
1553636195.637,2.930,21.484,23.438,14.160,25.391,0
1553636195.640,23.438,24.414,23.926,-19.043,27.832,0
1553636195.644,30.273,27.832,20.508,-7.324,18.066,0
1553636195.648,4.883,28.320,21.973,-0.977,38.086,0
1553636195.652,9.766,26.855,22.949,-5.859,74.219,0
1553636195.656,24.902,25.879,23.926,-6.348,69.824,0
1553636195.660,14.160,26.367,23.926,-3.418,11.230,0
1553636195.664,9.766,25.879,24.902,-4.883,-6.348,0
1553636195.668,-1.953,15.137,34.668,-18.066,3.418,0
1553636195.672,6.836,14.160,35.645,-24.414,41.992,0
1553636195.676,20.020,25.879,25.879,-13.672,46.387,0
1553636195.679,26.855,28.320,25.391,-10.254,68.359,0
1553636195.683,27.832,25.879,28.809,-13.184,98.633,0
1553636195.687,19.043,26.855,22.461,-15.625,52.246,0
1553636195.691,17.578,19.531,20.020,-8.301,64.453,0
1553636195.695,17.578,11.230,33.203,32.715,66.406,0
1553636195.699,24.902,20.508,31.738,8.301,0.977,0
1553636195.703,37.109,30.273,23.926,-17.578,4.883,0
1553636195.707,22.949,24.414,26.367,-7.812,29.785,0
1553636195.711,-0.977,16.602,27.344,-19.531,40.527,0
1553636195.715,-8.789,13.184,30.762,-17.578,104.492,0
1553636195.719,-4.395,12.207,33.691,-18.066,97.656,0
1553636195.722,-0.977,14.160,30.762,-27.344,64.453,0
1553636195.726,16.602,18.555,35.156,-0.488,40.039,0
1553636195.730,28.320,18.066,40.039,20.508,-12.207,0
1553636195.734,21.973,21.484,32.715,-7.324,19.043,0
1553636195.738,7.812,22.461,29.785,-25.391,35.156,0
1553636195.742,15.625,18.555,33.203,-19.043,9.277,0
1553636195.746,19.531,19.043,33.203,-20.508,13.672,0
1553636195.750,17.578,18.555,34.668,-28.809,22.461,0
1553636195.754,29.297,15.625,36.621,-25.879,-11.719,0
1553636195.758,16.602,11.719,37.598,-17.578,6.836,0
1553636195.762,-5.371,11.230,35.156,-17.090,46.387,0
1553636195.765,18.555,18.555,34.180,-18.555,74.219,0
1553636195.769,37.598,19.531,36.621,-13.672,82.520,0
1553636195.773,17.090,14.160,38.574,-10.254,56.152,0
1553636195.777,19.043,14.160,41.016,-6.348,-3.418,0
1553636195.781,21.484,16.602,38.574,3.418,-8.301,0
1553636195.785,17.090,13.672,39.551,-1.465,-9.766,0
1553636195.789,26.855,14.648,39.551,-21.484,-1.465,0
1553636195.793,24.902,16.602,41.016,-13.184,10.254,0
1553636195.797,9.277,12.695,41.992,1.953,-13.672,0
1553636195.801,7.812,14.648,35.156,-15.625,9.277,0
1553636195.804,7.812,14.160,30.762,-35.645,67.871,0
1553636195.808,0.977,12.207,30.273,-45.898,29.785,0
1553636195.812,10.742,16.602,31.738,-45.898,-5.371,0
1553636195.816,18.066,22.949,31.738,-26.855,73.730,0
1553636195.820,22.949,22.949,31.250,-20.020,115.234,0
1553636195.824,14.160,14.648,34.668,-20.508,82.520,0
1553636195.828,10.742,15.625,38.086,-16.113,87.402,0
1553636195.832,12.207,24.902,35.156,-20.020,44.922,0
1553636195.836,3.418,29.297,32.715,-32.715,2.441,0
1553636195.840,6.348,24.902,31.250,-35.645,-3.418,0
1553636195.844,8.789,23.438,29.297,-27.832,-25.391,0
1553636195.847,9.766,22.461,31.250,-26.855,5.859,0
1553636195.851,15.137,14.648,39.062,-22.461,24.414,0
1553636195.855,21.973,18.066,38.574,-19.531,16.113,0
1553636195.859,33.203,25.391,31.738,-24.414,28.809,0
1553636195.863,34.668,23.438,36.621,-20.996,41.504,0
1553636195.867,20.508,21.484,38.574,-31.738,30.762,0
1553636195.871,14.648,19.531,38.574,-36.621,58.594,0
1553636195.875,11.230,21.484,33.691,-31.738,104.492,0
1553636195.879,15.625,28.809,22.461,-39.062,82.520,0
1553636195.883,17.578,24.414,30.273,-28.809,29.297,0
1553636195.887,21.484,16.113,31.250,-8.301,-23.438,0
1553636195.890,38.086,12.695,25.391,5.859,5.371,0
1553636195.894,33.203,13.672,32.715,-7.812,19.043,0
1553636195.898,9.766,27.832,37.598,-25.879,41.992,0
1553636195.902,14.648,26.367,38.086,-15.625,69.336,0
1553636195.906,37.598,20.996,35.156,-0.977,45.410,0
1553636195.910,47.852,23.926,31.738,14.648,41.016,0
1553636195.914,59.082,26.855,30.762,24.414,17.090,0
1553636195.918,66.895,32.715,32.715,23.926,18.555,0
1553636195.922,70.801,33.203,38.574,17.090,28.320,0
1553636195.926,76.172,31.250,44.434,25.391,70.801,0
1553636195.929,79.102,32.715,46.387,47.363,62.012,0
1553636195.933,86.914,30.762,44.434,47.852,-14.160,0
1553636195.937,80.566,29.297,41.992,33.691,2.930,0
1553636195.941,50.293,24.902,45.898,31.250,15.625,0
1553636195.945,50.781,24.414,45.898,26.855,-6.836,0
1553636195.949,57.617,28.320,42.969,15.137,38.574,0
1553636195.953,48.828,31.250,40.527,7.324,62.500,0
1553636195.957,49.805,36.133,35.645,-3.906,14.648,0
1553636195.961,40.039,31.738,36.133,1.465,-25.391,0
1553636195.965,32.715,20.996,37.109,7.324,25.391,0
1553636195.969,39.062,23.926,37.598,4.883,53.711,0
1553636195.972,44.922,29.297,40.527,2.930,62.988,0
1553636195.976,45.410,26.367,43.945,2.930,68.848,0
1553636195.980,41.016,23.438,48.828,14.160,34.668,0
1553636195.984,36.621,19.043,46.387,11.230,39.551,0
1553636195.988,35.645,26.367,40.039,1.465,23.926,0
1553636195.992,45.410,35.156,42.480,2.930,27.832,0
1553636195.996,51.270,30.762,43.945,-2.441,69.824,0
1553636196.000,32.715,24.414,39.062,-20.508,100.098,0
1553636196.004,26.855,31.738,43.945,-11.230,50.781,0
1553636196.008,35.156,39.062,44.434,0.000,-19.531,0
1553636196.012,41.992,42.480,46.875,-4.395,16.113,0
1553636196.015,36.621,42.969,54.688,-0.488,52.246,0
1553636196.019,14.160,29.785,53.223,-17.578,34.180,0
1553636196.023,13.184,30.762,57.617,-20.020,-4.883,0
1553636196.027,12.695,35.156,62.012,-13.184,-37.109,0
1553636196.031,9.766,37.109,60.547,-28.809,-2.930,0
1553636196.035,9.766,43.945,60.059,-51.758,2.441,0
1553636196.039,0.488,41.992,56.641,-62.988,2.441,0
