timestamps,TP9,AF7,AF8,TP10,Right AUX,Marker0
1542907284.910,151.367,0.977,85.449,182.617,943.848,0
1542907284.914,134.766,-0.977,84.473,180.176,932.129,0
1542907284.917,134.766,-2.441,83.496,186.035,986.328,0
1542907284.921,140.625,2.930,78.613,174.805,-999.512,0
1542907284.925,132.812,8.789,71.289,150.879,998.047,0
1542907284.929,130.371,10.254,69.336,147.949,999.023,0
1542907284.933,130.859,16.113,68.359,156.250,999.512,0
1542907284.937,119.629,19.531,65.918,144.531,999.512,0
1542907284.941,107.910,16.602,63.477,131.836,999.512,0
1542907284.945,107.910,18.066,59.570,132.812,999.512,0
1542907284.949,112.793,19.531,54.688,139.648,999.512,0
1542907284.953,106.445,22.461,50.293,133.301,999.512,0
1542907284.956,85.449,27.344,45.898,116.211,999.512,0
1542907284.960,82.520,31.250,40.039,114.746,999.512,0
1542907284.964,81.543,35.156,39.062,108.398,999.512,0
1542907284.968,70.801,34.180,39.551,87.891,999.512,0
1542907284.972,65.918,31.738,37.109,83.008,996.582,0
1542907284.976,62.500,32.227,33.691,83.496,-994.629,0
1542907284.980,57.129,34.668,31.738,83.984,967.773,0
1542907284.984,58.105,36.133,31.738,76.660,908.691,0
1542907284.988,62.500,37.598,28.809,73.242,934.570,0
1542907284.992,64.941,36.133,27.344,65.430,896.484,0
1542907284.996,51.270,34.180,28.809,57.129,754.883,0
1542907284.999,44.922,37.598,29.785,67.871,685.547,0
1542907285.003,54.199,40.039,35.156,63.477,681.641,0
1542907285.007,54.199,40.527,35.156,62.012,660.645,0
1542907285.011,47.852,39.551,31.738,72.754,545.410,0
1542907285.015,43.945,35.156,28.809,64.941,421.875,0
1542907285.019,46.387,35.156,28.320,48.340,389.648,0
1542907285.023,50.781,37.598,28.809,48.828,332.031,0
1542907285.027,51.758,39.551,29.785,52.246,251.465,0
1542907285.031,44.922,36.621,28.320,52.734,133.301,0
1542907285.035,41.016,31.738,23.438,52.734,83.496,0
1542907285.039,41.016,31.738,25.879,41.992,105.957,0
1542907285.042,38.574,35.156,30.273,31.738,44.922,0
1542907285.046,40.039,35.156,29.785,41.016,-96.191,0
1542907285.050,39.062,36.621,25.879,41.016,-169.922,0
1542907285.054,38.086,34.668,24.902,38.086,-145.020,0
1542907285.058,39.551,31.738,25.879,44.922,-198.242,0
1542907285.062,41.992,34.668,24.414,34.180,-306.152,0
1542907285.066,36.133,34.668,24.414,40.527,-371.094,0
1542907285.070,31.738,36.133,25.391,36.621,-373.535,0
1542907285.074,34.180,38.574,26.367,16.113,-410.645,0
1542907285.078,36.621,36.621,27.344,35.645,-491.211,0
1542907285.081,37.109,35.156,26.367,39.062,-557.617,0
1542907285.085,31.250,35.645,24.414,25.391,-601.074,0
1542907285.089,30.273,34.180,25.391,30.273,-614.746,0
1542907285.093,32.715,33.203,30.762,44.434,-661.621,0
1542907285.097,32.715,36.621,31.738,36.621,-737.793,0
1542907285.101,29.297,35.645,30.273,20.996,-778.320,0
1542907285.105,26.367,34.180,21.484,24.902,-767.090,0
1542907285.109,33.691,34.668,16.602,33.203,-766.113,0
1542907285.113,31.250,37.598,25.879,31.250,-835.938,0
1542907285.117,41.016,39.062,26.855,34.180,-887.207,0
1542907285.121,65.430,31.250,28.320,55.176,-871.094,0
1542907285.124,93.262,31.250,34.180,92.773,-896.973,0
1542907285.128,87.402,44.922,26.855,78.125,-956.055,0
1542907285.132,-2.441,41.992,6.836,-11.230,-975.098,0
1542907285.136,-74.707,33.691,-28.320,-59.570,-971.191,0
1542907285.140,-78.613,32.715,-32.715,-67.871,-973.145,0
1542907285.144,-100.586,35.645,-13.184,-111.816,-973.145,0
1542907285.148,-154.785,25.391,-48.340,-169.922,-973.145,0
1542907285.152,-182.129,10.254,-57.129,-187.012,-973.145,0
1542907285.156,-194.336,37.598,-25.391,-201.172,-973.145,0
1542907285.160,-189.453,48.828,-67.383,-212.891,-973.145,0
1542907285.164,-178.711,59.570,-97.168,-202.148,-972.656,0
1542907285.167,-237.305,88.379,-38.086,-251.953,-972.656,0
1542907285.171,-328.613,59.082,-35.156,-358.398,-972.656,0
1542907285.175,-391.602,27.344,-80.078,-429.199,-973.145,0
1542907285.179,-378.906,52.734,-78.613,-424.805,-973.145,0
1542907285.183,-319.824,85.449,-30.762,-368.652,-973.145,0
1542907285.187,-335.449,60.547,-23.926,-364.746,-973.145,0
1542907285.191,-367.188,29.297,-69.824,-388.672,-973.145,0
1542907285.195,-344.238,32.227,-87.891,-373.535,-973.633,0
1542907285.199,-316.406,34.180,-87.402,-359.375,-969.238,0
1542907285.203,-307.617,31.250,-73.242,-343.750,-978.027,0
1542907285.206,-288.574,29.297,-44.922,-319.336,-944.336,0
1542907285.210,-270.020,24.902,-68.359,-311.523,-838.867,0
1542907285.214,-262.695,25.879,-70.312,-301.758,-783.203,0
1542907285.218,-244.629,30.273,-43.457,-275.879,-742.188,0
1542907285.222,-213.867,27.832,-41.016,-240.723,-717.773,0
1542907285.226,-174.805,21.484,-27.344,-207.031,-685.547,0
1542907285.230,-151.855,19.531,-24.414,-186.035,-596.680,0
1542907285.234,-138.672,22.949,-21.484,-160.645,-588.379,0
1542907285.238,-110.840,31.250,-19.043,-126.953,-587.402,0
1542907285.242,-85.449,22.949,-22.461,-106.934,-518.066,0
1542907285.246,-73.730,15.625,-15.625,-86.914,-406.250,0
1542907285.249,-67.383,18.555,-6.836,-69.824,-377.441,0
1542907285.253,-57.617,14.160,-11.719,-66.895,-343.262,0
1542907285.257,-48.828,11.719,-9.766,-58.594,-304.688,0
1542907285.261,-34.668,12.207,2.441,-44.434,-314.941,0
1542907285.265,-27.344,13.184,10.254,-38.574,-321.289,0
1542907285.269,-27.832,18.555,16.113,-36.621,-291.992,0
1542907285.273,-23.926,16.113,20.020,-28.809,-264.160,0
1542907285.277,-14.160,8.789,21.484,-16.113,-246.094,0
1542907285.281,-3.418,13.184,22.949,-6.348,-188.965,0
1542907285.285,1.953,11.230,23.438,-10.254,-196.289,0
1542907285.289,-1.953,4.395,21.484,-10.742,-173.340,0
1542907285.292,9.277,8.789,19.531,5.371,-161.621,0
1542907285.296,17.578,11.719,20.508,10.254,-197.754,0
1542907285.300,15.625,9.766,22.461,3.418,-201.172,0
1542907285.304,20.508,11.230,20.996,7.812,-192.871,0
1542907285.308,20.996,8.789,22.461,21.973,-115.723,0
1542907285.312,18.555,9.277,23.438,20.020,-95.215,0
1542907285.316,31.250,17.578,25.391,26.855,-159.180,0
1542907285.320,41.016,20.996,31.250,46.387,-128.906,0
1542907285.324,30.762,19.531,20.996,43.945,-131.348,0
1542907285.328,34.668,15.137,16.113,31.250,-167.480,0
1542907285.331,35.156,15.625,24.414,35.156,-61.035,0
1542907285.335,33.691,18.555,26.855,38.574,-28.320,0
1542907285.339,41.016,16.602,24.902,36.133,-109.375,0
1542907285.343,43.457,18.066,21.973,42.969,-96.680,0
1542907285.347,36.133,19.043,22.949,31.738,-63.477,0
1542907285.351,40.527,20.020,23.438,28.809,-85.449,0
1542907285.355,45.410,22.461,17.090,41.016,-140.625,0
1542907285.359,38.086,19.043,22.461,35.156,-138.184,0
1542907285.363,39.062,19.043,23.438,33.691,-88.867,0
1542907285.367,41.504,19.043,20.508,38.574,-108.887,0
1542907285.371,39.062,15.625,21.484,35.645,-94.238,0
1542907285.374,33.691,29.785,13.672,23.926,-83.496,0
1542907285.378,28.320,26.855,14.160,24.414,-103.027,0
1542907285.382,32.227,15.137,19.531,33.203,-62.500,0
1542907285.386,29.785,20.020,20.996,41.016,-18.555,0
1542907285.390,30.273,16.602,19.043,50.293,-5.859,0
1542907285.394,43.457,17.090,20.020,51.758,26.855,0
1542907285.398,52.734,21.973,21.973,42.480,-27.344,0
1542907285.402,43.457,20.508,22.461,50.293,-87.891,0
1542907285.406,44.434,20.996,28.320,54.688,-15.137,0
1542907285.410,56.641,26.367,23.438,49.805,-4.395,0
1542907285.414,48.828,17.578,19.043,41.016,33.691,0
1542907285.417,34.180,13.672,28.809,28.320,48.828,0
1542907285.421,41.992,15.137,24.414,38.086,-57.617,0
1542907285.425,41.504,28.809,23.926,30.273,-53.711,0
1542907285.429,45.898,29.297,28.320,25.879,-19.531,0
1542907285.433,40.527,13.672,28.320,37.109,19.043,0
1542907285.437,41.016,13.184,22.949,55.176,12.695,0
1542907285.441,62.988,13.184,28.320,67.383,-41.992,0
1542907285.445,75.684,19.531,40.527,80.566,-48.340,0
1542907285.449,75.684,23.438,37.109,89.355,-13.672,0
1542907285.453,30.762,16.113,30.762,63.965,-14.160,0
1542907285.456,-12.207,7.812,20.508,8.789,-67.871,0
1542907285.460,-49.805,2.441,7.324,-34.668,-27.344,0
1542907285.464,-60.059,-12.695,6.836,-23.438,34.180,0
1542907285.468,-65.918,-7.812,-8.301,-39.062,34.668,0
1542907285.472,-86.426,17.090,-16.113,-73.730,35.156,0
1542907285.476,-85.938,17.578,22.461,-74.219,-29.297,0
1542907285.480,-98.633,12.695,32.715,-90.820,-78.125,0
1542907285.484,-102.051,15.137,27.344,-95.215,-33.203,0
1542907285.488,-92.285,19.043,17.578,-67.383,15.137,0
1542907285.492,-88.867,-0.488,14.160,-49.316,-0.488,0
1542907285.496,-57.617,-10.742,20.996,-54.688,21.973,0
1542907285.499,-36.621,0.000,20.996,-42.480,-4.883,0
1542907285.503,-26.367,-5.371,27.344,-31.250,-40.527,0
1542907285.507,-33.691,-2.930,20.020,-42.969,5.859,0
1542907285.511,-28.809,-1.465,15.137,-36.621,-11.719,0
1542907285.515,-20.996,-9.277,23.438,-14.648,-14.160,0
1542907285.519,-17.578,-0.488,31.738,-10.254,52.734,0
1542907285.523,-3.906,4.883,33.203,-5.859,-7.324,0
1542907285.527,-13.672,6.836,28.809,-0.488,-59.570,0
1542907285.531,-29.785,4.395,28.809,-1.465,26.367,0
1542907285.535,-32.715,13.184,22.461,-2.441,17.090,0
1542907285.539,-3.418,12.695,20.508,0.488,-5.371,0
1542907285.542,8.301,-4.883,41.504,-4.883,76.172,0
1542907285.546,-6.836,8.789,33.691,8.789,63.477,0
1542907285.550,-19.043,19.043,29.297,2.930,-4.883,0
1542907285.554,-16.113,29.297,25.879,5.859,18.555,0
1542907285.558,2.930,13.672,37.109,37.109,55.176,0
1542907285.562,-11.230,-6.836,60.059,8.789,69.336,0
1542907285.566,8.789,9.766,23.926,39.062,1.953,0
1542907285.570,-6.348,26.367,51.758,-7.324,-40.039,0
1542907285.574,-16.602,18.555,73.730,-70.801,36.621,0
1542907285.578,37.598,-0.488,31.738,14.648,4.883,0
1542907285.581,55.664,-4.395,18.066,93.750,-11.719,0
1542907285.585,51.270,4.883,29.785,93.750,-33.203,0
1542907285.589,0.977,16.113,63.965,-30.762,10.254,0
1542907285.593,-20.508,13.672,48.828,-51.758,73.242,0
1542907285.597,17.578,13.672,20.020,79.102,22.461,0
1542907285.601,-2.441,42.969,45.410,-24.902,16.113,0
1542907285.605,-48.828,44.922,69.824,-150.391,8.789,0
1542907285.609,-15.625,11.719,58.105,-77.148,6.836,0
1542907285.613,23.926,29.297,17.578,45.898,-18.555,0
1542907285.617,-25.391,39.551,45.410,21.484,-20.508,0
1542907285.621,-37.109,2.441,124.512,-64.453,24.902,0
1542907285.624,62.500,8.789,72.754,-3.906,5.859,0
1542907285.628,59.570,58.594,2.441,62.012,2.441,0
1542907285.632,-31.738,56.641,77.637,32.227,30.273,0
1542907285.636,-60.547,41.016,44.434,10.254,27.344,0
1542907285.640,21.973,32.227,-8.789,96.191,12.695,0
1542907285.644,-26.855,34.180,85.938,31.250,-35.156,0
1542907285.648,-30.762,21.973,154.785,-76.660,-34.668,0
1542907285.652,61.523,17.578,60.547,6.348,7.812,0
1542907285.656,8.301,70.801,-29.785,54.688,36.621,0
1542907285.660,-99.609,187.988,78.613,-157.227,62.012,0
1542907285.664,-152.344,121.582,106.445,-152.832,23.926,0
1542907285.667,-8.789,-37.598,22.461,102.051,-20.020,0
1542907285.671,37.598,-8.789,17.090,123.535,28.320,0
1542907285.675,-39.062,3.906,76.660,16.602,27.832,0
1542907285.679,2.441,53.223,-10.254,-57.129,-47.363,0
1542907285.683,-2.441,40.527,38.086,-33.691,-18.555,0
1542907285.687,-42.969,-16.602,161.621,3.906,10.254,0
1542907285.691,21.484,65.430,-17.090,30.273,22.461,0
1542907285.695,64.941,50.781,-25.879,62.012,16.113,0
1542907285.699,34.180,-42.480,76.172,62.500,12.695,0
1542907285.703,22.949,16.113,76.660,-11.230,-16.113,0
1542907285.706,14.160,25.391,30.762,-31.738,-1.953,0
1542907285.710,23.438,-3.906,11.230,-3.418,10.254,0
1542907285.714,13.672,19.531,26.367,14.648,14.648,0
1542907285.718,41.016,21.973,-17.090,19.043,53.223,0
1542907285.722,-37.598,41.992,-21.484,-50.293,33.691,0
1542907285.726,-86.426,36.133,72.266,-149.414,59.570,0
1542907285.730,-22.949,51.270,121.094,-92.285,108.398,0
1542907285.734,-35.156,58.594,51.270,-79.590,113.770,0
1542907285.738,-25.391,15.137,-1.465,-75.684,45.898,0
1542907285.742,-19.531,-16.113,46.875,-41.504,7.812,0
1542907285.746,-38.574,91.309,-18.066,-129.395,65.918,0
1542907285.749,-45.410,114.746,-22.949,-121.094,51.270,0
1542907285.753,-79.102,18.555,4.883,-86.426,-8.301,0
1542907285.757,-180.664,80.078,-19.043,-180.664,-14.160,0
1542907285.761,-113.770,118.164,-3.906,-190.918,19.043,0
1542907285.765,-23.438,34.668,23.926,-134.766,-3.906,0
1542907285.769,-76.660,2.441,53.223,-147.461,52.734,0
1542907285.773,-129.883,63.965,6.836,-145.996,78.613,0
1542907285.777,-143.555,3.906,187.012,-245.117,36.621,0
1542907285.781,-178.223,53.223,76.660,-182.617,65.430,0
1542907285.785,-106.934,94.238,-74.707,-93.262,23.438,0
1542907285.789,-44.434,35.156,46.875,-113.770,-4.883,0
1542907285.792,-88.379,29.297,-11.719,-131.836,52.246,0
1542907285.796,-91.309,61.523,7.324,-193.848,67.383,0
1542907285.800,-42.969,115.234,24.902,-136.230,46.387,0
1542907285.804,-21.973,87.891,0.488,-77.637,39.062,0
1542907285.808,-21.973,56.641,5.859,-21.484,25.879,0
1542907285.812,-2.441,41.016,41.992,-20.996,19.531,0
1542907285.816,16.602,33.691,75.684,-25.879,27.832,0
1542907285.820,25.879,39.062,48.828,20.508,43.457,0
1542907285.824,12.695,62.500,36.133,39.551,7.324,0
1542907285.828,94.727,70.801,5.371,35.645,19.043,0
1542907285.831,132.812,42.480,20.508,79.102,46.875,0
1542907285.835,101.074,42.969,41.016,54.688,40.039,0
1542907285.839,122.559,58.594,12.207,92.773,59.082,0
1542907285.843,166.992,45.898,53.223,125.488,35.645,0
1542907285.847,220.215,39.551,65.430,133.301,-8.789,0
1542907285.851,243.164,36.133,45.410,218.262,17.090,0
1542907285.855,232.422,35.156,69.824,229.492,40.527,0
1542907285.859,225.098,35.645,73.242,235.352,57.617,0
1542907285.863,270.508,20.996,103.516,246.094,21.973,0
1542907285.867,313.477,29.785,82.031,303.223,4.395,0
1542907285.871,301.270,40.527,55.176,302.734,33.691,0
1542907285.874,301.758,37.598,88.867,297.852,68.359,0
1542907285.878,328.125,37.109,80.078,372.070,120.117,0
1542907285.882,323.730,28.320,98.633,377.441,97.168,0
1542907285.886,329.102,28.320,115.234,325.684,80.078,0
1542907285.890,334.473,28.320,104.004,338.867,108.887,0
1542907285.894,347.656,32.715,88.379,394.043,131.348,0
1542907285.898,333.984,34.668,119.629,380.859,159.180,0
1542907285.902,330.566,35.645,102.539,378.418,136.719,0
1542907285.906,323.242,28.320,108.398,368.652,67.871,0
1542907285.910,333.008,32.715,105.469,363.281,98.633,0
1542907285.914,315.918,35.156,87.402,364.746,66.406,0
1542907285.917,311.523,31.738,101.562,368.164,13.672,0
1542907285.921,322.754,28.809,105.957,369.629,22.949,0
1542907285.925,286.133,25.391,112.793,350.098,22.461,0
1542907285.929,278.809,26.367,107.422,343.262,61.035,0
1542907285.933,266.602,20.996,107.910,312.500,62.500,0
1542907285.937,262.695,20.020,105.469,328.125,50.781,0
1542907285.941,252.441,26.855,96.680,319.336,85.938,0
1542907285.945,222.656,29.785,97.168,272.461,89.355,0
1542907285.949,219.238,26.367,103.027,280.762,63.477,0
1542907285.953,222.656,24.902,100.098,281.250,41.992,0
1542907285.956,195.312,26.367,94.727,261.230,11.719,0
1542907285.960,171.387,31.250,91.309,225.098,-2.441,0
1542907285.964,178.223,33.691,80.566,208.496,28.320,0
1542907285.968,153.320,28.809,83.008,199.707,109.863,0
1542907285.972,119.629,27.344,82.031,179.199,110.352,0
1542907285.976,112.305,29.785,69.824,163.574,79.102,0
1542907285.980,99.121,35.156,62.988,142.578,75.195,0
1542907285.984,86.914,29.785,68.359,127.441,55.664,0
1542907285.988,83.008,25.879,68.359,125.488,85.449,0
1542907285.992,80.566,27.832,59.082,122.559,99.121,0
1542907285.996,73.730,29.785,58.105,109.863,83.008,0
1542907285.999,66.406,29.297,56.641,102.539,87.891,0
1542907286.003,57.129,23.926,56.152,105.957,35.645,0
1542907286.007,52.246,23.926,57.617,116.211,43.945,0
1542907286.011,52.246,23.926,54.688,111.328,103.027,0
1542907286.015,46.875,26.367,52.734,76.172,81.055,0
1542907286.019,32.715,31.738,55.176,59.082,43.945,0
1542907286.023,20.020,33.203,51.270,65.430,31.250,0
1542907286.027,33.691,21.484,45.898,81.055,67.871,0
1542907286.031,39.551,11.719,48.340,84.473,71.289,0
1542907286.035,18.066,17.578,51.270,68.359,52.246,0
1542907286.039,19.531,25.391,45.898,70.801,10.254,0
1542907286.042,23.926,26.855,46.875,83.008,12.207,0
1542907286.046,20.996,25.391,52.734,81.543,76.172,0
1542907286.050,22.461,21.484,44.434,75.684,55.664,0
1542907286.054,10.742,22.949,46.387,74.707,1.953,0
1542907286.058,17.578,28.320,45.898,74.707,20.020,0
1542907286.062,29.785,21.973,45.898,65.430,56.641,0
1542907286.066,3.418,30.762,46.387,60.547,50.293,0
1542907286.070,-5.371,26.367,47.363,67.383,31.738,0
1542907286.074,12.695,18.066,47.363,56.152,99.609,0
1542907286.078,21.484,21.484,41.504,46.387,115.234,0
1542907286.081,18.555,21.484,43.457,43.457,72.754,0
1542907286.085,5.859,26.855,41.504,45.898,51.758,0
1542907286.089,-1.953,29.297,40.039,50.293,50.781,0
1542907286.093,9.277,22.949,40.527,66.406,85.938,0
1542907286.097,44.434,28.320,41.016,78.613,41.016,0
1542907286.101,47.363,37.109,54.199,66.895,-3.418,0
1542907286.105,-27.344,41.016,36.133,9.766,16.113,0
1542907286.109,-113.281,40.039,24.902,-85.449,7.812,0
1542907286.113,-140.137,28.320,33.203,-121.094,14.648,0
1542907286.117,-165.527,34.668,25.391,-145.020,42.480,0
1542907286.121,-232.422,41.504,19.043,-202.637,-2.930,0
1542907286.124,-265.137,39.551,0.488,-241.699,6.348,0
1542907286.128,-278.809,39.062,-11.230,-277.832,83.008,0
1542907286.132,-310.547,33.691,-2.441,-314.941,54.199,0
1542907286.136,-333.984,43.457,-15.137,-319.336,10.742,0
1542907286.140,-341.309,40.527,-24.902,-322.754,35.156,0
1542907286.144,-349.121,37.598,-12.695,-340.820,56.152,0
1542907286.148,-385.254,39.551,-15.625,-373.535,71.777,0
1542907286.152,-395.020,30.762,-13.672,-381.836,97.168,0
1542907286.156,-382.324,24.414,-4.883,-367.188,39.551,0
1542907286.160,-386.230,23.438,-5.371,-366.211,-18.555,0
1542907286.164,-353.027,24.902,-2.441,-339.355,8.789,0
1542907286.167,-325.684,17.090,3.418,-310.059,21.484,0
1542907286.171,-319.336,18.066,4.395,-291.016,-19.043,0
1542907286.175,-266.602,20.020,5.859,-250.000,-27.344,0
1542907286.179,-233.398,17.578,8.789,-220.215,50.781,0
1542907286.183,-208.008,12.695,14.160,-189.453,70.312,0
1542907286.187,-186.523,5.371,17.090,-163.086,38.086,0
1542907286.191,-165.527,7.812,22.949,-154.297,47.363,0
1542907286.195,-158.691,3.418,28.809,-124.023,57.617,0
1542907286.199,-147.461,-9.277,33.203,-80.566,18.066,0
1542907286.203,-116.699,-6.348,35.156,-48.828,38.086,0
1542907286.206,-70.801,-1.953,26.367,-53.223,72.266,0
1542907286.210,-40.039,-3.418,22.461,-53.223,58.105,0
1542907286.214,-47.363,0.488,27.832,-26.367,48.340,0
1542907286.218,-48.340,0.977,35.156,-12.695,74.707,0
1542907286.222,-34.180,0.000,32.227,3.906,63.477,0
1542907286.226,-11.719,4.883,28.809,22.949,37.109,0
1542907286.230,8.301,6.348,31.250,20.020,66.406,0
1542907286.234,20.996,7.812,24.414,17.578,56.641,0
1542907286.238,-0.488,6.348,25.879,36.621,62.988,0
1542907286.242,-4.395,0.977,32.715,44.922,83.008,0
1542907286.246,24.414,4.883,27.344,29.297,57.129,0
1542907286.249,26.367,9.766,23.438,28.809,54.688,0
1542907286.253,27.832,8.301,27.344,56.641,18.066,0
1542907286.257,21.973,8.301,27.344,66.406,16.113,0
1542907286.261,16.113,11.230,23.926,54.688,73.242,0
1542907286.265,33.691,12.207,24.414,40.527,91.797,0
1542907286.269,47.363,10.742,21.973,42.969,106.445,0
1542907286.273,41.992,9.277,21.973,38.574,86.426,0
1542907286.277,36.133,10.742,22.461,36.133,79.102,0
1542907286.281,35.645,12.207,25.879,48.828,113.770,0
1542907286.285,24.414,7.812,32.715,65.430,184.082,0
1542907286.289,38.086,13.184,28.320,66.406,306.641,0
1542907286.292,64.453,20.020,23.926,64.453,413.574,0
1542907286.296,57.129,19.043,29.297,76.660,548.828,0
1542907286.300,54.688,18.066,28.809,86.914,668.945,0
1542907286.304,68.848,22.949,24.902,82.520,781.738,0
1542907286.308,74.219,25.391,22.949,74.219,937.500,0
1542907286.312,62.988,21.484,24.902,92.773,-996.094,0
1542907286.316,60.547,20.996,28.320,103.027,995.605,0
1542907286.320,53.711,20.020,28.809,107.910,999.023,0
1542907286.324,55.176,19.531,26.855,113.281,999.512,0
1542907286.328,61.035,21.973,24.902,97.168,999.512,0
1542907286.331,68.359,28.809,22.949,84.473,999.512,0
1542907286.335,69.824,31.250,21.484,77.637,999.512,0
1542907286.339,61.035,26.855,23.438,72.266,999.512,0
1542907286.343,54.199,27.344,27.344,70.801,999.512,0
1542907286.347,53.223,28.320,28.320,73.730,999.512,0
1542907286.351,65.430,28.809,28.320,75.195,999.512,0
1542907286.355,68.359,28.320,26.367,78.613,999.512,0
1542907286.359,49.316,26.367,25.391,83.984,999.512,0
1542907286.363,36.621,23.438,27.344,86.426,999.512,0
1542907286.367,49.805,25.879,28.320,82.520,999.512,0
1542907286.371,49.316,26.367,26.855,75.684,999.512,0
1542907286.374,43.945,25.879,26.367,77.148,999.512,0
1542907286.378,50.293,28.809,27.344,79.102,999.512,0
1542907286.382,45.898,28.809,24.902,76.172,999.512,0
1542907286.386,50.781,27.344,23.926,78.125,999.512,0
1542907286.390,65.918,26.367,26.367,80.078,999.512,0
1542907286.394,64.453,27.832,26.367,80.566,999.512,0
1542907286.398,49.805,27.344,27.344,85.449,999.512,0
1542907286.402,45.898,23.438,28.809,78.125,999.512,0
1542907286.406,45.898,25.391,26.367,66.895,999.512,0
1542907286.410,40.527,30.762,23.926,69.336,999.512,0
1542907286.414,28.809,30.273,24.414,68.848,999.512,0
1542907286.417,31.250,31.738,23.926,68.359,999.512,0
1542907286.421,34.668,32.715,24.902,69.824,999.512,0
1542907286.425,30.273,30.273,29.785,74.707,999.512,0
1542907286.429,33.691,28.320,28.320,63.965,999.512,0
1542907286.433,36.133,27.344,25.391,57.129,999.512,0
1542907286.437,30.273,27.832,25.879,61.523,999.512,0
1542907286.441,27.344,29.297,26.855,58.594,999.512,0
1542907286.445,24.902,30.273,27.832,65.918,999.512,0
1542907286.449,29.785,33.203,25.879,63.477,999.512,0
1542907286.453,30.273,35.645,25.391,60.059,999.512,0
1542907286.456,22.461,35.645,28.320,56.641,999.512,0
1542907286.460,21.973,34.668,29.785,50.293,999.512,0
1542907286.464,30.273,32.715,29.785,47.852,999.512,0
1542907286.468,28.320,32.715,30.762,54.199,-1000.000,0
1542907286.472,25.391,31.250,30.762,47.363,994.141,0
1542907286.476,31.250,26.855,32.715,49.316,-997.559,0
1542907286.480,31.250,25.391,33.691,53.223,968.750,0
1542907286.484,29.297,28.320,30.273,43.457,772.461,0
1542907286.488,31.738,30.762,31.738,52.734,583.496,0
1542907286.492,36.133,32.227,33.691,58.594,434.082,0
1542907286.496,33.203,29.785,33.691,51.270,234.863,0
1542907286.499,31.250,30.273,33.203,54.199,60.059,0
1542907286.503,25.879,32.227,30.762,68.848,-76.660,0
1542907286.507,30.273,30.273,30.762,62.988,-201.660,0
1542907286.511,40.527,29.297,30.762,44.434,-334.961,0
1542907286.515,37.598,30.273,31.738,41.016,-450.684,0
1542907286.519,26.367,27.344,32.227,39.551,-550.781,0
1542907286.523,26.367,26.855,33.691,39.551,-654.297,0
1542907286.527,33.691,28.320,36.621,34.180,-768.555,0
1542907286.531,35.645,27.344,33.691,31.738,-897.949,0
1542907286.535,27.344,25.391,32.227,41.992,-958.496,0
1542907286.539,21.484,22.461,33.203,39.062,-970.215,0
1542907286.542,26.855,22.949,33.691,38.574,-972.656,0
1542907286.546,23.926,23.438,30.762,31.738,-972.656,0
1542907286.550,19.043,24.414,30.762,33.203,-973.145,0
1542907286.554,13.672,24.902,32.227,36.133,-973.145,0
1542907286.558,12.207,24.902,31.250,32.227,-972.656,0
1542907286.562,14.160,23.438,31.738,40.527,-972.656,0
1542907286.566,19.043,24.414,29.297,38.086,-973.145,0
1542907286.570,19.531,25.879,28.809,41.016,-973.145,0
1542907286.574,18.066,25.879,31.738,43.945,-973.145,0
1542907286.578,25.879,28.320,33.203,41.992,-972.656,0
1542907286.581,27.344,27.832,33.691,42.480,-973.145,0
1542907286.585,20.508,28.809,32.715,33.691,-973.145,0
1542907286.589,19.043,30.273,31.738,35.156,-973.145,0
1542907286.593,24.414,28.320,32.227,38.574,-973.145,0
1542907286.597,23.926,24.414,31.250,37.109,-973.145,0
1542907286.601,15.137,21.484,32.715,41.504,-972.656,0
1542907286.605,17.090,24.414,35.645,44.922,-973.145,0
1542907286.609,26.367,28.809,33.691,33.203,-972.656,0
1542907286.613,26.367,28.320,28.809,22.461,-972.656,0
1542907286.617,20.508,25.391,30.762,26.855,-973.145,0
1542907286.621,21.484,26.367,34.180,32.715,-973.145,0
1542907286.624,22.461,25.879,32.715,30.273,-972.656,0
1542907286.628,25.879,24.902,33.203,28.809,-972.656,0
1542907286.632,28.320,27.344,36.621,33.203,-973.145,0
1542907286.636,30.273,29.297,36.133,33.203,-973.145,0
1542907286.640,35.156,30.762,35.156,42.480,-973.145,0
1542907286.644,27.344,28.809,35.156,35.645,-972.656,0
1542907286.648,23.438,29.297,34.180,30.762,-972.656,0
1542907286.652,26.367,36.621,36.133,45.898,-972.656,0
1542907286.656,20.508,37.598,32.715,35.156,-972.656,0
1542907286.660,19.043,28.809,31.250,21.973,-972.656,0
1542907286.664,16.602,26.367,36.621,40.527,-973.145,0
1542907286.667,12.207,28.320,37.598,39.062,-973.145,0
1542907286.671,10.742,30.273,35.645,20.020,-973.145,0
1542907286.675,17.090,32.715,36.133,21.484,-973.145,0
1542907286.679,6.836,27.832,40.527,17.090,-973.145,0
1542907286.683,-5.371,28.809,46.387,15.137,-973.145,0
1542907286.687,-3.418,30.273,43.945,4.395,-972.656,0
1542907286.691,-13.672,29.297,40.039,-10.254,-973.145,0
1542907286.695,-24.902,28.809,43.457,-9.766,-973.145,0
1542907286.699,-30.762,21.484,49.805,-16.602,-972.656,0
1542907286.703,-37.598,21.484,46.387,-18.066,-972.656,0
1542907286.706,-45.898,26.367,41.504,-21.484,-972.656,0
1542907286.710,-56.641,24.414,44.922,-42.480,-973.145,0
1542907286.714,-63.965,25.879,47.852,-55.664,-973.145,0
1542907286.718,-76.660,29.785,46.387,-45.410,-972.656,0
1542907286.722,-84.961,34.180,47.852,-43.945,-972.656,0
1542907286.726,-91.309,27.832,50.781,-64.453,-973.145,0
1542907286.730,-84.473,20.020,49.805,-77.148,-973.145,0
1542907286.734,-80.566,29.297,47.363,-80.566,-973.145,0
1542907286.738,-107.910,39.062,41.016,-91.309,-970.215,0
1542907286.742,-131.836,41.992,36.133,-119.629,-977.539,0
1542907286.746,-151.367,41.992,37.109,-160.156,-952.637,0
1542907286.749,-167.969,36.621,39.062,-182.129,-890.137,0
1542907286.753,-152.832,32.227,41.992,-153.320,-841.309,0
1542907286.757,-122.070,36.133,44.922,-113.770,-743.164,0
1542907286.761,-123.047,32.227,45.898,-114.258,-662.598,0
1542907286.765,-152.832,25.391,41.992,-148.438,-613.770,0
1542907286.769,-150.391,22.461,47.363,-153.320,-619.629,0
1542907286.773,-139.648,18.555,55.664,-133.301,-640.137,0
1542907286.777,-137.207,10.254,56.152,-118.652,-550.781,0
1542907286.781,-103.516,8.301,60.059,-87.402,-532.227,0
1542907286.785,-74.707,8.789,65.918,-58.105,-521.484,0
1542907286.789,-68.359,-0.977,70.312,-43.945,-450.684,0
1542907286.792,-59.570,-7.324,70.801,-29.785,-384.766,0
1542907286.796,-42.969,-12.207,70.312,-11.230,-356.934,0
1542907286.800,-38.574,-12.207,72.266,3.906,-369.141,0
1542907286.804,-38.086,-12.207,69.336,9.277,-346.680,0
1542907286.808,-17.090,-13.672,64.941,19.531,-329.102,0
1542907286.812,-14.160,-7.812,60.547,26.855,-268.555,0
1542907286.816,-18.066,-5.859,59.570,30.273,-232.422,0
1542907286.820,-4.395,-5.859,54.199,39.062,-276.367,0
1542907286.824,9.766,-3.418,47.363,36.621,-252.441,0
1542907286.828,21.973,0.488,47.363,43.457,-205.566,0
1542907286.831,31.250,7.812,44.922,53.711,-162.109,0
1542907286.835,28.809,5.859,39.551,52.734,-146.484,0
1542907286.839,34.180,0.977,43.945,64.453,-145.996,0
1542907286.843,41.992,0.977,41.992,57.617,-141.113,0
1542907286.847,40.039,6.836,26.855,43.945,-156.738,0
1542907286.851,37.109,11.230,25.391,45.410,-168.945,0
1542907286.855,33.691,11.719,31.250,50.781,-135.254,0
1542907286.859,36.621,11.230,33.203,49.805,-68.848,0
1542907286.863,37.598,12.695,30.762,54.688,-64.453,0
1542907286.867,35.156,8.301,31.250,63.477,-89.355,0
1542907286.871,35.156,7.812,33.203,51.270,-106.934,0
1542907286.874,44.922,15.625,29.785,50.293,-129.883,0
1542907286.878,46.387,15.137,27.344,69.824,-141.602,0
1542907286.882,38.574,10.254,30.762,78.613,-110.352,0
1542907286.886,39.062,12.695,28.320,62.012,-67.383,0
1542907286.890,39.551,14.160,22.949,62.012,-60.059,0
1542907286.894,50.293,15.137,26.855,62.500,-40.527,0
1542907286.898,54.688,20.020,26.367,65.918,-12.207,0
1542907286.902,49.316,21.484,20.020,67.871,-20.996,0
1542907286.906,59.082,20.508,20.020,68.848,-19.531,0
1542907286.910,66.895,20.020,23.438,76.172,-36.621,0
1542907286.914,58.594,17.578,23.438,79.102,-68.848,0
1542907286.917,55.176,17.578,23.926,77.637,-21.484,0
1542907286.921,61.035,21.484,20.020,75.195,14.160,0
1542907286.925,64.453,23.438,18.066,83.984,20.020,0
1542907286.929,69.336,23.438,16.602,92.285,20.508,0
1542907286.933,66.895,23.926,12.695,86.914,-6.836,0
1542907286.937,55.664,27.832,19.043,85.938,-57.129,0
1542907286.941,56.641,31.738,21.484,83.008,-62.988,0
1542907286.945,66.406,32.715,17.578,73.730,6.348,0
1542907286.949,68.359,30.273,18.555,70.312,-4.395,0
1542907286.953,71.289,33.203,15.625,55.664,24.902,0
1542907286.956,71.289,35.156,12.207,49.316,41.504,0
1542907286.960,65.430,34.668,12.207,45.410,-44.922,0
1542907286.964,62.012,35.645,12.207,38.574,2.441,0
1542907286.968,54.199,34.180,14.648,41.992,29.785,0
1542907286.972,47.852,36.133,14.160,46.875,-6.348,0
1542907286.976,50.293,36.133,12.207,42.480,14.648,0
1542907286.980,51.270,32.715,11.230,39.062,21.484,0
1542907286.984,40.527,31.250,8.301,42.480,37.109,0
1542907286.988,34.668,30.273,10.254,35.156,36.133,0
1542907286.992,38.574,32.715,16.113,36.621,-47.363,0
1542907286.996,36.621,29.785,16.602,45.410,-86.914,0
1542907286.999,30.273,24.902,15.137,44.434,-25.391,0
1542907287.003,28.809,28.809,15.137,41.016,31.738,0
1542907287.007,28.809,34.668,17.578,34.668,25.879,0
1542907287.011,29.785,37.598,16.602,37.598,55.664,0
1542907287.015,30.273,41.016,13.672,41.992,95.703,0
1542907287.019,28.320,39.551,17.578,37.109,51.270,0
1542907287.023,28.320,38.086,18.555,42.480,11.230,0
1542907287.027,26.367,36.133,20.020,45.410,11.719,0
1542907287.031,24.414,33.691,21.973,43.457,36.621,0
1542907287.035,14.160,32.227,20.508,37.598,28.320,0
1542907287.039,11.230,32.715,23.438,23.926,34.668,0
1542907287.042,22.949,36.133,22.461,25.879,83.984,0
1542907287.046,20.508,33.203,21.973,25.879,56.152,0
1542907287.050,16.113,34.180,21.973,16.113,25.879,0
1542907287.054,15.625,37.598,22.949,11.719,31.738,0
1542907287.058,7.324,40.039,27.832,11.230,38.574,0
1542907287.062,6.348,39.062,27.832,6.348,43.945,0
1542907287.066,10.742,36.621,28.809,-1.953,79.590,0
1542907287.070,1.953,38.574,31.250,-1.465,19.043,0
1542907287.074,-8.789,40.039,32.715,-1.465,-33.203,0
1542907287.078,-13.672,39.062,38.086,-3.418,37.598,0
1542907287.081,-25.879,43.457,33.691,-18.066,63.965,0
1542907287.085,-39.551,45.898,31.738,-36.133,53.711,0
1542907287.089,-52.734,40.039,35.645,-48.828,83.496,0
1542907287.093,-62.012,43.945,36.621,-55.176,91.309,0
1542907287.097,-77.637,47.363,33.203,-70.801,67.871,0
1542907287.101,-101.074,40.527,28.809,-100.586,33.691,0
1542907287.105,-104.492,35.156,31.738,-112.793,46.875,0
1542907287.109,-96.680,38.574,33.691,-100.098,16.113,0
1542907287.113,-114.258,48.340,21.973,-115.723,-20.508,0
1542907287.117,-161.133,59.082,15.137,-166.016,62.988,0
1542907287.121,-189.453,60.059,22.949,-189.941,66.406,0
1542907287.124,-189.453,56.641,21.973,-204.590,54.688,0
1542907287.128,-197.266,64.941,10.742,-214.844,102.539,0
1542907287.132,-219.727,73.730,1.465,-233.398,123.047,0
1542907287.136,-226.074,77.148,-4.883,-248.047,118.652,0
1542907287.140,-229.980,78.613,-2.930,-245.605,59.082,0
1542907287.144,-229.004,86.426,-1.465,-260.254,27.344,0
1542907287.148,-229.980,91.797,-5.371,-262.695,91.309,0
1542907287.152,-240.723,80.078,-8.789,-255.859,64.453,0
1542907287.156,-214.844,80.078,-15.625,-249.512,-15.137,0
1542907287.160,-195.312,86.426,-14.160,-238.770,1.465,0
1542907287.164,-194.336,85.938,-15.625,-233.398,-57.617,0
1542907287.167,-178.223,87.402,-20.508,-213.379,-41.016,0
1542907287.171,-158.203,87.891,-16.113,-184.082,67.383,0
1542907287.175,-139.160,81.055,-11.230,-170.410,-11.719,0
1542907287.179,-124.512,76.172,-8.789,-155.273,-4.883,0
1542907287.183,-110.352,67.383,-1.953,-134.766,30.762,0
1542907287.187,-88.867,56.641,6.348,-106.445,-42.480,0
1542907287.191,-62.012,54.199,8.301,-62.988,-10.742,0
1542907287.195,-35.645,47.363,14.160,-43.945,30.273,0
1542907287.199,-24.902,41.504,18.555,-40.527,7.324,0
1542907287.203,-8.301,39.551,18.066,-6.348,28.809,0
1542907287.206,18.555,35.645,21.973,24.902,15.625,0
1542907287.210,33.203,32.715,21.973,39.062,-62.012,0
1542907287.214,32.715,40.039,17.090,27.832,-53.223,0
1542907287.218,28.320,42.969,14.648,16.602,-4.395,0
1542907287.222,43.945,25.391,20.508,35.156,-14.160,0
1542907287.226,68.359,26.367,19.043,64.453,-64.453,0
1542907287.230,82.031,31.250,19.531,93.750,-53.223,0
1542907287.234,69.336,34.668,16.113,78.613,-11.230,0
1542907287.238,71.777,34.180,7.812,66.895,-19.043,0
1542907287.242,73.730,41.504,7.324,78.613,1.953,0
1542907287.246,73.730,44.434,5.371,63.477,30.762,0
1542907287.249,112.793,21.484,9.766,76.172,35.645,0
1542907287.253,112.793,22.949,16.113,102.051,-31.250,0
1542907287.257,107.422,32.715,20.508,97.168,-71.289,0
1542907287.261,85.449,70.312,13.672,86.426,22.949,0
1542907287.265,87.891,62.012,9.277,61.523,45.898,0
1542907287.269,104.980,10.742,23.438,59.082,-34.668,0
1542907287.273,83.008,33.203,20.996,96.680,-6.348,0
1542907287.277,76.172,70.312,-1.465,69.336,29.785,0
1542907287.281,-1.953,150.879,6.836,-26.855,1.465,0
1542907287.285,61.523,55.176,22.461,45.898,29.785,0
1542907287.289,207.520,-66.895,19.043,208.984,65.430,0
1542907287.292,153.320,-8.301,23.438,167.480,74.219,0
1542907287.296,104.980,32.715,26.855,69.824,39.062,0
1542907287.300,92.773,34.180,10.742,69.336,-0.488,0
1542907287.304,130.371,-2.441,23.926,110.352,19.531,0
1542907287.308,74.707,36.621,43.457,15.625,25.879,0
1542907287.312,26.855,25.879,33.691,-2.441,-19.043,0
1542907287.316,66.406,52.246,-6.348,64.941,-42.969,0
1542907287.320,45.898,113.770,56.152,27.344,-12.695,0
1542907287.324,56.641,21.973,83.008,15.137,6.348,0
1542907287.328,41.016,65.430,44.434,-32.715,-10.254,0
1542907287.331,43.945,52.246,62.500,-3.906,-41.504,0
1542907287.335,134.766,17.578,-16.113,206.543,-48.340,0
1542907287.339,89.844,46.387,23.926,113.281,-44.434,0
1542907287.343,18.555,24.902,51.758,-4.395,-48.340,0
1542907287.347,68.359,3.418,75.684,82.520,-19.043,0
1542907287.351,107.422,-43.457,94.727,120.605,34.180,0
1542907287.355,84.961,45.410,31.738,-104.980,72.754,0
1542907287.359,-30.273,150.879,29.785,-100.098,4.883,0
1542907287.363,5.371,65.918,3.418,159.668,-43.945,0
1542907287.367,162.109,-116.211,109.863,115.723,-18.555,0
1542907287.371,95.703,15.137,52.734,-15.625,-33.203,0
1542907287.374,92.773,80.566,-53.711,18.555,-30.273,0
1542907287.378,166.992,-23.438,48.340,145.508,-17.578,0
1542907287.382,140.625,28.320,8.789,99.609,-33.203,0
1542907287.386,76.172,93.262,-20.508,12.695,-13.184,0
1542907287.390,85.938,50.293,-44.434,31.738,-27.344,0
1542907287.394,30.762,109.375,-83.984,-24.902,-62.988,0
1542907287.398,79.102,69.336,-87.402,40.039,-32.715,0
1542907287.402,138.672,65.918,-87.402,41.504,17.578,0
1542907287.406,46.387,79.102,-20.508,-10.254,-7.324,0
1542907287.410,105.469,114.258,-108.887,39.551,36.621,0
1542907287.414,124.512,104.492,-61.523,-18.066,94.727,0
1542907287.417,23.438,58.594,89.355,-68.848,35.645,0
1542907287.421,15.625,168.945,-121.094,9.277,6.348,0
1542907287.425,129.883,150.879,-195.312,93.750,-21.973,0
1542907287.429,241.211,46.387,-89.355,109.863,-30.762,0
1542907287.433,199.219,38.086,-86.914,110.840,4.883,0
1542907287.437,190.430,108.398,-113.281,96.680,7.324,0
1542907287.441,140.625,138.184,-26.367,-121.582,-48.828,0
1542907287.445,114.746,102.539,-53.223,-87.891,-57.129,0
1542907287.449,207.031,77.148,-119.141,188.965,-4.395,0
1542907287.453,187.500,92.773,-26.367,132.812,47.363,0
1542907287.456,153.809,125.488,-126.465,145.996,27.344,0
1542907287.460,178.223,88.867,-48.340,128.418,-9.277,0
1542907287.464,168.945,76.660,-2.930,77.148,54.199,0
1542907287.468,180.176,10.254,-42.480,76.660,59.082,0
1542907287.472,222.656,13.672,-67.871,108.398,-8.301,0
1542907287.476,184.082,50.293,-90.332,99.121,34.180,0
1542907287.480,103.027,98.145,-22.461,56.641,74.707,0
1542907287.484,125.977,129.883,34.180,67.383,14.160,0
1542907287.488,155.273,44.434,33.203,125.000,9.277,0
1542907287.492,124.512,75.195,-28.809,129.395,-21.973,0
1542907287.496,81.543,56.641,8.789,26.855,-31.250,0
1542907287.499,106.445,-1.953,-19.531,33.203,22.461,0
1542907287.503,102.051,57.129,-72.754,118.652,87.891,0
1542907287.507,108.887,-24.414,14.648,85.449,40.527,0
1542907287.511,175.293,-14.648,-35.645,83.008,-34.668,0
1542907287.515,161.621,83.496,-10.254,144.043,-13.672,0
1542907287.519,132.324,46.387,50.781,91.797,-3.418,0
1542907287.523,129.883,66.895,-45.410,83.496,-13.184,0
1542907287.527,94.727,56.152,8.789,0.000,-4.883,0
1542907287.531,98.145,13.184,48.340,74.219,-5.371,0
1542907287.535,115.723,56.641,-19.531,170.410,-31.250,0
1542907287.539,103.516,0.488,4.883,147.949,27.344,0
1542907287.542,97.656,22.949,-14.160,100.586,54.688,0
1542907287.546,110.352,32.227,-10.254,86.426,17.090,0
1542907287.550,108.398,-15.625,50.293,90.820,44.922,0
1542907287.554,3.418,52.734,33.691,21.973,34.180,0
1542907287.558,24.414,54.688,42.480,-32.227,-13.672,0
1542907287.562,97.168,11.230,15.625,52.246,36.621,0
1542907287.566,107.422,-10.742,55.176,117.188,46.387,0
1542907287.570,110.352,-3.906,16.602,89.355,-17.578,0
1542907287.574,73.242,45.410,-20.508,13.184,27.344,0
1542907287.578,94.727,10.742,-28.809,99.609,25.879,0
1542907287.581,17.090,90.332,18.555,79.590,10.742,0
1542907287.585,-3.906,72.754,67.383,50.781,49.316,0
1542907287.589,104.492,-6.836,34.668,128.906,17.090,0
1542907287.593,92.773,39.551,15.137,15.625,33.691,0
1542907287.597,31.738,42.480,-0.977,-36.621,49.805,0
1542907287.601,69.336,25.879,-12.695,117.188,20.020,0
1542907287.605,119.141,7.812,-57.617,136.230,31.738,0
1542907287.609,58.105,15.137,50.293,13.184,48.828,0
1542907287.613,31.738,46.875,98.633,37.109,50.781,0
1542907287.617,-12.207,16.113,104.492,37.109,-9.277,0
1542907287.621,-33.691,53.711,43.945,-19.043,-46.875,0
1542907287.624,-2.441,68.359,17.090,33.691,0.000,0
1542907287.628,10.254,40.527,59.570,29.297,39.551,0
1542907287.632,1.953,66.895,40.527,4.883,38.574,0
1542907287.636,-18.066,47.852,94.727,19.531,32.715,0
1542907287.640,18.066,32.227,6.348,53.711,44.434,0
1542907287.644,-36.133,94.238,-39.551,38.574,99.609,0
1542907287.648,-42.480,40.527,84.961,21.973,95.215,0
1542907287.652,-44.434,-0.977,110.352,-97.656,44.922,0
1542907287.656,-79.102,89.844,-20.996,-151.367,69.336,0
1542907287.660,-46.387,82.031,-43.457,-36.133,112.793,0
1542907287.664,-19.531,68.848,-8.301,-3.418,142.578,0
1542907287.667,-54.688,103.516,26.855,-41.992,112.305,0
1542907287.671,-100.098,115.723,60.547,-59.570,55.664,0
1542907287.675,-79.590,84.473,-6.836,-38.574,62.500,0
1542907287.679,-120.117,45.410,89.355,-138.672,77.148,0
1542907287.683,-187.988,67.383,81.543,-122.559,62.988,0
1542907287.687,-157.227,83.496,-115.723,-68.848,75.195,0
1542907287.691,-178.223,53.223,31.738,-182.617,89.355,0
1542907287.695,-173.340,60.059,93.750,-168.945,58.594,0
1542907287.699,-149.902,105.469,-58.594,-107.422,36.621,0
1542907287.703,-189.941,124.512,27.832,-120.117,90.820,0
1542907287.706,-199.707,41.504,91.309,-178.711,111.328,0
1542907287.710,-200.195,64.453,18.066,-201.660,60.547,0
1542907287.714,-172.852,61.035,10.254,-142.090,-10.254,0
1542907287.718,-205.078,43.945,44.922,-111.816,25.879,0
1542907287.722,-230.957,60.059,131.348,-113.770,143.066,0
1542907287.726,-183.105,-11.230,53.223,-144.043,109.375,0
1542907287.730,-162.109,5.371,55.176,-137.207,20.996,0
1542907287.734,-155.762,47.852,95.703,-56.641,-3.906,0
1542907287.738,-147.461,39.551,53.223,-116.211,-37.109,0
1542907287.742,-113.770,3.418,53.223,-163.574,22.949,0
1542907287.746,-119.141,53.711,85.449,-41.992,96.191,0
1542907287.749,-188.477,56.152,175.293,-29.297,31.738,0
1542907287.753,-94.727,-85.938,126.465,-33.203,13.184,0
1542907287.757,25.879,-79.102,98.633,37.598,58.105,0
1542907287.761,-40.527,-6.348,134.277,35.156,37.109,0
1542907287.765,-58.594,41.992,104.980,34.668,35.156,0
1542907287.769,10.254,0.000,134.277,97.168,53.711,0
1542907287.773,39.551,-60.059,160.645,124.512,94.727,0
1542907287.777,104.980,-13.672,57.129,197.754,82.031,0
1542907287.781,121.582,-34.668,144.043,224.609,90.332,0
1542907287.785,84.961,-67.871,166.016,169.434,109.863,0
1542907287.789,122.559,-12.695,108.887,201.660,62.988,0
1542907287.792,174.805,-67.383,175.781,292.969,68.359,0
1542907287.796,223.633,-110.352,177.734,270.020,81.543,0
1542907287.800,191.895,-88.379,183.594,226.074,91.309,0
1542907287.804,181.152,-70.801,164.062,277.832,182.617,0
1542907287.808,208.496,-15.625,143.066,291.016,335.938,0
1542907287.812,215.332,9.277,116.211,303.223,504.883,0
1542907287.816,228.516,-46.387,163.574,269.531,702.637,0
1542907287.820,224.609,-51.758,108.887,300.293,901.367,0
1542907287.824,243.164,13.672,48.340,348.145,999.512,0
1542907287.828,250.977,-38.574,112.793,334.473,996.094,0
1542907287.831,232.910,-36.621,109.863,302.246,998.047,0
1542907287.835,242.188,-40.039,170.898,311.523,-1000.000,0
1542907287.839,222.168,-41.016,144.531,333.008,999.512,0
1542907287.843,232.910,-22.949,83.496,288.574,999.512,0
1542907287.847,234.375,-12.207,125.488,312.012,999.512,0
1542907287.851,223.145,-40.527,152.832,262.207,999.512,0
1542907287.855,217.773,-25.391,169.434,234.375,999.512,0
1542907287.859,201.660,20.020,73.242,272.461,999.512,0
1542907287.863,221.191,-5.859,53.711,262.695,999.512,0
1542907287.867,250.488,-35.645,114.746,312.012,999.512,0
1542907287.871,211.914,0.000,125.000,313.965,999.512,0
1542907287.874,191.895,26.855,83.008,285.645,999.512,0
1542907287.878,172.852,25.879,107.910,214.355,999.512,0
1542907287.882,184.570,-1.465,99.121,217.285,999.512,0
1542907287.886,203.125,-34.180,34.180,280.762,999.512,0
1542907287.890,152.344,31.250,85.449,210.449,999.512,0
1542907287.894,154.785,41.992,72.754,195.801,999.512,0
1542907287.898,197.754,-10.254,62.012,254.395,999.512,0
1542907287.902,168.945,2.441,97.168,229.004,999.512,0
1542907287.906,146.973,10.254,74.707,190.918,999.512,0
1542907287.910,165.527,20.020,51.758,191.406,999.512,0
1542907287.914,152.832,29.297,95.215,193.359,999.512,0
1542907287.917,133.789,34.668,80.566,183.594,999.512,0
1542907287.921,140.625,53.711,64.453,162.598,999.512,0
1542907287.925,146.973,42.480,73.730,156.250,999.512,0
1542907287.929,163.086,33.691,19.531,216.797,999.512,0
1542907287.933,145.508,41.504,58.594,187.500,999.512,0
1542907287.937,133.789,35.645,87.891,118.164,999.512,0
1542907287.941,127.930,45.898,87.402,159.668,999.512,0
1542907287.945,122.559,54.688,67.871,175.781,999.512,0
1542907287.949,140.137,36.621,42.969,151.367,999.512,0
1542907287.953,127.441,54.199,21.484,159.180,999.512,0
1542907287.956,96.680,51.270,40.039,142.090,999.512,0
1542907287.960,88.867,30.273,51.270,114.258,999.512,0
1542907287.964,101.074,40.039,42.969,143.066,999.512,0
1542907287.968,92.773,34.180,69.824,121.094,999.512,0
1542907287.972,77.637,29.785,65.430,109.375,999.512,0
1542907287.976,83.984,43.457,13.672,134.277,999.512,0
1542907287.980,78.125,42.969,27.832,124.512,999.512,0
1542907287.984,71.777,42.969,38.086,110.840,999.512,0
1542907287.988,56.152,41.992,39.551,97.656,999.512,0
1542907287.992,57.129,32.715,40.527,74.219,999.512,0
1542907287.996,55.664,41.992,36.621,72.266,999.512,0
1542907287.999,47.852,48.340,45.410,76.660,999.512,0
1542907288.003,54.199,39.062,43.457,111.328,999.512,0
1542907288.007,44.434,32.715,56.152,100.586,999.512,0
1542907288.011,40.039,34.668,54.688,81.055,999.512,0
1542907288.015,32.227,38.086,51.758,78.125,999.512,0
1542907288.019,20.996,37.598,43.457,66.406,999.512,0
1542907288.023,19.043,36.621,33.203,52.246,999.512,0
1542907288.027,21.973,39.062,44.922,66.895,999.512,0
1542907288.031,26.855,41.504,31.250,62.500,999.512,0
1542907288.035,15.625,38.574,38.086,42.969,999.512,0
1542907288.039,23.438,38.574,31.250,64.941,999.512,0
1542907288.042,25.391,38.086,37.598,67.871,999.512,0
1542907288.046,20.996,42.480,40.039,64.453,999.512,0
1542907288.050,24.902,41.504,39.551,57.129,999.512,0
1542907288.054,17.578,37.109,38.574,45.410,999.512,0
1542907288.058,13.672,36.133,42.969,42.969,999.512,0
1542907288.062,8.789,36.621,41.504,32.227,999.512,0
1542907288.066,2.441,33.691,34.180,34.668,999.512,0
1542907288.070,-0.977,33.203,27.832,41.504,999.512,0
1542907288.074,-11.230,37.109,33.203,39.062,999.512,0
1542907288.078,-10.742,35.645,39.551,21.973,999.512,0
1542907288.081,-5.371,35.156,31.738,20.996,999.512,0
1542907288.085,-1.953,40.527,24.902,41.992,999.512,0
1542907288.089,-4.395,37.109,26.367,31.250,999.512,0
1542907288.093,-6.348,32.715,22.461,29.785,999.512,0
1542907288.097,-4.395,29.297,33.203,30.762,999.512,0
1542907288.101,2.441,25.879,40.527,36.133,999.512,0
1542907288.105,15.625,18.555,46.387,62.012,999.512,0
1542907288.109,25.391,27.344,44.922,59.570,999.512,0
1542907288.113,30.273,47.852,27.344,52.246,999.512,0
1542907288.117,20.020,46.387,27.832,36.621,999.512,0
1542907288.121,16.602,42.969,35.156,37.598,999.512,0
1542907288.124,23.926,51.758,27.832,37.109,999.512,0
1542907288.128,37.598,58.105,16.602,41.504,999.512,0
1542907288.132,48.340,62.012,12.207,53.223,999.512,0
1542907288.136,35.156,65.918,9.277,50.293,-1000.000,0
1542907288.140,41.016,67.383,3.906,41.016,994.629,0
1542907288.144,57.129,75.195,-1.953,37.109,998.047,0
1542907288.148,56.152,81.055,-9.277,50.293,971.680,0
1542907288.152,49.805,84.473,-20.020,38.574,754.395,0
1542907288.156,51.758,87.891,-24.902,41.504,400.879,0
1542907288.160,59.082,96.191,-31.250,33.203,61.523,0
1542907288.164,61.523,94.727,-30.273,22.949,-254.395,0
1542907288.167,64.941,89.844,-26.855,34.180,-532.715,0
1542907288.171,53.711,86.426,-28.320,38.574,-795.410,0
1542907288.175,28.320,79.102,-21.973,35.156,-961.426,0
1542907288.179,31.250,74.707,-16.602,15.625,-971.680,0
1542907288.183,32.715,70.312,-17.090,13.184,-969.727,0
1542907288.187,20.996,66.895,-14.160,23.438,-973.633,0
1542907288.191,25.879,63.477,-5.859,22.461,-973.145,0
1542907288.195,25.879,60.547,-9.766,15.625,-973.145,0
1542907288.199,18.066,55.664,-6.836,10.254,-973.145,0
1542907288.203,10.254,52.734,0.000,8.789,-973.145,0
1542907288.206,11.230,54.199,-3.906,14.648,-973.145,0
1542907288.210,15.137,48.828,1.465,15.137,-972.656,0
1542907288.214,15.137,41.992,3.906,14.160,-972.656,0
1542907288.218,12.695,37.598,4.883,14.160,-973.145,0
1542907288.222,8.301,33.203,8.789,16.602,-973.145,0
1542907288.226,12.695,33.203,6.348,22.949,-973.145,0
1542907288.230,4.395,34.668,5.859,15.625,-973.145,0
1542907288.234,-3.906,31.738,9.277,5.371,-972.656,0
1542907288.238,1.953,27.344,12.207,-2.441,-972.656,0
1542907288.242,8.789,30.762,14.160,-3.418,-972.656,0
1542907288.246,7.812,30.273,16.602,20.996,-973.145,0
1542907288.249,4.395,28.320,23.438,27.832,-973.145,0
1542907288.253,8.789,28.809,22.461,20.020,-973.145,0
1542907288.257,3.906,22.949,18.066,16.602,-973.145,0
1542907288.261,-9.766,17.578,24.414,19.043,-973.633,0
1542907288.265,-9.277,18.066,28.809,27.344,-967.773,0
1542907288.269,-0.977,22.949,23.438,23.926,-981.445,0
1542907288.273,-3.418,25.391,21.484,12.207,-926.270,0
1542907288.277,-8.301,23.926,23.438,23.438,-810.547,0
1542907288.281,-7.812,25.391,23.438,18.066,-772.461,0
1542907288.285,0.000,27.344,24.902,14.648,-755.371,0
1542907288.289,8.789,27.832,24.902,36.133,-753.418,0
1542907288.292,10.254,26.855,25.879,22.949,-786.621,0
1542907288.296,12.695,27.832,26.367,5.859,-836.426,0
1542907288.300,8.301,30.273,25.391,5.859,-913.086,0
1542907288.304,2.441,28.809,25.391,5.859,-967.285,0
1542907288.308,1.465,25.391,27.832,1.953,-972.656,0
1542907288.312,4.395,19.531,25.391,16.602,-971.680,0
1542907288.316,2.930,18.555,27.344,17.090,-973.145,0
1542907288.320,7.812,19.531,32.227,12.207,-973.145,0
1542907288.324,16.113,19.531,27.832,17.090,-973.145,0
1542907288.328,10.254,18.555,28.809,31.250,-973.145,0
1542907288.331,2.441,15.625,31.250,29.297,-973.145,0
1542907288.335,-1.953,16.113,27.832,11.230,-973.145,0
1542907288.339,4.883,19.043,25.879,20.996,-973.145,0
1542907288.343,14.160,22.461,25.879,14.648,-973.145,0
1542907288.347,20.020,19.043,26.367,17.578,-973.145,0
1542907288.351,22.461,17.578,29.297,31.738,-973.145,0
1542907288.355,19.043,18.555,30.762,36.133,-973.145,0
1542907288.359,15.625,20.020,29.785,34.668,-973.145,0
1542907288.363,16.113,21.484,31.250,45.898,-973.145,0
1542907288.367,12.695,21.484,30.273,37.109,-973.145,0
1542907288.371,23.438,24.902,26.367,-1.465,-973.145,0
1542907288.374,33.203,24.902,25.391,12.695,-972.656,0
1542907288.378,30.762,20.996,28.320,37.598,-972.656,0
1542907288.382,29.297,22.461,33.203,53.223,-973.145,0
1542907288.386,37.598,27.832,31.250,39.062,-973.145,0
1542907288.390,35.645,27.344,28.320,5.859,-973.145,0
1542907288.394,36.133,23.926,30.273,15.137,-973.145,0
1542907288.398,44.434,24.902,31.738,30.762,-973.145,0
1542907288.402,38.574,26.367,28.320,27.832,-973.145,0
1542907288.406,42.969,22.949,29.785,27.832,-973.145,0
1542907288.410,42.480,19.531,27.344,15.625,-973.145,0
1542907288.414,30.273,18.066,24.902,4.395,-972.656,0
1542907288.417,23.926,16.602,28.320,17.578,-972.656,0
1542907288.421,22.949,19.531,30.762,19.531,-973.145,0
1542907288.425,30.762,21.973,26.367,30.273,-972.656,0
1542907288.429,28.809,20.996,29.785,29.297,-973.145,0
1542907288.433,16.602,19.531,32.715,18.555,-972.656,0
1542907288.437,9.277,17.090,29.785,33.691,-972.656,0
1542907288.441,21.484,16.113,30.273,31.250,-973.145,0
1542907288.445,26.855,16.113,28.809,29.785,-973.145,0
1542907288.449,26.855,15.625,34.668,43.457,-972.656,0
1542907288.453,27.344,16.602,39.551,45.898,-965.332,0
1542907288.456,22.949,17.090,35.156,23.438,-983.398,0
1542907288.460,22.949,15.625,34.668,6.348,-863.770,0
1542907288.464,24.414,17.090,37.109,31.738,-604.980,0
1542907288.468,29.297,16.602,37.109,42.480,-383.301,0
1542907288.472,35.645,17.578,36.133,12.207,-198.242,0
1542907288.476,35.156,17.090,35.156,10.742,-63.477,0
1542907288.480,37.598,14.648,35.156,27.344,135.742,0
1542907288.484,36.133,12.695,36.621,31.250,301.758,0
1542907288.488,32.227,11.719,36.621,26.367,379.883,0
1542907288.492,33.203,14.648,35.645,37.109,457.520,0
1542907288.496,31.738,15.137,37.598,35.156,563.965,0
1542907288.499,25.391,15.137,34.180,20.020,675.293,0
1542907288.503,26.855,14.160,24.902,28.809,742.676,0
1542907288.507,38.086,9.766,27.344,40.527,803.711,0
1542907288.511,31.738,8.301,31.250,29.297,912.598,0
1542907288.515,38.574,5.859,29.297,26.855,-1000.000,0
1542907288.519,41.992,2.441,28.809,34.180,998.535,0
1542907288.523,29.785,0.488,31.250,38.574,997.559,0
1542907288.527,35.645,0.000,30.273,43.945,-1000.000,0
1542907288.531,30.273,-0.488,27.344,52.734,999.512,0
1542907288.535,20.020,1.953,26.855,45.410,999.512,0
1542907288.539,28.320,4.395,23.926,35.156,999.512,0
1542907288.542,33.691,4.395,22.461,43.457,999.512,0
1542907288.546,27.832,4.395,25.391,48.828,999.512,0
1542907288.550,30.762,8.301,23.926,38.574,999.512,0
1542907288.554,29.785,6.836,25.879,34.668,999.512,0
1542907288.558,16.602,4.883,22.949,43.945,999.512,0
1542907288.562,15.137,7.324,21.973,58.105,999.512,0
1542907288.566,13.672,6.836,24.414,62.988,999.512,0
1542907288.570,9.277,4.883,21.973,50.781,999.512,0
1542907288.574,10.742,4.395,21.973,51.270,999.512,0
1542907288.578,25.879,8.301,20.020,46.387,999.512,0
1542907288.581,28.809,8.789,20.996,38.574,999.512,0
1542907288.585,24.902,9.766,17.578,41.992,999.512,0
1542907288.589,26.855,10.742,14.648,59.570,999.512,0
1542907288.593,34.180,10.254,20.020,79.102,999.512,0
1542907288.597,36.133,13.184,20.508,71.289,999.512,0
1542907288.601,19.043,14.160,17.578,48.340,999.512,0
1542907288.605,11.719,13.184,18.555,47.363,999.512,0
1542907288.609,13.672,14.160,21.973,65.918,999.512,0
1542907288.613,7.812,18.066,16.113,59.082,999.512,0
1542907288.617,31.250,19.043,8.789,62.500,999.512,0
1542907288.621,69.336,20.020,16.602,90.820,999.512,0
1542907288.624,65.430,13.672,32.227,83.008,999.512,0
1542907288.628,13.184,5.371,33.691,53.711,999.512,0
1542907288.632,-30.762,6.348,21.973,21.484,999.512,0
1542907288.636,-45.898,2.930,15.625,13.184,999.512,0
1542907288.640,-47.852,-5.859,10.742,18.066,999.512,0
1542907288.644,-58.105,-12.695,6.836,2.441,999.512,0
1542907288.648,-91.309,-19.043,10.254,-33.691,999.512,0
1542907288.652,-100.586,-23.926,12.695,-32.715,999.512,0
1542907288.656,-101.074,-27.832,10.254,-15.625,999.512,0
1542907288.660,-129.395,-32.715,10.254,-49.805,999.512,0
1542907288.664,-130.859,-34.668,7.812,-67.871,999.512,0
1542907288.667,-110.352,-31.250,-0.488,-67.871,999.512,0
1542907288.671,-136.230,-27.832,-5.859,-98.633,999.512,0
1542907288.675,-148.926,-33.203,-10.742,-110.840,999.512,0
1542907288.679,-136.719,-33.691,-17.578,-95.703,999.512,0
1542907288.683,-127.441,-27.344,-24.414,-100.586,999.512,0
1542907288.687,-137.695,-22.949,-29.297,-112.305,999.512,0
1542907288.691,-142.090,-25.391,-24.902,-91.309,999.512,0
1542907288.695,-106.934,-23.438,-21.973,-56.641,999.512,0
1542907288.699,-102.051,-16.602,-27.832,-54.199,999.512,0
1542907288.703,-106.445,-15.137,-34.180,-62.012,999.512,0
1542907288.706,-106.445,-16.113,-34.180,-43.457,999.512,0
1542907288.710,-101.562,-12.207,-45.898,-31.250,999.512,0
1542907288.714,-83.008,-6.836,-66.406,-35.156,999.512,0
1542907288.718,-81.055,-6.836,-86.914,-7.324,999.512,0
1542907288.722,-69.824,-3.906,-102.051,-21.973,999.512,0
1542907288.726,-62.012,0.000,-103.516,-39.551,999.512,0
1542907288.730,-65.918,-1.465,-110.352,-17.090,999.512,0
1542907288.734,-63.477,-1.953,-119.141,-20.020,999.512,0
1542907288.738,-51.270,1.465,-120.605,-17.578,999.512,0
1542907288.742,-51.270,6.348,-112.305,-7.324,999.512,0
1542907288.746,-48.340,6.836,-102.051,-13.184,999.512,0
1542907288.749,-39.062,6.836,-91.797,-15.625,999.512,0
1542907288.753,-31.738,11.719,-88.379,8.789,999.512,0
1542907288.757,-38.086,14.648,-83.008,0.977,999.512,0
1542907288.761,-30.762,17.090,-75.684,-4.883,999.512,0
1542907288.765,-27.832,18.555,-66.895,26.855,999.512,0
1542907288.769,-33.691,22.949,-63.965,14.648,999.512,0
1542907288.773,-24.902,20.508,-56.641,11.230,999.512,0
1542907288.777,-31.250,18.066,-43.945,12.207,999.512,0
1542907288.781,-34.180,20.020,-42.480,2.441,999.512,0
1542907288.785,-30.273,19.043,-38.574,6.348,999.512,0
1542907288.789,-20.508,24.414,-34.180,-4.883,999.512,0
1542907288.792,-16.113,27.832,-30.762,2.930,999.512,0
1542907288.796,-11.719,26.855,-22.461,10.742,999.512,0
1542907288.800,-13.184,35.645,-23.438,5.859,999.512,0
1542907288.804,-28.809,40.527,-19.531,8.789,999.512,0
1542907288.808,-21.973,37.598,-15.625,10.254,999.512,0
1542907288.812,-13.672,37.598,-19.043,20.508,999.512,0
1542907288.816,-15.625,33.691,-12.207,25.391,999.512,0
1542907288.820,-20.508,34.668,-9.277,9.277,999.512,0
1542907288.824,-27.832,44.434,-13.672,-20.508,999.512,0
1542907288.828,-20.508,43.945,-12.695,-27.832,-1000.000,0
1542907288.831,-19.531,42.969,-12.695,-34.668,994.629,0
1542907288.835,-29.297,40.039,-13.672,-40.527,-998.535,0
1542907288.839,-33.691,42.969,-8.301,-24.902,968.262,0
1542907288.843,-29.785,48.828,-7.324,-30.273,781.738,0
1542907288.847,-35.645,49.805,-4.883,-53.223,552.734,0
1542907288.851,-50.781,45.410,-1.465,-54.688,275.879,0
1542907288.855,-29.297,50.293,-7.324,-14.160,-24.902,0
1542907288.859,2.441,61.523,-8.301,15.137,-291.016,0
1542907288.863,-24.414,59.570,-4.395,-22.461,-580.078,0
1542907288.867,-62.012,61.523,2.930,-72.754,-852.051,0
1542907288.871,-73.730,72.266,7.812,-96.191,-978.516,0
1542907288.874,-73.730,71.777,3.906,-98.145,-967.285,0
1542907288.878,-62.988,69.824,4.883,-92.285,-971.680,0
1542907288.882,-68.848,70.312,9.277,-97.168,-973.633,0
1542907288.886,-98.145,69.824,13.672,-156.250,-973.145,0
1542907288.890,-80.078,67.871,16.113,-153.809,-973.145,0
1542907288.894,-49.316,64.453,19.043,-121.094,-973.145,0
1542907288.898,-56.152,60.059,21.484,-130.859,-973.145,0
1542907288.902,-28.809,59.570,29.785,-112.305,-973.145,0
1542907288.906,-18.555,55.176,41.504,-95.703,-972.656,0
1542907288.910,-11.230,51.270,42.480,-79.590,-972.656,0
1542907288.914,17.090,48.828,42.969,-62.012,-973.145,0
1542907288.917,27.832,39.551,50.293,-41.504,-973.145,0
1542907288.921,32.715,31.738,59.570,-24.414,-973.145,0
1542907288.925,50.781,27.344,62.500,-5.371,-973.145,0
1542907288.929,59.082,23.926,60.547,7.812,-973.145,0
1542907288.933,64.941,20.508,61.523,23.926,-974.121,0
1542907288.937,81.543,12.695,66.406,37.598,-962.402,0
1542907288.941,89.355,7.812,70.312,36.621,-983.887,0
1542907288.945,99.121,8.789,69.824,52.246,-865.723,0
1542907288.949,97.168,9.766,66.895,85.938,-491.699,0
1542907288.953,106.934,8.789,65.918,107.910,-41.992,0
1542907288.956,119.141,11.230,62.500,79.102,417.480,0
1542907288.960,100.586,10.254,56.641,60.059,832.520,0
1542907288.964,95.215,2.930,55.664,86.426,-993.164,0
1542907288.968,105.469,8.301,48.828,99.609,990.234,0
1542907288.972,116.211,11.230,48.340,113.770,998.047,0
1542907288.976,98.145,15.137,45.410,114.258,-1000.000,0
1542907288.980,78.613,17.090,40.039,104.980,999.512,0
1542907288.984,70.801,13.184,43.457,100.586,999.512,0
1542907288.988,66.406,11.719,41.992,85.938,999.512,0
1542907288.992,85.938,12.207,42.480,115.234,999.512,0
1542907288.996,79.590,11.230,41.016,111.816,999.512,0
1542907288.999,79.590,6.348,32.227,72.266,999.512,0
1542907289.003,66.895,5.859,35.156,82.520,999.512,0
1542907289.007,41.016,9.277,31.250,75.195,999.512,0
1542907289.011,51.270,6.836,28.320,72.266,999.512,0
1542907289.015,51.758,4.883,30.762,75.195,999.512,0
1542907289.019,48.828,6.348,25.879,77.637,999.512,0
1542907289.023,40.039,11.230,23.438,85.938,999.512,0
1542907289.027,41.504,11.230,22.949,72.266,999.512,0
1542907289.031,52.734,9.766,24.414,78.613,999.512,0
1542907289.035,38.086,9.766,22.949,81.055,999.512,0
1542907289.039,18.555,9.766,20.020,65.430,999.512,0
1542907289.042,13.184,8.301,20.996,47.363,999.512,0
1542907289.046,21.484,8.789,21.973,51.758,999.512,0
1542907289.050,16.602,12.207,23.438,68.359,999.512,0
1542907289.054,22.949,12.695,22.461,60.547,999.512,0
1542907289.058,24.902,12.207,19.531,49.316,999.512,0
1542907289.062,24.414,8.301,20.508,50.293,999.512,0
1542907289.066,23.926,9.766,21.484,36.621,999.512,0
1542907289.070,21.484,13.184,20.996,44.922,999.512,0
1542907289.074,13.184,13.184,16.602,60.059,999.023,0
1542907289.078,7.812,14.648,17.578,53.223,993.652,0
1542907289.081,14.160,12.207,23.438,48.340,-995.117,0
1542907289.085,22.461,15.625,22.461,55.664,912.109,0
1542907289.089,22.461,19.531,21.484,55.176,682.617,0
1542907289.093,19.531,20.020,17.090,48.340,418.945,0
1542907289.097,18.066,23.926,19.531,45.898,121.094,0
1542907289.101,26.855,22.461,22.949,57.129,-189.453,0
1542907289.105,16.113,21.484,20.508,55.176,-468.750,0
1542907289.109,14.648,20.508,21.484,44.434,-769.531,0
1542907289.113,24.414,18.555,20.996,34.668,-971.191,0
1542907289.117,11.230,19.043,20.996,27.344,-969.727,0
1542907289.121,13.184,20.020,18.555,26.367,-968.750,0
1542907289.124,10.742,22.461,21.484,31.250,-974.121,0
1542907289.128,5.371,26.855,19.531,39.551,-973.145,0
1542907289.132,26.855,30.273,9.277,31.738,-973.145,0
1542907289.136,14.160,24.414,17.090,19.043,-973.145,0
1542907289.140,1.465,24.902,19.531,22.949,-973.145,0
1542907289.144,10.742,28.320,19.531,39.062,-972.656,0
1542907289.148,4.883,21.973,28.809,62.500,-972.656,0
1542907289.152,7.324,22.949,24.414,41.992,-972.656,0
1542907289.156,13.184,26.855,22.949,28.809,-973.145,0
1542907289.160,22.949,28.809,25.879,54.199,-973.145,0
1542907289.164,16.602,25.879,24.902,49.316,-973.145,0
1542907289.167,18.066,25.879,23.926,28.320,-972.656,0
1542907289.171,20.996,27.832,24.414,32.715,-972.656,0
1542907289.175,22.461,28.809,21.484,41.992,-972.656,0
1542907289.179,26.367,34.668,19.531,31.738,-973.145,0
1542907289.183,25.391,35.645,24.902,21.973,-973.145,0
1542907289.187,20.020,34.668,25.879,31.738,-973.145,0
1542907289.191,16.602,32.227,29.297,40.039,-973.145,0
1542907289.195,18.555,29.785,29.297,43.457,-973.145,0
1542907289.199,27.344,29.785,27.344,37.109,-973.145,0
1542907289.203,21.484,27.344,28.320,29.297,-972.656,0
1542907289.206,5.859,25.391,21.484,26.367,-973.145,0
1542907289.210,8.789,25.879,22.949,20.020,-973.145,0
1542907289.214,13.672,25.391,30.273,30.273,-973.145,0
1542907289.218,18.555,30.762,30.273,40.527,-973.145,0
1542907289.222,23.438,39.551,24.902,32.227,-973.145,0
1542907289.226,18.555,37.598,30.273,20.020,-973.145,0
1542907289.230,16.602,30.273,35.156,31.250,-973.145,0
1542907289.234,18.555,32.227,25.879,27.344,-973.145,0
1542907289.238,14.648,29.785,24.902,27.344,-972.656,0
1542907289.242,10.254,25.391,30.273,40.039,-973.145,0
1542907289.246,10.254,33.691,29.297,20.996,-973.145,0
1542907289.249,9.277,31.738,25.879,7.812,-973.145,0
1542907289.253,11.719,21.973,27.832,19.043,-973.145,0
1542907289.257,16.113,19.043,30.273,26.367,-973.145,0
1542907289.261,9.277,17.090,27.832,20.508,-972.656,0
1542907289.265,24.902,9.766,34.668,28.320,-973.145,0
1542907289.269,66.895,10.254,40.039,76.660,-973.145,0
1542907289.273,84.473,36.621,31.738,92.773,-973.145,0
1542907289.277,59.082,50.781,20.508,38.574,-973.145,0
1542907289.281,0.000,34.668,17.090,-20.996,-972.656,0
1542907289.285,-27.832,31.738,4.395,-33.203,-972.656,0
1542907289.289,-41.992,43.945,-11.719,-53.711,-972.656,0
1542907289.292,-77.637,34.668,-14.160,-92.285,-972.656,0
1542907289.296,-118.164,27.832,-27.832,-129.883,-973.145,0
1542907289.300,-141.602,36.133,-33.691,-168.457,-973.145,0
1542907289.304,-145.996,46.387,-46.875,-165.527,-973.145,0
1542907289.308,-152.832,46.875,-57.617,-164.551,-972.656,0
1542907289.312,-157.227,52.246,-67.383,-198.242,-972.656,0
1542907289.316,-176.758,60.059,-76.660,-200.195,-973.145,0
1542907289.320,-183.594,62.988,-90.332,-205.566,-973.145,0
1542907289.324,-168.945,63.477,-107.422,-231.934,-972.656,0
1542907289.328,-167.969,70.801,-104.492,-230.469,-973.145,0
1542907289.331,-184.570,88.867,-111.328,-236.816,-972.656,0
1542907289.335,-167.480,75.684,-105.957,-201.660,-972.656,0
1542907289.339,-154.785,74.707,-111.328,-190.918,-973.145,0
1542907289.343,-155.273,101.562,-130.371,-210.938,-972.656,0
1542907289.347,-147.461,85.938,-119.141,-206.543,-972.656,0
1542907289.351,-115.723,70.801,-114.258,-190.430,-973.145,0
1542907289.355,-109.863,83.984,-116.699,-203.613,-973.145,0
1542907289.359,-134.766,77.637,-108.887,-207.031,-972.656,0
1542907289.363,-156.250,98.633,-109.375,-163.574,-972.656,0
1542907289.367,-132.324,72.754,-104.492,-136.230,-972.656,0
1542907289.371,-30.762,44.922,-75.684,-120.605,-972.656,0
1542907289.374,-70.801,73.242,-74.707,-110.840,-972.656,0
1542907289.378,-106.445,46.387,-56.152,-139.160,-973.145,0
1542907289.382,-61.035,38.574,-51.270,-132.812,-973.145,0
1542907289.386,-75.684,81.543,-85.449,-79.590,-973.145,0
1542907289.390,-39.062,69.336,-54.688,-82.520,-973.145,0
1542907289.394,-69.336,67.383,-55.664,-110.840,-973.145,0
1542907289.398,-112.793,49.316,-16.113,-124.512,-973.145,0
1542907289.402,-43.945,45.410,-8.789,-90.820,-972.656,0
1542907289.406,-79.590,120.117,-10.742,-52.246,-973.145,0
1542907289.410,-39.551,107.910,-8.789,-69.824,-973.145,0
1542907289.414,-36.621,26.367,-28.809,-86.426,-973.145,0
1542907289.417,-221.191,96.680,-10.742,-127.930,-973.145,0
1542907289.421,-99.609,118.652,19.531,-99.121,-973.145,0
1542907289.425,67.383,-7.324,97.656,-65.430,-970.215,0
1542907289.429,1.953,25.391,29.297,-19.043,-972.656,0
1542907289.433,-157.227,146.484,-3.906,-88.867,-960.938,0
1542907289.437,-190.430,68.359,94.727,-202.637,-847.656,0
1542907289.441,-116.211,-17.090,100.586,-199.219,-738.281,0
1542907289.445,-47.363,68.848,-76.660,-118.164,-697.266,0
1542907289.449,3.906,31.250,-3.906,-4.395,-669.922,0
1542907289.453,-0.488,-13.672,73.242,44.434,-608.887,0
1542907289.456,12.695,32.715,32.227,55.664,-544.434,0
1542907289.460,-75.195,34.180,19.531,-115.723,-531.738,0
1542907289.464,-307.617,123.047,-31.250,-105.957,-498.047,0
1542907289.468,-50.293,19.531,-6.836,-72.266,-457.520,0
1542907289.472,113.281,-16.602,-29.297,-116.211,-450.195,0
1542907289.476,63.965,6.836,-76.660,82.031,-450.195,0
1542907289.480,118.652,-102.539,59.082,156.738,-392.090,0
1542907289.484,71.289,-38.086,54.688,47.363,-352.051,0
1542907289.488,-38.574,54.688,3.906,-81.055,-390.625,0
1542907289.492,-104.492,17.090,37.109,-49.805,-365.234,0
1542907289.496,25.391,-61.035,38.574,-33.203,-296.387,0
1542907289.499,-62.012,57.617,8.789,-83.496,-290.039,0
1542907289.503,-23.438,71.777,-110.840,38.086,-295.898,0
1542907289.507,152.344,-68.848,-50.293,108.398,-308.594,0
1542907289.511,84.473,3.418,93.750,53.711,-286.621,0
1542907289.515,-47.363,116.699,29.785,-59.082,-229.980,0
1542907289.519,13.184,-24.414,14.160,-7.812,-189.941,0
1542907289.523,41.504,-0.488,-37.598,-37.598,-201.660,0
1542907289.527,-8.301,80.566,-119.141,-92.285,-209.473,0
1542907289.531,-63.477,56.641,-140.137,33.691,-222.656,0
1542907289.535,-66.895,48.828,-112.793,-6.836,-220.703,0
1542907289.539,-66.406,52.246,-32.227,-145.996,-145.020,0
1542907289.542,-28.320,47.363,-86.426,-139.648,-132.812,0
1542907289.546,-121.094,144.043,-76.172,-126.953,-140.625,0
1542907289.550,-158.203,1.465,121.094,-122.559,-128.418,0
1542907289.554,42.969,-56.152,-8.301,34.668,-110.352,0
1542907289.558,46.387,63.965,-128.906,-50.781,-78.613,0
1542907289.562,-141.602,135.742,-66.895,-154.297,-69.824,0
1542907289.566,-119.629,127.441,-88.867,46.387,-53.711,0
1542907289.570,36.133,18.555,-62.500,88.379,-89.844,0
1542907289.574,-72.266,5.371,-53.223,-24.414,-144.531,0
1542907289.578,-61.523,60.547,-105.469,-20.020,-64.941,0
1542907289.581,-40.039,41.504,65.918,-7.812,-49.316,0
1542907289.585,-92.773,-62.988,197.266,-108.887,-69.824,0
1542907289.589,85.938,-16.113,-6.348,-35.645,-51.270,0
1542907289.593,129.395,36.133,-82.031,59.570,-84.473,0
1542907289.597,-29.785,18.066,-20.508,42.969,-86.914,0
1542907289.601,28.809,-9.766,-75.684,102.051,-36.133,0
1542907289.605,91.797,-9.766,-53.711,68.359,-38.574,0
1542907289.609,-63.965,0.000,4.395,-61.523,-52.734,0
1542907289.613,13.184,-19.531,-22.949,-41.992,-46.387,0
1542907289.617,95.703,26.367,-14.648,119.141,-34.668,0
1542907289.621,-9.277,80.078,95.215,79.102,-60.547,0
1542907289.624,53.711,-51.270,97.168,62.500,-82.520,0
1542907289.628,33.691,-84.473,89.355,98.145,-27.832,0
1542907289.632,15.137,32.227,35.645,146.484,24.414,0
1542907289.636,41.504,42.969,-47.363,81.543,-24.902,0
1542907289.640,91.797,-29.297,31.738,37.109,-79.590,0
1542907289.644,19.531,-18.555,5.859,179.688,-34.668,0
1542907289.648,-41.016,-22.461,-21.973,116.699,-30.273,0
1542907289.652,121.582,6.348,100.098,26.367,-65.918,0
1542907289.656,126.953,29.785,66.406,83.496,-52.246,0
1542907289.660,12.695,23.926,52.734,48.828,-71.289,0
1542907289.664,53.711,4.883,108.398,122.070,-41.016,0
1542907289.667,164.551,-89.844,-41.016,210.938,45.898,0
1542907289.671,97.168,-49.316,-3.418,79.102,80.078,0
1542907289.675,23.926,7.812,63.965,62.988,38.574,0
1542907289.679,69.336,52.246,4.883,134.766,1.953,0
1542907289.683,93.750,17.090,15.625,41.992,33.203,0
1542907289.687,35.156,-19.043,65.918,49.316,-7.812,0
1542907289.691,69.824,-29.297,21.484,136.230,31.738,0
1542907289.695,117.188,5.371,-8.301,145.020,101.074,0
1542907289.699,64.453,49.805,92.773,136.719,70.312,0
1542907289.703,154.297,-5.859,53.223,86.914,38.574,0
1542907289.706,97.168,-18.555,45.410,128.906,70.312,0
1542907289.710,14.160,14.648,71.777,145.996,88.379,0
1542907289.714,100.586,9.766,19.043,126.953,42.969,0
1542907289.718,57.617,7.324,83.984,42.480,36.133,0
1542907289.722,70.312,0.977,29.297,84.473,11.230,0
1542907289.726,88.379,-18.555,26.367,139.648,-13.184,0
1542907289.730,111.816,-12.695,78.125,104.980,39.062,0
1542907289.734,70.312,61.523,-1.953,101.562,41.504,0
1542907289.738,-33.691,47.363,66.406,78.613,-12.207,0
1542907289.742,101.562,-19.043,54.199,109.375,37.598,0
1542907289.746,172.852,14.160,76.660,95.215,31.250,0
1542907289.749,14.160,50.293,41.504,117.676,0.000,0
1542907289.753,8.301,-8.301,12.207,62.988,18.555,0
1542907289.757,-18.066,-52.246,60.059,-38.086,24.902,0
1542907289.761,-42.480,17.090,-24.414,-6.836,14.160,0
1542907289.765,11.719,60.059,3.906,79.102,-10.254,0
1542907289.769,-51.758,54.199,25.879,-12.695,-76.172,0
1542907289.773,-9.277,-16.113,53.711,-10.254,-58.105,0
1542907289.777,13.672,-9.766,25.879,57.617,37.598,0
1542907289.781,-43.945,49.316,71.289,-41.992,11.719,0
1542907289.785,46.875,-23.926,106.934,60.059,20.020,0
1542907289.789,39.062,5.371,-20.508,116.211,53.223,0
1542907289.792,-32.715,-9.766,-8.301,49.805,61.523,0
1542907289.796,74.219,-48.828,49.316,11.719,49.316,0
1542907289.800,86.426,9.766,40.527,84.473,41.992,0
1542907289.804,-8.789,86.914,40.527,117.188,26.367,0
1542907289.808,12.695,84.473,46.875,27.832,22.949,0
1542907289.812,86.426,-18.555,71.777,40.527,37.109,0
1542907289.816,83.984,-50.781,82.520,73.242,36.621,0
1542907289.820,6.836,-13.184,41.016,75.684,29.297,0
1542907289.824,45.410,16.113,8.301,69.824,67.871,0
1542907289.828,102.051,2.930,48.340,79.102,80.566,0
1542907289.831,88.867,0.488,19.531,96.191,87.402,0
1542907289.835,92.773,17.090,0.000,99.121,120.117,0
1542907289.839,40.527,-20.020,163.086,51.270,41.992,0
1542907289.843,46.387,36.621,68.848,76.172,12.695,0
1542907289.847,9.277,81.055,-31.250,40.039,60.547,0
1542907289.851,43.457,38.574,40.039,-2.930,71.777,0
1542907289.855,72.266,11.719,21.484,73.730,97.656,0
1542907289.859,51.758,-30.273,66.895,45.410,47.852,0
1542907289.863,83.984,-31.250,45.410,81.055,42.480,0
1542907289.867,40.527,-7.324,49.316,113.770,75.684,0
1542907289.871,42.480,35.156,38.574,35.156,54.688,0
1542907289.874,99.121,-11.719,-5.371,87.402,91.309,0
1542907289.878,17.090,33.691,43.945,39.551,130.859,0
1542907289.882,-2.930,83.496,53.711,26.855,112.793,0
1542907289.886,63.477,2.441,72.754,48.828,82.520,0
1542907289.890,27.832,-20.020,54.199,28.809,108.398,0
1542907289.894,21.484,66.406,36.133,37.109,147.949,0
1542907289.898,65.918,29.785,70.312,62.500,167.480,0
1542907289.902,51.758,-9.277,35.645,90.820,104.492,0
1542907289.906,8.301,26.367,51.758,81.543,58.105,0
1542907289.910,19.531,3.906,86.426,73.730,125.488,0
1542907289.914,15.137,19.531,26.855,58.105,140.137,0
1542907289.917,8.789,29.785,-20.996,48.828,136.230,0
1542907289.921,-1.953,48.828,29.297,10.742,109.863,0
1542907289.925,39.551,13.672,36.133,32.715,92.285,0
1542907289.929,31.250,25.879,36.133,52.246,141.602,0
1542907289.933,1.953,47.363,36.133,35.156,147.949,0
1542907289.937,-23.438,30.273,83.496,-8.301,138.672,0
1542907289.941,4.395,32.227,75.195,-58.105,136.230,0
1542907289.945,2.930,9.277,42.969,7.324,77.637,0
1542907289.949,-28.809,-11.230,77.148,86.914,36.621,0
1542907289.953,-26.367,16.602,35.156,29.297,10.254,0
1542907289.956,-12.695,26.855,26.367,7.324,37.598,0
1542907289.960,-35.156,17.090,45.410,-8.789,17.090,0
1542907289.964,-68.359,35.156,50.781,-51.758,-14.160,0
1542907289.968,-58.594,50.293,76.660,-76.172,17.090,0
1542907289.972,-62.988,52.734,39.551,-45.898,42.480,0
1542907289.976,-88.379,39.551,31.738,-26.855,10.254,0
1542907289.980,-88.867,60.059,50.293,-58.594,0.977,0
1542907289.984,-83.008,32.227,82.031,-76.660,1.465,0
1542907289.988,-103.516,20.020,55.176,-54.199,-28.320,0
1542907289.992,-117.676,43.945,45.410,-86.426,2.930,0
1542907289.996,-111.328,60.059,43.945,-103.027,45.898,0
1542907289.999,-93.262,62.988,10.742,-68.848,-5.859,0
1542907290.003,-103.027,70.801,37.109,-108.887,-50.781,0
1542907290.007,-133.301,73.242,30.762,-72.266,-20.020,0
1542907290.011,-190.430,63.965,19.531,-125.488,25.391,0
1542907290.015,-258.789,96.191,37.598,-197.754,37.598,0
1542907290.019,-228.027,58.594,51.270,-187.988,49.316,0
1542907290.023,-212.402,22.949,34.668,-218.262,21.973,0
1542907290.027,-275.879,22.949,62.012,-210.449,15.625,0
1542907290.031,-294.922,82.031,41.992,-215.332,86.426,0
1542907290.035,-267.578,55.664,26.367,-194.824,101.074,0
1542907290.039,-212.891,-42.480,77.637,-164.062,5.859,0
1542907290.042,-175.293,12.695,50.781,-161.133,-12.207,0
1542907290.046,-163.086,24.902,29.297,-141.602,32.715,0
1542907290.050,-146.973,15.625,43.457,-117.188,8.301,0
1542907290.054,-136.230,22.461,46.387,-89.844,-17.090,0
1542907290.058,-140.137,15.625,62.500,-64.453,-19.043,0
1542907290.062,-92.773,10.742,56.152,-40.527,-22.949,0
1542907290.066,-49.316,-1.953,57.129,-26.855,35.645,0
1542907290.070,-39.551,4.883,53.711,-8.789,56.641,0
1542907290.074,-25.391,6.348,43.945,31.250,47.852,0
1542907290.078,-31.738,16.113,45.410,31.738,-13.672,0
1542907290.081,-15.625,31.250,39.062,14.648,-42.969,0
1542907290.085,29.297,-12.207,54.199,41.504,-15.137,0
1542907290.089,27.832,-1.953,43.457,52.734,-32.227,0
1542907290.093,6.836,13.672,34.668,51.758,-13.184,0
1542907290.097,22.461,-10.742,45.898,94.727,4.883,0
1542907290.101,46.387,-1.953,41.016,83.008,30.273,0
1542907290.105,49.316,9.277,38.574,69.336,23.926,0
1542907290.109,56.641,-0.977,51.758,95.215,-13.672,0
1542907290.113,60.547,0.000,47.852,91.309,-2.930,0
1542907290.117,49.316,4.395,42.969,114.746,1.953,0
1542907290.121,49.316,6.348,51.270,125.488,19.531,0
1542907290.124,67.383,13.672,49.805,124.023,54.688,0
1542907290.128,74.707,6.836,58.594,101.074,66.406,0
1542907290.132,73.730,6.348,56.641,102.539,29.297,0
1542907290.136,54.199,20.020,26.367,113.281,2.441,0
1542907290.140,51.270,20.020,43.457,103.027,-11.719,0
1542907290.144,86.426,11.719,45.898,100.098,11.230,0
1542907290.148,83.984,7.324,36.621,98.145,60.547,0
1542907290.152,73.242,10.742,54.688,99.121,2.441,0
1542907290.156,75.684,14.160,47.363,108.398,8.789,0
1542907290.160,84.961,13.184,35.645,116.699,64.941,0
1542907290.164,109.863,17.578,37.598,139.160,14.648,0
1542907290.167,99.609,17.578,57.617,123.047,-15.625,0
1542907290.171,77.148,14.160,46.387,99.609,-8.789,0
1542907290.175,90.332,15.137,30.762,125.488,-2.930,0
1542907290.179,78.125,21.484,36.621,121.094,18.555,0
1542907290.183,48.340,17.578,50.781,99.609,28.809,0
1542907290.187,76.172,20.996,41.992,100.586,20.996,0
1542907290.191,104.004,23.438,34.180,110.352,53.223,0
1542907290.195,93.750,19.043,35.156,105.469,84.473,0
1542907290.199,79.102,23.438,36.133,80.078,105.957,0
1542907290.203,71.777,20.508,40.527,116.211,39.062,0
1542907290.206,73.242,24.414,41.016,114.258,15.625,0
1542907290.210,72.266,14.160,41.504,80.566,-19.531,0
1542907290.214,66.895,10.742,33.203,112.305,-40.527,0
1542907290.218,68.359,15.625,37.109,88.379,0.000,0
1542907290.222,78.613,19.043,37.109,80.078,1.465,0
1542907290.226,80.566,19.043,35.156,101.074,-26.855,0
1542907290.230,73.730,18.555,31.738,106.445,-18.066,0
1542907290.234,53.223,22.461,34.668,95.703,78.613,0
1542907290.238,43.457,21.484,30.273,76.660,47.363,0
1542907290.242,62.500,19.043,29.785,76.172,-38.086,0
1542907290.246,66.406,16.602,36.621,53.223,-19.043,0
1542907290.249,56.152,17.090,31.738,65.918,25.879,0
1542907290.253,54.688,25.391,31.738,83.496,32.715,0
1542907290.257,51.758,28.809,37.109,71.777,33.203,0
1542907290.261,59.082,23.438,35.156,76.660,21.973,0
1542907290.265,49.316,15.137,35.645,71.777,14.160,0
1542907290.269,39.551,20.996,33.691,71.777,6.348,0
1542907290.273,45.898,25.879,33.203,71.777,-10.254,0
1542907290.277,47.363,24.414,28.809,49.316,30.762,0
1542907290.281,45.898,23.926,31.738,46.875,27.344,0
1542907290.285,41.504,25.391,34.180,68.848,1.953,0
1542907290.289,35.645,30.273,32.715,64.941,13.184,0
1542907290.292,41.504,25.391,26.855,45.410,-39.062,0
1542907290.296,34.180,28.809,25.391,57.129,-53.711,0
1542907290.300,20.508,30.273,33.691,57.129,-25.879,0
1542907290.304,24.902,24.414,26.855,47.852,-0.977,0
1542907290.308,34.180,27.832,28.320,62.012,37.598,0
1542907290.312,22.461,27.344,26.855,39.062,0.977,0
1542907290.316,10.742,29.297,25.391,29.785,-17.578,0
1542907290.320,19.531,21.973,24.902,35.156,-37.598,0
1542907290.324,11.719,16.113,26.367,24.414,-62.012,0
1542907290.328,11.719,28.320,30.273,32.715,-60.547,0
1542907290.331,20.508,32.227,24.414,48.828,-6.836,0
1542907290.335,11.719,27.344,23.438,29.785,27.832,0
1542907290.339,17.578,26.367,26.367,5.371,30.762,0
1542907290.343,20.996,27.832,27.344,25.879,65.918,0
1542907290.347,1.953,33.691,28.809,28.320,-17.578,0
1542907290.351,0.000,32.227,27.832,19.531,27.832,0
1542907290.355,5.859,25.391,27.344,27.344,43.457,0
1542907290.359,5.371,22.461,33.203,27.832,-53.223,0
1542907290.363,-1.953,24.414,28.809,3.418,3.906,0
1542907290.367,-6.348,26.367,21.484,10.742,54.199,0
1542907290.371,-0.488,31.250,21.973,25.391,38.574,0
1542907290.374,-10.254,33.691,24.902,34.668,91.797,0
1542907290.378,-20.508,27.344,22.949,22.461,59.082,0
1542907290.382,-12.695,29.785,22.461,18.555,-25.879,0
1542907290.386,8.301,32.715,27.832,13.184,22.949,0
1542907290.390,6.836,31.250,26.855,-20.020,82.520,0
1542907290.394,-6.836,30.762,23.926,-28.809,79.590,0
1542907290.398,-7.324,30.273,26.367,-12.695,23.926,0
1542907290.402,-1.465,29.785,23.438,6.348,14.160,0
1542907290.406,-20.020,28.809,25.879,14.648,53.711,0
1542907290.410,-35.645,25.391,26.855,-17.578,40.527,0
1542907290.414,-19.043,20.996,22.461,-23.926,49.805,0
1542907290.417,-23.926,24.902,28.809,-18.555,60.547,0
1542907290.421,-41.992,28.809,31.738,-16.602,33.691,0
1542907290.425,-34.180,28.809,28.320,-16.113,43.945,0
1542907290.429,-25.391,26.367,27.832,6.348,41.992,0
1542907290.433,-40.527,24.414,29.785,-21.484,21.973,0
1542907290.437,-53.711,26.367,28.809,-59.570,0.488,0
1542907290.441,-57.617,33.691,24.902,-35.645,32.715,0
1542907290.445,-64.453,31.250,23.438,-25.879,57.617,0
1542907290.449,-62.988,26.367,27.832,-50.781,42.480,0
1542907290.453,-63.477,34.180,27.344,-58.594,13.672,0
1542907290.456,-73.242,38.086,25.391,-48.340,20.020,0
1542907290.460,-82.031,35.645,29.297,-80.566,22.461,0
1542907290.464,-101.074,40.039,23.438,-99.609,-46.875,0
1542907290.468,-122.070,41.992,20.996,-102.539,-13.184,0
1542907290.472,-111.328,41.992,28.809,-106.445,7.812,0
1542907290.476,-109.863,46.875,27.832,-118.652,-1.953,0
1542907290.480,-117.188,45.898,19.043,-115.723,22.949,0
1542907290.484,-110.840,47.363,17.090,-91.797,37.598,0
1542907290.488,-103.516,56.641,17.578,-95.215,3.906,0
1542907290.492,-121.094,60.547,17.578,-117.188,4.883,0
1542907290.496,-156.250,52.246,23.438,-145.996,13.184,0
1542907290.499,-164.062,41.504,25.391,-150.391,15.137,0
1542907290.503,-136.719,39.551,28.320,-124.512,32.227,0
1542907290.507,-127.441,42.969,31.250,-119.629,43.457,0
1542907290.511,-120.117,38.086,32.227,-84.473,50.781,0
1542907290.515,-95.703,24.414,33.691,-71.777,41.016,0
1542907290.519,-90.332,24.902,34.180,-96.680,-21.973,0
1542907290.523,-88.379,26.367,27.344,-87.402,-25.879,0
1542907290.527,-79.590,26.367,29.785,-48.340,20.508,0
1542907290.531,-43.457,26.855,32.227,-10.254,1.465,0
1542907290.535,-13.672,22.949,27.344,-11.719,-46.387,0
1542907290.539,-19.043,27.832,24.902,-16.602,-2.441,0
1542907290.542,-4.395,32.715,16.602,7.324,6.836,0
1542907290.546,8.789,25.391,12.695,41.504,-90.820,0
1542907290.550,16.602,21.484,14.648,54.688,-53.711,0
1542907290.554,27.832,23.926,16.602,75.684,-8.789,0
1542907290.558,29.785,20.020,13.184,68.848,-36.621,0
1542907290.562,49.805,18.555,12.695,44.922,-21.973,0
1542907290.566,51.270,15.137,16.113,44.922,-1.953,0
1542907290.570,59.082,11.230,15.625,62.012,-41.016,0
1542907290.574,76.660,16.113,13.672,83.496,-4.883,0
1542907290.578,71.289,16.113,14.160,80.078,69.336,0
1542907290.581,64.453,12.207,16.602,81.543,0.488,0
1542907290.585,64.941,12.207,19.531,89.355,-60.059,0
1542907290.589,71.777,11.719,21.973,84.961,-21.484,0
1542907290.593,79.590,15.137,22.949,96.191,10.254,0
1542907290.597,84.961,15.137,25.879,108.887,12.207,0
1542907290.601,75.195,19.043,23.438,109.863,28.809,0
1542907290.605,74.219,23.438,27.344,124.512,12.695,0
1542907290.609,72.266,16.602,31.250,103.516,-13.184,0
1542907290.613,68.848,13.672,30.273,83.008,24.414,0
1542907290.617,76.660,17.578,28.809,88.379,5.371,0
1542907290.621,79.102,20.508,23.438,96.680,-51.758,0
1542907290.624,78.613,17.578,23.926,113.281,-40.039,0
1542907290.628,73.730,14.648,32.227,82.520,-21.973,0
1542907290.632,70.312,16.602,31.250,67.871,-44.922,0
1542907290.636,68.359,23.438,27.832,90.820,-26.855,0
1542907290.640,71.777,23.926,28.809,91.309,68.848,0
1542907290.644,71.777,16.113,27.344,91.797,32.715,0
1542907290.648,74.707,16.602,27.832,109.375,-5.859,0
1542907290.652,85.938,21.973,21.484,92.773,58.594,0
1542907290.656,80.566,25.879,20.508,94.238,103.516,0
1542907290.660,68.848,17.578,29.297,99.609,78.125,0
1542907290.664,71.289,17.578,26.367,83.984,3.418,0
1542907290.667,76.172,20.996,20.020,96.191,-11.719,0
1542907290.671,75.684,16.113,24.902,98.145,39.062,0
1542907290.675,80.566,9.766,28.809,94.238,29.785,0
1542907290.679,75.684,10.254,26.367,88.867,1.953,0
1542907290.683,70.801,14.160,28.809,74.707,-22.949,0
1542907290.687,75.684,14.160,32.715,82.520,10.254,0
1542907290.691,70.801,16.113,34.180,85.449,53.223,0
1542907290.695,75.195,20.996,34.180,76.172,58.105,0
1542907290.699,75.195,20.020,34.668,79.590,49.805,0
1542907290.703,60.059,18.555,33.691,72.266,25.879,0
1542907290.706,53.223,18.066,32.227,83.984,9.277,0
1542907290.710,58.105,16.602,32.715,78.613,-32.715,0
1542907290.714,63.477,15.137,30.762,43.457,11.719,0
1542907290.718,55.664,13.184,32.227,55.664,40.527,0
1542907290.722,60.059,15.625,31.250,80.078,-28.809,0
1542907290.726,68.848,14.160,35.156,87.891,-11.230,0
1542907290.730,65.430,11.719,42.969,97.168,26.855,0
1542907290.734,55.664,19.531,34.668,83.008,0.977,0
1542907290.738,65.918,22.949,30.273,68.359,-26.367,0
1542907290.742,63.477,15.625,37.109,77.148,-15.137,0
1542907290.746,59.082,20.020,34.180,69.336,-26.855,0
1542907290.749,63.965,22.949,31.738,54.688,-1.465,0
1542907290.753,49.316,20.996,31.250,59.570,23.438,0
1542907290.757,60.059,18.066,31.250,63.477,-19.043,0
1542907290.761,55.176,20.020,24.414,65.430,5.859,0
1542907290.765,41.016,18.066,28.320,68.848,39.062,0
1542907290.769,51.758,10.742,33.203,64.941,20.020,0
1542907290.773,52.246,12.695,25.879,53.223,-4.395,0
1542907290.777,40.527,13.672,24.902,51.270,-13.672,0
1542907290.781,40.527,10.254,31.250,58.105,47.852,0
1542907290.785,41.504,14.648,28.320,50.293,53.711,0
1542907290.789,38.574,19.043,24.414,26.855,22.461,0
1542907290.792,45.898,11.230,30.273,42.480,4.395,0
1542907290.796,41.016,13.184,28.809,73.242,-20.020,0
1542907290.800,38.086,22.949,25.391,74.219,27.832,0
1542907290.804,36.621,18.555,31.738,59.570,90.332,0
1542907290.808,50.781,15.625,31.250,33.691,74.707,0
1542907290.812,43.945,16.113,42.480,38.574,68.359,0
1542907290.816,33.203,21.484,44.434,49.805,90.820,0
1542907290.820,44.434,21.484,29.785,73.730,45.410,0
1542907290.824,31.250,17.578,31.250,67.871,28.320,0
1542907290.828,20.020,20.020,33.203,38.574,85.449,0
1542907290.831,27.344,13.184,33.203,40.527,75.195,0
1542907290.835,30.273,19.531,26.367,38.574,88.379,0
1542907290.839,18.066,23.926,25.391,31.250,45.898,0
1542907290.843,19.043,19.043,25.391,18.555,28.809,0
1542907290.847,20.996,16.602,26.855,14.648,23.926,0
1542907290.851,17.578,19.531,29.785,21.973,32.227,0
1542907290.855,21.484,13.672,28.320,30.762,88.379,0
1542907290.859,15.625,7.324,31.738,44.922,77.148,0
1542907290.863,14.160,10.742,37.109,40.527,67.383,0
1542907290.867,18.066,17.578,27.344,26.855,52.246,0
1542907290.871,18.066,18.555,23.438,34.668,2.441,0
1542907290.874,21.973,13.672,32.715,48.340,33.691,0
1542907290.878,33.691,16.602,31.250,41.992,84.961,0
1542907290.882,30.273,24.902,23.926,34.668,30.762,0
1542907290.886,20.020,27.344,44.434,27.344,3.906,0
1542907290.890,18.555,29.785,74.219,25.391,47.363,0
1542907290.894,26.367,27.344,83.008,31.738,56.641,0
1542907290.898,30.273,21.973,83.496,35.645,98.633,0
1542907290.902,18.066,21.973,82.031,32.715,111.816,0
1542907290.906,14.160,30.273,78.613,26.855,100.586,0
1542907290.910,20.020,31.250,71.289,35.645,104.492,0
1542907290.914,22.949,27.344,69.824,31.738,79.590,0
1542907290.917,18.066,29.297,70.801,23.926,29.297,0
1542907290.921,20.020,27.344,65.918,18.066,34.668,0
1542907290.925,25.391,30.762,73.730,44.922,94.727,0
1542907290.929,20.020,31.250,72.754,38.574,124.023,0
1542907290.933,9.766,30.762,61.035,20.020,136.230,0
1542907290.937,11.719,26.367,66.406,48.828,47.852,0
1542907290.941,9.766,25.879,68.359,41.016,-9.766,0
1542907290.945,4.395,29.297,63.965,19.043,65.918,0
1542907290.949,9.277,30.762,64.453,16.113,65.430,0
1542907290.953,14.648,31.738,57.129,18.555,47.363,0
1542907290.956,5.859,43.457,49.316,10.254,99.121,0
1542907290.960,-0.488,43.945,55.664,-5.859,77.148,0
1542907290.964,-2.441,34.668,58.105,8.301,65.430,0
1542907290.968,-20.508,36.621,53.711,9.277,90.820,0
1542907290.972,-33.691,36.133,50.293,-21.484,55.176,0
1542907290.976,-40.527,42.480,51.758,-28.320,19.531,0
1542907290.980,-47.363,42.480,55.176,-46.387,90.332,0
1542907290.984,-55.664,44.922,55.664,-58.594,103.027,0
1542907290.988,-67.871,55.664,52.246,-32.227,55.664,0
1542907290.992,-72.754,53.711,47.852,-31.250,45.410,0
1542907290.996,-71.289,49.805,45.410,-64.941,56.152,0
1542907290.999,-76.660,56.152,45.898,-96.191,59.082,0
1542907291.003,-80.078,58.105,43.457,-89.355,42.480,0
1542907291.007,-83.496,55.664,43.945,-93.262,25.391,0
1542907291.011,-94.727,58.105,41.992,-100.586,62.988,0
1542907291.015,-100.586,59.082,34.180,-76.172,65.430,0
1542907291.019,-87.402,63.477,29.785,-80.566,57.617,0
1542907291.023,-86.914,62.012,32.715,-107.910,45.410,0
1542907291.027,-127.930,53.223,32.715,-123.535,14.160,0
1542907291.031,-142.090,54.199,30.762,-130.371,42.480,0
1542907291.035,-130.859,57.617,32.227,-112.793,57.129,0
1542907291.039,-137.695,55.664,38.574,-105.469,46.875,0
1542907291.042,-117.188,43.945,41.992,-118.164,73.242,0
1542907291.046,-101.074,42.480,29.785,-110.352,44.434,0
1542907291.050,-101.074,40.527,31.250,-91.309,0.000,0
1542907291.054,-70.801,31.250,35.156,-62.988,54.688,0
1542907291.058,-27.832,29.785,39.062,-31.738,81.055,0
1542907291.062,-22.949,28.320,40.039,-13.672,43.945,0
1542907291.066,-7.324,22.461,38.086,0.000,14.648,0
1542907291.070,26.367,20.996,38.574,36.133,3.906,0
1542907291.074,43.945,23.926,35.645,54.199,51.758,0
1542907291.078,79.102,26.855,37.109,78.125,67.871,0
1542907291.081,92.285,26.367,41.016,100.586,53.711,0
1542907291.085,102.051,23.926,36.133,126.953,60.059,0
1542907291.089,116.211,16.113,39.062,137.207,91.309,0
1542907291.093,104.980,12.695,43.945,99.609,99.609,0
1542907291.097,103.027,25.391,38.574,101.074,46.875,0
1542907291.101,117.188,26.367,34.180,125.977,52.734,0
1542907291.105,110.840,17.090,38.086,124.023,120.605,0
1542907291.109,108.398,15.137,41.504,111.328,96.191,0
1542907291.113,120.605,19.531,43.457,124.512,123.047,0
1542907291.117,116.699,25.879,39.551,128.906,201.660,0
1542907291.121,112.305,20.996,39.062,128.418,289.062,0
1542907291.124,120.605,17.090,38.574,136.719,386.719,0
1542907291.128,122.559,22.949,41.504,130.859,425.293,0
1542907291.132,100.098,19.531,46.387,121.582,468.750,0
1542907291.136,102.051,20.508,44.434,109.375,520.020,0
1542907291.140,112.793,25.391,43.945,108.398,550.293,0
1542907291.144,107.910,20.996,51.270,110.840,538.086,0
1542907291.148,107.422,22.461,48.828,115.723,513.184,0
1542907291.152,107.422,23.926,43.457,115.234,532.227,0
1542907291.156,107.910,23.926,43.457,117.188,513.672,0
1542907291.160,110.352,31.250,41.016,105.957,468.262,0
1542907291.164,105.957,29.297,40.527,113.281,430.176,0
1542907291.167,103.027,28.809,44.434,134.766,407.715,0
1542907291.171,90.820,31.250,48.340,105.957,394.531,0
1542907291.175,97.656,19.531,55.176,108.398,342.285,0
1542907291.179,96.191,20.996,60.059,104.492,260.254,0
1542907291.183,80.566,31.250,55.664,86.914,212.891,0
1542907291.187,91.309,26.367,51.758,106.445,186.035,0
1542907291.191,97.168,26.367,56.152,86.426,129.883,0
1542907291.195,99.121,39.062,60.547,77.148,49.805,0
1542907291.199,93.262,32.715,63.477,95.215,-28.320,0
1542907291.203,87.891,24.902,63.477,91.309,-86.426,0
1542907291.206,83.984,27.344,69.824,86.426,-131.836,0
1542907291.210,93.750,25.391,75.684,95.703,-189.941,0
1542907291.214,94.727,29.297,75.195,85.938,-240.234,0
1542907291.218,75.684,35.645,67.383,96.680,-287.598,0
1542907291.222,72.754,37.598,72.266,88.867,-291.504,0
1542907291.226,71.289,36.621,76.660,55.176,-306.641,0
1542907291.230,66.895,25.879,74.219,64.453,-300.781,0
1542907291.234,61.035,29.297,74.219,56.641,-295.410,0
1542907291.238,52.734,39.062,68.359,72.754,-272.949,0
1542907291.242,51.270,27.832,75.195,86.426,-227.539,0
1542907291.246,48.340,25.879,74.707,53.223,-229.980,0
1542907291.249,57.129,35.156,75.684,52.734,-233.887,0
1542907291.253,56.641,30.273,86.914,58.594,-219.727,0
1542907291.257,43.457,35.645,81.543,55.664,-233.398,0
1542907291.261,45.898,45.410,79.590,54.688,-231.445,0
1542907291.265,41.504,38.086,83.008,40.527,-186.523,0
1542907291.269,35.645,27.832,75.195,23.438,-177.734,0
1542907291.273,29.297,36.133,66.406,20.020,-199.219,0
1542907291.277,14.648,45.898,59.570,9.766,-181.641,0
1542907291.281,11.230,51.270,57.129,5.859,-151.855,0
1542907291.285,1.953,52.734,59.082,-4.883,-134.766,0
1542907291.289,-13.184,48.340,57.617,-17.090,-114.258,0
1542907291.292,-18.555,50.293,50.293,3.906,-126.465,0
1542907291.296,-38.086,47.852,58.594,-23.438,-115.234,0
1542907291.300,-50.781,49.805,53.223,-65.430,-72.266,0
1542907291.304,-64.453,53.223,41.992,-69.824,-131.348,0
1542907291.308,-69.824,60.547,46.875,-56.641,-163.574,0
1542907291.312,-47.363,74.219,43.945,-49.316,-92.773,0
1542907291.316,-40.039,74.707,42.480,-43.945,-77.637,0
1542907291.320,-82.031,69.336,46.387,-65.918,-120.605,0
1542907291.324,-128.906,66.406,40.039,-122.070,-76.660,0
1542907291.328,-126.465,65.918,35.645,-126.465,-58.594,0
1542907291.331,-104.004,60.547,40.039,-122.559,-91.309,0
1542907291.335,-121.094,57.129,39.062,-106.445,-85.449,0
1542907291.339,-122.559,56.152,41.992,-90.332,-85.938,0
1542907291.343,-128.418,45.410,52.734,-119.629,-61.523,0
1542907291.347,-133.789,36.621,50.293,-108.887,-68.359,0
1542907291.351,-98.633,32.715,49.316,-81.055,-50.781,0
1542907291.355,-78.613,25.879,54.199,-57.617,-103.027,0
1542907291.359,-60.547,29.785,55.664,-47.363,-98.145,0
1542907291.363,-39.062,28.320,51.758,-30.273,-36.621,0
1542907291.367,-6.836,19.531,55.664,12.695,-63.477,0
1542907291.371,10.254,23.438,51.758,36.133,-28.320,0
1542907291.374,20.508,21.484,43.945,44.434,-42.969,0
1542907291.378,54.199,21.973,40.527,45.410,-87.402,0
1542907291.382,58.105,27.344,35.156,88.379,-60.547,0
1542907291.386,51.758,26.855,37.598,84.473,3.418,0
1542907291.390,62.500,36.621,31.738,62.012,-55.664,0
1542907291.394,88.379,29.297,33.203,87.891,-95.215,0
1542907291.398,106.934,22.949,33.691,110.840,-37.109,0
1542907291.402,100.098,30.273,28.320,113.770,-9.277,0
1542907291.406,111.328,21.973,31.738,106.445,-48.828,0
1542907291.410,103.027,20.996,31.250,103.516,-52.246,0
1542907291.414,84.961,23.926,31.250,94.727,-28.809,0
1542907291.417,103.516,19.043,33.203,108.398,-55.664,0
1542907291.421,100.098,20.020,32.715,110.352,-57.617,0
1542907291.425,86.914,23.926,31.738,97.168,-70.801,0
1542907291.429,87.402,20.508,32.227,101.562,-76.660,0
1542907291.433,80.078,18.066,30.762,98.633,-65.918,0
1542907291.437,86.426,17.578,29.785,95.703,-45.410,0
1542907291.441,88.867,16.602,31.250,90.332,-4.395,0
1542907291.445,90.332,17.578,29.297,90.332,25.879,0
1542907291.449,94.727,20.996,21.484,79.590,-17.090,0
1542907291.453,87.402,14.648,32.227,79.590,-27.344,0
1542907291.456,64.941,11.719,36.133,95.215,-78.125,0
1542907291.460,59.570,11.230,30.762,69.824,-89.355,0
1542907291.464,73.730,12.207,30.273,71.777,-21.484,0
1542907291.468,71.777,13.184,33.203,104.492,-19.043,0
1542907291.472,75.195,16.113,34.180,81.055,30.273,0
1542907291.476,77.148,20.020,30.762,65.430,-11.230,0
1542907291.480,59.570,15.137,36.621,74.219,-53.711,0
1542907291.484,57.129,18.555,35.156,76.660,9.766,0
1542907291.488,55.176,19.531,33.203,84.473,37.598,0
1542907291.492,48.828,13.672,39.062,98.145,61.035,0
1542907291.496,56.152,18.066,38.574,93.262,13.184,0
1542907291.499,73.242,21.973,34.668,76.172,-73.242,0
1542907291.503,66.406,24.902,30.762,68.848,-70.801,0
1542907291.507,60.059,22.949,33.691,67.383,-21.484,0
1542907291.511,59.570,21.484,32.715,67.871,0.977,0
1542907291.515,57.129,22.461,34.668,62.988,-13.672,0
1542907291.519,59.082,17.578,36.621,53.223,-24.902,0
1542907291.523,54.199,19.531,29.785,75.684,-17.578,0
1542907291.527,50.293,28.320,30.273,69.824,-57.617,0
1542907291.531,46.875,27.832,33.203,45.410,-67.383,0
1542907291.535,42.969,21.484,28.320,47.363,-30.762,0
1542907291.539,30.762,27.344,27.344,46.875,-15.137,0
1542907291.542,37.109,24.902,29.297,52.734,-1.953,0
1542907291.546,43.945,17.090,24.902,45.410,-1.953,0
1542907291.550,34.180,20.020,25.879,46.387,0.488,0
1542907291.554,37.109,24.414,34.180,60.547,32.715,0
1542907291.558,31.250,26.855,32.227,36.621,80.078,0
1542907291.562,32.227,22.949,33.203,37.598,45.898,0
1542907291.566,33.691,23.438,34.180,44.434,-11.719,0
1542907291.570,30.762,27.832,29.297,35.156,39.062,0
1542907291.574,32.715,26.855,33.203,38.086,32.715,0
1542907291.578,21.973,18.555,30.273,32.715,-20.996,0
1542907291.581,16.602,12.695,35.156,40.039,8.301,0
1542907291.585,33.203,20.508,40.527,44.922,-33.691,0
1542907291.589,27.832,30.273,31.250,37.109,6.836,0
1542907291.593,27.832,21.973,32.715,32.715,31.250,0
1542907291.597,42.480,14.160,35.156,28.809,7.324,0
1542907291.601,14.648,17.578,28.809,19.531,20.996,0
1542907291.605,5.371,20.508,28.320,15.137,7.812,0
1542907291.609,21.484,23.926,27.832,20.996,23.926,0
1542907291.613,20.996,26.367,26.367,24.414,42.969,0
1542907291.617,15.137,18.066,30.273,15.137,-23.438,0
1542907291.621,21.484,17.578,26.855,10.254,-52.246,0
1542907291.624,10.742,20.508,22.949,23.438,8.789,0
1542907291.628,1.953,18.066,27.832,11.719,46.387,0
1542907291.632,17.578,19.531,29.297,1.465,31.738,0
1542907291.636,22.949,17.090,24.902,16.113,8.789,0
1542907291.640,9.277,15.625,24.902,18.066,24.902,0
1542907291.644,7.812,16.602,24.414,6.348,-16.602,0
1542907291.648,3.906,23.438,24.902,20.996,20.996,0
1542907291.652,17.578,26.367,28.320,37.598,31.250,0
1542907291.656,56.152,25.879,29.297,62.988,-14.648,0
1542907291.660,54.688,27.832,36.621,66.895,22.461,0
1542907291.664,0.977,21.484,36.133,18.555,30.273,0
1542907291.667,-34.668,18.066,23.926,-26.367,29.785,0
1542907291.671,-55.176,20.020,20.996,-53.711,30.273,0
1542907291.675,-82.031,17.090,20.508,-74.219,92.773,0
1542907291.679,-78.613,20.996,20.020,-78.613,121.094,0
1542907291.683,-86.914,16.113,24.902,-62.988,45.410,0
1542907291.687,-106.445,9.277,30.273,-76.660,40.527,0
1542907291.691,-87.891,10.254,25.391,-81.055,70.801,0
1542907291.695,-66.406,10.742,25.879,-50.293,59.570,0
1542907291.699,-54.688,11.719,22.461,-36.621,80.078,0
1542907291.703,-50.781,7.324,29.297,-39.551,49.805,0
1542907291.706,-54.688,6.836,30.273,-25.879,23.926,0
1542907291.710,-40.039,14.160,19.531,-28.809,79.590,0
1542907291.714,-33.203,17.578,25.879,-18.555,101.074,0
1542907291.718,-29.785,14.160,25.879,-3.906,101.562,0
1542907291.722,-18.555,12.695,20.508,-11.719,57.617,0
1542907291.726,-33.691,18.555,21.484,-21.484,28.809,0
1542907291.730,-38.086,14.648,26.367,-30.273,104.980,0
1542907291.734,-26.367,8.789,24.414,-15.625,132.324,0
1542907291.738,-26.367,9.277,26.855,-2.441,85.449,0
1542907291.742,-25.391,15.137,28.320,-1.465,69.336,0
1542907291.746,-16.602,21.484,34.180,20.020,43.457,0
1542907291.749,-9.766,18.066,28.320,22.461,37.109,0
1542907291.753,-25.391,14.648,22.461,9.766,41.504,0
1542907291.757,-18.066,12.207,29.297,-19.531,72.266,0
1542907291.761,-11.230,12.695,24.414,-16.113,81.055,0
1542907291.765,-7.812,17.090,29.297,12.207,92.285,0
1542907291.769,-7.324,16.602,30.762,14.160,117.188,0
1542907291.773,-10.742,20.996,22.949,20.020,146.973,0
1542907291.777,-6.348,25.391,23.926,14.160,154.785,0
1542907291.781,-0.488,24.414,28.809,9.766,73.242,0
1542907291.785,13.184,27.832,30.273,2.930,37.598,0
1542907291.789,7.324,19.531,28.809,13.672,51.758,0
1542907291.792,2.930,20.020,27.832,17.578,40.039,0
1542907291.796,12.207,24.902,26.855,18.066,113.770,0
1542907291.800,7.812,24.902,24.902,10.742,105.957,0
1542907291.804,4.883,27.344,27.344,11.719,73.242,0
1542907291.808,9.766,20.508,25.391,24.902,96.680,0
1542907291.812,10.742,23.926,21.484,15.625,72.266,0
1542907291.816,14.648,20.996,29.785,16.602,66.895,0
1542907291.820,11.230,15.137,25.879,22.949,92.285,0
1542907291.824,10.254,21.484,21.484,6.836,73.242,0
1542907291.828,-3.418,24.902,24.414,0.488,103.516,0
1542907291.831,-12.207,20.020,22.949,23.926,108.398,0
1542907291.835,9.277,20.508,27.344,40.039,46.387,0
1542907291.839,17.090,21.484,30.762,36.621,79.590,0
1542907291.843,6.836,20.020,25.879,14.648,84.473,0
1542907291.847,-0.488,26.855,21.973,19.043,30.762,0
1542907291.851,4.883,29.785,25.391,25.879,4.883,0
1542907291.855,19.531,21.973,29.297,17.090,25.879,0
1542907291.859,16.113,22.949,25.391,16.113,50.781,0
1542907291.863,9.766,29.785,25.879,20.996,55.664,0
1542907291.867,12.207,29.785,35.156,19.043,71.777,0
1542907291.871,-5.371,30.273,35.645,15.137,33.203,0
1542907291.874,-7.324,31.250,27.832,35.156,23.438,0
1542907291.878,3.906,28.320,29.297,23.926,44.434,0
1542907291.882,3.906,28.809,32.227,12.207,20.020,0
1542907291.886,14.648,33.203,31.738,17.090,27.344,0
1542907291.890,19.043,36.133,35.156,27.344,33.691,0
1542907291.894,11.230,31.738,33.203,25.391,7.812,0
1542907291.898,1.953,23.926,28.320,2.930,29.297,0
1542907291.902,-3.906,26.855,24.902,2.441,30.762,0
1542907291.906,-2.930,31.738,21.973,12.695,17.578,0
1542907291.910,-5.859,24.414,28.809,0.488,38.086,0
1542907291.914,-1.953,22.461,27.344,1.465,28.320,0
1542907291.917,-6.348,26.855,23.926,3.418,24.414,0
1542907291.921,-16.113,31.738,27.344,20.020,41.504,0
1542907291.925,-4.883,31.250,25.879,22.949,79.102,0
1542907291.929,-2.441,23.926,29.297,-2.930,76.660,0
1542907291.933,12.207,25.391,37.598,1.465,37.598,0
1542907291.937,6.348,23.926,33.691,12.207,41.016,0
1542907291.941,-3.418,18.555,25.879,20.996,29.297,0
1542907291.945,-6.836,20.508,24.902,30.762,8.301,0
1542907291.949,-33.691,25.879,28.320,10.742,40.039,0
1542907291.953,-20.996,22.461,30.273,-5.371,19.043,0
1542907291.956,-9.277,18.555,30.273,8.789,47.363,0
1542907291.960,-18.555,24.414,27.344,-7.812,62.988,0
1542907291.964,-8.789,29.297,19.043,-7.324,61.035,0
1542907291.968,3.906,31.250,22.461,14.160,89.844,0
1542907291.972,-14.160,29.297,25.879,9.277,14.160,0
1542907291.976,-20.996,27.832,25.391,8.789,20.508,0
1542907291.980,-14.648,26.855,28.809,10.742,26.855,0
1542907291.984,-3.906,25.879,20.020,-2.930,11.230,0
1542907291.988,-5.859,30.762,18.555,-9.766,28.320,0
1542907291.992,-33.203,25.879,28.320,-4.395,21.973,0
1542907291.996,-27.832,23.438,28.320,-8.789,6.348,0
1542907291.999,-4.883,27.344,21.973,5.371,62.500,0
1542907292.003,-7.812,28.809,23.926,23.926,42.969,0
1542907292.007,-10.742,31.250,20.508,30.273,-17.578,0
1542907292.011,-3.906,20.508,24.414,15.137,44.434,0
1542907292.015,-6.348,19.531,35.156,1.953,60.547,0
1542907292.019,-7.812,21.484,33.691,13.184,49.316,0
1542907292.023,-5.859,26.367,28.320,10.742,110.352,0
1542907292.027,-3.906,25.391,27.344,3.906,82.031,0
1542907292.031,19.531,19.043,26.367,16.113,37.598,0
1542907292.035,6.348,24.902,30.762,14.160,82.031,0
1542907292.039,-1.465,26.367,33.691,11.230,22.461,0
1542907292.042,10.742,22.949,29.297,35.156,5.371,0
1542907292.046,6.836,23.438,29.785,20.020,41.992,0
1542907292.050,5.859,22.949,29.785,11.230,10.742,0
1542907292.054,9.766,19.043,28.320,36.133,15.625,0
1542907292.058,15.625,21.973,28.320,12.207,73.242,0
1542907292.062,12.207,22.949,26.855,1.953,99.121,0
1542907292.066,16.602,21.973,35.156,26.367,54.199,0
1542907292.070,12.695,33.691,37.598,38.086,99.121,0
1542907292.074,10.254,24.414,36.133,34.180,104.492,0
1542907292.078,11.719,11.230,34.668,25.391,94.727,0
1542907292.081,7.324,19.531,25.879,20.996,101.074,0
1542907292.085,16.602,24.902,29.785,25.879,43.457,0
1542907292.089,33.203,26.855,28.809,43.945,13.672,0
1542907292.093,35.156,29.297,24.414,44.922,-0.488,0
1542907292.097,10.742,26.855,29.785,29.297,24.902,0
1542907292.101,12.695,20.996,38.086,37.598,67.871,0
1542907292.105,25.391,25.391,40.527,39.062,28.809,0
1542907292.109,19.043,34.180,37.598,21.973,33.691,0
1542907292.113,12.207,33.203,29.785,27.344,53.711,0
1542907292.117,13.672,29.297,29.785,27.832,63.477,0
1542907292.121,19.531,27.832,33.691,5.859,22.461,0
1542907292.124,13.184,36.133,29.297,2.930,6.348,0
1542907292.128,1.953,53.223,23.926,15.625,63.965,0
1542907292.132,12.695,41.016,29.297,18.555,54.688,0
1542907292.136,8.301,28.809,31.250,-9.766,32.715,0
1542907292.140,-11.719,34.668,30.762,-27.832,60.059,0
1542907292.144,-27.832,35.645,32.227,-29.785,19.531,0
1542907292.148,-32.715,37.598,35.645,-25.879,-3.906,0
1542907292.152,-48.340,41.992,36.621,-35.645,29.297,0
1542907292.156,-40.527,45.410,35.645,-30.762,69.336,0
1542907292.160,-54.688,48.828,38.086,-46.875,80.566,0
1542907292.164,-86.914,48.828,32.715,-92.285,55.176,0
1542907292.167,-81.055,46.387,22.461,-91.797,39.551,0
1542907292.171,-88.867,55.176,19.043,-78.613,63.477,0
1542907292.175,-107.910,53.711,20.020,-84.961,54.199,0
1542907292.179,-119.629,54.199,12.695,-113.281,38.086,0
1542907292.183,-112.305,61.523,8.301,-92.285,59.570,0
1542907292.187,-110.840,57.129,20.996,-91.797,62.500,0
1542907292.191,-138.184,58.594,21.973,-144.043,69.824,0
1542907292.195,-159.180,60.059,13.672,-179.688,35.156,0
1542907292.199,-168.945,49.316,20.508,-176.270,-20.020,0
1542907292.203,-157.227,48.828,22.461,-122.070,-60.059,0
1542907292.206,-149.902,51.758,21.973,-124.023,18.555,0
1542907292.210,-149.902,39.062,32.715,-129.395,51.270,0
1542907292.214,-130.371,32.715,41.992,-110.352,-73.730,0
1542907292.218,-120.605,27.832,45.410,-123.047,-31.738,0
1542907292.222,-117.188,20.996,46.875,-104.492,7.812,0
1542907292.226,-93.750,16.602,53.711,-57.617,-11.230,0
1542907292.230,-74.219,17.578,52.734,-38.574,12.207,0
1542907292.234,-53.711,15.137,52.246,-25.391,-6.836,0
1542907292.238,-15.137,16.113,41.504,-8.789,-21.484,0
1542907292.242,-1.465,20.996,32.227,1.953,-0.488,0
1542907292.246,23.438,19.531,37.598,36.133,13.184,0
1542907292.249,52.246,21.973,39.062,51.758,-47.852,0
1542907292.253,63.965,23.438,36.133,63.477,-63.965,0
1542907292.257,93.262,26.855,29.785,93.750,-23.438,0
1542907292.261,105.469,29.785,29.785,112.793,44.922,0
1542907292.265,99.609,25.879,36.133,97.656,59.570,0
1542907292.269,115.723,27.832,28.320,104.492,-12.695,0
1542907292.273,121.582,26.855,24.902,127.441,-0.977,0
1542907292.277,110.352,31.250,27.344,132.812,31.738,0
1542907292.281,122.070,29.297,27.344,142.578,51.758,0
1542907292.285,151.367,16.602,31.738,132.812,65.430,0
1542907292.289,143.066,24.414,25.879,152.344,5.371,0
1542907292.292,118.652,18.066,30.762,153.320,-43.457,0
1542907292.296,119.629,11.230,30.762,104.004,-20.020,0
1542907292.300,125.000,17.090,29.297,110.840,11.719,0
1542907292.304,115.234,24.414,32.227,115.234,0.977,0
1542907292.308,129.395,23.438,32.227,109.375,-9.277,0
1542907292.312,116.211,19.043,37.109,138.672,-32.715,0
1542907292.316,94.238,22.949,31.738,140.137,-15.137,0
1542907292.320,115.234,24.902,27.344,120.605,23.926,0
1542907292.324,102.539,25.879,24.414,103.027,43.945,0
1542907292.328,99.121,27.344,25.391,107.910,13.184,0
1542907292.331,101.562,23.438,33.203,118.652,-11.230,0
1542907292.335,102.051,25.879,29.297,103.027,78.613,0
1542907292.339,106.445,32.715,26.855,85.938,36.621,0
1542907292.343,96.191,21.484,32.715,90.820,16.602,0
1542907292.347,89.844,11.719,32.715,93.262,44.922,0
1542907292.351,101.074,18.555,31.738,88.867,36.621,0
1542907292.355,109.863,19.531,33.203,94.238,23.438,0
1542907292.359,97.656,20.508,28.809,100.098,2.441,0
1542907292.363,82.031,24.902,20.996,100.098,26.855,0
1542907292.367,87.402,17.090,27.832,94.727,11.719,0
1542907292.371,89.844,18.066,30.273,97.656,-13.184,0
1542907292.374,76.172,22.949,29.297,95.703,-19.043,0
1542907292.378,90.820,25.879,31.250,98.145,-20.020,0
1542907292.382,98.145,24.902,36.133,97.656,-10.254,0
1542907292.386,73.730,17.578,32.715,81.055,-9.766,0
1542907292.390,68.359,20.996,33.203,102.051,-41.016,0
1542907292.394,87.402,28.320,36.621,102.051,-19.043,0
1542907292.398,83.008,27.832,32.715,81.055,32.715,0
1542907292.402,65.430,21.484,34.180,78.613,58.594,0
1542907292.406,59.570,22.949,37.598,74.707,41.992,0
1542907292.410,60.059,24.902,35.156,71.289,11.719,0
1542907292.414,70.312,19.531,38.086,82.031,-15.137,0
1542907292.417,59.570,21.973,29.297,76.172,-11.719,0
1542907292.421,64.941,23.438,30.273,74.707,7.812,0
1542907292.425,66.895,20.508,39.551,66.895,2.930,0
1542907292.429,60.059,26.855,36.133,50.293,-14.160,0
1542907292.433,56.641,28.809,34.180,68.359,-30.273,0
1542907292.437,56.641,23.438,31.738,68.359,-26.855,0
1542907292.441,54.688,28.809,28.320,60.059,-46.387,0
1542907292.445,39.551,26.855,30.273,61.523,0.000,0
1542907292.449,57.129,23.438,32.227,67.383,47.363,0
1542907292.453,66.406,22.949,32.227,57.129,-13.184,0
1542907292.456,51.270,15.625,34.180,54.199,2.930,0
1542907292.460,48.340,12.207,37.109,59.082,54.199,0
1542907292.464,50.781,21.973,31.250,56.152,37.109,0
1542907292.468,64.453,25.879,31.738,52.246,33.203,0
1542907292.472,63.477,18.555,36.133,57.617,10.254,0
1542907292.476,47.852,21.973,30.762,74.707,5.371,0
1542907292.480,56.641,23.926,32.227,69.824,47.363,0
1542907292.484,56.641,20.508,34.668,68.848,67.871,0
1542907292.488,58.105,25.391,31.738,78.125,15.137,0
1542907292.492,55.664,34.180,31.738,58.105,7.324,0
1542907292.496,40.527,29.785,27.832,53.223,53.223,0
1542907292.499,48.340,26.367,30.273,59.082,10.742,0
1542907292.503,57.617,31.250,31.250,39.062,-8.789,0
1542907292.507,47.363,28.809,31.250,34.668,3.418,0
1542907292.511,52.246,26.367,29.785,38.574,-7.812,0
1542907292.515,51.270,26.367,27.832,44.922,42.969,0
1542907292.519,47.852,27.832,20.020,39.551,54.688,0
1542907292.523,47.363,29.297,23.438,43.457,33.691,0
1542907292.527,45.410,28.809,31.738,51.270,75.684,0
1542907292.531,32.227,29.785,23.438,45.898,71.289,0
1542907292.535,16.602,30.762,28.809,42.480,43.457,0
1542907292.539,24.902,24.414,32.227,49.316,57.617,0
1542907292.542,41.016,21.484,28.809,42.480,41.992,0
1542907292.546,43.457,29.785,27.344,49.805,57.129,0
1542907292.550,42.969,31.738,26.855,40.527,51.270,0
1542907292.554,47.852,32.715,34.668,43.457,25.391,0
1542907292.558,35.156,36.621,38.086,62.500,16.113,0
1542907292.562,32.227,31.250,24.414,54.199,16.113,0
1542907292.566,26.367,29.297,24.902,43.945,22.461,0
1542907292.570,19.043,29.785,30.273,37.598,23.438,0
1542907292.574,25.879,29.785,29.297,32.227,13.184,0
1542907292.578,19.043,28.809,34.180,15.137,-0.488,0
1542907292.581,20.020,28.809,29.297,29.297,63.477,0
1542907292.585,26.367,23.438,34.668,51.270,80.078,0
1542907292.589,28.809,25.879,33.203,26.855,45.898,0
1542907292.593,17.090,25.391,27.344,15.137,5.371,0
1542907292.597,1.953,20.020,32.227,35.645,-14.160,0
1542907292.601,11.719,27.832,30.762,41.992,48.828,0
1542907292.605,12.207,25.879,40.527,22.461,45.410,0
1542907292.609,20.996,18.066,34.668,38.574,-7.812,0
1542907292.613,44.922,27.344,19.043,38.086,34.668,0
1542907292.617,36.133,27.832,28.320,18.066,26.367,0
1542907292.621,0.977,19.043,32.227,20.508,-45.410,0
1542907292.624,7.812,18.555,30.273,11.719,-2.441,0
1542907292.628,18.555,20.508,21.484,26.855,69.336,0
1542907292.632,11.719,20.020,24.414,41.504,62.988,0
1542907292.636,1.465,20.508,35.645,28.320,50.781,0
1542907292.640,4.395,21.973,29.785,8.789,48.340,0
1542907292.644,12.695,20.020,25.879,15.137,22.461,0
1542907292.648,7.812,18.066,28.809,22.949,69.824,0
1542907292.652,19.043,23.438,26.855,24.902,44.922,0
1542907292.656,28.809,25.391,31.738,18.066,35.156,0
1542907292.660,15.137,24.902,34.180,19.531,113.281,0
1542907292.664,18.066,24.414,24.414,33.691,76.172,0
1542907292.667,21.484,23.438,22.949,20.020,33.203,0
1542907292.671,17.578,24.902,24.902,17.578,41.992,0
1542907292.675,18.066,23.438,23.438,14.648,59.570,0
1542907292.679,-6.348,20.020,22.461,15.625,54.199,0
1542907292.683,-17.578,17.090,29.297,20.020,31.738,0
1542907292.687,9.766,21.973,33.691,30.273,43.945,0
1542907292.691,22.461,26.855,24.902,43.457,77.148,0
1542907292.695,13.184,25.391,20.996,33.203,68.848,0
1542907292.699,23.438,31.738,21.973,18.555,25.391,0
1542907292.703,21.484,32.715,23.438,28.320,95.703,0
1542907292.706,6.836,30.762,28.320,48.828,109.375,0
1542907292.710,18.066,29.785,31.738,33.691,44.434,0
1542907292.714,21.484,39.551,30.273,2.441,35.156,0
1542907292.718,18.555,40.527,28.320,5.859,12.695,0
1542907292.722,10.742,25.879,26.367,28.809,14.648,0
1542907292.726,14.160,25.879,27.832,24.414,46.387,0
1542907292.730,23.438,28.320,33.203,29.297,49.805,0
1542907292.734,9.766,31.738,29.785,30.762,-11.230,0
1542907292.738,7.324,29.785,29.785,42.480,37.598,0
1542907292.742,19.043,27.344,33.203,40.039,62.988,0
1542907292.746,22.461,31.250,31.250,24.902,45.410,0
1542907292.749,18.066,29.297,33.203,28.809,31.738,0
1542907292.753,11.230,24.414,32.227,41.504,26.855,0
1542907292.757,11.230,27.344,26.855,38.574,78.613,0
1542907292.761,15.137,27.832,30.762,20.996,83.984,0
1542907292.765,18.066,31.250,25.391,17.090,30.762,0
1542907292.769,28.320,28.320,19.043,8.789,13.184,0
1542907292.773,23.926,22.949,24.414,21.484,42.480,0
1542907292.777,8.301,19.531,30.273,32.227,4.395,0
1542907292.781,17.578,19.531,24.902,27.832,6.348,0
1542907292.785,20.996,28.320,20.508,26.855,26.855,0
1542907292.789,28.320,25.879,30.273,33.691,7.812,0
1542907292.792,38.086,28.320,29.297,44.434,10.742,0
1542907292.796,51.758,30.273,26.855,63.477,75.684,0
1542907292.800,37.109,27.344,29.785,47.852,65.918,0
1542907292.804,-17.090,21.973,25.391,-8.301,17.578,0
1542907292.808,-36.621,23.438,18.555,-33.203,41.016,0
1542907292.812,-49.316,20.020,16.602,-57.129,43.457,0
1542907292.816,-69.336,13.672,16.113,-58.594,52.246,0
1542907292.820,-77.637,16.113,12.695,-54.199,54.688,0
1542907292.824,-70.801,10.254,15.137,-78.125,30.273,0
1542907292.828,-74.219,9.277,15.137,-90.332,28.809,0
1542907292.831,-89.844,9.766,20.020,-85.449,54.199,0
1542907292.835,-83.496,14.160,19.043,-39.062,35.156,0
1542907292.839,-67.383,15.137,13.672,-36.133,41.016,0
1542907292.843,-53.711,12.207,17.090,-61.523,98.633,0
1542907292.847,-39.551,13.672,14.648,-48.828,33.203,0
1542907292.851,-41.016,20.508,14.160,-43.457,39.062,0
1542907292.855,-41.992,14.648,15.625,-32.715,111.816,0
1542907292.859,-34.668,13.672,14.648,-27.832,81.055,0
1542907292.863,-24.902,18.555,19.043,-19.043,90.820,0
1542907292.867,-25.391,18.066,19.043,-28.320,106.445,0
1542907292.871,-18.066,13.184,22.461,-22.461,85.449,0
1542907292.874,-24.902,13.184,20.996,-13.672,7.812,0
1542907292.878,-20.508,20.508,15.137,-1.465,17.578,0
1542907292.882,-7.812,20.508,21.973,-7.812,66.406,0
1542907292.886,-16.113,22.949,24.414,-18.555,96.680,0
1542907292.890,-19.043,24.414,19.043,-20.020,81.543,0
1542907292.894,-21.973,20.996,21.484,-23.926,24.902,0
1542907292.898,-25.879,20.020,28.320,-18.066,47.363,0
1542907292.902,-26.855,21.484,24.902,-14.648,37.109,0
1542907292.906,-26.855,20.996,20.508,-11.230,6.836,0
1542907292.910,-28.809,27.344,19.531,-19.043,29.785,0
1542907292.914,-28.809,27.832,20.508,-16.602,48.828,0
1542907292.917,-32.715,20.508,22.949,-22.461,28.320,0
1542907292.921,-32.227,21.973,19.531,-36.621,34.180,0
1542907292.925,-39.551,24.414,16.113,-28.320,80.078,0
1542907292.929,-32.715,25.391,23.926,-25.391,82.520,0
1542907292.933,-33.203,27.344,32.227,-29.785,47.852,0
1542907292.937,-42.480,30.273,28.809,-42.480,52.246,0
1542907292.941,-41.016,29.785,29.297,-49.805,44.434,0
1542907292.945,-46.387,30.762,23.438,-47.852,45.410,0
1542907292.949,-58.105,33.691,23.926,-62.012,74.707,0
1542907292.953,-61.523,37.109,29.785,-61.035,46.875,0
1542907292.956,-66.895,33.203,33.203,-53.223,22.461,0
1542907292.960,-72.266,26.367,35.645,-54.199,14.160,0
1542907292.964,-67.383,23.438,37.109,-38.574,55.176,0
1542907292.968,-62.500,31.250,35.156,-47.363,145.508,0
1542907292.972,-58.594,32.715,34.668,-71.289,150.879,0
1542907292.976,-70.801,41.992,29.297,-60.547,54.199,0
1542907292.980,-78.125,46.387,21.973,-66.406,12.695,0
1542907292.984,-70.801,39.062,27.344,-77.148,0.000,0
1542907292.988,-71.289,50.293,30.273,-72.754,-20.020,0
1542907292.992,-74.219,47.363,30.762,-70.312,32.715,0
1542907292.996,-90.332,38.086,32.227,-83.008,46.387,0
1542907292.999,-101.074,39.551,33.203,-96.191,49.316,0
1542907293.003,-116.699,39.062,28.809,-97.168,53.711,0
1542907293.007,-101.074,41.016,25.879,-103.027,74.707,0
1542907293.011,-104.980,52.734,20.508,-112.793,58.105,0
1542907293.015,-150.391,47.852,21.484,-128.906,47.363,0
1542907293.019,-144.043,42.969,19.043,-134.766,21.973,0
1542907293.023,-113.770,47.363,19.531,-136.230,31.738,0
1542907293.027,-98.633,61.035,16.113,-97.656,51.270,0
1542907293.031,-116.211,58.105,11.719,-98.145,59.082,0
1542907293.035,-150.879,46.387,18.555,-153.320,111.328,0
1542907293.039,-165.039,48.828,11.230,-173.828,105.957,0
1542907293.042,-148.926,45.898,8.301,-162.598,149.902,0
1542907293.046,-139.648,47.363,13.184,-131.836,150.879,0
1542907293.050,-143.555,45.410,19.043,-119.141,154.297,0
1542907293.054,-126.465,47.363,15.137,-134.277,182.129,0
1542907293.058,-113.770,51.758,12.207,-119.141,190.430,0
1542907293.062,-121.094,41.992,20.996,-102.051,233.398,0
1542907293.066,-121.582,39.062,25.879,-111.328,256.348,0
1542907293.070,-105.957,33.691,13.672,-102.539,247.559,0
1542907293.074,-82.031,32.715,23.438,-86.426,248.535,0
1542907293.078,-68.848,32.715,25.391,-72.266,236.328,0
1542907293.081,-51.758,31.738,11.230,-44.922,227.051,0
1542907293.085,-33.203,39.551,23.438,-12.207,276.367,0
1542907293.089,-16.602,33.691,27.832,6.836,281.738,0
1542907293.093,-1.465,23.926,21.973,-7.324,256.836,0
1542907293.097,23.438,25.879,19.531,3.418,279.297,0
1542907293.101,26.855,27.344,22.461,29.785,269.531,0
1542907293.105,16.113,23.438,18.066,24.414,294.434,0
1542907293.109,29.785,20.996,16.602,39.551,332.031,0
1542907293.113,49.316,23.438,24.414,58.105,318.848,0
1542907293.117,55.176,27.344,19.043,57.617,324.219,0
1542907293.121,53.223,27.832,17.578,66.406,397.461,0
1542907293.124,54.199,26.855,22.461,57.617,442.383,0
1542907293.128,64.941,23.438,20.996,54.199,448.242,0
1542907293.132,73.242,25.391,18.555,56.641,471.191,0
1542907293.136,71.289,24.414,19.531,64.941,473.145,0
1542907293.140,75.195,28.809,18.066,77.148,482.422,0
1542907293.144,75.684,31.250,15.137,71.777,502.930,0
1542907293.148,85.938,28.809,19.043,78.125,506.348,0
1542907293.152,99.121,31.738,19.043,89.844,520.020,0
1542907293.156,84.961,25.391,20.020,70.312,479.004,0
1542907293.160,61.523,19.531,19.531,65.918,461.914,0
1542907293.164,66.406,20.020,16.602,100.586,469.238,0
1542907293.167,75.684,19.043,18.066,79.102,437.988,0
1542907293.171,71.777,16.113,20.508,45.898,401.367,0
1542907293.175,73.242,13.184,17.578,62.988,388.672,0
1542907293.179,84.473,14.648,20.020,68.848,332.520,0
1542907293.183,79.102,20.508,25.391,70.801,290.039,0
1542907293.187,76.172,21.484,23.926,60.059,253.906,0
1542907293.191,66.406,16.602,22.461,68.359,171.875,0
1542907293.195,64.941,16.602,23.438,75.684,135.742,0
1542907293.199,62.012,20.996,26.855,61.523,97.656,0
1542907293.203,59.082,21.484,23.926,55.176,45.410,0
1542907293.206,68.359,15.137,20.996,53.711,-46.387,0
1542907293.210,61.035,18.555,21.973,68.848,-125.000,0
1542907293.214,62.500,20.508,24.902,65.430,-220.215,0
1542907293.218,66.406,18.066,25.879,54.688,-307.129,0
1542907293.222,61.523,21.484,27.832,64.453,-304.688,0
1542907293.226,56.152,27.832,23.926,63.477,-281.250,0
1542907293.230,61.523,26.367,23.926,79.590,-286.133,0
1542907293.234,65.918,20.020,29.297,69.336,-304.688,0
1542907293.238,64.941,22.461,26.855,46.875,-341.309,0
1542907293.242,61.035,23.926,21.973,62.012,-363.281,0
1542907293.246,57.129,24.414,18.555,46.875,-333.984,0
1542907293.249,63.965,25.391,22.949,34.180,-298.340,0
1542907293.253,49.316,26.367,23.438,32.227,-299.805,0
1542907293.257,19.043,29.785,17.090,28.809,-298.340,0
1542907293.261,48.828,27.344,22.949,41.504,-285.156,0
1542907293.265,68.848,30.762,26.855,35.156,-275.391,0
1542907293.269,43.457,27.832,22.949,37.109,-276.367,0
1542907293.273,40.527,24.414,18.066,37.109,-281.250,0
1542907293.277,38.086,24.902,19.043,25.879,-267.578,0
1542907293.281,30.273,26.367,27.832,23.926,-253.906,0
1542907293.285,27.832,26.367,28.809,23.926,-217.285,0
1542907293.289,28.809,22.461,27.832,33.691,-172.852,0
1542907293.292,23.438,25.879,26.855,35.156,-173.340,0
1542907293.296,18.555,30.273,25.879,25.391,-162.109,0
1542907293.300,22.461,35.156,25.391,6.836,-133.301,0
1542907293.304,11.719,42.480,17.578,8.789,-145.996,0
1542907293.308,5.371,37.109,27.344,21.484,-135.254,0
1542907293.312,-6.836,29.297,26.855,12.695,-79.102,0
1542907293.316,-16.113,28.320,19.043,0.977,-73.242,0
1542907293.320,-26.367,33.691,29.785,-28.320,-92.773,0
1542907293.324,-25.879,41.016,26.855,-32.715,-101.074,0
1542907293.328,-35.156,46.387,16.113,-41.016,-67.383,0
1542907293.331,-62.012,40.039,27.344,-45.898,-45.410,0
1542907293.335,-67.383,36.621,28.320,-57.617,-62.988,0
1542907293.339,-61.035,38.086,20.020,-66.895,-48.828,0
1542907293.343,-72.266,41.504,17.578,-70.312,-11.230,0
1542907293.347,-101.562,47.852,18.555,-107.910,-30.762,0
1542907293.351,-89.355,50.293,11.719,-108.887,-45.898,0
1542907293.355,-76.660,62.012,6.836,-84.473,-29.785,0
1542907293.359,-110.352,67.871,8.789,-112.793,-59.082,0
1542907293.363,-153.809,59.570,13.184,-165.527,-63.477,0
1542907293.367,-155.762,57.129,16.113,-170.410,-68.848,0
1542907293.371,-144.043,56.641,19.043,-138.672,-116.211,0
1542907293.374,-146.484,59.082,17.578,-142.090,-98.145,0
1542907293.378,-155.273,62.012,9.766,-167.480,-76.172,0
1542907293.382,-158.203,54.199,18.066,-154.785,-105.957,0
1542907293.386,-143.066,52.734,20.020,-144.531,-126.465,0
1542907293.390,-117.676,54.199,18.555,-133.301,-95.215,0
1542907293.394,-122.070,53.223,24.414,-132.812,-123.535,0
1542907293.398,-118.652,48.340,23.438,-118.652,-141.113,0
1542907293.402,-89.355,38.086,33.203,-87.891,-84.473,0
1542907293.406,-81.055,40.039,27.344,-79.102,-68.359,0
1542907293.410,-63.477,40.527,20.020,-67.871,-127.441,0
1542907293.414,-24.414,38.086,24.902,-45.410,-145.508,0
1542907293.417,1.465,38.086,27.832,-7.812,-98.145,0
1542907293.421,19.043,39.062,28.320,25.391,-104.492,0
1542907293.425,60.547,31.738,28.320,45.898,-117.188,0
1542907293.429,91.797,29.785,21.973,65.918,-102.051,0
1542907293.433,110.840,33.691,24.414,96.191,-125.977,0
1542907293.437,124.512,28.809,32.715,120.605,-148.926,0
1542907293.441,132.812,19.043,30.762,125.488,-140.625,0
1542907293.445,134.766,22.461,31.738,134.766,-88.379,0
1542907293.449,147.461,21.973,37.109,145.020,-93.750,0
1542907293.453,153.809,20.020,34.668,157.227,-73.242,0
1542907293.456,149.902,17.090,33.203,153.809,-50.293,0
1542907293.460,140.625,16.602,35.645,145.020,-44.922,0
1542907293.464,119.629,19.043,30.273,147.461,-28.320,0
1542907293.468,130.371,10.742,36.133,139.648,-41.992,0
1542907293.472,144.043,8.301,37.109,143.066,-80.566,0
1542907293.476,139.648,13.184,32.227,124.023,-50.293,0
1542907293.480,143.555,14.160,31.250,110.840,-14.648,0
1542907293.484,137.695,16.602,29.297,122.559,-45.410,0
1542907293.488,129.883,15.625,26.855,117.188,-21.484,0
1542907293.492,121.094,9.277,31.250,124.512,6.348,0
1542907293.496,118.652,14.648,28.320,119.141,19.531,0
1542907293.499,114.258,16.113,23.926,104.492,22.949,0
1542907293.503,94.238,11.719,35.645,101.074,-10.254,0
1542907293.507,99.609,15.137,33.203,106.934,-36.133,0
1542907293.511,111.816,15.137,26.855,95.215,-21.973,0
1542907293.515,104.980,12.207,31.250,88.379,-17.578,0
1542907293.519,106.445,20.020,28.809,104.492,-41.992,0
1542907293.523,109.863,21.484,26.367,111.328,-18.066,0
1542907293.527,108.398,15.625,29.785,112.793,9.277,0
1542907293.531,95.703,14.160,31.250,107.422,1.465,0
1542907293.535,90.820,13.672,28.320,96.680,-39.062,0
1542907293.539,89.844,15.137,28.809,83.008,-46.387,0
1542907293.542,98.633,19.043,30.273,77.637,-5.859,0
1542907293.546,95.215,14.648,34.668,80.566,23.438,0
1542907293.550,94.238,14.160,37.109,83.008,25.879,0
1542907293.554,87.891,16.602,34.180,90.332,16.113,0
1542907293.558,79.102,18.555,28.320,78.613,-4.395,0
1542907293.562,89.355,16.602,28.809,80.566,-20.508,0
1542907293.566,89.844,19.043,33.691,89.844,-8.301,0
1542907293.570,84.961,20.020,36.621,84.961,-18.555,0
1542907293.574,83.496,10.742,37.109,78.613,36.621,0
1542907293.578,76.172,15.625,29.297,71.777,22.949,0
1542907293.581,75.195,13.672,31.250,75.684,21.973,0
1542907293.585,70.801,9.277,37.109,80.566,81.543,0
1542907293.589,55.176,14.160,33.691,68.848,9.766,0
1542907293.593,56.152,12.695,36.133,66.406,-29.785,0
1542907293.597,68.359,19.531,37.109,56.641,19.043,0
1542907293.601,66.895,23.926,36.621,50.781,2.930,0
1542907293.605,55.176,14.160,33.203,45.410,-28.320,0
1542907293.609,58.105,12.695,26.855,42.969,19.043,0
1542907293.613,55.176,12.207,29.297,62.500,12.695,0
1542907293.617,49.316,14.160,35.645,64.941,-13.672,0
1542907293.621,40.039,18.066,34.668,59.570,40.039,0
