timestamps,TP9,AF7,AF8,TP10,Right AUX,Marker0
1542905692.425,0.977,30.762,21.973,44.434,50.781,0
1542905692.429,-7.324,38.086,21.484,38.574,55.176,0
1542905692.433,-5.371,42.480,27.832,48.828,29.785,0
1542905692.437,0.977,40.527,26.367,55.176,37.598,0
1542905692.441,-21.484,31.250,23.438,51.270,48.340,0
1542905692.445,-19.531,32.715,29.785,59.082,14.160,0
1542905692.449,-6.836,33.203,32.715,65.430,42.969,0
1542905692.453,-5.371,28.809,32.227,50.293,59.570,0
1542905692.456,-5.859,29.297,33.203,39.551,104.980,0
1542905692.460,-8.301,42.480,34.668,50.293,103.027,0
1542905692.464,-1.953,47.363,41.016,63.477,54.688,0
1542905692.468,-11.719,36.621,42.969,53.223,16.113,0
1542905692.472,-8.789,40.039,36.621,54.688,81.543,0
1542905692.476,8.301,39.551,35.156,69.336,90.820,0
1542905692.480,-0.977,38.574,35.645,61.523,50.293,0
1542905692.484,-7.324,41.992,34.180,55.176,71.289,0
1542905692.488,-11.230,40.527,35.156,56.641,32.715,0
1542905692.492,-4.883,41.504,40.039,51.270,25.879,0
1542905692.496,5.371,40.039,33.691,45.898,118.652,0
1542905692.499,0.000,38.574,30.273,49.805,117.676,0
1542905692.503,-5.371,35.156,30.762,47.852,14.648,0
1542905692.507,-20.508,33.203,24.414,42.969,16.113,0
1542905692.511,-25.879,32.715,23.438,55.176,49.805,0
1542905692.515,-10.254,38.086,28.809,68.848,95.215,0
1542905692.519,14.648,37.598,17.578,66.406,92.773,0
1542905692.523,20.508,27.344,13.672,63.477,66.406,0
1542905692.527,-21.973,24.902,38.086,51.270,83.008,0
1542905692.531,-41.016,21.484,46.387,35.156,62.012,0
1542905692.535,-18.555,19.531,39.551,48.828,56.641,0
1542905692.538,-14.160,15.625,38.086,60.059,32.227,0
1542905692.542,-30.762,11.719,37.109,47.363,11.719,0
1542905692.546,-32.227,13.672,34.668,57.129,15.625,0
1542905692.550,-24.414,14.648,40.527,55.176,38.086,0
1542905692.554,-27.832,15.137,36.621,32.715,48.828,0
1542905692.558,-29.785,23.926,25.391,34.668,58.594,0
1542905692.562,-27.832,30.273,22.461,36.133,64.453,0
1542905692.566,-22.461,24.414,18.066,31.738,42.480,0
1542905692.570,-16.602,17.578,14.648,39.062,41.504,0
1542905692.574,-21.973,17.578,25.391,46.875,70.312,0
1542905692.578,-20.996,19.043,26.367,44.922,106.445,0
1542905692.581,-17.578,18.066,19.531,39.062,72.754,0
1542905692.585,-13.672,18.555,17.578,34.668,58.594,0
1542905692.589,-10.742,17.578,18.555,36.621,87.402,0
1542905692.593,-17.578,19.531,23.926,42.969,55.176,0
1542905692.597,-20.020,23.438,22.949,49.316,-16.602,0
1542905692.601,-14.160,17.578,17.578,34.668,5.859,0
1542905692.605,-15.137,11.230,13.184,29.297,29.297,0
1542905692.609,-18.555,15.625,14.648,37.598,-4.883,0
1542905692.613,-16.113,17.578,16.602,36.133,41.504,0
1542905692.617,-32.227,8.789,10.742,35.645,67.383,0
1542905692.621,-37.109,5.859,14.160,36.621,32.715,0
1542905692.624,-30.273,9.277,14.160,41.992,-16.602,0
1542905692.628,-34.668,8.789,10.254,40.527,-4.883,0
1542905692.632,-36.621,4.395,11.230,29.785,-16.113,0
1542905692.636,-41.016,1.953,11.230,40.039,11.230,0
1542905692.640,-36.621,0.000,9.766,36.133,35.156,0
1542905692.644,-39.551,-0.977,5.859,18.066,39.062,0
1542905692.648,-42.969,2.441,0.488,21.973,14.160,0
1542905692.652,-30.273,-0.488,-2.441,27.832,-34.668,0
1542905692.656,-35.156,-3.418,0.977,21.973,6.836,0
1542905692.660,-36.133,7.324,0.488,32.715,-9.277,0
1542905692.663,-31.250,11.719,-1.953,42.969,-30.762,0
1542905692.667,-36.621,2.930,-4.883,23.438,-8.789,0
1542905692.671,-35.645,1.465,-0.488,28.320,21.484,0
1542905692.675,-34.668,-1.465,2.930,43.945,36.133,0
1542905692.679,-34.668,-0.977,0.000,34.668,-11.230,0
1542905692.683,-33.203,6.348,0.488,29.785,-17.090,0
1542905692.687,-29.785,7.324,-0.977,29.785,8.301,0
1542905692.691,-34.668,-1.953,-1.465,25.879,3.418,0
1542905692.695,-41.016,-0.977,3.418,38.086,-5.371,0
1542905692.699,-41.504,8.789,11.719,42.480,-20.020,0
1542905692.703,-29.297,11.719,6.836,43.945,-37.109,0
1542905692.706,-23.438,16.113,2.930,55.664,4.883,0
1542905692.710,-32.227,22.461,6.836,42.969,26.367,0
1542905692.714,-23.926,19.043,3.906,38.086,20.996,0
1542905692.718,-26.855,14.160,5.371,35.156,32.715,0
1542905692.722,-28.809,18.066,4.883,31.250,48.828,0
1542905692.726,-23.926,19.531,6.348,34.180,26.367,0
1542905692.730,-17.578,16.113,13.184,35.156,34.180,0
1542905692.734,-7.324,21.484,15.137,39.062,12.207,0
1542905692.738,-8.789,26.367,14.160,40.039,-39.551,0
1542905692.742,4.395,26.855,8.789,44.434,-41.504,0
1542905692.746,-5.859,23.438,8.301,46.875,-26.367,0
1542905692.749,-24.414,24.902,6.836,42.969,29.785,0
1542905692.753,-29.785,23.926,0.977,30.762,49.805,0
1542905692.757,-21.484,17.578,6.348,29.785,15.625,0
1542905692.761,-17.578,25.391,14.160,28.809,8.789,0
1542905692.765,-17.090,35.645,18.066,36.621,41.992,0
1542905692.769,-15.625,27.344,13.184,42.480,44.922,0
1542905692.773,-22.949,20.996,13.672,34.180,54.688,0
1542905692.777,-18.555,16.602,6.348,40.527,31.250,0
1542905692.781,9.277,10.742,-7.812,66.406,45.410,0
1542905692.785,-3.418,20.020,6.348,47.363,76.172,0
1542905692.788,-69.336,20.508,6.348,-12.695,18.555,0
1542905692.792,-74.707,10.254,-6.348,-15.137,32.227,0
1542905692.796,-64.941,18.066,0.000,-7.324,75.195,0
1542905692.800,-73.730,25.879,1.953,-14.160,62.988,0
1542905692.804,-67.871,6.348,-3.906,-14.160,55.176,0
1542905692.808,-70.312,-2.441,-9.766,-33.691,40.527,0
1542905692.812,-104.004,-0.977,-13.184,-52.246,12.207,0
1542905692.816,-103.516,-0.488,-22.949,-46.875,5.371,0
1542905692.820,-80.566,11.719,-22.949,-27.832,4.395,0
1542905692.824,-105.957,8.789,-14.648,-33.203,52.246,0
1542905692.828,-108.398,1.953,-20.508,-44.922,89.355,0
1542905692.831,-104.004,0.488,-25.879,-54.688,16.602,0
1542905692.835,-120.117,2.441,-24.414,-52.246,42.480,0
1542905692.839,-116.211,1.953,-22.949,-43.945,93.262,0
1542905692.843,-111.816,-6.348,-28.809,-50.293,35.156,0
1542905692.847,-108.398,-12.207,-27.832,-42.969,7.812,0
1542905692.851,-100.586,-13.672,-25.391,-32.715,20.020,0
1542905692.855,-96.191,-15.625,-21.973,-25.879,19.043,0
1542905692.859,-93.750,-17.578,-20.508,-25.391,27.832,0
1542905692.863,-90.332,-22.461,-20.508,-25.879,46.875,0
1542905692.867,-84.961,-22.461,-20.996,-24.414,6.836,0
1542905692.871,-82.031,-16.602,-20.508,-13.672,7.324,0
1542905692.874,-88.867,-3.906,-17.090,0.000,55.176,0
1542905692.878,-93.750,-0.977,-25.879,-6.348,46.875,0
1542905692.882,-89.355,-15.625,-27.344,-5.859,12.695,0
1542905692.886,-81.543,-24.414,-20.020,-7.324,35.645,0
1542905692.890,-84.961,-23.438,-19.531,-7.324,72.266,0
1542905692.894,-87.402,-17.090,-21.484,-12.207,55.664,0
1542905692.898,-70.801,-16.113,-24.414,-6.348,45.410,0
1542905692.902,-66.406,-13.672,-18.066,6.348,37.598,0
1542905692.906,-66.895,-16.113,-17.090,-0.977,40.527,0
1542905692.910,-66.406,-22.461,-22.949,4.395,-41.016,0
1542905692.913,-70.312,-21.973,-21.484,8.301,-19.043,0
1542905692.917,-61.035,-23.438,-19.531,8.789,96.680,0
1542905692.921,-57.617,-17.090,-21.484,13.184,99.609,0
1542905692.925,-58.105,-11.230,-19.043,8.301,32.227,0
1542905692.929,-62.500,-8.789,-13.184,6.836,-12.695,0
1542905692.933,-51.270,-14.648,-11.230,11.230,10.254,0
1542905692.937,-38.574,-11.230,-10.742,16.113,34.668,0
1542905692.941,-49.316,5.371,-7.812,26.367,19.043,0
1542905692.945,-45.410,6.836,-7.812,33.691,58.594,0
1542905692.949,-33.203,-1.953,-11.230,23.926,82.031,0
1542905692.953,-37.598,-0.977,-11.230,17.090,67.871,0
1542905692.956,-44.434,3.906,-6.836,29.297,53.711,0
1542905692.960,-30.762,4.883,0.000,39.551,28.809,0
1542905692.964,-25.391,10.254,6.348,39.062,-3.906,0
1542905692.968,-22.461,21.484,4.883,39.062,46.387,0
1542905692.972,-25.879,16.113,0.488,33.691,65.430,0
1542905692.976,-34.668,11.719,4.883,36.133,34.668,0
1542905692.980,-23.926,11.230,0.488,41.016,55.664,0
1542905692.984,-17.090,9.277,-0.488,46.387,25.391,0
1542905692.988,-23.926,11.719,4.883,43.945,12.695,0
1542905692.992,-25.879,6.348,3.418,47.363,-9.766,0
1542905692.996,-16.113,15.137,8.301,52.246,-4.395,0
1542905692.999,-5.859,22.461,10.742,56.152,-9.277,0
1542905693.003,-3.906,22.949,12.695,60.547,-0.488,0
1542905693.007,-11.719,28.320,18.066,66.895,50.781,0
1542905693.011,-20.996,21.973,15.137,69.336,0.977,0
1542905693.015,-15.625,10.742,12.207,60.547,-12.207,0
1542905693.019,-4.883,13.184,17.090,56.152,42.969,0
1542905693.023,-2.930,18.066,13.184,63.965,52.734,0
1542905693.027,-7.812,20.020,17.090,71.777,40.527,0
1542905693.031,-6.836,21.973,26.855,74.707,65.918,0
1542905693.035,0.977,25.391,20.020,71.289,53.223,0
1542905693.038,-4.883,27.344,13.672,62.012,21.973,0
1542905693.042,-9.277,21.973,20.508,68.848,7.324,0
1542905693.046,-9.277,22.461,23.438,74.219,6.348,0
1542905693.050,3.418,34.180,21.973,72.266,36.621,0
1542905693.054,15.625,33.203,22.461,65.430,2.930,0
1542905693.058,-0.488,29.297,26.855,69.336,-8.301,0
1542905693.062,-3.906,34.180,31.738,81.055,-17.578,0
1542905693.066,-1.953,28.809,22.949,69.336,-23.438,0
1542905693.070,-5.859,22.949,25.391,79.590,2.441,0
1542905693.074,12.207,28.320,34.668,93.750,22.949,0
1542905693.078,20.020,19.043,22.461,109.375,67.871,0
1542905693.081,22.461,16.113,23.438,126.953,92.285,0
1542905693.085,-5.371,33.203,31.250,76.172,-1.953,0
1542905693.089,-31.738,38.574,22.949,41.992,-7.812,0
1542905693.093,-29.297,41.016,27.344,32.227,48.340,0
1542905693.097,-34.180,35.156,23.438,30.762,45.410,0
1542905693.101,-12.207,28.809,19.531,44.922,17.578,0
1542905693.105,-5.859,31.738,27.344,36.621,13.184,0
1542905693.109,-41.016,33.203,25.391,40.039,39.062,0
1542905693.113,-51.270,34.668,25.879,41.504,59.570,0
1542905693.117,-39.062,32.715,25.391,30.762,43.945,0
1542905693.121,-38.086,30.273,22.461,30.273,6.348,0
1542905693.124,-52.734,24.902,21.484,43.457,-4.883,0
1542905693.128,-43.457,23.438,23.926,52.246,-5.859,0
1542905693.132,-26.855,27.344,23.438,40.039,34.180,0
1542905693.136,-26.367,30.273,18.555,40.527,104.004,0
1542905693.140,-30.762,28.320,19.531,55.176,73.730,0
1542905693.144,-31.738,23.926,20.508,53.711,43.457,0
1542905693.148,-30.762,17.090,20.996,63.477,40.527,0
1542905693.152,-14.160,11.230,16.602,57.617,71.289,0
1542905693.156,0.000,15.137,8.789,46.875,81.055,0
1542905693.160,-19.043,23.438,13.672,53.711,-7.324,0
1542905693.163,-14.160,26.855,23.438,53.223,22.949,0
1542905693.167,-17.090,15.137,21.973,57.129,30.762,0
1542905693.171,-34.668,8.789,7.812,55.664,3.418,0
1542905693.175,-24.902,19.531,13.672,54.199,20.020,0
1542905693.179,-17.090,16.113,27.832,55.664,42.969,0
1542905693.183,-36.621,9.277,21.973,58.105,37.109,0
1542905693.187,-39.062,12.695,19.531,63.477,39.062,0
1542905693.191,-24.902,14.160,25.879,60.547,23.926,0
1542905693.195,-13.672,10.742,20.996,57.129,60.547,0
1542905693.199,-13.672,14.160,17.578,59.082,113.770,0
1542905693.203,-23.926,13.672,19.043,52.734,89.355,0
1542905693.206,-27.344,7.324,15.625,59.082,68.848,0
1542905693.210,-27.344,12.207,15.625,68.359,102.051,0
1542905693.214,-35.156,8.301,16.113,62.500,56.641,0
1542905693.218,-38.086,9.277,17.090,51.270,70.801,0
1542905693.222,-32.227,11.719,24.414,45.898,84.961,0
1542905693.226,-28.320,8.789,24.414,46.875,9.277,0
1542905693.230,-17.090,11.230,16.602,43.457,62.500,0
1542905693.234,-18.555,12.695,14.160,44.922,35.156,0
1542905693.238,-28.320,14.648,18.066,50.293,-22.949,0
1542905693.242,-27.832,15.137,20.508,46.875,-15.137,0
1542905693.246,-19.531,16.602,23.438,43.457,-31.738,0
1542905693.249,-22.461,20.996,22.461,47.363,21.484,0
1542905693.253,-33.691,21.484,18.066,47.363,38.574,0
1542905693.257,-37.109,14.648,16.113,34.668,37.598,0
1542905693.261,-35.156,6.348,16.113,32.715,53.711,0
1542905693.265,-27.832,8.301,14.160,40.527,9.766,0
1542905693.269,-20.996,14.648,12.695,40.527,3.906,0
1542905693.273,-28.320,16.113,20.508,37.109,58.594,0
1542905693.277,-42.480,14.648,22.461,43.945,67.871,0
1542905693.281,-41.016,18.555,27.344,54.199,72.266,0
1542905693.285,-42.480,27.344,28.320,42.480,43.945,0
1542905693.288,-36.133,40.039,36.621,44.434,33.203,0
1542905693.292,-42.969,47.363,51.270,41.504,62.988,0
1542905693.296,-49.805,55.176,39.062,24.902,53.223,0
1542905693.300,-52.734,55.664,56.152,28.809,69.824,0
1542905693.304,-72.754,58.594,63.477,-0.488,47.852,0
1542905693.308,-96.680,72.754,57.129,-29.785,-9.766,0
1542905693.312,-120.605,78.613,74.707,-41.016,41.016,0
1542905693.316,-153.320,90.820,83.496,-72.266,41.504,0
1542905693.320,-171.875,109.375,90.820,-100.586,-13.184,0
1542905693.324,-186.035,124.512,107.910,-111.816,-25.879,0
1542905693.328,-217.773,137.207,125.977,-133.301,-64.941,0
1542905693.331,-240.234,155.762,139.160,-170.898,34.668,0
1542905693.335,-262.207,171.387,141.113,-201.660,77.148,0
1542905693.339,-281.738,176.758,134.766,-204.590,49.316,0
1542905693.343,-270.508,187.012,129.883,-196.289,84.961,0
1542905693.347,-257.324,197.754,147.949,-183.105,64.941,0
1542905693.351,-253.418,181.641,153.320,-167.480,56.152,0
1542905693.355,-242.676,176.270,131.836,-165.527,73.242,0
1542905693.359,-229.004,171.387,126.465,-145.508,60.059,0
1542905693.363,-206.055,159.668,127.441,-126.953,65.430,0
1542905693.367,-175.781,151.367,118.164,-116.699,41.992,0
1542905693.371,-138.184,141.602,105.957,-91.797,33.203,0
1542905693.374,-120.605,129.883,98.145,-69.336,69.336,0
1542905693.378,-129.395,109.863,84.473,-44.922,65.430,0
1542905693.382,-119.629,100.586,72.266,-31.738,41.016,0
1542905693.386,-96.191,88.379,56.641,-7.812,23.926,0
1542905693.390,-90.820,73.730,39.551,28.320,31.250,0
1542905693.394,-86.426,66.895,33.691,19.043,13.184,0
1542905693.398,-59.570,56.152,20.996,20.508,12.207,0
1542905693.402,-42.480,32.715,15.625,42.969,32.227,0
1542905693.406,-37.598,22.461,10.742,63.477,-6.348,0
1542905693.410,-24.414,22.949,0.488,74.707,24.902,0
1542905693.413,-8.301,11.230,-1.953,74.219,13.672,0
1542905693.417,1.953,7.324,-8.789,80.566,30.273,0
1542905693.421,1.953,0.488,-14.648,104.492,53.711,0
1542905693.425,42.480,-8.789,-12.695,111.328,46.875,0
1542905693.429,49.805,-11.230,-14.160,116.699,52.734,0
1542905693.433,26.855,-12.207,-23.926,118.652,36.133,0
1542905693.437,49.316,-14.648,-19.531,115.234,5.859,0
1542905693.441,65.430,-24.414,-16.113,143.555,17.090,0
1542905693.445,50.293,-29.785,-18.066,156.250,73.730,0
1542905693.449,84.473,-17.090,-21.484,156.250,56.152,0
1542905693.453,90.820,-16.602,-28.320,145.508,38.574,0
1542905693.456,60.059,-25.879,-22.949,145.508,48.828,0
1542905693.460,50.293,-26.855,-18.066,154.297,48.340,0
1542905693.464,59.570,-27.832,-25.879,131.348,63.477,0
1542905693.468,77.637,-26.367,-28.320,123.535,40.039,0
1542905693.472,59.570,-23.926,-23.438,120.605,-6.348,0
1542905693.476,54.199,-28.809,-23.438,119.629,21.973,0
1542905693.480,62.500,-35.645,-15.137,125.977,28.809,0
1542905693.484,57.129,-27.344,-10.254,137.207,25.879,0
1542905693.488,47.363,-21.484,-12.207,142.578,53.711,0
1542905693.492,69.824,-24.414,-15.137,133.789,53.223,0
1542905693.496,62.500,-25.879,-16.113,124.512,70.312,0
1542905693.499,52.246,-23.438,-18.066,120.117,38.086,0
1542905693.503,49.316,-26.855,-14.160,113.770,17.578,0
1542905693.507,46.875,-34.668,-16.602,111.328,36.133,0
1542905693.511,39.062,-39.551,-26.367,117.676,41.992,0
1542905693.515,41.992,-45.410,-29.297,119.141,46.875,0
1542905693.519,52.734,-39.551,-31.250,113.770,78.613,0
1542905693.523,37.598,-36.621,-28.320,98.633,43.945,0
1542905693.527,29.297,-41.504,-26.367,98.633,21.484,0
1542905693.531,15.625,-44.434,-31.250,99.121,41.992,0
1542905693.535,11.230,-49.316,-30.273,90.820,77.637,0
1542905693.538,22.949,-43.457,-30.762,93.262,56.152,0
1542905693.542,32.227,-35.645,-27.344,87.402,12.695,0
1542905693.546,27.344,-39.551,-23.438,86.914,32.715,0
1542905693.550,8.789,-41.016,-24.902,88.867,38.574,0
1542905693.554,14.160,-39.062,-17.578,90.820,83.984,0
1542905693.558,18.066,-39.551,-15.137,102.539,57.617,0
1542905693.562,4.883,-40.527,-14.160,98.633,50.293,0
1542905693.566,6.348,-37.109,-10.254,83.984,37.109,0
1542905693.570,3.906,-32.715,-10.254,85.449,-2.930,0
1542905693.574,9.277,-31.250,-2.441,93.262,36.621,0
1542905693.578,14.648,-31.250,-3.418,87.891,26.855,0
1542905693.581,23.438,-29.297,-8.789,79.590,-18.555,0
1542905693.585,16.113,-20.508,-0.488,85.449,-7.812,0
1542905693.589,13.184,-10.254,0.000,80.078,53.711,0
1542905693.593,10.254,-18.555,0.000,79.102,105.469,0
1542905693.597,2.441,-20.020,5.371,91.309,72.754,0
1542905693.601,17.090,-6.348,11.719,87.891,74.219,0
1542905693.605,24.414,-5.371,17.090,91.309,38.574,0
1542905693.609,28.809,-4.883,21.484,79.102,31.738,0
1542905693.613,7.812,0.977,22.949,77.148,67.871,0
1542905693.617,-4.395,4.395,18.555,100.098,32.227,0
1542905693.621,19.043,4.883,20.508,109.863,6.836,0
1542905693.624,13.672,7.324,16.113,94.727,29.297,0
1542905693.628,-7.812,8.789,14.648,83.008,54.688,0
1542905693.632,-23.438,5.859,21.484,83.496,72.754,0
1542905693.636,1.465,4.883,21.484,87.891,70.801,0
1542905693.640,20.996,11.230,22.949,94.727,48.340,0
1542905693.644,12.695,11.230,22.949,84.473,21.973,0
1542905693.648,19.531,16.602,28.320,93.262,36.621,0
1542905693.652,6.348,20.508,27.344,83.008,75.684,0
1542905693.656,0.488,15.137,23.438,71.289,105.957,0
1542905693.660,13.184,14.160,24.414,76.660,59.082,0
1542905693.663,20.020,13.672,20.996,92.773,-17.578,0
1542905693.667,-7.812,18.066,27.344,114.746,18.555,0
1542905693.671,18.555,12.695,26.855,106.445,66.895,0
1542905693.675,44.922,10.742,23.926,98.633,47.852,0
1542905693.679,37.598,19.531,29.785,97.168,10.254,0
1542905693.683,28.809,25.879,32.715,96.680,10.254,0
1542905693.687,7.324,22.949,33.691,98.145,-40.527,0
1542905693.691,23.926,20.020,34.180,93.262,-14.160,0
1542905693.695,20.020,23.926,40.527,93.750,9.766,0
1542905693.699,2.930,26.367,36.621,99.121,28.320,0
1542905693.703,24.902,35.156,36.133,94.238,36.621,0
1542905693.706,42.480,42.480,47.363,104.004,66.895,0
1542905693.710,28.320,39.062,43.457,106.934,101.562,0
1542905693.714,44.434,38.086,35.645,99.609,78.613,0
1542905693.718,40.527,27.344,41.504,107.422,46.875,0
1542905693.722,25.391,23.926,43.945,92.285,57.129,0
1542905693.726,32.715,33.691,40.527,88.867,81.055,0
1542905693.730,32.715,37.598,44.434,98.633,78.613,0
1542905693.734,35.156,39.551,43.945,79.590,52.246,0
1542905693.738,0.977,41.504,45.898,83.984,74.219,0
1542905693.742,-11.230,31.738,44.434,103.027,69.336,0
1542905693.746,13.184,24.902,42.969,92.773,41.504,0
1542905693.749,6.348,30.762,38.574,86.426,25.879,0
1542905693.753,12.695,34.668,35.645,101.074,75.684,0
1542905693.757,41.016,28.809,35.156,95.215,69.824,0
1542905693.761,46.387,25.391,33.691,96.191,21.484,0
1542905693.765,-8.789,25.879,39.551,112.305,2.930,0
1542905693.769,0.488,28.809,39.062,85.938,5.371,0
1542905693.773,60.547,31.738,35.156,66.895,49.316,0
1542905693.777,18.066,29.785,33.203,95.703,52.246,0
1542905693.781,1.465,25.879,37.109,104.492,62.012,0
1542905693.785,41.992,32.227,42.969,93.750,103.516,0
1542905693.788,21.484,30.762,37.109,76.172,81.055,0
1542905693.792,3.906,24.902,38.086,92.773,104.492,0
1542905693.796,21.973,31.250,41.992,98.145,115.723,0
1542905693.800,-5.859,29.785,37.109,95.215,77.637,0
1542905693.804,0.000,22.461,37.109,102.051,80.566,0
1542905693.808,26.855,30.273,33.203,113.281,98.145,0
1542905693.812,3.418,31.250,28.809,106.445,83.984,0
1542905693.816,13.672,26.855,33.203,95.703,96.680,0
1542905693.820,30.762,30.273,33.691,96.680,119.141,0
1542905693.824,12.695,28.320,34.180,94.238,138.184,0
1542905693.828,31.250,26.855,34.668,86.914,127.930,0
1542905693.831,31.250,25.879,30.762,91.309,85.938,0
1542905693.835,20.020,25.391,33.691,92.773,125.488,0
1542905693.839,-0.488,26.855,33.691,91.309,133.789,0
1542905693.843,0.977,26.855,31.738,95.215,132.812,0
1542905693.847,13.184,15.625,30.762,89.844,153.809,0
1542905693.851,-9.766,16.113,24.902,87.402,153.320,0
1542905693.855,2.930,30.273,30.273,89.355,180.664,0
1542905693.859,32.715,30.273,33.203,84.473,181.152,0
1542905693.863,3.906,23.926,26.855,67.383,202.637,0
1542905693.867,-9.277,20.996,28.320,71.777,204.590,0
1542905693.871,21.484,20.020,29.297,82.520,242.188,0
1542905693.874,28.320,19.531,25.879,85.449,307.617,0
1542905693.878,5.859,18.555,25.391,84.473,334.473,0
1542905693.882,-6.348,16.113,25.391,86.426,359.375,0
1542905693.886,3.418,17.090,24.902,85.449,355.957,0
1542905693.890,7.812,20.996,26.855,65.430,367.188,0
1542905693.894,11.719,28.320,22.461,74.219,396.484,0
1542905693.898,-6.836,21.973,16.113,84.961,392.578,0
1542905693.902,-24.414,18.555,17.578,80.078,365.723,0
1542905693.906,5.371,20.020,19.043,72.754,383.789,0
1542905693.910,6.348,18.555,20.508,83.984,419.434,0
1542905693.913,-0.488,20.996,20.020,71.777,447.266,0
1542905693.917,-7.812,16.602,19.531,60.059,474.121,0
1542905693.921,0.488,17.090,22.461,70.801,464.844,0
1542905693.925,-1.953,17.578,19.043,75.684,470.215,0
1542905693.929,-5.371,16.113,19.531,76.660,491.211,0
1542905693.933,-10.742,18.066,24.414,75.684,486.816,0
1542905693.937,-11.230,16.113,22.949,71.777,475.098,0
1542905693.941,-7.812,19.531,20.996,64.941,481.934,0
1542905693.945,-6.836,25.879,20.020,75.684,491.211,0
1542905693.949,-6.348,17.090,20.508,62.988,483.887,0
1542905693.953,-15.625,19.043,22.461,52.734,451.660,0
1542905693.956,-6.836,20.020,18.066,69.336,446.777,0
1542905693.960,-12.207,14.648,16.113,76.660,485.352,0
1542905693.964,-13.672,20.508,15.137,72.754,487.305,0
1542905693.968,-16.602,20.996,19.531,77.148,482.910,0
1542905693.972,-7.812,19.531,21.973,67.871,495.605,0
1542905693.976,0.488,20.996,17.578,62.988,480.469,0
1542905693.980,-6.836,18.066,17.578,76.172,484.375,0
1542905693.984,-25.391,17.578,23.438,65.430,502.441,0
1542905693.988,-22.461,18.555,21.484,49.805,510.742,0
1542905693.992,-3.906,14.648,20.020,57.617,534.668,0
1542905693.996,-12.207,20.020,26.367,73.242,516.113,0
1542905693.999,-12.207,23.926,20.508,76.172,485.352,0
1542905694.003,-13.184,8.789,12.695,61.035,494.141,0
1542905694.007,-9.277,5.859,14.160,62.988,536.133,0
1542905694.011,-20.020,17.578,19.043,73.242,549.805,0
1542905694.015,-22.461,20.508,16.113,67.383,564.453,0
1542905694.019,-1.465,28.809,20.508,75.195,592.773,0
1542905694.023,-8.789,34.180,26.367,68.848,600.586,0
1542905694.027,-22.461,31.250,22.949,66.895,607.910,0
1542905694.031,-25.391,27.832,17.578,66.895,636.230,0
1542905694.035,-18.066,25.879,16.602,57.129,652.344,0
1542905694.038,-2.930,36.621,26.367,77.148,624.512,0
1542905694.042,0.488,40.039,30.273,76.172,626.465,0
1542905694.046,-0.977,37.109,32.227,62.500,641.113,0
1542905694.050,2.441,37.109,39.062,69.824,618.652,0
1542905694.054,-7.812,33.203,37.598,77.637,585.449,0
1542905694.058,-18.555,32.227,32.715,62.500,572.266,0
1542905694.062,-15.137,36.133,34.180,65.918,591.309,0
1542905694.066,-10.742,39.062,29.785,64.941,591.309,0
1542905694.070,-18.066,34.180,25.879,58.105,568.359,0
1542905694.074,-6.836,38.574,28.809,68.359,536.621,0
1542905694.078,-33.691,41.016,28.809,69.336,546.875,0
1542905694.081,-38.086,36.133,29.785,57.617,561.035,0
1542905694.085,-7.324,39.062,29.785,72.754,552.246,0
1542905694.089,-13.672,35.156,28.809,85.938,538.086,0
1542905694.093,-12.207,29.785,26.855,87.402,536.621,0
1542905694.097,-14.160,28.809,26.367,94.727,526.855,0
1542905694.101,-12.207,24.414,22.949,60.547,477.539,0
1542905694.105,-19.043,24.414,15.625,24.414,479.492,0
1542905694.109,-29.297,23.926,16.113,29.297,506.348,0
1542905694.113,-16.602,14.648,2.441,31.250,508.789,0
1542905694.117,-22.949,8.789,-2.441,41.504,493.652,0
1542905694.121,-47.852,8.789,19.531,37.109,475.098,0
1542905694.124,-78.613,3.418,20.508,11.719,443.359,0
1542905694.128,-60.059,-13.184,8.301,16.602,446.777,0
1542905694.132,-45.898,-14.648,7.812,38.086,460.449,0
1542905694.136,-59.570,-2.441,9.277,51.270,436.035,0
1542905694.140,-64.941,-15.137,-0.977,21.973,406.738,0
1542905694.144,-58.594,-27.344,-10.742,-4.395,386.719,0
1542905694.148,-56.641,-24.902,-13.672,13.672,354.492,0
1542905694.152,-56.152,-16.602,-19.043,29.785,326.660,0
1542905694.156,-42.480,-15.625,-12.695,30.762,307.129,0
1542905694.160,-45.410,-18.555,-7.812,29.297,312.500,0
1542905694.163,-56.641,-20.996,-12.207,19.043,319.824,0
1542905694.167,-50.293,-23.438,-8.789,18.066,320.801,0
1542905694.171,-43.945,-20.020,-13.184,13.184,299.805,0
1542905694.175,-74.219,-22.949,-19.531,4.395,255.859,0
1542905694.179,-86.914,-33.691,-13.672,14.160,230.957,0
1542905694.183,-63.965,-35.156,-17.090,19.531,215.820,0
1542905694.187,-66.895,-25.391,-22.461,14.648,203.125,0
1542905694.191,-78.613,-21.973,-23.438,18.066,184.570,0
1542905694.195,-79.590,-31.738,-27.832,13.672,171.875,0
1542905694.199,-65.430,-41.016,-32.715,2.930,149.414,0
1542905694.203,-77.148,-38.086,-38.574,-5.859,112.305,0
1542905694.206,-72.754,-33.691,-30.273,4.395,104.980,0
1542905694.210,-60.547,-31.738,-20.508,20.508,96.191,0
1542905694.214,-54.199,-34.668,-23.926,7.812,56.641,0
1542905694.218,-61.035,-36.621,-19.531,9.277,20.996,0
1542905694.222,-69.336,-29.785,-14.160,23.926,-1.465,0
1542905694.226,-57.617,-27.832,-18.066,26.367,-30.273,0
1542905694.230,-55.664,-32.227,-21.484,20.996,-38.574,0
1542905694.234,-53.711,-29.785,-22.461,9.277,-42.480,0
1542905694.238,-49.805,-24.414,-28.809,2.441,-82.520,0
1542905694.242,-53.711,-35.156,-31.250,-4.883,-69.824,0
1542905694.246,-50.293,-32.715,-24.902,0.000,-58.594,0
1542905694.249,-36.621,-15.625,-20.020,8.789,-88.867,0
1542905694.253,-50.293,-15.625,-17.090,15.625,-95.215,0
1542905694.257,-67.383,-19.043,-15.625,34.180,-100.586,0
1542905694.261,-52.246,-20.020,-20.508,21.484,-87.891,0
1542905694.265,-55.176,-21.973,-22.461,24.902,-50.781,0
1542905694.269,-57.617,-20.996,-7.812,33.691,-50.781,0
1542905694.273,-49.316,-17.578,-1.465,15.625,-50.781,0
1542905694.277,-39.551,-4.395,-2.441,19.043,-32.227,0
1542905694.281,-36.133,5.371,5.371,27.344,-59.082,0
1542905694.285,-33.691,9.766,11.230,33.203,-40.039,0
1542905694.288,-14.648,18.066,11.230,39.551,-11.719,0
1542905694.292,-3.906,26.367,21.973,44.434,-23.926,0
1542905694.296,-6.836,30.762,30.762,45.898,-30.273,0
1542905694.300,1.953,31.738,34.180,55.176,-44.922,0
1542905694.304,17.578,35.156,40.527,66.406,-72.754,0
1542905694.308,18.066,43.945,45.898,62.500,-96.191,0
1542905694.312,12.695,46.387,46.875,55.176,-76.660,0
1542905694.316,17.090,49.316,52.246,71.777,-80.078,0
1542905694.320,24.414,52.734,56.152,81.055,-130.859,0
1542905694.324,24.902,61.035,54.199,71.777,-175.293,0
1542905694.328,15.625,67.383,62.500,88.379,-215.820,0
1542905694.331,25.879,71.289,69.824,104.004,-229.980,0
1542905694.335,37.598,77.637,71.777,89.844,-253.906,0
1542905694.339,36.621,78.613,78.125,94.727,-306.152,0
1542905694.343,37.109,78.613,80.078,97.656,-325.195,0
1542905694.347,45.410,80.566,83.984,96.191,-360.840,0
1542905694.351,45.410,88.379,90.820,114.746,-390.137,0
1542905694.355,37.109,92.773,86.426,114.258,-436.035,0
1542905694.359,41.016,91.797,86.426,107.910,-486.816,0
1542905694.363,37.598,92.773,89.844,103.516,-517.090,0
1542905694.367,30.762,93.262,92.285,105.469,-521.973,0
1542905694.371,35.156,100.586,99.121,117.188,-555.176,0
1542905694.374,36.621,101.074,97.168,123.535,-583.984,0
1542905694.378,43.945,98.145,93.750,118.164,-552.246,0
1542905694.382,50.781,99.121,99.121,117.188,-571.777,0
1542905694.386,48.828,94.727,99.609,125.977,-583.984,0
1542905694.390,52.734,94.727,101.074,120.117,-564.941,0
1542905694.394,59.570,101.074,100.098,113.770,-587.891,0
1542905694.398,55.664,102.539,96.680,120.117,-592.285,0
1542905694.402,56.152,101.074,101.074,123.047,-582.031,0
1542905694.406,41.992,100.098,100.586,117.188,-560.547,0
1542905694.410,47.852,100.586,101.074,126.465,-532.715,0
1542905694.413,66.406,102.539,105.957,142.090,-557.129,0
1542905694.417,56.641,101.562,101.074,133.789,-579.102,0
1542905694.421,53.223,101.074,95.703,122.070,-562.012,0
1542905694.425,52.246,100.098,95.215,121.582,-539.551,0
1542905694.429,46.875,103.516,102.051,131.348,-542.969,0
1542905694.433,55.176,103.516,104.004,124.023,-548.828,0
1542905694.437,65.430,94.238,90.332,114.258,-496.582,0
1542905694.441,57.129,87.402,91.309,121.094,-464.844,0
1542905694.445,43.457,90.820,103.027,128.906,-432.129,0
1542905694.449,39.551,86.914,93.750,119.141,-410.156,0
1542905694.453,29.297,77.148,82.520,103.027,-405.762,0
1542905694.456,38.086,82.031,84.473,107.422,-380.859,0
1542905694.460,41.016,85.938,82.031,120.117,-400.391,0
1542905694.464,38.574,88.379,81.543,120.605,-342.285,0
1542905694.468,34.668,78.125,79.590,105.957,-304.199,0
1542905694.472,21.973,72.754,77.148,98.633,-334.473,0
1542905694.476,23.438,74.219,75.684,93.262,-311.523,0
1542905694.480,13.672,74.707,70.801,95.703,-261.230,0
1542905694.484,9.766,73.730,69.336,108.887,-267.578,0
1542905694.488,14.160,69.336,65.918,94.238,-293.457,0
1542905694.492,15.137,62.988,63.477,78.613,-294.434,0
1542905694.496,20.508,60.547,64.453,91.309,-272.461,0
1542905694.499,20.508,64.941,66.895,95.703,-281.250,0
1542905694.503,4.883,62.988,68.359,94.238,-322.266,0
1542905694.507,0.000,61.035,61.035,97.656,-342.285,0
1542905694.511,-5.371,55.664,53.711,93.262,-333.984,0
1542905694.515,-12.695,53.223,51.758,76.172,-320.312,0
1542905694.519,11.230,53.223,52.734,68.848,-342.285,0
1542905694.523,11.230,39.062,41.016,67.871,-361.816,0
1542905694.527,-10.254,26.855,30.762,50.293,-371.094,0
1542905694.531,-18.066,26.367,24.902,44.434,-366.211,0
1542905694.535,-16.113,26.367,11.230,56.641,-393.555,0
1542905694.538,-29.297,7.812,0.977,50.293,-405.273,0
1542905694.542,-35.645,-3.418,-9.766,10.254,-375.000,0
1542905694.546,-50.781,-6.836,-10.254,-5.371,-398.926,0
1542905694.550,-59.082,-13.184,-14.160,12.695,-388.672,0
1542905694.554,-55.176,-14.160,-13.672,7.812,-373.047,0
1542905694.558,-62.988,-11.719,-6.836,9.277,-393.555,0
1542905694.562,-57.129,-5.859,-2.930,20.020,-351.562,0
1542905694.566,-52.246,-2.930,-1.953,9.766,-325.684,0
1542905694.570,-54.688,-0.977,-4.883,12.207,-314.941,0
1542905694.574,-33.691,1.953,-4.395,28.320,-299.805,0
1542905694.578,-25.391,-2.441,-3.906,33.203,-333.496,0
1542905694.581,-14.648,-5.859,6.836,74.707,-340.332,0
1542905694.585,-17.090,-4.883,15.625,85.938,-257.324,0
1542905694.589,-51.270,3.906,8.301,25.391,-229.004,0
1542905694.593,-52.734,8.789,3.418,-2.930,-218.750,0
1542905694.597,-52.246,8.789,9.766,10.742,-165.527,0
1542905694.601,-70.312,15.625,11.719,-13.184,-197.266,0
1542905694.605,-75.195,18.555,6.348,-25.879,-239.258,0
1542905694.609,-99.121,21.484,10.742,-13.672,-264.648,0
1542905694.613,-107.422,22.461,14.160,-14.648,-218.262,0
1542905694.617,-91.309,37.109,18.555,-15.137,-106.934,0
1542905694.621,-97.168,40.527,23.438,-22.949,-144.043,0
1542905694.624,-111.328,29.297,21.484,-14.648,-207.520,0
1542905694.628,-103.027,31.738,21.484,-1.465,-162.598,0
1542905694.632,-82.031,33.203,21.973,-1.465,-113.281,0
1542905694.636,-89.355,32.227,20.996,-13.672,-78.613,0
1542905694.640,-83.496,30.762,20.020,-25.391,-63.965,0
1542905694.644,-69.336,38.574,19.043,-12.695,-106.934,0
1542905694.648,-36.133,42.969,19.043,-4.395,-80.566,0
1542905694.652,-39.551,33.203,24.414,1.953,-23.926,0
1542905694.656,-60.547,28.320,26.367,19.043,-56.152,0
1542905694.660,-32.227,33.203,26.367,28.809,-56.641,0
1542905694.663,-24.414,43.457,38.086,33.691,-36.621,0
1542905694.667,-17.578,40.527,38.086,41.504,-39.062,0
1542905694.671,-14.648,35.645,35.156,44.434,38.086,0
1542905694.675,-16.602,34.668,37.109,44.434,19.043,0
1542905694.679,-22.949,39.551,38.086,59.082,-48.828,0
1542905694.683,-8.301,41.504,38.086,65.918,-12.207,0
1542905694.687,4.395,40.039,34.668,54.688,-36.133,0
1542905694.691,-1.465,45.898,41.504,48.828,-46.875,0
1542905694.695,-0.488,41.992,45.898,61.035,-17.578,0
1542905694.699,-0.488,43.945,46.387,70.312,-23.926,0
1542905694.703,15.625,45.898,48.828,66.895,-15.137,0
1542905694.706,10.742,39.551,45.898,73.242,-23.926,0
1542905694.710,1.465,41.016,46.875,77.637,-8.789,0
1542905694.714,4.395,41.992,48.340,80.566,23.926,0
1542905694.718,22.461,40.039,48.828,77.148,-21.973,0
1542905694.722,24.902,43.457,51.270,67.383,11.719,0
1542905694.726,7.812,43.945,50.781,73.242,32.715,0
1542905694.730,23.926,40.039,45.898,88.379,50.781,0
1542905694.734,2.930,38.574,41.016,92.773,63.477,0
1542905694.738,-37.109,34.668,38.574,82.031,-36.621,0
1542905694.742,-32.227,34.180,33.691,69.336,-50.293,0
1542905694.746,-22.949,31.738,35.156,62.500,28.320,0
1542905694.749,-11.719,32.227,36.621,69.336,37.109,0
1542905694.753,-20.996,37.109,44.922,81.543,-37.598,0
1542905694.757,-9.766,40.039,50.293,75.684,-41.992,0
1542905694.761,10.254,35.156,42.480,67.383,14.648,0
1542905694.765,-6.348,33.203,41.016,67.871,34.180,0
1542905694.769,6.836,37.109,41.016,75.684,28.320,0
1542905694.773,9.766,41.504,44.434,84.473,39.062,0
1542905694.777,10.254,42.969,47.363,76.172,37.109,0
1542905694.781,7.324,40.527,40.039,78.613,-0.488,0
1542905694.785,1.465,38.574,38.574,77.148,17.090,0
1542905694.788,18.066,28.809,35.645,63.477,16.113,0
1542905694.792,0.000,28.809,25.391,59.570,-8.301,0
1542905694.796,-27.344,27.344,28.320,48.828,21.973,0
1542905694.800,-14.160,22.461,31.250,51.758,74.707,0
1542905694.804,-1.465,26.367,29.785,60.547,74.219,0
1542905694.808,-20.996,24.902,31.738,62.988,62.012,0
1542905694.812,-9.277,29.785,40.527,86.426,41.992,0
1542905694.816,17.090,42.969,47.852,91.309,13.672,0
1542905694.820,12.207,47.363,48.828,68.848,12.207,0
1542905694.824,16.113,40.527,54.199,83.008,-10.742,0
1542905694.828,28.809,48.340,54.199,102.051,12.207,0
1542905694.831,15.137,57.129,54.199,93.750,41.016,0
1542905694.835,5.859,53.711,56.152,91.309,-7.812,0
1542905694.839,12.207,54.199,63.965,95.215,17.090,0
1542905694.843,10.742,57.617,69.824,93.262,15.137,0
1542905694.847,9.277,65.430,74.219,112.793,-11.230,0
1542905694.851,2.441,68.848,82.520,107.910,0.977,0
1542905694.855,6.348,63.477,75.684,87.891,34.668,0
1542905694.859,20.020,55.176,70.801,86.426,14.648,0
1542905694.863,12.695,62.012,72.266,86.426,-19.531,0
1542905694.867,19.043,64.453,71.289,108.887,16.602,0
1542905694.871,55.176,64.453,78.613,140.625,39.551,0
1542905694.874,40.527,78.613,82.031,108.398,-2.441,0
1542905694.878,7.812,75.195,69.336,67.383,2.441,0
1542905694.882,1.953,58.594,61.035,74.219,26.367,0
1542905694.886,-6.836,46.387,57.617,66.406,-7.812,0
1542905694.890,-22.949,41.504,43.457,56.641,32.715,0
1542905694.894,-25.391,40.527,38.086,69.336,4.883,0
1542905694.898,-12.207,43.945,43.945,66.406,-1.953,0
1542905694.902,-3.418,55.664,52.246,66.895,32.227,0
1542905694.906,14.648,69.336,60.059,80.078,-2.441,0
1542905694.910,29.297,77.637,61.523,92.773,66.406,0
1542905694.913,36.133,81.543,69.336,92.285,51.758,0
1542905694.917,43.457,84.473,81.055,87.402,-24.414,0
1542905694.921,40.039,80.078,80.566,92.773,16.113,0
1542905694.925,38.086,78.613,82.031,99.121,33.691,0
1542905694.929,52.734,87.402,83.008,111.816,52.734,0
1542905694.933,61.035,95.703,82.520,116.211,73.242,0
1542905694.937,56.641,97.656,86.914,110.840,32.715,0
1542905694.941,68.848,101.074,92.285,118.652,55.176,0
1542905694.945,67.871,105.957,99.121,123.535,84.473,0
1542905694.949,51.270,105.469,103.516,121.582,89.355,0
1542905694.953,54.688,104.980,109.375,118.164,37.598,0
1542905694.956,64.453,113.281,115.234,122.559,16.113,0
1542905694.960,73.730,120.117,116.699,134.277,17.578,0
1542905694.964,71.777,120.605,114.258,122.559,34.668,0
1542905694.968,53.711,115.234,116.699,125.000,34.180,0
1542905694.972,52.734,118.164,121.094,138.672,-2.441,0
1542905694.976,73.242,118.164,115.723,117.676,25.879,0
1542905694.980,51.758,113.770,105.469,102.051,14.648,0
1542905694.984,15.137,122.559,106.934,115.234,18.066,0
1542905694.988,30.273,117.676,118.652,112.793,51.270,0
1542905694.992,53.223,122.070,121.094,103.027,39.551,0
1542905694.996,64.453,145.996,124.512,88.867,66.406,0
1542905694.999,9.277,149.902,141.602,65.918,64.941,0
1542905695.003,-25.879,161.133,141.113,57.129,26.855,0
1542905695.007,-28.320,148.438,126.465,36.621,61.523,0
1542905695.011,-72.754,131.836,133.301,7.812,90.332,0
1542905695.015,-84.473,168.457,137.207,-23.926,42.969,0
1542905695.019,-83.496,182.617,151.855,-42.480,18.066,0
1542905695.023,-124.023,180.664,166.992,-69.336,34.180,0
1542905695.027,-156.738,199.707,144.043,-108.398,53.711,0
1542905695.031,-170.410,216.309,151.367,-132.324,78.613,0
1542905695.035,-200.195,207.031,174.805,-149.414,56.641,0
1542905695.038,-249.023,194.824,186.035,-175.781,20.508,0
1542905695.042,-248.535,189.941,183.105,-201.660,58.105,0
1542905695.046,-254.395,187.012,172.852,-199.707,98.145,0
1542905695.050,-278.809,173.828,168.945,-193.359,38.086,0
1542905695.054,-250.977,164.062,154.297,-186.035,-2.930,0
1542905695.058,-239.258,156.738,131.348,-185.547,12.207,0
1542905695.062,-233.398,142.578,122.559,-184.082,6.348,0
1542905695.066,-197.754,130.371,117.188,-147.461,48.828,0
1542905695.070,-171.875,122.070,104.980,-119.141,75.195,0
1542905695.074,-147.461,104.004,90.332,-94.727,62.012,0
1542905695.078,-120.605,87.402,82.031,-64.453,94.727,0
1542905695.081,-105.957,81.543,73.242,-43.457,80.078,0
1542905695.085,-80.078,73.242,62.500,-20.020,29.297,0
1542905695.089,-62.012,56.641,48.340,-5.371,51.758,0
1542905695.093,-59.082,39.062,31.250,14.160,99.609,0
1542905695.097,-41.016,32.227,27.344,32.715,41.992,0
1542905695.101,-25.391,14.648,24.414,50.293,7.324,0
1542905695.105,-19.043,10.742,14.160,66.895,17.578,0
1542905695.109,-5.371,11.230,8.301,75.684,17.090,0
1542905695.113,11.230,1.465,1.465,83.008,10.254,0
1542905695.117,6.348,-7.812,-7.812,98.633,-6.348,0
1542905695.121,14.160,-7.812,-8.789,115.234,-4.395,0
1542905695.124,41.016,-11.719,-7.812,125.000,-10.742,0
1542905695.128,47.852,-24.902,-11.719,130.859,-9.766,0
1542905695.132,57.617,-24.902,-12.207,126.465,22.949,0
1542905695.136,62.988,-34.180,-14.160,135.742,61.035,0
1542905695.140,64.941,-43.457,-14.160,147.461,38.574,0
1542905695.144,72.266,-36.133,-10.254,147.949,41.016,0
1542905695.148,77.148,-33.203,-19.043,143.555,82.520,0
1542905695.152,73.242,-36.621,-19.531,138.672,63.965,0
1542905695.156,82.520,-31.250,-9.766,154.785,70.801,0
1542905695.160,88.867,-34.180,-8.301,162.598,37.109,0
1542905695.163,84.473,-34.180,-10.254,152.344,40.039,0
1542905695.167,96.191,-29.297,-11.719,151.855,60.059,0
1542905695.171,93.262,-25.391,-2.930,166.016,55.176,0
1542905695.175,83.984,-22.949,-1.465,166.016,25.391,0
1542905695.179,91.797,-22.461,-2.930,164.551,-29.785,0
1542905695.183,99.121,-26.367,-1.465,172.852,18.555,0
1542905695.187,87.891,-30.762,-1.953,169.434,51.758,0
1542905695.191,90.820,-26.367,4.395,161.621,37.598,0
1542905695.195,97.656,-20.020,-1.953,158.203,29.297,0
1542905695.199,82.031,-17.578,-5.859,150.391,43.457,0
1542905695.203,86.426,-21.484,3.418,145.508,28.320,0
1542905695.206,94.238,-18.066,9.277,152.832,13.184,0
1542905695.210,100.586,-8.301,10.742,152.832,10.742,0
1542905695.214,98.633,-1.465,16.113,151.367,33.691,0
1542905695.218,104.492,-1.465,18.555,143.066,105.469,0
1542905695.222,96.191,-1.953,16.113,142.578,56.152,0
1542905695.226,83.984,4.395,16.602,142.090,42.480,0
1542905695.230,83.496,3.418,16.113,137.695,83.008,0
1542905695.234,66.406,0.488,22.461,144.531,61.035,0
1542905695.238,65.430,-4.395,23.926,142.578,64.453,0
1542905695.242,67.383,-2.441,24.414,144.043,9.277,0
1542905695.246,66.406,8.789,26.367,139.160,10.742,0
1542905695.249,77.148,10.254,18.555,125.977,48.340,0
1542905695.253,81.055,8.789,18.555,120.605,14.648,0
1542905695.257,61.523,10.254,22.461,111.328,15.137,0
1542905695.261,49.316,12.207,21.484,123.535,23.926,0
1542905695.265,49.316,12.207,26.367,125.000,75.684,0
1542905695.269,49.316,15.137,34.180,111.328,97.168,0
1542905695.273,62.012,19.531,29.297,118.652,29.297,0
1542905695.277,69.824,18.555,25.391,106.445,6.348,0
1542905695.281,65.430,18.555,33.203,100.586,33.691,0
1542905695.285,62.500,23.926,35.156,117.188,13.184,0
1542905695.288,54.199,23.438,39.062,119.141,54.199,0
1542905695.292,50.781,19.043,41.016,115.723,18.066,0
1542905695.296,41.504,18.066,35.645,111.816,-39.062,0
1542905695.300,29.785,20.996,32.227,100.098,50.293,0
1542905695.304,43.457,28.320,33.691,96.680,20.996,0
1542905695.308,38.086,30.762,32.227,97.168,-22.461,0
1542905695.312,38.574,30.762,40.039,104.980,40.039,0
1542905695.316,40.039,36.621,50.781,111.816,67.871,0
1542905695.320,23.438,28.320,46.387,113.281,41.992,0
1542905695.324,46.387,26.367,44.922,115.234,43.945,0
1542905695.328,38.086,36.621,43.457,90.820,51.270,0
1542905695.331,22.949,32.227,36.621,88.379,30.273,0
1542905695.335,36.621,33.691,43.457,104.492,11.230,0
1542905695.339,39.551,38.086,51.758,114.258,62.012,0
1542905695.343,23.926,36.133,45.410,98.145,110.352,0
1542905695.347,30.762,34.668,38.574,82.031,110.352,0
1542905695.351,24.414,31.250,36.621,75.684,76.660,0
1542905695.355,-14.648,12.207,32.227,68.359,57.617,0
1542905695.359,-32.227,-4.883,25.391,50.293,63.477,0
1542905695.363,-41.016,-21.484,6.348,27.832,70.801,0
1542905695.367,-62.988,-53.223,-22.949,1.953,87.402,0
1542905695.371,-86.426,-66.895,-36.133,-26.367,92.773,0
1542905695.374,-88.867,-66.406,-31.250,-18.555,109.863,0
1542905695.378,-89.844,-65.430,-24.414,-16.602,56.152,0
1542905695.382,-94.727,-61.523,-31.738,-20.996,57.617,0
1542905695.386,-100.586,-70.801,-39.062,-46.875,84.961,0
1542905695.390,-114.746,-87.891,-40.527,-50.781,29.785,0
1542905695.394,-136.719,-95.215,-51.270,-41.016,29.297,0
1542905695.398,-144.043,-102.051,-59.082,-47.852,37.598,0
1542905695.402,-126.953,-106.934,-73.242,-58.105,53.223,0
1542905695.406,-156.250,-107.910,-82.031,-83.496,80.078,0
1542905695.410,-163.574,-116.699,-79.590,-93.262,54.199,0
1542905695.413,-148.926,-124.023,-90.332,-103.516,-33.691,0
1542905695.417,-160.645,-132.812,-111.328,-104.980,-28.809,0
1542905695.421,-114.746,-145.508,-116.211,-58.105,-17.090,0
1542905695.425,-125.488,-129.395,-114.746,-94.238,-29.785,0
1542905695.429,-205.078,-126.465,-118.164,-149.902,49.316,0
1542905695.433,-189.453,-147.461,-120.605,-106.445,46.875,0
1542905695.437,-149.902,-141.113,-125.000,-80.078,-7.324,0
1542905695.441,-148.438,-145.508,-125.977,-99.609,3.418,0
1542905695.445,-148.926,-156.250,-126.465,-94.727,17.090,0
1542905695.449,-154.297,-156.738,-134.766,-87.891,53.711,0
1542905695.453,-160.645,-171.875,-150.391,-106.445,-26.367,0
1542905695.456,-178.223,-190.430,-167.969,-111.328,-34.668,0
1542905695.460,-219.238,-210.938,-187.988,-125.488,70.312,0
1542905695.464,-217.773,-225.586,-208.984,-148.926,94.727,0
1542905695.468,-208.008,-234.863,-222.656,-162.109,32.715,0
1542905695.472,-229.492,-237.305,-220.703,-162.598,-7.812,0
1542905695.476,-211.426,-223.145,-212.891,-160.645,54.199,0
1542905695.480,-193.848,-209.473,-199.707,-143.066,54.688,0
1542905695.484,-188.477,-193.359,-177.246,-118.164,-17.090,0
1542905695.488,-163.086,-168.945,-154.297,-103.027,19.531,0
1542905695.492,-148.438,-144.531,-129.883,-79.590,65.918,0
1542905695.496,-127.930,-125.488,-117.188,-62.988,38.574,0
1542905695.499,-108.887,-115.723,-112.305,-62.012,20.996,0
1542905695.503,-115.234,-116.211,-107.910,-56.152,17.578,0
1542905695.507,-121.094,-122.070,-110.352,-55.176,-23.926,0
1542905695.511,-132.812,-132.324,-117.676,-57.617,0.977,0
1542905695.515,-151.367,-142.090,-125.488,-69.336,49.805,0
1542905695.519,-150.879,-145.020,-128.418,-85.449,57.129,0
1542905695.523,-155.273,-144.531,-129.395,-90.332,43.457,0
1542905695.527,-158.203,-145.020,-128.906,-94.727,25.879,0
1542905695.531,-150.391,-146.484,-134.766,-92.773,47.852,0
1542905695.535,-153.320,-148.926,-137.207,-91.309,19.043,0
1542905695.538,-158.203,-158.203,-137.695,-99.121,15.625,0
1542905695.542,-173.828,-162.109,-148.926,-109.375,4.883,0
1542905695.546,-170.410,-160.645,-153.320,-103.027,43.945,0
1542905695.550,-162.109,-159.668,-145.996,-112.305,80.566,0
1542905695.554,-183.594,-155.273,-145.020,-122.559,43.457,0
1542905695.558,-174.316,-152.832,-141.602,-107.422,25.391,0
1542905695.562,-140.137,-136.719,-124.023,-84.473,67.383,0
1542905695.566,-128.906,-120.117,-109.863,-75.684,61.035,0
1542905695.570,-147.949,-106.934,-100.586,-68.848,67.383,0
1542905695.574,-122.070,-86.914,-88.867,-55.176,104.980,0
1542905695.578,-90.332,-71.777,-67.871,-31.738,72.754,0
1542905695.581,-77.148,-54.199,-50.781,-20.020,54.688,0
1542905695.585,-37.598,-39.551,-38.574,-14.648,46.875,0
1542905695.589,-60.547,-34.668,-30.762,2.930,41.992,0
1542905695.593,-79.590,-26.855,-26.367,-15.137,59.570,0
1542905695.597,-77.148,-19.043,-17.578,-27.344,54.688,0
1542905695.601,-73.242,-12.695,-12.207,-4.395,50.781,0
1542905695.605,-62.500,-17.578,-13.672,4.395,47.363,0
1542905695.609,-65.918,-26.367,-16.602,1.953,10.742,0
1542905695.613,-69.336,-26.855,-21.484,-1.465,-12.207,0
1542905695.617,-87.402,-43.945,-39.551,-25.879,5.371,0
1542905695.621,-117.188,-76.660,-69.336,-44.434,42.969,0
1542905695.624,-136.719,-107.422,-104.980,-77.148,73.730,0
1542905695.628,-162.109,-142.578,-144.043,-121.094,25.879,0
1542905695.632,-209.961,-178.711,-178.223,-151.367,74.219,0
1542905695.636,-234.863,-208.008,-209.473,-187.500,69.824,0
1542905695.640,-252.930,-224.121,-232.910,-197.266,19.531,0
1542905695.644,-277.832,-238.770,-245.605,-214.355,20.508,0
1542905695.648,-290.039,-253.906,-247.070,-220.703,34.668,0
1542905695.652,-270.508,-248.047,-242.676,-194.824,58.105,0
1542905695.656,-254.883,-228.027,-231.445,-195.801,69.336,0
1542905695.660,-264.648,-212.891,-208.496,-188.477,87.402,0
1542905695.663,-228.027,-195.801,-192.383,-174.805,97.168,0
1542905695.667,-199.219,-178.711,-182.617,-162.109,22.949,0
1542905695.671,-188.477,-160.156,-162.598,-129.883,-57.617,0
1542905695.675,-158.691,-133.301,-133.789,-103.516,-16.602,0
1542905695.679,-138.672,-110.840,-108.887,-76.660,-5.859,0
1542905695.683,-123.535,-91.309,-91.797,-62.988,16.113,0
1542905695.687,-112.305,-73.242,-76.172,-52.246,42.480,0
1542905695.691,-99.609,-61.035,-61.523,-34.180,56.152,0
1542905695.695,-105.957,-54.688,-55.664,-30.273,35.645,0
1542905695.699,-113.770,-61.523,-60.547,-25.391,33.203,0
1542905695.703,-99.121,-71.289,-66.895,-25.391,46.387,0
1542905695.706,-104.004,-82.031,-83.008,-47.363,56.152,0
1542905695.710,-132.812,-91.309,-96.680,-64.941,62.988,0
1542905695.714,-143.066,-99.121,-92.773,-66.895,18.555,0
1542905695.718,-132.324,-104.004,-97.168,-65.918,5.859,0
1542905695.722,-116.211,-103.027,-110.840,-79.590,75.195,0
1542905695.726,-120.117,-102.539,-107.910,-82.031,77.637,0
1542905695.730,-140.137,-104.980,-101.074,-74.707,20.996,0
1542905695.734,-137.695,-102.539,-104.980,-76.660,12.207,0
1542905695.738,-141.113,-95.215,-100.098,-78.125,-8.301,0
1542905695.742,-121.094,-93.750,-89.844,-64.453,3.906,0
1542905695.746,-99.609,-79.590,-73.730,-45.410,42.969,0
1542905695.749,-92.773,-57.617,-57.129,-23.438,65.430,0
1542905695.753,-66.895,-46.875,-41.992,-2.441,43.945,0
1542905695.757,-52.734,-34.668,-31.738,12.207,56.641,0
1542905695.761,-47.363,-18.555,-21.973,15.137,82.520,0
1542905695.765,-42.480,-9.277,-1.953,12.207,43.457,0
1542905695.769,-45.410,-3.906,1.465,18.555,54.199,0
1542905695.773,-41.992,0.488,2.441,38.086,38.086,0
1542905695.777,-39.551,2.930,9.277,36.133,47.363,0
1542905695.781,-40.039,5.371,4.395,28.809,86.914,0
1542905695.785,-38.574,0.000,-3.418,28.320,45.410,0
1542905695.788,-50.293,-9.277,-0.977,19.531,59.570,0
1542905695.792,-47.852,-13.672,-7.324,25.879,28.320,0
1542905695.796,-59.570,-28.320,-24.902,13.184,27.832,0
1542905695.800,-80.078,-40.039,-41.504,-6.836,66.895,0
1542905695.804,-90.332,-47.363,-50.293,-20.020,78.125,0
1542905695.808,-104.980,-69.336,-55.664,-31.738,49.316,0
1542905695.812,-107.422,-76.660,-66.406,-35.645,-3.906,0
1542905695.816,-107.422,-67.871,-68.359,-43.457,33.203,0
1542905695.820,-99.609,-59.082,-61.523,-39.551,15.625,0
1542905695.824,-89.355,-46.387,-48.828,-12.207,31.250,0
1542905695.828,-68.848,-34.180,-34.180,-6.836,29.297,0
1542905695.831,-53.711,-20.996,-23.926,-1.953,0.977,0
1542905695.835,-55.176,-2.930,-9.766,15.625,27.344,0
1542905695.839,-22.461,11.230,11.230,33.691,64.941,0
1542905695.843,-3.418,26.367,27.344,59.570,102.539,0
1542905695.847,-11.719,42.480,40.527,81.543,56.152,0
1542905695.851,3.418,60.059,60.059,96.191,20.508,0
1542905695.855,27.832,72.266,72.266,107.910,37.598,0
1542905695.859,35.156,72.754,76.660,116.699,47.363,0
1542905695.863,34.180,81.543,90.820,119.629,74.219,0
1542905695.867,47.852,94.238,98.633,128.418,73.242,0
1542905695.871,56.641,102.051,106.445,134.766,51.270,0
1542905695.874,58.105,112.793,111.328,130.371,46.875,0
1542905695.878,63.477,112.305,107.422,130.859,43.457,0
1542905695.882,74.219,111.328,111.328,134.766,55.176,0
1542905695.886,71.777,108.887,115.234,142.090,81.543,0
1542905695.890,66.406,106.445,115.234,142.090,94.238,0
1542905695.894,62.988,112.305,114.258,144.531,46.875,0
1542905695.898,67.871,117.188,113.281,146.973,1.953,0
1542905695.902,67.871,113.770,113.281,139.160,23.438,0
1542905695.906,58.594,105.469,108.398,137.695,22.949,0
1542905695.910,48.340,103.516,106.445,144.531,5.371,0
1542905695.913,57.129,109.863,108.398,146.973,8.789,0
1542905695.917,77.148,110.840,105.469,137.207,10.254,0
1542905695.921,70.801,106.934,112.305,132.324,13.672,0
1542905695.925,67.383,110.840,114.258,127.441,79.102,0
1542905695.929,81.543,115.723,108.887,124.023,54.688,0
1542905695.933,79.102,122.559,116.699,132.812,28.809,0
1542905695.937,64.941,125.488,118.164,142.090,62.500,0
1542905695.941,62.012,122.070,112.793,145.020,56.152,0
1542905695.945,73.730,115.234,118.164,144.531,56.152,0
1542905695.949,78.613,112.305,115.723,140.137,25.391,0
1542905695.953,83.984,121.582,112.305,134.277,23.926,0
1542905695.956,87.891,124.512,114.746,140.137,16.113,0
1542905695.960,77.148,123.535,119.629,147.949,49.805,0
1542905695.964,77.637,133.789,129.395,162.109,83.984,0
1542905695.968,105.957,138.184,132.812,162.598,51.270,0
1542905695.972,112.793,139.160,133.301,154.297,-24.902,0
1542905695.976,105.469,141.113,132.324,159.180,-35.156,0
1542905695.980,97.168,140.625,129.883,162.598,5.371,0
1542905695.984,91.309,138.672,127.441,158.203,5.859,0
1542905695.988,93.262,134.766,120.605,150.391,42.969,0
1542905695.992,89.844,136.230,121.582,155.762,53.711,0
1542905695.996,85.938,128.906,122.070,146.973,11.230,0
1542905695.999,78.613,126.465,118.164,151.367,27.832,0
1542905696.003,93.262,129.395,116.211,156.250,35.645,0
1542905696.007,89.844,123.535,112.305,149.414,21.973,0
1542905696.011,71.289,112.793,114.746,147.949,24.414,0
1542905696.015,95.215,107.422,107.422,134.277,-18.555,0
1542905696.019,91.797,112.793,104.980,130.371,-44.922,0
1542905696.023,62.012,114.258,109.863,139.648,32.227,0
1542905696.027,62.500,115.234,104.004,140.137,80.078,0
1542905696.031,63.477,105.957,94.238,133.301,65.430,0
1542905696.035,60.059,104.004,88.867,125.000,62.988,0
1542905696.038,61.523,106.934,86.914,114.746,20.996,0
1542905696.042,68.848,97.168,87.891,116.211,54.199,0
1542905696.046,62.012,95.215,87.891,123.047,111.328,0
1542905696.050,84.473,99.609,74.707,128.906,-14.160,0
1542905696.054,106.934,100.586,71.777,145.020,-41.016,0
1542905696.058,69.824,94.727,93.750,137.695,44.434,0
1542905696.062,30.762,83.008,93.750,104.492,82.031,0
1542905696.066,35.156,76.660,88.867,110.840,49.316,0
1542905696.070,43.457,68.848,94.238,122.559,15.137,0
1542905696.074,42.969,62.500,89.355,114.258,78.613,0
1542905696.078,44.434,70.801,86.914,119.141,127.930,0
1542905696.081,38.086,71.777,88.379,117.676,49.805,0
1542905696.085,35.156,71.289,81.055,109.863,27.344,0
1542905696.089,47.852,76.172,74.707,116.699,75.684,0
1542905696.093,40.527,69.824,74.219,113.770,52.734,0
1542905696.097,22.949,67.871,73.730,117.188,7.324,0
1542905696.101,32.227,70.801,70.801,125.000,8.789,0
1542905696.105,32.227,66.406,68.359,111.328,56.641,0
1542905696.109,36.621,62.012,66.406,104.980,37.109,0
1542905696.113,47.852,63.477,65.430,113.770,28.320,0
1542905696.117,43.945,67.871,65.918,109.863,34.668,0
1542905696.121,44.922,68.848,71.777,111.816,14.160,0
1542905696.124,38.574,63.477,68.848,101.562,-20.996,0
1542905696.128,22.949,55.664,65.918,92.773,-20.996,0
1542905696.132,25.879,53.711,68.848,105.957,2.441,0
1542905696.136,33.691,57.617,62.500,95.703,-1.465,0
1542905696.140,34.668,59.082,58.105,92.773,19.043,0
1542905696.144,33.203,52.734,60.059,103.516,27.832,0
1542905696.148,26.855,48.828,55.176,103.027,78.613,0
1542905696.152,30.273,52.246,47.852,104.004,103.516,0
1542905696.156,41.016,57.617,49.316,102.539,44.434,0
1542905696.160,41.016,62.012,53.711,104.004,50.781,0
1542905696.163,36.133,61.035,52.734,103.027,56.641,0
1542905696.167,21.973,54.688,49.316,89.844,53.223,0
1542905696.171,26.367,55.176,45.898,99.121,49.805,0
1542905696.175,20.508,52.734,45.410,102.539,42.480,0
1542905696.179,5.371,46.875,43.457,85.449,83.984,0
1542905696.183,11.230,41.992,41.504,81.543,62.500,0
1542905696.187,22.461,44.922,42.969,80.078,40.039,0
1542905696.191,23.926,41.504,41.016,75.684,41.016,0
1542905696.195,10.254,36.133,37.598,67.871,17.090,0
1542905696.199,18.555,41.504,37.109,73.242,74.219,0
1542905696.203,21.973,47.363,36.621,79.590,105.469,0
1542905696.206,10.742,45.410,35.156,73.242,68.359,0
1542905696.210,12.695,41.504,33.203,67.871,32.715,0
1542905696.214,18.555,40.039,32.715,72.754,21.973,0
1542905696.218,15.137,39.551,36.133,73.242,48.828,0
1542905696.222,3.418,39.551,37.598,64.453,59.570,0
1542905696.226,10.254,32.227,34.668,72.266,26.855,0
1542905696.230,15.137,36.133,34.180,85.449,33.203,0
1542905696.234,7.812,44.922,36.621,78.613,58.594,0
1542905696.238,9.277,44.434,40.039,67.871,43.945,0
1542905696.242,-1.953,38.086,35.156,70.312,46.875,0
1542905696.246,-10.254,36.133,29.297,62.012,37.598,0
1542905696.249,-5.371,38.086,25.879,49.316,54.688,0
1542905696.253,-5.859,40.039,28.320,54.688,83.008,0
1542905696.257,-4.395,38.086,33.691,58.594,39.551,0
1542905696.261,-2.930,34.668,32.715,53.223,38.574,0
1542905696.265,-8.301,31.738,31.250,55.664,76.172,0
1542905696.269,-14.648,26.855,29.297,58.594,54.688,0
1542905696.273,-13.184,34.180,28.320,60.059,41.504,0
1542905696.277,-11.719,36.621,28.320,62.500,63.965,0
1542905696.281,-6.836,40.527,37.598,58.105,62.988,0
1542905696.285,2.441,45.898,34.668,64.453,64.941,0
1542905696.288,-9.277,45.898,26.855,70.801,46.387,0
1542905696.292,-14.648,45.410,34.180,66.895,69.824,0
1542905696.296,-13.184,37.109,34.668,55.176,48.828,0
1542905696.300,-18.066,36.621,29.297,55.664,5.371,0
1542905696.304,-24.414,39.062,26.855,63.477,48.340,0
1542905696.308,-23.926,34.668,29.297,60.547,53.711,0
1542905696.312,-19.531,37.598,31.250,57.617,45.898,0
1542905696.316,-19.043,40.527,31.738,67.383,79.590,0
1542905696.320,-11.719,38.574,34.668,70.801,90.332,0
1542905696.324,-13.672,42.480,33.691,62.012,90.820,0
1542905696.328,-13.184,43.457,30.762,58.105,36.133,0
1542905696.331,-15.625,39.551,36.133,58.105,59.082,0
1542905696.335,-11.230,43.945,40.039,63.965,75.195,0
1542905696.339,-2.930,48.340,37.598,64.941,36.621,0
1542905696.343,-4.395,42.480,42.480,65.918,56.152,0
1542905696.347,-10.742,36.133,43.945,67.383,57.617,0
1542905696.351,-19.043,35.645,38.574,65.918,71.289,0
1542905696.355,-20.996,42.969,31.738,55.664,169.922,0
1542905696.359,-8.301,43.457,33.203,51.270,224.121,0
1542905696.363,-6.348,41.504,36.133,51.758,216.309,0
1542905696.367,-12.695,41.992,38.086,61.523,255.859,0
1542905696.371,-9.766,42.480,38.574,61.035,288.086,0
1542905696.374,-6.348,47.363,41.016,61.035,292.480,0
1542905696.378,-18.066,47.363,41.016,55.664,305.664,0
1542905696.382,-5.859,45.410,38.086,46.875,325.195,0
1542905696.386,-8.789,36.621,36.621,51.270,305.664,0
1542905696.390,-31.250,26.367,34.180,53.711,286.133,0
1542905696.394,-24.902,35.645,34.180,51.758,277.832,0
1542905696.398,-24.902,40.039,30.762,46.387,280.273,0
1542905696.402,-32.227,36.621,29.785,45.898,291.016,0
1542905696.406,-23.438,38.574,32.715,52.246,266.602,0
1542905696.410,-21.484,33.203,35.645,53.711,248.535,0
1542905696.413,-25.879,31.250,39.551,54.688,242.676,0
1542905696.417,-27.344,36.621,36.133,52.246,249.512,0
1542905696.421,-27.832,35.156,31.250,49.316,239.746,0
1542905696.425,-27.344,31.250,24.414,51.758,228.516,0
1542905696.429,-33.691,34.180,23.926,48.828,196.777,0
1542905696.433,-30.273,34.668,35.645,45.410,169.434,0
1542905696.437,-28.809,35.645,34.180,46.875,169.434,0
1542905696.441,-21.973,42.969,31.738,51.270,135.254,0
1542905696.445,-12.695,46.875,33.691,44.434,165.527,0
1542905696.449,-12.695,40.039,32.715,35.645,198.242,0
1542905696.453,-8.789,40.527,38.086,47.363,186.035,0
1542905696.456,-19.531,41.016,36.133,56.152,151.855,0
1542905696.460,-21.973,37.598,38.574,47.363,153.320,0
1542905696.464,-10.254,43.945,46.387,54.688,167.969,0
1542905696.468,-12.207,42.969,42.969,62.012,118.652,0
1542905696.472,-13.184,40.527,42.969,56.152,73.242,0
1542905696.476,-4.883,37.598,41.992,64.453,75.684,0
1542905696.480,24.902,26.855,41.992,110.352,89.355,0
1542905696.484,38.086,46.387,40.039,125.000,50.293,0
1542905696.488,-5.859,64.453,33.691,67.871,-9.766,0
1542905696.492,-21.484,58.594,33.691,51.270,-4.395,0
1542905696.496,-8.301,60.059,36.621,67.383,27.832,0
1542905696.499,-8.301,66.406,40.527,66.406,29.297,0
1542905696.503,-2.441,73.730,37.109,72.266,3.418,0
1542905696.507,-11.230,72.266,31.250,67.871,9.277,0
1542905696.511,-6.836,76.172,32.715,58.594,9.766,0
1542905696.515,-6.348,70.801,29.785,55.176,22.949,0
1542905696.519,-18.066,56.152,28.809,53.711,43.945,0
1542905696.523,0.488,55.664,31.250,58.105,47.852,0
1542905696.527,2.441,56.641,30.273,59.570,72.266,0
1542905696.531,-9.766,54.688,32.715,57.129,50.293,0
1542905696.535,-3.906,60.059,34.668,63.965,41.992,0
1542905696.538,2.441,59.570,34.668,65.430,65.918,0
1542905696.542,4.395,53.711,36.621,62.012,52.734,0
1542905696.546,1.953,60.547,36.133,69.336,45.898,0
1542905696.550,-0.488,64.453,34.668,71.777,42.480,0
1542905696.554,-7.324,61.035,39.062,64.453,48.828,0
1542905696.558,-5.859,57.129,37.598,63.477,63.477,0
1542905696.562,0.000,61.523,40.527,70.801,27.344,0
1542905696.566,1.953,64.453,50.781,72.266,-1.953,0
1542905696.570,3.906,60.547,54.688,72.754,12.207,0
1542905696.574,4.883,63.965,55.664,81.055,18.066,0
1542905696.578,4.883,63.965,49.316,78.125,-13.672,0
1542905696.581,-1.953,61.035,47.363,65.918,-1.953,0
1542905696.585,4.395,63.477,48.828,75.684,13.672,0
1542905696.589,10.742,69.824,46.875,85.449,-7.324,0
1542905696.593,2.930,63.965,46.387,80.566,0.488,0
1542905696.597,0.488,59.082,48.828,76.172,15.137,0
1542905696.601,7.324,62.988,54.199,77.148,23.438,0
1542905696.605,5.371,64.453,59.570,76.172,33.203,0
1542905696.609,0.000,63.477,57.129,76.172,41.016,0
1542905696.613,8.301,65.918,60.547,85.449,50.293,0
1542905696.617,11.230,68.848,64.453,91.797,42.969,0
1542905696.621,9.277,65.918,55.664,83.496,22.461,0
1542905696.624,2.930,66.895,48.340,81.543,48.828,0
1542905696.628,3.418,66.406,55.664,93.750,72.754,0
1542905696.632,15.625,65.918,53.711,90.820,50.781,0
1542905696.636,4.395,59.570,42.480,80.566,55.176,0
1542905696.640,-0.977,57.617,50.781,88.867,63.477,0
1542905696.644,3.906,59.082,58.105,81.543,72.266,0
1542905696.648,-0.977,61.523,54.199,72.266,71.289,0
1542905696.652,7.324,63.965,53.711,76.660,77.148,0
1542905696.656,10.742,63.965,52.734,75.684,56.641,0
1542905696.660,15.137,65.430,47.363,83.008,31.738,0
1542905696.663,12.207,64.453,46.875,85.449,41.992,0
1542905696.667,2.930,65.918,45.898,84.473,54.688,0
1542905696.671,-1.953,63.477,45.898,84.961,55.176,0
1542905696.675,3.418,55.664,49.805,84.961,80.078,0
1542905696.679,-2.441,55.176,47.852,82.031,80.078,0
1542905696.683,-9.766,56.641,49.316,78.613,39.062,0
1542905696.687,-0.977,59.570,52.246,81.543,40.039,0
1542905696.691,-2.930,60.547,41.016,85.938,65.918,0
1542905696.695,-13.184,56.641,42.480,77.148,89.355,0
1542905696.699,-14.648,57.617,47.852,71.777,92.285,0
1542905696.703,-5.371,58.594,44.922,76.660,88.379,0
1542905696.706,-2.930,60.547,46.875,86.914,75.684,0
1542905696.710,-10.742,55.176,42.969,80.078,30.273,0
1542905696.714,-8.301,48.340,43.457,71.289,46.387,0
1542905696.718,-0.488,50.781,41.016,71.777,80.566,0
1542905696.722,-0.488,56.641,36.621,64.941,72.754,0
1542905696.726,-4.883,55.664,42.480,59.570,58.105,0
1542905696.730,-20.508,47.363,37.109,55.176,56.152,0
1542905696.734,-26.367,42.480,33.203,54.688,56.641,0
1542905696.738,-27.344,45.410,37.598,63.477,75.195,0
1542905696.742,-30.273,45.898,34.180,56.641,84.473,0
1542905696.746,-20.996,46.875,33.691,54.199,75.195,0
1542905696.749,-13.672,46.387,40.039,64.453,75.684,0
1542905696.753,-13.184,37.109,39.062,65.430,53.223,0
1542905696.757,-22.461,32.715,34.668,61.523,37.109,0
1542905696.761,-31.250,37.598,31.738,60.547,46.875,0
1542905696.765,-27.832,40.527,26.855,59.082,30.762,0
1542905696.769,-21.484,37.109,32.715,55.176,19.531,0
1542905696.773,-18.066,32.227,41.992,53.711,20.508,0
1542905696.777,-12.207,35.645,41.016,49.805,37.109,0
1542905696.781,-2.930,44.922,34.180,61.035,66.406,0
1542905696.785,-8.789,44.434,32.715,55.176,42.480,0
1542905696.788,-4.395,44.434,17.578,64.941,19.043,0
1542905696.792,18.066,39.062,20.020,100.586,50.293,0
1542905696.796,-7.812,27.832,50.781,75.684,16.113,0
1542905696.800,-45.898,24.414,59.082,38.574,-5.859,0
1542905696.804,-47.852,17.578,51.270,35.156,14.160,0
1542905696.808,-43.945,10.742,45.410,46.387,21.484,0
1542905696.812,-51.758,7.812,48.828,40.039,30.762,0
1542905696.816,-58.594,4.883,56.152,30.273,-18.555,0
1542905696.820,-44.922,8.301,59.570,41.992,-21.973,0
1542905696.824,-37.109,11.230,59.570,47.852,2.441,0
1542905696.828,-45.898,9.766,52.246,46.387,-26.855,0
1542905696.831,-36.621,24.414,44.434,47.363,-27.344,0
1542905696.835,-30.762,23.438,38.574,48.828,-4.883,0
1542905696.839,-34.668,11.719,35.645,48.828,-12.207,0
1542905696.843,-41.504,16.113,37.598,51.758,-33.203,0
1542905696.847,-37.109,20.020,38.086,58.105,-69.824,0
1542905696.851,-31.738,15.625,36.621,49.805,-68.848,0
1542905696.855,-45.410,17.578,35.156,37.109,-34.180,0
1542905696.859,-26.367,21.973,38.086,50.293,-90.820,0
1542905696.863,-15.137,22.949,36.621,61.523,-118.652,0
1542905696.867,-27.344,24.414,30.762,51.758,-93.262,0
1542905696.871,-27.832,20.996,28.320,50.781,-101.074,0
1542905696.874,-16.602,23.926,32.715,48.828,-93.750,0
1542905696.878,-23.926,28.809,39.551,52.734,-97.656,0
1542905696.882,-23.438,33.691,43.945,60.059,-123.535,0
1542905696.886,-18.555,35.645,42.969,64.941,-128.418,0
1542905696.890,-25.879,27.832,36.133,64.941,-104.980,0
1542905696.894,-23.438,25.879,32.227,61.523,-89.355,0
1542905696.898,-13.672,26.855,37.598,65.430,-149.414,0
1542905696.902,-9.277,31.250,37.598,64.941,-146.973,0
1542905696.906,-4.883,37.598,38.086,71.777,-122.070,0
1542905696.910,-0.977,35.156,42.480,82.520,-149.414,0
1542905696.913,-11.230,33.203,38.574,85.449,-136.230,0
1542905696.917,-0.977,35.645,38.086,81.055,-134.766,0
1542905696.921,-2.930,33.203,38.086,85.938,-128.418,0
1542905696.925,-15.625,32.715,40.039,85.938,-105.957,0
1542905696.929,-12.207,34.180,43.457,76.172,-75.684,0
1542905696.933,-4.395,32.227,41.016,68.848,-125.488,0
1542905696.937,-1.465,39.551,39.551,78.125,-136.719,0
1542905696.941,-2.930,41.504,39.551,83.984,-81.543,0
1542905696.945,-4.395,39.062,39.551,70.801,-101.562,0
1542905696.949,-10.742,35.645,40.527,59.570,-92.773,0
1542905696.953,-7.812,33.691,38.574,46.875,-83.496,0
1542905696.956,-5.371,32.227,36.621,38.086,-41.504,0
1542905696.960,2.441,37.598,44.922,34.668,-19.043,0
1542905696.964,0.000,41.992,51.270,25.879,-59.570,0
1542905696.968,-5.859,43.457,48.340,18.555,-68.848,0
1542905696.972,-5.859,43.945,49.316,12.207,-95.215,0
1542905696.976,-14.160,35.156,42.969,-7.324,-62.500,0
1542905696.980,-8.301,33.203,42.480,-26.855,-22.949,0
1542905696.984,-9.277,37.109,45.898,-38.086,-67.383,0
1542905696.988,-15.625,36.133,40.039,-45.898,-100.098,0
1542905696.992,-18.066,35.156,39.551,-52.246,-57.617,0
1542905696.996,-27.832,34.180,41.016,-57.617,-22.949,0
1542905696.999,-25.879,38.574,41.992,-55.176,-3.906,0
1542905697.003,-18.066,38.574,43.945,-58.105,-33.691,0
1542905697.007,-22.461,28.320,42.969,-63.477,-34.668,0
1542905697.011,-21.973,30.762,37.109,-60.547,-4.883,0
1542905697.015,-14.160,35.156,31.738,-65.918,5.859,0
1542905697.019,-18.066,34.180,31.738,-72.754,-33.203,0
1542905697.023,-19.531,32.715,40.527,-59.570,-63.477,0
1542905697.027,-22.461,30.273,38.574,-55.176,1.465,0
1542905697.031,-23.926,29.785,31.738,-63.477,18.555,0
1542905697.035,-17.090,34.668,34.180,-59.570,36.621,0
1542905697.038,-16.602,37.109,32.715,-55.176,38.574,0
1542905697.042,-21.973,33.203,41.992,-27.344,42.969,0
1542905697.046,-15.137,34.668,47.852,-9.766,56.641,0
1542905697.050,-11.230,33.691,41.992,-0.488,2.441,0
1542905697.054,-25.879,26.367,35.156,18.066,27.832,0
1542905697.058,-24.414,28.320,30.762,6.836,71.777,0
1542905697.062,-18.555,36.133,27.832,6.836,60.547,0
1542905697.066,-13.672,41.016,33.203,20.996,88.379,0
1542905697.070,-8.789,35.156,38.574,33.203,84.473,0
1542905697.074,-30.273,30.273,32.715,38.086,115.723,0
1542905697.078,-46.387,27.832,27.832,32.715,140.625,0
1542905697.081,-31.738,24.902,32.227,46.387,116.211,0
1542905697.085,-22.949,25.391,38.086,52.246,78.125,0
1542905697.089,-17.578,29.297,25.879,61.035,68.848,0
1542905697.093,4.883,37.109,22.461,86.426,79.590,0
1542905697.097,-18.555,34.668,38.086,62.012,96.191,0
1542905697.101,-41.016,25.391,43.457,58.594,94.727,0
1542905697.105,-29.297,20.996,52.246,73.730,109.375,0
1542905697.109,-19.531,17.090,55.664,74.707,130.859,0
1542905697.113,-15.137,10.254,53.223,81.055,120.117,0
1542905697.117,-18.555,9.277,54.199,87.402,99.609,0
1542905697.121,-17.090,9.766,59.082,79.102,111.328,0
1542905697.124,-23.438,11.230,49.805,71.777,125.977,0
1542905697.128,-23.926,4.883,50.781,91.797,127.441,0
1542905697.132,-29.785,-2.441,62.988,99.609,127.930,0
1542905697.136,-29.297,0.488,58.105,96.680,105.469,0
1542905697.140,-11.719,1.953,50.293,101.074,80.566,0
1542905697.144,-14.160,10.742,42.969,93.750,90.332,0
1542905697.148,-19.043,15.625,40.039,93.262,68.359,0
1542905697.152,-24.414,17.578,41.504,91.797,58.594,0
1542905697.156,-26.367,13.672,44.434,80.078,58.594,0
1542905697.160,-13.672,12.695,48.340,93.262,80.078,0
1542905697.163,-13.184,18.066,44.434,91.797,98.145,0
1542905697.167,-17.578,21.484,38.574,78.125,82.031,0
1542905697.171,-9.277,28.320,43.457,83.496,74.707,0
1542905697.175,-8.789,16.602,39.551,90.820,72.754,0
1542905697.179,-18.555,10.254,34.668,96.680,68.359,0
1542905697.183,-11.230,18.555,36.133,101.074,39.551,0
1542905697.187,-14.648,21.484,37.598,92.773,36.133,0
1542905697.191,-16.602,24.414,41.016,86.426,26.855,0
1542905697.195,-4.395,27.344,41.016,95.703,53.711,0
1542905697.199,3.418,29.785,41.992,100.098,79.102,0
1542905697.203,9.277,30.273,40.527,97.656,49.316,0
1542905697.206,-2.441,25.879,40.527,101.074,61.523,0
1542905697.210,-6.348,30.273,38.086,107.422,81.543,0
1542905697.214,7.324,43.457,36.133,104.980,65.918,0
1542905697.218,1.465,37.598,38.574,91.797,49.316,0
1542905697.222,-6.348,25.879,38.086,91.797,36.621,0
1542905697.226,-4.395,20.020,37.598,104.004,6.348,0
1542905697.230,-9.277,18.555,37.598,108.887,14.648,0
1542905697.234,-0.977,34.180,41.016,99.121,-5.371,0
1542905697.238,0.977,39.551,39.062,84.473,-21.484,0
1542905697.242,-2.441,25.879,26.855,81.055,22.949,0
1542905697.246,-2.441,22.461,28.809,77.148,-8.301,0
1542905697.249,-7.324,26.367,29.297,80.078,-17.090,0
1542905697.253,-6.348,27.344,26.367,95.703,42.480,0
1542905697.257,-6.348,26.855,28.809,88.867,25.879,0
1542905697.261,-7.324,34.668,31.250,76.172,21.973,0
1542905697.265,-4.395,37.598,35.645,89.844,22.461,0
1542905697.269,-2.441,29.297,32.227,93.750,11.230,0
1542905697.273,3.906,31.738,35.645,92.773,24.902,0
1542905697.277,1.953,42.480,38.574,93.262,35.156,0
1542905697.281,-4.883,43.945,41.016,93.262,3.906,0
1542905697.285,-1.465,36.621,35.645,93.750,-11.230,0
1542905697.288,3.418,35.156,33.691,89.355,-19.531,0
1542905697.292,0.977,33.203,39.551,89.355,-22.949,0
1542905697.296,-4.395,34.668,38.086,87.891,3.906,0
1542905697.300,0.977,38.574,38.574,91.797,17.090,0
1542905697.304,2.441,40.527,42.969,98.633,3.418,0
1542905697.308,6.836,41.016,48.828,100.586,2.441,0
1542905697.312,6.348,43.457,47.852,105.469,-4.395,0
1542905697.316,0.000,38.574,46.387,97.656,-25.879,0
1542905697.320,30.762,29.297,35.156,115.723,-12.207,0
1542905697.324,55.664,36.621,45.410,154.785,-30.762,0
1542905697.328,-1.953,48.828,66.895,108.887,-47.852,0
1542905697.331,-41.992,52.734,44.434,41.992,-73.242,0
1542905697.335,-38.086,55.664,36.133,28.809,-56.152,0
1542905697.339,-59.082,50.781,40.527,18.555,-28.809,0
1542905697.343,-59.570,43.457,35.156,23.438,-46.387,0
1542905697.347,-62.988,50.293,40.039,17.090,-45.410,0
1542905697.351,-76.172,51.270,37.109,7.324,-47.363,0
1542905697.355,-73.242,48.340,36.621,18.066,-22.461,0
1542905697.359,-75.684,48.828,35.645,5.859,20.020,0
1542905697.363,-78.613,45.898,26.367,3.418,-3.418,0
1542905697.367,-66.406,41.504,24.902,19.043,-37.598,0
1542905697.371,-52.734,43.945,32.227,33.691,-8.789,0
1542905697.374,-44.922,44.922,29.297,49.316,-16.602,0
1542905697.378,-44.434,35.156,20.020,31.250,-12.695,0
1542905697.382,-41.016,27.344,22.461,33.691,-19.043,0
1542905697.386,-42.480,32.715,22.949,47.852,-64.453,0
1542905697.390,-49.316,44.922,35.156,54.688,-41.992,0
1542905697.394,-50.781,35.645,37.109,49.805,-20.020,0
1542905697.398,-53.711,20.996,20.996,38.086,5.859,0
1542905697.402,-44.922,26.367,16.113,45.410,-5.859,0
1542905697.406,-38.574,28.809,19.043,44.922,17.090,0
1542905697.410,-42.480,21.484,21.484,42.969,-36.133,0
1542905697.413,-43.945,23.438,19.531,51.270,-52.246,0
1542905697.417,-33.691,27.832,20.996,41.504,37.109,0
1542905697.421,-30.273,20.508,22.461,46.875,2.441,0
1542905697.425,-29.297,17.090,18.066,53.223,-41.504,0
1542905697.429,-29.297,20.020,15.137,48.340,-117.188,0
1542905697.433,-28.809,26.855,18.066,61.523,-73.242,0
1542905697.437,-27.832,29.785,20.508,60.059,-15.137,0
1542905697.441,-29.297,31.250,18.555,53.223,-3.418,0
1542905697.445,-32.715,20.020,18.555,57.617,-17.090,0
1542905697.449,-31.250,2.930,11.719,50.293,-62.012,0
1542905697.453,-27.832,10.254,12.695,41.016,-14.648,0
1542905697.456,-33.691,11.719,20.508,49.805,14.648,0
1542905697.460,-36.621,4.395,16.602,53.223,-30.273,0
1542905697.464,-34.180,6.348,17.578,51.270,-10.742,0
1542905697.468,-29.297,12.207,19.531,60.059,0.977,0
1542905697.472,-28.320,17.578,20.508,61.035,-20.996,0
1542905697.476,-27.832,17.578,20.996,47.852,-40.039,0
1542905697.480,-32.227,12.695,18.066,48.340,-30.273,0
1542905697.484,-34.668,14.160,20.020,53.223,13.184,0
1542905697.488,-32.715,14.648,20.996,50.293,3.418,0
1542905697.492,-6.836,9.277,10.742,78.125,-16.602,0
1542905697.496,31.738,13.184,10.742,120.117,68.359,0
1542905697.499,-3.906,13.184,42.969,102.051,102.539,0
1542905697.503,-56.641,11.230,51.758,42.969,75.684,0
1542905697.507,-62.012,23.926,31.738,18.555,32.227,0
1542905697.511,-71.777,24.902,26.367,12.207,29.785,0
1542905697.515,-81.055,21.484,32.715,7.324,49.316,0
1542905697.519,-95.215,22.949,36.621,-2.441,79.102,0
1542905697.523,-93.262,17.578,34.180,-11.230,93.750,0
1542905697.527,-85.449,13.672,27.344,-6.836,74.707,0
1542905697.531,-113.281,20.508,32.715,-7.324,91.797,0
1542905697.535,-122.070,18.066,30.273,-9.766,57.129,0
1542905697.538,-100.098,17.578,22.949,4.883,45.898,0
1542905697.542,-90.332,23.926,20.508,12.695,-10.254,0
1542905697.546,-85.938,15.137,10.742,0.488,5.371,0
1542905697.550,-69.336,6.836,18.555,8.789,41.992,0
1542905697.554,-57.617,8.789,26.855,28.320,0.488,0
1542905697.558,-58.105,6.348,17.578,17.090,10.742,0
1542905697.562,-64.453,3.418,6.348,15.137,35.156,0
1542905697.566,-65.918,6.348,9.277,37.109,48.340,0
1542905697.570,-54.199,13.672,17.090,36.133,88.379,0
1542905697.574,-47.852,20.508,15.625,30.273,38.086,0
1542905697.578,-48.340,24.902,19.043,45.410,44.922,0
1542905697.581,-37.598,22.461,22.461,60.059,42.969,0
1542905697.585,-35.156,20.508,24.902,56.641,19.531,0
1542905697.589,-33.203,21.973,25.879,54.688,58.594,0
1542905697.593,-22.461,20.508,31.738,65.918,63.477,0
1542905697.597,-30.762,19.531,32.715,63.477,88.867,0
1542905697.601,-27.344,27.832,26.367,59.082,66.406,0
1542905697.605,-18.066,30.273,29.297,62.988,80.078,0
1542905697.609,-23.926,21.484,36.621,59.082,61.035,0
1542905697.613,-20.020,23.438,36.133,72.266,53.223,0
1542905697.617,-16.602,33.691,36.621,75.684,98.633,0
1542905697.621,-16.113,34.180,39.551,62.012,69.824,0
1542905697.624,-14.160,29.785,37.109,61.523,57.617,0
1542905697.628,-16.602,25.879,41.504,67.383,75.195,0
1542905697.632,-14.160,25.391,44.922,76.172,66.406,0
1542905697.636,-19.043,30.273,45.898,77.148,48.828,0
1542905697.640,-22.949,35.645,42.969,77.148,29.785,0
1542905697.644,-17.090,34.668,41.504,72.754,64.453,0
1542905697.648,-7.812,36.621,51.270,84.473,61.523,0
1542905697.652,-4.395,31.738,48.340,93.262,41.504,0
1542905697.656,-12.695,29.785,38.574,82.520,29.297,0
1542905697.660,-12.695,35.156,42.969,72.266,30.762,0
1542905697.663,-3.418,35.156,49.805,68.359,13.184,0
1542905697.667,-9.277,31.250,48.828,71.289,19.043,0
1542905697.671,-2.930,40.039,46.387,73.730,26.367,0
1542905697.675,-11.230,38.574,49.805,85.449,52.246,0
1542905697.679,-23.926,25.391,53.223,97.168,15.137,0
1542905697.683,-14.160,29.297,49.805,83.984,1.953,0
1542905697.687,-8.789,33.691,51.758,69.824,45.410,0
1542905697.691,-5.859,35.156,54.688,77.148,16.113,0
1542905697.695,-8.789,31.738,49.316,72.266,8.789,0
1542905697.699,-8.789,29.785,45.898,64.941,87.891,0
1542905697.703,0.000,34.180,44.922,66.406,75.684,0
1542905697.706,-7.324,34.668,45.898,72.266,64.453,0
1542905697.710,-21.973,34.668,46.387,76.660,88.379,0
1542905697.714,-13.184,33.203,48.828,78.125,83.008,0
1542905697.718,2.441,36.133,46.875,89.844,77.148,0
1542905697.722,-0.977,33.203,40.527,100.586,93.262,0
1542905697.726,-17.090,34.180,41.016,91.309,87.402,0
1542905697.730,-13.184,41.504,50.781,85.938,54.688,0
1542905697.734,-4.395,35.156,48.340,79.102,41.992,0
1542905697.738,-13.184,30.273,44.434,71.777,67.871,0
1542905697.742,-4.395,36.621,53.223,83.984,93.750,0
1542905697.746,-0.977,41.504,54.688,87.402,67.871,0
1542905697.749,-7.812,36.133,46.387,88.867,82.520,0
1542905697.753,2.441,34.668,51.758,87.402,73.242,0
1542905697.757,-1.953,46.875,55.664,78.125,76.172,0
1542905697.761,-16.113,50.781,49.805,84.961,62.012,0
1542905697.765,-14.648,42.480,48.340,89.355,34.180,0
1542905697.769,1.953,42.480,53.711,76.172,49.805,0
1542905697.773,8.789,42.969,52.734,77.637,43.945,0
1542905697.777,-1.953,41.504,46.387,83.008,71.289,0
1542905697.781,-5.371,39.551,44.434,83.496,68.848,0
1542905697.785,-15.137,38.574,44.434,81.543,66.895,0
1542905697.788,-13.184,36.133,45.410,76.172,57.617,0
1542905697.792,-13.184,38.086,45.410,80.078,77.148,0
1542905697.796,-14.648,42.480,46.387,74.707,126.953,0
1542905697.800,-9.277,42.480,52.734,75.195,87.891,0
1542905697.804,-10.254,45.898,51.758,81.055,73.242,0
1542905697.808,-13.672,48.828,47.363,78.613,103.516,0
1542905697.812,-7.812,57.617,54.199,75.195,80.078,0
1542905697.816,-18.066,47.852,52.246,74.707,87.402,0
1542905697.820,-24.902,37.109,43.457,76.660,92.773,0
1542905697.824,-12.695,48.340,48.828,71.777,83.008,0
1542905697.828,-14.648,42.969,48.340,79.590,81.055,0
1542905697.831,-14.648,39.551,39.551,72.266,105.957,0
1542905697.835,-6.348,43.945,39.062,67.383,70.801,0
1542905697.839,-21.973,42.480,44.434,86.914,62.012,0
1542905697.843,-29.297,44.434,47.363,83.008,85.938,0
1542905697.847,-12.207,45.898,44.922,66.406,55.664,0
1542905697.851,-3.906,49.316,43.945,51.270,26.367,0
1542905697.855,1.953,54.688,55.176,75.195,31.738,0
1542905697.859,-2.930,48.828,49.805,73.242,52.734,0
1542905697.863,9.766,48.340,42.480,52.734,34.668,0
1542905697.867,7.812,44.434,45.898,73.730,17.578,0
1542905697.871,-1.465,42.480,52.246,84.961,30.762,0
1542905697.874,4.883,51.270,51.270,77.148,26.855,0
1542905697.878,-0.488,48.828,48.340,79.102,43.945,0
1542905697.882,11.230,49.805,51.270,84.473,95.703,0
1542905697.886,18.555,51.758,42.969,87.402,53.711,0
1542905697.890,0.488,45.410,47.852,93.750,0.488,0
1542905697.894,-5.859,50.293,57.129,96.191,25.879,0
1542905697.898,-9.766,56.152,55.176,95.703,27.344,0
1542905697.902,-3.906,58.105,55.176,89.355,43.457,0
1542905697.906,6.348,54.199,49.316,83.496,61.035,0
1542905697.910,7.812,45.898,48.340,91.309,60.547,0
1542905697.913,9.277,42.969,56.641,90.820,50.781,0
1542905697.917,9.277,41.992,58.105,98.633,64.453,0
1542905697.921,-0.488,45.898,56.641,100.586,68.848,0
1542905697.925,9.277,50.781,58.594,91.797,69.336,0
1542905697.929,14.160,50.781,58.594,96.680,81.055,0
1542905697.933,8.789,45.898,56.152,101.562,66.406,0
1542905697.937,12.207,46.387,48.340,97.168,75.195,0
1542905697.941,5.371,57.617,53.223,89.355,66.895,0
1542905697.945,-3.418,62.988,62.988,94.727,27.344,0
1542905697.949,-3.906,49.805,53.223,90.820,8.301,0
1542905697.953,13.672,45.410,49.316,83.008,6.348,0
1542905697.956,13.184,49.316,50.293,75.195,22.461,0
1542905697.960,-8.301,44.434,43.457,69.336,21.973,0
1542905697.964,-13.184,41.992,44.434,79.590,6.836,0
1542905697.968,-7.324,41.504,47.852,78.125,26.855,0
1542905697.972,-5.859,41.504,47.363,66.406,46.387,0
1542905697.976,-7.812,40.527,45.898,75.684,36.133,0
1542905697.980,-5.859,41.016,54.199,91.309,11.230,0
1542905697.984,0.000,47.363,51.758,79.590,23.438,0
1542905697.988,-9.277,40.039,40.527,60.059,37.598,0
1542905697.992,-20.020,37.109,41.016,63.477,39.551,0
1542905697.996,-25.879,36.133,40.527,67.383,52.246,0
1542905697.999,-14.648,37.109,44.922,71.289,60.547,0
1542905698.003,1.953,41.016,44.922,65.430,51.758,0
1542905698.007,-4.395,41.016,41.992,59.570,29.297,0
1542905698.011,-22.949,38.086,40.039,72.266,34.180,0
1542905698.015,-20.020,36.133,40.039,72.266,37.109,0
1542905698.019,-5.371,34.180,42.480,78.613,41.992,0
1542905698.023,-10.254,31.738,42.969,79.590,26.367,0
1542905698.027,-21.484,24.902,37.598,73.730,16.113,0
1542905698.031,-13.184,20.508,34.180,72.754,32.715,0
1542905698.035,-5.371,29.785,34.668,77.148,41.016,0
1542905698.038,-5.859,33.203,38.086,91.797,67.383,0
1542905698.042,0.488,34.180,43.457,91.797,62.988,0
1542905698.046,-2.930,40.039,41.016,72.754,40.527,0
1542905698.050,-6.836,40.039,44.434,77.637,61.035,0
1542905698.054,-4.395,35.645,49.805,87.402,76.172,0
1542905698.058,-6.348,28.809,47.363,75.684,65.918,0
1542905698.062,-1.953,32.715,46.387,72.266,59.082,0
1542905698.066,-4.883,33.203,49.316,73.242,65.430,0
1542905698.070,-3.906,28.809,58.105,83.008,98.145,0
1542905698.074,-0.488,30.762,52.246,77.148,101.562,0
1542905698.078,-9.277,36.133,45.410,71.777,82.031,0
1542905698.081,-10.254,37.598,44.434,86.426,99.609,0
1542905698.085,-3.906,39.551,47.852,79.590,108.887,0
1542905698.089,-7.324,44.922,56.641,79.590,71.289,0
1542905698.093,-12.695,42.969,58.594,77.637,46.387,0
1542905698.097,2.930,39.551,43.945,90.820,73.242,0
1542905698.101,18.555,39.551,30.762,121.094,49.805,0
1542905698.105,-2.441,37.598,43.457,91.309,32.227,0
1542905698.109,-35.156,30.762,52.246,51.758,68.359,0
1542905698.113,-30.273,28.320,46.387,58.594,41.016,0
1542905698.117,-5.859,29.297,42.969,70.801,-2.930,0
1542905698.121,-11.719,27.832,51.270,78.125,-23.438,0
1542905698.124,-22.949,31.250,56.152,86.914,2.441,0
1542905698.128,-20.996,44.434,57.129,90.820,67.383,0
1542905698.132,-20.020,49.316,50.781,83.984,16.113,0
1542905698.136,-21.484,39.551,39.551,63.965,-18.066,0
1542905698.140,-25.879,35.645,38.574,59.082,-15.137,0
1542905698.144,-23.438,39.551,40.039,60.059,0.000,0
1542905698.148,-12.695,40.527,42.480,63.965,29.297,0
1542905698.152,-16.113,39.062,42.480,68.848,5.371,0
1542905698.156,-16.113,36.621,39.062,74.707,17.578,0
1542905698.160,-7.324,40.527,41.992,75.195,24.414,0
1542905698.163,-6.348,50.293,46.387,62.012,15.137,0
1542905698.167,-5.859,42.480,43.457,65.918,8.789,0
1542905698.171,-6.348,31.738,39.062,72.266,-12.207,0
1542905698.175,-5.859,42.480,44.922,77.637,-2.441,0
1542905698.179,-9.277,45.410,43.457,76.172,17.090,0
1542905698.183,-18.555,38.574,33.691,70.312,13.184,0
1542905698.187,-13.672,38.574,42.480,66.406,-27.344,0
1542905698.191,-1.953,46.387,49.805,68.848,-20.508,0
1542905698.195,-3.906,41.504,36.621,72.754,14.160,0
1542905698.199,-18.066,37.109,35.156,63.965,9.766,0
1542905698.203,-16.602,38.086,47.363,65.918,55.176,0
1542905698.206,-18.066,32.715,41.504,69.824,78.613,0
1542905698.210,-24.414,36.621,40.039,67.871,10.254,0
1542905698.214,-17.578,35.645,44.922,70.312,10.742,0
1542905698.218,-11.230,31.738,41.016,72.754,37.598,0
1542905698.222,0.000,44.922,44.922,83.008,40.039,0
1542905698.226,-10.254,44.434,44.434,74.707,17.090,0
1542905698.230,-18.555,34.668,36.133,60.059,22.949,0
1542905698.234,-19.531,35.156,35.156,48.340,2.930,0
1542905698.238,-18.066,34.180,40.039,46.875,-49.805,0
1542905698.242,-9.277,36.133,45.410,73.730,4.395,0
1542905698.246,-10.254,43.457,46.875,79.590,6.348,0
1542905698.249,-17.090,35.156,44.922,70.312,13.184,0
1542905698.253,-16.602,34.180,45.410,72.266,32.227,0
1542905698.257,-14.648,37.109,43.945,70.801,15.625,0
1542905698.261,-12.695,37.109,43.945,75.684,15.137,0
1542905698.265,-13.672,35.645,43.945,69.336,9.766,0
1542905698.269,-18.066,38.086,40.527,54.688,35.156,0
1542905698.273,-19.531,40.039,41.992,65.918,9.277,0
1542905698.277,-19.531,41.016,45.410,67.871,-51.758,0
1542905698.281,-19.531,36.621,40.039,56.152,-10.742,0
1542905698.285,-23.438,27.344,37.598,56.152,45.410,0
1542905698.288,-18.066,34.180,33.691,58.105,71.289,0
1542905698.292,-20.996,41.504,32.227,64.453,57.129,0
1542905698.296,-28.320,37.598,37.109,67.383,22.461,0
1542905698.300,-30.762,27.832,33.203,66.895,11.719,0
1542905698.304,-41.016,27.344,32.227,60.059,-21.484,0
1542905698.308,-45.410,26.367,36.621,56.152,-33.691,0
1542905698.312,-35.645,34.180,39.062,66.895,-7.324,0
1542905698.316,-26.855,36.133,35.645,63.477,5.371,0
1542905698.320,-20.996,32.715,33.203,68.848,-56.641,0
1542905698.324,-14.160,43.945,42.480,77.148,-67.871,0
1542905698.328,-20.020,37.109,41.504,72.754,-21.484,0
1542905698.331,-17.090,30.273,34.180,67.383,-27.832,0
1542905698.335,-20.508,38.574,38.086,61.523,-4.395,0
1542905698.339,-24.902,40.039,41.992,74.707,-4.883,0
1542905698.343,-20.508,35.156,43.457,78.613,-1.465,0
1542905698.347,-18.066,27.344,39.551,60.059,81.055,0
1542905698.351,-20.020,31.738,40.527,72.266,77.148,0
1542905698.355,-28.320,35.156,42.969,75.195,85.449,0
1542905698.359,-17.090,33.691,42.969,63.965,74.707,0
1542905698.363,-4.883,38.574,45.898,70.801,-32.227,0
1542905698.367,-7.812,36.133,46.875,75.684,-34.180,0
1542905698.371,-10.254,39.062,53.223,81.543,11.230,0
1542905698.374,-20.020,41.016,47.852,83.008,42.480,0
1542905698.378,-19.531,41.504,42.480,85.449,46.387,0
1542905698.382,-10.742,41.992,47.852,79.590,46.387,0
1542905698.386,-8.789,43.457,50.293,79.102,36.621,0
1542905698.390,-3.906,45.898,46.875,76.172,4.883,0
1542905698.394,-1.953,38.086,47.852,64.941,38.086,0
1542905698.398,1.465,46.387,51.758,72.754,18.555,0
1542905698.402,-5.371,43.457,49.805,70.801,29.297,0
1542905698.406,-10.742,40.039,50.781,79.102,60.059,0
1542905698.410,1.953,49.316,50.781,83.984,41.992,0
1542905698.413,-0.977,42.969,47.363,73.730,41.992,0
1542905698.417,-2.441,41.016,50.293,80.078,56.152,0
1542905698.421,1.465,45.898,54.688,87.402,33.691,0
1542905698.425,0.977,47.363,48.340,88.867,-14.648,0
1542905698.429,1.953,47.852,43.457,80.078,-13.672,0
1542905698.433,-5.859,47.363,50.781,73.730,6.836,0
1542905698.437,-8.789,40.039,48.828,65.918,16.113,0
1542905698.441,-14.160,37.109,41.016,72.266,1.465,0
1542905698.445,-10.742,35.156,40.527,73.242,-9.766,0
1542905698.449,-9.277,32.227,40.527,63.965,-7.324,0
1542905698.453,-9.766,33.691,33.691,63.965,-45.410,0
1542905698.456,-7.324,34.668,33.691,63.477,0.977,0
1542905698.460,-14.648,31.250,35.645,67.383,79.102,0
1542905698.464,-20.020,27.832,37.109,63.477,17.090,0
1542905698.468,-18.066,29.785,36.133,66.406,1.465,0
1542905698.472,-14.160,30.762,35.156,74.219,12.695,0
1542905698.476,-0.488,34.668,29.297,71.289,11.230,0
1542905698.480,15.137,31.738,24.414,84.961,18.066,0
1542905698.484,-3.418,30.762,38.086,79.590,17.090,0
1542905698.488,-30.273,34.668,44.434,55.176,58.105,0
1542905698.492,-32.715,26.367,41.504,56.152,62.012,0
1542905698.496,-20.020,20.508,43.945,71.289,31.250,0
1542905698.499,-2.441,21.484,45.410,80.566,61.035,0
1542905698.503,-9.766,20.508,35.156,74.219,51.758,0
1542905698.507,-24.902,23.926,28.320,65.918,51.270,0
1542905698.511,-18.555,31.738,30.762,65.430,20.508,0
1542905698.515,-19.043,34.180,29.297,72.266,32.715,0
1542905698.519,-23.438,32.715,32.227,79.102,83.008,0
1542905698.523,-20.996,25.391,34.668,73.730,89.355,0
1542905698.527,-21.484,19.531,35.156,69.336,22.461,0
1542905698.531,-18.555,23.438,36.133,68.359,-45.410,0
1542905698.535,-12.207,28.320,41.016,57.129,32.227,0
1542905698.538,-4.395,34.668,47.852,72.266,93.262,0
1542905698.542,-5.371,42.480,43.945,78.613,68.848,0
1542905698.546,-15.625,40.039,35.645,66.895,60.059,0
1542905698.550,-22.461,36.621,40.039,58.105,69.824,0
1542905698.554,-20.996,34.668,38.574,70.312,36.621,0
1542905698.558,-15.625,29.785,39.062,93.750,7.812,0
1542905698.562,-7.812,36.133,43.945,78.613,12.695,0
1542905698.566,-10.254,43.457,44.434,58.105,17.090,0
1542905698.570,-15.137,37.598,41.504,65.918,35.156,0
1542905698.574,-18.555,40.527,41.016,70.312,53.711,0
1542905698.578,-18.066,41.016,44.434,70.801,28.320,0
1542905698.581,-5.859,41.504,45.898,70.801,-9.277,0
1542905698.585,-3.906,46.387,43.945,70.312,35.156,0
1542905698.589,-15.137,44.922,44.922,62.012,96.191,0
1542905698.593,-24.902,43.945,48.340,59.082,80.566,0
1542905698.597,-16.602,40.039,47.852,62.988,58.105,0
1542905698.601,-18.555,41.992,49.805,53.711,46.875,0
1542905698.605,-22.461,48.828,45.898,51.758,51.270,0
1542905698.609,-16.602,40.527,40.039,59.082,60.059,0
1542905698.613,-11.719,42.480,46.875,56.152,68.848,0
1542905698.617,-14.160,48.340,46.387,55.176,90.820,0
1542905698.621,-16.602,43.457,47.363,73.730,96.680,0
1542905698.624,-19.531,44.922,52.246,65.430,123.047,0
1542905698.628,-30.762,47.363,47.852,51.270,150.879,0
1542905698.632,-26.367,42.969,41.016,61.523,153.320,0
1542905698.636,-15.137,41.992,43.457,59.570,163.086,0
1542905698.640,-17.090,41.504,41.992,47.852,187.500,0
1542905698.644,-30.762,35.645,40.039,55.664,206.055,0
1542905698.648,-38.086,34.180,46.387,53.711,176.270,0
1542905698.652,-38.574,36.133,41.992,49.316,182.617,0
1542905698.656,-28.320,36.621,36.133,53.711,191.406,0
1542905698.660,-21.484,39.551,34.668,46.875,189.941,0
1542905698.663,-20.020,42.969,39.062,53.223,198.730,0
1542905698.667,-23.926,41.992,41.992,64.453,184.570,0
1542905698.671,-29.297,37.598,44.922,62.500,194.336,0
1542905698.675,-19.043,39.551,45.410,67.383,202.637,0
1542905698.679,-12.695,47.363,47.363,69.336,174.805,0
1542905698.683,-20.508,43.457,45.898,61.035,183.594,0
1542905698.687,-17.578,39.062,39.062,66.406,216.797,0
1542905698.691,-12.695,43.945,40.527,69.824,169.434,0
1542905698.695,-15.625,36.621,44.434,59.082,164.062,0
1542905698.699,-24.414,38.086,43.945,57.129,194.336,0
1542905698.703,-24.414,46.387,46.875,57.617,146.484,0
1542905698.706,-25.879,44.922,47.852,69.336,130.859,0
1542905698.710,-33.203,41.504,43.457,75.195,154.785,0
1542905698.714,-16.602,41.016,41.992,67.383,146.484,0
1542905698.718,-13.184,37.109,42.969,62.012,136.230,0
1542905698.722,-21.973,34.668,43.945,63.965,109.863,0
1542905698.726,-3.906,41.992,41.504,66.895,75.195,0
1542905698.730,-5.859,50.781,44.922,68.359,63.965,0
1542905698.734,-21.484,41.992,43.945,67.383,69.824,0
1542905698.738,-15.137,37.109,35.156,80.078,41.992,0
1542905698.742,-10.742,41.016,40.039,90.820,37.598,0
1542905698.746,-19.043,37.598,44.434,82.031,29.297,0
1542905698.749,-15.137,37.598,43.457,77.637,-30.273,0
1542905698.753,-21.973,28.320,33.691,59.570,-83.008,0
1542905698.757,-35.156,23.438,25.879,50.293,-94.727,0
1542905698.761,-22.461,33.203,30.273,67.383,-129.883,0
1542905698.765,-17.578,37.598,35.156,66.895,-137.207,0
1542905698.769,-18.555,37.109,35.156,63.965,-91.309,0
1542905698.773,-18.066,43.945,36.133,81.055,-126.953,0
1542905698.777,-8.301,40.039,36.133,77.637,-138.184,0
1542905698.781,-2.441,31.738,23.438,62.500,-96.680,0
1542905698.785,-5.371,27.832,19.531,55.176,-126.465,0
1542905698.788,-12.695,32.715,36.133,62.988,-107.422,0
1542905698.792,-16.113,34.668,36.133,73.242,-69.336,0
1542905698.796,-11.230,29.785,27.832,72.754,-82.031,0
1542905698.800,-13.184,26.855,29.785,79.102,-30.273,0
1542905698.804,-11.230,22.461,27.832,86.914,-49.805,0
1542905698.808,-9.277,25.391,30.762,82.031,-61.523,0
1542905698.812,-13.672,33.203,32.227,73.730,-40.527,0
1542905698.816,-8.301,39.551,33.203,59.082,-49.316,0
1542905698.820,-7.812,36.621,30.273,54.688,-37.109,0
1542905698.824,-13.184,29.297,25.879,72.754,-13.184,0
1542905698.828,-18.066,25.879,30.762,69.336,8.301,0
1542905698.831,-21.973,29.297,34.668,63.477,9.766,0
1542905698.835,-27.832,24.902,32.715,58.594,-20.508,0
1542905698.839,-33.691,17.090,33.691,65.430,-70.801,0
1542905698.843,-35.156,18.555,32.715,58.594,-48.340,0
1542905698.847,-31.250,17.578,35.645,59.082,-53.223,0
1542905698.851,-25.879,19.531,41.016,77.637,-64.941,0
1542905698.855,-29.785,22.949,40.527,54.688,-28.320,0
1542905698.859,-13.672,12.695,35.645,65.918,-14.160,0
1542905698.863,13.184,4.395,45.898,97.656,-40.039,0
1542905698.867,-10.742,20.508,48.340,67.871,-32.715,0
1542905698.871,-32.715,29.297,34.180,35.156,-2.441,0
1542905698.874,-10.254,27.344,28.809,54.688,-12.695,0
1542905698.878,0.000,21.484,33.691,64.453,10.742,0
1542905698.882,-18.555,13.672,42.480,54.199,33.203,0
1542905698.886,-23.438,14.160,38.574,62.988,14.160,0
1542905698.890,-13.672,9.277,40.527,74.219,-28.320,0
1542905698.894,-7.812,5.371,31.250,75.195,-68.359,0
1542905698.898,8.789,0.977,33.691,77.637,-25.879,0
1542905698.902,26.855,8.301,38.574,92.285,9.766,0
1542905698.906,27.344,19.043,29.785,104.004,32.227,0
1542905698.910,9.277,9.766,36.621,84.473,12.207,0
1542905698.913,13.184,4.395,41.016,91.797,-4.395,0
1542905698.917,36.621,11.230,37.109,113.281,22.949,0
1542905698.921,41.016,16.113,35.645,114.258,0.488,0
1542905698.925,37.598,4.883,30.273,111.328,-45.410,0
1542905698.929,39.551,4.395,33.203,115.723,-8.301,0
1542905698.933,41.992,3.906,35.156,115.234,98.633,0
1542905698.937,48.340,-4.883,30.762,122.070,116.211,0
1542905698.941,53.223,-1.465,30.762,121.094,37.109,0
1542905698.945,35.645,-3.418,34.180,107.422,29.297,0
1542905698.949,25.879,-2.441,34.180,114.746,71.289,0
1542905698.953,34.668,7.324,28.320,117.676,35.156,0
1542905698.956,38.086,11.719,33.691,110.840,38.574,0
1542905698.960,28.320,5.859,48.340,106.445,38.574,0
1542905698.964,32.715,3.418,45.410,119.141,-9.766,0
1542905698.968,47.852,10.254,34.668,125.488,-22.949,0
1542905698.972,39.062,22.949,39.062,104.492,-11.230,0
1542905698.976,29.785,32.715,42.480,100.586,31.738,0
1542905698.980,32.715,23.438,42.969,104.980,58.105,0
1542905698.984,33.691,22.461,42.969,105.957,11.719,0
1542905698.988,22.949,27.832,44.434,94.238,-16.113,0
1542905698.992,14.648,28.320,55.664,90.332,25.879,0
1542905698.996,12.695,35.645,53.711,96.191,55.176,0
1542905698.999,16.113,36.133,48.340,86.426,28.809,0
1542905699.003,13.184,39.062,51.270,77.637,10.254,0
1542905699.007,0.488,41.992,52.246,95.215,14.160,0
1542905699.011,-2.441,39.062,51.758,96.680,-9.766,0
1542905699.015,-3.418,44.922,46.387,63.965,-17.578,0
1542905699.019,-3.418,43.945,50.293,61.523,-0.488,0
1542905699.023,-6.836,41.992,57.617,67.871,50.293,0
1542905699.027,-7.324,48.828,51.758,63.965,72.266,0
1542905699.031,8.301,49.316,56.152,61.035,69.336,0
1542905699.035,15.137,53.223,64.941,65.430,75.195,0
1542905699.038,-6.836,57.129,56.152,65.918,10.742,0
1542905699.042,-20.508,49.805,47.852,57.617,-7.812,0
1542905699.046,-7.812,45.898,53.223,54.199,45.898,0
1542905699.050,-9.277,46.875,58.594,56.641,58.594,0
1542905699.054,-28.320,45.410,60.547,52.734,-0.488,0
1542905699.058,-20.508,48.828,59.570,53.711,38.086,0
1542905699.062,-5.371,48.828,52.246,69.824,44.922,0
1542905699.066,-1.465,47.363,52.734,57.129,-11.719,0
1542905699.070,-15.137,46.387,53.711,52.246,11.719,0
1542905699.074,-20.508,47.363,46.875,59.570,36.621,0
1542905699.078,-8.789,50.293,46.387,41.504,67.383,0
1542905699.081,-1.465,47.852,49.805,41.504,71.777,0
1542905699.085,6.836,46.875,53.711,49.316,-3.418,0
1542905699.089,-3.906,47.363,49.805,41.992,7.324,0
1542905699.093,-38.574,39.062,40.039,48.340,30.762,0
1542905699.097,-46.387,33.203,34.180,52.246,-1.953,0
1542905699.101,-29.785,29.785,32.227,53.223,28.809,0
1542905699.105,-33.691,22.949,36.133,45.410,44.434,0
1542905699.109,-39.551,19.531,34.180,46.387,49.316,0
1542905699.113,-26.855,21.484,31.250,47.363,34.180,0
1542905699.117,-21.973,19.531,28.809,44.434,70.312,0
1542905699.121,-18.066,18.555,29.785,60.059,74.707,0
1542905699.124,-14.160,20.020,36.621,63.965,47.852,0
1542905699.128,-20.996,12.695,32.227,64.453,44.434,0
1542905699.132,-17.090,13.184,27.832,76.660,84.473,0
1542905699.136,-10.254,19.531,27.832,74.219,70.312,0
1542905699.140,-11.230,20.020,23.926,73.242,8.301,0
1542905699.144,-12.695,18.066,25.879,68.359,9.277,0
1542905699.148,-10.254,19.043,28.809,61.523,11.719,0
1542905699.152,-2.441,24.902,23.438,58.594,13.672,0
1542905699.156,-9.277,27.344,19.043,49.805,-3.906,0
1542905699.160,-6.836,31.738,23.926,70.312,11.719,0
1542905699.163,4.395,37.109,27.832,84.961,5.859,0
1542905699.167,-2.441,30.762,30.762,63.477,49.805,0
1542905699.171,-1.953,30.273,30.273,63.477,82.031,0
1542905699.175,0.000,29.785,29.297,77.637,82.031,0
1542905699.179,0.000,26.367,30.762,67.383,62.012,0
1542905699.183,5.859,31.250,29.297,65.430,43.457,0
1542905699.187,0.488,34.668,35.156,75.684,83.984,0
1542905699.191,-2.930,35.645,34.668,77.637,96.191,0
1542905699.195,-8.789,29.785,25.391,64.941,84.473,0
1542905699.199,-10.742,25.879,24.902,62.012,43.945,0
1542905699.203,-0.488,36.133,33.691,68.359,27.832,0
1542905699.206,1.465,41.504,35.645,75.684,62.012,0
1542905699.210,-1.465,43.457,30.762,73.730,67.383,0
1542905699.214,-2.930,47.363,29.297,66.406,42.969,0
1542905699.218,-1.465,40.039,33.691,72.754,83.984,0
1542905699.222,-3.418,36.133,35.156,84.473,94.238,0
1542905699.226,0.000,42.969,34.668,73.730,85.449,0
1542905699.230,3.418,41.992,31.738,60.547,98.145,0
1542905699.234,-3.906,40.527,26.367,62.500,80.566,0
1542905699.238,-5.371,44.922,28.809,67.871,63.477,0
1542905699.242,-4.395,46.875,32.715,77.148,42.969,0
1542905699.246,-5.371,42.969,37.598,72.754,62.012,0
1542905699.249,-0.488,41.992,42.480,66.895,38.574,0
1542905699.253,1.953,47.363,40.527,74.219,38.574,0
1542905699.257,-3.418,48.340,35.645,75.684,58.105,0
1542905699.261,1.465,43.945,39.062,75.195,19.531,0
1542905699.265,11.230,53.711,42.969,81.055,0.977,0
1542905699.269,2.441,60.547,43.457,71.289,68.848,0
1542905699.273,-6.836,58.594,45.898,72.266,110.840,0
1542905699.277,-5.859,58.105,40.527,81.543,112.793,0
1542905699.281,0.488,54.688,33.691,65.918,81.055,0
1542905699.285,-4.395,57.129,36.621,56.152,115.234,0
1542905699.288,-8.789,58.105,36.133,55.664,141.113,0
1542905699.292,-8.789,55.664,33.203,52.246,108.398,0
1542905699.296,-18.555,49.316,41.504,55.664,133.301,0
1542905699.300,-17.578,53.223,45.898,63.477,172.852,0
1542905699.304,-9.277,57.617,39.062,60.059,156.250,0
1542905699.308,-17.578,47.363,35.645,53.711,132.324,0
1542905699.312,-23.438,46.875,37.598,50.781,147.949,0
1542905699.316,-21.484,49.805,38.574,48.340,166.016,0
1542905699.320,-20.508,48.340,38.574,49.805,160.156,0
1542905699.324,-16.113,44.922,38.086,61.035,156.738,0
1542905699.328,4.883,30.273,47.852,91.797,170.410,0
1542905699.331,22.949,43.457,37.598,100.098,189.941,0
1542905699.335,-8.789,62.012,22.461,53.223,193.848,0
1542905699.339,-39.062,64.453,26.367,26.367,208.984,0
1542905699.343,-37.109,59.570,21.973,30.762,216.309,0
1542905699.347,-28.320,59.570,19.531,43.457,200.684,0
1542905699.351,-35.156,81.055,11.230,21.973,181.152,0
1542905699.355,-49.805,82.520,0.488,4.395,181.152,0
1542905699.359,-54.199,76.172,1.953,15.625,202.148,0
1542905699.363,-61.523,75.684,1.465,-5.371,221.680,0
1542905699.367,-67.871,81.543,-8.789,-22.461,207.031,0
1542905699.371,-71.289,85.449,-16.113,-28.809,213.379,0
1542905699.374,-70.801,89.844,-6.348,-27.832,249.023,0
1542905699.378,-86.426,94.238,-1.465,-39.551,225.586,0
1542905699.382,-84.473,94.238,-5.371,-34.668,215.820,0
1542905699.386,-79.102,97.656,-15.137,-25.391,222.656,0
1542905699.390,-90.332,90.820,-13.672,-44.434,219.238,0
1542905699.394,-80.078,88.867,1.953,-29.297,237.305,0
1542905699.398,-62.012,92.285,0.488,-7.812,228.516,0
1542905699.402,-43.945,89.355,0.488,3.418,216.309,0
1542905699.406,-36.621,83.984,2.441,23.438,212.891,0
1542905699.410,-34.180,81.543,0.977,32.227,191.895,0
1542905699.413,-23.438,76.660,0.488,27.344,143.555,0
1542905699.417,-13.672,74.219,5.859,50.781,147.949,0
1542905699.421,-11.719,74.219,10.254,68.848,172.852,0
1542905699.425,-15.137,70.801,5.859,57.617,136.230,0
1542905699.429,-15.137,66.895,11.230,59.570,87.891,0
1542905699.433,-15.137,58.105,15.137,71.289,93.750,0
1542905699.437,-8.789,60.547,13.184,81.543,96.680,0
1542905699.441,0.488,62.012,14.648,69.824,30.273,0
1542905699.445,-5.371,51.758,17.090,60.547,-6.836,0
1542905699.449,-1.953,51.758,20.020,67.871,-0.488,0
1542905699.453,3.906,53.223,23.438,73.242,-43.945,0
1542905699.456,6.348,62.012,22.949,76.660,-63.965,0
1542905699.460,5.371,62.500,21.973,76.660,-17.090,0
1542905699.464,1.465,54.688,23.438,81.543,5.859,0
1542905699.468,6.348,56.152,25.391,83.984,-17.090,0
1542905699.472,3.418,58.105,30.762,83.984,-26.367,0
1542905699.476,3.418,54.199,33.691,81.543,-12.207,0
1542905699.480,6.836,56.152,33.203,84.961,-20.996,0
1542905699.484,10.742,54.688,31.738,91.797,-76.172,0
1542905699.488,11.230,49.805,27.832,89.355,-117.188,0
1542905699.492,9.766,47.852,30.762,86.914,-84.961,0
1542905699.496,6.836,51.270,36.621,79.590,-39.062,0
1542905699.499,0.488,51.758,37.109,76.172,-21.973,0
1542905699.503,9.277,54.199,43.457,86.914,-66.406,0
1542905699.507,11.719,57.129,43.457,76.172,-69.336,0
1542905699.511,7.812,53.223,33.691,70.312,-42.480,0
1542905699.515,10.254,52.246,32.715,78.613,-64.453,0
1542905699.519,20.020,58.105,35.156,82.520,-70.801,0
1542905699.523,20.996,58.105,37.598,81.055,-53.711,0
1542905699.527,11.230,50.781,40.039,80.078,-80.566,0
1542905699.531,9.277,49.805,43.457,86.914,-112.793,0
1542905699.535,4.883,49.805,41.992,94.238,-104.980,0
1542905699.538,8.789,46.875,47.852,101.562,-102.051,0
1542905699.542,11.719,52.246,55.176,112.305,-104.004,0
1542905699.546,13.672,61.523,48.828,106.445,-129.395,0
1542905699.550,20.996,56.641,46.387,94.727,-123.535,0
1542905699.554,28.809,55.664,55.176,101.562,-94.727,0
1542905699.558,20.996,56.641,59.570,102.539,-116.699,0
1542905699.562,9.766,57.617,59.570,96.191,-120.117,0
1542905699.566,16.113,63.965,54.199,80.566,-90.820,0
1542905699.570,13.672,57.617,48.340,79.102,-97.168,0
1542905699.574,8.301,50.293,48.340,84.961,-118.164,0
1542905699.578,11.719,46.875,46.387,86.914,-121.094,0
1542905699.581,9.766,44.434,52.734,95.703,-96.680,0
1542905699.585,10.254,49.805,54.199,87.891,-104.980,0
1542905699.589,8.789,57.617,45.898,85.449,-93.262,0
1542905699.593,5.371,60.547,51.270,92.285,-8.789,0
1542905699.597,3.906,50.781,54.688,83.984,10.254,0
1542905699.601,0.977,46.875,53.711,83.984,-78.613,0
1542905699.605,-1.465,48.340,52.246,87.402,-109.863,0
1542905699.609,0.488,41.016,52.246,79.102,-57.617,0
1542905699.613,-1.465,42.480,51.270,76.660,-10.742,0
1542905699.617,-4.395,48.340,46.875,69.336,-28.320,0
1542905699.621,13.672,49.805,37.109,80.078,-8.789,0
1542905699.624,33.691,50.293,38.086,111.816,51.270,0
1542905699.628,4.883,51.758,65.430,90.820,25.391,0
1542905699.632,-18.555,47.852,74.707,64.453,10.254,0
1542905699.636,-2.930,37.109,70.312,81.055,0.000,0
1542905699.640,-0.977,32.227,63.477,79.590,20.508,0
1542905699.644,-2.441,32.715,65.430,78.613,36.133,0
1542905699.648,-1.953,31.250,75.195,88.867,29.785,0
1542905699.652,2.441,32.715,72.266,89.844,89.844,0
1542905699.656,11.719,33.691,69.824,89.844,122.070,0
1542905699.660,10.742,35.645,64.453,83.984,132.812,0
1542905699.663,-0.977,39.551,60.059,73.242,163.086,0
1542905699.667,3.906,39.062,64.941,82.520,199.219,0
1542905699.671,7.812,34.668,65.918,92.285,257.324,0
1542905699.675,-4.395,31.738,58.594,82.031,291.992,0
1542905699.679,-5.371,37.109,52.734,80.566,323.730,0
1542905699.683,3.906,35.645,59.570,77.148,351.562,0
1542905699.687,6.836,38.574,64.453,79.102,389.160,0
1542905699.691,10.254,45.410,59.082,75.684,439.941,0
1542905699.695,5.859,39.062,58.105,70.312,453.613,0
1542905699.699,4.883,44.434,61.035,81.055,446.777,0
1542905699.703,8.301,46.875,58.105,84.961,464.844,0
1542905699.706,4.883,44.434,55.664,87.891,448.242,0
1542905699.710,-2.930,45.410,53.223,83.984,441.406,0
1542905699.714,-6.836,35.156,51.270,87.402,462.891,0
1542905699.718,-1.465,38.086,53.223,84.473,495.117,0
1542905699.722,5.859,45.410,47.852,70.312,518.066,0
1542905699.726,6.836,42.969,47.363,71.777,521.484,0
1542905699.730,-4.883,41.504,49.316,67.871,544.922,0
1542905699.734,-4.395,34.180,38.574,60.547,562.012,0
1542905699.738,37.109,34.180,21.973,98.633,510.254,0
1542905699.742,42.480,35.156,34.668,114.258,497.559,0
1542905699.746,-3.906,28.320,57.129,76.660,505.859,0
1542905699.749,-17.090,14.160,57.129,69.336,495.117,0
1542905699.753,7.324,-1.953,50.781,87.402,521.484,0
1542905699.757,19.043,-5.859,53.711,110.352,522.461,0
1542905699.761,6.836,-16.113,61.035,111.328,472.656,0
1542905699.765,17.578,-25.391,52.246,110.840,456.543,0
1542905699.769,37.598,-23.926,41.992,119.141,434.082,0
1542905699.773,29.785,-22.461,46.875,112.305,401.367,0
1542905699.777,15.625,-28.809,60.059,115.723,428.711,0
1542905699.781,25.879,-30.762,65.918,141.113,441.895,0
1542905699.785,38.574,-20.508,66.895,141.602,405.762,0
1542905699.788,26.855,-14.648,64.453,127.441,351.074,0
1542905699.792,23.926,-11.230,61.523,130.859,339.844,0
1542905699.796,33.203,-5.859,61.035,128.418,338.867,0
1542905699.800,33.203,-4.395,60.547,123.047,323.730,0
1542905699.804,14.160,-3.906,60.547,122.070,301.270,0
1542905699.808,6.348,-0.977,60.059,130.859,308.105,0
1542905699.812,17.578,1.465,62.500,130.859,324.707,0
1542905699.816,20.020,2.441,58.105,112.793,280.273,0
1542905699.820,14.648,2.930,56.641,108.398,260.254,0
1542905699.824,6.836,5.859,61.035,112.305,250.000,0
1542905699.828,5.371,12.695,60.059,115.723,224.121,0
1542905699.831,12.695,17.578,59.082,115.723,173.340,0
1542905699.835,12.695,15.625,59.082,103.027,120.605,0
1542905699.839,7.812,13.184,60.059,96.191,88.867,0
1542905699.843,5.859,14.160,59.082,87.891,81.055,0
1542905699.847,12.695,19.043,53.711,91.309,68.359,0
1542905699.851,14.648,20.508,57.617,102.539,26.855,0
1542905699.855,6.348,18.555,61.035,97.656,20.996,0
1542905699.859,0.977,27.344,54.688,86.426,-5.859,0
1542905699.863,0.000,34.668,58.105,85.938,-41.504,0
1542905699.867,-7.324,34.668,61.523,91.797,-30.762,0
1542905699.871,-6.836,34.668,55.176,82.520,-41.992,0
1542905699.874,2.441,38.086,60.547,85.938,-67.383,0
1542905699.878,0.488,38.574,59.082,82.520,-76.660,0
1542905699.882,0.977,33.203,49.805,72.266,-100.098,0
1542905699.886,7.324,29.297,50.781,77.148,-162.598,0
1542905699.890,5.371,36.133,56.152,84.473,-173.828,0
1542905699.894,-5.371,40.039,56.152,80.566,-171.875,0
1542905699.898,-6.836,37.109,49.316,75.684,-214.844,0
1542905699.902,-0.977,32.715,53.711,69.824,-257.812,0
1542905699.906,-1.953,37.109,61.523,73.242,-289.551,0
1542905699.910,-1.953,38.574,60.059,87.891,-294.434,0
1542905699.913,3.418,44.922,59.570,92.285,-285.156,0
1542905699.917,4.395,49.805,54.688,74.707,-316.406,0
1542905699.921,-3.906,39.551,50.293,61.035,-380.371,0
1542905699.925,-3.906,39.551,51.758,67.871,-389.160,0
1542905699.929,0.977,47.363,52.734,71.777,-413.574,0
1542905699.933,-5.371,40.527,49.805,64.941,-458.984,0
1542905699.937,-5.859,43.457,47.852,61.523,-484.863,0
1542905699.941,-0.488,50.781,50.781,61.035,-519.043,0
1542905699.945,-0.977,41.016,50.293,67.383,-576.660,0
1542905699.949,-0.977,38.574,52.246,70.312,-602.051,0
1542905699.953,8.301,48.828,54.688,67.383,-559.570,0
1542905699.956,-0.488,51.758,52.246,75.195,-605.957,0
1542905699.960,-15.137,42.480,51.270,72.754,-611.328,0
1542905699.964,9.277,44.434,42.480,74.219,-535.645,0
1542905699.968,30.273,51.270,43.945,96.191,-485.352,0
1542905699.972,9.277,52.734,62.012,89.355,-442.871,0
1542905699.976,-14.160,41.992,68.848,63.477,-479.492,0
1542905699.980,-22.461,24.414,62.988,59.570,-455.566,0
1542905699.984,-13.672,20.020,54.199,68.848,-395.996,0
1542905699.988,-6.348,20.020,56.152,69.336,-376.465,0
1542905699.992,-8.301,21.973,62.988,69.824,-339.355,0
1542905699.996,-11.230,30.273,54.199,65.430,-312.012,0
1542905699.999,-18.555,31.250,48.828,65.918,-284.668,0
1542905700.003,-19.043,27.832,45.410,69.336,-258.789,0
1542905700.007,-22.461,23.438,39.062,63.477,-208.008,0
1542905700.011,-21.973,19.531,42.969,61.035,-182.129,0
1542905700.015,-13.184,26.855,41.504,63.477,-208.008,0
1542905700.019,-12.695,28.809,38.086,63.965,-195.312,0
1542905700.023,-16.113,24.414,40.039,67.871,-188.965,0
1542905700.027,-18.555,20.996,42.969,70.312,-182.617,0
1542905700.031,-19.043,25.391,41.992,65.430,-161.621,0
1542905700.035,-20.020,31.250,42.480,67.871,-195.312,0
1542905700.038,-17.090,31.738,40.527,73.242,-150.879,0
1542905700.042,-16.602,33.691,35.645,64.941,-111.328,0
1542905700.046,-17.578,32.715,42.969,62.012,-119.141,0
1542905700.050,-16.113,36.621,48.340,75.684,-90.332,0
1542905700.054,-13.184,31.250,48.828,89.355,-77.148,0
1542905700.058,-12.207,31.250,46.875,83.008,-75.684,0
1542905700.062,-16.113,33.691,44.434,66.406,-73.730,0
1542905700.066,-13.184,29.785,42.480,64.941,-48.340,0
1542905700.070,-7.812,28.809,39.062,67.871,-99.121,0
1542905700.074,-9.766,31.738,39.062,69.824,-107.422,0
1542905700.078,-9.766,39.062,41.016,78.125,-74.707,0
1542905700.081,-6.836,37.598,45.410,80.566,-58.105,0
1542905700.085,1.465,42.480,50.293,81.055,-23.438,0
1542905700.089,-4.883,44.922,47.363,82.520,3.418,0
1542905700.093,-8.789,39.551,40.039,72.266,-18.066,0
1542905700.097,-0.488,35.645,37.109,69.336,-9.277,0
1542905700.101,-0.977,31.738,38.086,78.125,36.133,0
1542905700.105,-8.301,37.109,37.109,77.148,37.109,0
1542905700.109,-10.254,42.969,38.086,74.219,11.719,0
1542905700.113,-8.301,39.062,40.039,79.102,-26.855,0
1542905700.117,-1.953,39.551,38.574,84.473,-47.363,0
1542905700.121,3.906,44.434,41.992,81.543,-0.977,0
1542905700.124,0.488,44.434,46.387,81.543,36.621,0
1542905700.128,-4.395,36.133,50.293,85.449,14.648,0
1542905700.132,-13.184,33.203,48.828,82.520,-19.043,0
1542905700.136,-6.836,40.527,43.457,78.125,-6.348,0
1542905700.140,0.977,42.969,46.875,89.355,38.574,0
1542905700.144,-5.371,36.621,43.945,85.938,28.809,0
1542905700.148,5.859,37.109,33.203,80.566,22.461,0
1542905700.152,10.742,41.504,34.180,88.379,15.625,0
1542905700.156,5.859,43.945,41.504,82.031,23.438,0
1542905700.160,14.648,39.551,41.016,76.660,21.973,0
1542905700.163,-8.789,36.621,41.504,71.777,20.020,0
1542905700.167,9.277,20.996,51.270,112.305,30.762,0
1542905700.171,71.777,31.250,41.992,169.922,37.598,0
1542905700.175,31.250,72.266,23.926,111.816,42.480,0
1542905700.179,-32.227,77.148,30.762,38.086,61.523,0
1542905700.183,-47.852,70.312,36.133,25.879,48.828,0
1542905700.187,-69.824,71.777,29.297,4.395,7.812,0
1542905700.191,-85.449,88.867,23.926,-13.672,39.062,0
1542905700.195,-120.117,100.586,15.137,-55.664,73.242,0
1542905700.199,-143.066,93.750,13.672,-88.379,67.871,0
1542905700.203,-148.926,101.074,13.184,-100.098,35.645,0
1542905700.206,-172.363,112.305,7.324,-108.887,48.828,0
1542905700.210,-184.570,118.652,1.465,-115.723,66.406,0
1542905700.214,-176.270,123.047,-5.371,-136.719,42.480,0
1542905700.218,-166.992,117.676,-10.742,-134.277,45.898,0
1542905700.222,-167.969,111.816,-14.160,-122.070,32.227,0
1542905700.226,-156.738,110.840,-11.719,-105.469,41.992,0
1542905700.230,-154.785,119.629,-10.742,-104.980,52.246,0
1542905700.234,-151.367,119.629,-10.742,-92.773,23.438,0
1542905700.238,-125.977,111.816,-8.301,-64.941,0.488,0
1542905700.242,-116.211,109.863,-4.395,-62.012,14.160,0
1542905700.246,-99.609,108.887,-5.371,-29.297,14.160,0
1542905700.249,-75.684,96.680,-6.348,2.441,40.039,0
1542905700.253,-59.570,90.820,-0.977,1.953,23.926,0
1542905700.257,-51.758,86.914,1.465,7.324,-35.156,0
1542905700.261,-40.039,84.473,2.441,17.578,-60.547,0
1542905700.265,-31.250,88.867,3.418,35.156,-34.668,0
1542905700.269,-34.180,76.172,-3.418,39.551,8.789,0
1542905700.273,-25.879,74.707,2.930,47.852,42.969,0
1542905700.277,-17.578,78.125,14.648,59.570,51.270,0
1542905700.281,-18.066,74.219,14.648,52.246,35.645,0
1542905700.285,-13.672,72.266,14.648,60.059,46.875,0
1542905700.288,0.977,66.895,10.742,62.500,54.199,0
1542905700.292,11.719,65.430,9.766,70.312,26.367,0
1542905700.296,0.488,72.266,12.695,69.336,51.270,0
1542905700.300,-15.625,69.336,17.090,68.359,65.918,0
1542905700.304,-11.230,68.359,18.555,85.938,37.598,0
1542905700.308,-6.836,75.195,17.090,82.031,23.926,0
1542905700.312,-7.324,66.895,15.137,68.359,13.184,0
1542905700.316,-1.953,58.594,13.672,79.590,31.738,0
1542905700.320,6.348,63.477,20.508,88.867,73.730,0
1542905700.324,3.418,69.824,31.250,90.332,42.969,0
1542905700.328,2.930,71.289,35.156,89.355,5.859,0
1542905700.331,6.836,63.477,25.879,78.125,53.223,0
1542905700.335,7.812,59.570,21.484,75.684,104.004,0
1542905700.339,9.277,56.152,24.902,81.543,56.641,0
1542905700.343,11.230,60.059,28.809,78.613,30.762,0
1542905700.347,11.719,67.871,25.879,78.125,34.668,0
1542905700.351,10.742,62.012,23.438,75.195,41.016,0
1542905700.355,7.812,56.152,25.391,88.379,37.109,0
1542905700.359,10.254,62.500,22.949,98.145,27.344,0
1542905700.363,5.859,66.406,31.250,86.426,21.973,0
1542905700.367,4.395,65.430,38.086,81.055,13.672,0
1542905700.371,15.137,57.129,32.715,81.055,61.035,0
1542905700.374,17.090,53.711,33.203,92.285,47.363,0
1542905700.378,9.766,56.641,40.527,96.191,59.082,0
1542905700.382,6.836,58.105,41.016,89.844,49.805,0
1542905700.386,5.859,62.500,40.039,92.773,29.297,0
1542905700.390,-4.883,55.664,37.598,82.520,68.848,0
1542905700.394,-20.508,51.270,36.621,70.312,88.379,0
1542905700.398,-13.184,53.223,37.109,70.801,87.402,0
1542905700.402,1.465,51.270,35.156,72.266,62.500,0
1542905700.406,6.836,50.781,36.133,79.590,49.805,0
1542905700.410,2.930,53.223,38.574,89.355,67.383,0
1542905700.413,-0.488,51.758,44.434,89.844,98.633,0
1542905700.417,1.953,47.852,51.270,81.543,53.223,0
1542905700.421,-4.395,53.223,55.664,81.055,32.715,0
1542905700.425,3.906,57.129,41.016,92.285,45.410,0
1542905700.429,31.250,49.805,31.738,116.211,38.086,0
1542905700.433,8.789,46.875,53.223,97.168,20.020,0
1542905700.437,-27.344,46.387,52.734,69.336,28.320,0
1542905700.441,-9.766,41.016,48.340,92.773,28.320,0
1542905700.445,-12.207,37.109,48.828,83.984,51.270,0
1542905700.449,-16.602,35.645,33.691,61.523,6.836,0
1542905700.453,0.977,39.062,35.156,64.941,4.883,0
1542905700.456,-3.906,41.992,42.969,72.266,26.367,0
1542905700.460,-5.859,41.992,44.434,78.613,-10.742,0
1542905700.464,7.812,45.410,47.852,87.891,5.371,0
1542905700.468,4.883,42.480,46.387,87.402,-9.277,0
1542905700.472,0.977,43.945,44.922,85.449,3.418,0
1542905700.476,-8.301,40.527,45.410,83.008,57.129,0
1542905700.480,-9.766,38.574,45.410,83.496,62.988,0
1542905700.484,7.324,45.410,42.969,93.750,33.203,0
1542905700.488,5.371,40.039,38.086,89.355,-17.090,0
1542905700.492,-0.488,36.133,39.062,77.637,9.766,0
1542905700.496,1.953,35.156,41.992,73.730,62.500,0
1542905700.499,-1.465,33.203,40.039,76.172,50.293,0
1542905700.503,-6.348,33.691,38.574,83.984,-1.953,0
1542905700.507,-3.906,38.574,35.156,79.102,-9.277,0
1542905700.511,0.977,38.086,28.809,74.219,51.758,0
1542905700.515,8.789,33.203,31.738,77.148,115.234,0
1542905700.519,9.766,41.992,38.086,86.426,99.609,0
1542905700.523,5.859,46.387,39.062,95.215,31.738,0
1542905700.527,2.441,38.086,34.668,89.844,31.250,0
1542905700.531,-4.395,34.668,36.133,86.914,26.855,0
1542905700.535,-6.348,36.133,41.016,83.008,2.441,0
1542905700.538,-4.395,38.574,38.574,72.266,-43.945,0
1542905700.542,-5.371,35.645,31.738,67.383,-51.758,0
1542905700.546,-16.602,26.367,27.344,65.430,44.434,0
1542905700.550,-12.207,25.391,26.855,67.383,71.777,0
1542905700.554,-8.301,31.250,25.391,63.965,101.562,0
1542905700.558,-14.648,28.809,22.949,64.453,97.168,0
1542905700.562,-14.160,32.715,30.273,77.148,43.945,0
1542905700.566,-4.883,41.016,35.156,72.754,70.312,0
1542905700.570,-5.371,37.109,32.715,65.918,85.938,0
1542905700.574,-8.301,30.273,32.715,62.500,49.316,0
1542905700.578,-8.301,29.785,33.691,68.359,3.418,0
1542905700.581,-10.742,34.668,37.109,78.125,74.219,0
1542905700.585,-12.695,33.691,35.156,67.383,79.102,0
1542905700.589,-13.184,31.250,25.391,61.523,11.719,0
1542905700.593,-12.695,29.297,26.855,68.848,-34.180,0
1542905700.597,-14.160,30.273,32.227,73.242,-38.574,0
1542905700.601,-17.578,34.180,29.785,80.078,14.648,0
1542905700.605,-10.254,34.668,28.320,69.336,-16.113,0
1542905700.609,-2.930,35.156,31.738,64.453,8.789,0
1542905700.613,-9.766,32.227,35.645,71.777,37.109,0
1542905700.617,-13.672,31.738,37.109,82.031,0.977,0
1542905700.621,-5.859,38.574,38.574,93.262,17.090,0
1542905700.624,-7.324,37.598,37.109,80.566,-6.348,0
1542905700.628,-8.789,36.621,34.668,70.312,-13.672,0
1542905700.632,-10.254,41.016,32.227,68.848,-19.043,0
1542905700.636,-7.324,50.781,32.715,68.848,-27.344,0
1542905700.640,-1.465,49.316,30.762,73.730,3.418,0
1542905700.644,0.000,38.574,25.391,79.102,-4.395,0
1542905700.648,-0.977,36.621,25.879,79.102,12.695,0
1542905700.652,-9.766,35.645,26.855,68.848,44.434,0
1542905700.656,-13.672,35.156,27.344,65.918,18.555,0
1542905700.660,-14.160,36.133,30.762,69.824,64.941,0
1542905700.663,0.977,44.922,38.574,72.754,61.035,0
1542905700.667,6.348,48.340,41.992,70.801,36.621,0
1542905700.671,-3.418,39.551,44.434,80.566,69.336,0
1542905700.675,0.488,44.434,40.527,94.727,42.969,0
1542905700.679,-6.836,49.316,36.621,76.660,24.414,0
1542905700.683,4.883,36.621,45.898,89.355,-3.418,0
1542905700.687,34.668,37.109,50.781,124.512,2.930,0
1542905700.691,11.719,62.500,44.922,92.773,35.156,0
1542905700.695,-5.859,74.219,42.480,65.430,11.230,0
1542905700.699,10.742,69.824,45.898,73.730,16.113,0
1542905700.703,19.531,76.172,49.805,77.637,33.203,0
1542905700.706,20.996,68.359,46.875,84.961,23.438,0
1542905700.710,16.113,61.523,41.504,102.539,58.594,0
1542905700.714,13.184,65.430,42.480,114.258,28.320,0
1542905700.718,14.648,57.617,42.969,94.238,17.578,0
1542905700.722,21.484,56.641,44.434,84.473,23.926,0
1542905700.726,17.090,58.105,44.434,91.797,-9.277,0
1542905700.730,7.324,59.570,39.551,80.078,64.453,0
1542905700.734,-1.953,59.570,39.062,67.871,61.523,0
1542905700.738,-9.277,56.152,43.457,75.684,9.277,0
1542905700.742,19.531,58.105,40.039,83.008,19.043,0
1542905700.746,13.184,56.641,36.621,93.262,37.598,0
1542905700.749,5.371,59.082,46.387,104.980,18.066,0
1542905700.753,19.043,62.500,44.922,95.215,0.488,0
1542905700.757,-10.742,62.500,38.086,80.078,0.488,0
1542905700.761,-3.418,63.477,39.062,79.590,29.785,0
1542905700.765,17.578,54.199,35.645,82.031,67.871,0
1542905700.769,-14.648,47.363,33.203,80.566,65.918,0
1542905700.773,-25.391,48.828,31.250,78.613,57.617,0
1542905700.777,-11.719,43.945,28.809,49.316,60.547,0
1542905700.781,-6.348,40.039,34.668,48.828,84.961,0
1542905700.785,-22.949,41.992,33.203,66.895,58.105,0
1542905700.788,-33.691,42.480,30.762,47.852,44.434,0
1542905700.792,-7.812,42.969,32.227,54.688,32.715,0
1542905700.796,-8.301,43.945,21.484,51.270,6.348,0
1542905700.800,-3.418,36.621,16.113,52.246,-38.574,0
1542905700.804,-1.465,33.203,22.949,80.078,-32.227,0
1542905700.808,-29.297,34.668,31.250,77.148,21.484,0
1542905700.812,-22.949,38.574,31.250,46.387,67.383,0
1542905700.816,-19.043,45.410,30.273,51.270,3.906,0
1542905700.820,-46.875,41.016,32.227,50.781,-7.812,0
1542905700.824,-41.016,23.438,16.602,44.434,21.973,0
1542905700.828,-2.441,22.949,19.043,83.984,8.789,0
1542905700.831,-28.320,37.109,39.551,60.547,7.812,0
1542905700.835,-41.016,34.668,29.297,47.363,-8.301,0
1542905700.839,-12.695,19.043,8.789,62.988,-11.230,0
1542905700.843,-13.184,4.883,9.277,54.199,2.441,0
1542905700.847,4.395,-1.465,16.113,67.871,-28.809,0
1542905700.851,15.137,0.488,17.578,94.238,-88.867,0
1542905700.855,11.719,2.441,12.207,112.305,-72.266,0
1542905700.859,35.156,6.836,4.883,135.254,-29.297,0
1542905700.863,48.828,9.766,9.766,134.277,6.836,0
1542905700.867,37.598,6.348,20.996,112.793,14.160,0
1542905700.871,41.504,2.930,27.832,124.512,17.578,0
1542905700.874,43.457,2.930,27.832,136.719,12.695,0
1542905700.878,43.945,12.695,28.809,139.648,-33.203,0
1542905700.882,59.082,24.902,29.785,128.418,-2.441,0
1542905700.886,45.898,25.391,30.762,111.328,30.762,0
1542905700.890,35.156,26.367,36.621,136.719,-16.113,0
1542905700.894,44.922,31.738,42.480,143.555,18.555,0
1542905700.898,31.250,30.762,40.039,104.004,39.062,0
1542905700.902,27.344,33.691,34.180,88.867,17.578,0
1542905700.906,35.645,35.156,39.551,107.910,-11.230,0
1542905700.910,31.250,28.809,48.340,112.305,-1.465,0
1542905700.913,32.715,30.762,42.969,124.512,31.738,0
1542905700.917,32.227,35.645,36.621,132.812,6.836,0
1542905700.921,14.160,31.250,42.969,125.000,-38.574,0
1542905700.925,10.742,28.320,44.922,117.676,3.418,0
1542905700.929,45.410,33.203,40.039,122.559,20.020,0
1542905700.933,55.664,35.645,43.945,137.207,15.137,0
1542905700.937,41.504,37.109,41.016,119.629,38.086,0
1542905700.941,36.133,41.016,38.086,142.090,0.977,0
1542905700.945,52.734,44.434,43.457,145.996,-3.418,0
1542905700.949,32.227,43.945,48.340,76.172,14.160,0
1542905700.953,-4.883,38.086,55.664,58.105,-41.504,0
1542905700.956,2.441,37.109,57.617,79.102,-35.156,0
1542905700.960,30.762,44.434,49.805,100.098,29.297,0
1542905700.964,4.883,44.922,49.316,119.141,56.152,0
1542905700.968,8.301,49.805,44.434,170.898,91.309,0
1542905700.972,45.898,53.711,47.363,188.477,109.863,0
1542905700.976,5.859,47.852,57.129,136.230,67.871,0
1542905700.980,-12.207,50.781,52.246,57.617,57.617,0
1542905700.984,13.672,52.734,49.316,53.223,107.422,0
1542905700.988,-6.836,48.340,50.293,65.430,103.516,0
1542905700.992,-17.578,46.875,51.270,52.734,76.660,0
1542905700.996,-21.484,43.945,50.293,77.148,86.914,0
1542905700.999,-19.043,39.551,47.852,80.078,98.633,0
1542905701.003,-24.414,39.551,38.574,34.668,49.805,0
1542905701.007,-44.434,38.086,35.156,42.480,41.992,0
1542905701.011,-33.691,32.227,45.410,79.102,55.176,0
1542905701.015,-20.020,40.527,41.992,104.004,49.805,0
1542905701.019,-18.555,47.363,35.156,93.750,31.250,0
1542905701.023,-15.137,43.945,39.062,67.383,13.184,0
1542905701.027,-36.133,45.898,40.527,90.820,59.570,0
1542905701.031,-40.527,45.898,36.621,103.027,42.480,0
1542905701.035,7.324,38.086,46.387,103.516,51.270,0
1542905701.038,-15.625,41.016,48.828,113.770,40.527,0
1542905701.042,-41.016,46.875,40.039,68.848,47.363,0
1542905701.046,-33.691,49.316,37.598,36.621,123.047,0
1542905701.050,-43.945,48.340,39.551,31.250,95.703,0
1542905701.054,-23.438,45.410,37.598,51.270,152.344,0
1542905701.058,-12.207,41.992,39.551,53.223,162.109,0
1542905701.062,-23.926,33.203,48.828,76.172,82.520,0
1542905701.066,-34.180,39.551,45.410,105.957,55.664,0
1542905701.070,-42.969,46.387,39.062,67.383,52.734,0
1542905701.074,-45.410,41.504,40.527,28.809,63.965,0
1542905701.078,-16.113,44.922,33.203,103.516,61.035,0
1542905701.081,16.113,42.969,33.691,71.777,46.387,0
1542905701.085,-24.414,41.016,33.691,1.953,21.484,0
1542905701.089,-68.359,41.992,36.621,-3.418,1.953,0
1542905701.093,-37.109,40.527,42.969,6.348,27.344,0
1542905701.097,-6.348,41.992,34.668,84.473,55.176,0
1542905701.101,-6.348,37.109,33.691,121.582,63.965,0
1542905701.105,-21.484,21.973,36.621,85.938,59.570,0
1542905701.109,-49.316,21.973,33.203,65.430,110.352,0
1542905701.113,-38.086,31.250,26.855,74.219,130.859,0
1542905701.117,-26.855,33.203,29.785,50.781,77.637,0
1542905701.121,-32.227,32.715,31.738,66.895,93.750,0
1542905701.124,-26.367,27.832,26.367,86.914,83.496,0
1542905701.128,-16.602,26.367,23.926,99.609,25.879,0
1542905701.132,-43.457,23.438,28.320,90.332,44.434,0
1542905701.136,-14.648,18.555,18.066,83.496,46.387,0
1542905701.140,44.434,28.320,19.043,125.000,104.004,0
1542905701.144,-16.113,35.156,41.504,90.820,75.684,0
1542905701.148,-84.473,31.738,30.762,20.996,77.637,0
1542905701.152,-112.305,34.668,16.113,-18.555,87.402,0
1542905701.156,-127.441,28.320,33.691,-35.156,51.270,0
1542905701.160,-139.648,23.926,44.922,-47.852,82.520,0
1542905701.163,-165.039,28.320,46.875,-56.152,29.297,0
1542905701.167,-181.152,27.832,46.875,-62.012,44.434,0
1542905701.171,-172.363,31.738,45.898,-66.895,105.469,0
1542905701.175,-192.383,32.715,45.410,-70.312,66.406,0
1542905701.179,-198.730,31.738,42.969,-82.520,38.086,0
1542905701.183,-165.039,41.992,44.922,-85.449,71.777,0
1542905701.187,-186.523,44.434,40.527,-92.773,53.711,0
1542905701.191,-186.523,34.180,29.297,-81.055,68.359,0
1542905701.195,-167.969,43.945,20.020,-68.848,81.055,0
1542905701.199,-171.875,51.758,14.160,-90.332,85.449,0
1542905701.203,-145.020,44.922,19.043,-47.363,128.418,0
