timestamps,TP9,AF7,AF8,TP10,Right AUX,Marker0
14051.147,-30.762,-21.484,16.602,-54.688,21.973,0
14051.151,37.598,-18.555,16.602,-10.742,-35.645,0
14051.155,194.336,-11.230,9.766,189.453,-74.707,0
14051.159,149.902,-9.766,10.742,164.062,-30.273,0
14051.162,1.465,-18.555,18.555,-41.992,-66.895,0
14051.166,15.625,-17.090,16.113,-39.062,-7.324,0
14051.170,165.039,0.977,-5.371,143.555,102.539,0
14051.174,191.406,-2.441,0.000,182.129,102.051,0
14051.178,35.156,-20.020,24.414,3.418,70.312,0
14051.182,-23.926,-12.695,16.602,-99.121,35.156,0
14051.186,131.836,-8.789,-6.348,91.797,-29.785,0
14051.190,199.707,-4.395,-8.301,211.426,-63.965,0
14051.194,69.824,-20.020,21.973,45.898,22.949,0
14051.198,-23.438,-27.832,21.484,-93.750,27.832,0
14051.202,86.426,-18.555,0.488,20.996,2.930,0
14051.205,191.406,-17.090,-6.836,180.176,44.922,0
14051.209,96.191,-9.766,-4.883,90.332,-5.371,0
14051.213,-40.039,-13.672,10.254,-80.078,9.277,0
14051.217,17.090,-26.855,7.812,-16.113,66.895,0
14051.221,144.531,2.441,-11.230,126.953,59.082,0
14051.225,121.582,2.441,5.859,132.812,13.184,0
14051.229,-33.203,-21.973,11.719,-34.180,-17.090,0
14051.233,-13.672,-27.832,2.441,-64.941,30.273,0
14051.237,160.645,-19.531,0.000,109.863,29.297,0
14051.241,200.195,-4.395,-1.953,186.523,-14.160,0
14051.244,70.312,-12.207,-0.977,37.109,-29.785,0
14051.248,-7.324,-9.277,-0.488,-69.336,21.484,0
14051.252,135.742,-5.371,1.465,111.816,41.992,0
14051.256,226.562,-1.465,-15.137,225.098,19.531,0
14051.260,103.027,-4.883,-1.953,84.961,21.484,0
14051.264,-3.906,-17.090,16.113,-42.969,17.090,0
14051.268,104.980,-9.277,-7.812,72.266,20.996,0
14051.272,230.957,-0.488,-16.113,233.398,-1.953,0
14051.276,161.621,-15.625,6.348,181.152,-45.898,0
14051.280,11.230,-22.949,14.160,5.371,-24.414,0
14051.284,36.133,-5.371,-8.301,4.883,18.555,0
14051.287,179.688,5.371,-20.508,190.430,41.504,0
14051.291,185.059,0.000,-9.277,216.309,56.152,0
14051.295,59.570,-7.324,12.695,25.879,18.555,0
14051.299,32.227,-2.930,2.930,-13.672,-12.207,0
14051.303,159.180,6.836,-16.113,172.363,34.180,0
14051.307,212.402,-0.977,-7.812,249.023,42.480,0
14051.311,56.641,-15.137,9.277,83.984,3.418,0
14051.315,-13.184,-27.832,13.184,-24.414,5.859,0
14051.319,118.164,-16.602,-4.395,113.281,13.672,0
14051.323,199.707,8.301,-20.020,215.820,-9.766,0
14051.327,112.793,4.883,-16.113,105.469,-62.500,0
14051.330,-20.508,-1.465,-6.836,-55.176,-35.156,0
14051.334,38.086,-4.395,-9.277,35.156,36.621,0
14051.338,161.133,6.836,-16.113,214.355,42.480,0
14051.342,119.629,4.883,-5.859,171.387,19.531,0
14051.346,-20.020,-13.672,8.301,-5.859,-6.348,0
14051.350,1.953,-7.324,-2.441,-13.672,2.930,0
14051.354,166.016,-11.230,-5.859,202.637,45.410,0
14051.358,180.176,-15.137,-2.441,230.469,26.367,0
14051.362,12.695,-8.789,6.348,-12.695,0.977,0
14051.366,-41.016,-10.254,4.395,-72.754,8.789,0
14051.369,121.582,0.977,-13.672,119.141,25.879,1
14051.373,209.473,-2.930,-10.742,227.051,63.477,0
14051.377,78.613,-14.160,1.953,80.078,40.527,0
14051.381,-28.809,-13.672,8.789,-60.547,17.090,0
14051.385,90.332,-9.277,-3.418,71.777,21.973,0
14051.389,196.777,0.000,-15.625,221.191,-7.812,0
14051.393,111.816,-10.742,3.418,141.602,5.371,0
14051.397,-29.297,-20.996,20.996,-48.828,-7.812,0
14051.401,18.066,-11.719,4.395,11.230,12.207,0
14051.405,173.340,0.000,-10.254,221.191,40.527,0
14051.409,145.508,-1.953,-0.488,179.688,-9.766,0
14051.412,-4.395,-19.531,14.160,-15.625,-52.734,0
14051.416,3.418,-21.973,15.625,-20.508,-38.086,0
14051.420,138.184,-4.395,-8.789,149.414,-14.160,0
14051.424,163.086,0.000,-10.254,186.035,0.000,0
14051.428,28.809,-6.348,14.160,17.090,0.977,0
14051.432,-39.062,-4.883,12.207,-66.406,18.555,0
14051.436,99.609,-1.953,-5.859,91.797,14.648,0
14051.440,174.316,-2.441,-5.859,196.289,41.992,0
14051.444,51.758,-12.695,9.277,40.527,47.852,0
14051.448,-41.992,-20.996,12.207,-104.492,49.805,0
14051.452,50.293,-15.625,0.000,15.625,16.602,0
14051.455,165.039,-13.672,-0.977,172.363,-11.719,0
14051.459,93.262,-13.184,4.395,82.031,2.441,0
14051.463,-61.523,-15.625,10.254,-106.934,13.184,0
14051.467,-12.207,-14.160,7.324,-43.457,65.918,0
14051.471,143.555,-10.742,-1.953,162.109,38.574,0
14051.475,127.930,-19.531,9.277,145.996,1.953,0
14051.479,-24.902,-21.973,20.508,-50.781,18.555,0
14051.483,-41.992,-24.414,18.066,-78.613,64.453,0
14051.487,118.164,-16.113,9.766,112.305,40.039,0
14051.491,139.648,2.930,8.301,161.133,0.000,0
14051.494,-0.488,-25.879,23.438,-0.977,-20.508,0
14051.498,-42.480,-41.992,25.391,-93.750,7.324,0
14051.502,90.332,-11.230,5.371,41.504,46.875,0
14051.506,186.523,-6.836,0.977,176.270,0.000,0
14051.510,67.383,-19.043,9.766,57.617,-33.203,0
14051.514,-34.668,-24.902,19.043,-81.055,36.133,0
14051.518,79.102,-12.695,7.812,13.672,68.359,0
14051.522,201.172,-10.742,-3.906,172.852,2.441,0
14051.526,141.113,-15.137,5.859,126.953,-11.719,0
14051.530,4.883,-17.090,18.555,-55.664,-3.906,0
14051.534,41.016,-17.578,16.602,-32.715,-1.465,0
14051.537,182.617,-7.812,7.324,164.062,66.895,0
14051.541,180.176,-9.277,10.742,166.992,31.250,0
14051.545,32.715,-19.043,24.902,-15.625,-28.320,0
14051.549,3.906,-17.578,17.578,-73.730,-26.855,0
14051.553,168.457,-11.230,0.977,111.328,4.395,0
14051.557,209.473,-22.461,5.371,207.031,29.785,0
14051.561,65.918,-14.648,14.160,40.039,-31.738,0
14051.565,-8.301,-6.348,14.648,-75.195,-20.020,0
14051.569,114.746,-17.578,5.859,77.148,0.488,0
14051.573,195.801,-12.695,5.371,228.027,36.621,0
14051.577,95.703,-18.555,19.043,99.121,5.371,0
14051.580,-9.277,-20.020,25.879,-85.938,-32.227,0
14051.584,62.500,-24.414,10.742,-12.207,-17.578,0
14051.588,200.195,-27.832,0.977,159.180,26.367,0
14051.592,156.738,-13.672,11.230,124.512,45.898,0
14051.596,20.996,-18.066,21.484,-56.152,32.227,0
14051.600,20.020,-15.625,6.348,-79.590,31.250,0
14051.604,150.391,-5.371,-11.230,123.047,52.246,0
14051.608,180.664,-12.207,-1.465,193.359,63.477,0
14051.612,35.645,-11.230,15.137,-10.254,36.133,0
14051.616,0.488,-26.855,25.391,-78.125,-24.902,0
14051.619,153.809,-31.250,6.348,120.117,-32.227,0
14051.623,189.453,-11.230,-7.324,198.242,18.066,0
14051.627,69.824,-13.672,10.742,32.715,38.086,0
14051.631,-9.277,-16.602,25.879,-78.125,20.996,0
14051.635,104.980,-32.227,19.043,62.988,-0.977,0
14051.639,217.773,-18.555,1.953,206.543,7.324,0
14051.643,139.160,-13.672,10.254,120.117,-18.555,0
14051.647,-3.906,-12.207,20.508,-47.363,1.953,0
14051.651,63.965,5.859,12.207,39.551,4.395,0
14051.655,227.539,-18.555,13.672,225.586,-39.551,0
14051.659,185.059,-36.133,29.785,167.480,-25.391,0
14051.662,27.832,-36.133,33.691,-50.781,3.418,0
14051.666,32.227,-29.785,18.555,-56.152,-37.109,0
14051.670,190.430,-18.066,13.184,164.551,-39.551,0
14051.674,201.172,-21.973,21.484,201.172,18.555,0
14051.678,78.613,-33.691,30.762,39.551,2.441,0
14051.682,16.602,-2.930,15.625,-46.875,-16.602,0
14051.686,107.422,1.953,11.719,79.102,50.781,0
14051.690,206.055,-20.996,-10.742,195.312,14.160,0
14051.694,119.141,-43.945,16.113,20.020,-32.715,0
14051.698,-4.883,-48.340,38.574,-54.199,-27.832,0
14051.702,110.352,-32.715,3.906,138.184,-22.949,0
14051.705,264.648,-25.391,-3.906,130.371,-13.672,0
14051.709,156.738,-31.738,-0.488,39.062,17.090,0
14051.713,4.883,-75.684,23.438,-195.801,13.184,0
14051.717,82.520,-62.012,14.648,-263.672,-12.207,0
14051.721,234.375,-26.367,1.465,-138.184,-0.977,0
14051.725,185.059,-14.648,8.789,-196.777,-15.137,0
14051.729,49.805,-12.695,17.578,-406.250,-4.395,0
14051.733,53.711,-53.711,22.949,-436.523,-20.020,0
14051.737,186.035,-53.223,-2.441,-258.789,-44.434,0
14051.741,235.840,-42.969,9.277,-166.016,-6.348,0
14051.744,79.590,-44.922,28.320,-248.047,49.805,0
14051.748,-16.113,-34.180,19.531,-374.512,20.508,0
14051.752,110.840,-20.996,11.230,-206.543,10.742,0
14051.756,231.445,-32.715,-5.371,8.789,64.453,0
14051.760,133.789,-33.691,12.207,-90.820,74.707,0
14051.764,14.160,-46.387,36.621,-234.375,23.926,0
14051.768,112.305,-33.203,16.602,-127.930,26.367,0
14051.772,231.934,-1.953,0.977,26.367,63.477,0
14051.776,159.668,-15.137,16.113,-24.414,30.273,0
14051.780,2.441,-27.832,20.020,-188.477,35.645,0
14051.784,48.828,-26.855,7.324,-193.359,81.055,0
14051.787,197.266,-12.207,4.395,20.996,57.129,0
14051.791,162.109,-27.344,29.297,85.449,-6.836,0
14051.795,63.477,-43.457,32.227,-89.355,-30.762,0
14051.799,56.641,-24.414,15.625,-112.793,-8.789,0
14051.803,161.133,-10.254,6.836,67.383,13.184,0
14051.807,202.637,-10.742,-11.230,183.594,36.621,0
14051.811,78.125,-15.137,8.789,42.969,-9.766,0
14051.815,-4.883,-20.508,19.043,-88.867,-33.691,0
14051.819,100.586,-5.859,5.371,8.301,-19.043,0
14051.823,222.656,-2.441,-0.488,163.086,-12.207,0
14051.827,123.535,-20.996,25.391,125.000,-5.371,0
14051.830,-39.062,-38.574,36.133,-34.180,0.488,0
14051.834,60.547,-18.555,2.930,-0.488,53.711,0
14051.838,204.102,8.301,-5.859,183.594,65.430,0
14051.842,155.762,-4.883,9.277,176.758,16.113,0
14051.846,1.953,-12.207,19.043,-1.465,20.508,0
14051.850,1.465,-12.695,10.742,13.672,14.160,0
14051.854,163.086,-10.254,0.000,186.035,36.133,0
14051.858,173.340,-5.859,2.930,208.984,21.484,0
14051.862,15.137,-16.602,18.066,18.555,5.859,0
14051.866,-37.598,-11.719,4.883,-33.691,28.320,0
14051.869,115.234,-17.578,16.113,153.809,-3.418,0
14051.873,211.426,-21.973,27.832,251.465,-16.602,0
14051.877,72.754,-26.367,44.434,108.398,-6.348,0
14051.881,-63.965,-15.137,38.086,-29.785,22.949,0
14051.885,54.688,4.395,-9.766,104.980,37.109,0
14051.889,171.387,6.836,-13.184,204.590,49.316,0
14051.893,102.539,-0.977,18.555,104.492,21.484,0
14051.897,9.277,-10.742,6.836,-19.043,-45.410,0
14051.901,20.020,-14.160,3.906,40.039,-15.137,0
14051.905,160.645,-8.301,13.184,251.465,23.926,0
14051.909,172.363,-3.418,6.348,255.371,-16.602,0
14051.912,33.203,-20.508,23.438,59.570,-49.805,0
14051.916,21.973,-20.996,31.738,50.293,-52.734,0
14051.920,162.598,-9.277,-3.418,224.609,2.441,0
14051.924,222.656,-2.441,-19.531,285.156,44.922,0
14051.928,83.496,-8.301,8.789,126.465,46.387,0
14051.932,2.930,-29.297,19.531,39.062,13.672,0
14051.936,140.625,-20.020,14.648,107.910,-6.836,0
14051.940,208.984,-5.371,8.301,213.379,-57.617,0
14051.944,101.562,-24.414,18.066,179.199,-57.617,0
14051.948,14.648,-22.949,7.812,31.250,11.719,0
14051.952,101.562,-15.137,4.395,127.441,6.348,0
14051.955,208.496,-13.184,1.953,284.180,-19.531,0
14051.959,132.812,-15.137,-11.230,204.590,-33.203,0
14051.963,-14.160,-29.785,17.090,28.809,-12.207,0
14051.967,8.301,-20.508,9.766,64.941,9.766,0
14051.971,156.738,-5.859,-14.648,224.609,35.156,0
14051.975,163.086,-20.996,-3.418,255.371,39.551,0
14051.979,6.348,-28.809,15.625,121.582,56.641,0
14051.983,-4.395,-11.230,7.812,26.367,44.922,0
14051.987,165.527,-8.789,2.441,194.824,-2.930,0
14051.991,195.312,-2.930,-6.348,314.453,-28.809,0
14051.994,49.805,-9.277,1.953,142.578,6.348,0
14051.998,-32.227,-17.090,11.719,11.719,17.090,0
14052.002,86.426,2.441,-3.906,177.734,21.484,0
14052.006,200.195,1.953,-4.883,300.293,50.781,0
14052.010,112.305,-14.648,12.207,183.594,19.043,0
14052.014,-26.855,-24.902,39.062,11.230,-6.836,0
14052.018,53.711,-18.555,15.137,76.172,31.250,0
14052.022,194.824,0.000,-18.066,272.949,11.719,0
14052.026,145.020,-7.812,-5.859,238.281,-32.227,0
14052.030,5.371,-17.578,5.371,65.918,-1.465,0
14052.034,26.855,-21.973,12.695,70.801,15.137,0
14052.037,168.945,-12.695,2.441,256.348,68.848,0
14052.041,169.434,-3.418,-2.930,276.367,65.918,0
14052.045,29.297,-14.160,15.137,97.168,-14.648,0
14052.049,-5.859,-15.137,13.672,51.270,-62.988,0
14052.053,137.207,-6.836,7.324,208.984,-57.617,0
14052.057,205.566,-3.418,-0.977,294.922,-17.578,0
14052.061,75.684,-5.371,4.883,128.906,-15.137,0
14052.065,-5.859,-6.348,15.625,13.184,27.832,2
14052.069,103.027,2.930,5.371,156.738,34.180,0
14052.073,193.359,10.254,-3.906,281.738,41.016,0
14052.077,110.840,-7.812,12.695,192.383,51.758,0
14052.080,-22.461,-11.230,17.090,16.113,35.156,0
14052.084,38.574,0.488,5.371,84.961,38.086,0
14052.088,180.664,6.836,-3.418,291.016,16.602,0
14052.092,135.742,-0.488,7.324,250.488,15.625,0
14052.096,-22.461,-11.719,17.090,43.945,34.668,0
14052.100,-8.789,-6.348,1.953,38.086,49.805,0
14052.104,153.320,0.977,-10.742,234.375,55.176,0
14052.108,162.598,-0.488,-1.953,267.578,23.926,0
14052.112,14.160,-6.836,11.719,67.871,-44.922,0
14052.116,-8.789,-16.602,13.184,3.906,-13.184,0
14052.119,130.859,-5.371,0.977,186.035,51.758,0
14052.123,186.523,9.766,-5.371,278.320,53.711,0
14052.127,62.988,-4.883,8.301,142.578,-12.207,0
14052.131,-44.922,-12.207,12.695,4.395,-45.410,0
14052.135,61.523,-1.465,0.488,119.141,26.367,0
14052.139,164.062,3.906,-6.836,267.578,22.949,0
14052.143,90.820,-2.441,7.324,189.453,8.789,0
14052.147,-36.133,-12.695,21.484,20.508,-11.230,0
14052.151,8.789,-7.324,9.766,73.730,-29.785,0
14052.155,163.086,1.465,-0.488,263.184,5.371,0
14052.159,132.324,-0.488,3.418,237.305,67.871,0
14052.162,-15.625,-6.348,12.695,32.227,17.578,0
14052.166,-11.719,-4.883,10.254,16.602,-37.109,0
14052.170,127.441,6.348,-6.348,208.008,33.691,0
14052.174,162.109,-0.488,1.953,252.930,2.930,0
14052.178,22.461,-6.836,13.672,78.613,-56.641,0
14052.182,-36.133,0.000,9.766,-13.184,26.855,0
14052.186,96.191,3.906,0.488,152.344,24.902,0
14052.190,155.762,6.836,-6.836,261.719,-16.602,0
14052.194,52.246,-7.324,8.301,124.512,5.371,0
14052.198,-31.250,-18.066,14.648,-19.531,-27.832,0
14052.202,53.223,-1.953,-3.906,68.359,33.203,0
14052.205,176.758,2.930,-8.789,245.117,94.238,0
14052.209,110.840,-5.371,1.953,176.270,42.969,0
14052.213,-24.902,-20.508,18.066,1.465,-22.949,0
14052.217,19.531,-20.508,16.602,50.293,-26.367,0
14052.221,151.855,-1.953,-1.465,222.168,8.789,0
14052.225,138.672,0.000,1.465,228.027,24.902,0
14052.229,-8.301,-8.301,16.113,46.875,38.086,0
14052.233,-26.855,-16.113,20.508,-2.441,-18.555,0
14052.237,124.023,-8.789,4.883,187.988,-56.152,0
14052.241,175.781,-1.953,-2.441,268.066,3.418,0
14052.244,51.270,-19.043,17.090,100.098,26.367,0
14052.248,-45.410,-23.438,27.344,-17.090,-0.977,0
14052.252,68.359,-13.672,9.277,141.602,12.207,0
14052.256,199.219,-17.090,6.348,293.945,38.086,0
14052.260,90.332,-14.648,15.625,158.203,37.598,0
14052.264,-39.062,-12.695,19.043,-15.137,-20.508,0
14052.268,50.781,-11.719,13.184,90.820,8.301,0
14052.272,177.246,-7.812,-2.930,268.555,73.730,0
14052.276,131.348,-19.043,4.883,225.586,7.812,0
14052.280,-14.648,-24.902,18.555,36.621,-30.762,0
14052.284,8.789,-20.996,9.766,23.438,-15.137,0
14052.287,159.180,-15.625,-0.488,218.262,-41.992,0
14052.291,167.480,-19.043,5.859,244.629,-77.637,0
14052.295,32.227,-31.738,26.367,70.801,-62.012,0
14052.299,-10.254,-24.414,22.949,14.648,14.648,0
14052.303,128.906,-8.789,0.488,178.711,36.133,0
14052.307,182.617,-11.230,2.441,277.344,23.438,0
14052.311,48.828,-23.926,17.578,126.953,-9.766,0
14052.315,-32.715,-31.250,20.996,-6.836,-26.367,0
14052.319,83.496,-12.207,3.906,122.559,19.043,0
14052.323,198.242,-4.395,1.465,280.762,29.785,0
14052.327,109.863,-15.137,17.090,192.383,-15.137,0
14052.330,-16.113,-23.438,22.461,6.348,0.000,0
14052.334,50.781,-25.391,11.719,74.707,-26.855,0
14052.338,193.359,-15.625,0.488,269.043,-21.973,0
14052.342,152.344,-14.648,6.836,225.098,23.926,0
14052.346,-3.418,-23.438,14.160,22.949,35.645,0
14052.350,9.766,-26.367,1.953,12.695,40.527,0
14052.354,173.828,-28.320,-0.977,214.355,17.090,0
14052.358,180.176,-28.320,3.906,256.836,75.195,0
14052.362,11.719,-28.320,8.301,57.617,26.367,0
14052.366,-44.434,-29.785,7.812,-30.762,18.555,0
14052.369,86.914,-25.879,-5.859,138.184,87.402,0
14052.373,170.898,-30.273,-0.977,257.812,17.090,0
14052.377,48.340,-36.133,9.766,106.445,-12.695,0
14052.381,-65.430,-39.551,8.789,-45.410,37.109,0
14052.385,58.105,-36.621,0.000,82.520,26.855,0
14052.389,178.711,-25.879,-9.277,249.023,29.297,0
14052.393,103.516,-31.738,1.465,166.992,38.574,0
14052.397,-24.414,-44.922,14.648,-1.465,36.621,0
14052.401,7.324,-29.297,-1.465,45.410,72.266,0
14052.405,147.949,-20.996,-12.695,228.027,50.781,0
14052.409,135.254,-27.344,-2.441,225.098,-15.625,0
14052.412,-9.277,-35.156,14.648,38.086,26.367,0
14052.416,-20.996,-34.668,9.277,0.488,93.750,0
14052.420,113.770,-22.949,-9.277,188.965,36.621,0
14052.424,150.879,-24.902,-7.324,251.953,-4.395,0
14052.428,21.973,-32.715,6.348,74.219,16.602,0
14052.432,-27.832,-37.109,6.836,-28.320,13.672,0
14052.436,109.863,-37.598,-0.488,135.742,-28.320,0
14052.440,182.617,-24.902,-3.418,265.625,-63.965,0
14052.444,46.387,-22.949,2.441,125.977,-69.336,0
14052.448,-51.758,-28.320,7.812,-23.438,-49.805,0
14052.452,55.664,-20.020,-1.465,80.078,36.133,0
14052.455,184.082,-16.113,-6.348,252.930,96.191,0
14052.459,124.023,-22.949,5.371,190.918,43.457,0
14052.463,-20.508,-31.250,19.531,2.930,-43.457,0
14052.467,-2.930,-25.879,11.719,34.180,-51.270,0
14052.471,141.602,-17.090,-5.859,216.797,7.812,0
14052.475,159.668,-19.531,-3.906,222.168,-16.602,0
14052.479,16.113,-29.785,10.742,41.016,-62.988,0
14052.483,-20.996,-31.250,5.859,-12.695,-60.547,0
14052.487,118.164,-18.066,-6.836,172.363,12.207,0
14052.491,160.645,-13.672,-7.324,245.117,75.195,0
14052.494,46.387,-31.250,10.742,86.426,21.484,0
14052.498,-36.621,-35.645,13.184,-22.461,25.391,0
14052.502,56.641,-14.160,-9.277,107.910,57.129,0
14052.506,161.133,-7.812,-10.254,244.141,54.688,0
14052.510,68.848,-18.066,1.953,135.254,4.883,0
14052.514,-46.387,-27.344,12.695,-29.297,28.809,0
14052.518,36.133,-20.508,0.977,9.277,56.641,0
14052.522,166.016,-14.648,-10.742,150.879,2.930,0
14052.526,135.254,-20.020,0.977,121.094,31.738,0
14052.530,-5.371,-24.902,9.277,-52.734,7.324,0
14052.534,-2.930,-27.832,8.789,-13.672,2.930,0
14052.537,144.043,-22.949,0.977,195.312,65.918,0
14052.541,151.855,-15.625,-4.883,206.543,32.227,0
14052.545,16.602,-23.438,6.836,21.973,0.977,0
14052.549,-13.672,-25.391,4.395,-35.645,18.066,0
14052.553,123.047,-20.020,-4.883,148.926,15.137,0
14052.557,177.246,-20.996,-4.395,250.977,-7.324,0
14052.561,50.293,-30.273,0.977,96.191,12.207,0
14052.565,-26.855,-37.109,7.812,-28.809,10.742,0
14052.569,80.078,-29.785,-1.953,109.375,-25.879,0
14052.573,184.570,-21.973,-7.812,267.090,41.992,0
14052.577,96.191,-35.645,4.883,171.875,31.738,0
14052.580,-36.621,-42.969,6.348,-24.414,-45.410,0
14052.584,35.645,-31.250,-4.883,34.668,-17.578,0
14052.588,169.922,-22.949,-11.230,243.652,-8.301,0
14052.592,135.742,-27.832,-0.977,229.004,-26.855,0
14052.596,1.465,-41.504,13.184,35.156,-1.953,0
14052.600,8.301,-38.086,0.000,10.742,66.895,0
14052.604,137.695,-30.762,-15.137,197.754,85.938,0
14052.608,150.879,-29.785,-12.695,242.188,20.508,0
14052.612,27.344,-34.668,-2.930,66.895,6.348,0
14052.616,-15.625,-40.039,0.000,-8.301,24.902,0
14052.619,122.070,-33.203,-12.695,158.203,7.812,0
14052.623,187.988,-27.344,-18.066,251.953,25.391,0
14052.627,68.848,-34.180,-8.301,100.098,-36.133,0
14052.631,-38.574,-37.598,-6.348,-39.062,-41.504,0
14052.635,65.918,-38.574,-7.812,91.309,17.090,0
14052.639,190.430,-33.203,-17.090,244.629,6.836,1
14052.643,101.074,-30.273,-18.555,155.273,-26.367,0
14052.647,-37.109,-43.945,-2.930,-10.742,-30.762,0
14052.651,3.418,-44.434,-10.254,26.367,-7.812,0
14052.655,153.809,-37.598,-22.949,216.797,1.953,0
14052.659,145.508,-38.086,-15.137,216.309,54.688,0
14052.662,8.789,-44.434,0.488,24.902,62.988,0
14052.666,4.395,-46.387,-1.953,0.000,-36.133,0
14052.670,129.395,-33.203,-19.531,180.664,-57.617,0
14052.674,173.340,-31.738,-18.066,247.559,-27.832,0
14052.678,56.152,-40.039,-7.812,95.215,-41.016,0
14052.682,-21.973,-37.598,-11.719,-35.645,-3.906,0
14052.686,93.750,-38.086,-16.113,49.805,-17.090,0
14052.690,178.223,-33.691,-14.160,78.613,-4.395,0
14052.694,84.961,-38.574,0.488,-122.070,3.906,0
14052.698,-23.438,-42.480,3.418,-303.223,-3.906,0
14052.702,60.547,-34.668,-12.695,-215.820,6.836,0
14052.705,187.012,-28.809,-19.531,-44.922,26.367,0
14052.709,128.418,-33.203,-15.137,-134.766,27.344,0
14052.713,1.465,-45.410,-1.465,-316.895,27.344,0
14052.717,28.809,-44.922,-9.277,-233.887,27.344,0
14052.721,148.438,-32.227,-29.785,0.977,5.371,0
14052.725,147.461,-34.180,-24.902,57.129,-6.348,0
14052.729,6.836,-41.504,-15.625,-104.004,21.484,0
14052.733,-29.297,-49.805,-19.531,-127.441,35.156,0
14052.737,96.191,-52.246,-38.086,49.805,-16.602,0
14052.741,144.531,-47.363,-50.293,37.598,8.301,0
14052.744,16.113,-64.453,-43.945,-134.766,-8.789,0
14052.748,-91.309,-79.102,-43.457,-203.613,-14.160,0
14052.752,21.484,-75.684,-54.199,-42.480,40.527,0
14052.756,132.324,-77.148,-62.012,128.418,36.621,0
14052.760,41.992,-92.773,-57.617,38.574,-13.184,0
14052.764,-84.961,-97.656,-53.711,-122.559,-34.668,0
14052.768,-10.742,-83.984,-65.430,-33.203,14.160,0
14052.772,120.117,-76.172,-72.754,163.086,38.574,0
14052.776,86.426,-84.473,-60.059,135.254,47.363,0
14052.780,-51.758,-91.797,-56.641,-49.805,57.617,0
14052.784,-34.668,-81.543,-74.219,-37.598,46.875,0
14052.787,97.656,-78.125,-80.078,156.250,57.129,0
14052.791,87.891,-84.961,-74.707,185.547,30.762,0
14052.795,-42.969,-91.309,-63.477,10.254,31.738,0
14052.799,-78.125,-89.355,-64.453,-63.477,35.156,0
14052.803,60.059,-87.402,-77.637,98.145,-10.742,0
14052.807,124.023,-91.797,-78.125,206.543,11.230,0
14052.811,-14.648,-99.121,-72.754,60.059,26.855,0
14052.815,-99.609,-115.723,-69.336,-75.684,-31.250,0
14052.819,18.066,-110.840,-84.961,50.781,-35.645,0
14052.823,94.727,-92.285,-97.168,186.523,25.391,0
14052.827,5.859,-100.586,-83.008,103.027,12.207,0
14052.830,-111.328,-107.422,-73.242,-63.965,-29.297,0
14052.834,-52.246,-104.004,-80.566,-3.906,-41.992,0
14052.838,73.730,-96.191,-90.820,181.641,-31.250,0
14052.842,48.828,-94.727,-78.613,166.016,-50.781,0
14052.846,-83.496,-99.609,-63.477,-22.949,-29.297,0
14052.850,-96.680,-94.727,-71.289,-46.387,48.340,0
14052.854,65.430,-90.820,-84.961,144.043,69.824,0
14052.858,92.285,-89.355,-83.984,192.871,29.297,0
14052.862,-69.824,-88.867,-72.266,11.230,-14.648,0
14052.866,-108.398,-88.867,-72.266,-70.312,-38.574,0
14052.869,27.344,-77.637,-86.914,89.844,-25.391,0
14052.873,112.305,-76.172,-86.426,218.750,36.133,0
14052.877,5.371,-83.496,-69.824,79.590,6.836,0
14052.881,-105.957,-87.891,-65.430,-80.566,13.184,0
14052.885,-10.742,-86.914,-76.660,33.691,28.320,0
14052.889,106.934,-77.637,-82.520,180.664,9.277,0
14052.893,40.527,-77.148,-69.824,58.105,19.043,0
14052.897,-86.914,-86.426,-56.641,-155.762,21.973,0
14052.901,-53.223,-85.938,-63.477,-107.422,3.906,0
14052.905,91.797,-73.730,-74.707,46.875,7.324,0
14052.909,76.172,-69.336,-66.895,-6.348,31.250,0
14052.912,-75.195,-78.125,-47.363,-209.473,58.105,0
14052.916,-75.195,-86.914,-41.504,-223.145,47.852,0
14052.920,69.336,-65.430,-60.059,-13.672,28.809,0
14052.924,103.516,-55.664,-64.453,79.590,-19.531,0
14052.928,-31.738,-67.383,-48.828,-57.129,-17.090,0
14052.932,-92.285,-66.895,-48.828,-140.625,49.316,0
14052.936,47.363,-62.988,-58.105,24.414,1.953,0
14052.940,136.230,-51.758,-59.570,158.203,14.648,0
14052.944,27.832,-53.711,-45.898,59.082,68.359,0
14052.948,-81.055,-71.289,-36.621,-75.684,-16.113,0
14052.952,-10.254,-61.035,-49.805,17.090,-19.043,0
14052.955,116.211,-52.734,-54.688,192.871,22.461,0
14052.959,64.941,-56.152,-44.434,132.324,0.000,0
14052.963,-68.359,-52.246,-36.621,-56.641,41.992,0
14052.967,-24.414,-53.711,-40.039,-18.555,41.504,0
14052.971,123.535,-49.316,-50.781,179.199,-10.254,0
14052.975,124.023,-50.293,-41.016,182.617,20.996,0
14052.979,-22.461,-61.035,-28.809,10.254,45.410,0
14052.983,-45.410,-63.477,-33.203,-22.949,26.855,0
14052.987,104.492,-49.316,-45.410,157.715,-18.555,0
14052.991,149.414,-41.504,-44.922,240.234,19.043,0
14052.994,25.879,-57.129,-25.391,88.867,35.645,0
14052.998,-52.246,-61.035,-21.973,-33.691,-45.410,0
14053.002,47.363,-42.480,-42.480,90.332,-5.859,0
14053.006,150.879,-38.574,-42.969,239.258,33.203,0
14053.010,67.871,-45.898,-28.320,144.531,11.719,0
14053.014,-43.457,-57.129,-15.625,-116.699,52.734,0
14053.018,28.320,-57.617,-25.391,-146.973,41.992,0
14053.022,154.785,-44.922,-38.086,52.734,-13.184,0
14053.026,104.980,-45.898,-29.297,63.477,-29.297,0
14053.030,-43.945,-54.688,-17.578,-100.586,-11.230,0
14053.034,-28.320,-58.105,-23.438,-73.242,25.879,0
14053.037,122.070,-48.340,-34.180,124.023,38.086,0
14053.041,140.625,-44.434,-28.809,159.668,3.906,0
14053.045,0.000,-50.781,-19.043,-5.859,-19.043,0
14053.049,-52.734,-50.293,-22.949,-67.383,-23.926,0
14053.053,74.707,-45.898,-33.203,118.652,1.953,0
14053.057,151.855,-43.457,-32.227,229.492,28.809,0
14053.061,37.598,-42.480,-21.484,82.520,1.953,0
14053.065,-59.570,-41.992,-13.184,-56.641,20.996,0
14053.069,41.504,-35.645,-26.855,68.359,41.992,0
14053.073,153.809,-33.203,-35.156,249.512,53.223,0
14053.077,82.520,-41.016,-19.531,164.062,19.043,0
14053.080,-46.387,-43.945,-11.719,-18.066,-28.809,0
14053.084,20.996,-41.016,-18.555,50.781,-39.551,0
14053.088,169.434,-31.250,-23.438,236.816,-62.012,0
14053.092,133.789,-27.344,-17.578,213.379,-2.441,0
14053.096,-4.395,-44.922,-3.906,41.504,-2.930,0
14053.100,-0.488,-41.504,-9.277,17.090,-6.836,0
14053.104,129.883,-24.414,-22.949,182.617,49.805,0
14053.108,150.391,-29.297,-17.090,238.770,25.391,0
14053.112,19.043,-38.574,-8.789,78.613,31.250,0
14053.116,-25.879,-43.945,-3.906,-6.348,32.715,0
14053.119,100.586,-34.668,-17.578,144.043,18.066,0
14053.123,163.574,-28.320,-23.926,248.047,43.945,0
14053.127,53.711,-34.668,-8.789,114.258,4.395,0
14053.131,-44.434,-35.645,-4.395,-19.043,31.738,0
14053.135,52.246,-38.574,-7.324,99.121,64.941,0
14053.139,169.922,-33.203,-18.555,251.465,35.645,0
14053.143,90.332,-26.855,-21.973,162.598,30.273,0
14053.147,-37.598,-34.668,-10.254,-16.113,5.371,0
14053.151,13.184,-28.809,-12.695,29.297,-5.859,0
14053.155,160.156,-22.949,-19.531,224.121,-2.930,0
14053.159,134.277,-24.902,-20.020,217.285,13.672,0
14053.162,-16.113,-30.762,-7.812,36.621,-9.766,0
14053.166,-22.949,-31.738,-9.277,-0.977,-37.598,1
14053.170,118.164,-22.461,-29.297,165.527,-47.363,0
14053.174,157.715,-23.438,-27.832,247.070,-51.270,0
14053.178,30.762,-32.715,-11.230,77.148,-7.812,0
14053.182,-28.320,-35.645,-5.371,-31.250,35.156,0
14053.186,84.473,-25.391,-19.043,128.418,56.152,0
14053.190,165.527,-19.531,-26.367,252.441,-13.184,0
14053.194,78.125,-33.203,-7.812,135.254,-85.938,0
14053.198,-31.250,-39.062,-1.465,-26.367,-30.273,0
14053.202,40.039,-30.273,-15.137,57.129,58.594,0
14053.205,167.480,-25.879,-23.926,225.586,49.316,0
14053.209,114.746,-27.832,-16.113,124.512,29.785,0
14053.213,-12.695,-39.062,-0.488,-120.605,3.906,0
14053.217,22.949,-42.969,-4.883,-123.047,-27.832,0
14053.221,144.531,-22.949,-23.926,84.473,14.648,0
14053.225,138.672,-20.508,-18.066,85.938,50.293,0
14053.229,9.766,-35.156,-2.930,-182.129,0.977,0
14053.233,-27.344,-32.227,-4.395,-310.547,-5.371,0
14053.237,121.094,-25.391,-14.160,-160.156,12.207,0
14053.241,172.363,-14.648,-20.508,-96.680,8.789,0
14053.244,40.039,-21.973,-6.836,-265.625,-58.594,0
14053.248,-37.598,-31.738,-3.906,-351.074,-48.828,0
14053.252,71.777,-24.414,-17.578,-167.480,27.344,0
14053.256,181.152,-22.949,-14.648,-9.277,11.719,0
14053.260,92.285,-24.902,-3.418,-102.051,25.391,0
14053.264,-20.508,-29.785,0.488,-210.938,57.617,0
14053.268,50.781,-28.809,-5.859,-133.789,47.852,0
14053.272,162.598,-22.461,-9.766,-30.762,-4.883,0
14053.276,122.070,-25.391,-1.953,-102.539,0.000,0
14053.280,-3.418,-33.203,3.906,-299.316,14.160,0
14053.284,17.578,-29.297,-3.906,-310.059,-36.133,0
14053.287,148.926,-21.973,-16.602,-111.328,-13.672,0
14053.291,140.625,-24.414,-12.207,-62.012,56.641,0
14053.295,23.926,-42.969,5.371,-220.703,1.465,0
14053.299,-17.090,-38.086,0.000,-307.617,-9.766,0
14053.303,107.910,-19.531,-18.555,-145.996,20.508,0
14053.307,174.316,-25.391,-16.113,-37.598,-0.977,0
14053.311,53.223,-33.203,-5.371,-189.941,17.578,0
14053.315,-34.180,-37.109,1.465,-309.570,13.184,0
14053.319,67.383,-28.320,-8.301,-167.480,1.953,0
14053.323,175.293,-23.438,-15.625,31.738,-34.180,0
14053.327,97.168,-26.367,-4.395,-32.715,-15.625,0
14053.330,-26.855,-29.297,5.371,-223.145,-2.930,0
14053.334,35.645,-29.297,0.977,-179.199,-14.160,0
14053.338,163.574,-21.973,-13.184,-3.418,-16.602,0
14053.342,113.281,-19.531,-16.602,-38.086,7.324,0
14053.346,-13.184,-30.762,-1.465,-230.957,-13.184,0
14053.350,-5.859,-27.832,-5.371,-258.301,-11.719,0
14053.354,138.184,-19.531,-13.672,-56.641,19.043,0
14053.358,154.297,-20.996,-11.230,64.453,-44.434,0
14053.362,15.137,-28.809,-2.441,-48.828,-11.719,0
14053.366,-26.855,-32.227,0.488,-106.445,32.715,0
14053.369,104.492,-24.902,-15.625,69.824,33.203,0
14053.373,193.359,-26.367,-16.602,199.219,41.016,0
14053.377,92.285,-36.133,0.488,78.613,9.766,0
14053.381,-29.297,-30.762,-0.488,-89.355,-5.859,0
14053.385,52.734,-22.949,-14.160,-23.926,7.324,0
14053.389,159.668,-19.531,-18.066,157.715,2.441,0
14053.393,96.680,-22.949,-9.766,130.371,-8.301,0
14053.397,-14.160,-29.785,6.348,-34.668,-26.367,0
14053.401,28.809,-20.020,-0.977,0.488,-0.977,0
14053.405,170.898,-14.648,-19.531,171.875,-13.184,0
14053.409,165.039,-18.555,-10.254,125.488,-47.852,0
14053.412,29.297,-28.320,7.324,-111.328,-30.273,0
14053.416,-1.953,-33.691,6.348,-171.387,-35.645,0
14053.420,121.582,-15.625,-7.812,-0.977,35.645,0
14053.424,166.504,-11.230,-5.859,57.129,12.207,0
14053.428,48.340,-20.020,5.371,-107.422,-13.672,0
14053.432,-21.973,-18.555,4.395,-212.891,21.484,0
14053.436,90.820,-23.438,1.465,-70.801,62.500,0
14053.440,175.781,-19.043,-5.371,29.785,53.711,0
14053.444,69.336,-16.113,-1.465,-82.031,8.789,0
14053.448,-41.992,-24.902,8.301,-213.379,27.344,0
14053.452,37.598,-22.461,-0.488,-131.836,20.020,0
14053.455,167.480,-16.113,-4.395,41.992,39.062,0
14053.459,117.676,-15.137,5.859,28.320,39.062,0
14053.463,-10.254,-24.902,16.602,-106.934,47.363,0
14053.467,20.508,-22.949,7.324,-52.246,55.176,0
14053.471,150.391,-5.859,-8.301,159.180,33.691,0
14053.475,158.691,-15.625,3.418,216.309,27.344,0
14053.479,27.344,-29.297,15.625,61.035,15.137,0
14053.483,-10.254,-18.555,5.371,0.488,-4.883,0
14053.487,116.211,-12.695,-4.395,182.129,-13.184,0
14053.491,160.156,-16.113,-4.883,276.855,-36.133,0
14053.494,31.738,-23.926,6.836,122.070,-17.578,0
14053.498,-47.363,-25.391,13.184,12.695,91.309,0
14053.502,64.941,-23.438,-0.488,159.668,62.012,0
14053.506,173.340,-22.461,-9.277,314.941,-20.020,0
14053.510,91.797,-27.832,-1.953,226.562,-8.789,0
14053.514,-27.832,-41.504,10.742,57.129,21.484,0
14053.518,40.527,-36.133,2.441,126.465,-10.254,0
14053.522,155.762,-14.160,-12.207,305.664,-0.977,0
14053.526,121.582,-19.043,0.000,284.180,24.414,0
14053.530,-9.277,-26.855,14.160,117.676,28.320,0
14053.534,7.812,-23.926,13.672,115.723,17.578,0
14053.537,152.832,-14.648,0.000,305.664,3.418,0
14053.541,160.156,-11.230,-1.465,352.539,-20.020,0
14053.545,27.832,-24.414,12.695,179.199,-19.043,0
14053.549,-14.160,-28.320,12.207,94.238,11.719,0
14053.553,121.094,-20.996,1.465,236.816,-23.438,0
14053.557,201.660,-14.160,0.000,328.613,27.832,0
14053.561,77.148,-19.043,8.301,174.316,47.852,0
14053.565,-30.762,-22.949,14.160,1.953,-1.953,0
14053.569,75.195,-12.207,-1.465,95.215,6.348,0
14053.573,187.988,-8.789,-6.836,267.090,32.715,0
14053.577,117.676,-22.949,8.301,185.059,67.383,0
14053.580,-13.672,-26.855,9.766,-23.438,37.598,0
14053.584,34.180,-21.484,-3.418,18.066,-29.297,0
14053.588,161.133,-17.090,-12.207,196.777,-28.809,0
14053.592,130.371,-20.020,-5.371,169.922,-14.160,0
14053.596,1.465,-32.715,6.348,2.930,-43.945,0
14053.600,1.465,-30.273,1.953,0.977,-51.270,0
14053.604,144.531,-20.020,-4.395,186.523,7.812,0
14053.608,172.363,-16.602,-3.906,227.051,60.059,0
14053.612,50.781,-27.344,6.348,64.941,28.809,0
14053.616,0.000,-38.574,12.695,2.441,19.531,0
14053.619,97.168,-29.297,-2.441,119.141,1.465,0
14053.623,165.527,-18.066,-12.207,196.777,-29.297,0
14053.627,74.219,-21.973,3.418,86.914,5.371,0
14053.631,-28.809,-24.902,12.207,-45.410,40.527,0
14053.635,57.129,-24.902,6.348,76.172,-17.090,0
14053.639,175.781,-19.531,-3.418,244.141,-62.012,0
14053.643,116.211,-18.066,2.441,188.477,-15.625,0
14053.647,-10.254,-28.809,13.184,24.902,0.977,0
14053.651,26.855,-30.273,1.953,60.547,-2.930,0
14053.655,167.480,-27.832,-9.766,263.672,0.977,0
14053.659,148.926,-27.344,-7.812,270.996,-0.977,0
14053.662,12.207,-26.855,0.488,79.102,-21.484,0
14053.666,7.324,-30.273,1.465,43.945,-9.277,0
14053.670,121.094,-17.578,-13.184,211.914,64.453,0
14053.674,148.438,-14.160,-11.719,277.344,56.641,0
14053.678,31.250,-23.438,1.953,120.117,9.277,0
14053.682,-28.320,-24.902,2.930,9.277,16.602,0
14053.686,72.754,-18.555,-7.812,145.996,18.555,0
14053.690,154.785,-16.113,-13.672,284.180,48.828,0
14053.694,71.289,-27.344,1.465,183.105,26.855,0
14053.698,-48.828,-35.156,9.766,28.809,20.508,0
14053.702,25.879,-24.902,-6.348,104.004,36.133,0
14053.705,148.926,-18.066,-20.508,267.578,5.371,0
14053.709,104.492,-21.484,-10.742,229.004,-8.301,1
14053.713,-13.184,-32.715,6.836,60.059,-9.766,0
14053.717,13.672,-34.180,5.859,77.148,21.973,0
14053.721,130.371,-19.531,-9.277,247.559,8.301,0
14053.725,128.418,-20.020,-9.277,266.602,-35.645,0
14053.729,4.883,-21.973,-2.441,83.496,-2.441,0
14053.733,-19.531,-23.438,3.906,39.062,6.348,0
14053.737,104.980,-19.043,-3.418,215.332,22.461,0
14053.741,167.480,-14.648,-6.836,308.105,30.273,0
14053.744,64.941,-25.391,8.301,179.688,-5.371,0
14053.748,-23.926,-26.367,8.789,33.691,15.137,0
14053.752,82.031,-17.578,-3.906,144.043,-12.695,0
14053.756,188.965,-20.508,-4.395,304.688,11.230,0
14053.760,105.469,-20.508,0.977,201.172,6.836,0
14053.764,-24.902,-24.902,3.418,18.066,-41.504,0
14053.768,24.414,-25.391,-4.395,84.473,10.254,0
14053.772,160.156,-13.672,-14.160,263.672,15.625,0
14053.776,129.395,-14.648,-6.348,240.234,16.113,0
14053.780,-2.930,-27.344,6.348,53.223,0.488,0
14053.784,-1.953,-26.855,-3.418,38.086,20.996,0
14053.787,130.859,-20.508,-15.137,224.609,4.883,0
14053.791,155.273,-22.461,-9.277,262.207,-44.922,0
14053.795,34.180,-36.621,7.324,97.656,-0.488,0
14053.799,-14.160,-37.109,8.301,18.066,-9.277,0
14053.803,96.191,-17.090,-11.230,165.039,20.508,0
14053.807,165.039,-17.090,-14.160,284.668,54.688,0
14053.811,58.594,-25.391,6.836,159.668,-12.207,0
14053.815,-29.785,-29.297,15.625,21.973,4.395,0
14053.819,63.477,-24.902,-1.465,130.371,-7.324,0
14053.823,180.664,-16.113,-11.719,280.273,-10.742,0
14053.827,114.746,-20.508,-3.906,190.918,29.297,0
14053.830,-30.273,-27.344,5.859,10.742,27.344,0
14053.834,16.113,-26.855,-0.488,67.871,54.688,0
14053.838,160.156,-23.438,-11.719,251.465,18.066,0
14053.842,128.906,-20.020,-7.812,241.699,17.578,0
14053.846,-4.883,-25.391,6.348,51.758,35.156,0
14053.850,-1.465,-25.879,5.859,11.230,20.508,0
14053.854,136.719,-25.879,-1.465,195.801,-13.672,0
14053.858,162.109,-28.809,2.930,258.301,-21.973,0
14053.862,18.555,-23.438,6.348,87.891,14.160,0
14053.866,-37.109,-22.949,6.836,0.488,81.543,0
14053.869,88.379,-17.578,-1.953,150.879,82.520,0
14053.873,169.922,-16.602,-3.906,271.484,35.156,0
14053.877,70.801,-24.414,7.812,145.996,0.488,0
14053.881,-36.133,-28.320,12.695,-3.906,-48.828,0
14053.885,39.551,-23.926,2.441,97.656,3.906,0
14053.889,157.715,-17.578,-11.230,247.070,39.062,0
14053.893,106.934,-23.438,-0.488,198.242,33.691,0
14053.897,-17.578,-32.715,18.066,32.227,34.668,0
14053.901,2.930,-21.484,8.301,41.992,-37.109,0
14053.905,130.859,-4.883,-7.324,215.820,-20.020,0
14053.909,136.230,-9.277,-1.953,225.586,5.859,0
14053.912,10.742,-21.973,12.695,52.734,-42.480,0
14053.916,-11.230,-20.508,11.719,6.348,-39.062,0
14053.920,110.352,-8.789,-3.906,171.875,5.371,0
14053.924,150.879,-8.789,-0.977,250.977,2.441,0
14053.928,41.016,-19.043,14.160,109.863,-26.367,0
14053.932,-25.879,-24.902,18.555,10.742,-8.789,0
14053.936,86.426,-21.973,11.230,151.855,62.988,0
14053.940,171.387,-10.254,0.488,273.926,87.402,0
14053.944,79.102,-8.789,8.789,152.344,87.891,0
14053.948,-19.043,-18.555,21.484,5.859,57.129,0
14053.952,55.176,-9.277,8.301,71.777,30.762,0
14053.955,172.852,-0.488,-4.883,215.332,17.578,0
14053.959,121.094,-3.418,2.930,177.734,-24.902,0
14053.963,-23.438,-11.719,17.578,-1.465,-25.879,0
14053.967,-5.859,-17.090,12.695,7.324,-7.324,0
14053.971,144.043,-10.254,-5.371,196.777,8.301,0
14053.975,159.668,-9.277,-1.953,231.445,-3.418,0
14053.979,42.969,-17.578,15.137,63.965,-26.855,0
14053.983,0.488,-16.113,9.277,-11.230,54.688,0
14053.987,100.586,-10.254,-6.348,152.832,51.758,0
14053.991,138.672,-9.277,-3.906,244.629,-18.555,0
14053.994,42.480,-22.949,12.207,110.352,-5.859,0
14053.998,-29.785,-26.367,15.137,-9.277,57.129,0
14054.002,61.035,-13.672,-1.953,99.609,62.500,0
14054.006,174.316,-8.789,-9.766,242.188,29.785,0
14054.010,96.680,-12.695,-0.977,165.527,15.137,0
14054.014,-13.184,-25.879,12.207,6.836,0.977,0
14054.018,33.691,-20.996,3.418,44.434,-25.391,0
14054.022,148.926,-10.254,-8.789,216.309,44.922,0
14054.026,130.371,-17.090,0.000,213.867,62.012,0
14054.030,-7.324,-20.508,13.184,32.227,36.133,0
14054.034,4.395,-17.578,12.207,15.625,53.711,0
14054.037,153.320,-16.113,2.441,193.359,29.785,0
14054.041,164.551,-9.766,-3.906,227.051,16.113,0
14054.045,26.367,-14.160,4.395,59.082,56.152,0
14054.049,-15.137,-14.160,4.395,-23.438,53.223,0
14054.053,101.074,-9.766,-8.789,141.602,62.500,0
14054.057,175.781,-8.789,-8.789,244.629,53.223,0
14054.061,68.359,-14.160,8.301,105.957,-0.488,0
14054.065,-40.039,-20.508,8.789,-22.949,14.160,0
14054.069,59.570,-16.602,-3.906,76.660,24.414,0
14054.073,171.875,-15.137,-2.441,232.422,42.969,0
14054.077,119.141,-22.949,8.301,171.387,-14.648,0
14054.080,-2.441,-22.949,7.812,-14.160,-60.547,0
14054.084,32.227,-13.672,-3.906,25.391,-16.113,0
14054.088,167.480,-4.395,-13.672,214.844,20.508,0
14054.092,136.230,-10.254,-3.418,208.984,41.016,0
14054.096,-8.301,-21.484,12.207,27.344,23.926,0
14054.100,-18.555,-12.695,5.371,-14.648,39.551,0
14054.104,116.699,-3.418,-6.836,150.391,55.176,0
14054.108,150.391,-7.812,-5.859,206.055,-5.371,0
14054.112,24.414,-17.090,9.766,40.039,0.000,0
14054.116,-30.762,-21.484,16.602,-49.805,-6.348,0
14054.119,93.750,-14.648,5.859,108.398,-28.809,0
14054.123,172.852,-8.301,-0.977,213.867,9.277,0
14054.127,68.848,-10.742,9.766,91.797,-11.719,0
14054.131,-38.086,-13.184,16.113,-49.805,-5.859,0
14054.135,51.270,-12.207,11.230,53.223,28.809,0
14054.139,172.363,-2.930,0.977,229.980,24.414,0
14054.143,113.281,-0.977,0.488,169.434,-27.344,0
14054.147,-18.066,-12.695,11.719,-14.648,-46.387,0
14054.151,13.184,-8.789,3.418,-4.883,17.578,0
14054.155,150.391,-1.465,-6.348,159.668,-4.395,0
14054.159,138.184,0.000,-1.465,142.578,-41.992,0
14054.162,0.977,-11.230,10.742,-84.961,11.719,0
14054.166,-19.531,-19.531,12.695,-187.012,29.785,0
14054.170,120.117,-6.836,-1.465,-57.617,13.184,0
14054.174,167.969,-5.371,-1.953,-0.488,12.207,0
14054.178,46.875,-17.090,12.207,-124.512,-13.672,0
14054.182,-29.785,-12.695,13.672,-196.289,12.207,0
14054.186,77.148,-2.930,0.977,-40.527,56.152,0
14054.190,168.457,-1.953,-5.371,127.441,-12.695,0
14054.194,83.984,-14.160,9.277,29.297,-59.570,0
14054.198,-31.738,-20.020,12.207,-149.414,-46.387,0
14054.202,26.855,-4.395,-3.906,-65.918,27.344,0
14054.205,162.598,0.488,-7.812,120.605,33.691,0
14054.209,124.023,-6.348,0.488,99.609,-3.418,0
14054.213,-1.953,-16.602,15.137,-54.688,39.551,0
14054.217,24.902,-22.949,8.789,-49.316,25.391,0
14054.221,147.949,-8.301,-10.254,130.859,-13.672,0
14054.225,151.367,-4.883,-2.930,164.551,-0.488,0
14054.229,22.461,-19.043,9.277,-26.367,-41.992,0
14054.233,-9.277,-20.508,6.348,-116.211,-8.789,0
14054.237,125.000,-12.695,-5.371,21.484,47.363,0
14054.241,169.922,-10.254,-7.324,123.535,67.871,0
14054.244,52.246,-20.020,8.301,2.930,18.555,0
14054.248,-30.762,-23.926,10.254,-123.047,-13.672,0
14054.252,68.359,-21.484,2.441,-5.371,11.230,0
14054.256,178.711,-22.949,-5.859,139.160,-5.859,0
14054.260,104.492,-26.367,-1.465,63.477,6.836,0
14054.264,-14.160,-29.297,14.648,-76.660,-17.578,0
14054.268,41.504,-25.391,0.977,-3.906,-51.758,0
14054.272,165.527,-15.625,-14.160,182.617,3.906,0
14054.276,146.973,-26.855,0.000,180.176,35.156,0
14054.280,-2.930,-38.574,8.301,12.695,31.738,0
14054.284,-15.625,-30.762,-1.465,-10.742,35.156,0
14054.287,126.465,-22.949,-11.230,168.945,8.301,0
14054.291,149.414,-22.949,-7.324,222.656,-5.859,0
14054.295,15.625,-31.250,5.859,48.340,10.254,0
14054.299,-38.574,-31.738,11.719,-40.527,0.488,0
14054.303,83.496,-23.438,0.488,115.234,-19.043,0
14054.307,164.062,-23.926,-8.789,233.887,9.766,0
14054.311,65.430,-27.832,0.488,107.910,-34.668,0
14054.315,-22.949,-32.715,8.789,-28.320,-27.344,0
14054.319,57.617,-29.785,-4.395,65.918,34.180,0
14054.323,160.156,-19.531,-9.766,238.281,27.344,0
14054.327,97.656,-25.879,4.395,113.770,44.434,0
14054.330,-22.461,-30.273,12.207,-186.523,8.789,0
14054.334,31.250,-28.809,11.230,-138.184,-8.789,0
14054.338,153.320,-22.461,0.488,95.215,42.480,0
14054.342,125.000,-16.602,-0.977,111.328,40.527,0
14054.346,-2.930,-23.438,6.348,-41.504,44.434,0
14054.350,-16.602,-22.949,3.418,-60.059,80.566,0
14054.354,122.559,-26.367,1.953,128.418,68.359,0
14054.358,162.109,-28.320,3.418,205.566,43.457,0
14054.362,28.320,-24.902,6.348,51.270,-19.531,0
14054.366,-47.363,-26.367,9.766,-43.945,-13.184,0
14054.369,60.059,-17.090,-0.977,105.469,54.199,0
14054.373,160.156,-13.672,-4.395,233.398,28.809,0
14054.377,65.918,-24.414,6.836,115.723,27.832,0
14054.381,-41.016,-28.320,12.695,-28.320,17.578,0
14054.385,33.691,-23.926,0.977,57.129,-10.254,0
14054.389,135.254,-18.555,-7.812,222.168,8.789,0
14054.393,97.656,-23.438,1.465,168.945,1.953,0
14054.397,-20.996,-32.227,16.602,-3.906,-12.695,0
14054.401,8.301,-29.785,9.277,21.484,8.789,2
14054.405,141.113,-20.508,-11.230,204.590,41.016,0
14054.409,139.648,-17.578,-6.836,218.262,32.227,0
14054.412,19.043,-26.855,8.301,48.340,-39.062,0
14054.416,0.488,-33.691,9.277,8.301,-4.395,0
14054.420,115.723,-20.508,-8.301,172.852,5.371,0
14054.424,156.250,-11.719,-8.301,251.953,4.395,0
14054.428,38.086,-20.508,6.348,95.703,-28.809,0
14054.432,-32.227,-25.879,0.488,-19.531,-38.574,0
14054.436,67.871,-21.484,-10.742,108.398,25.391,0
14054.440,145.996,-15.137,-12.207,192.383,2.441,0
14054.444,68.359,-22.949,-0.488,73.242,-37.598,0
14054.448,-32.715,-33.203,9.766,-53.711,0.488,0
14054.452,34.668,-23.438,-1.465,22.461,12.695,0
14054.455,162.109,-22.949,-4.883,197.754,20.508,0
14054.459,125.488,-26.855,0.000,169.922,2.441,0
14054.463,-20.508,-27.344,0.977,-7.324,-16.113,0
14054.467,-16.602,-28.809,2.441,-2.441,36.621,0
14054.471,120.605,-16.602,-7.812,165.039,34.668,0
14054.475,140.625,-19.043,-6.348,187.988,2.930,0
14054.479,9.766,-26.855,7.812,-7.812,-15.137,0
14054.483,-36.133,-26.855,3.906,-75.684,-1.465,0
14054.487,91.309,-18.555,-13.184,90.332,17.090,0
14054.491,158.203,-12.207,-11.719,178.711,-1.953,0
14054.494,65.918,-28.809,9.277,55.664,-7.812,0
14054.498,-26.855,-33.691,9.766,-76.172,31.250,0
14054.502,48.340,-17.090,-7.324,27.832,30.762,0
14054.506,149.902,-13.184,-11.719,181.641,-5.859,0
14054.510,75.195,-17.578,-3.418,112.305,19.043,0
14054.514,-34.668,-28.809,4.883,-41.016,24.902,0
14054.518,13.184,-24.414,-6.348,1.465,24.414,0
14054.522,136.719,-11.230,-15.625,122.070,105.957,0
14054.526,121.582,-18.066,-8.789,72.266,75.195,0
14054.530,-5.859,-24.902,7.324,-74.707,-27.832,0
14054.534,-2.930,-24.902,8.301,-55.176,21.973,0
14054.537,138.184,-20.020,-5.859,142.578,35.156,0
14054.541,159.180,-22.949,-5.859,204.102,-33.203,0
14054.545,26.855,-30.273,3.418,45.898,-26.367,0
14054.549,-26.855,-24.902,1.465,-39.062,-16.602,0
14054.553,99.121,-20.996,-8.301,123.047,12.695,0
14054.557,187.500,-23.926,-8.789,253.418,47.363,0
14054.561,73.242,-22.461,-3.418,117.676,8.789,0
14054.565,-40.039,-23.438,4.395,-26.855,-25.879,0
14054.569,43.457,-17.578,-2.930,84.961,-13.184,0
14054.573,157.715,-10.254,-5.859,220.215,-6.348,0
14054.577,113.281,-16.113,1.465,149.414,9.766,0
14054.580,-7.812,-19.531,8.301,-14.648,22.949,0
14054.584,24.414,-17.090,5.859,24.414,25.391,0
14054.588,156.738,-14.160,-3.906,226.562,37.109,0
14054.592,152.832,-12.695,2.441,228.516,20.020,0
14054.596,34.668,-23.926,16.602,56.641,-43.457,0
14054.600,8.301,-22.949,6.836,17.578,-35.156,0
14054.604,124.023,-8.789,-11.719,146.484,33.691,0
14054.608,166.016,-9.277,-4.883,196.777,52.246,0
14054.612,51.758,-16.602,8.789,57.129,-17.090,0
14054.616,-6.836,-20.508,8.789,-29.297,-1.465,0
14054.619,82.520,-16.113,-0.977,124.512,8.789,0
14054.623,160.645,-9.766,-7.324,248.535,-5.371,0
14054.627,82.520,-15.625,0.000,137.207,-20.996,0
14054.631,-27.832,-20.020,7.324,-7.324,-1.465,0
14054.635,54.688,-20.996,1.465,42.969,24.414,0
14054.639,174.805,-15.137,-7.324,137.695,14.160,0
14054.643,106.445,-9.766,-8.789,84.473,32.715,0
14054.647,-15.137,-17.090,-0.488,-47.852,3.906,0
14054.651,13.184,-11.719,0.000,-40.039,25.879,0
14054.655,150.391,-8.789,-6.348,88.379,49.316,0
14054.659,145.020,-12.695,-4.395,87.891,11.230,0
14054.662,6.348,-16.113,6.348,-93.262,-35.156,0
14054.666,-10.254,-15.137,4.395,-129.395,31.738,0
14054.670,121.094,-8.301,-8.789,52.734,59.570,0
14054.674,164.551,-13.184,-8.301,123.535,-39.551,0
14054.678,55.664,-18.066,3.418,0.488,18.066,0
14054.682,-23.438,-24.414,5.371,-83.496,19.531,0
14054.686,69.336,-22.461,-8.789,45.898,-43.945,0
14054.690,150.879,-15.137,-14.160,192.871,-8.789,0
14054.694,73.242,-27.344,-1.953,114.258,24.414,0
14054.698,-31.738,-36.621,7.324,-32.227,65.918,0
14054.702,26.367,-26.855,-3.418,42.969,-0.488,0
14054.705,146.973,-15.625,-12.695,215.332,38.086,0
14054.709,106.934,-17.578,-3.906,187.500,76.660,0
14054.713,-1.953,-30.273,8.789,26.367,12.207,0
14054.717,20.020,-28.809,5.859,29.785,46.387,0
14054.721,128.418,-11.230,-11.230,202.148,57.129,0
14054.725,136.230,-11.719,-9.277,243.164,35.645,0
14054.729,25.879,-21.973,6.836,65.918,16.602,0
14054.733,-4.883,-20.508,3.906,-13.672,13.672,0
14054.737,118.164,-21.484,0.000,166.016,-9.277,0
14054.741,161.621,-14.160,-2.441,262.207,-94.238,0
14054.744,52.246,-7.812,-1.953,123.535,-14.648,0
14054.748,-17.090,-16.602,4.883,-0.488,11.719,0
14054.752,75.195,-13.184,-1.465,107.422,-14.648,0
14054.756,177.734,-8.301,-5.371,264.648,-41.504,0
14054.760,99.609,-10.254,0.977,187.500,-44.922,0
14054.764,-14.648,-20.020,8.789,20.508,-32.227,0
14054.768,39.551,-17.090,1.953,70.801,-62.012,0
14054.772,156.738,-6.348,-10.742,247.070,36.621,0
14054.776,135.742,-13.184,-5.859,233.398,85.449,0
14054.780,8.789,-21.484,5.371,51.270,6.836,0
14054.784,-4.395,-20.508,1.953,22.461,-7.812,0
14054.787,126.953,-16.113,-8.301,202.637,24.414,0
14054.791,146.484,-10.742,-7.324,259.277,0.977,0
14054.795,23.438,-20.020,11.230,106.445,38.574,0
14054.799,-19.043,-22.949,15.137,26.367,47.363,0
14054.803,84.473,-11.230,1.953,159.668,37.598,0
14054.807,152.832,-11.719,0.488,258.301,23.438,0
14054.811,65.918,-17.578,10.742,142.578,2.441,0
14054.815,-27.344,-23.438,16.602,12.207,21.484,0
14054.819,60.059,-18.555,2.930,97.168,24.902,0
14054.823,171.875,-15.137,-4.395,252.930,40.039,0
14054.827,107.422,-19.043,6.836,185.059,1.953,0
14054.830,-24.902,-18.066,11.230,-6.836,-17.090,0
14054.834,15.625,-22.949,6.836,41.504,-5.859,0
14054.838,140.625,-17.578,-4.883,215.332,-5.371,0
14054.842,118.164,-12.207,-6.348,200.684,24.902,0
14054.846,-5.371,-22.949,8.789,38.086,-2.441,0
14054.850,-27.832,-20.020,2.930,0.977,51.270,0
14054.854,109.863,-15.625,-8.301,183.105,109.863,0
14054.858,160.645,-18.066,-1.465,260.742,83.496,0
14054.862,45.898,-24.414,10.742,108.398,13.672,0
14054.866,-30.273,-28.320,14.648,10.254,35.156,0
14054.869,64.941,-23.926,4.395,133.789,74.707,0
14054.873,149.902,-24.414,-0.977,252.930,51.270,0
14054.877,64.941,-33.691,11.230,155.762,59.082,0
14054.881,-45.410,-31.250,11.719,-5.371,35.156,0
14054.885,35.156,-23.438,0.000,70.312,-24.414,0
14054.889,153.809,-15.625,-6.836,237.793,-19.531,0
14054.893,99.609,-17.578,0.488,193.848,20.508,0
14054.897,-30.273,-26.367,10.742,-68.848,0.488,0
14054.901,-4.395,-24.414,2.441,-159.668,10.742,0
14054.905,133.301,-16.113,-7.812,52.734,17.090,0
14054.909,137.207,-15.625,-6.348,46.387,-49.805,0
14054.912,6.348,-27.832,0.977,-231.445,-34.668,0
14054.916,-23.926,-34.668,0.488,-318.848,21.973,0
14054.920,98.145,-27.344,-15.625,-156.250,5.859,0
14054.924,153.809,-23.926,-19.043,-97.168,21.973,1
14054.928,47.363,-36.133,-2.441,-246.094,-6.348,0
14054.932,-37.598,-38.574,0.977,-358.398,7.812,0
14054.936,74.219,-34.180,-3.906,-226.074,75.684,0
14054.940,169.922,-25.879,-13.184,-27.344,4.395,0
14054.944,77.148,-18.555,-17.090,-83.984,-55.176,0
14054.948,-32.715,-22.949,-7.324,-254.395,23.438,0
14054.952,23.926,-25.879,-7.812,-156.738,48.828,0
14054.955,139.648,-22.949,-12.695,33.203,11.719,0
14054.959,104.980,-22.949,-6.348,-13.184,39.062,0
14054.963,-20.020,-32.715,6.836,-152.832,7.324,0
14054.967,-18.066,-29.297,1.953,-114.746,-5.371,0
14054.971,119.629,-17.578,-15.137,76.660,31.738,0
14054.975,153.320,-21.973,-9.766,144.531,5.371,0
14054.979,25.391,-24.902,0.488,8.301,8.789,0
14054.983,-36.621,-19.531,-4.883,-101.074,35.645,0
14054.987,86.426,-18.066,-17.578,-19.043,14.160,0
14054.991,156.738,-14.648,-17.090,58.105,11.230,0
14054.994,67.383,-17.578,-1.953,-34.668,4.883,0
14054.998,-26.367,-22.461,-1.465,-175.293,-15.137,0
14055.002,47.363,-16.602,-11.230,-107.422,62.500,0
14055.006,156.250,-11.719,-13.672,20.020,40.039,0
14055.010,90.332,-18.066,-5.859,-80.078,2.930,0
14055.014,-20.508,-29.297,5.859,-209.473,42.480,0
14055.018,27.344,-27.344,2.930,-160.156,-12.207,0
14055.022,141.113,-9.766,-14.160,-34.668,-9.277,0
14055.026,121.094,-12.695,-10.742,-57.617,38.086,0
14055.030,-2.930,-23.438,5.371,-234.375,15.625,0
14055.034,-3.418,-24.902,7.324,-258.789,-14.160,0
14055.037,131.836,-13.184,-4.883,-98.145,-25.879,0
14055.041,164.062,-6.348,-7.812,-49.805,46.387,0
14055.045,38.086,-18.066,7.812,-212.891,65.430,0
14055.049,-23.926,-22.949,6.348,-305.664,13.184,0
14055.053,88.379,-18.066,-8.301,-114.746,9.277,0
14055.057,167.969,-16.113,-10.742,72.266,10.742,0
14055.061,73.730,-19.043,-2.930,-1.953,7.324,0
14055.065,-30.762,-22.461,4.883,-119.141,49.316,0
14055.069,43.457,-19.043,-4.883,-1.465,48.340,0
14055.073,152.344,-13.184,-13.672,179.688,-8.789,0
14055.077,109.375,-20.996,1.465,150.879,-10.742,0
14055.080,-14.160,-21.973,5.859,-9.277,-14.648,0
14055.084,13.184,-9.766,-1.953,18.555,40.527,0
14055.088,135.254,-3.418,-6.836,217.285,61.523,0
14055.092,131.348,-6.836,-7.324,246.094,35.156,0
14055.096,14.648,-18.066,7.324,87.402,-3.418,0
14055.100,-24.902,-21.973,7.812,46.387,-26.367,0
14055.104,89.355,-18.066,-5.859,213.379,-36.621,0
14055.108,136.719,-15.137,-8.301,289.551,-39.551,0
14055.112,21.973,-20.996,0.488,133.301,-20.508,0
14055.116,-30.762,-33.203,6.348,42.969,39.551,0
14055.119,65.430,-29.785,-6.348,184.082,68.848,0
14055.123,134.766,-20.020,-16.602,295.410,20.020,0
14055.127,68.848,-25.391,-3.906,193.359,-5.859,0
14055.131,-27.344,-36.621,5.371,43.945,-14.160,0
14055.135,28.809,-29.785,-3.906,114.258,0.488,0
14055.139,137.695,-17.578,-15.625,282.715,25.391,0
14055.143,99.609,-21.484,-8.301,246.582,16.602,0
14055.147,-15.137,-32.227,6.836,81.543,5.371,0
14055.151,11.230,-34.180,1.465,91.797,21.973,0
14055.155,144.043,-26.367,-11.230,264.648,36.133,0
14055.159,131.836,-25.391,-7.812,286.133,25.391,0
14055.162,-3.418,-26.855,-0.488,106.934,-39.062,0
14055.166,-20.996,-25.879,0.000,44.922,-23.926,0
14055.170,98.633,-15.625,-6.836,211.914,73.730,0
14055.174,153.320,-14.648,-4.395,311.035,54.688,0
14055.178,47.363,-27.344,4.883,166.016,2.441,0
14055.182,-28.320,-28.320,7.812,34.668,-24.414,0
14055.186,61.523,-17.578,-1.953,150.391,30.273,0
14055.190,147.461,-12.207,-7.812,297.363,95.703,0
14055.194,87.402,-19.531,4.395,230.469,50.293,0
14055.198,-15.625,-28.809,15.137,57.617,35.645,0
14055.202,23.926,-18.066,3.906,100.098,51.758,0
14055.205,139.160,-4.883,-6.836,275.391,67.383,0
14055.209,120.117,-9.277,1.465,256.348,71.777,0
14055.213,2.441,-24.414,18.066,76.660,26.855,0
14055.217,6.348,-31.250,18.066,62.988,-21.973,0
14055.221,123.535,-15.137,-2.930,224.121,-5.371,0
14055.225,145.996,-9.766,-6.348,260.254,56.152,0
14055.229,16.602,-20.508,10.742,116.699,20.508,0
14055.233,-42.480,-21.973,16.602,38.574,17.578,0
14055.237,84.473,-14.160,4.883,172.363,69.336,0
14055.241,156.250,-9.277,0.000,278.809,55.176,0
14055.244,60.547,-21.484,9.766,152.832,15.625,0
14055.248,-32.227,-22.461,11.230,7.812,20.996,0
14055.252,42.969,-15.137,0.000,102.539,22.949,0
14055.256,158.203,-19.043,-0.488,271.484,22.461,0
14055.260,104.980,-16.113,4.883,203.125,-13.184,0
14055.264,-22.949,-13.184,7.324,16.602,-3.906,0
14055.268,12.695,-14.648,2.441,56.641,54.688,0
14055.272,139.648,-9.277,-8.301,227.051,63.477,0
14055.276,128.418,-12.207,-2.930,219.727,40.039,0
14055.280,-4.883,-19.531,9.277,39.551,27.832,0
14055.284,-15.137,-20.508,4.395,10.742,35.645,0
14055.287,121.094,-14.648,-8.789,184.570,-17.090,0
14055.291,153.809,-12.207,-5.371,247.070,-39.551,0
14055.295,30.762,-23.926,13.672,110.840,-9.766,0
14055.299,-28.320,-27.832,15.625,5.371,51.758,0
14055.303,77.148,-10.742,-2.441,130.859,62.988,0
14055.307,156.250,-7.812,-3.906,260.254,56.152,0
14055.311,72.266,-19.531,10.254,147.461,32.227,0
14055.315,-26.367,-25.879,14.648,3.906,17.578,0
14055.319,45.410,-20.020,-1.953,89.844,57.617,0
14055.323,154.785,-12.695,-10.742,249.512,54.688,0
14055.327,104.980,-16.602,1.953,194.336,-18.555,0
14055.330,-7.812,-20.996,14.160,20.508,-64.453,0
14055.334,21.973,-18.066,3.418,48.340,33.691,0
14055.338,134.277,-15.625,-8.789,229.492,30.273,0
14055.342,128.906,-12.207,-3.418,234.375,-41.504,0
14055.346,12.695,-16.113,10.254,61.523,-0.977,0
14055.350,-11.230,-13.672,6.836,12.695,23.926,0
14055.354,125.488,-7.324,-5.859,185.059,21.484,0
14055.358,177.246,-12.207,-1.465,267.578,-26.367,0
14055.362,41.992,-10.742,8.789,98.633,-14.648,0
14055.366,-39.062,-17.090,13.184,-12.695,32.715,0
14055.369,57.617,-15.137,2.441,118.164,4.883,0
14055.373,149.414,-8.789,0.000,244.629,-2.441,0
14055.377,73.730,-12.207,7.812,144.531,7.812,0
14055.381,-44.434,-15.137,10.254,-16.113,29.297,0
14055.385,12.207,-18.066,4.883,66.406,33.691,0
14055.389,127.930,-10.742,-7.812,233.398,20.020,0
14055.393,100.586,-14.160,-0.977,188.477,33.691,0
14055.397,-10.742,-28.809,19.043,35.645,41.992,0
14055.401,-0.488,-19.043,11.230,26.855,42.480,0
14055.405,122.070,-8.789,-5.371,185.547,35.156,0
14055.409,134.766,-11.230,-8.789,225.586,22.461,0
14055.412,14.648,-20.996,3.906,63.965,0.488,0
14055.416,-20.020,-26.855,5.371,2.441,-11.719,0
14055.420,101.562,-17.578,-9.766,151.855,6.348,0
14055.424,150.391,-12.695,-9.277,247.070,1.465,0
14055.428,36.133,-22.949,1.465,122.070,-3.906,0
14055.432,-28.809,-30.273,5.859,1.953,-10.254,0
14055.436,78.613,-26.367,-0.488,97.656,-19.531,0
14055.440,168.945,-18.555,-12.207,225.586,10.742,0
14055.444,84.473,-12.695,-9.277,133.301,29.785,0
14055.448,-26.367,-14.160,4.883,-24.414,86.426,0
14055.452,40.527,-11.719,4.395,45.410,75.195,0
14055.455,166.016,-8.789,-10.254,219.727,48.340,0
14055.459,127.930,-13.672,-5.371,203.125,-8.789,0
14055.463,-1.465,-19.043,8.789,31.250,-35.645,0
14055.467,-0.488,-19.043,2.930,22.461,20.996,0
14055.471,131.836,-15.137,-7.812,198.242,-8.789,0
14055.475,158.691,-16.113,-6.836,243.652,-11.719,0
14055.479,36.133,-28.809,5.371,92.773,-42.480,0
14055.483,-11.230,-27.344,11.230,3.906,-32.715,0
14055.487,104.004,-16.602,-1.465,140.137,16.113,0
14055.491,169.922,-11.719,-10.254,250.000,48.828,0
14055.494,86.914,-23.438,11.230,135.742,46.875,0
14055.498,3.418,-28.809,21.973,5.371,11.719,0
14055.502,58.594,-11.719,-1.465,94.727,40.039,0
14055.506,161.621,-6.836,-5.371,247.070,67.383,0
14055.510,107.910,-14.648,5.859,176.270,52.246,0
14055.514,-1.465,-26.367,10.742,11.230,-0.977,0
14055.518,40.039,-22.949,3.906,39.551,31.250,0
14055.522,165.527,-14.648,-4.883,207.031,25.391,0
14055.526,149.414,-21.973,2.441,220.215,-31.738,0
14055.530,12.695,-27.344,13.184,52.246,-44.922,0
14055.534,8.789,-25.879,11.230,15.625,-11.719,0
14055.537,138.672,-18.066,-0.488,185.547,-5.371,0
14055.541,159.668,-6.836,-4.883,242.188,18.066,0
14055.545,41.504,-12.695,6.348,86.426,41.992,0
14055.549,-17.090,-16.113,10.254,-13.672,39.551,0
14055.553,91.797,-11.719,0.977,124.023,60.059,0
14055.557,164.062,-8.301,-6.348,250.000,39.551,0
14055.561,64.453,-11.230,1.953,132.324,-3.906,0
14055.565,-26.855,-19.043,9.766,-10.742,16.602,0
14055.569,55.176,-14.648,-0.488,76.660,52.246,0
14055.573,177.734,-9.766,-6.836,238.770,-2.930,0
14055.577,124.512,-21.973,4.883,197.754,-37.109,2
14055.580,-21.484,-26.367,9.277,21.973,-18.555,0
14055.584,0.977,-17.578,-0.977,30.762,23.926,0
14055.588,139.160,-12.695,-6.348,192.383,8.301,0
14055.592,144.531,-13.672,-2.441,208.008,-23.926,0
14055.596,20.996,-20.020,7.812,44.922,26.855,0
14055.600,-8.301,-19.531,4.883,-10.742,39.551,0
14055.604,108.398,-11.719,-9.277,139.648,52.734,0
14055.608,147.949,-5.859,-8.301,217.285,83.984,0
14055.612,50.293,-13.184,7.324,96.191,-14.160,0
14055.616,-7.324,-18.066,12.695,-11.719,-42.969,0
14055.619,95.703,-9.277,-0.977,100.098,29.785,0
14055.623,173.828,-3.906,-7.812,225.586,38.086,0
14055.627,73.730,-12.695,3.418,134.277,1.465,0
14055.631,-38.574,-16.602,9.766,-18.066,-25.391,0
14055.635,38.574,-19.043,8.301,51.758,23.926,0
14055.639,163.086,-16.113,-1.465,221.191,51.270,0
14055.643,125.977,-11.719,-2.441,173.340,-41.504,0
14055.647,9.766,-19.531,10.742,-0.488,5.371,0
14055.651,24.902,-13.184,5.859,9.766,93.262,0
14055.655,147.461,-7.324,-1.465,182.129,50.293,0
14055.659,150.391,-8.301,0.977,210.938,3.906,0
14055.662,25.879,-10.742,11.230,48.828,-22.949,0
14055.666,-9.277,-15.137,12.207,-14.160,-5.371,0
14055.670,94.727,-7.812,-2.441,136.230,51.758,0
14055.674,161.621,-9.277,-3.418,228.027,47.363,0
14055.678,61.523,-16.602,6.348,88.867,29.785,0
14055.682,-37.109,-15.137,5.859,-48.828,69.336,0
14055.686,55.664,-11.230,-2.930,67.871,21.973,0
14055.690,149.902,-3.418,-4.395,208.496,-26.855,0
14055.694,83.984,-12.695,8.301,140.625,6.348,0
14055.698,-25.391,-19.043,8.789,-26.367,17.090,0
14055.702,21.484,-12.695,-4.395,3.418,-19.531,0
14055.705,137.207,-4.395,-10.742,182.617,-6.348,0
14055.709,116.699,-4.883,-3.906,172.852,-17.090,0
14055.713,-1.465,-17.578,7.324,6.836,-3.906,0
14055.717,2.930,-23.926,5.371,-15.625,32.715,0
14055.721,123.535,-5.371,-13.184,135.742,15.137,0
14055.725,137.207,-0.488,-11.719,189.453,10.742,0
14055.729,18.555,-11.230,2.930,40.039,60.059,0
14055.733,-20.996,-15.137,5.371,-36.621,41.992,0
14055.737,88.867,-10.742,-4.395,112.305,20.996,0
14055.741,150.391,-7.324,-7.812,215.332,34.180,0
14055.744,53.223,-10.742,5.371,96.680,30.762,0
14055.748,-28.320,-17.578,9.277,-29.785,37.598,0
14055.752,53.223,-18.066,0.488,63.477,-17.090,0
14055.756,151.855,-9.277,-8.789,203.125,0.488,0
14055.760,101.074,-10.254,-2.930,153.809,46.875,0
14055.764,-18.555,-14.648,3.906,-6.836,49.805,0
14055.768,6.836,-12.695,0.000,10.254,59.570,0
14055.772,141.602,-7.324,-7.812,178.223,39.062,0
14055.776,148.438,-15.625,-3.418,181.152,44.922,0
14055.780,19.531,-22.461,8.301,16.602,46.387,0
14055.784,-14.160,-13.672,0.488,-26.855,-1.465,0
14055.787,107.910,-8.301,-15.625,145.020,-4.883,0
14055.791,156.250,-4.883,-15.137,221.680,0.000,0
14055.795,44.922,-16.113,-0.488,68.848,-21.484,0
14055.799,-22.461,-18.066,2.441,-22.461,-1.953,0
14055.803,80.566,-9.277,-9.766,114.746,-9.277,0
14055.807,159.180,-10.254,-14.160,239.258,-4.395,0
14055.811,76.172,-13.184,0.488,125.977,7.324,0
14055.815,-14.648,-24.414,14.160,-22.949,14.648,0
14055.819,56.152,-21.484,7.812,55.176,20.996,0
14055.823,160.645,-1.465,-6.836,200.195,-4.883,0
14055.827,116.699,-3.418,3.906,158.691,-57.617,0
14055.830,-1.953,-14.648,14.648,-7.812,-71.777,0
14055.834,21.484,-15.625,6.836,15.137,-65.430,0
14055.838,144.043,-8.301,-5.371,185.547,-51.270,0
14055.842,141.113,-6.348,-0.488,197.754,7.324,0
14055.846,17.090,-10.742,10.742,33.691,35.156,0
14055.850,-4.395,-12.695,7.812,-20.020,20.020,0
14055.854,112.793,-12.207,-3.418,151.855,28.320,0
14055.858,158.691,-9.766,-5.371,234.375,39.551,0
14055.862,42.480,-7.324,2.930,77.148,-6.836,0
14055.866,-30.762,-15.137,5.859,-35.645,23.438,0
14055.869,80.566,-10.742,-3.906,75.195,24.414,0
14055.873,170.410,-10.254,-10.254,203.613,-5.859,0
14055.877,83.008,-17.578,1.465,119.141,-16.602,0
14055.881,-29.785,-18.066,9.277,-34.668,-28.320,0
14055.885,33.203,-12.207,-0.977,29.297,16.113,0
14055.889,148.438,-4.883,-12.207,195.312,56.641,0
14055.893,122.559,-10.742,-2.441,173.340,7.812,0
14055.897,10.254,-18.555,11.719,6.836,9.277,0
14055.901,9.277,-17.090,3.906,11.230,90.820,0
14055.905,126.953,-12.207,-6.836,172.363,40.039,0
14055.909,140.625,-8.789,-3.418,190.430,-31.738,0
14055.912,11.719,-14.160,6.348,28.809,-25.879,0
14055.916,-14.160,-23.438,15.625,-24.902,-22.461,0
14055.920,103.027,-11.230,3.906,125.977,20.020,0
14055.924,147.461,-3.418,-4.883,210.449,1.953,0
14055.928,55.664,-16.602,5.859,80.078,-10.742,0
14055.932,-22.949,-21.973,9.766,-39.551,-3.906,0
14055.936,57.617,-15.137,6.348,73.242,-45.410,0
14055.940,147.949,-7.812,-0.977,211.914,-20.508,0
14055.944,91.309,-12.695,3.418,141.113,33.691,0
14055.948,-9.277,-23.926,13.184,-19.531,7.324,0
14055.952,24.902,-20.020,2.930,15.137,6.836,0
14055.955,149.902,-16.113,-3.906,191.406,12.695,0
14055.959,137.695,-15.625,4.395,184.570,22.461,0
14055.963,-4.883,-17.090,6.836,2.441,20.996,0
14055.967,-21.973,-20.020,5.859,-15.625,34.668,0
14055.971,108.398,-14.160,-4.883,151.367,27.832,0
14055.975,146.484,-13.184,-3.906,200.195,-3.418,0
14055.979,33.691,-17.578,8.789,40.527,5.371,0
14055.983,-27.344,-20.996,9.277,-43.945,-20.020,0
14055.987,76.172,-14.648,2.441,103.027,-16.113,0
14055.991,148.926,-5.371,-0.488,216.797,11.719,0
14055.994,67.871,-18.555,11.230,124.512,3.906,0
14055.998,-25.391,-24.414,17.578,-16.113,56.641,0
14056.002,51.270,-5.859,2.930,61.523,32.715,0
14056.006,163.086,2.441,-3.418,204.590,-21.973,0
14056.010,101.562,-5.859,2.930,133.301,-2.930,0
14056.014,-14.648,-18.555,14.648,-24.902,-36.133,0
14056.018,19.043,-17.578,4.395,3.418,32.227,0
14056.022,135.254,-10.742,-8.789,173.828,32.227,0
14056.026,122.559,-10.742,-6.836,180.176,-19.043,0
14056.030,0.000,-15.625,6.348,7.324,22.461,0
14056.034,-18.555,-18.555,7.324,-27.344,39.062,0
14056.037,106.934,-13.672,-10.254,137.695,55.176,0
14056.041,151.367,-14.160,-11.230,194.824,35.156,0
14056.045,33.691,-20.996,6.836,44.434,5.859,0
14056.049,-36.621,-19.043,8.301,-52.734,33.203,0
14056.053,81.055,-14.160,2.930,78.125,-3.418,0
14056.057,164.551,-15.137,2.930,212.891,-7.324,0
14056.061,68.848,-14.648,-0.488,105.957,-9.277,0
14056.065,-33.203,-18.066,5.371,-47.852,-43.945,0
14056.069,36.621,-13.672,1.953,36.621,-2.930,0
14056.073,154.297,-8.301,-4.395,191.895,36.621,0
14056.077,119.629,-14.160,3.418,164.062,20.508,0
14056.080,-5.859,-13.184,8.301,-2.930,16.602,0
14056.084,8.301,-9.277,2.930,-6.348,54.688,0
14056.088,136.230,-7.812,-7.812,174.316,43.457,0
14056.092,135.254,-5.859,-8.789,194.824,19.043,0
14056.096,20.996,-18.555,8.789,37.109,8.301,0
14056.100,-15.625,-21.484,12.695,-26.367,23.926,0
14056.104,96.191,-9.277,-2.441,122.559,31.738,0
14056.108,160.156,-7.812,0.000,222.168,-25.879,0
14056.112,52.734,-14.160,12.207,84.961,-9.766,0
14056.116,-10.742,-18.555,11.719,-28.320,5.371,0
14056.119,90.820,-10.742,-1.953,85.449,-14.648,0
14056.123,180.664,-5.859,-6.348,209.961,-18.066,0
14056.127,96.191,-14.160,4.883,119.629,-52.734,0
14056.131,-28.320,-23.438,12.695,-33.203,-25.391,0
14056.135,30.762,-26.367,6.348,28.320,30.273,0
14056.139,145.508,-20.020,-7.324,180.664,3.906,0
14056.143,104.004,-14.648,-3.906,151.367,7.324,0
14056.147,-16.113,-20.508,8.789,-15.625,46.875,0
14056.151,-8.301,-21.973,4.883,-20.020,32.227,0
14056.155,125.488,-20.996,-4.395,160.156,21.484,0
14056.159,137.207,-16.602,-6.836,190.918,30.762,0
14056.162,8.301,-16.602,2.930,31.250,39.062,0
14056.166,-23.926,-20.508,5.371,-39.062,37.598,0
14056.170,91.309,-14.160,-6.836,115.723,21.484,0
14056.174,158.203,-11.719,-5.859,219.238,44.434,0
14056.178,63.965,-19.043,3.906,89.844,29.297,0
14056.182,-16.113,-23.438,7.812,-27.832,20.508,0
14056.186,77.148,-18.555,-0.488,77.637,52.246,0
14056.190,175.781,-7.812,-10.742,213.867,55.176,0
14056.194,122.070,-16.602,2.441,151.367,30.273,0
14056.198,18.066,-30.273,13.184,-0.488,-23.438,0
14056.202,52.734,-14.648,-2.930,29.785,21.484,0
14056.205,166.016,-6.348,-11.230,195.801,74.219,0
14056.209,141.602,-11.719,-3.906,187.988,39.062,0
14056.213,15.137,-21.973,11.230,21.973,-3.906,0
14056.217,2.441,-23.926,9.277,-4.395,-11.719,0
14056.221,119.141,-12.207,-4.883,150.879,24.414,0
14056.225,153.809,-11.719,-2.441,204.590,5.859,0
14056.229,39.551,-24.902,7.324,61.035,-2.441,0
14056.233,-11.230,-27.832,8.301,-29.297,9.277,0
14056.237,108.887,-25.879,1.953,117.676,-10.742,0
14056.241,160.156,-20.020,-8.301,226.562,-4.883,0
14056.244,47.852,-21.484,-1.953,104.004,10.254,0
14056.248,-32.715,-26.367,6.836,-28.320,33.691,1
14056.252,62.988,-19.043,-2.441,61.035,17.090,0
14056.256,155.762,-16.113,-9.766,207.520,-11.719,0
14056.260,79.590,-19.043,-2.930,147.949,-22.461,0
14056.264,-33.203,-24.902,7.324,-12.207,-46.387,0
14056.268,18.066,-23.438,1.465,11.719,-19.531,0
14056.272,150.879,-13.672,-11.719,174.805,14.648,0
14056.276,151.855,-21.973,-6.348,186.523,39.551,0
14056.280,22.461,-29.297,2.930,16.113,-2.930,0
14056.284,-2.441,-20.996,0.977,-22.461,-13.184,0
14056.287,128.418,-13.672,-5.859,144.043,12.207,0
14056.291,171.387,-9.766,-4.883,214.844,-17.578,0
14056.295,55.176,-17.090,10.742,74.219,-42.969,0
14056.299,-4.883,-20.996,12.695,-27.344,29.785,0
14056.303,103.027,-16.113,-1.465,98.145,22.949,0
14056.307,183.594,-11.230,-5.371,208.496,-10.254,0
14056.311,102.539,-15.137,3.906,113.770,-14.648,0
14056.315,-0.977,-23.438,11.230,-35.156,14.648,0
14056.319,60.059,-20.020,4.883,29.785,25.879,0
14056.323,167.969,-13.672,-5.371,195.801,6.836,0
14056.327,118.652,-19.531,-1.953,157.227,-5.371,0
14056.330,-8.301,-25.391,6.348,-12.695,-31.250,0
14056.334,23.438,-27.344,0.000,0.488,28.320,0
14056.338,145.996,-27.344,-11.230,174.805,48.828,0
14056.342,128.906,-19.043,-14.648,189.453,27.832,0
14056.346,9.277,-22.949,-0.977,20.020,28.320,0
14056.350,-13.184,-27.832,-0.488,-42.480,18.066,0
14056.354,109.375,-26.855,-10.742,116.699,-1.465,0
14056.358,159.180,-22.949,-11.719,194.824,-10.254,0
14056.362,50.293,-24.414,-2.441,54.199,-26.855,0
14056.366,-19.531,-31.738,2.930,-47.852,20.020,0
14056.369,68.848,-26.855,-7.324,66.406,83.008,0
14056.373,158.691,-21.484,-13.184,189.453,65.918,0
14056.377,82.520,-30.273,-2.930,106.934,2.930,0
14056.381,-38.086,-31.738,0.488,-53.223,13.184,0
14056.385,20.996,-21.973,-11.719,-2.930,24.902,0
14056.389,146.484,-17.578,-18.555,161.621,0.977,0
14056.393,123.535,-22.949,-6.348,144.531,-4.395,0
14056.397,-15.625,-29.785,7.324,-12.695,40.527,0
14056.401,-15.625,-26.855,0.488,-25.391,22.461,0
14056.405,119.629,-17.578,-12.207,144.043,58.594,0
14056.409,144.531,-16.113,-10.254,182.617,59.082,0
14056.412,29.785,-27.344,4.883,24.414,15.625,0
14056.416,-11.719,-31.250,10.254,-40.527,9.766,0
14056.420,103.027,-19.043,-5.371,106.934,44.434,0
14056.424,151.367,-20.508,-9.766,207.031,20.020,0
14056.428,37.598,-28.809,0.977,83.008,4.883,0
14056.432,-38.574,-31.250,4.395,-45.410,8.789,0
14056.436,67.871,-33.203,0.000,61.523,-28.320,0
14056.440,164.062,-20.020,-9.277,197.754,17.578,0
14056.444,87.891,-16.602,-3.906,120.605,38.086,0
14056.448,-21.973,-29.785,8.789,-38.086,-32.715,0
14056.452,20.020,-24.414,-4.395,4.395,13.184,0
14056.455,142.578,-15.625,-16.113,178.223,52.734,0
14056.459,122.559,-15.625,-9.277,168.457,-11.230,0
14056.463,-1.953,-24.902,2.930,3.906,-41.992,0
14056.467,-8.301,-25.879,-0.488,-21.484,24.414,0
14056.471,106.934,-11.719,-14.160,139.160,31.250,0
14056.475,149.414,-13.672,-4.395,208.496,-31.250,0
14056.479,30.762,-23.926,9.277,59.570,13.672,0
14056.483,-39.551,-16.602,2.441,-47.363,40.039,0
14056.487,88.867,-13.184,-6.348,88.867,21.973,0
14056.491,149.902,-12.695,-10.254,216.309,0.488,0
14056.494,33.691,-20.508,1.465,103.516,-7.812,0
14056.498,-43.945,-28.809,7.324,-41.504,-33.691,0
14056.502,43.457,-21.484,-5.859,43.457,-31.738,0
14056.506,146.973,-14.648,-12.207,185.547,59.570,0
14056.510,98.633,-21.973,-4.883,131.836,61.035,0
14056.514,-4.883,-32.715,7.324,-15.625,-69.824,0
14056.518,8.301,-26.367,2.441,7.812,-42.969,0
14056.522,112.793,-11.719,-14.648,164.551,44.434,0
14056.526,121.094,-11.719,-13.184,164.551,52.246,0
14056.530,-4.395,-16.602,1.465,3.418,42.969,0
14056.534,-25.391,-19.531,5.371,-25.879,3.418,0
14056.537,101.562,-13.672,-4.395,127.441,34.180,0
14056.541,142.578,-7.324,-7.324,193.359,62.500,0
14056.545,39.551,-18.555,3.418,48.828,10.254,0
14056.549,-32.227,-22.949,7.812,-53.711,-2.441,0
14056.553,57.617,-14.160,0.000,81.543,20.020,0
14056.557,150.391,-12.695,-5.371,206.543,6.348,0
14056.561,70.801,-18.066,0.977,102.539,12.695,0
14056.565,-28.320,-21.484,9.766,-44.922,43.457,0
14056.569,45.898,-17.090,-0.977,28.809,24.902,0
14056.573,155.273,-12.695,-8.789,191.406,58.594,0
14056.577,111.816,-23.438,4.395,161.621,56.152,0
14056.580,-14.160,-26.367,12.695,-9.766,-10.254,0
14056.584,0.488,-14.648,3.906,-8.789,31.250,0
14056.588,133.301,-8.789,-3.906,163.574,73.730,0
14056.592,145.996,-14.648,-0.488,193.359,33.691,0
14056.596,32.715,-20.996,9.766,36.133,-0.488,0
14056.600,-13.672,-18.066,9.277,-15.625,6.836,0
14056.604,96.680,-13.184,-2.441,136.230,23.438,0
14056.608,151.367,-7.812,0.488,216.309,9.277,0
14056.612,50.781,-7.812,8.789,83.984,35.645,0
14056.616,-15.625,-20.020,16.113,-33.691,81.543,0
14056.619,65.918,-20.020,7.324,69.336,24.902,0
14056.623,145.020,-0.488,0.977,194.824,8.301,0
14056.627,79.102,-0.488,16.602,108.887,26.367,0
14056.631,-24.414,-11.230,24.414,-51.270,2.930,0
14056.635,23.438,-4.395,18.555,-1.953,10.254,0
14056.639,126.465,5.859,14.648,153.320,14.648,0
14056.643,86.426,6.348,26.367,128.906,10.254,0
14056.647,-49.805,-0.488,45.898,-41.016,2.930,0
14056.651,-50.293,0.000,52.246,-68.359,8.301,0
14056.655,65.918,6.348,51.758,92.773,64.941,0
14056.659,71.289,5.371,61.523,131.348,48.340,0
14056.662,-56.152,-2.930,71.777,-45.410,-52.246,0
14056.666,-106.934,-9.277,77.148,-125.488,-20.996,0
14056.670,1.465,0.977,68.359,8.301,22.461,0
14056.674,63.965,2.441,66.895,109.863,-15.625,0
14056.678,-45.898,-3.418,79.102,-7.324,-25.391,0
14056.682,-129.883,-1.465,79.102,-142.578,-33.203,0
14056.686,-38.574,3.418,63.965,-44.434,41.992,0
14056.690,56.641,3.418,55.176,98.145,45.898,0
14056.694,-3.418,-6.348,60.059,36.621,34.180,0
14056.698,-101.562,-21.973,67.871,-112.793,15.137,0
14056.702,-56.641,-17.578,55.176,-74.219,1.465,0
14056.705,64.941,-3.418,37.598,104.492,23.438,0
14056.709,65.430,-4.395,33.203,110.352,1.465,0
14056.713,-45.898,-14.648,31.250,-47.363,2.930,0
14056.717,-23.926,-20.508,26.367,-55.664,13.184,0
14056.721,100.586,-8.301,6.348,108.887,3.906,0
14056.725,110.352,-6.348,0.488,173.340,43.945,0
14056.729,7.324,-17.090,8.789,37.598,67.871,0
14056.733,-25.879,-21.973,4.883,-34.180,18.555,0
14056.737,84.961,-19.043,-10.742,105.469,38.574,0
14056.741,160.645,-18.066,-20.020,215.820,40.039,0
14056.744,88.379,-26.367,-8.789,124.023,-5.371,0
14056.748,-2.930,-29.297,-5.371,-9.766,8.301,0
14056.752,68.359,-19.531,-20.508,76.172,46.875,0
14056.756,185.059,-19.531,-22.949,237.793,45.410,0
14056.760,134.277,-26.367,-22.949,177.734,-26.855,0
14056.764,9.766,-25.391,-21.973,5.371,-51.758,0
14056.768,42.969,-23.438,-25.391,32.715,3.418,0
14056.772,166.992,-20.020,-41.016,206.543,-37.598,0
14056.776,157.227,-20.508,-41.016,213.379,1.465,0
14056.780,38.086,-27.832,-29.297,43.945,72.266,0
14056.784,21.484,-30.762,-26.855,1.465,55.176,0
14056.787,125.000,-22.949,-36.621,158.203,37.109,0
14056.791,170.410,-20.508,-39.062,229.492,-0.977,0
14056.795,74.707,-35.156,-21.973,96.191,-14.160,0
14056.799,8.789,-38.086,-18.555,-5.371,-29.785,0
14056.803,103.516,-24.902,-39.062,108.887,-28.320,0
14056.807,186.035,-20.996,-42.969,234.863,31.738,0
14056.811,109.863,-27.832,-30.762,138.672,18.066,0
14056.815,2.441,-35.645,-20.020,-10.742,15.137,0
14056.819,61.523,-28.320,-23.438,60.547,29.297,0
14056.823,162.598,-19.043,-31.250,223.633,49.805,0
14056.827,134.277,-24.414,-28.320,190.430,50.293,0
14056.830,24.414,-29.785,-17.578,16.602,-19.043,0
14056.834,21.484,-28.320,-20.020,17.090,-38.086,0
14056.838,142.578,-23.438,-33.203,182.129,52.734,0
14056.842,165.039,-21.973,-33.203,208.008,56.152,0
14056.846,51.758,-27.344,-20.020,52.246,15.625,0
14056.850,27.832,-24.414,-20.020,-13.184,-7.812,0
14056.854,147.461,-17.090,-28.320,143.555,44.922,0
14056.858,183.594,-20.996,-23.926,238.770,62.500,0
14056.862,66.406,-19.043,-14.160,97.656,79.102,0
14056.866,1.465,-21.973,-10.742,-21.484,56.152,0
14056.869,101.562,-16.113,-17.090,91.309,24.414,0
14056.873,189.941,-11.719,-19.531,239.746,13.184,0
14056.877,117.188,-20.020,-14.648,154.785,-12.695,0
14056.881,-1.953,-21.973,-11.719,-20.020,-18.555,0
14056.885,50.781,-20.508,-14.648,34.180,-11.719,0
14056.889,166.504,-10.742,-22.949,196.777,25.391,0
14056.893,133.301,-10.254,-15.625,174.805,26.855,0
14056.897,9.766,-23.438,-5.371,11.719,0.488,0
14056.901,5.859,-21.973,-13.184,-9.766,2.930,2
14056.905,141.602,-10.742,-21.973,149.902,44.434,0
14056.909,157.715,-8.789,-21.484,197.266,11.230,0
14056.912,39.062,-14.160,-9.766,41.992,35.156,0
14056.916,7.324,-22.461,2.441,-28.320,72.266,0
14056.920,115.723,-11.719,-11.719,112.305,0.977,0
14056.924,154.785,-0.488,-19.043,204.590,-9.277,0
14056.928,47.852,-13.184,-4.883,82.031,-11.230,0
14056.932,-21.973,-20.508,1.465,-48.340,19.043,0
14056.936,66.895,-17.578,-7.324,57.617,27.832,0
14056.940,164.062,-5.859,-16.602,198.730,32.227,0
14056.944,101.074,-6.348,-4.395,130.371,7.324,0
14056.948,-7.324,-13.672,4.395,-26.855,-10.254,0
14056.952,31.738,-6.836,-9.766,4.883,45.898,0
14056.955,149.902,-5.859,-11.719,178.223,50.781,0
14056.959,135.742,-8.301,-4.395,173.340,35.645,0
14056.963,14.648,-14.160,-0.488,15.625,-4.395,0
14056.967,9.766,-17.090,-4.883,-7.812,-21.973,0
14056.971,137.695,-9.277,-13.184,153.320,32.715,0
14056.975,165.039,-8.301,-12.207,213.867,86.914,0
14056.979,45.410,-20.508,-3.418,58.105,37.109,0
14056.983,-10.254,-22.949,-1.465,-37.109,-47.852,0
14056.987,93.750,-11.719,-10.254,91.797,-17.578,0
14056.991,160.156,-1.465,-13.672,208.008,6.836,0
14056.994,73.242,-16.602,-0.488,114.746,-33.691,0
14056.998,-16.113,-25.879,6.836,-25.391,-35.156,0
14057.002,51.270,-7.812,-10.742,50.781,21.973,0
14057.006,157.715,-1.465,-15.137,191.895,39.062,0
14057.010,111.816,-7.812,-2.441,133.301,31.250,0
14057.014,-4.395,-16.113,5.371,-12.695,-4.883,0
14057.018,23.926,-12.695,0.488,9.277,-62.988,0
14057.022,134.277,-2.441,-12.695,167.969,-12.695,0
14057.026,139.648,-3.418,-2.930,188.477,43.945,0
14057.030,35.156,-12.207,10.742,22.949,-9.277,0
14057.034,4.395,-15.625,7.324,-30.273,4.395,0
14057.037,124.512,-5.859,-4.883,135.254,16.113,0
14057.041,169.922,1.953,-8.789,211.426,2.441,0
14057.045,60.547,-7.812,5.859,70.801,0.488,0
14057.049,-13.672,-15.137,6.348,-35.156,-6.348,0
14057.053,80.566,-13.672,-2.930,92.773,38.086,0
14057.057,161.133,-17.578,-5.859,223.145,32.227,0
14057.061,79.102,-16.113,-3.906,122.559,6.836,0
14057.065,-27.832,-19.043,0.977,-40.039,-13.672,0
14057.069,34.668,-22.461,-5.371,20.996,0.977,0
14057.073,150.879,-20.020,-11.230,188.965,27.832,0
14057.077,116.699,-26.855,-0.977,167.969,-12.695,0
14057.080,-8.789,-32.227,1.953,-16.113,27.344,0
14057.084,3.906,-28.320,-2.441,-27.344,67.871,0
14057.088,131.348,-19.043,-9.277,154.297,61.035,0
14057.092,139.160,-22.949,-9.766,187.988,12.207,0
14057.096,23.438,-31.738,1.953,27.832,18.066,0
14057.100,-13.672,-30.273,2.441,-35.156,32.715,0
14057.104,97.168,-22.949,-10.254,116.211,-37.109,0
14057.108,152.344,-15.137,-12.207,208.496,-12.207,0
14057.112,52.734,-20.996,-0.977,80.566,62.012,0
14057.116,-34.180,-29.785,3.906,-45.410,39.062,0
14057.119,52.734,-25.879,-5.371,63.477,24.902,0
14057.123,156.250,-17.578,-12.695,204.590,49.316,0
14057.127,78.613,-20.020,-7.812,123.047,52.246,0
14057.131,-40.527,-27.832,0.977,-36.133,65.918,0
14057.135,18.066,-30.762,-1.953,12.695,70.801,0
14057.139,145.020,-25.879,-14.648,173.340,22.949,0
14057.143,105.469,-18.066,-10.742,158.203,-43.945,0
14057.147,-34.180,-22.461,5.371,-2.441,6.836,0
14057.151,-30.273,-21.484,1.953,-23.438,69.824,0
14057.155,117.188,-19.531,-6.348,142.578,79.590,0
14057.159,149.414,-20.996,-8.301,189.453,68.848,0
14057.162,30.273,-19.531,-2.441,31.738,-0.977,0
14057.166,-22.949,-23.438,1.953,-48.340,-4.883,0
14057.170,72.754,-11.719,-12.207,89.844,49.316,0
14057.174,146.484,-11.230,-10.742,202.148,-5.371,0
14057.178,63.965,-21.973,6.348,92.773,-61.035,0
14057.182,-25.391,-16.113,2.930,-45.410,-3.418,0
14057.186,53.223,-14.648,-5.371,50.781,41.504,0
14057.190,161.133,-11.230,-9.277,204.102,-28.320,0
14057.194,100.098,-11.719,-0.488,134.277,4.395,0
14057.198,-24.414,-20.996,9.277,-35.645,22.461,0
14057.202,15.625,-17.090,-0.977,0.000,-0.488,0
14057.205,130.859,-14.648,-11.230,174.316,-10.742,0
14057.209,117.676,-15.625,-6.836,172.852,-17.090,0
14057.213,2.930,-24.414,6.836,5.859,-26.855,0
14057.217,-2.930,-32.227,5.859,-23.926,-13.184,0
14057.221,109.863,-18.066,-12.207,131.348,34.668,0
14057.225,143.555,-7.812,-14.160,192.871,13.672,0
14057.229,36.133,-14.648,-0.977,32.715,18.066,0
14057.233,-21.973,-19.043,3.906,-64.453,31.250,0
14057.237,80.566,-11.719,-6.836,88.379,13.672,0
14057.241,153.320,-2.930,-13.184,213.867,-25.391,0
14057.244,62.988,-10.254,1.465,102.051,-6.836,0
14057.248,-20.020,-20.020,5.859,-52.246,-15.625,0
14057.252,50.781,-13.672,-1.953,34.668,-27.832,0
14057.256,147.461,-7.324,-5.371,195.312,-12.695,0
14057.260,102.539,-11.230,-0.488,142.578,7.324,0
14057.264,-10.254,-16.602,3.906,-23.926,12.207,0
14057.268,9.277,-10.254,-1.953,-20.508,4.395,0
14057.272,126.465,-3.418,-10.742,145.508,24.414,0
14057.276,132.812,-12.207,-1.953,174.316,53.223,0
14057.280,8.301,-16.113,6.836,10.742,-0.977,0
14057.284,-31.738,-6.836,-2.930,-44.922,18.555,0
14057.287,83.496,-3.418,-11.230,117.188,58.594,0
14057.291,132.324,0.000,-10.254,197.266,65.430,0
14057.295,36.133,-7.324,3.906,67.383,60.547,0
14057.299,-36.133,-14.648,5.859,-45.898,6.836,0
14057.303,61.035,-8.301,-5.859,71.777,12.695,0
14057.307,160.645,-6.836,-9.277,203.125,-15.625,0
14057.311,83.008,-9.277,-2.930,110.840,-20.020,0
14057.315,-19.043,-18.555,8.789,-27.832,-0.488,0
14057.319,34.180,-13.184,2.930,33.203,-13.184,0
14057.323,132.812,6.348,-10.742,174.316,16.113,0
14057.327,103.516,2.930,-1.953,146.484,22.461,0
14057.330,-12.207,-5.859,8.301,-5.371,4.883,0
14057.334,3.906,-6.836,7.812,-5.859,43.945,0
14057.338,113.770,0.488,-1.953,161.133,62.012,0
14057.342,115.723,1.465,-1.953,186.035,14.648,0
14057.346,0.488,-11.230,10.254,21.973,-5.371,0
14057.350,-37.598,-14.160,5.859,-39.551,-16.602,0
14057.354,94.238,-9.766,-3.906,115.723,-9.277,0
14057.358,147.461,-6.348,-0.977,195.801,45.898,0
14057.362,32.227,-8.789,3.418,53.223,21.484,0
14057.366,-39.551,-11.719,8.789,-64.941,-2.930,0
14057.369,35.645,-2.441,0.000,41.992,35.645,0
14057.373,137.695,-5.371,-4.395,189.941,1.465,0
14057.377,84.961,-8.301,5.859,115.234,-25.391,0
14057.381,-31.250,-6.836,9.277,-51.758,38.086,0
14057.385,27.344,-7.812,2.441,-1.465,23.438,0
14057.389,133.301,-4.883,-2.930,170.410,-21.484,0
14057.393,98.633,-5.859,5.371,161.133,-30.762,0
14057.397,-12.207,-14.160,13.184,-7.812,-11.230,0
14057.401,-4.395,-16.602,2.930,-24.414,47.852,0
14057.405,117.188,-5.371,-8.301,145.020,11.230,0
14057.409,126.465,-2.441,-4.395,174.805,8.789,0
14057.412,7.812,-12.207,11.719,22.461,20.508,0
14057.416,-30.762,-19.043,20.508,-41.992,63.965,0
14057.420,81.055,-7.324,1.465,94.238,105.957,0
14057.424,146.973,5.859,-3.418,195.312,48.828,0
14057.428,59.082,-6.836,11.719,84.473,-13.672,0
14057.432,-36.621,-15.625,12.207,-47.852,-7.324,0
14057.436,49.316,-11.230,1.465,47.852,-12.695,0
14057.440,145.020,-6.348,-8.789,191.895,-9.277,0
14057.444,79.102,-10.742,-1.465,130.859,7.812,0
14057.448,-22.461,-20.508,7.812,-31.250,15.625,0
14057.452,20.996,-11.230,-0.488,-3.906,28.809,0
14057.455,151.855,-9.277,-5.859,168.457,-41.016,0
14057.459,125.977,-9.766,-0.977,164.551,-17.090,0
14057.463,-17.090,-8.789,2.441,-5.859,23.438,0
14057.467,-32.227,-13.672,0.977,-34.180,18.066,0
14057.471,95.703,-6.836,-10.742,116.211,29.785,0
14057.475,144.531,-9.766,-5.859,182.129,15.625,0
14057.479,34.180,-13.184,6.348,48.828,7.324,0
14057.483,-26.855,-9.277,3.906,-53.223,27.832,0
14057.487,79.590,-5.371,-4.883,81.055,11.230,0
14057.491,143.066,-1.465,-8.301,193.848,-8.301,0
14057.494,59.082,-10.254,5.371,95.703,48.828,0
14057.498,-31.250,-17.090,12.695,-41.992,89.355,0
14057.502,24.414,-7.812,-1.465,23.438,84.473,0
14057.506,131.836,-0.977,-14.648,180.664,97.656,0
14057.510,94.238,-4.883,-6.836,133.301,66.895,0
14057.514,-0.977,-16.113,7.324,-26.367,-27.344,0
14057.518,29.297,-11.719,1.953,-9.766,-7.812,0
14057.522,122.559,-2.441,-10.742,151.367,2.930,0
14057.526,114.746,-3.906,-7.324,171.387,7.812,0
14057.530,4.883,-18.066,8.301,17.090,28.809,0
14057.534,-15.625,-28.809,10.254,-20.996,-6.348,0
14057.537,107.422,-18.555,-4.883,134.766,10.742,0
14057.541,147.949,-11.719,-3.906,200.195,41.016,0
14057.545,47.852,-16.113,10.742,67.383,15.625,0
14057.549,-18.066,-14.160,10.742,-43.945,9.766,0
14057.553,77.637,-9.277,3.906,71.777,41.016,0
14057.557,172.363,-11.230,2.441,208.984,33.203,0
14057.561,92.285,-11.230,7.812,111.328,-7.812,0
14057.565,-19.531,-13.184,10.254,-46.387,-13.184,0
14057.569,26.855,-10.254,-1.953,13.184,29.297,0
14057.573,136.230,-2.930,-9.766,179.688,50.781,1
14057.577,110.352,-9.277,-3.418,151.367,12.695,0
14057.580,-6.836,-16.113,2.441,-18.555,-1.465,0
14057.584,8.789,-14.648,0.488,-21.973,-12.695,0
14057.588,129.883,-8.789,-4.883,145.020,-37.598,0
14057.592,143.555,-5.859,-6.348,177.734,-3.418,0
14057.596,36.133,-19.043,4.395,27.344,6.348,0
14057.600,-12.207,-19.531,4.395,-43.945,6.348,0
14057.604,83.496,-2.930,-12.207,87.402,14.160,0
14057.608,138.672,-0.488,-17.578,189.453,42.480,0
14057.612,50.781,-11.719,-3.906,70.312,-4.395,0
14057.616,-38.574,-18.066,7.324,-52.734,-21.973,0
14057.619,31.250,-8.789,-1.465,40.527,83.496,0
14057.623,141.602,-3.906,-13.672,175.293,32.715,0
14057.627,92.773,-11.719,-8.301,106.445,-25.879,0
14057.631,-23.438,-19.531,1.953,-47.363,0.000,0
14057.635,18.555,-18.555,-1.465,7.324,45.898,0
14057.639,128.418,-5.859,-12.207,166.016,81.543,0
14057.643,110.352,-3.906,-7.324,151.367,45.410,0
14057.647,6.348,-14.160,1.953,4.883,-42.480,0
14057.651,2.930,-12.695,-5.371,-21.973,-45.410,0
14057.655,118.164,-8.301,-9.277,127.930,21.484,0
14057.659,142.090,-7.324,-6.836,178.223,35.156,0
14057.662,20.020,-10.254,-0.977,30.762,11.230,0
14057.666,-20.996,-14.160,5.371,-48.340,20.996,0
14057.670,99.121,-5.859,-1.465,93.750,58.594,0
14057.674,163.574,-3.906,-3.906,215.332,99.121,0
14057.678,76.172,-9.277,8.789,103.027,14.160,0
14057.682,-10.742,-8.789,16.113,-31.250,-13.184,0
14057.686,59.570,-5.859,3.418,56.641,54.688,0
14057.690,150.879,-2.930,-3.906,195.801,13.672,0
14057.694,105.469,-7.324,9.766,144.531,32.715,0
14057.698,7.324,-21.484,20.996,-8.301,50.293,0
14057.702,29.785,-14.160,12.207,6.836,17.578,0
14057.705,139.160,-2.930,2.930,166.504,-44.922,0
14057.709,138.184,-5.859,1.465,170.898,-41.016,0
14057.713,31.738,-18.555,13.184,13.184,-2.441,0
14057.717,-0.977,-18.555,16.113,-21.484,3.418,0
14057.721,112.305,-4.395,-0.977,127.930,55.664,0
14057.725,153.809,-5.859,-2.441,191.406,31.738,0
14057.729,45.410,-12.207,12.207,50.293,0.488,0
14057.733,-10.742,-11.719,16.113,-48.340,35.156,0
14057.737,84.473,-11.719,10.254,84.961,33.691,0
14057.741,156.738,-5.859,0.000,195.801,32.227,0
14057.744,77.148,-5.371,-0.488,91.309,33.691,0
14057.748,-14.648,-11.230,8.301,-43.945,8.789,0
14057.752,40.039,-5.371,1.953,23.438,62.500,0
14057.756,150.391,-2.930,-8.301,178.223,73.730,0
14057.760,105.957,-4.883,-6.836,136.230,48.828,0
14057.764,-15.625,-10.742,4.395,-28.809,21.484,0
14057.768,11.719,-10.742,2.930,-12.695,-15.625,0
14057.772,130.859,-1.465,-9.277,157.715,17.578,0
14057.776,134.277,-5.371,-5.859,186.035,6.836,0
14057.780,21.484,-15.137,4.883,28.809,-29.297,0
14057.784,-3.906,-16.113,1.465,-39.062,-5.859,0
14057.787,118.164,-11.230,-8.301,108.887,14.160,0
14057.791,156.738,-5.859,-6.348,189.453,-11.719,0
14057.795,60.547,-20.508,8.789,71.777,-12.695,0
14057.799,0.488,-26.855,8.789,-36.133,8.789,0
14057.803,69.336,-8.789,-4.395,65.430,4.883,0
14057.807,141.113,-4.883,-3.418,195.801,-6.836,0
14057.811,69.336,-13.672,4.883,102.539,17.090,0
14057.815,-20.020,-22.461,9.766,-46.387,13.184,0
14057.819,42.969,-18.066,0.000,11.230,23.926,0
14057.823,147.461,-14.160,-8.789,169.434,3.906,0
14057.827,117.188,-14.160,-3.906,139.160,12.695,0
14057.830,-2.441,-17.090,4.883,-34.668,33.691,0
14057.834,3.906,-21.973,6.836,-25.879,24.902,0
14057.838,140.625,-21.484,-3.906,140.137,-15.625,0
14057.842,144.531,-12.207,-8.789,162.598,-53.711,0
14057.846,9.277,-14.648,1.465,12.695,13.184,0
14057.850,-24.902,-21.973,5.859,-61.035,-11.719,0
14057.854,94.238,-19.043,-2.930,92.773,-41.992,0
14057.858,162.109,-10.254,-9.766,193.848,5.859,0
14057.862,55.176,-11.719,-3.906,54.688,56.641,0
14057.866,-22.461,-21.484,3.418,-62.988,100.098,0
14057.869,67.871,-14.160,-2.930,48.828,86.914,0
14057.873,149.902,-11.230,-8.789,188.965,71.777,0
14057.877,100.586,-22.461,-2.930,118.164,37.598,0
14057.881,-12.207,-22.461,-0.488,-47.852,9.277,0
14057.885,14.160,-15.625,-5.859,-8.301,-2.930,0
14057.889,138.184,-6.836,-13.672,152.832,44.922,0
14057.893,121.582,-5.859,-6.836,149.902,59.082,0
14057.897,-4.395,-18.066,7.812,-5.859,-1.953,0
14057.901,-14.160,-15.137,2.441,-45.410,51.270,0
14057.905,114.746,-5.371,-8.789,116.211,91.309,0
14057.909,150.879,-8.789,-9.277,179.688,76.172,0
14057.912,41.504,-20.996,4.395,38.086,34.668,0
14057.916,-3.418,-24.902,13.184,-34.180,4.395,0
14057.920,93.262,-13.184,-1.953,86.426,-30.273,0
14057.924,153.320,-8.301,-7.812,177.246,-44.922,0
14057.928,63.477,-9.277,4.883,70.801,24.414,0
14057.932,-27.832,-11.719,13.184,-55.176,31.738,0
14057.936,52.246,-15.625,9.277,44.922,6.348,0
14057.940,148.926,-9.766,-1.465,177.246,21.973,0
14057.944,83.984,-6.348,-1.953,114.746,26.855,0
14057.948,-33.203,-14.160,9.277,-34.180,29.785,0
14057.952,5.859,-11.719,6.348,-17.578,48.340,0
14057.955,129.883,-5.859,-4.883,147.949,53.711,0
14057.959,113.281,-5.859,0.000,153.809,39.551,0
14057.963,9.277,-14.160,11.230,-5.371,-8.301,0
14057.967,-5.859,-13.672,7.324,-46.387,-43.945,0
14057.971,90.820,-0.488,-5.371,106.934,-28.809,0
14057.975,133.789,-8.789,-3.418,181.152,-12.695,0
14057.979,32.715,-19.043,5.859,38.574,26.367,0
14057.983,-32.715,-12.695,6.836,-71.289,21.973,0
14057.987,65.918,-9.766,-2.930,60.547,-26.855,0
14057.991,137.207,-6.348,-11.230,186.035,17.090,0
14057.994,68.359,-15.137,2.930,87.402,6.348,0
14057.998,-20.020,-20.020,9.277,-51.758,-3.906,0
14058.002,41.016,-12.695,-2.441,22.461,48.340,0
14058.006,152.832,-8.301,-10.254,174.805,32.715,0
14058.010,93.262,-13.672,-3.906,136.230,9.766,0
14058.014,-33.203,-24.902,9.766,-26.855,40.039,0
14058.018,-11.719,-23.926,5.859,-20.996,53.711,0
14058.022,101.074,-10.254,-8.789,136.719,-10.254,0
14058.026,117.676,-10.742,-3.906,161.133,-21.973,0
14058.030,1.953,-14.160,6.836,10.254,28.809,0
14058.034,-25.391,-18.555,8.789,-40.039,54.688,0
14058.037,98.633,-17.090,0.000,106.445,6.836,0
14058.041,127.930,-7.324,-5.371,176.758,4.395,0
14058.045,26.367,-13.672,8.301,43.945,0.488,0
14058.049,-18.066,-14.160,12.207,-59.082,19.043,0
14058.053,72.266,-9.277,4.395,62.012,29.297,0
14058.057,140.137,-9.277,-0.977,192.871,-37.598,0
14058.061,85.449,-9.277,5.371,104.980,-8.301,0
14058.065,-20.020,-15.625,15.137,-47.852,5.371,0
14058.069,0.000,-13.672,7.324,5.859,-25.391,0
14058.073,123.535,-5.859,-0.488,168.457,20.508,0
14058.077,121.094,-19.043,6.836,160.156,37.109,0
14058.080,-0.488,-28.320,11.719,-10.742,-58.105,0
14058.084,0.977,-16.602,0.977,-36.621,4.883,0
14058.088,125.977,-7.324,-8.789,126.465,109.375,0
14058.092,124.023,-12.695,-3.906,176.758,35.645,0
14058.096,3.418,-20.996,5.371,25.879,-7.812,0
14058.100,-13.184,-23.438,4.395,-52.246,-17.090,0
14058.104,91.309,-20.020,-3.906,99.121,4.395,0
14058.108,144.531,-11.719,-8.301,187.988,22.461,0
14058.112,52.246,-11.230,-2.930,67.383,8.789,0
14058.116,-26.855,-24.414,6.836,-48.828,-1.465,0
14058.119,46.875,-21.973,-6.348,44.922,-0.977,0
14058.123,130.859,-11.719,-17.578,181.152,25.879,0
14058.127,78.125,-19.043,-7.324,107.422,5.371,0
14058.131,-20.996,-25.391,1.953,-44.434,-46.387,0
14058.135,24.902,-26.367,0.488,0.977,12.695,0
14058.139,136.719,-19.043,-10.254,164.062,37.109,0
14058.143,122.070,-14.648,-7.324,151.855,-11.230,0
14058.147,1.953,-24.414,5.859,-12.207,-41.016,0
14058.151,-7.812,-25.391,3.418,-32.715,-52.246,0
14058.155,120.605,-20.508,-7.812,129.395,-20.996,0
14058.159,125.977,-16.113,-4.883,186.035,26.855,0
14058.162,-3.418,-13.672,4.395,25.391,29.297,0
14058.166,-38.574,-16.113,6.836,-60.059,20.996,0
14058.170,75.684,-10.254,-4.883,80.566,14.648,0
14058.174,141.113,-10.742,-8.789,188.477,70.312,0
14058.178,63.965,-16.113,-0.977,78.125,44.434,0
14058.182,-30.762,-20.020,2.930,-54.688,9.766,0
14058.186,20.996,-18.555,-3.906,32.227,20.508,0
14058.190,129.883,-11.230,-9.766,170.410,67.383,0
14058.194,87.402,-21.973,3.418,129.883,65.430,0
14058.198,-20.508,-36.621,12.207,-27.832,7.324,0
14058.202,-0.488,-34.668,6.348,-15.137,19.043,0
14058.205,107.422,-26.855,-5.859,151.367,26.367,0
14058.209,104.492,-23.926,-7.812,156.250,-18.066,0
14058.213,-13.672,-32.227,6.348,2.441,-4.883,0
14058.217,-25.391,-38.086,12.695,-24.902,18.555,0
14058.221,97.656,-23.926,-7.324,121.582,13.672,0
14058.225,128.418,-15.137,-11.230,185.059,9.277,0
14058.229,21.484,-21.973,5.371,47.363,30.273,0
14058.233,-31.250,-27.832,8.789,-54.688,13.184,0
14058.237,64.453,-22.949,-0.977,58.105,-62.012,0
14058.241,142.578,-13.672,-8.301,158.691,-47.852,0
14058.244,58.594,-26.367,4.883,63.965,-38.574,0
14058.248,-44.922,-31.250,13.184,-68.848,-21.484,1
14058.252,19.043,-21.484,1.953,2.930,-8.789,0
14058.256,144.531,-23.926,3.418,164.551,-15.625,0
14058.260,109.375,-21.973,10.742,130.371,34.180,0
14058.264,-6.348,-21.484,14.648,-33.203,31.738,0
14058.268,26.855,-9.277,24.414,-7.812,7.812,0
14058.272,150.879,-3.418,17.090,156.738,1.953,0
14058.276,136.230,-21.973,7.324,159.668,51.758,0
14058.280,-1.953,-26.855,9.277,8.301,63.965,0
14058.284,-16.602,-17.578,12.695,-37.109,45.898,0
14058.287,106.934,-12.207,8.789,107.422,1.465,0
14058.291,143.555,-26.367,-2.930,182.617,-47.363,0
14058.295,46.875,-36.621,4.883,54.688,-20.996,0
14058.299,-28.809,-31.250,9.766,-57.129,-1.953,0
14058.303,32.227,-19.531,-11.719,38.086,45.410,0
14058.307,132.812,-4.883,-11.719,179.688,69.824,0
14058.311,83.984,-9.766,0.000,107.910,-7.324,0
14058.315,-31.738,-25.391,-1.465,-50.781,-3.418,0
14058.319,4.883,-20.996,-6.348,-0.977,62.012,0
14058.323,114.746,-14.648,-8.789,157.227,40.527,0
14058.327,99.609,-18.555,0.977,141.113,14.648,0
14058.330,-0.488,-26.855,8.789,-16.113,0.488,0
14058.334,9.277,-33.691,4.883,-24.414,13.184,0
14058.338,124.512,-27.344,-0.488,142.578,-2.441,0
14058.342,138.184,-26.855,-1.953,179.688,41.016,0
14058.346,39.062,-26.367,12.695,35.645,50.781,0
14058.350,-17.578,-22.461,13.672,-41.504,66.406,0
14058.354,80.566,-33.203,-3.906,85.449,87.402,0
14058.358,154.297,-39.551,-3.906,192.871,46.387,0
14058.362,44.922,-39.551,2.930,74.707,-12.207,0
14058.366,-34.668,-39.062,9.277,-46.875,1.953,0
14058.369,66.406,-29.785,7.324,49.805,57.129,0
14058.373,170.410,-31.250,-6.836,188.965,28.809,0
14058.377,91.309,-41.992,-4.883,127.441,-49.316,0
14058.381,-27.832,-42.480,12.207,-33.203,-58.594,0
14058.385,24.902,-43.945,6.836,5.859,-0.977,0
14058.389,145.508,-37.598,-8.789,161.621,9.766,0
14058.393,128.906,-37.598,0.488,155.273,-37.109,0
14058.397,5.859,-50.781,6.836,-6.348,-58.594,0
14058.401,-3.906,-45.898,-1.953,-39.062,-20.020,0
14058.405,98.633,-37.109,-8.301,122.559,18.066,0
14058.409,122.559,-35.156,-7.812,178.711,12.695,0
14058.412,30.273,-39.551,1.953,33.203,18.066,0
14058.416,-13.184,-46.875,4.883,-53.711,59.082,0
14058.420,83.008,-34.668,-8.789,71.289,30.273,0
14058.424,145.508,-21.484,-6.836,175.781,27.832,0
14058.428,63.965,-29.785,5.371,77.148,22.461,0
14058.432,-20.996,-36.621,3.906,-50.293,-3.418,0
14058.436,57.129,-37.598,-1.465,41.016,34.180,0
14058.440,158.691,-28.809,-11.230,187.012,-15.137,0
14058.444,98.633,-25.391,-11.230,121.582,-37.109,0
14058.448,-21.973,-36.621,-1.465,-29.785,21.484,0
14058.452,-0.977,-33.691,-1.465,-1.465,-6.348,0
14058.455,132.812,-22.949,-7.812,161.621,-26.855,0
14058.459,130.859,-21.973,-3.906,176.270,22.949,0
14058.463,5.371,-25.879,7.812,19.531,52.734,0
14058.467,-18.555,-24.414,6.348,-34.180,-8.301,0
14058.471,96.191,-17.578,-3.906,113.281,-62.500,0
14058.475,149.902,-17.090,-4.395,195.312,3.906,0
14058.479,42.480,-26.367,3.418,62.012,-3.906,0
14058.483,-22.949,-30.273,5.371,-54.688,-3.418,0
14058.487,65.430,-23.438,-7.324,69.824,56.641,0
14058.491,122.559,-17.090,-10.254,194.824,64.453,0
14058.494,51.270,-23.926,4.395,102.539,57.129,0
14058.498,-31.250,-32.227,11.230,-42.480,57.129,0
14058.502,32.227,-20.508,-1.953,16.602,34.668,0
14058.506,128.418,-14.648,-12.207,166.992,-3.418,0
14058.510,94.238,-16.113,-6.348,116.699,57.617,0
14058.514,3.418,-26.367,7.324,-43.945,55.664,0
14058.518,0.977,-28.320,1.465,-47.852,13.184,0
14058.522,103.027,-17.578,-13.184,104.004,27.832,0
14058.526,115.723,-19.531,-10.742,137.207,30.762,0
14058.530,5.859,-25.391,-1.953,-37.598,14.648,0
14058.534,-14.160,-26.855,-1.465,-121.582,-0.488,0
14058.537,105.469,-21.973,-4.883,35.156,46.875,0
14058.541,148.926,-12.695,-14.160,118.164,55.176,0
14058.545,51.270,-11.230,-8.301,-15.137,-14.160,0
14058.549,-11.230,-11.719,3.906,-118.164,-37.109,0
14058.553,68.359,-8.789,-3.418,-3.418,20.996,0
14058.557,140.625,-7.324,-8.789,133.301,-9.766,0
14058.561,64.941,-5.859,-3.418,49.316,-20.020,0
14058.565,-31.738,-9.277,0.977,-100.586,33.691,0
14058.569,17.578,-7.324,-7.324,-37.109,54.688,0
14058.573,119.629,-1.953,-12.207,127.930,96.191,0
14058.577,101.562,-10.254,-1.953,120.117,56.641,0
14058.580,-15.625,-15.625,0.977,-39.062,-14.160,0
14058.584,-21.973,-11.230,-10.742,-66.406,46.387,0
14058.588,99.609,-1.465,-12.207,100.586,74.707,0
14058.592,115.723,1.953,-4.883,147.949,42.480,0
14058.596,2.930,-10.254,4.395,-1.465,29.785,0
14058.600,-44.922,-13.184,0.977,-72.266,58.594,0
14058.604,63.477,-6.348,-10.254,68.848,39.551,0
14058.608,124.512,-2.930,-7.324,172.852,-20.996,0
14058.612,40.527,-7.812,2.441,57.617,-1.953,0
14058.616,-37.598,-17.578,2.441,-64.941,2.930,0
14058.619,39.551,-10.254,-2.930,35.156,8.789,0
14058.623,131.348,0.488,-7.324,172.363,20.996,0
14058.627,65.918,-6.836,-3.418,105.957,16.602,0
14058.631,-22.461,-13.184,3.906,-49.316,10.742,0
14058.635,20.020,-12.695,1.953,-13.184,20.020,0
14058.639,124.023,-4.883,-6.348,142.090,-0.977,0
14058.643,108.887,-4.395,-6.348,125.000,-41.504,0
14058.647,-5.859,-12.207,8.789,-32.715,20.020,0
14058.651,-4.395,-11.719,11.719,-73.730,29.297,0
14058.655,113.281,-9.766,3.906,62.012,22.461,0
14058.659,137.695,-9.766,-0.488,97.168,29.785,0
14058.662,22.949,-9.277,-2.441,-66.406,-3.418,0
14058.666,-17.090,-14.648,3.418,-155.273,20.508,0
14058.670,85.449,-4.395,-4.883,-34.668,46.387,0
14058.674,155.762,0.488,-5.859,79.102,58.594,0
14058.678,64.453,-11.230,8.789,-30.762,41.016,0
14058.682,-40.039,-12.207,11.719,-196.289,37.598,0
14058.686,47.363,-7.812,6.348,-126.465,-4.395,0
14058.690,149.902,1.953,-0.977,12.207,-25.879,0
14058.694,105.469,-5.859,4.883,-32.227,-18.066,0
14058.698,-1.465,-13.184,9.277,-192.871,19.531,0
14058.702,11.230,-8.301,2.930,-181.152,64.453,0
14058.705,120.117,-7.812,-6.836,-12.207,41.504,0
14058.709,122.559,-6.348,-2.930,16.113,41.504,0
14058.713,38.574,-12.695,6.836,-117.188,-6.348,0
14058.717,9.277,-18.066,4.395,-139.648,20.020,0
14058.721,81.543,-8.301,-8.789,15.137,65.430,0
14058.725,123.535,0.488,-7.812,94.238,36.621,0
14058.729,31.250,-3.418,3.906,-16.602,5.371,0
14058.733,-17.090,-9.766,7.324,-104.004,19.043,0
14058.737,86.914,-7.812,-0.488,22.949,7.812,0
14058.741,148.438,1.953,-7.812,140.137,-19.043,0
14058.744,62.012,-2.930,1.465,52.734,23.926,0
14058.748,-23.438,-10.742,7.812,-70.801,18.555,0
14058.752,39.062,-4.395,0.977,2.441,19.043,0
14058.756,139.160,-3.418,-0.977,154.297,38.574,0
14058.760,106.934,-7.812,8.301,119.141,33.691,0
14058.764,-8.301,-13.184,15.137,-36.133,38.574,0
14058.768,-9.277,-10.742,10.742,-25.391,10.254,0
14058.772,103.027,1.465,-2.441,130.859,25.391,0
14058.776,134.766,-5.859,1.953,168.945,0.977,0
14058.780,27.344,-12.207,11.719,15.625,-2.930,0
14058.784,-26.855,-3.418,4.395,-54.199,102.539,1
14058.787,88.867,1.953,-1.465,105.957,82.031,0
14058.791,145.996,3.906,-2.930,198.730,58.105,0
14058.795,53.711,-5.859,10.254,78.613,11.719,0
14058.799,-22.949,-6.348,14.160,-38.574,-15.137,0
14058.803,49.805,1.953,0.000,66.406,22.949,0
14058.807,149.414,-1.465,-5.371,213.379,-12.695,0
14058.811,83.008,-1.465,-0.977,134.277,-26.367,0
14058.815,-17.090,-9.766,9.277,-13.184,-2.930,0
14058.819,36.133,-9.766,10.254,45.898,-2.441,0
14058.823,136.719,7.324,-3.906,193.848,-10.254,0
14058.827,110.352,1.465,-2.930,173.828,-6.348,0
14058.830,-1.953,-11.719,9.766,12.695,-25.879,0
14058.834,0.977,-13.672,10.254,1.953,-17.578,0
14058.838,109.375,-6.836,1.465,166.504,-8.789,0
14058.842,125.977,-1.465,0.000,211.914,-27.832,0
14058.846,23.926,-5.371,10.742,59.570,-15.625,0
14058.850,-11.719,-9.277,10.742,-19.043,-3.418,0
14058.854,88.867,-6.348,3.418,125.488,54.688,0
14058.858,140.625,-6.348,0.000,222.656,10.742,0
14058.862,44.922,-6.836,-0.488,101.074,-29.297,0
14058.866,-31.738,-9.277,4.395,-22.949,13.184,0
14058.869,56.152,-2.930,-0.488,68.359,32.227,0
14058.873,152.344,2.930,-5.859,207.031,83.496,0
14058.877,96.191,-3.906,0.977,148.438,38.086,0
14058.881,-20.996,-10.254,6.836,-13.184,32.715,0
14058.885,18.066,-9.766,1.953,18.555,42.480,0
14058.889,130.859,-2.930,-11.230,181.152,-5.859,0
14058.893,113.770,-1.953,-4.395,179.199,10.254,0
14058.897,16.602,-10.742,10.742,25.879,-11.230,0
14058.901,-5.859,-16.602,6.348,-5.371,0.488,0
14058.905,85.449,-11.719,-6.836,149.414,14.160,0
14058.909,128.906,0.000,-1.465,213.379,11.719,0
14058.912,35.645,-2.930,12.695,78.613,-24.414,0
14058.916,-12.695,-16.113,19.043,-6.348,-3.418,0
14058.920,103.516,2.930,17.090,118.652,39.062,0
14058.924,149.902,-1.953,-7.812,209.961,15.625,0
14058.928,50.781,-24.414,-4.883,100.098,56.641,0
14058.932,-12.695,-15.137,14.648,-24.902,59.082,0
14058.936,62.500,-0.488,7.324,62.012,-38.086,0
14058.940,124.512,-2.441,-11.719,194.336,9.766,0
14058.944,77.148,-4.395,3.906,155.762,72.266,0
14058.948,-10.742,-11.230,15.137,9.766,8.789,0
14058.952,6.348,-19.531,-15.137,-3.906,-5.859,0
14058.955,132.324,-17.090,-19.043,169.922,-2.930,0
14058.959,141.602,-12.695,-4.395,197.266,36.133,0
14058.963,16.113,-9.277,7.324,19.531,100.098,0
14058.967,-2.441,-15.137,-2.441,-29.785,77.637,0
14058.971,107.422,-8.789,-20.508,128.906,13.672,0
14058.975,133.301,-4.883,-5.371,208.008,22.461,0
14058.979,37.109,-8.301,10.254,72.266,67.383,0
14058.983,-11.230,-14.160,13.184,-33.691,36.133,0
14058.987,87.402,-6.348,-4.395,93.262,17.090,0
14058.991,161.621,1.465,-20.020,212.891,51.758,0
14058.994,99.121,-11.230,0.000,127.441,47.852,0
14058.998,-1.953,-20.508,11.719,-12.695,21.484,0
14059.002,31.250,-7.812,1.465,30.762,25.391,0
14059.006,142.090,-0.977,-4.395,184.570,46.387,0
14059.010,123.047,-5.859,6.348,159.668,10.254,0
14059.014,20.020,-17.090,13.184,-2.441,-26.855,0
14059.018,23.926,-13.672,6.348,3.418,-5.371,0
14059.022,125.977,-2.441,2.441,160.156,32.715,0
14059.026,139.648,-2.930,7.324,188.965,11.230,0
14059.030,36.621,-8.301,14.160,41.504,-39.062,0
14059.034,13.672,-10.254,15.625,-16.113,1.953,0
14059.037,103.027,-1.953,9.277,128.906,34.180,0
14059.041,136.719,-0.488,7.324,210.449,31.738,0
14059.045,48.828,-7.812,17.090,86.914,53.223,0
14059.049,-29.785,-5.371,17.578,-34.180,30.273,0
14059.053,52.734,-0.488,6.836,67.871,45.898,0
14059.057,145.996,-3.418,2.441,212.891,39.551,0
14059.061,75.195,-0.977,8.301,125.977,-11.719,0
14059.065,-25.879,-0.488,17.578,-29.785,4.883,0
14059.069,21.973,0.488,8.301,22.461,27.344,0
14059.073,128.906,6.348,-4.883,184.570,69.336,0
14059.077,120.605,2.930,6.836,168.945,61.523,0
14059.080,6.836,-4.395,19.531,-8.789,-7.324,0
14059.084,-12.695,-6.348,14.648,-17.090,11.230,0
14059.088,99.609,-3.418,4.883,151.367,12.695,0
14059.092,128.906,5.859,6.348,187.500,-27.344,0
14059.096,37.598,-2.930,21.973,47.852,27.832,0
14059.100,-5.859,-6.836,20.996,-29.297,67.871,0
14059.104,91.309,7.812,6.836,98.145,36.621,0
14059.108,156.738,8.789,5.371,201.660,-6.348,0
14059.112,76.660,1.465,10.742,81.543,-16.602,0
14059.116,-11.719,-4.883,13.672,-49.316,20.020,0
14059.119,28.320,-0.488,1.465,43.945,11.230,0
14059.123,123.535,8.301,-3.906,190.430,-24.902,0
14059.127,83.984,4.395,9.277,137.207,4.395,0
14059.131,-15.625,-1.465,15.137,-16.113,27.832,0
14059.135,30.273,-0.977,9.766,15.625,68.848,0
14059.139,144.531,3.418,0.488,174.805,51.270,0
14059.143,134.277,5.859,6.836,176.270,20.508,0
14059.147,20.508,-3.418,18.555,10.254,11.719,0
14059.151,2.930,-1.465,10.742,-27.832,28.320,0
14059.155,125.488,1.953,3.906,137.207,22.949,0
14059.159,158.203,1.953,3.906,198.730,-10.742,0
14059.162,38.574,3.906,7.812,44.434,-2.930,0
14059.166,-18.555,-2.930,8.789,-41.504,18.066,0
14059.170,72.754,0.977,0.000,91.309,53.223,0
14059.174,152.344,7.812,1.465,205.566,49.316,0
14059.178,81.543,0.488,11.230,113.281,10.254,0
14059.182,-19.043,-8.301,15.625,-24.902,24.902,0
14059.186,48.828,-2.441,7.812,47.852,39.062,0
14059.190,149.902,3.906,-4.883,188.477,-19.043,0
14059.194,105.957,-6.836,3.418,148.438,-37.598,0
14059.198,20.020,-19.043,21.973,-2.441,-29.297,0
14059.202,28.320,-6.348,11.719,-0.488,-8.301,0
14059.205,118.652,5.859,-3.418,165.527,46.387,0
14059.209,124.023,-1.465,2.441,190.430,35.156,0
14059.213,16.602,-12.207,14.648,29.785,10.742,0
14059.217,-5.371,-13.672,16.113,-26.367,-0.488,0
14059.221,108.887,-3.418,2.930,120.605,-12.695,0
14059.225,156.250,-0.488,-0.488,192.871,-9.766,0
14059.229,44.434,-13.184,14.160,61.523,20.996,0
14059.233,-28.809,-19.531,13.672,-38.574,73.242,0
14059.237,67.871,-15.625,4.883,83.008,47.363,0
14059.241,143.066,-5.371,1.465,199.707,-0.488,0
14059.244,65.918,-3.906,6.348,106.934,30.762,0
14059.248,-7.812,-14.160,14.648,-28.809,20.996,0
14059.252,45.410,-9.277,5.859,33.203,22.949,0
14059.256,144.531,-6.348,-1.953,178.711,53.711,0
14059.260,114.746,-8.789,1.465,144.531,65.918,0
14059.264,-7.324,-14.648,13.672,-15.625,68.359,0
14059.268,4.883,-19.043,15.137,-14.648,40.039,0
14059.272,108.398,-11.719,0.000,147.461,8.789,0
14059.276,122.559,-10.254,0.488,173.828,40.527,0
14059.280,4.883,-20.508,13.672,17.578,11.230,0
14059.284,-43.945,-19.531,13.672,-44.434,-10.254,0
14059.287,67.383,-8.789,2.930,104.492,-23.926,0
14059.291,125.000,-3.418,0.977,184.570,-8.789,0
14059.295,41.992,-16.113,11.719,68.359,0.977,0
14059.299,-36.133,-22.949,13.672,-47.852,-1.465,0
14059.303,33.691,-8.301,0.977,45.410,-4.883,0
14059.307,119.629,-2.930,-4.883,187.500,-18.555,0
14059.311,66.895,3.418,9.277,118.652,29.297,0
14059.315,-0.488,9.277,39.551,-10.254,46.875,0
14059.319,46.875,-3.906,23.926,23.438,46.875,0
14059.323,112.305,-12.695,-6.348,154.297,3.906,0
14059.327,83.496,-3.906,6.836,152.832,-13.184,0
14059.330,-16.113,-2.441,17.578,-3.418,20.020,0
14059.334,-0.488,-6.348,16.602,-16.113,4.395,0
14059.338,106.445,-8.789,1.953,137.207,-3.906,0
14059.342,95.703,-4.883,-12.207,156.250,57.617,0
14059.346,-4.883,-9.766,0.488,16.602,34.668,0
14059.350,-31.738,-20.020,4.395,-54.688,-14.648,0
14059.354,82.031,-14.160,2.441,97.656,24.902,0
14059.358,147.461,-6.348,2.930,204.590,13.184,0
14059.362,53.223,-0.488,6.836,71.289,-0.488,0
14059.366,-45.898,-2.930,12.207,-60.059,-23.926,0
14059.369,24.902,3.906,6.348,37.598,-7.324,0
14059.373,127.930,5.859,-1.465,180.176,31.738,0
14059.377,84.961,-7.324,5.371,116.211,18.555,0
14059.381,-21.973,-8.301,11.230,-38.574,42.480,0
14059.385,16.602,-1.953,7.324,-4.883,61.035,0
14059.389,135.254,5.371,0.488,154.785,16.602,0
14059.393,117.676,7.812,5.371,164.551,23.926,1
14059.397,12.207,-8.789,15.625,10.254,24.414,0
14059.401,-6.348,-10.742,14.648,-32.715,-18.555,0
14059.405,114.258,11.719,8.301,127.441,-51.270,0
14059.409,146.973,8.301,0.488,187.012,-57.129,0
14059.412,32.227,-9.766,4.395,40.527,43.945,0
14059.416,-17.578,-17.090,12.207,-43.945,68.848,0
14059.420,84.961,-9.766,2.441,80.078,8.301,0
14059.424,159.180,-0.977,-5.859,188.965,33.203,0
14059.428,75.195,-7.324,3.906,90.820,62.012,0
14059.432,-13.184,-6.348,11.230,-45.410,20.996,0
14059.436,57.617,-5.859,10.742,38.574,18.066,0
14059.440,148.438,-4.883,-0.488,179.199,10.254,0
14059.444,101.562,-1.953,-1.953,124.023,-24.902,0
14059.448,4.883,-8.789,8.789,-31.738,14.648,0
14059.452,23.438,-6.348,3.906,-14.648,89.844,0
14059.455,130.859,-1.465,-3.906,153.320,18.555,0
14059.459,136.719,-0.488,3.418,170.898,-34.180,0
14059.463,27.832,-8.789,13.184,23.438,-30.273,0
14059.467,5.859,-8.301,9.277,-31.738,-11.230,0
14059.471,118.164,4.883,-0.488,110.840,-3.418,0
14059.475,168.945,0.488,4.883,202.148,-14.648,0
14059.479,69.336,-8.301,14.648,67.871,-4.395,0
14059.483,-9.277,-4.395,8.789,-59.082,3.906,0
14059.487,81.055,-0.488,0.977,40.527,30.762,0
14059.491,156.738,3.906,0.977,158.203,5.859,0
14059.494,82.520,-3.906,12.695,78.125,-11.230,0
14059.498,-7.324,-13.672,16.113,-69.824,-19.531,0
14059.502,44.434,-6.836,5.859,-8.301,13.672,0
14059.506,151.367,0.977,-2.930,155.273,52.734,0
14059.510,118.164,-4.883,2.930,125.977,-11.719,0
14059.514,3.906,-17.090,12.207,-25.391,-57.617,0
14059.518,18.555,-18.555,9.277,-25.391,15.137,0
14059.522,121.094,-5.371,0.488,128.906,6.348,0
14059.526,129.395,0.000,-0.488,163.574,31.250,0
14059.530,24.902,-12.207,12.207,8.301,54.688,0
14059.534,-12.207,-20.996,11.719,-51.758,-4.883,0
14059.537,96.191,-13.184,-0.977,98.145,25.391,0
14059.541,143.066,-6.348,-1.465,181.641,54.199,0
14059.545,48.828,-15.137,10.254,70.801,41.016,0
14059.549,-15.137,-20.020,14.160,-46.875,24.902,0
14059.553,65.430,-13.672,3.906,46.387,42.969,0
14059.557,154.297,-14.648,2.441,191.895,39.551,0
14059.561,87.891,-18.066,8.789,116.211,1.953,0
14059.565,-9.766,-19.531,15.137,-39.062,49.316,0
14059.569,41.992,-15.625,10.254,5.371,59.082,0
14059.573,147.461,-10.742,-0.977,163.574,14.648,0
14059.577,135.254,-20.508,15.137,164.062,36.133,0
14059.580,10.742,-25.391,24.902,-5.859,71.289,0
14059.584,0.488,-17.090,12.695,-38.086,41.504,0
14059.588,125.977,-13.184,5.859,139.160,4.395,0
14059.592,152.344,-11.230,5.371,194.824,0.000,0
14059.596,42.480,-16.602,9.766,40.527,34.180,0
14059.600,-21.484,-20.508,7.812,-52.734,36.133,0
14059.604,72.754,-14.648,1.953,86.914,57.129,0
14059.608,145.996,-10.254,0.488,195.801,69.824,0
14059.612,63.477,-13.672,8.789,82.031,3.418,0
14059.616,-2.930,-23.926,17.578,-39.551,-24.414,0
14059.619,58.594,-18.066,10.742,47.852,2.441,0
14059.623,137.207,-1.465,0.488,179.688,5.859,0
14059.627,102.539,-6.836,4.883,123.535,8.301,0
14059.631,-9.277,-18.066,15.137,-34.180,12.207,0
14059.635,15.137,-14.648,10.254,-7.324,6.836,0
14059.639,140.625,-1.953,7.324,154.785,4.883,0
14059.643,132.324,-3.906,8.789,160.156,-32.715,0
14059.647,9.766,-18.555,15.625,-1.465,-27.832,0
14059.651,-2.441,-18.555,16.113,-41.992,-15.625,0
14059.655,111.816,-11.719,4.883,123.047,0.000,0
14059.659,149.902,-7.812,8.789,193.848,29.297,0
14059.662,44.922,-5.371,12.695,41.992,-19.531,0
14059.666,-28.320,-5.859,16.602,-50.293,-3.418,0
14059.670,58.594,1.465,9.277,75.684,49.316,0
14059.674,149.414,0.000,3.418,191.895,21.973,0
14059.678,76.660,-5.371,8.789,105.957,13.184,0
14059.682,-20.996,-9.277,13.672,-42.969,8.301,0
14059.686,47.852,-9.766,7.812,20.020,-27.344,0
14059.690,144.043,-0.977,-1.953,177.246,1.953,0
14059.694,110.840,-5.371,4.883,137.695,80.078,0
14059.698,16.602,-19.043,14.160,-18.066,27.344,0
14059.702,38.086,-11.719,6.836,-18.555,-0.488,0
14059.705,142.578,0.977,-3.418,140.137,45.410,0
14059.709,139.648,1.953,5.371,170.410,20.996,0
14059.713,41.016,-7.324,18.066,18.555,-11.719,0
14059.717,12.207,-14.648,23.438,-29.297,-23.438,0
14059.721,97.168,0.488,10.742,104.492,30.762,0
14059.725,134.277,5.859,-0.488,170.898,73.730,0
14059.729,29.297,-4.883,8.301,43.945,33.203,0
14059.733,-47.363,-9.766,14.160,-69.824,26.855,0
14059.737,57.617,-5.371,9.766,45.410,21.484,0
14059.741,150.391,-1.465,4.883,179.199,2.441,0
14059.744,89.355,-6.836,12.207,97.656,-30.762,0
14059.748,1.953,-9.766,15.625,-57.129,20.020,0
14059.752,59.570,-3.418,4.883,-2.930,50.781,0
14059.756,164.062,-7.812,2.930,169.922,-20.508,0
14059.760,128.418,-8.301,7.812,142.090,20.020,0
14059.764,4.883,-3.906,16.113,-19.531,14.648,0
14059.768,13.184,-11.230,12.207,-32.715,-18.066,0
14059.772,125.000,-10.742,0.000,121.094,-0.977,0
14059.776,126.953,-3.906,5.859,167.480,-5.859,0
14059.780,21.484,-4.883,14.160,10.742,11.230,0
14059.784,-13.184,-11.719,7.812,-60.547,34.668,0
14059.787,101.074,-8.301,2.930,84.961,54.688,0
14059.791,163.086,-5.859,1.953,184.570,-4.395,0
14059.795,73.242,-16.602,6.836,80.078,-13.184,0
14059.799,0.488,-17.090,9.766,-39.062,37.598,0
14059.803,60.547,-0.977,-3.418,40.527,6.836,0
14059.807,143.066,5.371,-8.789,169.434,8.301,0
14059.811,92.285,-0.488,2.930,104.004,-24.902,0
14059.815,3.906,-10.254,12.207,-43.945,20.996,0
14059.819,38.574,-5.859,5.371,-1.953,103.516,0
14059.823,134.766,4.883,3.418,157.227,68.848,0
14059.827,124.023,0.488,8.789,141.113,18.066,0
14059.830,1.465,-9.766,5.371,-22.949,42.969,0
14059.834,0.000,-11.719,4.883,-34.180,49.316,0
14059.838,116.211,-4.883,-0.488,132.324,20.996,0
14059.842,132.812,2.441,0.977,168.457,35.645,0
14059.846,27.832,-7.324,12.207,19.043,-6.348,0
14059.850,-14.160,-11.719,9.766,-62.012,-5.859,0
14059.854,83.496,-8.789,1.953,78.125,4.395,0
14059.858,157.715,-9.277,6.836,190.918,-2.441,0
14059.862,55.176,-8.789,12.695,63.477,-6.836,0
14059.866,-41.992,-11.230,14.648,-70.801,25.391,0
14059.869,67.871,-1.465,4.395,34.668,32.715,0
14059.873,169.922,-0.488,-3.418,183.594,38.086,0
14059.877,90.820,-13.184,6.836,114.258,82.520,0
14059.881,-26.855,-20.020,15.137,-40.039,46.875,0
14059.885,34.180,-23.438,14.648,-3.418,0.977,0
14059.889,157.227,-11.719,2.930,153.809,-14.160,0
14059.893,124.023,-2.441,3.906,160.156,28.320,0
14059.897,16.602,-14.648,18.555,11.719,99.609,0
14059.901,11.719,-10.742,13.184,-32.227,48.340,0
14059.905,122.559,4.883,0.977,119.629,36.621,0
14059.909,157.227,3.418,1.953,191.406,56.641,0
14059.912,43.945,-6.836,13.672,59.570,-19.043,0
14059.916,-8.301,-9.766,17.578,-39.551,-23.438,0
14059.920,93.750,-1.465,7.324,71.289,6.836,0
14059.924,162.109,0.488,1.465,186.035,-5.859,0
14059.928,69.336,-9.766,9.277,84.473,-1.465,0
14059.932,-15.625,-16.113,18.066,-47.852,-4.395,0
14059.936,63.477,-16.602,14.648,35.645,31.738,0
14059.940,133.789,-9.277,2.930,185.059,58.105,0
14059.944,70.801,-2.441,0.000,137.695,12.207,0
14059.948,-18.555,-12.695,11.230,-25.391,-27.832,0
14059.952,6.348,-13.672,7.324,-15.625,-3.906,0
14059.955,125.488,-7.324,-1.465,139.160,43.457,0
14059.959,140.137,-3.906,-2.441,153.320,66.406,0
14059.963,20.020,-11.230,4.883,0.977,1.953,0
14059.967,-23.438,-14.160,6.348,-52.734,-27.832,0
14059.971,89.355,-4.883,-1.953,98.633,30.762,0
14059.975,137.695,-7.812,-1.465,190.918,-15.625,0
14059.979,49.316,-16.602,7.812,56.641,-38.086,0
14059.983,-9.766,-15.137,9.766,-59.570,54.199,0
14059.987,51.758,-9.277,-0.977,62.988,79.590,0
14059.991,133.301,-4.395,-2.441,193.359,27.832,0
14059.994,93.262,-9.766,9.277,110.352,20.996,2
14059.998,-13.184,-19.043,11.719,-36.621,21.973,0
14060.002,14.648,-11.719,5.371,16.113,3.906,0
14060.006,146.484,-2.930,-1.953,168.945,-3.906,0
14060.010,123.535,-6.348,0.977,132.812,-13.184,0
14060.014,-19.531,-25.391,14.160,-21.973,-17.090,0
14060.018,9.277,-33.691,10.742,-17.090,-3.418,0
14060.022,126.953,-15.625,-5.859,127.441,33.691,0
14060.026,143.555,-12.695,-0.488,167.969,26.367,0
14060.030,32.715,-22.461,11.230,15.137,-0.977,0
14060.034,0.977,-20.020,18.066,-48.340,20.020,0
14060.037,122.070,-16.113,11.230,108.887,38.574,0
14060.041,155.762,-8.301,-1.465,187.988,13.672,0
14060.045,61.035,-7.812,6.836,63.965,9.277,0
14060.049,-5.371,-17.578,17.578,-45.410,56.152,0
14060.053,68.848,-15.625,13.184,58.105,36.133,0
14060.057,160.156,-8.301,1.953,189.453,0.977,0
14060.061,107.910,-8.301,8.789,116.211,-11.719,0
14060.065,21.973,-15.137,16.113,-35.156,19.531,0
14060.069,67.871,-18.066,4.883,4.883,5.371,0
14060.073,172.363,-7.324,0.000,171.387,10.254,0
14060.077,158.691,-9.766,13.672,172.363,57.129,0
14060.080,33.691,-15.625,16.113,10.742,52.734,0
14060.084,19.531,-8.301,8.301,-20.508,43.945,0
14060.088,145.508,-0.488,0.488,137.695,50.781,0
14060.092,172.852,2.930,-3.906,201.660,20.020,0
14060.096,70.312,-4.883,9.277,58.105,-14.648,0
14060.100,10.742,-8.789,12.695,-33.203,10.254,0
14060.104,97.168,0.977,8.301,95.703,93.750,0
14060.108,173.828,4.883,13.184,205.078,25.879,0
14060.112,93.750,0.488,14.160,91.309,-44.922,0
14060.116,-0.977,-7.812,9.766,-46.387,10.742,0
14060.119,54.688,-7.812,3.906,44.434,19.043,0
14060.123,135.742,1.465,-1.465,180.664,49.805,0
14060.127,96.680,-2.441,4.395,122.070,1.465,0
14060.131,7.812,-9.277,12.695,-26.367,-35.645,0
14060.135,43.945,-10.254,13.672,8.301,12.695,0
14060.139,154.785,2.930,5.859,176.758,71.289,0
14060.143,133.789,11.719,3.906,170.410,66.895,0
14060.147,25.879,-0.488,17.090,11.719,-19.043,0
14060.151,4.395,0.000,20.020,-25.391,-55.176,0
14060.155,113.770,8.301,7.812,124.512,-9.277,0
14060.159,154.297,10.254,1.465,191.895,23.438,0
14060.162,44.922,5.859,15.137,53.711,62.012,0
14060.166,7.812,7.812,24.902,-35.156,6.836,0
14060.170,88.867,11.230,9.277,79.102,-9.277,0
14060.174,145.996,5.371,0.000,187.988,46.387,0
14060.178,89.355,-1.953,12.695,101.074,6.836,0
14060.182,-13.672,3.418,17.090,-45.898,-27.832,0
14060.186,48.828,11.719,6.836,27.344,48.340,0
14060.190,148.438,17.578,-0.488,180.664,38.574,0
14060.194,95.703,8.789,12.207,144.043,-0.488,0
14060.198,-5.371,-3.418,20.996,-9.766,-16.602,0
14060.202,10.254,4.883,14.648,-0.488,-15.625,0
14060.205,130.859,17.090,9.277,164.062,21.484,0
14060.209,139.160,16.113,7.324,180.664,22.949,0
14060.213,26.367,-0.977,14.160,26.855,14.648,0
14060.217,5.859,-9.766,20.996,-23.438,3.906,0
14060.221,116.211,5.371,9.766,114.746,20.020,0
14060.225,152.832,15.625,6.836,196.777,35.156,0
14060.229,48.340,10.742,20.996,71.777,29.785,0
14060.233,-20.020,-1.465,19.531,-49.316,22.461,0
14060.237,67.871,-2.441,8.301,59.082,-5.859,0
14060.241,141.113,9.766,5.371,191.895,-8.301,0
14060.244,79.102,2.441,13.672,110.352,10.742,0
14060.248,-0.488,-3.418,23.438,-33.203,8.301,0
14060.252,41.504,9.277,13.672,8.301,42.480,0
14060.256,133.301,15.137,0.000,152.344,39.551,0
14060.260,115.723,9.277,3.906,143.066,-20.508,0
14060.264,5.859,1.465,14.648,-15.137,-20.020,0
14060.268,0.977,-1.465,12.695,-31.738,4.883,0
14060.272,119.141,10.254,0.488,130.371,20.020,0
14060.276,135.742,6.348,3.418,181.641,63.477,0
14060.280,30.762,-6.836,16.113,35.156,7.812,0
14060.284,-12.207,8.301,16.602,-39.551,0.977,0
14060.287,77.148,12.207,3.418,92.773,50.781,0
14060.291,131.836,7.812,-3.906,181.152,46.387,0
14060.295,47.852,1.465,7.812,75.195,26.855,0
14060.299,-25.879,-4.883,11.230,-38.574,7.812,0
14060.303,54.199,3.906,6.348,55.176,15.137,0
14060.307,141.602,4.395,4.883,191.895,33.691,0
14060.311,81.543,3.906,8.301,118.652,1.465,0
14060.315,-6.348,-1.953,21.973,-24.902,28.809,0
14060.319,39.062,1.953,22.461,20.020,62.500,0
14060.323,133.789,12.695,-0.977,158.691,31.738,0
14060.327,116.211,4.395,-1.953,148.926,56.641,0
14060.330,-9.766,0.488,14.648,-3.418,55.664,0
14060.334,-18.066,3.906,14.648,-22.949,30.762,0
14060.338,105.469,9.277,0.488,126.953,77.148,0
14060.342,127.930,6.836,-5.371,173.340,42.969,0
14060.346,20.996,-0.977,5.371,28.320,-55.176,0
14060.350,-26.367,-5.371,11.719,-59.570,-60.547,0
14060.354,83.496,-3.418,7.812,79.590,11.719,0
14060.358,145.508,3.418,-0.977,189.453,35.156,0
14060.362,53.223,5.371,5.859,80.566,14.160,0
14060.366,-21.484,1.465,18.066,-47.363,-15.137,0
14060.369,54.199,4.883,4.883,31.738,-4.883,0
14060.373,138.184,3.418,-6.836,174.805,25.879,0
14060.377,78.613,-5.371,2.930,127.930,35.156,0
14060.381,-34.180,-6.348,9.766,-31.250,22.949,0
14060.385,-0.488,-3.418,5.859,-16.113,16.113,0
14060.389,126.953,2.930,1.953,141.113,1.465,0
14060.393,130.859,7.324,9.766,156.250,-19.043,0
14060.397,23.926,-6.348,15.137,-2.930,-33.203,0
14060.401,12.207,-8.301,9.766,-40.527,-28.320,0
14060.405,122.070,6.836,3.418,114.258,35.645,0
14060.409,133.301,10.254,3.418,179.199,62.500,0
14060.412,24.414,0.000,11.719,51.270,14.648,0
14060.416,-13.672,-13.672,18.555,-43.457,45.898,0
14060.420,72.754,-7.812,10.254,74.707,21.973,0
14060.424,130.859,6.836,0.977,186.035,36.133,0
14060.428,74.219,1.953,8.789,95.215,65.430,0
14060.432,-3.906,-2.930,13.184,-41.016,41.016,0
14060.436,55.176,-1.465,6.836,37.109,-10.254,0
14060.440,145.020,10.254,-1.465,181.152,28.809,0
14060.444,106.934,6.836,2.930,132.324,77.637,0
14060.448,15.137,-7.324,12.207,-16.113,9.277,0
14060.452,19.531,0.000,7.812,-8.789,7.812,0
14060.455,120.605,3.418,3.906,154.297,42.480,0
14060.459,126.465,0.977,4.883,177.246,55.664,0
14060.463,20.508,-1.465,10.254,11.719,41.016,0
14060.467,8.301,6.348,23.438,-32.715,63.965,0
14060.471,112.793,13.184,13.184,113.770,51.758,0
14060.475,145.996,2.441,-0.488,182.129,20.508,0
14060.479,35.156,-8.301,5.859,50.293,17.090,0
14060.483,-37.109,-16.602,10.254,-64.453,-22.949,0
14060.487,60.059,-2.441,2.930,53.223,16.602,0
14060.491,145.508,5.371,-2.930,180.664,22.461,0
14060.494,85.449,-9.277,9.766,105.957,-53.223,0
14060.498,-12.695,-14.648,16.113,-35.645,-15.625,0
14060.502,27.344,0.977,4.883,8.789,28.809,0
14060.506,131.348,7.324,0.977,174.805,52.246,0
14060.510,115.234,3.906,7.324,156.250,45.898,0
14060.514,11.719,-7.324,22.949,-9.277,48.828,0
14060.518,16.602,-9.766,19.531,-14.160,36.621,0
14060.522,128.906,3.906,1.465,154.785,28.320,0
14060.526,145.996,7.812,3.418,194.824,58.594,0
14060.530,44.922,2.441,16.113,45.410,61.035,0
14060.534,2.930,-2.930,18.555,-26.855,11.230,0
14060.537,97.168,2.930,9.766,104.004,2.930,0
14060.541,153.320,7.324,6.348,199.219,-8.301,0
14060.545,65.918,-0.488,11.719,88.379,-30.273,0
14060.549,-8.789,-1.465,16.113,-33.691,47.363,0
14060.553,83.008,2.930,7.812,59.082,34.180,0
14060.557,169.434,-0.488,1.465,198.730,8.789,0
14060.561,104.980,3.906,11.719,132.812,18.066,0
14060.565,8.301,5.371,19.043,-29.785,2.930,0
14060.569,38.086,-1.465,5.859,-0.488,24.902,0
14060.573,148.926,2.930,-2.930,156.738,-26.367,0
14060.577,125.000,4.395,5.371,154.297,-8.301,0
14060.580,0.000,-0.488,17.090,-0.977,19.043,0
14060.584,4.395,-2.441,14.160,-28.809,7.324,0
14060.588,120.605,4.883,4.395,125.000,34.668,0
14060.592,137.695,6.348,3.906,172.363,30.762,0
14060.596,46.387,-9.277,14.648,37.109,-8.789,0
14060.600,-5.859,-11.230,13.184,-49.316,15.137,0
14060.604,71.777,-0.488,1.953,74.707,29.785,0
14060.608,161.133,15.137,11.719,187.500,41.992,0
14060.612,83.496,9.766,14.648,86.914,84.961,0
14060.616,-15.625,-15.137,17.090,-34.668,27.832,0
14060.619,38.086,-7.324,9.766,43.457,-6.348,0
14060.623,113.281,0.000,-4.883,166.504,-32.715,0
14060.627,81.543,-1.953,5.859,112.305,7.812,1
14060.631,-8.301,-5.859,16.113,-46.875,3.906,0
14060.635,21.484,-10.254,16.113,-27.832,-71.777,0
14060.639,127.930,-4.883,5.859,123.535,-14.160,0
14060.643,122.559,2.441,0.000,118.652,10.742,0
14060.647,11.230,-5.371,7.812,-35.645,4.395,0
14060.651,-12.695,-4.883,10.742,-60.547,1.465,0
14060.655,89.844,2.930,3.418,104.980,22.461,0
14060.659,113.770,0.000,-3.418,174.805,69.336,0
14060.662,27.344,-6.836,5.859,36.621,23.438,0
14060.666,-13.672,-11.719,13.672,-70.801,-47.363,0
14060.670,67.383,-3.906,-1.465,47.363,-20.020,0
14060.674,137.695,1.953,-6.348,168.457,5.371,0
14060.678,58.594,-1.953,4.395,83.496,4.883,0
14060.682,-22.461,-7.324,8.789,-54.199,8.301,0
14060.686,41.016,-4.883,2.441,12.695,14.648,0
14060.690,120.605,3.906,-4.395,167.480,27.832,0
14060.694,90.820,-1.953,3.906,126.953,108.887,0
14060.698,12.207,-14.160,15.625,-17.578,85.449,0
14060.702,28.809,-6.836,6.836,-11.230,-3.418,0
14060.705,118.652,1.953,-3.906,144.043,-11.230,0
14060.709,127.441,-2.930,-3.418,172.852,-52.734,0
14060.713,33.203,-8.789,8.301,19.043,-21.973,0
14060.717,7.324,-8.301,11.230,-30.273,9.277,0
14060.721,103.027,-3.418,-2.441,108.887,11.719,0
14060.725,150.879,-2.441,-2.930,184.570,-12.207,0
14060.729,58.105,-9.766,3.418,62.500,-68.359,0
14060.733,-18.555,-13.184,4.883,-50.293,-16.602,0
14060.737,67.383,-11.230,0.000,56.641,41.504,0
14060.741,148.438,-6.836,-8.789,185.547,8.789,0
14060.744,78.125,-1.953,-5.371,97.168,23.438,0
14060.748,-11.230,-6.836,2.441,-50.293,58.594,0
14060.752,32.227,-9.766,-4.883,5.859,-24.902,0
14060.756,128.418,-3.418,-11.230,165.527,-1.953,0
14060.760,111.816,-0.977,-4.883,141.602,20.996,0
