timestamps,TP9,AF7,AF8,TP10,Right AUX,Marker0
1542737836.684,19.043,24.902,36.621,-8.301,40.039,0
1542737836.688,-31.250,50.293,9.766,7.812,62.012,0
1542737836.692,-30.762,93.262,1.953,-5.371,69.336,0
1542737836.696,20.996,59.082,31.250,-31.738,59.082,0
1542737836.699,-20.020,46.387,17.578,-79.590,72.754,0
1542737836.703,14.160,52.246,11.719,-53.223,75.195,0
1542737836.707,17.578,69.336,15.137,-36.133,54.688,0
1542737836.711,7.324,83.008,8.789,-16.602,34.668,0
1542737836.715,-35.645,54.688,58.105,-10.742,74.219,0
1542737836.719,27.344,62.012,28.809,10.742,57.617,0
1542737836.723,66.895,66.895,-5.859,-6.348,16.602,0
1542737836.727,-14.648,71.777,13.184,-67.871,36.133,0
1542737836.731,5.859,73.242,29.785,-87.891,18.555,0
1542737836.735,72.754,45.898,16.602,3.906,56.641,0
1542737836.739,48.340,60.059,-1.953,33.203,91.797,0
1542737836.742,-53.711,66.895,44.434,-98.145,56.152,0
1542737836.746,-23.438,53.223,34.180,-126.465,59.082,0
1542737836.750,40.039,54.688,20.508,-65.430,16.113,0
1542737836.754,25.879,49.805,57.617,-37.109,-39.551,0
1542737836.758,30.762,62.500,40.527,-36.133,40.527,0
1542737836.762,-17.090,79.590,32.227,-52.734,89.844,0
1542737836.766,-23.438,55.176,67.871,-43.457,41.504,0
1542737836.770,-6.348,83.008,50.781,-67.871,20.508,0
1542737836.774,-8.789,83.496,37.109,-46.875,5.371,0
1542737836.778,54.688,39.062,42.969,7.812,-31.738,0
1542737836.782,67.871,50.293,51.270,53.223,-13.184,0
1542737836.785,53.223,61.523,26.855,73.730,47.363,0
1542737836.789,-13.184,68.359,20.996,-32.227,60.059,0
1542737836.793,-37.109,53.223,39.062,-119.141,29.785,0
1542737836.797,20.020,61.035,40.039,-82.520,-14.648,0
1542737836.801,39.062,80.566,47.363,-52.734,-7.812,0
1542737836.805,14.648,76.172,18.066,-39.062,-12.207,0
1542737836.809,-8.789,57.617,13.184,-23.926,-22.461,0
1542737836.813,17.090,49.316,44.434,-13.672,49.805,0
1542737836.817,-3.906,52.734,57.617,-53.223,78.613,0
1542737836.821,-28.320,73.242,22.461,-84.473,110.840,0
1542737836.824,-24.902,74.219,8.789,-68.848,107.910,0
1542737836.828,32.227,38.086,38.574,-35.645,15.137,0
1542737836.832,60.547,26.367,46.387,-18.066,22.949,0
1542737836.836,-44.922,72.266,37.109,-72.266,83.984,0
1542737836.840,-31.250,82.520,25.391,-47.852,41.016,0
1542737836.844,35.156,59.570,30.762,18.066,36.621,0
1542737836.848,14.648,61.523,35.156,-14.648,14.648,0
1542737836.852,31.738,67.871,41.992,-43.945,17.090,0
1542737836.856,44.922,63.477,59.570,-41.992,82.031,0
1542737836.860,11.230,68.359,11.230,-11.719,108.398,0
1542737836.864,-59.082,61.035,32.227,-36.133,47.852,0
1542737836.867,-63.477,57.617,58.594,-61.035,34.180,0
1542737836.871,-19.531,82.031,28.320,-45.410,47.852,0
1542737836.875,33.203,64.453,36.133,-71.777,12.207,0
1542737836.879,18.555,69.824,34.668,-43.457,33.203,0
1542737836.883,-34.668,81.543,67.383,-27.832,30.273,0
1542737836.887,-15.625,59.082,81.543,-37.598,68.848,0
1542737836.891,6.348,46.875,54.688,-35.645,89.844,0
1542737836.895,-39.551,52.734,35.645,-41.016,47.363,0
1542737836.899,-64.941,78.125,40.527,-28.320,27.344,0
1542737836.903,-34.668,32.227,64.453,-50.781,32.227,0
1542737836.907,41.016,10.254,59.570,10.742,26.855,0
1542737836.910,109.863,58.105,38.574,77.637,-3.418,0
1542737836.914,61.523,88.379,28.809,-5.859,-6.836,0
1542737836.918,2.441,65.918,52.734,-71.289,33.691,0
1542737836.922,26.367,60.059,29.785,-32.227,59.082,0
1542737836.926,26.855,78.613,-12.207,-48.828,20.996,0
1542737836.930,31.250,74.219,-28.320,-57.617,30.273,0
1542737836.934,79.102,62.012,-34.180,2.930,18.555,0
1542737836.938,88.379,65.430,-67.871,-29.785,70.312,0
1542737836.942,111.328,57.617,-93.750,-42.480,84.473,0
1542737836.946,122.070,45.410,-85.938,14.648,2.930,0
1542737836.949,135.742,40.039,-92.285,7.324,26.855,0
1542737836.953,177.246,71.289,-125.488,19.531,39.551,0
1542737836.957,168.457,83.008,-125.977,34.180,42.969,0
1542737836.961,172.852,69.824,-107.422,37.598,65.918,0
1542737836.965,195.312,81.543,-117.676,54.199,65.430,0
1542737836.969,205.078,86.914,-124.023,58.105,63.477,0
1542737836.973,226.074,81.055,-115.723,80.078,50.781,0
1542737836.977,194.824,75.195,-107.422,63.477,38.574,0
1542737836.981,205.078,100.098,-146.484,57.129,20.996,0
1542737836.985,280.762,116.699,-171.387,114.258,23.926,0
1542737836.989,278.320,97.656,-135.742,142.578,47.852,0
1542737836.992,296.387,100.098,-134.277,148.438,50.781,0
1542737836.996,300.293,115.234,-121.094,135.254,21.484,0
1542737837.000,295.898,127.441,-123.535,151.367,-2.930,0
1542737837.004,327.637,127.930,-121.094,174.316,3.418,0
1542737837.008,333.496,126.465,-115.234,185.059,-29.297,0
1542737837.012,317.383,127.441,-110.840,200.195,32.715,0
1542737837.016,321.777,140.625,-105.957,160.645,56.641,0
1542737837.020,311.523,152.832,-111.328,148.926,5.859,0
1542737837.024,345.703,143.066,-105.469,215.820,27.344,0
1542737837.028,334.473,158.691,-93.750,182.129,24.902,0
1542737837.032,294.434,164.551,-68.848,155.273,24.414,0
1542737837.035,364.746,162.109,-96.680,248.535,64.941,0
1542737837.039,386.230,181.641,-107.422,245.117,17.090,0
1542737837.043,326.172,172.363,-80.078,184.570,-31.250,0
1542737837.047,312.988,174.316,-95.703,199.707,19.043,0
1542737837.051,310.059,174.316,-90.820,194.336,22.949,0
1542737837.055,316.895,180.664,-92.773,183.594,10.254,0
1542737837.059,322.754,182.129,-91.309,182.129,62.012,0
1542737837.063,326.172,156.250,-74.219,198.730,57.617,0
1542737837.067,312.500,156.250,-70.801,216.797,35.645,0
1542737837.071,266.602,148.926,-46.387,192.871,52.246,0
1542737837.074,236.816,141.602,-36.621,136.230,92.773,0
1542737837.078,226.562,138.184,-49.316,124.512,58.594,0
1542737837.082,218.262,123.535,-34.668,135.742,17.090,0
1542737837.086,213.867,109.375,-13.184,119.629,70.312,0
1542737837.090,193.848,103.027,-8.789,106.934,58.105,0
1542737837.094,189.453,96.680,-9.277,113.770,49.805,0
1542737837.098,168.945,101.562,-6.348,91.797,66.895,0
1542737837.102,130.859,97.656,-0.977,54.688,50.293,0
1542737837.106,142.578,93.750,6.836,91.309,37.109,0
1542737837.110,125.488,97.656,3.906,95.215,62.500,0
1542737837.114,121.582,91.309,12.207,64.453,81.055,0
1542737837.117,112.793,98.145,19.531,52.734,0.977,0
1542737837.121,95.215,88.379,20.996,54.199,16.113,0
1542737837.125,95.215,78.125,28.809,59.570,79.102,0
1542737837.129,79.590,79.102,32.227,39.062,29.785,0
1542737837.133,62.012,72.754,36.621,22.949,32.715,0
1542737837.137,55.176,59.082,34.668,17.090,51.758,0
1542737837.141,78.125,54.688,33.203,33.203,56.641,0
1542737837.145,51.270,57.129,50.293,30.273,60.547,0
1542737837.149,27.344,57.129,50.781,9.766,58.594,0
1542737837.153,43.457,56.641,42.480,15.625,35.156,0
1542737837.157,22.949,47.363,54.199,15.137,25.879,0
1542737837.160,22.949,33.203,60.059,5.859,79.102,0
1542737837.164,36.133,32.227,59.570,-5.859,103.516,0
1542737837.168,28.809,46.875,63.965,-14.648,97.656,0
1542737837.172,21.484,52.246,62.500,-7.812,30.273,0
1542737837.176,-0.977,43.945,64.453,-14.648,56.152,0
1542737837.180,-11.230,32.227,62.988,-28.809,98.633,0
1542737837.184,-4.883,34.180,63.477,-28.320,57.129,0
1542737837.188,-11.719,35.156,66.406,-27.344,29.785,0
1542737837.192,-17.578,36.133,62.500,-20.996,54.199,0
1542737837.196,-26.855,24.902,70.312,-39.062,39.062,0
1542737837.199,-12.207,28.809,64.453,-33.203,25.879,0
1542737837.203,-11.719,27.832,59.082,-25.391,37.598,0
1542737837.207,-22.949,18.066,69.336,-26.855,-15.625,0
1542737837.211,-20.996,16.602,77.148,-22.949,13.672,0
1542737837.215,-9.277,17.090,62.988,-20.020,63.477,0
1542737837.219,-18.555,16.113,62.012,-23.438,42.969,0
1542737837.223,-40.039,6.348,66.895,-49.316,25.391,0
1542737837.227,-22.949,-2.441,68.359,-39.062,8.789,0
1542737837.231,-42.969,15.137,66.406,-49.316,28.809,0
1542737837.235,-78.613,26.367,60.059,-76.172,37.598,0
1542737837.239,-27.344,12.695,60.059,-54.688,36.621,0
1542737837.242,-11.230,10.742,65.430,-42.969,19.043,0
1542737837.246,-41.504,11.719,61.523,-56.641,36.133,0
1542737837.250,-54.199,7.324,53.223,-53.223,29.785,0
1542737837.254,-62.988,-0.977,43.945,-53.711,32.227,0
1542737837.258,-33.691,-3.418,47.363,-45.898,64.941,0
1542737837.262,-13.672,-4.395,70.801,-35.645,26.367,0
1542737837.266,-43.945,14.648,69.824,-53.223,32.715,0
1542737837.270,-23.438,11.230,73.730,-22.949,26.855,0
1542737837.274,1.465,-3.418,86.426,21.973,-8.301,0
1542737837.278,-32.715,35.645,59.570,-21.973,24.414,0
1542737837.282,-33.203,55.664,41.016,-72.754,53.711,0
1542737837.285,-7.812,38.574,38.574,-68.848,17.578,0
1542737837.289,19.043,31.738,35.156,-12.695,37.109,0
1542737837.293,20.996,36.621,28.809,7.812,10.254,0
1542737837.297,32.227,41.016,10.254,-4.395,86.914,0
1542737837.301,50.781,45.898,9.277,-6.836,129.883,0
1542737837.305,41.504,46.875,17.578,-8.789,34.668,0
1542737837.309,34.180,39.551,22.949,7.812,46.875,0
1542737837.313,42.480,40.039,33.203,1.465,65.430,0
1542737837.317,36.133,40.527,32.227,-24.414,69.336,0
1542737837.321,18.555,36.133,30.273,-24.414,90.820,0
1542737837.324,13.672,34.668,30.273,-10.742,76.660,0
1542737837.328,19.531,34.180,24.414,-14.648,51.270,0
1542737837.332,18.066,32.227,23.926,-29.297,107.910,0
1542737837.336,10.254,34.668,36.621,-22.949,107.422,0
1542737837.340,-3.418,41.992,41.504,-15.625,40.039,0
1542737837.344,17.578,40.039,39.551,-21.484,32.715,0
1542737837.348,39.062,39.062,36.621,-22.461,-6.348,0
1542737837.352,13.672,40.039,33.203,-16.113,-27.344,0
1542737837.356,0.977,43.945,36.133,-18.066,13.184,0
1542737837.360,0.977,46.875,49.805,-1.465,52.246,0
1542737837.364,8.789,41.992,56.152,-3.906,77.148,0
1542737837.367,8.301,44.434,47.363,-26.367,52.734,0
1542737837.371,14.648,46.875,49.805,-12.207,19.531,0
1542737837.375,22.949,37.109,58.105,-20.020,-10.742,0
1542737837.379,24.902,31.738,62.500,-10.742,3.906,0
1542737837.383,19.531,40.039,59.570,-3.906,-15.625,0
1542737837.387,14.648,54.199,61.523,-4.395,-0.977,0
1542737837.391,18.555,49.316,65.430,7.324,65.430,0
1542737837.395,21.973,44.922,62.988,-7.324,61.035,0
1542737837.399,26.855,50.781,75.195,3.906,33.203,0
1542737837.403,23.926,48.340,74.219,11.719,75.195,0
1542737837.407,11.719,44.922,70.312,3.418,81.543,0
1542737837.410,20.020,42.969,80.566,-6.348,62.988,0
1542737837.414,33.691,42.480,78.613,-7.324,60.059,0
1542737837.418,20.508,40.527,75.684,7.324,43.945,0
1542737837.422,3.418,40.039,76.660,-0.488,20.508,0
1542737837.426,20.996,44.434,74.219,-4.883,20.508,0
1542737837.430,38.574,48.340,73.242,6.836,8.301,0
1542737837.434,36.621,42.969,76.660,9.766,0.488,0
1542737837.438,34.668,42.480,80.078,19.531,31.250,0
1542737837.442,41.016,48.828,76.660,18.555,41.992,0
1542737837.446,30.273,48.340,68.848,17.090,26.855,0
1542737837.449,17.090,43.457,62.012,8.301,54.688,0
1542737837.453,33.203,38.086,65.918,0.977,33.691,0
1542737837.457,32.715,35.645,68.848,3.906,37.598,0
1542737837.461,27.832,40.527,62.500,-0.977,51.758,0
1542737837.465,16.113,35.156,61.035,-25.879,4.395,0
1542737837.469,1.953,32.715,54.199,-41.992,29.297,0
1542737837.473,-6.836,41.016,62.988,-33.203,-10.254,0
1542737837.477,-31.250,35.645,72.266,-61.035,-29.297,0
1542737837.481,-41.016,28.809,57.129,-87.891,38.086,0
1542737837.485,22.949,30.762,56.152,-46.875,23.438,0
1542737837.489,43.457,27.344,64.453,-12.207,18.555,0
1542737837.492,-2.930,17.090,66.895,5.371,6.836,0
1542737837.496,1.953,19.043,56.152,-15.137,10.742,0
1542737837.500,11.719,28.320,42.480,-31.250,53.711,0
1542737837.504,7.324,7.812,47.363,-4.395,7.324,0
1542737837.508,32.227,8.301,53.223,11.719,6.836,0
1542737837.512,9.766,41.504,51.758,-41.992,39.551,0
1542737837.516,-22.461,40.527,34.180,-82.031,63.965,0
1542737837.520,11.230,35.156,26.855,-27.832,31.250,0
1542737837.524,15.625,32.227,36.133,-10.254,51.270,0
1542737837.528,16.113,26.855,30.273,-16.602,58.594,0
1542737837.532,32.227,29.297,33.203,16.602,51.270,0
1542737837.535,30.762,34.668,39.062,17.578,31.250,0
1542737837.539,20.020,44.434,33.691,-9.277,8.301,0
1542737837.543,14.648,43.457,36.133,-11.230,38.574,0
1542737837.547,14.160,38.574,38.086,-9.277,22.949,0
1542737837.551,9.766,37.109,38.086,-27.832,9.277,0
1542737837.555,6.836,39.062,35.156,-53.711,21.973,0
1542737837.559,-10.742,42.480,31.250,-50.293,7.812,0
1542737837.563,-17.090,35.645,27.344,-36.133,40.039,0
1542737837.567,-9.766,24.902,26.855,-30.273,29.785,0
1542737837.571,-32.227,20.996,28.320,-44.434,15.137,0
1542737837.574,-39.062,25.879,27.344,-62.500,59.082,0
1542737837.578,-29.297,32.227,33.691,-57.617,-3.418,0
1542737837.582,-30.273,28.320,43.457,-45.898,15.625,0
1542737837.586,-28.809,20.996,39.551,-50.781,71.777,0
1542737837.590,-42.969,22.461,34.668,-47.852,80.078,0
1542737837.594,-46.387,34.180,34.180,-58.105,48.828,0
1542737837.598,-47.363,32.227,34.668,-48.828,-13.672,0
1542737837.602,-52.246,24.414,33.203,-50.293,20.508,0
1542737837.606,-43.457,32.715,26.367,-84.473,62.988,0
1542737837.610,-41.016,26.855,24.414,-75.195,41.016,0
1542737837.614,-41.992,19.043,27.344,-78.125,53.711,0
1542737837.617,-43.945,25.391,28.320,-99.121,13.184,0
1542737837.621,-58.594,25.391,22.461,-115.234,19.043,0
1542737837.625,-44.434,20.508,26.855,-97.656,83.008,0
1542737837.629,-44.434,16.602,29.785,-79.102,83.984,0
1542737837.633,-67.383,16.602,22.949,-98.633,33.203,0
1542737837.637,-72.266,13.184,20.020,-94.238,12.207,0
1542737837.641,-81.543,16.602,17.090,-115.234,10.254,0
1542737837.645,-92.285,19.043,10.254,-126.953,54.199,0
1542737837.649,-84.961,14.160,1.953,-107.910,113.770,0
1542737837.653,-60.059,20.996,12.207,-89.844,86.426,0
1542737837.657,-51.758,13.184,25.879,-79.590,36.621,0
1542737837.660,-45.898,4.395,20.996,-81.543,28.320,0
1542737837.664,-53.711,19.043,18.066,-75.195,30.273,0
1542737837.668,-62.012,21.484,20.020,-87.891,58.594,0
1542737837.672,-35.645,15.137,20.508,-72.754,76.660,0
1542737837.676,-20.020,8.301,20.996,-52.734,51.758,0
1542737837.680,-46.875,4.883,16.602,-88.379,27.832,0
1542737837.684,-75.684,2.930,12.695,-103.516,16.602,0
1542737837.688,-62.012,6.836,14.160,-77.637,46.387,0
1542737837.692,-50.781,8.789,18.066,-60.059,55.176,0
1542737837.696,-45.410,-3.906,21.973,-71.289,81.543,0
1542737837.699,-47.363,-10.254,20.508,-59.570,63.477,0
1542737837.703,-34.668,-0.488,13.184,-65.918,4.395,0
1542737837.707,-20.020,2.930,11.230,-62.988,-12.695,0
1542737837.711,-19.531,2.930,9.277,-49.316,-3.418,0
1542737837.715,-17.578,6.348,1.953,-67.383,5.859,0
1542737837.719,-13.184,2.441,5.859,-60.059,33.691,0
1542737837.723,-5.371,2.930,5.859,-52.246,52.246,0
1542737837.727,-16.602,4.883,2.930,-53.711,47.852,0
1542737837.731,-23.926,4.395,0.977,-53.223,60.547,0
1542737837.735,-14.648,5.371,0.488,-68.848,41.992,0
1542737837.739,-7.324,8.789,5.859,-56.152,-15.137,0
1542737837.742,-0.977,13.184,21.484,-42.969,33.203,0
1542737837.746,-1.465,16.602,35.645,-50.781,61.035,0
1542737837.750,-2.441,16.602,37.598,-46.875,57.617,0
1542737837.754,5.371,15.137,38.086,-33.203,64.453,0
1542737837.758,14.648,10.742,37.598,-34.668,68.848,0
1542737837.762,10.254,5.371,37.109,-42.969,51.270,0
1542737837.766,5.859,5.371,38.086,-46.387,10.742,0
1542737837.770,6.348,2.930,45.898,-48.340,15.137,0
1542737837.774,3.418,8.789,43.457,-31.250,40.039,0
1542737837.778,0.977,15.137,38.086,-26.855,0.488,0
1542737837.782,9.766,18.066,43.457,-33.691,-23.926,0
1542737837.785,25.879,21.973,52.246,-14.648,4.395,0
1542737837.789,26.367,23.438,61.035,-2.441,6.836,0
1542737837.793,22.461,24.902,60.059,-11.719,60.547,0
1542737837.797,28.320,24.414,56.641,-5.859,46.875,0
1542737837.801,20.020,27.832,54.199,-19.043,54.199,0
1542737837.805,18.066,35.156,56.152,-29.785,109.375,0
1542737837.809,23.926,39.062,65.918,-1.953,75.195,0
1542737837.813,25.391,45.898,72.266,4.883,40.527,0
1542737837.817,38.086,54.688,79.590,-4.883,49.805,0
1542737837.821,39.062,55.664,81.543,4.395,15.625,0
1542737837.824,29.785,59.570,76.172,-5.371,20.996,0
1542737837.828,24.902,64.941,66.895,-19.531,7.812,0
1542737837.832,27.344,62.988,62.988,-21.973,-13.672,0
1542737837.836,31.738,60.547,68.848,-12.207,23.438,0
1542737837.840,31.738,62.988,71.289,-1.465,33.691,0
1542737837.844,17.578,61.035,70.801,-1.953,49.805,0
1542737837.848,11.719,59.570,64.941,-27.832,66.406,0
1542737837.852,20.996,59.570,63.477,-36.133,47.852,0
1542737837.856,18.555,56.152,68.359,-23.438,32.227,0
1542737837.860,9.277,62.012,64.941,-43.945,7.812,0
1542737837.864,8.789,69.336,57.129,-41.016,13.672,0
1542737837.867,2.441,60.547,57.617,-30.273,49.805,0
1542737837.871,7.324,53.711,58.594,-30.762,41.504,0
1542737837.875,8.789,56.152,57.617,-36.133,19.531,0
1542737837.879,-12.207,47.363,59.570,-49.316,50.293,0
1542737837.883,-16.602,42.969,58.105,-47.363,38.086,0
1542737837.887,-15.625,52.246,49.805,-49.316,25.391,0
1542737837.891,-8.789,61.035,41.504,-56.641,80.566,0
1542737837.895,-9.277,53.711,44.434,-58.105,102.051,0
1542737837.899,-25.391,46.387,53.711,-74.707,105.957,0
1542737837.903,-25.391,51.758,51.758,-77.148,37.109,0
1542737837.907,-17.578,57.617,39.551,-75.195,-4.395,0
1542737837.910,-23.438,56.641,45.898,-76.660,37.598,0
1542737837.914,-25.391,57.617,50.781,-71.777,52.734,0
1542737837.918,-33.691,50.293,52.734,-67.871,-9.277,0
1542737837.922,-36.621,39.062,51.758,-53.223,-20.020,0
1542737837.926,-24.902,48.340,45.410,-76.172,30.762,0
1542737837.930,-17.578,58.594,43.945,-80.566,49.805,0
1542737837.934,-6.348,54.199,48.828,-40.039,33.203,0
1542737837.938,-17.090,48.828,61.523,-49.805,53.711,0
1542737837.942,-20.020,61.523,62.500,-79.590,0.977,0
1542737837.946,-37.598,70.801,56.152,-96.191,-34.668,0
1542737837.949,-80.566,74.219,53.223,-122.070,5.859,0
1542737837.953,-86.914,94.727,69.336,-128.418,14.160,0
1542737837.957,-116.699,109.863,74.707,-168.457,88.867,0
1542737837.961,-148.438,119.629,66.895,-204.590,83.008,0
1542737837.965,-169.922,136.719,83.496,-223.145,37.109,0
1542737837.969,-235.352,143.066,104.004,-293.945,78.125,0
1542737837.973,-303.223,145.996,111.328,-345.703,85.449,0
1542737837.977,-323.242,156.738,114.258,-361.328,18.555,0
1542737837.981,-334.961,164.551,120.605,-382.812,36.621,0
1542737837.985,-349.121,164.062,131.836,-406.250,61.523,0
1542737837.989,-341.309,166.016,133.789,-389.160,8.789,0
1542737837.992,-319.824,170.898,125.977,-355.469,-3.418,0
1542737837.996,-322.266,160.645,133.301,-380.371,19.043,0
1542737838.000,-323.242,142.090,144.043,-379.395,50.293,0
1542737838.004,-289.062,129.883,136.230,-335.938,21.973,0
1542737838.008,-254.395,112.793,123.047,-304.688,34.180,0
1542737838.012,-213.867,86.426,111.816,-271.484,41.992,0
1542737838.016,-186.523,70.801,100.586,-232.422,10.254,0
1542737838.020,-149.414,74.707,93.750,-175.781,7.812,0
1542737838.024,-111.816,78.613,84.961,-142.090,8.301,0
1542737838.028,-91.309,63.477,73.242,-135.742,35.645,0
1542737838.032,-41.992,41.992,63.477,-97.656,52.246,0
1542737838.035,-5.859,24.902,48.828,-47.363,25.879,0
1542737838.039,4.395,10.254,35.156,-24.902,35.156,0
1542737838.043,40.039,8.301,20.508,-18.555,59.570,0
1542737838.047,63.965,6.836,7.812,4.395,5.859,0
1542737838.051,71.289,-2.441,-2.930,16.113,-7.812,0
1542737838.055,87.402,-6.836,-17.578,25.391,40.039,0
1542737838.059,83.984,-17.090,-22.949,33.691,65.918,0
1542737838.063,70.312,-28.320,-24.414,46.387,70.312,0
1542737838.067,80.566,-20.508,-35.645,57.129,64.453,0
1542737838.071,97.168,-20.508,-43.945,50.293,0.977,0
1542737838.074,94.238,-33.691,-41.504,55.176,-27.832,0
1542737838.078,96.191,-36.133,-47.852,54.688,40.039,0
1542737838.082,107.910,-35.645,-54.199,51.270,111.328,0
1542737838.086,119.629,-32.715,-41.504,76.172,74.219,0
1542737838.090,122.559,-28.809,-41.992,80.078,3.906,0
1542737838.094,114.258,-25.879,-50.293,68.359,-15.137,0
1542737838.098,106.934,-34.180,-44.434,71.777,32.715,0
1542737838.102,117.676,-38.086,-41.992,76.660,57.617,0
1542737838.106,111.816,-33.691,-47.363,80.078,80.078,0
1542737838.110,97.656,-30.273,-40.039,79.102,100.586,0
1542737838.114,98.145,-20.996,-36.133,62.988,35.156,0
1542737838.117,109.375,-18.066,-36.621,61.523,31.738,0
1542737838.121,112.305,-21.484,-39.551,62.500,55.176,0
1542737838.125,99.121,-23.926,-41.016,51.270,-27.832,0
1542737838.129,99.609,-25.391,-33.203,58.594,-10.742,0
1542737838.133,104.980,-21.484,-23.926,76.172,38.086,0
1542737838.137,101.074,-21.973,-20.020,76.172,28.809,0
1542737838.141,93.750,-22.949,-26.855,68.848,18.066,0
1542737838.145,96.191,-26.367,-31.250,53.223,17.578,0
1542737838.149,93.750,-31.250,-30.273,48.828,70.312,0
1542737838.153,82.031,-20.996,-29.785,57.129,20.508,0
1542737838.157,89.844,-12.695,-26.855,46.875,29.297,0
1542737838.160,90.332,-22.949,-28.809,42.969,65.918,0
1542737838.164,87.402,-28.320,-26.855,50.293,56.152,0
1542737838.168,82.520,-19.043,-22.461,40.039,56.641,0
1542737838.172,70.801,-16.602,-21.973,37.109,15.137,0
1542737838.176,66.895,-18.066,-18.555,50.781,-30.762,0
1542737838.180,66.406,-17.578,-19.531,44.922,34.668,0
1542737838.184,74.219,-16.113,-24.902,38.086,72.266,0
1542737838.188,60.059,-17.578,-23.926,29.297,21.484,0
1542737838.192,37.598,-21.973,-22.461,10.742,68.848,0
1542737838.196,38.574,-20.508,-19.531,4.395,115.723,0
1542737838.199,39.551,-21.973,-10.254,7.324,17.578,0
1542737838.203,45.410,-17.578,-7.324,9.277,-58.105,0
1542737838.207,48.340,-9.766,-8.789,12.207,31.738,0
1542737838.211,47.852,-9.766,-6.836,11.719,45.410,0
1542737838.215,44.434,-10.742,-1.953,5.859,8.301,0
1542737838.219,39.062,-13.184,-2.441,3.418,120.117,0
1542737838.223,32.227,-11.719,-5.371,10.742,126.953,0
1542737838.227,42.969,-8.789,-3.418,12.207,9.277,0
1542737838.231,54.688,-12.695,4.395,6.836,2.441,0
1542737838.235,38.086,-15.625,8.789,9.277,18.066,0
1542737838.239,36.621,-6.348,4.883,21.484,-20.508,0
1542737838.242,43.945,3.906,3.418,16.113,16.602,0
1542737838.246,44.922,10.254,3.906,17.578,17.090,0
1542737838.250,47.363,10.742,0.977,16.113,-10.254,0
1542737838.254,39.551,10.742,1.953,0.000,19.043,0
1542737838.258,36.621,14.648,6.836,-6.836,68.848,0
1542737838.262,36.621,14.160,6.836,-4.883,55.664,0
1542737838.266,44.922,11.230,9.277,10.254,-6.348,0
1542737838.270,48.340,2.441,9.277,29.297,-3.906,0
1542737838.274,40.039,-1.465,0.000,12.695,27.344,0
1542737838.278,39.551,-5.859,2.930,-1.953,41.016,0
1542737838.282,21.973,-7.324,1.953,-5.371,12.207,0
1542737838.285,7.324,6.348,-5.859,-14.648,54.688,0
1542737838.289,17.578,16.113,-0.977,-9.277,121.094,0
1542737838.293,16.113,17.090,2.930,-4.883,96.680,0
1542737838.297,12.695,13.184,2.930,0.000,54.688,0
1542737838.301,16.602,11.230,8.301,-2.930,33.691,0
1542737838.305,22.949,9.277,12.695,-13.672,85.938,0
1542737838.309,30.273,5.859,4.883,-8.301,55.176,0
1542737838.313,24.414,7.324,4.883,-13.184,-46.875,0
1542737838.317,14.648,10.742,12.695,-20.508,33.691,0
1542737838.321,5.371,10.254,10.254,-25.879,33.203,0
1542737838.324,8.789,11.719,8.789,-19.531,-8.301,0
1542737838.328,14.160,11.230,7.324,-19.531,35.645,0
1542737838.332,5.859,11.230,9.277,-15.137,35.156,0
1542737838.336,5.859,12.207,10.254,-20.996,13.672,0
1542737838.340,6.348,14.648,6.836,-37.598,19.531,0
1542737838.344,6.348,20.508,10.254,-29.785,18.066,0
1542737838.348,14.648,12.695,10.742,-32.715,31.738,0
1542737838.352,4.395,5.859,6.348,-41.016,69.336,0
1542737838.356,2.441,9.277,7.812,-32.227,45.410,0
1542737838.360,8.789,17.578,10.254,-26.367,7.812,0
1542737838.364,1.465,20.996,9.766,-41.016,15.625,0
1542737838.367,0.977,14.160,17.578,-41.016,66.406,0
1542737838.371,9.277,15.137,20.996,-29.785,14.648,0
1542737838.375,4.395,18.555,16.113,-35.156,-12.207,0
1542737838.379,0.488,15.625,15.137,-48.340,86.914,0
1542737838.383,2.441,15.137,18.066,-47.363,110.352,0
1542737838.387,-3.418,15.625,16.113,-42.480,74.707,0
1542737838.391,-7.324,3.906,14.648,-39.062,69.336,0
1542737838.395,-10.742,2.930,16.113,-39.062,65.430,0
1542737838.399,-13.184,7.324,8.301,-56.152,60.059,0
1542737838.403,-8.301,9.766,5.371,-65.430,61.523,0
1542737838.407,-4.883,17.578,10.254,-68.359,50.293,0
1542737838.410,-0.488,20.996,12.207,-48.340,76.172,0
1542737838.414,3.906,17.090,13.184,-39.062,92.285,0
1542737838.418,9.766,12.207,6.836,-67.383,32.715,0
1542737838.422,1.465,9.766,4.395,-75.684,-4.395,0
1542737838.426,-9.766,5.859,12.207,-66.406,76.660,0
1542737838.430,-1.465,9.766,16.113,-54.688,54.199,0
1542737838.434,0.977,16.113,15.137,-51.270,0.488,0
1542737838.438,4.395,12.695,19.531,-44.434,62.012,0
1542737838.442,10.742,15.625,19.531,-30.762,48.340,0
1542737838.446,6.348,23.926,11.719,-41.016,63.965,0
1542737838.449,11.230,16.602,10.254,-56.641,76.660,0
1542737838.453,13.184,11.230,14.648,-54.199,32.715,0
1542737838.457,3.418,16.602,13.672,-34.180,41.992,0
1542737838.461,6.836,17.578,9.766,-28.809,30.273,0
1542737838.465,9.277,12.695,10.254,-41.016,31.738,0
1542737838.469,8.301,11.230,13.672,-49.805,1.953,0
1542737838.473,9.766,13.184,19.531,-37.598,22.949,0
1542737838.477,13.184,19.043,20.020,-28.320,15.625,0
1542737838.481,8.301,24.902,18.555,-34.180,26.367,0
1542737838.485,-4.883,18.066,17.090,-37.598,82.031,0
1542737838.489,1.465,9.766,19.043,-34.180,36.621,0
1542737838.492,10.742,7.812,18.555,-24.902,21.973,0
1542737838.496,11.230,13.184,14.160,-32.227,51.270,0
1542737838.500,13.184,20.508,16.602,-29.297,88.379,0
1542737838.504,5.371,19.531,19.531,-18.555,63.477,0
1542737838.508,5.859,21.973,18.066,-14.160,32.227,0
1542737838.512,12.207,25.879,17.578,-18.555,-17.578,0
1542737838.516,5.371,20.508,18.066,-48.340,-51.758,0
1542737838.520,1.465,18.066,16.602,-45.410,17.578,0
1542737838.524,-0.488,18.066,15.625,-30.273,47.852,0
1542737838.528,1.465,16.602,16.113,-38.086,-4.395,0
1542737838.532,0.977,13.672,20.020,-34.668,22.461,0
1542737838.535,-0.488,12.207,26.855,-29.297,74.219,0
1542737838.539,-3.418,15.625,32.715,-37.109,59.570,0
1542737838.543,-1.953,20.996,25.391,-31.250,61.523,0
1542737838.547,7.812,18.555,23.926,-12.207,53.223,0
1542737838.551,5.371,17.578,22.461,-17.090,30.273,0
1542737838.555,5.371,17.090,16.602,-29.785,24.414,0
1542737838.559,7.324,14.648,15.625,-28.809,80.078,0
1542737838.563,4.883,25.391,16.602,-22.461,72.754,0
1542737838.567,3.906,27.832,23.438,-17.578,19.043,0
1542737838.571,-6.348,22.461,25.391,-29.297,44.434,0
1542737838.574,-16.113,19.531,21.973,-26.855,50.781,0
1542737838.578,-17.578,24.414,20.020,-20.996,32.227,0
1542737838.582,-11.719,27.344,20.020,-32.715,44.434,0
1542737838.586,-3.418,26.367,22.461,-35.156,70.801,0
1542737838.590,-4.395,31.250,19.531,-19.531,40.039,0
1542737838.594,-9.277,27.344,11.719,-5.859,30.762,0
1542737838.598,-8.301,23.438,13.184,-23.926,64.941,0
1542737838.602,-17.578,20.020,18.555,-40.039,19.531,0
1542737838.606,-19.043,14.160,20.020,-40.039,-17.578,0
1542737838.610,-5.859,14.160,20.508,-30.273,35.156,0
1542737838.614,0.977,20.508,14.648,-21.973,96.680,0
1542737838.617,2.441,24.414,11.719,-9.766,34.668,0
1542737838.621,1.953,20.020,12.207,-4.395,46.387,0
1542737838.625,4.883,19.043,6.836,-12.207,93.750,0
1542737838.629,2.441,23.438,10.742,-25.391,74.707,0
1542737838.633,-4.883,25.391,20.020,-35.156,58.594,0
1542737838.637,5.371,24.902,15.137,-30.762,53.711,0
1542737838.641,7.324,21.973,11.719,-25.391,7.812,0
1542737838.645,8.301,22.461,15.137,-26.855,15.625,0
1542737838.649,12.207,20.020,12.695,-31.738,32.227,0
1542737838.653,10.742,19.043,14.648,-11.230,10.254,0
1542737838.657,17.090,21.973,19.043,0.977,24.414,0
1542737838.660,9.277,24.902,14.648,-27.344,28.320,0
1542737838.664,4.883,26.367,19.043,-38.574,18.066,0
1542737838.668,6.348,24.414,24.902,-27.832,30.273,0
1542737838.672,1.465,24.902,22.949,-24.902,69.336,0
1542737838.676,9.766,24.902,23.438,-24.414,82.031,0
1542737838.680,10.742,23.926,23.438,-24.414,32.715,0
1542737838.684,5.371,23.438,22.949,-16.113,16.113,0
1542737838.688,0.977,23.926,20.508,-19.043,78.613,0
1542737838.692,0.488,19.531,16.113,-29.785,75.684,0
1542737838.696,8.789,9.766,21.973,-7.324,15.625,0
1542737838.699,0.977,13.672,24.414,-17.578,-1.465,0
1542737838.703,4.395,18.555,21.484,-43.945,12.207,0
1542737838.707,18.555,19.531,21.484,-30.273,49.316,0
1542737838.711,5.371,20.508,24.902,-25.879,37.598,0
1542737838.715,7.812,24.414,22.461,-34.668,-7.324,0
1542737838.719,19.043,30.762,19.531,-23.438,32.227,0
1542737838.723,10.254,34.668,24.902,-13.184,52.734,0
1542737838.727,10.254,31.250,27.344,-14.160,52.734,0
1542737838.731,20.508,23.438,28.809,-8.789,47.363,0
1542737838.735,14.648,21.973,30.762,-16.602,22.949,0
1542737838.739,13.184,27.832,31.738,-26.855,-20.508,0
1542737838.742,27.832,28.809,30.762,-10.254,-11.230,0
1542737838.746,29.785,24.902,30.762,-7.812,33.203,0
1542737838.750,19.043,26.855,25.879,-27.832,40.039,0
1542737838.754,11.230,20.996,26.367,-26.367,-21.973,0
1542737838.758,13.184,16.602,33.203,-27.344,-46.387,0
1542737838.762,12.695,23.926,30.273,-31.738,38.574,0
1542737838.766,8.789,23.438,30.273,-26.367,78.613,0
1542737838.770,22.949,14.648,21.973,-24.902,62.012,0
1542737838.774,71.289,19.531,7.812,17.578,8.789,0
1542737838.778,49.805,29.297,30.762,12.207,9.766,0
1542737838.782,-21.484,26.367,53.223,-56.641,45.898,0
1542737838.785,-19.531,15.625,46.387,-47.852,34.668,0
1542737838.789,15.137,-1.465,52.246,1.953,76.172,0
1542737838.793,10.742,-11.719,77.637,-1.953,76.660,0
1542737838.797,-16.602,-17.090,90.820,-19.531,31.250,0
1542737838.801,-18.555,-19.531,89.355,-12.695,92.285,0
1542737838.805,-3.418,-24.902,92.285,-6.836,104.492,0
1542737838.809,7.812,-29.297,90.820,4.395,83.984,0
1542737838.813,3.418,-25.879,88.379,10.254,62.012,0
1542737838.817,9.766,-18.555,82.520,0.488,28.809,0
1542737838.821,12.207,-17.090,73.242,-1.953,29.785,0
1542737838.824,4.395,-20.508,71.289,-0.977,31.250,0
1542737838.828,11.230,-15.625,70.312,1.465,38.086,0
1542737838.832,20.020,-10.742,67.383,7.324,17.578,0
1542737838.836,18.066,-11.719,67.383,4.883,-9.277,0
1542737838.840,17.578,-8.789,63.477,7.324,-4.395,0
1542737838.844,17.090,-3.906,56.641,2.441,0.488,0
1542737838.848,16.602,-3.418,57.617,-6.348,0.977,0
1542737838.852,20.508,-0.977,62.012,-3.418,23.438,0
1542737838.856,26.367,0.977,59.570,2.930,48.828,0
1542737838.860,30.273,0.977,62.988,19.043,55.176,0
1542737838.864,22.461,5.371,62.500,13.672,-4.883,0
1542737838.867,26.855,5.859,54.688,5.859,11.719,0
1542737838.871,29.297,5.859,52.246,11.230,50.781,0
1542737838.875,29.785,13.672,51.270,16.113,43.457,0
1542737838.879,38.086,10.254,50.781,19.043,13.672,0
1542737838.883,34.180,8.301,51.270,3.906,79.102,0
1542737838.887,33.691,21.973,47.852,-2.441,86.914,0
1542737838.891,35.645,27.344,50.781,7.324,-38.086,0
1542737838.895,33.203,29.297,53.223,14.648,21.973,0
1542737838.899,40.527,29.785,51.758,17.090,62.988,0
1542737838.903,53.711,28.320,56.152,22.461,56.152,0
1542737838.907,63.477,35.156,61.523,36.621,19.531,0
1542737838.910,55.664,41.016,63.965,39.062,19.531,0
1542737838.914,46.875,46.387,65.430,26.855,107.422,0
1542737838.918,49.316,47.363,66.895,16.602,42.480,0
1542737838.922,46.875,43.945,65.430,20.508,25.879,0
1542737838.926,43.945,48.340,60.547,25.391,92.773,0
1542737838.930,53.223,52.246,62.012,18.555,23.926,0
1542737838.934,57.129,50.781,71.777,24.902,-12.207,0
1542737838.938,63.965,55.176,79.102,34.180,26.855,0
1542737838.942,67.383,61.035,82.031,40.527,62.012,0
1542737838.946,66.895,66.406,83.008,43.457,29.785,0
1542737838.949,61.035,65.430,79.590,33.691,-18.555,0
1542737838.953,57.617,63.965,82.520,30.762,27.344,0
1542737838.957,66.895,76.660,87.402,40.039,30.273,0
1542737838.961,78.125,84.473,87.891,41.016,43.457,0
1542737838.965,74.707,75.195,87.891,41.016,43.457,0
1542737838.969,75.684,71.777,87.402,48.340,15.625,0
1542737838.973,77.148,75.195,80.566,48.340,25.391,0
1542737838.977,64.941,75.195,75.195,47.363,3.418,0
1542737838.981,72.266,82.031,80.078,32.715,31.250,0
1542737838.985,82.520,87.402,85.449,43.945,78.613,0
1542737838.989,90.332,86.426,89.355,68.359,11.230,0
1542737838.992,82.520,81.055,84.961,47.852,-10.254,0
1542737838.996,70.312,70.312,78.125,29.785,-1.953,0
1542737839.000,69.824,67.871,78.613,30.273,-0.488,0
1542737839.004,63.965,72.754,78.125,25.879,4.395,0
1542737839.008,68.848,75.195,67.871,23.438,26.855,0
1542737839.012,71.289,71.289,62.012,27.344,45.410,0
1542737839.016,55.664,67.871,61.523,21.484,30.273,0
1542737839.020,52.734,68.848,58.105,11.230,34.668,0
1542737839.024,56.641,64.941,57.129,16.113,34.180,0
1542737839.028,62.500,62.500,59.570,37.598,39.062,0
1542737839.032,60.547,66.895,57.129,29.785,25.391,0
1542737839.035,54.688,63.477,51.758,-8.789,-21.973,0
1542737839.039,54.688,54.199,48.340,-6.348,-15.137,0
1542737839.043,50.781,50.293,40.039,0.488,41.992,0
1542737839.047,49.805,49.805,37.109,-1.953,40.527,0
1542737839.051,40.527,36.621,41.016,-3.418,74.707,0
1542737839.055,35.645,27.832,41.504,-0.977,77.637,0
1542737839.059,29.297,37.109,35.645,-5.371,57.129,0
1542737839.063,25.879,40.527,34.668,-6.836,85.449,0
1542737839.067,23.438,36.621,37.109,-2.441,71.777,0
1542737839.071,19.043,33.203,37.109,0.488,73.242,0
1542737839.074,16.602,30.762,32.227,-8.789,74.707,0
1542737839.078,15.625,31.250,28.320,-7.812,80.566,0
1542737839.082,16.602,28.809,25.391,-13.184,65.430,0
1542737839.086,25.879,26.855,23.926,-10.742,64.453,0
1542737839.090,25.879,28.809,24.902,-2.930,33.203,0
1542737839.094,20.508,27.832,25.391,-10.742,45.898,0
1542737839.098,30.762,27.344,26.367,-20.020,64.453,0
1542737839.102,27.832,23.438,22.949,-14.160,37.109,0
1542737839.106,27.344,24.902,19.043,14.160,52.246,0
1542737839.110,30.762,33.203,18.066,-5.859,26.855,0
1542737839.114,20.508,32.227,16.113,-25.391,41.504,0
1542737839.117,22.949,24.902,17.090,-4.883,60.059,0
1542737839.121,25.391,26.855,19.043,-8.789,-37.598,0
1542737839.125,27.832,33.691,14.160,-23.926,-2.441,0
1542737839.129,39.062,29.785,13.672,-21.484,59.082,0
1542737839.133,32.715,27.832,23.926,-8.789,45.410,0
1542737839.137,21.484,25.879,26.367,4.883,34.668,0
1542737839.141,27.344,25.391,23.438,9.766,32.227,0
1542737839.145,25.879,29.297,25.879,7.324,79.590,0
1542737839.149,25.391,27.344,30.273,-4.883,124.023,0
1542737839.153,34.180,29.297,29.297,-11.230,94.727,0
1542737839.157,29.785,31.738,28.809,-9.766,81.055,0
1542737839.160,37.109,33.203,24.414,-11.719,47.852,0
1542737839.164,43.457,34.668,19.043,-17.578,-15.137,0
1542737839.168,30.762,31.738,22.461,-20.508,33.691,0
1542737839.172,23.438,29.785,24.414,-13.184,39.062,0
1542737839.176,20.020,28.809,19.043,0.000,17.090,0
1542737839.180,19.043,28.320,9.766,-5.859,37.598,0
1542737839.184,15.137,27.832,8.789,-21.973,78.125,0
1542737839.188,14.160,30.762,16.602,-19.531,93.750,0
1542737839.192,13.184,29.785,21.484,-26.855,55.176,0
1542737839.196,44.434,22.461,18.066,-5.371,21.484,0
1542737839.199,71.777,26.855,18.066,27.344,31.250,0
1542737839.203,33.203,21.484,29.297,4.395,4.883,0
1542737839.207,3.418,14.648,39.062,-17.578,32.227,0
1542737839.211,-14.648,18.555,49.805,-40.527,89.844,0
1542737839.215,-29.297,18.066,62.500,-43.945,68.359,0
1542737839.219,-17.090,6.348,70.312,-20.508,50.293,0
1542737839.223,-27.344,-6.348,77.148,-33.691,73.242,0
1542737839.227,-33.203,-6.348,85.449,-33.691,82.031,0
1542737839.231,-33.691,-7.812,94.727,-22.949,84.473,0
1542737839.235,-42.480,-7.324,90.820,-33.203,68.848,0
1542737839.239,-33.691,-10.742,83.008,-26.855,29.785,0
1542737839.242,-8.789,-15.625,81.543,-12.695,-9.277,0
1542737839.246,-0.977,-19.043,78.125,-1.465,32.715,0
1542737839.250,-12.207,-15.137,72.754,-13.672,96.680,0
1542737839.254,-3.906,-7.812,69.336,-20.020,88.379,0
1542737839.258,5.859,-5.859,63.477,-2.930,86.914,0
1542737839.262,14.160,-5.371,60.547,11.230,20.996,0
1542737839.266,22.461,-3.418,63.965,8.301,24.414,0
1542737839.270,8.789,0.488,67.383,-11.719,45.898,0
1542737839.274,10.742,4.883,63.477,-9.277,-8.789,0
1542737839.278,26.855,15.137,55.176,-2.441,-3.418,0
1542737839.282,24.902,17.578,56.152,4.395,21.973,0
1542737839.285,28.809,13.672,59.082,5.371,88.379,0
1542737839.289,31.738,18.555,58.594,-0.488,30.762,0
1542737839.293,30.273,25.391,61.035,3.906,-29.785,0
1542737839.297,42.480,19.043,57.617,4.395,43.457,0
1542737839.301,45.410,24.414,51.270,-1.465,30.273,0
1542737839.305,42.969,31.738,52.246,4.395,54.199,0
1542737839.309,35.645,21.973,55.664,19.531,94.238,0
1542737839.313,30.273,22.949,53.711,20.020,30.273,0
1542737839.317,36.133,23.926,51.758,16.113,33.691,0
1542737839.321,38.086,23.438,51.758,8.301,55.664,0
1542737839.324,35.645,23.438,43.457,3.906,-0.977,0
1542737839.328,29.785,23.926,41.504,16.602,-1.953,0
1542737839.332,30.762,30.762,46.387,8.301,29.297,0
1542737839.336,40.527,29.785,44.434,-2.930,26.367,0
1542737839.340,39.551,29.297,38.574,1.953,-24.414,0
1542737839.344,29.785,29.297,39.551,12.207,21.973,0
1542737839.348,27.832,31.738,47.852,5.371,91.309,0
1542737839.352,32.715,37.109,49.316,-7.812,68.848,0
1542737839.356,37.598,40.039,48.828,3.418,57.129,0
1542737839.360,27.832,36.133,47.852,3.906,29.297,0
1542737839.364,28.809,-0.977,60.059,19.043,21.484,0
1542737839.367,79.590,-7.324,59.082,68.848,32.227,0
1542737839.371,77.637,36.133,34.668,46.875,43.945,0
1542737839.375,19.043,58.594,25.391,-27.832,98.145,0
1542737839.379,29.785,58.105,15.137,-37.109,105.957,0
1542737839.383,43.945,71.777,0.488,-26.855,13.184,0
1542737839.387,16.602,89.355,-16.113,-48.828,20.020,0
1542737839.391,36.621,98.145,-42.969,-41.016,43.457,0
1542737839.395,31.738,101.074,-57.129,-49.805,12.207,0
1542737839.399,18.066,94.727,-63.965,-62.988,47.852,0
1542737839.403,26.855,102.539,-76.660,-76.172,125.977,0
1542737839.407,23.438,104.492,-81.055,-89.844,89.355,0
1542737839.410,44.434,101.074,-95.703,-59.570,9.277,0
1542737839.414,50.781,96.680,-102.051,-53.223,11.719,0
1542737839.418,49.805,91.309,-85.938,-56.641,19.531,0
1542737839.422,52.734,87.891,-77.637,-40.039,9.766,0
1542737839.426,45.898,82.520,-79.590,-37.598,32.227,0
1542737839.430,44.434,75.195,-81.543,-41.504,-5.371,0
1542737839.434,50.293,74.219,-73.242,-37.598,-30.273,0
1542737839.438,57.617,78.613,-64.941,-30.762,61.523,0
1542737839.442,57.129,70.801,-62.988,-31.738,46.875,0
1542737839.446,44.434,65.430,-59.570,-34.180,21.484,0
1542737839.449,41.016,63.477,-53.711,-34.180,39.062,0
1542737839.453,43.457,63.477,-48.340,-38.574,12.207,0
1542737839.457,31.738,59.570,-40.039,-41.016,-15.137,0
1542737839.461,34.668,51.758,-36.621,-38.086,4.395,0
1542737839.465,37.109,51.758,-35.156,-35.156,4.883,0
1542737839.469,29.297,57.129,-32.715,-26.367,-5.371,0
1542737839.473,29.785,58.594,-30.762,-14.160,-8.789,0
1542737839.477,37.598,52.734,-19.531,-38.574,24.414,0
1542737839.481,33.691,49.805,-10.742,-52.246,16.113,0
1542737839.485,24.414,50.781,-18.066,-40.039,-12.695,0
1542737839.489,20.996,39.551,-12.695,-30.273,24.902,0
1542737839.492,20.508,37.109,-7.324,-27.344,-15.625,0
1542737839.496,24.902,41.504,-10.254,-25.391,-12.207,0
1542737839.500,24.414,38.574,-8.301,-21.484,31.738,0
1542737839.504,19.531,47.363,-2.930,-21.973,53.223,0
1542737839.508,18.066,50.781,-2.441,-25.391,77.637,0
1542737839.512,20.996,41.504,-1.465,-29.785,44.922,0
1542737839.516,15.137,40.039,1.465,-27.344,16.602,0
1542737839.520,11.719,38.086,0.488,-20.020,41.992,0
1542737839.524,12.695,41.992,7.812,-24.902,30.273,0
1542737839.528,23.926,47.363,12.207,-35.156,-2.930,0
1542737839.532,34.180,44.434,6.348,-36.133,4.883,0
1542737839.535,27.344,46.387,7.812,-28.320,59.570,0
1542737839.539,19.043,42.969,10.254,-26.855,60.547,0
1542737839.543,13.184,37.109,6.836,-31.250,37.598,0
1542737839.547,12.207,40.039,5.859,-26.855,64.453,0
1542737839.551,14.160,42.969,13.184,-16.113,98.633,0
1542737839.555,11.230,41.016,19.043,-8.789,95.703,0
1542737839.559,12.695,37.598,20.996,-22.949,82.520,0
1542737839.563,22.949,40.039,23.438,-26.855,65.918,0
1542737839.567,36.133,46.387,25.879,-20.508,54.199,0
1542737839.571,37.598,48.828,29.297,-17.090,44.922,0
1542737839.574,36.621,51.758,29.785,-2.930,32.715,0
1542737839.578,37.109,52.734,30.273,1.465,-23.926,0
1542737839.582,40.039,49.805,34.180,-2.441,-25.879,0
1542737839.586,48.340,50.293,37.598,7.324,19.043,0
1542737839.590,40.039,52.734,37.109,3.906,46.387,0
1542737839.594,27.832,48.340,33.203,-4.395,62.012,0
1542737839.598,46.387,27.832,35.645,19.043,46.387,0
1542737839.602,69.336,26.855,36.133,32.227,72.266,0
1542737839.606,50.293,55.176,32.227,-2.930,52.246,0
1542737839.610,15.137,64.941,27.832,-22.949,-20.508,0
1542737839.614,15.625,66.406,18.066,-33.691,-34.668,0
1542737839.617,38.086,73.730,12.207,-23.438,18.066,0
1542737839.621,42.969,66.406,24.414,-5.859,62.500,0
1542737839.625,41.016,61.523,36.133,4.395,64.453,0
1542737839.629,31.738,60.547,34.180,12.695,74.707,0
1542737839.633,41.504,55.664,29.785,-10.254,44.922,0
1542737839.637,40.527,51.270,23.926,-27.344,-9.277,0
1542737839.641,28.809,54.688,24.902,-25.391,-7.324,0
1542737839.645,35.645,55.664,26.855,-18.555,16.113,0
1542737839.649,29.785,48.828,25.879,-15.137,61.523,0
1542737839.653,31.738,44.922,29.785,-7.812,74.707,0
1542737839.657,38.574,46.875,34.180,-3.906,36.621,0
1542737839.660,32.715,45.898,34.180,-9.277,51.270,0
1542737839.664,25.391,42.969,32.227,-20.020,42.480,0
1542737839.668,26.855,41.016,32.715,-26.855,49.316,0
1542737839.672,26.855,38.574,33.691,-14.160,22.461,0
1542737839.676,25.391,36.621,27.832,-20.996,11.719,0
1542737839.680,27.344,33.203,24.414,-34.180,56.152,0
1542737839.684,28.809,28.809,30.762,-21.973,33.203,0
1542737839.688,33.691,31.250,29.785,3.418,59.082,0
1542737839.692,32.715,35.645,25.879,3.418,93.750,0
1542737839.696,32.227,31.738,21.973,-30.273,79.590,0
1542737839.699,22.461,28.320,16.113,-35.156,37.109,0
1542737839.703,7.812,28.320,18.555,-22.461,10.742,0
1542737839.707,12.695,28.809,21.973,-15.137,81.543,0
1542737839.711,17.578,32.227,20.020,-14.648,77.637,0
1542737839.715,17.090,26.855,20.996,-31.250,-26.367,0
1542737839.719,19.043,17.090,20.508,-27.832,-39.551,0
1542737839.723,18.066,20.508,17.578,-17.090,51.270,0
1542737839.727,12.695,24.414,15.137,-22.949,53.223,0
1542737839.731,7.324,24.902,11.230,-30.273,28.320,0
1542737839.735,3.418,27.832,14.160,-28.320,89.355,0
1542737839.739,6.348,25.879,20.508,-25.391,88.379,0
1542737839.742,6.836,19.531,25.879,-14.648,6.836,0
1542737839.746,3.906,16.113,27.832,-17.578,-3.906,0
1542737839.750,1.465,18.555,23.926,-31.738,-9.766,0
1542737839.754,-7.324,15.137,22.949,-32.715,40.039,0
1542737839.758,-6.348,15.137,22.949,-46.875,33.691,0
1542737839.762,0.488,18.555,18.066,-42.969,-51.270,0
1542737839.766,-1.465,15.625,17.090,-34.668,1.465,0
1542737839.770,-12.695,16.602,16.113,-47.852,56.641,0
1542737839.774,-11.719,18.066,19.531,-31.250,67.383,0
1542737839.778,-9.277,14.160,17.090,-38.086,71.777,0
1542737839.782,-12.695,19.043,12.695,-56.152,72.754,0
1542737839.785,-3.418,18.066,13.672,-48.340,93.262,0
1542737839.789,-0.977,15.137,17.578,-41.016,36.133,0
1542737839.793,-4.883,17.090,20.996,-32.715,27.832,0
1542737839.797,-1.465,20.508,20.996,-30.762,83.496,0
1542737839.801,-4.883,19.043,19.043,-34.668,84.473,0
1542737839.805,-5.859,10.742,17.090,-41.992,35.645,0
1542737839.809,-6.348,14.648,11.230,-42.480,8.789,0
1542737839.813,-7.812,13.672,2.441,-46.875,12.695,0
1542737839.817,-2.930,9.277,8.789,-41.016,19.531,0
1542737839.821,-7.812,13.184,12.207,-37.109,12.695,0
1542737839.824,-14.160,11.719,6.836,-36.621,77.637,0
1542737839.828,-15.625,4.395,9.766,-40.527,114.258,0
1542737839.832,-15.137,5.859,11.719,-56.641,10.742,0
1542737839.836,-11.230,11.719,10.254,-54.688,-4.395,0
1542737839.840,-4.395,9.277,10.254,-50.781,54.199,0
1542737839.844,-9.277,10.254,6.836,-55.176,55.176,0
1542737839.848,-14.160,11.719,8.301,-60.059,58.594,0
1542737839.852,-6.348,8.789,7.324,-52.734,41.016,0
1542737839.856,-6.348,9.277,0.000,-43.945,30.273,0
1542737839.860,-12.207,8.789,-2.930,-40.527,45.410,0
1542737839.864,17.090,13.672,-7.324,-25.391,25.879,0
1542737839.867,22.461,20.020,-1.465,-22.949,-28.320,0
1542737839.871,-29.785,10.742,20.020,-62.012,18.555,0
1542737839.875,-38.574,1.465,22.949,-69.336,34.180,0
1542737839.879,-19.043,-10.254,22.461,-50.293,17.578,0
1542737839.883,-8.301,-6.348,19.531,-44.434,40.527,0
1542737839.887,0.488,2.930,15.137,-38.574,-1.465,0
1542737839.891,-15.137,0.000,21.484,-24.902,-6.348,0
1542737839.895,-16.113,-0.488,20.508,-22.461,11.719,0
1542737839.899,-10.254,-7.324,14.160,-48.828,27.832,0
1542737839.903,-9.766,-6.348,12.695,-53.711,62.988,0
1542737839.907,-10.742,0.977,11.230,-44.434,65.918,0
1542737839.910,-12.695,-7.324,8.789,-40.527,41.016,0
1542737839.914,-10.742,-5.859,9.766,-43.945,21.484,0
1542737839.918,-13.672,-0.977,11.230,-52.246,53.711,0
1542737839.922,-15.137,-0.488,13.672,-47.363,70.312,0
1542737839.926,-18.066,-1.465,11.230,-44.922,32.715,0
1542737839.930,-13.184,-6.348,5.859,-43.945,72.754,0
1542737839.934,-7.324,1.465,3.418,-36.133,89.355,0
1542737839.938,-6.348,9.766,11.230,-31.738,10.254,0
1542737839.942,0.488,7.812,15.625,-38.086,18.555,0
1542737839.946,-13.184,9.766,9.277,-47.363,14.160,0
1542737839.949,-17.578,15.625,12.207,-52.734,18.066,0
1542737839.953,-10.742,11.230,9.766,-50.293,80.566,0
1542737839.957,-11.230,1.953,5.859,-46.387,64.941,0
1542737839.961,-10.742,-1.465,10.742,-45.898,15.137,0
1542737839.965,-15.137,0.977,12.695,-35.645,35.156,0
1542737839.969,-13.672,0.000,9.766,-33.203,28.320,0
1542737839.973,-7.812,-3.418,7.324,-33.203,49.316,0
1542737839.977,-5.371,3.906,9.277,-41.504,50.781,0
1542737839.981,-9.277,7.324,14.160,-56.641,-8.301,0
1542737839.985,-19.043,6.348,15.625,-54.199,47.363,0
1542737839.989,-16.113,7.324,10.742,-41.504,53.711,0
1542737839.992,-9.766,9.277,14.160,-36.621,55.664,0
1542737839.996,-9.766,12.207,20.996,-40.039,85.938,0
1542737840.000,-10.254,7.324,15.137,-48.340,26.855,0
1542737840.004,11.230,1.953,0.977,-28.320,49.805,0
1542737840.008,41.016,8.789,-4.395,3.906,77.637,0
1542737840.012,-3.418,9.766,16.602,-36.621,43.457,0
1542737840.016,-61.035,3.418,30.273,-83.008,44.434,0
1542737840.020,-51.758,-9.277,33.691,-60.547,102.539,0
1542737840.024,-46.875,-21.973,44.434,-48.340,78.125,0
1542737840.028,-46.387,-19.531,43.457,-53.223,3.906,0
1542737840.032,-21.484,-7.812,43.457,-45.898,39.551,0
1542737840.035,-17.090,-1.465,41.504,-48.828,67.383,0
1542737840.039,-24.414,-2.930,36.621,-41.992,24.414,0
1542737840.043,-20.996,-1.465,32.227,-22.461,-12.207,0
1542737840.047,-15.137,-1.465,30.762,-41.504,40.527,0
1542737840.051,-13.184,5.371,35.156,-55.176,58.105,0
1542737840.055,-12.695,7.812,34.668,-47.363,-22.461,0
1542737840.059,-10.254,12.207,33.691,-37.109,-27.344,0
1542737840.063,-9.766,14.648,33.203,-28.809,16.113,0
1542737840.067,-13.184,5.859,28.809,-22.949,45.410,0
1542737840.071,-12.207,5.371,26.367,-25.391,29.785,0
1542737840.074,-3.418,13.184,30.273,-22.949,27.344,0
1542737840.078,-8.789,19.531,30.273,-32.715,8.301,0
1542737840.082,-8.789,18.066,25.879,-27.832,-29.297,0
1542737840.086,7.812,19.531,27.344,-17.578,-6.836,0
1542737840.090,8.301,24.414,27.832,-38.086,5.859,0
1542737840.094,0.977,21.484,25.391,-37.109,-3.418,0
1542737840.098,4.395,15.137,27.344,-38.086,-46.387,0
1542737840.102,-2.930,9.277,28.320,-41.016,-31.738,0
1542737840.106,-9.766,9.277,28.320,-40.039,-19.043,0
1542737840.110,-1.953,19.531,23.926,-33.691,-13.184,0
1542737840.114,-4.395,26.367,16.602,-30.762,-5.371,0
1542737840.117,-7.324,18.555,17.090,-30.762,57.129,0
1542737840.121,-10.254,14.160,16.602,-17.090,72.266,0
1542737840.125,-4.395,17.578,21.973,-13.184,38.086,0
1542737840.129,-5.859,13.672,24.902,-43.457,88.867,0
1542737840.133,-6.836,10.254,24.902,-51.758,64.941,0
1542737840.137,0.000,12.695,29.297,-33.691,33.203,0
1542737840.141,-3.418,18.555,25.879,-29.297,40.039,0
1542737840.145,2.930,22.949,28.320,-24.414,88.867,0
1542737840.149,13.184,24.902,34.668,-30.762,83.496,0
1542737840.153,-0.488,28.809,30.762,-39.062,25.879,0
1542737840.157,-11.230,31.250,27.344,-36.133,47.852,0
1542737840.160,3.418,28.320,23.926,-31.738,60.547,0
1542737840.164,-0.488,24.414,23.926,-40.527,45.410,0
1542737840.168,-13.672,22.461,24.902,-47.852,50.781,0
1542737840.172,-7.812,23.926,20.020,-38.574,89.355,0
1542737840.176,-6.348,27.344,19.043,-26.367,79.590,0
1542737840.180,-5.371,27.832,20.996,-41.992,35.645,0
1542737840.184,3.418,24.414,18.066,-58.594,56.641,0
1542737840.188,5.859,24.902,14.648,-46.387,106.934,0
1542737840.192,-3.906,30.762,15.625,-39.551,87.402,0
1542737840.196,-4.395,27.832,14.160,-41.504,41.992,0
1542737840.199,-8.789,24.902,12.695,-42.969,7.812,0
1542737840.203,-16.602,20.508,16.602,-51.270,48.828,0
1542737840.207,-8.789,11.719,20.996,-50.781,96.680,0
1542737840.211,-5.371,3.906,14.648,-27.344,62.012,0
1542737840.215,-9.766,1.953,10.742,-30.273,18.555,0
1542737840.219,-6.836,13.184,20.508,-50.781,-8.301,0
1542737840.223,-4.395,13.672,22.461,-45.898,64.453,0
1542737840.227,-0.488,10.254,20.996,-26.855,71.289,0
1542737840.231,-1.465,12.695,20.996,-30.762,-3.418,0
1542737840.235,-3.906,15.625,21.484,-54.688,40.039,0
1542737840.239,2.930,21.973,21.973,-46.875,55.664,0
1542737840.242,4.883,23.438,19.531,-50.293,29.297,0
1542737840.246,-5.859,21.973,21.484,-43.945,39.551,0
1542737840.250,-5.859,15.625,22.461,-28.809,33.203,0
1542737840.254,-0.488,6.348,20.020,-49.316,49.316,0
1542737840.258,1.953,8.789,20.996,-55.176,77.148,0
1542737840.262,2.930,19.531,20.996,-40.527,33.691,0
1542737840.266,0.488,26.855,20.996,-36.133,68.848,0
1542737840.270,3.418,20.996,19.043,-28.320,91.309,0
1542737840.274,0.488,12.207,22.461,-16.602,17.578,0
1542737840.278,1.953,13.672,28.320,-40.527,-2.441,0
1542737840.282,8.301,19.043,26.855,-50.293,23.438,0
1542737840.285,12.207,21.973,22.461,-37.109,57.129,0
1542737840.289,13.184,21.484,25.879,-31.738,58.594,0
1542737840.293,10.742,18.555,32.227,-29.297,39.062,0
1542737840.297,6.348,18.066,28.809,-31.738,28.809,0
1542737840.301,13.184,19.531,28.809,-26.367,55.664,0
1542737840.305,30.762,8.789,33.691,-4.883,2.441,0
1542737840.309,56.152,-7.324,32.715,15.137,-83.496,0
1542737840.313,42.480,19.531,22.461,-2.930,-62.988,0
1542737840.317,6.348,43.945,15.137,-50.293,-36.621,0
1542737840.321,8.789,46.875,17.090,-61.523,-25.879,0
1542737840.324,21.484,47.852,4.395,-48.340,-13.672,0
1542737840.328,48.828,45.410,-16.113,-31.250,26.855,0
1542737840.332,52.734,46.875,-18.066,-37.109,55.176,0
1542737840.336,37.598,53.711,-11.230,-46.387,32.715,0
1542737840.340,39.551,56.152,-8.301,-31.250,68.848,0
1542737840.344,34.180,42.969,-2.441,-14.648,55.664,0
1542737840.348,38.086,43.457,1.465,-8.301,2.930,0
1542737840.352,56.641,53.711,3.418,-7.812,-1.465,0
1542737840.356,63.965,51.758,4.395,-13.672,10.254,0
1542737840.360,60.059,40.527,-2.930,-9.277,40.527,0
1542737840.364,49.316,32.227,-1.465,-0.488,82.520,0
1542737840.367,46.875,36.133,0.977,2.930,59.082,0
1542737840.371,51.270,35.645,0.000,-3.906,31.250,0
1542737840.375,47.363,33.691,0.000,-4.883,36.621,0
1542737840.379,39.062,30.762,-7.324,-2.930,65.430,0
1542737840.383,39.551,25.391,-6.348,-15.137,61.523,0
1542737840.387,49.316,29.785,1.953,-12.695,71.777,0
1542737840.391,51.270,30.762,0.000,-4.883,74.707,0
1542737840.395,43.457,28.809,1.953,-5.859,90.820,0
1542737840.399,44.434,36.133,14.160,7.324,77.637,0
1542737840.403,49.316,34.668,13.672,-0.977,60.059,0
1542737840.407,52.734,25.391,11.230,-18.066,88.867,0
1542737840.410,46.875,24.902,10.742,-1.465,46.387,0
1542737840.414,40.039,25.391,6.348,-12.207,0.000,0
1542737840.418,41.504,27.832,8.301,-28.320,47.363,0
1542737840.422,36.621,31.250,19.531,-13.184,77.148,0
1542737840.426,46.387,29.785,21.484,-11.230,80.566,0
1542737840.430,46.387,33.203,20.020,-13.184,66.895,0
1542737840.434,34.668,31.250,20.508,-10.742,73.730,0
1542737840.438,41.992,31.250,15.137,-5.371,76.660,0
1542737840.442,38.574,30.762,14.160,-20.508,70.312,0
1542737840.446,30.273,26.855,14.648,-24.414,69.336,0
1542737840.449,34.180,28.320,22.949,-10.254,52.734,0
1542737840.453,42.969,28.320,20.996,-0.488,45.898,0
1542737840.457,40.039,24.414,15.137,7.812,30.273,0
1542737840.461,36.133,17.578,19.531,0.977,35.645,0
1542737840.465,41.504,16.113,20.996,-0.977,63.477,0
1542737840.469,32.227,23.926,24.902,-3.418,16.113,0
1542737840.473,28.809,33.691,32.227,-16.602,15.625,0
1542737840.477,35.645,26.855,32.227,-9.277,56.641,0
1542737840.481,34.668,26.855,26.367,-9.766,47.363,0
1542737840.485,31.738,29.297,17.090,-13.184,22.949,0
1542737840.489,34.180,29.297,15.137,-17.090,20.020,0
1542737840.492,31.738,32.227,19.531,-23.438,56.641,0
1542737840.496,31.250,23.438,22.949,-14.160,27.832,0
1542737840.500,34.668,24.902,26.367,-4.395,-1.465,0
1542737840.504,38.574,30.273,27.832,21.484,63.965,0
1542737840.508,41.504,32.227,36.133,7.812,74.219,0
1542737840.512,37.598,34.180,35.156,-20.508,44.434,0
1542737840.516,36.133,28.320,32.715,-5.859,1.465,0
1542737840.520,33.203,26.855,30.762,-2.441,-33.203,0
1542737840.524,40.039,29.785,26.855,-6.348,-7.812,0
1542737840.528,44.434,26.855,33.203,-2.441,15.625,0
1542737840.532,36.133,32.227,34.180,-0.977,24.902,0
1542737840.535,35.156,34.180,31.250,-3.906,-16.113,0
1542737840.539,29.785,21.484,25.879,-6.836,-17.578,0
1542737840.543,21.484,17.090,20.508,-2.930,36.621,0
1542737840.547,32.227,19.531,20.996,2.441,87.402,0
1542737840.551,34.180,27.344,27.832,0.977,95.703,0
1542737840.555,22.949,27.344,27.344,0.488,30.273,0
1542737840.559,25.879,23.926,23.926,-11.719,7.812,0
1542737840.563,29.297,24.902,25.391,-18.555,-2.930,0
1542737840.567,26.855,26.367,31.738,-20.508,32.715,0
1542737840.571,35.645,32.227,32.715,-17.090,42.969,0
1542737840.574,31.738,29.297,30.762,-6.348,-2.930,0
1542737840.578,22.949,25.391,33.691,-5.859,19.531,0
1542737840.582,28.809,34.668,34.668,-4.883,32.715,0
1542737840.586,32.715,33.203,37.598,12.695,47.852,0
1542737840.590,34.668,28.809,35.645,2.441,57.617,0
1542737840.594,20.508,29.297,31.738,-13.672,22.461,0
1542737840.598,26.367,32.227,34.180,-18.555,58.105,0
1542737840.602,40.039,34.668,40.527,-18.066,94.727,0
1542737840.606,28.320,33.691,48.828,-1.953,68.848,0
1542737840.610,21.973,33.691,47.852,11.719,22.949,0
1542737840.614,21.973,34.180,40.039,5.371,-25.391,0
1542737840.617,26.367,35.156,34.180,-1.465,-39.062,0
1542737840.621,26.855,39.551,38.086,-4.395,19.043,0
1542737840.625,25.391,38.574,41.016,-2.441,53.711,0
1542737840.629,32.227,36.621,37.598,16.602,55.664,0
1542737840.633,33.203,37.109,36.621,-6.348,35.645,0
1542737840.637,30.762,39.062,37.598,-20.508,22.461,0
1542737840.641,40.039,43.457,39.062,-7.324,29.297,0
1542737840.645,39.062,48.340,41.504,1.953,32.227,0
1542737840.649,47.852,49.805,44.434,9.766,42.969,0
1542737840.653,48.828,47.363,43.457,9.277,1.953,0
1542737840.657,43.457,48.340,43.457,3.906,39.062,0
1542737840.660,45.898,52.734,45.898,12.695,65.430,0
1542737840.664,42.969,51.758,47.363,21.484,24.414,0
1542737840.668,44.922,45.898,52.246,9.766,55.664,0
1542737840.672,42.480,45.410,50.293,-6.348,17.578,0
1542737840.676,34.180,46.875,42.969,-11.719,-5.859,0
1542737840.680,29.297,42.480,44.922,-10.742,34.668,0
1542737840.684,36.133,42.969,46.387,-12.695,26.367,0
1542737840.688,41.992,47.363,50.781,0.977,37.109,0
1542737840.692,33.203,44.922,49.805,1.953,34.668,0
1542737840.696,32.715,42.969,42.480,-5.859,73.242,0
1542737840.699,35.645,47.852,41.016,-4.883,54.199,0
1542737840.703,35.645,53.711,46.875,-9.277,23.926,0
1542737840.707,36.133,47.852,44.434,-14.160,39.062,0
1542737840.711,32.715,44.434,36.133,-17.578,29.297,0
1542737840.715,30.762,40.527,37.598,-14.160,77.637,0
1542737840.719,32.227,36.133,34.668,-6.348,41.504,0
1542737840.723,32.715,39.551,34.668,-13.672,-0.488,0
1542737840.727,22.949,43.457,37.109,-18.066,-22.461,0
1542737840.731,23.438,44.434,34.668,-7.812,-15.625,0
1542737840.735,22.949,40.039,34.180,-10.742,54.199,0
1542737840.739,23.926,37.598,34.180,-28.320,29.297,0
1542737840.742,35.156,41.016,34.668,-27.832,36.621,0
1542737840.746,28.809,40.039,27.344,-19.531,74.219,0
1542737840.750,17.090,34.668,22.461,-28.320,31.250,0
1542737840.754,9.766,29.785,29.785,-23.926,41.992,0
1542737840.758,11.719,31.250,31.738,-18.555,93.262,0
1542737840.762,18.066,34.668,25.879,-18.555,99.609,0
1542737840.766,10.742,29.297,22.461,-20.508,49.316,0
1542737840.770,13.184,20.996,20.020,-27.344,19.043,0
1542737840.774,18.555,28.809,18.555,-28.320,18.066,0
1542737840.778,22.949,35.645,12.695,-26.367,36.621,0
1542737840.782,57.129,32.715,1.465,12.695,29.785,0
1542737840.785,45.410,22.949,10.742,25.391,32.227,0
1542737840.789,-14.648,13.184,33.691,-41.504,38.574,0
1542737840.793,-50.781,14.160,41.016,-83.008,29.785,0
1542737840.797,-24.414,5.371,35.156,-43.457,82.520,0
1542737840.801,-21.973,-5.371,41.504,-32.227,91.309,0
1542737840.805,-54.688,-11.230,44.922,-60.547,73.730,0
1542737840.809,-38.086,-16.602,43.945,-52.734,46.387,0
1542737840.813,-41.504,-9.766,40.039,-59.082,-1.465,0
1542737840.817,-46.387,-0.977,35.156,-62.012,0.488,0
1542737840.821,-28.809,-0.977,32.227,-42.969,49.316,0
1542737840.824,-18.066,-7.812,31.738,-37.109,46.875,0
1542737840.828,-11.230,-13.672,34.668,-22.949,-12.207,0
1542737840.832,-12.695,-10.254,24.902,-34.668,38.086,0
1542737840.836,-23.438,-1.953,19.531,-46.387,20.508,0
1542737840.840,-25.391,-0.488,27.344,-42.480,16.113,0
1542737840.844,-18.555,-4.883,28.320,-36.133,51.758,0
1542737840.848,-16.602,-1.465,22.949,-27.832,4.883,0
1542737840.852,-17.090,2.930,20.020,-24.902,6.348,0
1542737840.856,-10.254,3.418,17.578,-34.180,-6.836,0
1542737840.860,-0.977,0.488,13.184,-48.828,50.781,0
1542737840.864,3.418,-3.906,12.207,-55.176,92.773,0
1542737840.867,1.465,3.418,17.090,-48.340,34.668,0
1542737840.871,-4.883,10.742,20.020,-36.621,-4.395,0
1542737840.875,-7.812,0.000,18.066,-23.926,3.418,0
1542737840.879,1.465,-1.953,15.625,-26.855,51.270,0
1542737840.883,1.953,9.277,14.648,-53.711,48.340,0
1542737840.887,2.441,9.277,16.113,-51.270,2.441,0
1542737840.891,11.230,10.254,19.531,-30.273,41.016,0
1542737840.895,10.742,10.254,22.949,-21.484,75.684,0
1542737840.899,8.301,9.277,23.926,-19.043,37.598,0
1542737840.903,5.859,18.066,23.926,-25.391,4.883,0
1542737840.907,9.766,26.367,28.320,-34.180,64.453,0
1542737840.910,16.602,20.508,32.715,-29.297,25.879,0
1542737840.914,19.531,15.625,29.297,-20.020,25.879,0
1542737840.918,20.996,18.555,26.367,-20.508,67.871,0
1542737840.922,17.578,17.578,25.391,-19.043,19.043,0
1542737840.926,14.648,9.277,20.508,-22.461,5.859,0
1542737840.930,14.648,11.230,23.926,-27.832,15.625,0
1542737840.934,13.672,26.367,28.809,-31.250,50.293,0
1542737840.938,19.531,23.926,27.832,-26.855,65.918,0
1542737840.942,19.531,20.020,29.297,-20.996,35.645,0
1542737840.946,10.254,21.973,29.297,-8.789,24.902,0
1542737840.949,9.277,25.879,27.832,-10.742,15.625,0
1542737840.953,16.113,26.855,26.855,-22.461,40.039,0
1542737840.957,19.531,23.438,32.715,-16.602,68.359,0
1542737840.961,15.625,16.113,31.738,-27.832,38.086,0
1542737840.965,16.113,17.090,26.367,-25.879,49.805,0
1542737840.969,15.625,24.414,28.809,-13.184,21.973,0
1542737840.973,18.555,21.973,33.691,-17.578,5.859,0
1542737840.977,23.926,20.508,35.156,-22.949,39.551,0
1542737840.981,14.160,20.020,29.785,-12.207,23.926,0
1542737840.985,21.973,19.043,31.738,-3.906,18.555,0
1542737840.989,27.832,28.809,38.574,-16.602,37.109,0
1542737840.992,20.020,26.367,38.086,-20.996,104.004,0
1542737840.996,17.090,27.344,34.180,-10.742,89.844,0
1542737841.000,15.137,33.203,30.273,-11.230,99.121,0
1542737841.004,22.461,26.855,28.809,-17.578,72.754,0
1542737841.008,19.043,20.020,27.344,-29.297,0.000,0
1542737841.012,14.160,21.973,25.879,-22.949,41.992,0
1542737841.016,14.648,24.902,27.832,-0.488,79.590,0
1542737841.020,8.789,26.855,21.484,-12.695,45.898,0
1542737841.024,9.277,23.438,21.973,-29.297,52.734,0
1542737841.028,3.906,25.879,26.855,-27.832,28.320,0
1542737841.032,23.926,33.691,25.391,-27.344,27.832,0
1542737841.035,47.852,29.297,25.391,-13.672,89.355,0
1542737841.039,18.066,30.273,22.949,-5.859,89.844,0
1542737841.043,0.000,36.621,18.066,-30.762,19.531,0
1542737841.047,7.812,35.645,13.672,-42.480,26.367,0
1542737841.051,13.184,23.438,13.184,-36.621,63.965,0
1542737841.055,5.859,15.625,20.508,-26.367,46.875,0
1542737841.059,9.277,19.043,17.578,-10.254,43.945,0
1542737841.063,16.602,22.461,14.160,-22.949,13.672,0
1542737841.067,11.230,20.020,13.184,-37.109,-21.484,0
1542737841.071,20.508,9.766,16.113,-26.367,-68.359,0
1542737841.074,16.113,10.254,13.184,-38.086,-15.137,0
1542737841.078,1.953,17.090,4.395,-39.062,81.543,0
1542737841.082,9.766,17.578,11.719,-27.832,43.945,0
1542737841.086,10.254,18.555,13.184,-39.062,0.977,0
1542737841.090,-1.465,13.672,14.160,-57.129,18.066,0
1542737841.094,-0.488,12.695,19.043,-41.992,13.184,0
1542737841.098,2.441,16.113,17.578,-33.203,37.109,0
1542737841.102,3.906,14.648,15.137,-53.711,104.004,0
1542737841.106,-0.977,11.230,17.578,-55.176,94.727,0
1542737841.110,-3.418,17.090,26.367,-46.387,34.180,0
1542737841.114,7.812,24.414,23.438,-34.668,67.383,0
1542737841.117,8.789,17.090,16.602,-25.391,41.504,0
1542737841.121,1.465,11.230,20.996,-28.320,27.832,0
1542737841.125,1.953,23.438,20.508,-33.691,30.762,0
1542737841.129,6.348,24.414,16.602,-32.715,0.000,0
1542737841.133,9.277,18.066,20.996,-34.180,28.809,0
1542737841.137,8.789,25.391,26.367,-37.598,33.691,0
1542737841.141,8.789,31.738,25.391,-20.508,13.672,0
1542737841.145,10.254,26.855,20.996,-17.578,24.414,0
1542737841.149,9.766,24.414,17.090,-31.738,14.648,0
1542737841.153,20.020,23.438,14.160,-26.367,20.996,0
1542737841.157,20.020,22.949,9.766,-32.715,23.926,0
1542737841.160,0.488,28.320,9.766,-35.645,17.090,0
1542737841.164,4.883,32.715,19.043,-29.297,22.461,0
1542737841.168,9.766,30.273,21.973,-36.621,20.508,0
1542737841.172,4.395,20.508,15.137,-36.621,31.250,0
1542737841.176,11.719,13.672,13.184,-24.414,0.488,0
1542737841.180,21.973,13.672,18.555,-18.066,20.508,0
1542737841.184,22.949,18.066,16.602,-23.926,30.762,0
1542737841.188,21.973,22.949,15.137,-17.578,38.574,0
1542737841.192,22.461,22.461,17.578,-25.391,53.223,0
1542737841.196,16.602,18.066,20.508,-23.926,-24.902,0
1542737841.199,12.695,23.438,24.414,-11.719,13.184,0
1542737841.203,13.672,30.273,25.879,-19.043,42.480,0
1542737841.207,17.090,24.414,22.461,-28.320,38.574,0
1542737841.211,20.508,19.043,19.043,-31.250,42.969,0
1542737841.215,16.113,17.090,18.066,-28.809,20.996,0
1542737841.219,2.441,14.648,12.695,-31.250,16.113,0
1542737841.223,-0.977,13.184,12.207,-33.203,-11.719,0
1542737841.227,8.301,18.066,13.184,-26.855,-16.113,0
1542737841.231,4.395,19.531,12.207,-25.391,16.602,0
1542737841.235,1.953,19.043,14.648,-19.531,-15.137,0
1542737841.239,5.859,20.020,17.090,-15.625,29.785,0
1542737841.242,12.207,18.066,19.043,-31.250,88.867,0
1542737841.246,7.324,14.648,15.625,-29.297,67.871,0
1542737841.250,1.465,10.742,13.184,-19.043,55.176,0
1542737841.254,13.672,15.137,16.113,-20.996,38.574,0
1542737841.258,12.695,18.555,18.555,-27.832,44.922,0
1542737841.262,5.371,18.555,19.531,-28.809,72.266,0
1542737841.266,6.836,17.090,20.020,-28.809,68.848,0
1542737841.270,6.348,17.090,17.090,-31.250,27.832,0
1542737841.274,6.836,24.414,15.625,-29.785,-0.977,0
1542737841.278,9.766,23.926,19.531,-23.438,49.316,0
1542737841.282,14.160,14.160,19.531,-21.973,54.199,0
1542737841.285,12.207,15.625,21.973,-21.973,29.297,0
1542737841.289,-0.488,26.367,22.949,-21.973,20.996,0
1542737841.293,4.395,15.137,23.438,-19.531,4.395,0
1542737841.297,26.367,1.953,29.785,10.742,-3.906,0
1542737841.301,-2.930,17.578,30.273,-22.461,37.109,0
1542737841.305,-34.668,42.969,23.926,-71.289,83.984,0
1542737841.309,-33.691,55.176,24.902,-71.289,76.172,0
1542737841.313,-38.574,54.688,31.250,-77.148,62.500,0
1542737841.317,-58.594,52.734,33.203,-88.867,71.289,0
1542737841.321,-67.871,48.828,28.320,-91.797,62.988,0
1542737841.324,-41.992,48.340,22.461,-61.035,39.062,0
1542737841.328,-16.113,52.734,23.438,-51.270,46.875,0
1542737841.332,1.465,54.688,25.391,-36.133,60.059,0
1542737841.336,3.906,55.176,27.344,-14.160,35.645,0
1542737841.340,-2.930,55.176,32.715,-21.973,44.922,0
1542737841.344,4.883,66.895,42.480,-22.949,113.770,0
1542737841.348,16.113,72.754,44.434,-11.719,72.266,0
1542737841.352,8.301,60.547,40.039,-13.672,24.414,0
1542737841.356,9.277,62.500,41.992,-8.789,14.648,0
1542737841.360,20.996,68.848,45.410,-1.465,0.977,0
1542737841.364,20.996,64.941,44.922,-15.137,17.578,0
1542737841.367,28.320,66.895,44.922,-21.484,9.277,0
1542737841.371,35.645,72.266,51.758,-10.742,7.324,0
1542737841.375,31.738,68.359,54.199,-0.488,46.387,0
1542737841.379,34.180,65.430,54.688,10.254,35.156,0
1542737841.383,41.016,67.871,57.129,12.695,29.785,0
1542737841.387,38.086,70.312,53.223,-2.441,13.672,0
1542737841.391,38.574,73.242,55.176,-9.766,-5.859,0
1542737841.395,40.527,74.707,59.570,-2.441,71.777,0
1542737841.399,40.039,74.707,60.059,7.812,95.703,0
1542737841.403,46.875,72.266,67.383,17.090,17.578,0
1542737841.407,49.316,69.336,65.430,13.184,10.254,0
1542737841.410,53.711,69.824,57.129,9.766,8.789,0
1542737841.414,48.340,74.219,58.594,33.691,15.137,0
1542737841.418,39.551,79.102,62.012,28.809,34.668,0
1542737841.422,45.898,76.660,59.570,0.000,17.578,0
1542737841.426,56.641,75.195,62.500,11.719,41.504,0
1542737841.430,62.500,77.637,68.359,21.973,99.609,0
1542737841.434,55.664,71.777,68.359,17.578,97.168,0
1542737841.438,46.875,71.289,63.965,13.672,48.828,0
1542737841.442,41.992,69.336,58.105,27.344,-10.254,0
1542737841.446,37.598,62.500,57.129,21.973,-32.227,0
1542737841.449,30.273,59.570,50.781,-0.977,12.207,0
1542737841.453,32.227,61.523,46.387,-0.488,90.820,0
1542737841.457,34.668,59.570,49.805,15.625,66.406,0
1542737841.461,29.297,52.734,45.410,10.254,35.645,0
1542737841.465,35.645,56.152,41.504,-1.465,70.801,0
1542737841.469,34.668,59.570,43.945,2.930,50.293,0
1542737841.473,37.598,56.641,47.363,6.348,39.062,0
1542737841.477,38.574,60.059,48.340,3.418,54.688,0
1542737841.481,28.809,61.035,45.898,-0.488,41.504,0
1542737841.485,30.273,54.688,43.457,1.953,47.852,0
1542737841.489,22.461,46.387,39.551,0.977,30.762,0
1542737841.492,14.648,45.898,30.762,-0.488,89.355,0
1542737841.496,17.090,43.945,30.273,-7.324,93.750,0
1542737841.500,16.113,31.250,32.715,-25.391,9.277,0
1542737841.504,14.648,28.809,29.785,-23.926,83.008,0
1542737841.508,17.090,30.273,31.250,-17.578,113.281,0
1542737841.512,28.320,35.156,35.645,-13.672,17.090,0
1542737841.516,29.297,44.434,36.621,-6.348,-28.809,0
1542737841.520,17.090,41.016,25.879,-14.160,-27.832,0
1542737841.524,23.438,31.738,28.320,-8.789,-6.348,0
1542737841.528,27.344,33.691,30.762,-1.465,42.480,0
1542737841.532,11.719,34.668,22.949,-12.207,49.805,0
1542737841.535,12.207,32.227,31.250,-6.348,-1.953,0
1542737841.539,18.066,31.738,30.762,-6.348,29.297,0
1542737841.543,13.184,26.855,22.949,-18.066,53.223,0
1542737841.547,15.625,22.461,21.973,-20.020,27.344,0
1542737841.551,13.184,20.020,20.020,-17.090,44.434,0
1542737841.555,11.230,16.113,20.996,-15.137,19.531,0
1542737841.559,6.348,14.648,25.879,-15.137,29.297,0
1542737841.563,29.785,0.977,29.785,15.625,41.992,0
1542737841.567,54.688,8.789,24.414,26.855,-7.324,0
1542737841.571,2.441,35.156,6.348,-37.598,6.836,0
1542737841.574,-31.738,36.133,-2.441,-58.105,30.762,0
1542737841.578,-26.367,33.203,-6.836,-63.477,33.203,0
1542737841.582,-15.137,28.320,-20.996,-67.871,29.297,0
1542737841.586,-6.348,26.367,-22.461,-50.781,36.621,0
1542737841.590,-14.648,31.250,-18.066,-59.082,39.062,0
1542737841.594,-19.043,29.297,-20.996,-58.594,70.312,0
1542737841.598,-15.137,17.090,-22.949,-50.293,94.238,0
1542737841.602,-11.230,10.254,-24.414,-51.758,22.949,0
1542737841.606,-13.672,16.602,-20.996,-48.828,-38.574,0
1542737841.610,-11.230,20.020,-14.160,-36.621,18.066,0
1542737841.614,-3.418,15.625,-12.207,-53.223,29.785,0
1542737841.617,-4.395,16.113,-9.277,-65.430,59.082,0
1542737841.621,-11.230,24.414,-6.836,-49.316,67.383,0
1542737841.625,-11.719,19.531,-11.230,-48.340,34.180,0
1542737841.629,-10.254,9.766,-11.230,-53.711,65.430,0
1542737841.633,-10.742,5.371,-9.277,-56.152,70.312,0
1542737841.637,-12.695,0.000,-13.672,-52.734,27.832,0
1542737841.641,-13.672,6.348,-12.695,-41.992,-9.766,0
1542737841.645,-11.230,13.184,-4.395,-37.109,12.695,0
1542737841.649,-9.277,10.742,2.930,-34.668,33.691,0
1542737841.653,-8.301,8.789,3.418,-41.504,59.570,0
1542737841.657,-9.277,15.625,-2.441,-53.223,64.453,0
1542737841.660,-8.301,16.113,-2.441,-49.805,27.344,0
1542737841.664,-4.883,13.672,1.465,-39.551,64.453,0
1542737841.668,-3.418,11.719,-3.906,-38.086,56.641,0
1542737841.672,-0.977,9.766,-9.277,-33.691,17.090,0
1542737841.676,-0.977,13.184,-5.371,-42.969,36.621,0
1542737841.680,-0.488,18.066,-0.977,-47.852,32.715,0
1542737841.684,1.953,13.672,-6.348,-41.992,31.738,0
1542737841.688,-3.418,8.301,-10.254,-36.133,41.992,0
1542737841.692,-9.277,6.348,-3.418,-29.785,-6.348,0
1542737841.696,10.742,0.977,-1.953,-33.203,18.555,0
1542737841.699,8.789,8.789,-0.488,-25.879,80.078,0
1542737841.703,-11.719,13.672,2.441,-31.250,61.035,0
1542737841.707,-14.648,11.230,0.000,-42.969,45.898,0
1542737841.711,-13.672,10.742,-2.441,-42.480,34.668,0
1542737841.715,-3.906,10.742,0.488,-30.273,29.785,0
1542737841.719,-2.930,12.207,3.906,-24.902,-6.348,0
1542737841.723,-1.465,11.230,4.883,-37.109,20.020,0
1542737841.727,-3.418,8.301,2.441,-47.363,62.012,0
1542737841.731,-6.836,2.441,6.836,-31.250,28.809,0
1542737841.735,-2.930,14.648,7.324,-17.578,11.230,0
1542737841.739,2.930,16.602,1.953,-27.344,31.250,0
1542737841.742,-2.930,-0.488,4.883,-29.785,39.062,0
1542737841.746,-3.906,1.953,7.324,-35.645,63.965,0
1542737841.750,8.301,7.324,1.953,-29.785,90.820,0
1542737841.754,-0.488,7.324,-3.418,-25.391,23.926,0
1542737841.758,-5.859,3.418,0.000,-29.785,-36.133,0
1542737841.762,-3.418,3.906,0.977,-31.250,-3.418,0
1542737841.766,-7.812,11.230,-0.977,-38.574,-2.930,0
1542737841.770,-9.766,9.277,3.418,-35.645,27.344,0
1542737841.774,-10.742,6.348,-0.488,-34.668,77.637,0
1542737841.778,-3.418,15.625,0.977,-39.062,83.008,0
1542737841.782,0.488,21.484,7.812,-50.293,64.941,0
1542737841.785,-3.418,8.789,7.812,-46.875,86.914,0
1542737841.789,1.953,3.906,5.859,-25.391,47.852,0
1542737841.793,12.207,10.254,7.324,-35.156,38.574,0
1542737841.797,32.227,14.160,-0.488,-24.902,59.570,0
1542737841.801,43.945,18.066,1.953,16.113,55.176,0
1542737841.805,1.465,14.160,26.855,-14.648,40.527,0
1542737841.809,-38.574,14.160,37.598,-56.641,41.992,0
1542737841.813,-35.156,10.742,42.480,-45.410,44.434,0
1542737841.817,-24.414,-3.418,48.828,-21.484,36.133,0
1542737841.821,-7.812,-7.812,53.711,-12.207,57.617,0
1542737841.824,-1.953,8.789,50.781,-23.438,86.426,0
1542737841.828,-12.695,13.672,47.852,-44.922,57.129,0
1542737841.832,-10.254,5.371,43.945,-27.832,15.137,0
1542737841.836,1.953,1.465,41.016,-3.906,40.527,0
1542737841.840,10.742,5.859,45.410,-6.836,54.688,0
1542737841.844,6.836,8.301,42.969,-17.578,-26.855,0
1542737841.848,11.230,0.488,40.527,-15.137,-16.602,0
1542737841.852,18.066,11.230,40.039,-2.441,43.457,0
1542737841.856,17.090,22.461,36.133,-3.418,0.977,0
1542737841.860,18.555,16.602,33.203,-1.953,4.395,0
1542737841.864,13.672,13.184,31.250,4.883,-4.395,0
1542737841.867,9.766,17.578,29.297,-1.953,8.789,0
1542737841.871,6.348,26.855,26.367,-23.438,108.887,0
1542737841.875,12.207,29.297,28.809,-18.555,97.656,0
1542737841.879,16.602,19.043,29.785,3.906,49.805,0
1542737841.883,6.836,17.578,26.367,-10.742,40.039,0
1542737841.887,12.695,28.320,29.297,-23.926,84.473,0
1542737841.891,23.926,30.273,30.762,-12.695,64.941,0
1542737841.895,16.113,25.879,30.762,-14.648,42.480,0
1542737841.899,10.254,21.973,30.762,-11.230,15.625,0
1542737841.903,9.277,23.438,24.902,-7.812,24.414,0
1542737841.907,11.230,24.414,19.531,-9.766,39.062,0
1542737841.910,12.207,22.461,23.926,-5.371,42.969,0
1542737841.914,15.137,29.297,28.320,-9.766,69.336,0
1542737841.918,19.043,34.180,28.809,-15.625,54.199,0
1542737841.922,11.719,32.715,34.180,-5.371,23.438,0
1542737841.926,1.953,24.902,33.691,-10.254,13.672,0
1542737841.930,0.977,22.461,25.391,-16.113,44.922,0
1542737841.934,6.348,29.785,23.926,-13.672,56.641,0
1542737841.938,9.766,32.227,21.484,-13.184,24.902,0
1542737841.942,9.277,27.344,19.043,-10.254,27.344,0
1542737841.946,16.602,26.367,30.273,-2.441,-18.555,0
1542737841.949,18.555,31.250,31.738,-16.602,27.344,0
1542737841.953,5.371,26.855,24.414,-24.902,72.754,0
1542737841.957,0.977,19.531,24.414,-26.855,82.031,0
1542737841.961,4.395,22.949,23.926,-36.621,62.988,0
1542737841.965,40.527,34.668,14.648,-5.371,26.367,0
1542737841.969,40.039,39.551,22.949,6.348,20.020,0
1542737841.973,-13.184,36.621,46.875,-41.992,1.465,0
1542737841.977,-19.531,34.180,60.059,-53.711,17.578,0
1542737841.981,-9.766,31.250,59.082,-30.273,66.406,0
1542737841.985,-6.348,33.691,59.570,-13.184,107.910,0
1542737841.989,12.207,41.016,66.895,1.953,57.129,0
1542737841.992,11.230,45.898,61.523,-7.324,80.566,0
1542737841.996,4.395,38.086,57.129,-15.137,78.125,0
1542737842.000,15.137,36.133,59.570,-6.348,-17.090,0
1542737842.004,17.090,37.598,63.965,-3.418,0.000,0
1542737842.008,15.625,38.086,58.105,-1.953,37.598,0
1542737842.012,26.367,48.828,58.105,16.602,17.090,0
1542737842.016,28.809,52.246,64.453,24.902,0.977,0
1542737842.020,20.996,50.781,64.453,11.230,-8.301,0
1542737842.024,23.926,59.082,68.848,1.465,16.113,0
1542737842.028,34.668,69.336,76.172,7.812,46.875,0
1542737842.032,36.621,74.219,79.590,18.555,61.035,0
1542737842.035,41.992,82.520,86.426,32.227,52.246,0
1542737842.039,43.945,87.402,92.773,40.039,76.172,0
1542737842.043,48.828,80.078,92.285,43.945,99.121,0
1542737842.047,51.758,83.984,90.820,38.574,95.703,0
1542737842.051,47.852,84.961,92.285,34.180,101.562,0
1542737842.055,55.664,75.684,100.098,34.180,42.480,0
1542737842.059,64.941,81.055,102.051,28.809,11.719,0
1542737842.063,70.312,87.891,96.680,35.156,39.062,0
1542737842.067,62.012,88.867,96.191,36.133,28.809,0
1542737842.071,59.570,90.820,97.168,28.320,36.621,0
1542737842.074,62.012,93.262,90.820,27.344,10.254,0
1542737842.078,62.500,97.656,89.355,31.738,-25.391,0
1542737842.082,69.336,99.609,92.773,25.391,38.574,0
1542737842.086,73.730,94.727,93.750,20.996,33.203,0
1542737842.090,82.520,92.285,95.215,36.621,-11.719,0
1542737842.094,76.172,96.680,98.145,41.504,6.348,0
1542737842.098,67.871,97.656,96.191,36.621,35.156,0
1542737842.102,74.219,90.332,91.309,34.668,3.418,0
1542737842.106,64.941,81.055,88.379,26.855,-2.930,0
1542737842.110,56.641,74.707,83.984,20.020,13.672,0
1542737842.114,64.941,82.520,83.984,26.367,0.000,0
1542737842.117,62.012,87.402,78.613,21.973,46.387,0
1542737842.121,60.059,78.125,67.871,19.043,50.293,0
1542737842.125,60.547,73.730,67.871,24.902,61.523,0
1542737842.129,50.781,70.312,71.777,11.719,65.918,0
1542737842.133,62.500,47.363,75.684,33.203,8.789,0
1542737842.137,96.680,41.016,76.172,75.684,46.387,0
1542737842.141,74.707,75.195,59.082,39.062,66.406,0
1542737842.145,33.203,96.191,39.551,-19.043,59.570,0
1542737842.149,31.738,93.750,33.203,-26.367,99.121,0
1542737842.153,51.758,84.473,26.855,-1.465,57.617,0
1542737842.157,73.242,88.867,11.719,26.367,19.531,0
1542737842.160,77.148,91.309,3.906,20.020,-2.441,0
1542737842.164,71.777,94.238,6.836,8.301,16.113,0
1542737842.168,52.246,93.262,10.254,6.836,4.395,0
1542737842.172,57.617,71.777,17.090,10.254,2.441,0
1542737842.176,59.082,68.359,23.438,7.812,46.387,0
1542737842.180,55.176,75.684,21.484,8.301,13.184,0
1542737842.184,61.035,70.312,19.043,12.207,13.184,0
1542737842.188,54.688,62.500,17.578,11.230,41.016,0
1542737842.192,53.711,58.594,20.020,9.766,12.695,0
1542737842.196,56.641,61.035,17.578,12.695,27.832,0
1542737842.199,48.340,62.012,13.672,25.391,-24.902,0
1542737842.203,54.199,62.012,21.484,27.344,-59.570,0
1542737842.207,62.500,60.059,28.320,12.695,-14.648,0
1542737842.211,53.223,58.594,25.391,4.883,6.836,0
1542737842.215,47.852,64.453,24.902,1.953,16.602,0
1542737842.219,48.828,61.035,34.668,14.160,-5.371,0
1542737842.223,49.805,54.199,36.133,24.902,38.574,0
1542737842.227,51.758,52.734,32.715,22.461,49.805,0
1542737842.231,53.223,53.223,34.180,13.184,72.266,0
1542737842.235,52.734,56.641,27.832,9.277,114.258,0
1542737842.239,49.316,59.082,24.414,16.602,88.867,0
1542737842.242,48.340,59.082,27.344,25.391,140.137,0
1542737842.246,55.664,63.477,32.715,15.137,114.258,0
1542737842.250,45.898,65.918,37.109,-2.441,22.461,0
1542737842.254,41.504,53.223,40.039,2.930,35.156,0
1542737842.258,38.574,44.434,35.156,10.742,17.090,0
1542737842.262,34.180,43.945,29.785,6.836,34.668,0
1542737842.266,37.598,48.828,27.832,5.371,53.711,0
1542737842.270,40.039,51.270,29.297,10.742,93.262,0
1542737842.274,38.574,50.293,32.715,2.930,66.406,0
1542737842.278,34.180,44.922,34.180,2.930,-8.301,0
1542737842.282,32.227,37.598,30.273,7.324,33.203,0
1542737842.285,32.715,37.109,25.879,10.742,45.898,0
1542737842.289,35.156,43.457,27.344,8.301,-9.766,0
1542737842.293,31.738,42.969,27.832,-6.836,23.926,0
1542737842.297,30.273,31.738,27.832,-3.906,77.148,0
1542737842.301,25.879,26.367,26.367,-8.789,57.129,0
1542737842.305,22.949,33.203,29.297,-15.137,37.598,0
1542737842.309,28.809,34.180,32.715,-12.207,81.543,0
1542737842.313,29.297,32.227,26.855,-4.395,71.289,0
1542737842.317,19.531,29.785,26.367,0.000,43.945,0
1542737842.321,22.461,24.902,26.367,-7.812,40.039,0
1542737842.324,16.113,27.832,20.020,-18.066,46.875,0
1542737842.328,12.207,38.574,20.508,-15.137,39.551,0
1542737842.332,19.043,36.621,24.414,-12.695,20.508,0
1542737842.336,17.090,28.320,28.809,-27.344,51.270,0
1542737842.340,15.137,28.320,22.461,-25.879,93.262,0
1542737842.344,9.277,23.438,15.625,-21.484,46.875,0
1542737842.348,3.418,15.137,17.578,-26.855,52.734,0
1542737842.352,13.672,7.324,19.043,-10.254,50.293,0
1542737842.356,21.484,9.277,20.996,3.418,41.504,0
1542737842.360,-2.441,26.855,15.137,-25.391,81.055,0
1542737842.364,-16.602,42.480,9.277,-49.316,39.062,0
1542737842.367,7.324,45.898,3.418,-22.949,72.266,0
1542737842.371,17.090,40.527,-2.930,-13.672,47.363,0
1542737842.375,-0.488,33.691,0.000,-32.227,4.395,0
1542737842.379,-2.441,29.785,9.766,-38.086,31.250,0
1542737842.383,0.000,24.414,11.719,-47.363,22.461,0
1542737842.387,0.977,18.555,4.883,-32.715,32.227,0
1542737842.391,1.953,20.996,8.789,-27.832,20.508,0
1542737842.395,-4.395,22.949,5.371,-47.852,1.465,0
1542737842.399,-6.348,19.043,-4.395,-47.363,62.988,0
1542737842.403,-0.977,14.160,-3.418,-34.180,111.816,0
1542737842.407,-2.441,10.742,-1.465,-36.621,104.004,0
1542737842.410,-8.789,8.789,-5.859,-38.574,65.430,0
1542737842.414,-7.812,8.789,-5.371,-31.738,69.824,0
1542737842.418,-10.742,8.789,-2.441,-33.203,109.863,0
1542737842.422,-9.766,7.812,-4.883,-32.715,89.844,0
1542737842.426,2.441,11.719,0.488,-30.762,75.684,0
1542737842.430,-3.906,14.648,-1.465,-47.852,56.641,0
1542737842.434,-8.301,14.648,-9.766,-43.457,58.594,0
1542737842.438,-7.812,14.160,-12.207,-40.527,75.684,0
1542737842.442,-7.324,18.555,-12.207,-48.828,20.508,0
1542737842.446,0.000,20.996,-9.766,-45.898,6.348,0
1542737842.449,1.953,12.695,-9.766,-38.574,5.371,0
1542737842.453,-6.348,2.930,-20.020,-40.039,-51.758,0
1542737842.457,-8.789,4.395,-19.043,-40.039,-20.996,0
1542737842.461,-8.301,8.301,-12.207,-40.039,67.383,0
1542737842.465,-10.742,8.301,-15.625,-41.504,49.316,0
1542737842.469,-15.137,2.441,-20.996,-36.133,28.320,0
1542737842.473,-18.066,-3.906,-19.043,-40.527,-1.465,0
1542737842.477,-15.137,6.348,-16.602,-42.480,-22.461,0
1542737842.481,-9.766,10.254,-14.648,-43.457,38.086,0
1542737842.485,-7.324,5.859,-11.230,-46.387,25.391,0
1542737842.489,-14.648,3.906,-7.812,-50.781,8.301,0
1542737842.492,-16.602,-3.906,-9.766,-53.223,15.137,0
1542737842.496,-14.160,-9.766,-13.184,-48.340,35.156,0
1542737842.500,-21.973,-8.789,-14.160,-53.711,52.734,0
1542737842.504,-16.113,-0.488,-13.672,-50.293,55.664,0
1542737842.508,-11.719,2.441,-15.625,-45.898,45.410,0
1542737842.512,-21.973,-0.488,-17.578,-47.852,43.945,0
1542737842.516,-20.996,-1.465,-12.695,-40.527,87.402,0
1542737842.520,-14.160,4.395,-7.324,-34.180,44.434,0
1542737842.524,-11.230,10.254,-6.348,-33.203,35.645,0
1542737842.528,-12.207,12.207,-2.930,-38.086,34.668,0
1542737842.532,-11.719,6.348,0.977,-39.062,8.301,0
1542737842.535,-8.789,0.488,-9.277,-44.434,37.109,0
1542737842.539,-0.488,0.488,-13.672,-46.875,50.781,0
1542737842.543,-1.953,1.953,-6.348,-32.715,51.758,0
1542737842.547,-9.277,5.371,-2.441,-30.273,20.508,0
1542737842.551,-3.906,7.324,-1.953,-36.621,-4.883,0
1542737842.555,-3.906,11.719,-4.395,-36.133,51.758,0
1542737842.559,0.977,14.648,-4.395,-30.273,62.988,0
1542737842.563,4.395,14.160,0.000,-30.273,10.742,0
1542737842.567,-5.371,7.812,0.000,-41.016,-9.766,0
1542737842.571,-3.906,-2.441,2.930,-39.551,37.109,0
1542737842.574,0.488,6.348,9.277,-28.809,62.500,0
1542737842.578,1.953,15.137,7.812,-25.391,14.160,0
1542737842.582,3.906,8.789,4.883,-34.668,-38.086,0
1542737842.586,3.418,13.184,0.977,-37.598,-24.902,0
1542737842.590,10.742,14.160,6.836,-25.391,22.949,0
1542737842.594,10.254,10.254,13.672,-21.973,5.859,0
1542737842.598,2.930,12.207,0.000,-25.879,11.230,0
1542737842.602,5.859,16.113,-0.977,-31.738,36.133,0
1542737842.606,-1.465,20.508,3.906,-34.668,32.227,0
1542737842.610,-4.883,21.973,0.488,-29.785,47.363,0
1542737842.614,3.418,20.020,6.836,-29.297,44.922,0
1542737842.617,5.859,22.949,6.836,-22.949,-8.789,0
1542737842.621,15.137,29.297,6.836,-16.113,-12.695,0
1542737842.625,20.020,21.484,15.625,-20.020,27.344,0
1542737842.629,16.113,20.508,18.066,-14.648,10.254,0
1542737842.633,11.719,23.926,16.602,-22.461,41.504,0
1542737842.637,6.348,25.879,16.602,-31.250,78.613,0
1542737842.641,2.441,16.602,14.648,-33.203,51.758,0
1542737842.645,2.441,8.301,11.230,-35.156,67.383,0
1542737842.649,5.371,19.043,11.719,-29.785,41.016,0
1542737842.653,12.695,15.137,13.672,-20.996,-39.551,0
1542737842.657,13.672,16.113,17.090,-14.648,-24.902,0
1542737842.660,5.859,18.555,16.602,-20.508,23.438,0
1542737842.664,0.488,9.766,13.672,-26.367,25.879,0
1542737842.668,-1.953,8.789,15.137,-21.484,25.391,0
1542737842.672,3.906,7.812,19.531,-20.020,-32.715,0
1542737842.676,5.859,10.742,20.996,-23.926,12.695,0
1542737842.680,5.371,15.137,19.531,-25.879,39.062,0
1542737842.684,15.137,14.160,16.113,-21.484,0.488,0
1542737842.688,11.230,14.648,14.648,-21.973,12.207,0
1542737842.692,-2.930,16.113,14.648,-25.391,37.598,0
1542737842.696,2.930,17.578,13.184,-17.578,76.660,0
1542737842.699,7.812,11.719,8.789,-21.484,61.523,0
1542737842.703,1.465,8.301,13.184,-22.949,-3.418,0
1542737842.707,1.465,7.812,15.137,-12.207,9.766,0
1542737842.711,1.465,8.301,12.695,-18.555,44.922,0
1542737842.715,-2.441,9.766,16.602,-26.367,43.945,0
1542737842.719,-0.488,13.184,11.230,-25.879,41.992,0
1542737842.723,2.441,20.020,9.277,-29.785,61.523,0
1542737842.727,0.977,18.066,11.719,-34.668,38.574,0
1542737842.731,0.977,11.719,7.812,-36.621,51.270,0
1542737842.735,-3.906,4.883,12.695,-30.762,69.336,0
1542737842.739,-6.836,3.418,13.184,-27.832,34.180,0
1542737842.742,-7.324,11.230,11.230,-34.180,20.020,0
1542737842.746,-9.277,9.766,10.254,-37.109,31.738,0
1542737842.750,-13.184,6.836,4.395,-43.457,67.871,0
1542737842.754,-9.277,13.184,2.930,-40.527,75.195,0
1542737842.758,-6.836,18.555,4.395,-27.344,59.570,0
1542737842.762,-4.395,10.254,6.348,-27.344,93.262,0
1542737842.766,-2.441,7.812,4.883,-40.527,120.117,0
1542737842.770,-0.488,12.207,7.812,-41.016,46.387,0
1542737842.774,3.906,9.277,12.695,-32.715,49.316,0
1542737842.778,1.465,14.648,10.254,-27.832,108.398,0
1542737842.782,7.324,15.625,11.230,-17.090,38.574,0
1542737842.785,8.301,13.672,15.625,-14.160,1.953,0
1542737842.789,14.160,19.043,12.695,-19.531,-12.207,0
1542737842.793,37.109,24.414,7.812,-3.418,4.883,0
1542737842.797,20.996,24.414,8.789,-14.160,62.500,0
1542737842.801,-15.137,17.090,18.555,-44.434,48.828,0
1542737842.805,-22.461,11.719,24.902,-52.246,36.133,0
1542737842.809,-22.949,16.113,21.973,-51.758,42.969,0
1542737842.813,-30.273,21.484,26.367,-56.152,60.059,0
1542737842.817,-29.297,21.484,22.461,-57.129,67.871,0
1542737842.821,-20.508,19.043,13.184,-41.992,10.742,0
1542737842.824,-10.254,7.324,12.207,-35.156,31.250,0
1542737842.828,5.371,6.836,10.254,-29.785,81.055,0
1542737842.832,0.488,13.672,9.277,-36.621,66.895,0
1542737842.836,-2.930,8.789,5.859,-34.668,-1.465,0
1542737842.840,2.930,12.695,1.953,-27.344,-20.508,0
1542737842.844,3.418,18.555,1.953,-24.902,23.926,0
1542737842.848,5.859,20.020,5.371,-18.555,52.734,0
1542737842.852,2.930,19.531,12.695,-19.531,79.590,0
1542737842.856,4.395,16.113,17.090,-20.996,59.082,0
1542737842.860,9.277,20.996,18.066,-29.297,63.965,0
1542737842.864,5.371,16.113,17.578,-32.227,95.703,0
1542737842.867,-3.418,7.324,14.648,-20.996,65.430,0
1542737842.871,-2.441,19.531,17.578,-20.996,31.250,0
1542737842.875,7.812,33.203,19.043,-22.461,47.852,0
1542737842.879,5.371,29.785,20.508,-22.949,54.199,0
1542737842.883,-2.930,28.320,23.438,-28.809,3.906,0
1542737842.887,0.488,39.551,24.414,-22.949,30.273,0
1542737842.891,8.789,42.969,31.250,-7.324,17.578,0
1542737842.895,14.648,37.109,32.227,-18.555,20.996,0
1542737842.899,12.207,37.109,26.855,-31.250,48.828,0
1542737842.903,11.719,33.203,30.273,-22.949,71.777,0
1542737842.907,14.648,33.203,37.598,-14.160,112.305,0
1542737842.910,13.184,32.227,40.039,-9.277,57.129,0
1542737842.914,15.137,24.414,38.086,-7.324,36.133,0
1542737842.918,17.090,28.809,39.551,-12.695,47.363,0
1542737842.922,14.648,39.062,38.086,-14.160,36.621,0
1542737842.926,6.836,41.992,38.086,-20.508,44.434,0
1542737842.930,11.230,45.410,41.016,-18.066,17.578,0
1542737842.934,15.137,46.387,37.109,-3.418,16.113,0
1542737842.938,6.836,32.227,33.691,-19.043,48.340,0
1542737842.942,17.090,26.367,32.715,-20.020,23.438,0
1542737842.946,13.672,25.879,31.250,-23.926,24.902,0
1542737842.949,6.348,24.414,35.156,-34.180,41.016,0
1542737842.953,9.766,31.250,38.086,-23.438,39.062,0
1542737842.957,8.301,38.086,38.086,-17.578,16.113,0
1542737842.961,7.812,41.016,38.086,-17.090,39.551,0
1542737842.965,11.230,34.180,37.598,-15.625,85.938,0
1542737842.969,11.230,28.320,34.668,-18.555,52.246,0
1542737842.973,8.301,30.273,36.133,-13.672,26.367,0
1542737842.977,10.254,33.203,42.480,-10.742,69.824,0
1542737842.981,11.719,37.598,39.551,-14.160,56.641,0
1542737842.985,18.066,40.527,34.668,-7.812,19.531,0
1542737842.989,12.207,41.992,36.621,-11.230,37.109,0
1542737842.992,13.672,44.922,38.574,-16.113,24.414,0
1542737842.996,14.160,45.898,42.969,-22.461,13.184,0
1542737843.000,14.160,46.387,42.480,-22.949,71.777,0
1542737843.004,17.578,36.133,35.156,-17.578,83.496,0
1542737843.008,15.137,29.297,33.691,-19.531,79.102,0
1542737843.012,18.066,38.086,37.598,-21.484,103.516,0
1542737843.016,12.695,39.551,38.086,-23.438,71.289,0
1542737843.020,7.812,37.109,37.109,-21.484,14.648,0
1542737843.024,11.719,33.203,37.109,-18.066,15.137,0
1542737843.028,10.742,24.414,35.645,-12.695,30.273,0
1542737843.032,7.812,21.973,34.180,-14.160,10.254,0
1542737843.035,5.859,29.297,32.715,-22.461,-12.695,0
1542737843.039,6.348,31.250,31.250,-26.855,75.684,0
1542737843.043,10.254,32.227,30.762,-23.926,82.520,0
1542737843.047,6.348,31.250,29.785,-17.090,18.555,0
1542737843.051,-0.488,26.855,28.809,-18.555,-8.301,0
1542737843.055,-3.418,27.832,27.832,-25.879,25.879,0
1542737843.059,0.000,25.391,29.297,-30.273,36.133,0
1542737843.063,8.301,21.484,34.668,-25.391,5.859,0
1542737843.067,20.020,22.949,31.738,-9.766,16.602,0
1542737843.071,48.340,26.855,23.926,15.625,-14.648,0
1542737843.074,21.973,24.902,28.320,-8.301,-0.488,0
1542737843.078,-19.043,22.461,40.527,-41.504,52.246,0
1542737843.082,-13.184,20.020,49.316,-38.086,46.875,0
1542737843.086,-5.859,13.672,51.758,-35.645,17.090,0
1542737843.090,10.254,9.277,50.293,-17.090,41.016,0
1542737843.094,16.602,11.719,45.410,-11.230,58.594,0
1542737843.098,7.324,21.973,40.039,-23.926,65.430,0
1542737843.102,7.324,26.855,38.574,-13.672,44.434,0
1542737843.106,16.602,30.762,39.062,-1.465,-5.371,0
1542737843.110,12.207,25.879,32.715,-19.043,1.465,0
1542737843.114,-2.441,14.160,26.855,-26.367,44.434,0
1542737843.117,-4.395,14.648,27.832,-25.391,39.551,0
1542737843.121,-0.977,13.672,33.691,-31.738,44.434,0
1542737843.125,-0.977,7.324,37.598,-25.391,53.223,0
1542737843.129,-0.488,10.254,36.133,-21.484,13.672,0
1542737843.133,-1.465,13.672,35.156,-27.344,36.621,0
1542737843.137,0.000,14.160,31.738,-25.391,5.859,0
1542737843.141,1.465,17.578,30.762,-24.902,8.301,0
1542737843.145,-1.465,13.672,32.227,-10.254,99.609,0
1542737843.149,0.488,13.184,30.273,-7.324,34.180,0
1542737843.153,3.418,16.113,29.785,-25.879,-23.926,0
1542737843.157,-2.441,14.648,31.738,-26.855,21.973,0
1542737843.160,-0.488,18.555,31.250,-29.785,29.785,0
1542737843.164,6.348,20.996,27.832,-16.602,11.230,0
1542737843.168,0.977,24.414,27.832,-11.230,43.945,0
1542737843.172,1.953,25.391,31.738,-19.043,68.359,0
1542737843.176,4.395,27.344,31.250,-16.602,63.477,0
1542737843.180,3.418,32.227,22.949,-22.949,0.488,0
1542737843.184,4.883,37.598,21.973,-16.602,6.348,0
1542737843.188,8.789,31.738,25.391,-16.602,94.727,0
1542737843.192,12.695,28.320,27.832,-19.043,143.066,0
1542737843.196,12.695,33.203,27.344,-8.301,41.504,0
1542737843.199,15.137,30.273,27.832,-14.160,3.418,0
1542737843.203,14.648,32.227,26.855,-23.438,43.945,0
1542737843.207,9.766,38.086,24.414,-22.461,-5.371,0
1542737843.211,12.695,39.062,31.250,-9.277,24.414,0
1542737843.215,11.230,36.621,28.809,-8.301,10.254,0
1542737843.219,9.277,38.086,22.461,-27.344,-21.484,0
1542737843.223,14.160,36.133,23.438,-30.273,5.371,0
1542737843.227,16.113,38.086,23.926,-33.691,14.648,0
1542737843.231,11.230,41.504,22.949,-29.297,48.340,0
1542737843.235,10.742,41.016,17.090,-19.043,47.852,0
1542737843.239,13.672,40.527,14.160,-16.113,9.277,0
1542737843.242,18.555,38.574,18.555,-11.719,26.367,0
1542737843.246,26.855,38.574,21.973,-10.254,75.684,0
1542737843.250,27.832,39.062,20.020,-10.742,57.617,0
1542737843.254,20.020,34.180,23.926,-18.555,1.465,0
1542737843.258,20.020,36.621,21.484,-27.344,-13.672,0
1542737843.262,15.625,31.738,11.230,-29.297,92.773,0
1542737843.266,15.137,31.250,12.207,-23.438,136.230,0
1542737843.270,20.020,45.898,21.484,-13.184,47.852,0
1542737843.274,18.555,45.898,24.414,-8.301,8.789,0
1542737843.278,8.301,41.504,18.066,-14.648,40.527,0
1542737843.282,8.301,43.457,19.531,-24.902,51.270,0
1542737843.285,22.461,42.480,18.066,-26.367,65.430,0
1542737843.289,17.578,36.133,10.742,-18.066,87.891,0
1542737843.293,19.043,35.645,13.672,-10.742,42.969,0
1542737843.297,24.414,41.016,18.555,-9.766,20.996,0
1542737843.301,17.090,40.039,16.602,-9.766,36.621,0
1542737843.305,16.113,35.645,13.184,-5.859,35.645,0
1542737843.309,23.926,33.203,15.137,-10.254,12.695,0
1542737843.313,23.438,32.227,17.578,-13.184,-7.812,0
1542737843.317,21.484,32.227,12.695,-13.184,23.438,0
1542737843.321,19.043,35.156,15.625,-14.648,57.129,0
1542737843.324,14.648,31.738,17.578,-13.184,74.707,0
1542737843.328,26.855,36.621,11.719,-11.230,62.500,0
1542737843.332,31.738,46.387,11.719,-7.812,43.457,0
1542737843.336,26.855,41.504,15.137,-3.418,25.879,0
1542737843.340,29.297,37.598,14.648,2.930,38.086,0
1542737843.344,32.227,35.645,19.043,-1.465,59.570,0
1542737843.348,27.832,35.645,20.996,-7.812,25.391,0
1542737843.352,22.461,33.691,15.625,-10.742,17.578,0
1542737843.356,17.090,31.250,19.043,-15.137,70.312,0
1542737843.360,16.113,29.297,14.648,-15.137,38.086,0
1542737843.364,20.020,26.855,10.254,-16.602,-1.465,0
1542737843.367,14.160,30.762,11.719,-13.672,27.344,0
1542737843.371,12.207,37.109,18.066,-15.137,11.719,0
1542737843.375,17.578,41.016,24.902,-24.902,-4.395,0
1542737843.379,21.973,44.922,22.461,-11.719,34.180,0
1542737843.383,24.414,41.992,21.973,-6.836,41.504,0
1542737843.387,21.484,33.203,28.320,-13.184,22.949,0
1542737843.391,19.531,33.203,30.762,-12.695,-8.301,0
1542737843.395,10.742,38.574,18.555,-21.973,72.266,0
1542737843.399,11.719,30.273,14.648,-9.277,55.176,0
1542737843.403,39.062,19.043,26.367,23.438,-7.812,0
1542737843.407,39.062,34.668,28.320,10.254,48.828,0
1542737843.410,4.883,49.805,18.555,-31.738,50.781,0
1542737843.414,18.555,35.156,17.090,-22.461,40.527,0
1542737843.418,45.410,36.621,22.461,-7.812,73.242,0
1542737843.422,42.480,47.852,21.973,-3.418,115.723,0
1542737843.426,51.270,45.898,20.508,15.137,135.742,0
1542737843.430,54.688,44.434,24.902,13.672,65.430,0
1542737843.434,45.410,41.016,21.973,4.883,40.039,0
1542737843.438,54.199,37.109,16.602,14.648,66.895,0
1542737843.442,57.617,43.457,16.113,5.859,20.020,0
1542737843.446,46.387,50.293,22.461,0.000,3.906,0
1542737843.449,48.340,51.270,29.785,5.371,14.160,0
1542737843.453,58.105,51.758,28.320,-0.488,11.719,0
1542737843.457,59.570,43.945,32.227,2.930,40.527,0
1542737843.461,47.852,44.434,33.203,-1.465,54.688,0
1542737843.465,46.387,47.363,30.762,-12.695,50.293,0
1542737843.469,55.176,43.457,36.133,4.883,65.918,0
1542737843.473,56.641,47.852,36.621,9.766,82.031,0
1542737843.477,55.664,50.781,38.574,6.348,91.797,0
1542737843.481,54.688,51.270,41.504,1.465,58.594,0
1542737843.485,46.387,49.316,40.527,-7.324,40.527,0
1542737843.489,44.922,48.828,44.434,0.488,43.457,0
1542737843.492,44.922,39.551,41.504,0.488,3.906,0
1542737843.496,36.133,31.250,36.133,-7.324,16.602,0
1542737843.500,41.992,39.062,41.504,-3.906,20.020,0
1542737843.504,36.621,39.551,41.016,-5.371,13.672,0
1542737843.508,30.762,40.527,37.109,-11.230,19.531,0
1542737843.512,36.621,41.992,41.504,6.836,-13.672,0
1542737843.516,39.062,45.410,45.898,24.902,43.945,0
1542737843.520,41.016,50.781,39.062,0.000,45.410,0
1542737843.524,34.668,45.898,29.785,-21.484,58.105,0
1542737843.528,37.598,41.504,29.297,-7.324,92.773,0
1542737843.532,45.898,47.852,33.691,4.883,45.898,0
1542737843.535,46.387,54.688,44.434,6.836,77.637,0
1542737843.539,50.781,55.664,51.758,14.648,105.469,0
1542737843.543,51.758,47.852,48.828,17.090,44.922,0
1542737843.547,44.922,50.293,45.410,8.301,39.062,0
1542737843.551,41.992,49.316,43.457,8.301,29.785,0
1542737843.555,60.547,35.645,41.504,38.086,26.367,0
1542737843.559,57.129,38.574,34.668,18.555,8.789,0
1542737843.563,13.184,58.105,21.484,-48.828,-18.555,0
1542737843.567,3.906,65.430,16.113,-59.082,22.949,0
1542737843.571,20.020,66.406,5.371,-38.574,41.016,0
1542737843.574,22.949,69.336,-1.953,-30.762,15.137,0
1542737843.578,12.695,66.406,7.812,-32.227,11.719,0
1542737843.582,15.625,68.359,9.766,-22.949,46.875,0
1542737843.586,16.113,65.430,6.348,-23.438,42.969,0
1542737843.590,13.184,54.688,6.348,-24.414,82.520,0
1542737843.594,19.043,50.781,9.766,-16.113,88.379,0
1542737843.598,24.902,53.711,12.695,-19.531,36.133,0
1542737843.602,22.949,54.199,10.742,-15.625,53.711,0
1542737843.606,26.367,49.805,17.578,-9.766,51.758,0
1542737843.610,33.203,44.434,24.902,-18.555,-17.578,0
1542737843.614,34.668,47.852,20.996,-15.137,13.672,0
1542737843.617,37.109,50.293,20.508,-8.301,34.180,0
1542737843.621,24.902,48.340,21.973,-17.578,-30.762,0
1542737843.625,22.461,46.875,17.090,-21.973,2.441,0
1542737843.629,24.902,45.410,22.461,-19.531,54.688,0
1542737843.633,19.043,46.387,27.832,-1.465,75.195,0
1542737843.637,20.020,41.992,20.508,-7.324,56.152,0
1542737843.641,16.113,36.621,18.066,-34.668,27.344,0
1542737843.645,10.742,35.156,25.879,-24.902,67.871,0
1542737843.649,8.789,30.273,29.785,-18.555,28.320,0
1542737843.653,9.766,27.832,27.344,-16.602,23.438,0
1542737843.657,12.207,28.320,27.344,-19.531,27.344,0
1542737843.660,12.695,23.926,23.926,-27.344,28.320,0
1542737843.664,13.672,28.809,18.555,-19.531,49.805,0
1542737843.668,7.812,36.133,22.461,-15.137,40.039,0
1542737843.672,8.301,31.738,19.043,-12.695,92.285,0
1542737843.676,8.301,28.809,9.277,-17.578,43.457,0
1542737843.680,3.906,23.438,2.930,-17.578,19.531,0
1542737843.684,7.324,17.578,0.977,-11.230,19.531,0
1542737843.688,8.789,20.020,7.812,-13.672,17.090,0
1542737843.692,6.836,29.297,11.719,-18.555,56.641,0
1542737843.696,10.742,28.320,11.719,-18.066,3.906,0
1542737843.699,11.719,22.461,11.719,-17.578,30.762,0
1542737843.703,6.836,35.156,15.625,-24.414,95.703,0
1542737843.707,5.859,42.480,20.508,-17.578,62.012,0
1542737843.711,1.465,26.367,21.973,-15.137,23.926,0
1542737843.715,-3.418,24.902,23.926,-27.344,35.156,0
1542737843.719,1.465,28.809,23.926,-21.973,30.762,0
1542737843.723,11.230,26.367,23.438,-14.160,22.461,0
1542737843.727,8.301,29.785,21.484,-20.020,15.625,0
1542737843.731,4.395,31.738,19.043,-21.973,19.531,0
1542737843.735,10.254,37.109,19.531,-15.625,51.270,0
1542737843.739,9.766,35.645,13.184,-15.137,43.945,0
1542737843.742,4.395,28.320,14.160,-17.578,8.789,0
1542737843.746,5.371,26.855,24.414,-19.531,85.449,0
1542737843.750,16.113,34.180,23.438,-21.484,130.859,0
1542737843.754,11.230,41.992,24.414,-23.926,57.617,0
1542737843.758,2.930,39.062,29.785,-18.555,-16.113,0
1542737843.762,5.371,37.109,27.344,-14.160,0.977,0
1542737843.766,0.977,37.598,24.902,-20.020,39.551,0
1542737843.770,1.953,38.574,27.832,-18.066,33.203,0
1542737843.774,3.418,35.645,27.344,-14.160,45.410,0
1542737843.778,4.883,31.738,24.902,-19.043,45.410,0
1542737843.782,12.695,27.344,30.762,-14.160,17.578,0
1542737843.785,6.836,19.043,24.902,-19.043,38.086,0
1542737843.789,4.883,14.160,21.973,-24.902,29.785,0
1542737843.793,11.719,17.090,30.762,-16.602,26.367,0
1542737843.797,13.184,15.625,33.203,-11.230,46.387,0
1542737843.801,16.113,14.160,27.344,-5.371,30.273,0
1542737843.805,15.137,18.066,23.438,-9.766,31.738,0
1542737843.809,3.906,18.555,21.484,-20.508,19.043,0
1542737843.813,0.977,17.090,21.484,-17.578,0.488,0
1542737843.817,6.348,17.578,25.391,-21.973,9.277,0
1542737843.821,11.719,23.438,27.832,-26.855,17.090,0
1542737843.824,12.207,31.250,32.715,-9.766,59.082,0
1542737843.828,13.184,29.297,33.691,-11.230,53.711,0
1542737843.832,14.648,26.855,32.715,-18.555,-16.602,0
1542737843.836,11.719,38.086,35.156,-15.137,-42.969,0
1542737843.840,15.137,44.434,37.598,-14.160,-6.348,0
1542737843.844,14.160,35.645,35.156,-11.230,10.254,0
1542737843.848,15.137,33.691,30.273,-12.695,31.250,0
1542737843.852,17.090,32.227,29.785,-18.066,19.531,0
1542737843.856,10.742,30.273,26.855,-26.855,-1.953,0
1542737843.860,33.691,33.203,15.137,-6.348,24.902,0
1542737843.864,61.035,33.691,14.648,21.484,38.574,0
1542737843.867,16.602,35.645,36.621,-5.371,70.801,0
1542737843.871,-25.879,30.762,45.410,-44.434,82.031,0
1542737843.875,-10.742,16.113,43.457,-31.250,53.711,0
1542737843.879,-4.395,12.207,48.828,-22.461,22.949,0
1542737843.883,-0.977,3.906,53.223,-23.926,41.992,0
1542737843.887,11.230,-2.441,43.457,-9.766,50.293,0
1542737843.891,15.137,4.883,37.109,-9.766,11.719,0
1542737843.895,21.973,17.090,45.410,0.000,28.320,0
1542737843.899,20.996,16.602,48.340,8.789,58.105,0
1542737843.903,15.137,11.230,43.945,-0.977,73.730,0
1542737843.907,15.625,13.672,46.387,-2.930,85.449,0
1542737843.910,13.672,15.137,41.016,-10.254,52.246,0
1542737843.914,8.789,17.578,36.133,-18.555,88.867,0
1542737843.918,13.184,16.113,39.551,-11.230,131.348,0
1542737843.922,19.043,17.090,32.715,-6.348,34.180,0
1542737843.926,14.648,21.484,26.855,-10.254,15.625,0
1542737843.930,9.766,22.949,27.344,-14.648,58.594,0
1542737843.934,16.602,28.809,28.809,-8.301,16.602,0
1542737843.938,19.043,34.180,28.320,-10.254,20.996,0
1542737843.942,11.719,29.297,28.320,-14.160,52.734,0
1542737843.946,8.789,27.344,31.738,-7.812,31.250,0
1542737843.949,8.789,27.832,28.320,-8.301,6.836,0
1542737843.953,10.742,29.297,31.738,-1.953,39.062,0
1542737843.957,10.742,26.855,36.133,4.395,72.266,0
1542737843.961,9.766,25.391,38.086,-1.465,79.102,0
1542737843.965,14.648,28.809,38.574,-0.977,69.336,0
1542737843.969,12.207,20.020,28.809,-17.090,69.824,0
1542737843.973,9.277,22.949,23.438,-29.297,53.223,0
1542737843.977,16.113,36.133,21.484,-22.461,55.176,0
1542737843.981,12.695,38.086,20.508,-14.648,89.844,0
1542737843.985,11.230,33.203,19.043,-20.996,52.734,0
1542737843.989,15.137,31.250,18.066,-28.809,-4.883,0
1542737843.992,0.977,25.879,17.578,-25.879,-40.527,0
1542737843.996,-7.324,23.438,17.090,-25.879,-3.906,0
1542737844.000,-0.488,23.926,20.020,-28.320,71.777,0
1542737844.004,17.578,20.508,23.438,-13.184,16.602,0
1542737844.008,33.691,27.832,15.137,6.348,-24.902,0
1542737844.012,8.301,39.062,16.602,-18.555,28.809,0
1542737844.016,-21.484,24.902,24.414,-54.688,27.344,0
1542737844.020,-2.441,4.395,25.879,-30.762,-33.691,0
1542737844.024,17.090,7.812,26.367,-8.789,-55.664,0
1542737844.028,15.625,11.230,20.996,0.000,13.672,0
1542737844.032,23.438,14.160,17.090,2.441,67.383,0
1542737844.035,20.508,16.113,17.578,-9.277,47.852,0
1542737844.039,14.160,23.926,17.578,-6.348,9.277,0
1542737844.043,14.648,29.785,21.484,-2.930,24.414,0
1542737844.047,14.648,25.879,21.973,-11.230,0.000,0
1542737844.051,21.484,21.484,20.508,-5.859,1.465,0
1542737844.055,22.461,22.949,25.879,-7.324,56.152,0
1542737844.059,14.648,33.691,27.832,-9.766,25.879,0
1542737844.063,11.230,23.926,28.809,-4.395,-14.160,0
1542737844.067,8.301,4.883,29.297,-3.906,31.738,0
1542737844.071,4.883,13.184,20.020,-7.324,69.824,0
1542737844.074,6.348,27.344,14.648,-10.742,31.738,0
1542737844.078,13.184,23.926,21.484,-9.766,15.625,0
1542737844.082,11.230,17.090,25.879,-18.555,19.531,0
1542737844.086,5.859,22.949,24.902,-13.672,1.953,0
1542737844.090,9.766,28.809,26.367,-5.859,18.066,0
1542737844.094,8.301,29.785,25.391,-8.789,77.148,0
1542737844.098,4.395,34.180,20.996,-9.277,60.547,0
1542737844.102,7.324,30.273,17.578,-12.695,20.020,0
1542737844.106,10.254,24.902,21.973,-9.277,30.762,0
1542737844.110,6.836,25.391,28.320,-3.906,19.043,0
1542737844.114,7.324,22.949,31.738,-2.930,4.883,0
1542737844.117,9.277,27.832,30.273,-2.441,46.387,0
1542737844.121,12.207,32.227,25.391,-5.371,75.195,0
1542737844.125,11.230,27.344,28.320,-6.836,39.551,0
1542737844.129,15.137,30.273,29.297,-3.418,62.500,0
1542737844.133,20.020,38.086,32.715,8.789,45.410,0
1542737844.137,20.508,44.922,43.945,13.672,34.668,0
1542737844.141,27.344,49.316,46.875,16.602,66.895,0
1542737844.145,26.367,50.781,44.434,16.602,48.828,0
1542737844.149,35.156,49.316,43.945,16.113,58.105,0
1542737844.153,36.133,54.199,41.504,15.137,51.270,0
1542737844.157,28.320,53.223,47.852,16.602,19.043,0
1542737844.160,27.344,51.270,52.246,21.973,59.570,0
1542737844.164,27.344,46.875,47.852,18.555,32.715,0
1542737844.168,26.855,50.293,49.316,18.066,27.832,0
1542737844.172,27.344,62.012,55.664,26.855,26.855,0
1542737844.176,24.902,58.105,57.129,26.367,40.039,0
1542737844.180,28.809,58.594,56.152,19.531,110.840,0
1542737844.184,29.297,60.547,54.688,13.672,74.707,0
1542737844.188,26.855,59.082,57.617,19.043,58.105,0
1542737844.192,25.391,58.594,57.617,20.020,85.938,0
1542737844.196,16.602,56.641,46.875,14.648,101.074,0
1542737844.199,12.695,57.129,41.504,21.484,77.637,0
1542737844.203,18.066,55.664,43.457,19.043,28.809,0
1542737844.207,20.996,49.316,46.387,6.348,22.949,0
1542737844.211,14.160,54.688,48.340,3.906,61.035,0
1542737844.215,15.625,63.965,51.270,11.230,8.789,0
1542737844.219,19.043,62.012,51.758,22.949,-8.789,0
1542737844.223,13.184,56.641,42.480,14.160,76.172,0
1542737844.227,11.719,53.223,36.621,6.836,34.180,0
1542737844.231,35.156,58.105,28.809,22.949,3.906,0
1542737844.235,72.754,63.477,22.461,55.176,16.602,0
1542737844.239,42.969,58.105,45.898,36.133,-17.578,0
1542737844.242,-19.043,46.387,68.359,-8.301,12.207,0
1542737844.246,-16.113,37.109,70.312,1.953,75.195,0
1542737844.250,4.395,26.855,80.566,20.020,22.461,0
1542737844.254,-16.113,15.625,88.867,9.766,29.297,0
1542737844.258,-30.273,13.672,95.703,8.789,52.734,0
1542737844.262,-17.090,15.625,106.934,19.531,16.602,0
1542737844.266,-0.488,12.207,110.840,25.879,30.273,0
1542737844.270,8.301,22.949,102.051,13.184,-3.906,0
1542737844.274,5.859,31.738,96.680,6.348,-7.812,0
1542737844.278,11.230,31.250,89.355,21.484,24.902,0
1542737844.282,15.625,29.785,79.102,27.344,18.555,0
1542737844.285,18.555,21.484,76.172,32.715,64.453,0
1542737844.289,24.414,20.020,73.730,36.133,41.504,0
1542737844.293,22.461,25.879,68.359,35.645,-20.508,0
1542737844.297,26.367,27.344,69.336,31.738,5.859,0
1542737844.301,30.762,35.156,70.312,38.086,35.645,0
1542737844.305,20.996,39.551,62.500,34.668,0.000,0
1542737844.309,4.395,29.297,61.523,17.090,-6.348,0
1542737844.313,4.883,27.344,66.406,21.973,50.781,0
1542737844.317,11.230,27.344,64.941,24.414,31.738,0
1542737844.321,-1.465,25.391,59.082,14.648,80.566,0
1542737844.324,-2.441,25.879,57.129,16.113,124.023,0
1542737844.328,1.465,31.738,47.363,19.531,46.387,0
1542737844.332,-4.883,29.785,42.969,16.602,48.340,0
1542737844.336,-8.789,26.855,41.504,7.324,27.832,0
1542737844.340,-1.953,32.715,41.992,6.836,-5.859,0
1542737844.344,5.371,47.363,47.852,17.578,33.203,0
1542737844.348,2.441,46.387,49.805,9.766,-4.883,0
1542737844.352,3.418,37.598,48.828,4.395,-34.668,0
1542737844.356,3.418,40.527,44.434,9.766,34.180,0
1542737844.360,1.953,41.992,47.852,10.742,77.637,0
1542737844.364,9.277,41.016,44.922,17.578,80.078,0
1542737844.367,13.184,39.551,43.457,17.578,85.938,0
1542737844.371,8.789,37.109,45.410,9.766,10.742,0
1542737844.375,11.719,29.297,41.016,8.301,-26.367,0
1542737844.379,15.137,24.414,40.527,13.184,58.594,0
1542737844.383,10.742,27.344,36.133,12.207,81.055,0
1542737844.387,11.719,29.297,38.574,7.324,101.074,0
1542737844.391,14.160,34.668,44.922,15.625,46.387,0
1542737844.395,7.812,36.621,37.598,13.672,-5.859,0
1542737844.399,7.324,39.551,38.574,8.301,74.219,0
1542737844.403,6.836,46.875,43.457,10.742,70.312,0
1542737844.407,5.859,41.016,41.016,6.348,68.359,0
1542737844.410,3.418,39.551,44.922,1.465,91.309,0
1542737844.414,3.906,38.086,40.039,-2.441,47.363,0
1542737844.418,6.836,29.785,35.156,0.000,15.137,0
1542737844.422,0.000,30.273,38.086,1.465,12.695,0
1542737844.426,-5.859,24.902,36.133,-1.465,52.246,0
1542737844.430,8.301,17.090,37.598,12.207,11.719,0
1542737844.434,12.695,28.809,31.250,10.254,-29.297,0
1542737844.438,10.742,48.340,22.461,-13.672,5.371,0
1542737844.442,4.883,56.641,20.020,-22.461,37.598,0
1542737844.446,-11.719,40.527,18.555,-26.367,38.574,0
1542737844.449,-5.859,25.391,21.484,-19.043,29.297,0
1542737844.453,-13.672,20.508,21.484,-24.902,34.668,0
1542737844.457,-10.742,17.090,21.484,-18.066,13.184,0
1542737844.461,0.000,21.484,25.391,-6.836,46.387,0
1542737844.465,0.000,22.949,20.996,-3.906,91.797,0
1542737844.469,0.488,23.926,14.648,-9.766,41.504,0
1542737844.473,-4.883,27.832,19.531,-17.090,14.160,0
1542737844.477,-4.395,30.762,26.855,-13.672,65.918,0
1542737844.481,-6.348,30.762,23.926,-19.043,37.598,0
1542737844.485,0.977,30.273,24.414,-16.602,0.977,0
1542737844.489,9.766,22.949,26.367,-11.719,20.020,0
1542737844.492,-2.441,22.461,19.043,-14.648,100.098,0
1542737844.496,-8.301,32.715,21.973,-19.531,111.328,0
1542737844.500,-10.742,27.344,21.973,-29.785,68.359,0
1542737844.504,-10.254,23.438,19.531,-26.367,42.480,0
1542737844.508,-7.812,25.391,21.484,-24.902,45.898,0
1542737844.512,-7.324,15.625,19.531,-28.809,28.320,0
1542737844.516,-10.254,12.207,15.137,-25.391,71.289,0
1542737844.520,-18.555,12.695,16.602,-32.227,53.223,0
1542737844.524,-20.020,12.695,17.090,-39.551,29.785,0
1542737844.528,-8.789,22.949,15.625,-31.738,50.781,0
1542737844.532,-5.859,24.902,17.090,-27.344,45.410,0
1542737844.535,-9.766,21.973,23.926,-25.391,25.391,0
1542737844.539,-8.789,28.809,24.902,-24.902,39.551,0
1542737844.543,-13.672,31.250,19.531,-33.691,57.617,0
1542737844.547,-19.531,26.855,23.926,-34.668,-23.438,0
1542737844.551,-19.531,25.391,30.762,-35.156,39.062,0
1542737844.555,-22.461,27.344,28.320,-33.203,89.844,0
1542737844.559,-17.578,27.832,27.832,-30.273,45.898,0
1542737844.563,-18.066,27.344,27.344,-42.480,27.344,0
1542737844.567,-15.625,35.645,31.250,-43.945,20.996,0
1542737844.571,-22.461,49.805,38.574,-48.828,39.062,0
1542737844.574,-40.039,63.477,40.039,-63.965,-24.414,0
1542737844.578,-60.547,69.336,47.852,-81.543,-41.504,0
1542737844.582,-79.102,66.406,62.012,-89.844,23.926,0
1542737844.586,-84.473,76.660,65.430,-94.238,41.992,0
1542737844.590,-120.117,108.398,52.734,-147.949,76.172,0
1542737844.594,-172.363,147.461,47.363,-208.984,130.371,0
1542737844.598,-207.520,174.805,43.945,-242.676,79.590,0
1542737844.602,-221.191,196.289,39.551,-255.371,29.297,0
1542737844.606,-229.980,204.102,39.551,-267.090,31.738,0
1542737844.610,-233.398,217.773,36.133,-283.203,42.480,0
1542737844.614,-237.793,238.281,24.902,-302.734,35.156,0
1542737844.617,-230.469,236.328,30.273,-295.410,10.254,0
1542737844.621,-214.355,221.680,30.273,-278.320,20.996,0
1542737844.625,-191.895,198.730,16.602,-252.441,70.312,0
1542737844.629,-163.086,184.082,17.090,-216.309,131.348,0
1542737844.633,-152.344,171.875,16.113,-209.473,96.191,0
1542737844.637,-129.883,136.719,19.043,-192.383,72.266,0
1542737844.641,-87.402,107.910,18.555,-142.578,44.434,0
1542737844.645,-71.289,91.309,7.812,-117.676,17.090,0
1542737844.649,-59.082,77.148,3.906,-110.840,30.273,0
1542737844.653,-35.645,65.430,6.348,-86.914,44.922,0
1542737844.657,-20.020,56.152,4.395,-67.871,62.988,0
1542737844.660,0.977,48.340,3.418,-41.016,9.766,0
1542737844.664,19.043,41.504,2.930,-16.113,48.828,0
1542737844.668,29.785,40.039,-3.906,0.977,26.367,0
1542737844.672,44.434,29.785,-9.766,14.648,-8.301,0
1542737844.676,64.453,18.066,-6.836,24.902,54.688,0
1542737844.680,70.801,17.578,-7.324,32.715,48.340,0
1542737844.684,75.684,13.184,-8.789,41.504,20.020,0
1542737844.688,80.566,5.859,-10.254,50.293,28.809,0
1542737844.692,85.449,9.277,-10.254,41.504,32.227,0
1542737844.696,94.727,11.230,-8.789,52.246,48.828,0
1542737844.699,97.168,12.695,-9.277,64.453,40.039,0
1542737844.703,99.609,9.277,-8.789,63.965,29.785,0
1542737844.707,99.609,0.977,-15.625,70.801,47.852,0
1542737844.711,97.168,4.395,-17.090,67.383,9.277,0
1542737844.715,101.074,3.418,-11.719,64.941,21.973,0
1542737844.719,104.492,-5.371,-8.789,77.148,51.758,0
1542737844.723,103.516,-3.906,-13.184,69.336,19.043,0
1542737844.727,105.469,-3.906,-19.043,67.871,10.742,0
1542737844.731,106.445,-4.395,-16.113,76.660,10.254,0
1542737844.735,98.145,-4.883,-16.602,45.898,11.719,0
1542737844.739,94.238,-17.090,-12.695,47.363,40.527,0
1542737844.742,97.168,-18.555,-13.672,62.988,48.340,0
1542737844.746,89.355,-13.672,-18.555,58.594,30.273,0
1542737844.750,87.891,-8.301,-17.578,55.176,20.996,0
1542737844.754,91.309,-0.977,-16.602,59.082,9.277,0
1542737844.758,92.285,-1.465,-20.020,64.941,40.039,0
1542737844.762,92.285,-7.324,-16.602,65.430,50.781,0
1542737844.766,92.773,0.488,-8.301,74.219,34.668,0
1542737844.770,93.750,6.348,-3.418,82.031,7.812,0
1542737844.774,86.914,0.000,-0.977,65.918,-20.508,0
1542737844.778,82.520,2.441,-4.395,56.641,-13.184,0
1542737844.782,81.055,8.301,-1.465,61.035,37.598,0
1542737844.785,77.637,1.465,2.930,50.781,57.129,0
1542737844.789,74.219,-3.418,2.441,41.504,15.137,0
1542737844.793,67.871,0.000,0.977,43.457,34.180,0
1542737844.797,66.406,-2.441,1.953,46.875,11.230,0
1542737844.801,66.406,-4.395,2.441,43.457,23.438,0
1542737844.805,57.617,1.465,-0.488,35.645,68.359,0
1542737844.809,62.012,8.301,4.883,34.180,58.594,0
1542737844.813,69.824,12.695,11.230,34.180,69.336,0
1542737844.817,62.012,14.648,7.812,30.762,75.195,0
1542737844.821,59.570,15.137,4.883,33.691,109.375,0
1542737844.824,59.570,10.742,11.230,34.180,71.777,0
1542737844.828,59.082,15.625,15.625,29.297,63.477,0
1542737844.832,54.688,6.836,10.742,23.438,76.172,0
1542737844.836,51.758,-7.812,13.184,20.020,54.688,0
1542737844.840,52.734,1.465,20.020,16.113,27.344,0
1542737844.844,48.828,9.277,13.184,9.766,-4.883,0
1542737844.848,43.457,11.230,11.230,11.719,67.383,0
1542737844.852,45.898,12.695,8.789,7.812,53.711,0
1542737844.856,54.688,14.648,7.324,7.812,3.906,0
1542737844.860,49.316,14.648,15.137,13.184,91.309,0
1542737844.864,38.574,17.090,16.602,13.672,114.258,0
1542737844.867,36.621,20.020,16.602,5.859,66.895,0
1542737844.871,37.598,17.578,22.949,2.930,59.570,0
1542737844.875,29.785,16.113,20.996,3.906,34.668,0
1542737844.879,30.273,0.977,16.113,19.043,22.461,0
1542737844.883,58.105,-9.277,23.438,50.293,52.734,0
1542737844.887,12.695,22.461,18.555,-5.859,54.688,0
1542737844.891,-63.477,40.527,10.742,-88.379,79.102,0
1542737844.895,-62.500,31.738,8.789,-88.379,27.344,0
1542737844.899,-47.852,38.574,0.977,-75.684,-40.527,0
1542737844.903,-50.293,41.992,1.465,-83.984,20.996,0
1542737844.907,-46.875,38.574,-1.953,-82.520,84.961,0
1542737844.910,-47.363,35.645,-4.395,-74.219,37.109,0
1542737844.914,-48.828,23.926,3.906,-72.266,9.766,0
1542737844.918,-21.973,19.531,3.906,-48.340,36.133,0
1542737844.922,-11.230,23.926,-0.488,-35.156,32.715,0
1542737844.926,-17.090,20.996,1.953,-41.504,20.508,0
1542737844.930,-9.766,17.578,8.301,-34.180,28.809,0
1542737844.934,-0.488,16.602,3.906,-41.016,83.008,0
1542737844.938,0.488,19.531,3.418,-42.480,51.758,0
1542737844.942,-1.465,27.832,9.766,-25.391,-1.465,0
1542737844.946,6.348,28.809,13.184,-14.648,50.293,0
1542737844.949,-4.395,23.438,14.648,-27.344,99.609,0
1542737844.953,-16.602,25.391,11.719,-40.039,107.422,0
1542737844.957,-8.789,24.902,12.207,-30.762,98.633,0
1542737844.961,-6.348,17.090,20.020,-34.180,73.242,0
1542737844.965,-13.672,16.113,17.578,-41.504,42.969,0
1542737844.969,-12.695,23.926,9.277,-34.668,33.691,0
1542737844.973,1.465,22.461,11.230,-26.855,25.391,0
1542737844.977,2.441,18.066,9.277,-28.809,40.527,0
1542737844.981,0.977,18.555,9.766,-32.715,40.527,0
1542737844.985,2.441,20.508,13.184,-30.273,43.945,0
1542737844.989,0.488,20.508,5.859,-24.414,19.531,0
1542737844.992,0.977,16.602,3.418,-20.020,-1.953,0
1542737844.996,2.930,13.184,12.207,-20.020,39.062,0
1542737845.000,2.930,11.230,19.043,-20.020,33.203,0
1542737845.004,-2.441,15.137,17.090,-19.043,38.086,0
1542737845.008,-3.418,17.090,15.625,-31.250,59.570,0
1542737845.012,2.441,20.020,17.578,-22.949,33.203,0
1542737845.016,5.371,27.344,12.207,-17.090,-27.832,0
1542737845.020,1.953,20.508,16.602,-25.391,-2.930,0
1542737845.024,0.000,10.742,16.113,-25.391,45.898,0
1542737845.028,-3.906,14.648,11.719,-28.320,-0.488,0
1542737845.032,-5.859,16.602,15.137,-35.156,21.484,0
1542737845.035,2.441,16.602,15.137,-29.297,24.414,0
1542737845.039,-1.465,21.973,13.184,-23.438,-0.488,0
1542737845.043,-5.859,23.438,14.160,-26.367,59.570,0
1542737845.047,0.488,20.508,13.184,-20.996,62.500,0
1542737845.051,2.441,29.297,13.184,-13.184,68.359,0
1542737845.055,7.324,28.809,23.438,-16.113,51.270,0
1542737845.059,14.160,21.973,24.902,-17.578,34.180,0
1542737845.063,3.906,17.090,17.090,-20.020,33.691,0
1542737845.067,10.742,8.301,18.555,-9.277,-23.926,0
1542737845.071,23.438,22.461,17.578,-8.301,25.879,0
1542737845.074,-8.301,38.574,13.672,-44.922,47.363,0
1542737845.078,-14.648,38.574,9.766,-43.457,53.711,0
1542737845.082,17.090,54.688,3.418,-19.043,72.266,0
1542737845.086,13.672,49.316,8.789,-26.367,26.855,0
1542737845.090,0.488,32.715,13.672,-25.879,29.785,0
1542737845.094,-5.371,34.180,18.066,-27.832,0.000,0
1542737845.098,-6.836,28.320,18.555,-41.016,7.324,0
1542737845.102,-1.953,23.926,11.719,-29.785,26.855,0
1542737845.106,-3.906,24.414,9.766,-30.273,44.922,0
1542737845.110,-0.488,30.762,6.836,-35.156,27.344,0
1542737845.114,0.000,31.738,7.324,-26.367,16.602,0
1542737845.117,2.441,30.273,11.719,-23.438,60.547,0
1542737845.121,10.254,34.668,14.648,-21.484,35.156,0
1542737845.125,14.160,36.133,20.020,-20.020,71.289,0
1542737845.129,13.672,32.227,25.391,-19.531,43.945,0
1542737845.133,3.906,28.320,18.555,-26.367,1.953,0
1542737845.137,-0.488,27.832,10.254,-29.785,59.570,0
1542737845.141,-3.418,29.785,18.555,-28.320,81.543,0
1542737845.145,-2.930,26.367,20.020,-26.367,85.938,0
1542737845.149,-4.883,21.973,9.766,-25.391,22.949,0
1542737845.153,-6.348,22.949,9.277,-29.297,-16.113,0
1542737845.157,1.953,30.762,18.555,-27.832,26.367,0
1542737845.160,9.766,36.621,14.648,-15.137,26.367,0
1542737845.164,14.160,38.086,15.625,1.465,35.645,0
1542737845.168,24.902,37.109,25.879,0.977,22.949,0
1542737845.172,24.902,38.086,30.273,-9.277,27.832,0
1542737845.176,26.367,46.387,31.738,-10.254,-4.883,0
1542737845.180,29.785,47.363,33.691,-8.301,32.715,0
1542737845.184,22.461,39.062,30.762,-11.230,51.270,0
1542737845.188,19.043,36.621,26.367,-8.301,9.766,0
1542737845.192,21.973,45.410,30.762,-1.465,-1.953,0
1542737845.196,23.926,52.246,31.738,-1.465,-24.902,0
1542737845.199,23.438,49.805,33.203,-5.859,53.223,0
1542737845.203,26.855,42.969,35.156,-10.742,103.027,0
1542737845.207,20.020,44.922,27.832,-5.859,107.910,0
1542737845.211,18.555,49.316,29.785,3.418,73.242,0
1542737845.215,30.762,46.387,30.762,-0.488,41.504,0
1542737845.219,29.785,43.945,29.297,-5.859,45.898,0
1542737845.223,20.508,47.852,28.320,-1.953,47.852,0
1542737845.227,18.555,46.875,30.762,5.859,11.230,0
1542737845.231,12.695,39.062,36.133,-6.836,-29.297,0
1542737845.235,8.789,38.574,31.738,-20.020,20.996,0
1542737845.239,16.602,43.945,26.855,-17.090,68.359,0
1542737845.242,20.020,45.410,34.180,-14.648,57.129,0
1542737845.246,30.273,48.828,39.551,-14.160,19.043,0
1542737845.250,38.086,50.781,39.062,-7.812,16.113,0
1542737845.254,27.344,46.387,40.039,-1.465,50.781,0
1542737845.258,18.555,50.781,35.645,-7.324,111.816,0
1542737845.262,32.715,43.945,32.227,3.418,95.703,0
1542737845.266,54.199,45.898,26.367,20.996,38.574,0
1542737845.270,27.832,52.246,28.320,0.488,-4.883,0
1542737845.274,-17.578,32.227,42.480,-28.809,12.207,0
1542737845.278,-25.391,21.973,50.781,-35.645,67.383,0
1542737845.282,-12.207,22.461,51.758,-29.297,7.324,0
1542737845.285,0.488,16.113,49.805,-14.648,39.062,0
1542737845.289,-3.906,17.578,44.434,-14.160,87.402,0
1542737845.293,-0.977,26.367,33.203,-20.996,53.711,0
1542737845.297,1.465,27.832,29.297,-24.414,56.641,0
1542737845.301,8.301,28.320,32.227,-16.113,28.809,0
1542737845.305,14.160,27.344,28.809,-13.672,34.180,0
1542737845.309,-1.953,29.785,24.902,-23.438,79.590,0
1542737845.313,0.977,30.273,24.414,-16.602,61.035,0
1542737845.317,3.906,28.320,31.738,-12.695,37.598,0
1542737845.321,-0.977,30.273,36.133,-12.207,27.832,0
1542737845.324,10.254,28.320,31.738,-5.371,39.551,0
1542737845.328,14.648,27.832,31.738,-2.930,55.176,0
1542737845.332,13.184,29.297,34.180,-3.418,45.410,0
1542737845.336,7.812,30.762,38.574,-18.555,30.273,0
1542737845.340,36.133,48.828,27.344,-1.953,79.590,0
1542737845.344,62.500,60.059,22.949,37.109,88.867,0
1542737845.348,20.020,48.828,47.363,4.883,25.391,0
1542737845.352,-31.250,38.086,56.641,-47.852,11.230,0
1542737845.356,-28.320,26.855,55.664,-38.574,85.449,0
1542737845.360,-8.301,18.555,64.941,-12.207,99.121,0
1542737845.364,-5.859,23.926,65.918,-16.113,-3.906,0
1542737845.367,-6.348,35.645,62.500,-18.066,-13.672,0
1542737845.371,-5.371,37.109,58.105,-16.113,17.578,0
1542737845.375,13.672,41.504,55.664,-5.859,14.648,0
1542737845.379,18.555,42.480,57.129,-3.906,21.484,0
1542737845.383,10.742,43.945,56.152,-13.672,0.000,0
1542737845.387,23.926,51.758,57.617,3.906,49.805,0
1542737845.391,30.273,48.828,57.129,17.578,72.266,0
1542737845.395,18.555,43.945,56.152,3.418,44.434,0
1542737845.399,20.508,46.387,59.082,4.395,51.270,0
1542737845.403,31.250,53.223,57.617,4.883,41.504,0
1542737845.407,25.391,52.734,50.781,1.953,14.160,0
1542737845.410,17.090,47.363,50.781,3.418,22.461,0
1542737845.414,24.414,44.922,57.617,2.441,45.898,0
1542737845.418,29.785,49.316,56.641,6.348,41.992,0
1542737845.422,29.785,56.152,54.688,15.137,65.430,0
1542737845.426,26.855,51.758,53.223,-0.488,69.824,0
1542737845.430,28.809,55.176,50.293,-7.812,67.871,0
1542737845.434,34.180,59.570,49.805,1.953,57.617,0
1542737845.438,28.809,52.734,46.875,2.930,54.199,0
1542737845.442,31.250,56.641,44.922,3.418,24.902,0
1542737845.446,30.762,60.059,44.922,0.488,-3.906,0
1542737845.449,26.855,51.270,44.434,1.465,42.969,0
1542737845.453,25.879,46.875,43.945,6.836,72.266,0
1542737845.457,26.855,46.387,46.387,11.719,58.105,0
1542737845.461,26.855,42.480,47.363,10.742,60.059,0
1542737845.465,24.902,40.527,44.434,13.672,37.598,0
1542737845.469,23.926,45.898,47.363,4.883,22.461,0
1542737845.473,23.926,45.898,52.734,-1.953,29.785,0
1542737845.477,24.902,48.340,51.270,-0.488,-4.395,0
1542737845.481,22.949,51.270,49.316,2.930,40.527,0
1542737845.485,25.879,40.527,54.688,15.137,89.355,0
1542737845.489,20.996,39.062,48.828,-1.465,74.219,0
1542737845.492,20.508,45.410,45.898,-23.438,20.508,0
1542737845.496,24.902,45.410,46.875,-18.066,-8.789,0
1542737845.500,18.555,45.410,43.945,-10.254,31.250,0
1542737845.504,12.695,43.945,42.480,-15.137,14.160,0
1542737845.508,17.578,47.852,40.527,-12.695,4.883,0
1542737845.512,27.832,51.270,40.527,-1.953,71.777,0
1542737845.516,24.414,45.898,41.016,0.977,57.617,0
1542737845.520,16.602,41.504,41.504,-9.277,-5.371,0
1542737845.524,15.137,37.109,39.062,-16.602,32.715,0
1542737845.528,16.602,38.574,41.016,-8.789,49.805,0
1542737845.532,22.461,42.480,46.387,-9.766,19.531,0
1542737845.535,24.414,44.922,46.387,-6.836,3.418,0
1542737845.539,22.461,44.922,44.922,6.836,-3.418,0
1542737845.543,20.508,42.969,43.457,-0.488,42.969,0
1542737845.547,21.973,37.109,31.738,-16.113,62.988,0
1542737845.551,44.434,37.598,21.484,8.301,16.113,0
1542737845.555,27.344,41.504,30.762,11.719,-3.418,0
1542737845.559,-23.926,34.180,44.434,-43.945,3.906,0
1542737845.563,-27.832,22.461,45.898,-53.223,-12.207,0
1542737845.567,-3.906,12.695,47.363,-17.578,10.742,0
1542737845.571,2.441,6.836,48.828,-20.996,24.414,0
1542737845.574,-3.418,-0.488,39.062,-32.227,35.645,0
1542737845.578,0.488,-3.906,34.180,-33.203,64.941,0
1542737845.582,5.859,0.000,33.691,-28.809,31.250,0
1542737845.586,2.930,6.836,34.668,-22.461,38.086,0
1542737845.590,6.348,13.672,38.086,-25.391,61.523,0
