timestamps,TP9,AF7,AF8,TP10,Right AUX,Marker0
1553632616.156,19.531,38.574,34.668,21.484,538.086,0
1553632616.160,45.410,41.504,31.250,41.992,-73.242,0
1553632616.164,-15.137,44.434,23.438,-11.719,200.195,0
1553632616.168,49.805,47.363,34.668,-23.438,-723.633,0
1553632616.171,93.750,41.992,36.621,-5.859,-1000.000,0
1553632616.175,-8.301,35.645,25.391,2.930,246.582,0
1553632616.179,-133.301,45.898,25.879,30.762,-874.023,0
1553632616.183,-47.852,51.270,43.945,72.266,865.723,0
1553632616.187,55.176,50.781,42.969,31.738,-462.891,0
1553632616.191,17.578,41.504,25.391,-17.090,-161.621,0
1553632616.195,-12.207,23.438,32.715,24.414,319.336,0
1553632616.199,51.270,32.715,43.945,11.230,-983.887,0
1553632616.203,54.688,52.734,31.738,-54.199,-1000.000,0
1553632616.207,16.113,49.805,32.715,-11.719,-173.828,0
1553632616.210,15.625,43.457,31.738,17.578,-84.961,0
1553632616.214,13.184,53.711,26.367,-43.945,-144.043,0
1553632616.218,14.160,67.383,16.602,-12.695,-371.094,0
1553632616.222,-14.648,64.941,18.066,32.227,126.953,0
1553632616.226,-23.438,69.336,7.812,-25.879,990.234,0
1553632616.230,0.977,81.543,14.648,-102.539,-345.215,0
1553632616.234,30.273,72.266,8.789,-70.312,-1000.000,0
1553632616.238,-64.941,77.637,-18.555,-19.043,252.441,0
1553632616.242,-94.727,85.938,9.766,-14.648,-984.863,0
1553632616.246,-1.953,67.383,30.273,-39.551,-493.652,0
1553632616.250,44.434,62.012,6.836,-4.395,-680.664,0
1553632616.253,-13.672,60.547,10.254,2.441,426.758,0
1553632616.257,11.719,61.523,23.926,-24.902,-449.219,0
1553632616.261,87.402,62.500,17.090,11.230,-1000.000,0
1553632616.265,10.742,61.523,15.137,-41.016,-391.602,0
1553632616.269,-52.734,71.777,-14.648,-2.441,906.738,0
1553632616.273,-79.102,67.871,12.207,45.898,-919.434,0
1553632616.277,-21.484,56.152,31.738,4.395,650.391,0
1553632616.281,-43.945,62.988,12.695,-21.484,489.258,0
1553632616.285,-146.973,59.570,31.738,-26.855,968.750,0
1553632616.289,-39.551,50.781,44.434,0.488,-945.801,0
1553632616.293,54.199,55.176,23.926,31.738,-207.520,0
1553632616.296,-3.906,51.270,20.996,-14.160,-156.250,0
1553632616.300,-18.066,50.293,31.738,15.137,333.984,0
1553632616.304,51.758,62.500,12.207,25.879,-903.809,0
1553632616.308,62.988,43.945,12.207,1.465,-1000.000,0
1553632616.312,32.715,34.668,34.180,21.973,-143.066,0
1553632616.316,-39.062,53.711,7.812,43.945,994.141,0
1553632616.320,-49.805,59.570,19.043,37.109,997.070,0
1553632616.324,39.062,47.852,31.250,21.484,681.641,0
1553632616.328,-94.727,61.035,20.508,-4.395,716.797,0
1553632616.332,-118.164,67.871,14.648,60.059,-882.812,0
1553632616.335,84.961,54.688,-2.441,66.406,435.059,0
1553632616.339,67.383,37.598,29.297,9.277,-471.191,0
1553632616.343,-42.480,41.504,54.688,-3.906,433.105,0
1553632616.347,18.555,79.590,0.977,8.301,-80.078,0
1553632616.351,118.164,51.758,-1.465,83.984,-1000.000,0
1553632616.355,38.574,54.199,21.484,104.980,380.371,0
1553632616.359,-7.812,63.965,34.668,26.855,708.008,0
1553632616.363,-28.320,47.363,36.621,13.184,613.770,0
1553632616.367,2.930,63.477,11.719,63.477,896.484,0
1553632616.371,-5.859,40.527,30.762,39.551,600.098,0
1553632616.375,-81.055,36.133,32.227,70.312,-995.605,0
1553632616.378,-4.395,80.566,0.488,98.145,882.324,0
1553632616.382,67.871,60.547,8.789,56.152,-530.762,0
1553632616.386,22.461,29.297,60.547,-7.324,-281.250,0
1553632616.390,-26.367,48.340,37.109,2.441,-921.875,0
1553632616.394,58.105,58.105,14.160,83.496,-97.656,0
1553632616.398,67.383,39.062,42.969,17.090,-1000.000,0
1553632616.402,26.367,44.434,6.348,52.246,-115.723,0
1553632616.406,107.422,57.617,6.348,117.676,-41.504,0
1553632616.410,23.438,21.484,52.246,46.387,282.715,0
1553632616.414,16.602,36.621,25.879,59.570,854.004,0
1553632616.418,-36.133,52.734,0.000,61.523,587.402,0
1553632616.421,-147.949,48.828,36.621,31.250,-841.797,0
1553632616.425,-12.695,38.086,60.059,6.836,294.434,0
1553632616.429,23.926,12.207,44.922,22.461,-781.738,0
1553632616.433,-16.602,28.809,34.180,40.039,259.277,0
1553632616.437,27.344,15.137,69.824,27.832,-115.723,0
1553632616.441,101.562,-7.812,69.336,8.301,-1000.000,0
1553632616.445,20.508,-3.906,45.898,16.113,-514.160,0
1553632616.449,-73.730,0.000,39.551,45.410,901.367,0
1553632616.453,-54.688,-9.766,62.988,-14.648,7.324,0
1553632616.457,-41.504,-6.836,67.383,23.438,136.230,0
1553632616.460,-78.125,-0.977,57.129,57.617,-875.977,0
1553632616.464,-126.465,-12.207,51.270,28.320,944.824,0
1553632616.468,-71.777,-2.441,76.660,35.156,-969.238,0
1553632616.472,58.105,-12.207,83.496,72.266,-324.707,0
1553632616.476,23.926,-17.090,58.105,71.777,-162.109,0
1553632616.480,-10.254,16.602,42.480,36.621,361.816,0
1553632616.484,58.594,9.766,43.945,63.965,-954.590,0
1553632616.488,76.660,-3.906,56.152,49.805,-1000.000,0
1553632616.492,61.035,6.348,41.992,57.129,-106.934,0
1553632616.496,51.270,-8.301,51.758,84.961,-83.496,0
1553632616.500,102.539,8.789,46.875,41.016,-1000.000,0
1553632616.503,95.215,-2.930,56.152,35.645,310.547,0
1553632616.507,-60.547,7.324,30.762,111.816,-912.109,0
1553632616.511,-90.332,27.832,35.156,57.617,-956.055,0
1553632616.515,72.266,37.598,49.805,36.133,396.484,0
1553632616.519,88.379,26.367,43.945,56.641,-840.332,0
1553632616.523,2.930,20.508,35.645,42.480,332.031,0
1553632616.527,38.086,29.297,37.598,65.430,262.207,0
1553632616.531,100.586,20.508,57.129,16.602,-1000.000,0
1553632616.535,59.082,15.625,60.059,-12.207,-526.855,0
1553632616.539,-4.883,29.785,41.992,19.043,365.723,0
1553632616.543,73.242,41.992,36.621,40.527,-747.070,0
1553632616.546,119.141,41.016,41.016,41.504,-1000.000,0
1553632616.550,-29.297,19.531,29.785,10.742,327.148,0
1553632616.554,-86.426,17.578,17.578,101.562,-854.492,0
1553632616.558,-5.859,31.250,52.734,89.355,860.352,0
1553632616.562,17.090,18.555,55.176,-3.418,190.918,0
1553632616.566,-36.133,26.367,36.621,11.719,577.637,0
1553632616.570,-20.996,33.691,36.133,60.059,923.828,0
1553632616.574,73.730,32.227,44.434,5.371,-352.539,0
1553632616.578,119.141,38.574,32.715,-21.973,-1000.000,0
1553632616.582,55.664,32.227,27.832,33.691,-85.449,0
1553632616.585,8.789,43.457,29.785,28.809,257.812,0
1553632616.589,104.980,47.852,38.086,8.301,-994.629,0
1553632616.593,112.793,25.391,41.504,19.043,-1000.000,0
1553632616.597,2.930,54.199,24.414,24.414,236.816,0
1553632616.601,-4.395,50.781,30.762,39.551,-837.402,0
1553632616.605,27.832,24.414,44.922,18.555,550.781,0
1553632616.609,59.082,27.344,44.922,-8.301,-636.230,0
1553632616.613,-6.836,25.391,25.879,40.527,153.320,0
1553632616.617,-52.246,38.574,39.551,27.832,-848.145,0
1553632616.621,55.176,45.410,41.016,25.879,-164.551,0
1553632616.625,83.008,39.062,39.062,62.988,-758.789,0
1553632616.628,-6.348,30.273,51.758,-1.465,717.773,0
1553632616.632,31.250,51.758,37.598,6.348,204.102,0
1553632616.636,121.582,56.152,26.855,71.777,-1000.000,0
1553632616.640,39.551,31.250,39.551,-2.930,-425.293,0
1553632616.644,-31.250,39.551,23.438,2.441,921.387,0
1553632616.648,3.418,38.574,30.273,67.871,-872.559,0
1553632616.652,82.520,35.645,41.992,35.645,-53.711,0
1553632616.656,68.848,55.664,13.184,15.625,-264.160,0
1553632616.660,-112.305,51.758,33.691,6.836,-963.867,0
1553632616.664,-58.594,35.156,65.430,-16.113,994.629,0
1553632616.668,66.406,29.297,46.387,12.695,-324.707,0
1553632616.671,-4.395,33.203,51.270,19.531,-162.109,0
1553632616.675,-23.438,57.617,28.809,9.766,401.855,0
1553632616.679,100.098,46.875,37.109,30.762,-1000.000,0
1553632616.683,53.223,40.039,37.598,17.578,-649.902,0
1553632616.687,23.926,47.363,25.391,16.602,781.738,0
1553632616.691,46.387,31.738,35.156,34.668,982.422,0
1553632616.695,-1.465,38.574,43.945,-10.254,944.824,0
1553632616.699,10.254,45.898,52.246,-12.695,442.383,0
1553632616.703,-57.617,40.527,31.250,36.133,566.895,0
1553632616.707,-34.180,52.734,23.438,43.945,-922.852,0
1553632616.710,62.500,46.875,43.457,42.480,-128.418,0
1553632616.714,39.551,33.203,45.898,19.531,-851.562,0
1553632616.718,29.297,42.480,28.320,16.113,236.816,0
1553632616.722,62.500,45.898,31.738,18.555,-239.258,0
1553632616.726,85.449,39.062,46.387,-8.301,-1000.000,0
1553632616.730,58.105,36.133,34.668,4.883,-438.965,0
1553632616.734,25.879,48.828,30.762,-13.672,-106.934,0
1553632616.738,-43.457,51.270,33.691,-15.137,182.617,0
1553632616.742,-38.574,44.434,37.598,-20.020,439.941,0
1553632616.746,-5.371,26.855,38.086,17.090,362.305,0
1553632616.750,-61.035,47.363,27.344,52.246,-903.320,0
1553632616.753,-20.020,77.148,38.574,-20.996,71.777,0
1553632616.757,34.668,71.289,41.992,-90.332,-1000.000,0
1553632616.761,-21.973,69.824,34.668,-77.637,-178.223,0
1553632616.765,-64.941,92.285,40.039,-73.730,-85.449,0
1553632616.769,-35.156,105.957,46.387,-128.418,-1000.000,0
1553632616.773,-20.508,103.516,36.621,-155.273,-948.242,0
1553632616.777,-78.125,114.746,39.551,-141.113,-371.094,0
1553632616.781,-102.051,127.930,49.316,-202.148,-727.051,0
1553632616.785,-172.852,126.953,50.293,-241.211,-560.547,0
1553632616.789,-249.512,146.484,48.828,-232.422,260.742,0
1553632616.793,-321.289,162.109,36.133,-284.668,795.410,0
1553632616.796,-343.750,155.762,55.664,-285.156,254.395,0
1553632616.800,-213.379,154.297,81.055,-321.777,-1000.000,0
1553632616.804,-221.680,162.598,62.500,-338.867,-500.000,0
1553632616.808,-263.672,164.551,64.941,-311.523,-277.832,0
1553632616.812,-241.699,162.598,79.102,-348.145,-940.430,0
1553632616.816,-186.035,164.551,73.242,-365.723,-1000.000,0
1553632616.820,-193.359,166.016,55.664,-317.383,-709.961,0
1553632616.824,-245.605,169.922,41.504,-342.773,-436.523,0
1553632616.828,-185.059,163.574,41.992,-332.520,-890.137,0
1553632616.832,-195.801,155.273,43.457,-263.672,-963.379,0
1553632616.835,-239.258,151.855,36.133,-247.070,-440.430,0
1553632616.839,-309.082,146.484,31.250,-224.609,727.539,0
1553632616.843,-261.719,125.977,56.641,-225.586,-285.645,0
1553632616.847,-123.047,102.539,48.828,-232.422,-1000.000,0
1553632616.851,-162.109,96.680,20.020,-186.523,-277.344,0
1553632616.855,-137.695,93.262,19.043,-153.809,-333.008,0
1553632616.859,-13.184,80.078,20.996,-154.785,-1000.000,0
1553632616.863,-51.758,66.406,13.184,-93.262,-801.270,0
1553632616.867,-78.125,66.406,7.324,-41.016,-412.109,0
1553632616.871,-13.672,61.523,5.859,-49.805,-650.879,0
1553632616.875,67.871,47.363,3.906,2.930,-1000.000,0
1553632616.878,59.570,37.109,-3.906,41.992,-22.949,0
1553632616.882,-98.633,35.156,-20.508,22.461,-863.770,0
1553632616.886,-106.445,36.133,-15.137,69.824,657.715,0
1553632616.890,79.102,28.809,7.812,70.312,-613.281,0
1553632616.894,91.797,14.648,3.906,24.414,-998.535,0
1553632616.898,60.547,18.555,-11.230,81.543,-37.109,0
1553632616.902,123.047,21.973,1.465,110.840,-321.289,0
1553632616.906,122.559,15.137,12.695,95.703,-1000.000,0
1553632616.910,106.934,9.766,-5.371,63.965,-570.312,0
1553632616.914,95.703,13.184,-13.672,41.016,83.008,0
1553632616.918,125.000,15.137,-6.348,78.613,-1000.000,0
1553632616.921,104.980,5.859,-2.441,116.699,-267.090,0
1553632616.925,40.039,0.488,-3.906,107.910,-923.828,0
1553632616.929,43.457,13.184,-9.766,160.156,945.312,0
1553632616.933,60.547,20.508,0.977,154.297,-978.516,0
1553632616.937,97.656,6.348,5.371,81.055,41.016,0
1553632616.941,31.738,1.465,-0.488,104.492,-37.598,0
1553632616.945,35.645,5.859,5.371,186.035,673.340,0
1553632616.949,178.711,11.719,10.742,150.391,-593.262,0
1553632616.953,157.227,9.277,7.812,87.402,-1000.000,0
1553632616.957,121.094,5.859,4.883,100.586,-59.082,0
1553632616.960,125.000,14.160,4.883,114.258,429.688,0
1553632616.964,184.570,19.043,8.789,102.051,-927.246,0
1553632616.968,170.410,7.324,7.812,120.605,-995.605,0
1553632616.972,64.453,8.301,5.371,158.203,399.902,0
1553632616.976,70.312,19.043,15.137,142.578,-888.672,0
1553632616.980,106.934,22.949,20.508,112.305,970.215,0
1553632616.984,99.121,23.926,13.672,80.078,625.977,0
1553632616.988,12.695,19.531,6.836,112.305,662.109,0
1553632616.992,5.371,21.973,17.578,141.113,-808.594,0
1553632616.996,114.258,22.949,29.297,109.863,436.523,0
1553632617.000,119.629,21.484,19.531,106.934,-171.387,0
1553632617.003,72.754,18.555,14.160,89.844,800.293,0
1553632617.007,89.844,19.531,21.973,88.867,23.926,0
1553632617.011,155.273,19.043,24.414,84.961,-1000.000,0
1553632617.015,86.426,11.719,15.625,83.496,-363.770,0
1553632617.019,19.531,10.742,13.672,84.961,936.035,0
1553632617.023,10.742,20.020,23.438,100.586,-842.773,0
1553632617.027,60.059,26.367,31.738,86.914,354.004,0
1553632617.031,42.969,19.531,17.578,44.922,94.238,0
1553632617.035,-50.293,20.996,17.090,92.285,-978.027,0
1553632617.039,-3.906,30.762,36.133,84.473,-954.102,0
1553632617.043,20.508,23.438,34.180,46.387,888.672,0
1553632617.046,14.160,20.996,36.621,65.430,907.715,0
1553632617.050,66.895,27.832,35.645,69.336,722.168,0
1553632617.054,62.988,25.879,36.621,55.664,-328.125,0
1553632617.058,7.324,23.438,30.762,37.109,-1000.000,0
1553632617.062,27.832,25.879,25.879,17.578,-54.688,0
1553632617.066,41.504,26.367,29.785,44.434,-902.344,0
1553632617.070,-7.812,24.414,34.180,48.828,975.586,0
1553632617.074,10.254,28.320,33.203,38.086,936.523,0
1553632617.078,-26.855,34.668,15.137,50.293,898.438,0
1553632617.082,-68.359,36.621,21.973,79.102,-851.562,0
1553632617.085,56.641,34.180,41.992,34.180,358.398,0
1553632617.089,56.641,31.738,33.691,0.488,-627.930,0
1553632617.093,-14.648,28.320,34.668,15.625,514.648,0
1553632617.097,-28.809,31.738,40.039,40.039,-769.531,0
1553632617.101,12.207,38.086,34.668,45.898,543.457,0
1553632617.105,52.246,37.598,31.250,52.246,43.457,0
1553632617.109,52.246,29.297,29.785,46.387,530.273,0
1553632617.113,30.273,30.762,28.320,71.777,836.426,0
1553632617.117,55.176,33.203,39.062,87.891,916.016,0
1553632617.121,56.641,30.273,30.762,58.594,632.812,0
1553632617.125,-65.918,36.621,21.973,74.707,951.660,0
1553632617.128,-30.762,46.387,36.621,22.461,-929.688,0
1553632617.132,49.316,40.039,31.738,-6.348,-356.934,0
1553632617.136,25.391,41.016,23.926,34.668,-138.184,0
1553632617.140,15.137,48.340,25.391,20.996,509.277,0
1553632617.144,59.082,44.434,39.551,12.207,-859.863,0
1553632617.148,98.145,42.480,35.645,19.043,-1000.000,0
1553632617.152,51.270,45.898,26.855,22.949,1.465,0
1553632617.156,39.551,41.992,31.738,28.320,83.984,0
1553632617.160,32.227,34.180,35.645,22.461,110.352,0
1553632617.164,9.766,39.062,32.715,26.855,-868.652,0
1553632617.168,-90.820,38.574,22.461,64.941,915.039,0
1553632617.171,-115.723,39.551,30.762,61.523,-908.691,0
1553632617.175,39.551,38.574,46.387,11.230,645.508,0
1553632617.179,25.391,31.738,38.574,-19.531,-443.359,0
1553632617.183,-19.531,34.668,31.250,22.949,456.055,0
1553632617.187,21.484,42.480,37.598,39.551,154.297,0
1553632617.191,61.523,46.387,38.086,-15.625,-1000.000,0
1553632617.195,29.297,37.109,24.414,0.000,-390.625,0
1553632617.199,-4.883,41.504,24.902,42.480,583.008,0
1553632617.203,44.434,43.457,36.133,43.457,-563.965,0
1553632617.207,34.180,37.109,26.855,38.574,232.422,0
1553632617.210,-41.504,43.457,20.508,23.438,-805.176,0
1553632617.214,-109.375,47.852,21.484,44.922,882.812,0
1553632617.218,-61.523,53.711,32.715,46.387,-863.770,0
1553632617.222,47.852,45.898,35.156,15.137,448.242,0
1553632617.226,7.324,39.551,27.344,34.668,242.188,0
1553632617.230,-12.695,38.574,32.715,34.180,680.176,0
1553632617.234,70.312,36.621,38.086,25.879,-500.488,0
1553632617.238,99.609,40.527,30.273,27.832,-1000.000,0
1553632617.242,44.922,41.992,31.738,31.250,-8.301,0
1553632617.246,-33.203,40.039,39.551,17.090,81.543,0
1553632617.250,42.480,30.273,42.480,28.320,-1000.000,0
1553632617.253,71.777,26.855,35.156,51.758,384.277,0
1553632617.257,-62.500,29.297,22.949,82.031,-910.645,0
1553632617.261,-89.355,28.809,36.133,94.238,-954.590,0
1553632617.265,30.762,29.297,55.664,57.129,533.203,0
1553632617.269,78.125,27.344,42.480,44.922,-669.922,0
1553632617.273,16.602,27.832,30.273,45.898,311.523,0
1553632617.277,8.789,30.762,37.598,25.391,-700.195,0
1553632617.281,84.961,38.574,39.551,28.320,-215.332,0
1553632617.285,80.566,31.738,32.715,43.945,-680.664,0
1553632617.289,37.109,28.320,27.344,30.762,578.613,0
1553632617.293,58.594,37.598,32.227,23.438,-482.910,0
1553632617.296,60.059,33.203,34.668,52.246,-1000.000,0
1553632617.300,11.230,29.297,18.066,35.645,382.812,0
1553632617.304,-80.078,38.574,21.484,47.852,-918.945,0
1553632617.308,-68.848,44.434,46.387,49.805,-933.594,0
1553632617.312,49.805,35.156,37.598,-14.160,100.098,0
1553632617.316,15.625,28.809,20.508,-1.953,-10.254,0
1553632617.320,-13.672,29.297,26.367,10.742,603.027,0
1553632617.324,53.223,31.250,37.109,-6.836,-690.430,0
1553632617.328,103.027,32.715,27.832,14.160,-1000.000,0
1553632617.332,51.758,34.668,16.602,28.320,-190.918,0
1553632617.335,-30.273,34.180,20.996,12.207,-908.203,0
1553632617.339,28.320,33.203,42.480,30.273,-58.105,0
1553632617.343,51.758,33.691,37.109,33.203,-1000.000,0
1553632617.347,-44.434,31.738,27.344,40.527,274.902,0
1553632617.351,-59.570,37.598,37.109,15.625,-737.305,0
1553632617.355,29.297,35.156,45.898,16.113,326.172,0
1553632617.359,82.031,31.738,46.387,19.531,-960.449,0
1553632617.363,-55.664,34.180,25.391,-4.395,136.230,0
1553632617.367,-87.891,45.410,19.531,16.113,-767.578,0
1553632617.371,43.457,48.340,27.832,15.625,20.996,0
1553632617.375,45.898,33.203,26.367,-16.113,-697.754,0
1553632617.378,-2.441,29.297,19.043,-13.672,516.113,0
1553632617.382,9.277,37.109,26.367,1.953,-78.613,0
1553632617.386,66.895,35.156,38.086,-5.371,-1000.000,0
1553632617.390,22.461,32.715,25.879,9.766,-419.922,0
1553632617.394,-23.438,38.574,17.578,30.273,937.988,0
1553632617.398,-6.836,43.457,25.879,23.926,-957.520,0
1553632617.402,-1.953,43.945,29.785,22.949,902.832,0
1553632617.406,-32.715,35.645,22.949,41.504,862.793,0
1553632617.410,-92.285,35.156,26.367,64.453,972.656,0
1553632617.414,-2.930,45.410,46.387,37.109,-969.727,0
1553632617.418,61.523,39.551,37.598,18.066,-261.230,0
1553632617.421,19.531,38.086,26.367,26.855,-145.508,0
1553632617.425,-31.250,43.945,28.320,12.207,372.559,0
1553632617.429,51.758,37.598,36.133,-8.789,-900.879,0
1553632617.433,111.328,31.738,31.738,19.043,-1000.000,0
1553632617.437,45.410,32.715,30.762,18.066,-166.992,0
1553632617.441,-50.781,31.250,31.250,2.441,999.023,0
1553632617.445,-44.922,32.715,31.250,13.184,985.840,0
1553632617.449,42.969,30.762,37.109,4.883,-117.188,0
1553632617.453,0.488,41.016,34.180,35.156,163.574,0
1553632617.457,-40.039,53.223,31.738,4.883,584.473,0
1553632617.460,53.223,50.781,35.156,-32.227,-814.453,0
1553632617.464,48.828,47.363,26.855,-38.574,-993.652,0
1553632617.468,-86.914,51.270,10.254,-12.695,485.352,0
1553632617.472,-42.480,61.035,21.973,17.090,708.496,0
1553632617.476,70.801,62.988,25.879,-17.578,-795.898,0
1553632617.480,61.035,62.012,9.766,-50.781,-545.410,0
1553632617.484,-3.906,56.152,5.859,-31.738,108.887,0
1553632617.488,-21.484,57.129,10.742,-6.836,569.824,0
1553632617.492,21.973,61.035,20.996,-15.137,412.598,0
1553632617.496,11.719,50.781,11.719,-21.973,-150.391,0
1553632617.500,-90.820,50.781,4.883,14.160,988.770,0
1553632617.503,-40.527,56.641,25.879,16.113,355.957,0
1553632617.507,57.617,50.293,21.484,-32.715,-1000.000,0
1553632617.511,29.785,53.711,4.883,-8.301,-86.426,0
1553632617.515,-28.320,50.781,10.742,30.273,480.957,0
1553632617.519,31.738,44.922,28.809,-51.758,-923.340,0
1553632617.523,87.891,45.410,18.555,-86.914,-1000.000,0
1553632617.527,23.926,51.758,15.137,-9.277,-332.031,0
1553632617.531,-0.977,57.617,21.484,-14.648,-510.742,0
1553632617.535,-4.395,48.340,16.113,-42.480,-169.434,0
1553632617.539,4.395,48.340,23.438,-1.465,879.395,0
1553632617.543,-85.938,52.246,13.184,5.859,969.727,0
1553632617.546,-143.555,49.316,18.066,-12.695,815.918,0
1553632617.550,-8.301,47.852,36.621,-20.996,-167.480,0
1553632617.554,40.039,44.922,24.414,-39.551,-808.105,0
1553632617.558,15.625,46.387,14.160,-30.762,-173.828,0
1553632617.562,27.832,47.852,28.809,-28.320,-518.555,0
1553632617.566,67.871,47.852,35.645,-44.434,-1000.000,0
1553632617.570,63.965,47.363,18.555,-6.836,-603.516,0
1553632617.574,-19.043,44.922,11.230,-12.695,566.895,0
1553632617.578,-36.133,44.434,33.203,-22.461,-405.273,0
1553632617.582,-2.930,45.898,33.203,-26.855,-135.742,0
1553632617.585,-48.828,46.387,9.277,-59.082,-979.980,0
1553632617.589,-112.793,49.316,7.812,-39.062,-994.629,0
1553632617.593,-71.777,53.711,34.180,-45.410,61.035,0
1553632617.597,32.227,41.016,41.504,-66.895,-1000.000,0
1553632617.601,2.441,33.203,29.785,-35.645,-197.266,0
1553632617.605,-9.766,45.410,24.902,-16.602,-58.105,0
1553632617.609,57.129,53.223,28.809,-41.016,-1000.000,0
1553632617.613,80.566,50.293,28.320,-39.551,-1000.000,0
1553632617.617,39.062,45.410,29.297,13.184,-235.352,0
1553632617.621,-22.461,48.828,28.320,17.578,42.969,0
1553632617.625,44.922,54.688,22.949,-17.578,-1000.000,0
1553632617.628,22.461,49.316,12.695,-22.461,49.805,0
1553632617.632,-135.254,43.457,7.812,39.062,-852.051,0
1553632617.636,-113.281,49.805,22.461,57.617,823.242,0
1553632617.640,31.738,52.246,38.574,5.371,-273.926,0
1553632617.644,50.781,45.410,28.809,10.254,-1000.000,0
1553632617.648,-9.766,44.922,20.020,34.668,181.641,0
1553632617.652,12.695,41.016,30.273,30.273,-7.812,0
1553632617.656,74.219,35.645,37.598,14.160,-1000.000,0
1553632617.660,70.312,41.016,20.996,11.719,-614.746,0
1553632617.664,39.062,46.387,10.254,6.836,468.262,0
1553632617.668,43.945,45.410,26.855,41.504,-514.160,0
1553632617.671,86.426,42.480,30.762,26.367,-1000.000,0
1553632617.675,4.395,40.527,13.184,19.531,411.621,0
1553632617.679,-104.004,50.781,11.719,76.660,-862.305,0
1553632617.683,-3.906,57.129,35.156,86.914,911.133,0
1553632617.687,54.199,42.480,31.738,31.738,669.922,0
1553632617.691,0.000,42.480,6.348,26.367,848.145,0
1553632617.695,21.484,55.176,7.812,62.500,968.750,0
1553632617.699,61.035,48.340,27.832,20.020,479.980,0
1553632617.703,62.988,30.273,36.621,24.414,143.555,0
1553632617.707,41.992,37.109,33.691,78.613,598.633,0
1553632617.710,34.180,42.480,39.062,45.898,829.102,0
1553632617.714,65.918,41.016,37.109,28.809,284.180,0
1553632617.718,85.938,40.527,21.973,49.316,369.141,0
1553632617.722,32.715,31.738,21.973,97.168,916.016,0
1553632617.726,4.395,23.438,38.086,119.141,-973.633,0
1553632617.730,83.496,33.203,32.715,91.797,977.051,0
1553632617.734,146.973,47.852,16.602,86.426,-995.605,0
1553632617.738,3.906,44.434,7.324,121.582,999.512,0
1553632617.742,-14.648,46.875,23.438,147.949,999.512,0
1553632617.746,134.277,39.062,40.527,100.586,999.512,0
1553632617.750,59.570,33.691,28.809,87.402,999.512,0
1553632617.753,16.602,40.039,35.156,118.652,999.512,0
1553632617.757,77.148,35.645,44.434,100.098,999.512,0
1553632617.761,104.004,31.250,36.133,74.219,999.512,0
1553632617.765,58.594,30.762,24.414,65.430,999.512,0
1553632617.769,2.441,35.645,21.973,71.289,999.512,0
1553632617.773,4.395,39.062,28.809,68.359,999.512,0
1553632617.777,46.387,37.109,40.039,13.184,999.512,0
1553632617.781,27.344,36.133,19.043,-5.859,999.512,0
1553632617.785,-106.934,38.574,13.672,38.574,999.023,0
1553632617.789,-15.137,43.945,50.781,23.926,999.512,0
1553632617.793,89.355,42.969,35.156,-39.551,997.559,0
1553632617.796,12.695,38.086,24.414,-17.090,998.535,0
1553632617.800,20.996,41.992,44.922,7.324,999.023,0
1553632617.804,88.379,45.410,47.363,0.000,971.680,0
1553632617.808,48.340,45.410,32.227,0.977,980.469,0
1553632617.812,9.277,47.363,32.715,-14.160,993.164,0
1553632617.816,-19.531,39.062,21.973,4.883,991.699,0
1553632617.820,-23.438,40.527,10.742,-0.488,-964.355,0
1553632617.824,33.691,41.016,18.066,-59.570,763.672,0
1553632617.828,-74.219,38.574,1.953,-27.832,740.234,0
1553632617.832,-105.469,45.410,9.766,1.953,-853.027,0
1553632617.835,26.855,46.875,26.367,-41.016,629.883,0
1553632617.839,21.973,39.551,11.230,-49.805,-208.008,0
1553632617.843,-2.441,41.504,10.254,-37.598,761.230,0
1553632617.847,-11.230,40.527,28.320,-48.340,491.699,0
1553632617.851,51.758,33.203,36.621,-35.156,-1000.000,0
1553632617.855,53.711,35.645,23.438,-35.156,-514.648,0
1553632617.859,-31.250,36.621,18.555,-38.086,621.582,0
1553632617.863,-31.250,39.551,25.391,-14.648,810.547,0
1553632617.867,-5.859,43.457,26.367,-41.504,971.680,0
1553632617.871,-56.152,38.086,18.555,-36.133,968.750,0
1553632617.875,-117.676,36.133,26.367,-5.859,-987.793,0
1553632617.878,-51.758,43.945,45.898,-13.672,708.984,0
1553632617.882,1.953,39.551,39.062,-31.738,-293.945,0
1553632617.886,-1.953,35.645,30.273,-32.715,30.273,0
1553632617.890,-14.648,43.945,32.715,-40.527,98.633,0
1553632617.894,29.297,41.504,43.457,-58.105,-1000.000,0
1553632617.898,62.988,31.250,38.574,-53.223,-1000.000,0
1553632617.902,20.020,37.598,29.785,-25.391,-310.547,0
1553632617.906,11.230,41.504,28.809,-18.066,-504.395,0
1553632617.910,-7.812,43.457,23.926,-39.062,74.707,0
1553632617.914,-3.418,48.828,28.320,-52.734,250.977,0
1553632617.918,-68.359,42.969,18.066,-20.020,178.711,0
1553632617.921,-105.957,45.410,20.996,12.207,610.352,0
1553632617.925,-9.277,45.898,29.297,-18.555,175.781,0
1553632617.929,-9.766,43.945,13.672,-29.785,381.348,0
1553632617.933,-6.836,47.363,18.555,0.977,-94.238,0
1553632617.937,5.859,44.434,31.250,-8.789,-683.594,0
1553632617.941,36.133,38.574,33.691,-33.691,-1000.000,0
1553632617.945,47.363,39.551,19.531,-32.715,-588.867,0
1553632617.949,34.180,45.898,19.531,-0.488,-199.707,0
1553632617.953,74.219,46.875,31.738,-4.395,-1000.000,0
1553632617.957,27.344,39.551,28.809,-16.113,-167.969,0
1553632617.960,-49.805,34.668,24.414,30.762,873.535,0
1553632617.964,-115.723,48.340,18.555,19.043,991.699,0
1553632617.968,-46.387,62.988,29.297,0.977,50.781,0
1553632617.972,63.965,51.758,36.133,-14.160,-1000.000,0
1553632617.976,13.184,48.828,23.438,-1.953,-130.859,0
1553632617.980,27.344,57.617,20.020,16.602,-220.215,0
1553632617.984,68.848,59.570,22.949,-1.465,-422.363,0
1553632617.988,31.738,55.176,23.438,-7.324,29.785,0
1553632617.992,20.996,57.617,30.273,-10.254,-279.297,0
1553632617.996,37.109,61.523,34.668,9.766,-343.750,0
1553632618.000,92.773,59.570,31.250,1.465,-1000.000,0
1553632618.003,27.344,56.152,30.273,-8.789,-207.520,0
1553632618.007,-85.938,56.152,26.855,-2.930,848.145,0
1553632618.011,-101.562,53.223,30.762,21.973,565.430,0
1553632618.015,39.551,56.641,38.574,-11.719,-765.625,0
1553632618.019,119.141,55.176,27.344,-20.996,-1000.000,0
1553632618.023,31.738,55.176,21.484,9.277,21.973,0
1553632618.027,20.996,60.059,26.367,0.000,-264.648,0
1553632618.031,89.844,51.758,32.715,-45.898,-1000.000,0
1553632618.035,56.152,49.805,20.020,-45.898,-638.184,0
1553632618.039,21.484,55.176,8.301,-30.273,-358.398,0
1553632618.043,-28.809,46.387,21.484,-22.461,164.551,0
1553632618.046,-9.766,41.992,37.109,7.324,146.973,0
1553632618.050,-35.645,43.457,28.320,8.301,67.871,0
1553632618.054,-152.344,50.293,20.020,2.441,-852.539,0
1553632618.058,-58.594,56.152,32.715,-4.395,181.641,0
1553632618.062,59.570,47.363,36.133,-31.738,-1000.000,0
1553632618.066,17.578,37.598,26.855,-18.066,-221.680,0
1553632618.070,8.301,40.527,26.367,8.789,34.180,0
1553632618.074,93.750,46.387,31.250,-26.367,-1000.000,0
1553632618.078,90.820,38.574,26.855,-43.457,-1000.000,0
1553632618.082,41.504,41.016,20.020,-2.930,-302.734,0
1553632618.085,37.109,49.805,27.832,0.000,-372.070,0
1553632618.089,65.430,48.828,32.227,-22.461,-1000.000,0
1553632618.093,89.844,41.992,23.926,-20.508,-1000.000,0
1553632618.097,34.668,39.551,23.926,-1.953,-113.770,0
1553632618.101,-41.016,42.969,24.414,65.430,-919.922,0
1553632618.105,0.000,46.387,25.391,27.344,600.098,0
1553632618.109,63.477,39.062,34.668,-39.062,-842.285,0
1553632618.113,-45.898,37.598,20.020,-12.207,108.398,0
1553632618.117,-106.934,46.875,22.949,16.113,750.977,0
1553632618.121,50.781,43.945,39.062,-4.395,-773.926,0
1553632618.125,72.754,38.574,24.414,-18.066,-811.523,0
1553632618.128,19.043,39.551,13.184,10.254,-221.680,0
1553632618.132,40.039,40.039,25.879,20.508,-786.133,0
1553632618.136,85.938,35.645,33.691,-7.324,-1000.000,0
1553632618.140,37.109,43.457,12.695,-18.066,-533.691,0
1553632618.144,-36.133,45.410,8.789,13.672,715.332,0
1553632618.148,-24.902,42.480,29.297,28.809,768.066,0
1553632618.152,41.504,46.387,35.156,-1.465,-594.727,0
1553632618.156,19.531,41.504,18.066,13.672,-432.617,0
1553632618.160,-81.543,44.922,11.719,51.758,-924.805,0
1553632618.164,-13.672,53.711,34.180,30.762,739.258,0
1553632618.168,81.543,48.828,38.086,14.648,-670.410,0
1553632618.171,18.555,45.410,29.297,36.621,-236.328,0
1553632618.175,11.719,51.758,24.414,29.785,-59.082,0
1553632618.179,100.098,55.176,23.438,-5.859,-1000.000,0
1553632618.183,96.191,48.828,30.273,7.812,-1000.000,0
1553632618.187,47.852,50.781,25.391,29.785,-475.586,0
1553632618.191,19.043,53.711,20.996,50.293,458.008,0
1553632618.195,12.207,52.734,27.344,54.688,789.062,0
1553632618.199,32.227,55.176,30.762,18.555,-380.371,0
1553632618.203,-38.574,50.781,16.602,25.879,13.184,0
1553632618.207,-94.238,55.664,19.043,46.387,708.008,0
1553632618.210,43.945,58.105,37.109,1.953,-862.305,0
1553632618.214,71.289,45.898,27.832,5.371,-942.871,0
1553632618.218,-1.465,42.480,19.531,28.809,-182.129,0
1553632618.222,-27.344,46.875,31.738,15.137,-65.918,0
1553632618.226,42.969,48.340,40.039,1.465,-906.250,0
1553632618.230,115.723,42.969,26.855,36.621,-549.805,0
1553632618.234,90.820,38.086,25.391,55.664,310.059,0
1553632618.238,30.762,46.387,29.785,33.203,658.203,0
1553632618.242,41.504,54.199,31.738,21.484,589.844,0
1553632618.246,26.855,44.922,26.855,19.531,35.156,0
1553632618.250,-85.938,46.387,22.461,41.504,959.961,0
1553632618.253,-26.367,55.176,38.574,31.738,881.836,0
1553632618.257,69.336,48.340,39.062,12.207,-562.012,0
1553632618.261,6.348,45.410,27.832,18.555,-191.406,0
1553632618.265,7.324,43.457,29.785,25.391,46.387,0
1553632618.269,80.566,38.574,41.016,8.789,-1000.000,0
1553632618.273,93.750,39.551,34.668,-31.738,-1000.000,0
1553632618.277,28.320,43.945,28.320,-12.695,-361.816,0
1553632618.281,-13.672,43.457,28.320,36.133,395.508,0
1553632618.285,-8.301,48.340,23.438,15.137,735.352,0
1553632618.289,-26.367,50.293,22.949,-14.648,801.270,0
1553632618.293,-84.473,44.922,11.719,0.488,855.957,0
1553632618.296,-114.746,48.828,18.066,19.043,894.043,0
1553632618.300,-7.324,47.363,35.156,-5.859,-275.391,0
1553632618.304,62.012,39.551,30.273,-21.484,-949.219,0
1553632618.308,12.207,39.062,24.902,-1.465,-218.262,0
1553632618.312,11.230,42.480,31.250,-8.789,-587.402,0
1553632618.316,70.312,41.016,38.574,-8.301,-1000.000,0
1553632618.320,38.574,40.527,28.320,6.348,-552.246,0
1553632618.324,-23.438,43.457,26.367,-5.859,-138.184,0
1553632618.328,29.785,43.457,35.645,-20.996,-1000.000,0
1553632618.332,31.738,39.062,30.762,-4.395,-173.828,0
1553632618.335,-27.344,36.133,28.320,24.902,899.902,0
1553632618.339,-100.586,42.480,28.320,30.762,-977.051,0
1553632618.343,-52.734,45.898,44.434,26.855,298.340,0
1553632618.347,43.457,37.109,43.945,-3.418,-1000.000,0
1553632618.351,23.438,34.180,24.902,0.488,-175.293,0
1553632618.355,-3.906,39.062,29.297,6.836,130.371,0
1553632618.359,41.016,40.039,41.016,-33.203,-1000.000,0
1553632618.363,60.547,33.203,37.109,-7.324,-1000.000,0
1553632618.367,20.020,35.156,34.180,20.508,-285.645,0
1553632618.371,18.066,40.039,40.039,6.836,-356.934,0
1553632618.375,80.566,39.551,37.109,-6.348,-1000.000,0
1553632618.378,34.180,39.551,24.414,-0.977,134.766,0
1553632618.382,-110.840,42.480,14.648,23.926,-871.582,0
1553632618.386,-126.953,45.410,23.438,31.738,835.938,0
1553632618.390,-7.812,44.922,41.992,-6.836,-201.660,0
1553632618.394,26.855,39.062,35.156,-36.621,-1000.000,0
1553632618.398,-0.488,40.527,27.344,-15.625,160.156,0
1553632618.402,20.996,47.852,33.203,-1.465,-20.996,0
1553632618.406,59.570,43.945,38.086,-35.156,-1000.000,0
1553632618.410,22.461,35.156,27.832,-25.391,-644.043,0
1553632618.414,3.418,42.480,20.020,17.578,-3.418,0
1553632618.418,38.574,47.852,37.598,-9.766,-788.086,0
1553632618.421,86.914,40.527,38.086,-30.762,-1000.000,0
1553632618.425,24.902,35.645,14.648,16.602,127.441,0
1553632618.429,-105.957,42.480,20.020,41.992,-872.559,0
1553632618.433,-75.684,51.270,44.434,13.184,500.977,0
1553632618.437,11.230,42.969,49.316,-35.645,-728.027,0
1553632618.441,-26.855,33.691,43.457,-46.875,-198.730,0
1553632618.445,-33.691,31.250,41.504,-10.742,125.000,0
1553632618.449,56.641,28.809,54.199,9.277,-992.188,0
1553632618.453,52.246,25.879,52.734,-6.348,-1000.000,0
1553632618.457,4.883,25.391,46.387,-0.977,-195.801,0
1553632618.460,-10.254,26.855,41.016,7.324,523.438,0
1553632618.464,8.301,31.250,45.410,-20.508,-166.504,0
1553632618.468,50.293,30.762,49.805,-15.625,-941.406,0
1553632618.472,0.000,29.785,38.086,17.578,47.852,0
1553632618.476,-44.434,34.668,41.016,3.906,962.891,0
1553632618.480,-13.184,37.598,48.828,-19.531,-356.445,0
1553632618.484,57.617,35.645,40.527,-20.020,-1000.000,0
1553632618.488,-43.457,37.598,21.484,-0.977,181.641,0
1553632618.492,-88.867,45.410,24.902,21.484,658.691,0
1553632618.496,34.180,40.039,40.527,-22.949,-841.309,0
1553632618.500,39.062,35.156,34.668,-41.992,-815.430,0
1553632618.503,6.348,41.016,26.367,-13.184,-209.961,0
1553632618.507,23.926,43.457,37.109,0.000,-774.902,0
1553632618.511,65.430,38.086,39.551,-22.949,-1000.000,0
1553632618.515,32.227,37.109,24.902,-40.527,-501.953,0
1553632618.519,-28.320,36.621,20.996,-10.254,659.668,0
1553632618.523,-28.320,41.016,27.832,-2.930,984.375,0
1553632618.527,16.113,38.086,40.039,5.859,310.547,0
1553632618.531,-14.160,32.227,32.715,2.930,22.461,0
1553632618.535,-72.754,36.133,26.367,28.320,881.836,0
1553632618.539,4.395,38.086,46.387,34.180,51.270,0
1553632618.543,73.730,38.574,41.016,-21.484,-1000.000,0
1553632618.546,2.441,31.250,21.973,0.488,-156.738,0
1553632618.550,-64.941,32.227,23.438,32.227,902.832,0
1553632618.554,13.184,40.039,40.527,21.484,-57.129,0
1553632618.558,51.758,34.668,39.551,-4.395,-1000.000,0
1553632618.562,32.227,33.203,30.762,5.371,-279.297,0
1553632618.566,-20.020,33.691,27.832,30.273,961.914,0
1553632618.570,-47.852,31.250,28.320,34.668,889.160,0
1553632618.574,-8.301,32.715,32.715,4.883,652.832,0
1553632618.578,-63.477,35.645,22.461,8.789,896.484,0
1553632618.582,-98.145,41.016,23.438,37.109,-925.293,0
1553632618.585,26.367,36.621,43.945,10.742,26.855,0
1553632618.589,42.969,34.668,35.156,-2.441,-881.348,0
1553632618.593,-14.648,36.133,25.391,13.672,330.078,0
1553632618.597,31.738,42.969,36.621,20.020,-33.203,0
1553632618.601,97.168,42.480,39.551,0.000,-1000.000,0
1553632618.605,60.059,36.621,27.832,-18.066,-483.398,0
1553632618.609,-11.230,35.156,25.391,16.602,333.008,0
1553632618.613,-24.902,34.180,33.691,58.594,700.195,0
1553632618.617,18.555,43.945,33.691,11.230,749.023,0
1553632618.621,0.977,39.062,19.531,-6.348,324.707,0
1553632618.625,-93.262,36.133,16.113,29.785,942.383,0
1553632618.628,-23.926,49.316,35.156,7.812,997.070,0
1553632618.632,60.059,42.969,30.762,3.418,-279.297,0
1553632618.636,20.508,42.480,20.508,24.902,207.520,0
1553632618.640,-1.953,51.270,28.809,2.441,520.996,0
1553632618.644,49.316,47.363,38.574,-5.859,-920.410,0
1553632618.648,104.492,41.016,31.250,5.371,-1000.000,0
1553632618.652,69.824,45.410,26.855,31.250,-41.016,0
1553632618.656,51.270,49.316,33.691,56.641,110.352,0
1553632618.660,37.109,47.852,31.250,41.016,174.805,0
1553632618.664,12.695,45.898,34.180,22.949,-891.113,0
1553632618.668,-68.359,42.480,24.902,48.340,937.012,0
1553632618.671,-100.586,45.898,27.344,37.598,-980.469,0
1553632618.675,-16.602,43.457,38.086,6.836,987.305,0
1553632618.679,29.297,35.645,34.668,4.395,-74.707,0
1553632618.683,35.645,43.457,31.738,-4.883,380.859,0
1553632618.687,55.176,48.340,31.738,11.230,143.066,0
1553632618.691,101.562,38.086,35.645,11.230,-1000.000,0
1553632618.695,9.277,41.992,25.391,-14.160,254.883,0
1553632618.699,-20.996,55.176,28.320,-3.906,914.062,0
1553632618.703,41.016,50.293,31.738,2.930,-576.172,0
1553632618.707,0.000,46.875,25.391,18.066,229.004,0
1553632618.710,-51.270,45.898,20.020,2.930,-857.422,0
1553632618.714,-84.473,58.105,18.066,-1.465,947.754,0
1553632618.718,-10.742,67.871,29.785,21.484,916.992,0
1553632618.722,79.590,54.199,27.344,0.000,-497.070,0
1553632618.726,28.320,47.852,10.742,1.465,-320.801,0
1553632618.730,-39.551,51.270,9.766,12.695,-913.086,0
1553632618.734,35.645,52.734,25.391,-12.695,-35.645,0
1553632618.738,102.539,45.898,30.762,-12.207,-1000.000,0
1553632618.742,56.152,45.898,26.855,6.348,-62.500,0
1553632618.746,41.504,52.246,23.438,12.207,27.344,0
1553632618.750,76.172,49.805,24.414,1.465,-1000.000,0
1553632618.753,40.527,41.016,22.461,7.812,353.516,0
1553632618.757,-62.012,43.945,18.555,30.762,-923.828,0
1553632618.761,-81.543,52.246,24.902,37.109,-956.543,0
1553632618.765,41.016,51.270,40.039,18.555,479.492,0
1553632618.769,63.477,48.340,34.180,38.574,-751.953,0
1553632618.773,32.227,54.688,22.949,24.902,311.035,0
1553632618.777,46.387,57.129,28.809,-16.602,171.875,0
1553632618.781,105.469,52.246,32.715,-7.324,-1000.000,0
1553632618.785,75.684,47.363,18.066,2.930,-645.996,0
1553632618.789,-1.465,47.852,13.672,4.883,615.723,0
1553632618.793,25.879,48.828,24.902,-3.418,-290.527,0
1553632618.796,79.590,46.875,27.832,-11.719,-1000.000,0
1553632618.800,8.301,48.340,19.531,12.207,368.164,0
1553632618.804,-119.141,56.152,16.113,51.270,-858.398,0
1553632618.808,-38.574,57.617,32.715,18.066,899.414,0
1553632618.812,34.668,46.387,31.250,-8.789,898.926,0
1553632618.816,-27.832,45.410,20.020,4.883,-992.188,0
1553632618.820,-0.488,45.410,27.832,14.160,915.527,0
1553632618.824,61.523,43.945,37.598,9.766,-218.750,0
1553632618.828,74.707,42.480,37.109,-8.301,-1000.000,0
1553632618.832,50.293,44.922,29.297,12.207,-59.570,0
1553632618.835,29.785,49.316,33.203,32.715,221.680,0
1553632618.839,61.035,46.875,43.457,15.137,-1000.000,0
1553632618.843,84.473,46.875,33.203,-18.066,-956.543,0
1553632618.847,11.230,53.223,22.949,20.996,338.379,0
1553632618.851,-50.781,57.617,38.086,77.148,-802.246,0
1553632618.855,8.301,58.105,49.316,50.293,663.574,0
1553632618.859,66.895,56.152,50.781,8.789,-567.383,0
1553632618.863,-10.254,59.082,33.691,23.926,209.473,0
1553632618.867,-28.320,62.988,42.480,31.738,-908.691,0
1553632618.871,4.395,63.965,56.152,13.184,670.898,0
1553632618.875,-55.176,73.242,41.504,19.043,-990.723,0
1553632618.878,-56.641,82.031,41.504,-14.160,978.516,0
1553632618.882,-40.039,91.797,55.176,-50.293,301.758,0
1553632618.886,-40.527,98.633,64.941,-28.320,514.160,0
1553632618.890,-66.895,104.492,59.082,-51.758,656.738,0
1553632618.894,-121.094,102.539,53.711,-100.586,815.918,0
1553632618.898,-133.789,113.281,67.871,-78.613,-815.430,0
1553632618.902,-113.281,126.465,80.566,-106.934,435.059,0
1553632618.906,-158.691,123.535,62.500,-150.879,157.715,0
1553632618.910,-258.789,133.789,57.617,-119.141,-998.047,0
1553632618.914,-174.805,144.531,81.055,-127.441,-872.070,0
1553632618.918,-84.961,130.859,77.637,-159.180,-144.531,0
1553632618.921,-134.766,126.465,70.801,-135.742,-52.734,0
1553632618.925,-153.320,131.836,72.754,-118.652,596.191,0
1553632618.929,-145.508,128.906,62.012,-129.395,263.184,0
1553632618.933,-134.766,120.117,58.105,-143.066,763.672,0
1553632618.937,-100.098,117.188,62.012,-121.582,612.793,0
1553632618.941,-114.746,114.746,50.781,-83.984,947.754,0
1553632618.945,-108.398,112.793,40.527,-65.430,-897.949,0
1553632618.949,-39.551,98.145,48.340,-67.871,566.406,0
1553632618.953,-111.328,79.102,41.504,-39.062,454.590,0
1553632618.957,-147.949,83.496,35.645,-27.344,-792.969,0
1553632618.960,-7.324,76.172,43.945,-56.152,312.988,0
1553632618.964,37.109,52.246,38.086,-16.602,-772.461,0
1553632618.968,23.438,45.410,31.250,15.137,521.484,0
1553632618.972,51.270,50.293,31.738,-9.277,117.676,0
1553632618.976,83.008,44.922,30.273,-13.184,-1000.000,0
1553632618.980,54.199,30.762,20.020,15.625,-478.027,0
1553632618.984,12.695,25.879,17.578,53.223,561.035,0
1553632618.988,23.438,29.785,16.113,58.105,778.809,0
1553632618.992,40.039,27.344,15.625,72.754,998.535,0
1553632618.996,4.395,17.578,12.207,73.242,971.680,0
1553632619.000,-37.598,20.508,11.719,71.289,990.723,0
1553632619.003,31.738,24.902,22.949,70.312,-966.797,0
1553632619.007,101.074,13.184,21.973,31.250,-351.562,0
1553632619.011,63.477,9.766,5.859,56.152,-234.863,0
1553632619.015,-9.766,14.160,3.906,67.871,825.684,0
1553632619.019,77.637,12.207,22.461,50.781,-554.199,0
1553632619.023,137.695,6.348,20.020,59.082,-1000.000,0
1553632619.027,72.754,13.184,9.766,50.293,-195.312,0
1553632619.031,88.867,15.137,10.742,43.457,-389.648,0
1553632619.035,83.984,4.883,11.719,61.523,119.141,0
1553632619.039,68.359,11.230,12.695,46.387,493.164,0
1553632619.043,-2.930,12.207,0.977,51.758,151.367,0
1553632619.046,-59.082,13.184,4.395,72.754,950.684,0
1553632619.050,52.246,13.184,21.484,30.273,227.051,0
1553632619.054,80.566,11.719,12.207,11.230,-693.359,0
1553632619.058,54.688,11.230,11.719,41.016,-392.090,0
1553632619.062,80.566,14.160,21.484,40.039,-661.133,0
1553632619.066,136.719,12.695,20.020,12.207,-1000.000,0
1553632619.070,91.309,9.277,4.883,16.602,-645.020,0
1553632619.074,46.875,11.230,9.766,32.227,-283.203,0
1553632619.078,105.957,12.207,25.391,19.043,-944.336,0
1553632619.082,65.430,10.254,17.578,29.785,-538.086,0
1553632619.085,-18.066,10.742,11.719,58.105,562.988,0
1553632619.089,-25.391,18.555,16.602,43.457,581.543,0
1553632619.093,59.570,22.949,28.320,25.879,-553.223,0
1553632619.097,101.074,20.508,26.855,27.832,-930.664,0
1553632619.101,45.410,16.602,19.043,51.758,-123.535,0
1553632619.105,-15.137,20.508,13.184,67.383,489.258,0
1553632619.109,30.273,26.367,25.879,64.453,113.770,0
1553632619.113,70.801,20.996,31.250,47.852,-589.355,0
1553632619.117,75.195,20.996,24.902,44.922,-527.832,0
1553632619.121,50.293,25.391,23.926,57.617,163.086,0
1553632619.125,76.172,30.762,29.297,38.086,-710.938,0
1553632619.128,72.266,29.297,20.020,40.039,-204.102,0
1553632619.132,-31.250,29.785,7.812,71.777,-839.355,0
1553632619.136,-49.805,35.156,20.996,64.453,631.348,0
1553632619.140,69.336,36.621,36.133,10.742,-699.219,0
1553632619.144,106.934,29.297,29.785,-4.395,-991.699,0
1553632619.148,39.551,27.344,28.320,23.438,-462.891,0
1553632619.152,61.035,33.691,38.086,17.578,-768.066,0
1553632619.156,135.742,35.645,33.203,-21.973,-1000.000,0
1553632619.160,96.191,30.762,24.414,-17.578,-776.367,0
1553632619.164,38.086,27.832,25.391,4.883,-444.336,0
1553632619.168,8.301,34.668,28.320,26.367,-412.598,0
1553632619.171,45.898,34.668,30.762,41.504,-849.609,0
1553632619.175,42.969,30.762,19.531,15.137,-125.977,0
1553632619.179,-82.031,38.574,14.648,30.273,-838.867,0
1553632619.183,-24.902,44.922,36.621,52.246,-6.836,0
1553632619.187,104.492,36.133,39.062,13.672,-1000.000,0
1553632619.191,53.223,29.297,23.438,-5.371,-263.184,0
1553632619.195,17.090,34.668,26.855,1.465,-50.781,0
1553632619.199,83.008,39.551,33.691,-13.184,-1000.000,0
1553632619.203,91.309,31.738,22.949,-16.602,-1000.000,0
1553632619.207,56.641,30.762,11.719,13.672,-373.535,0
1553632619.210,38.086,42.480,18.066,21.973,-491.211,0
1553632619.214,80.566,39.062,34.668,-13.672,-1000.000,0
1553632619.218,92.773,25.879,33.691,-13.184,-1000.000,0
1553632619.222,-24.902,24.414,14.648,23.926,4.395,0
1553632619.226,-70.312,31.738,21.484,46.387,-910.156,0
1553632619.230,13.672,31.250,39.551,20.508,105.957,0
1553632619.234,66.406,23.926,40.527,-0.977,-1000.000,0
1553632619.238,27.832,20.020,36.621,28.320,-86.426,0
1553632619.242,-24.902,19.531,51.758,31.250,-152.832,0
1553632619.246,53.711,20.020,56.641,1.953,-1000.000,0
1553632619.250,62.988,23.926,31.250,9.766,-777.832,0
1553632619.253,9.277,27.344,20.996,12.207,-374.023,0
1553632619.257,56.152,32.715,33.691,3.418,-822.754,0
1553632619.261,92.285,29.785,30.273,-9.766,-1000.000,0
1553632619.265,60.547,30.273,14.648,3.906,-622.070,0
1553632619.269,5.371,31.738,17.090,43.945,686.035,0
1553632619.273,-38.086,38.086,32.715,42.969,872.559,0
1553632619.277,42.480,43.457,41.992,7.324,-583.984,0
1553632619.281,63.477,36.133,26.367,4.395,-450.684,0
1553632619.285,-67.383,37.598,24.902,51.758,-926.270,0
1553632619.289,-26.855,38.086,50.781,34.180,141.602,0
1553632619.293,66.406,28.320,45.898,-11.230,-1000.000,0
1553632619.296,33.691,33.691,27.832,-6.348,-115.723,0
1553632619.300,13.184,39.062,32.715,11.230,-11.719,0
1553632619.304,64.941,38.574,39.062,6.836,-950.195,0
1553632619.308,43.457,39.062,30.762,-6.348,-658.203,0
1553632619.312,14.160,42.969,28.809,-3.418,-252.441,0
1553632619.316,-19.043,41.504,32.227,19.043,678.223,0
1553632619.320,-13.184,38.574,35.156,19.531,946.777,0
1553632619.324,26.855,43.945,31.250,-18.066,68.359,0
1553632619.328,-61.523,42.480,17.090,4.395,196.289,0
1553632619.332,-90.820,46.387,20.996,21.484,869.629,0
1553632619.335,51.758,49.805,35.156,-28.320,-458.008,0
1553632619.339,76.660,38.574,31.250,-30.762,-1000.000,0
1553632619.343,9.277,37.109,21.484,-0.488,395.508,0
1553632619.347,-7.324,42.969,25.391,11.230,566.895,0
1553632619.351,64.453,45.410,31.250,-14.160,-1000.000,0
1553632619.355,66.406,38.086,22.949,-25.879,-587.402,0
1553632619.359,-7.324,38.086,17.090,-10.254,64.941,0
1553632619.363,-24.902,42.480,20.508,-14.160,487.793,0
1553632619.367,-22.949,42.480,28.320,-20.020,756.836,0
1553632619.371,-13.184,37.598,21.484,-7.324,283.203,0
1553632619.375,-66.895,42.480,16.602,5.859,739.746,0
1553632619.378,-41.016,45.410,35.645,-4.395,-120.605,0
1553632619.382,68.848,39.551,40.039,-6.348,-1000.000,0
1553632619.386,38.086,39.062,17.578,0.488,-125.977,0
1553632619.390,-60.547,42.480,14.648,-0.488,670.898,0
1553632619.394,10.254,43.457,36.133,-16.113,-625.000,0
1553632619.398,90.820,42.480,28.320,-23.438,-1000.000,0
1553632619.402,32.227,46.387,23.438,-5.371,-141.602,0
1553632619.406,-12.207,44.922,25.391,2.930,385.742,0
1553632619.410,-5.859,41.992,24.414,2.441,562.988,0
1553632619.414,18.555,45.410,30.273,-5.371,416.016,0
1553632619.418,-48.340,41.992,21.484,23.438,290.527,0
1553632619.421,-125.977,43.457,30.273,47.363,974.121,0
1553632619.425,6.348,48.828,43.945,1.465,-317.383,0
1553632619.429,68.359,39.551,31.738,2.441,-1000.000,0
1553632619.433,24.902,39.551,25.391,-0.977,-98.145,0
1553632619.437,19.531,46.875,29.785,-31.250,-426.758,0
1553632619.441,74.219,43.945,33.691,-60.059,-1000.000,0
1553632619.445,49.805,36.133,23.926,-37.109,-572.754,0
1553632619.449,-2.441,40.039,23.926,-4.883,-97.168,0
1553632619.453,42.969,45.410,32.227,-9.766,-984.375,0
1553632619.457,26.367,40.039,24.902,-7.324,-69.336,0
1553632619.460,-40.039,42.969,19.531,8.301,-901.855,0
1553632619.464,-47.363,49.316,22.461,5.859,669.434,0
1553632619.468,28.320,50.781,32.715,-5.859,-417.480,0
1553632619.472,95.215,45.898,39.062,-18.555,-1000.000,0
1553632619.476,9.277,37.598,20.996,-7.812,-244.629,0
1553632619.480,-109.863,43.945,21.484,41.992,-935.547,0
1553632619.484,-30.273,44.922,43.945,38.574,541.016,0
1553632619.488,43.457,35.645,36.621,-14.160,-830.566,0
1553632619.492,14.160,43.945,24.414,-21.973,-150.391,0
1553632619.496,24.414,52.246,27.344,9.277,132.324,0
1553632619.500,75.195,47.363,34.668,11.230,-1000.000,0
1553632619.503,25.391,43.457,30.273,22.949,186.523,0
1553632619.507,-85.449,43.457,20.996,17.090,-814.941,0
1553632619.511,-116.699,49.805,29.785,4.883,850.098,0
1553632619.515,2.930,50.781,46.387,-10.254,499.512,0
1553632619.519,18.066,41.992,35.645,-5.371,568.359,0
1553632619.523,-16.113,45.898,36.621,20.996,793.457,0
1553632619.527,19.043,50.293,43.945,1.953,-88.867,0
1553632619.531,80.566,47.363,43.945,-18.555,-1000.000,0
1553632619.535,60.547,41.504,36.133,-6.836,-688.477,0
1553632619.539,19.043,43.457,28.320,-2.441,313.477,0
1553632619.543,59.570,39.551,42.480,6.348,-523.438,0
1553632619.546,94.727,35.645,47.363,5.371,-1000.000,0
1553632619.550,-25.391,50.781,22.461,9.277,228.516,0
1553632619.554,-152.832,65.918,14.648,-2.441,-906.738,0
1553632619.558,-53.711,65.918,33.203,-18.555,976.074,0
1553632619.562,47.363,58.105,36.621,-9.277,-262.207,0
1553632619.566,17.090,57.617,20.508,7.812,-231.934,0
1553632619.570,-10.254,63.477,15.625,6.348,411.621,0
1553632619.574,53.711,64.941,25.879,-10.254,-914.551,0
1553632619.578,79.590,65.918,16.113,-16.602,-1000.000,0
1553632619.582,2.930,64.941,10.254,6.836,137.207,0
1553632619.585,-37.598,61.523,25.391,22.461,104.492,0
1553632619.589,41.992,65.430,27.832,-8.789,-1000.000,0
1553632619.593,82.520,57.129,17.090,-35.645,-984.863,0
1553632619.597,-36.621,50.781,3.906,-2.441,233.887,0
1553632619.601,-84.473,59.570,13.672,34.668,-804.199,0
1553632619.605,19.043,56.641,34.668,10.254,197.266,0
1553632619.609,63.965,55.664,25.391,-11.719,-1000.000,0
1553632619.613,-4.395,59.082,18.066,0.000,68.848,0
1553632619.617,-40.527,58.594,29.297,2.441,881.348,0
1553632619.621,47.363,59.082,28.809,-1.465,-464.844,0
1553632619.625,52.246,55.176,20.508,-23.926,-886.230,0
1553632619.628,-31.250,50.293,18.555,-18.066,177.246,0
1553632619.632,16.602,56.152,25.879,2.441,-439.453,0
1553632619.636,97.656,57.617,23.438,-8.789,-1000.000,0
1553632619.640,9.766,49.316,19.043,-0.977,129.883,0
1553632619.644,-60.059,47.363,21.484,-8.301,-923.340,0
1553632619.648,-51.758,49.316,26.855,20.020,978.516,0
1553632619.652,-16.113,48.340,35.156,11.230,251.465,0
1553632619.656,-19.043,39.551,24.902,-6.836,30.762,0
1553632619.660,-129.883,44.922,17.578,34.180,991.211,0
1553632619.664,-85.449,56.641,36.621,-1.953,899.902,0
1553632619.668,11.719,45.898,37.598,-42.969,-385.742,0
1553632619.671,7.812,40.527,29.785,-24.902,-194.336,0
1553632619.675,1.465,49.805,29.785,-21.973,630.371,0
1553632619.679,37.598,51.270,34.180,-25.879,-468.750,0
1553632619.683,73.730,43.945,36.133,-15.137,-1000.000,0
1553632619.687,25.391,44.434,29.297,-12.207,-211.914,0
1553632619.691,-65.918,43.945,26.855,-8.301,963.867,0
1553632619.695,-62.500,43.945,27.344,-2.930,974.609,0
1553632619.699,-11.719,48.828,25.391,-17.578,802.246,0
1553632619.703,-105.957,46.387,15.625,14.160,827.148,0
1553632619.707,-126.465,43.945,27.344,33.203,-998.535,0
1553632619.710,15.625,44.434,44.922,-18.066,320.801,0
1553632619.714,29.297,35.645,30.273,-22.949,-533.203,0
1553632619.718,10.254,39.551,19.531,0.977,228.516,0
1553632619.722,24.414,49.316,29.785,-4.883,-178.223,0
1553632619.726,61.035,45.898,27.832,-18.555,-1000.000,0
1553632619.730,0.488,43.945,19.531,-13.672,100.098,0
1553632619.734,-33.691,41.992,25.391,-1.465,691.895,0
1553632619.738,-23.438,37.598,34.668,16.113,835.938,0
1553632619.742,11.230,41.504,41.016,-9.277,585.938,0
1553632619.746,8.789,40.527,26.855,-12.695,9.277,0
1553632619.750,-98.145,45.898,19.531,18.555,955.566,0
1553632619.753,-45.410,58.105,38.086,6.348,753.418,0
1553632619.757,10.254,47.852,39.551,12.207,254.883,0
1553632619.761,-28.809,43.457,35.156,-0.977,668.945,0
1553632619.765,-43.945,49.805,37.598,-28.320,152.832,0
1553632619.769,34.668,44.922,40.039,-17.090,-983.887,0
1553632619.773,65.918,33.203,42.969,-16.113,-1000.000,0
1553632619.777,-2.441,36.133,42.480,-9.766,-227.051,0
1553632619.781,-6.836,42.480,37.109,-16.113,-389.648,0
1553632619.785,20.996,48.340,18.066,-13.184,131.348,0
1553632619.789,13.672,46.387,29.297,-7.812,623.047,0
1553632619.793,-77.148,45.898,27.344,-10.254,327.148,0
1553632619.796,-89.355,51.270,21.484,36.133,-941.406,0
1553632619.800,45.410,44.922,43.457,20.996,-121.582,0
1553632619.804,70.312,44.434,31.250,-24.902,-1000.000,0
1553632619.808,0.488,39.062,35.156,-32.227,62.988,0
1553632619.812,6.348,52.246,31.250,-15.137,-433.105,0
1553632619.816,38.086,49.316,29.785,-25.391,-472.168,0
1553632619.820,-25.391,33.203,32.715,-22.949,975.098,0
1553632619.824,2.930,38.574,35.645,13.672,389.160,0
1553632619.828,64.453,44.434,30.762,-1.953,-872.070,0
1553632619.832,14.160,44.434,32.227,-22.461,104.980,0
1553632619.835,-33.203,37.598,38.086,-17.090,-924.805,0
1553632619.839,-78.613,41.504,25.391,24.414,971.680,0
1553632619.843,-44.434,45.898,40.039,31.738,731.445,0
1553632619.847,39.062,28.809,62.988,-39.062,-681.641,0
1553632619.851,15.625,31.738,44.434,-32.227,-192.383,0
1553632619.855,-11.230,39.551,30.762,15.137,345.703,0
1553632619.859,43.945,33.691,53.223,-18.555,-958.496,0
1553632619.863,87.891,32.715,43.945,-34.180,-1000.000,0
1553632619.867,55.176,39.062,27.344,-12.207,-96.680,0
1553632619.871,35.645,41.016,51.270,-12.207,-268.555,0
1553632619.875,20.508,40.527,44.922,-2.930,-459.473,0
1553632619.878,-7.324,33.691,26.367,16.113,952.148,0
1553632619.882,-78.613,31.250,24.902,32.715,951.172,0
1553632619.886,-104.980,38.574,25.879,32.227,960.938,0
1553632619.890,-27.344,41.504,44.922,-17.578,526.855,0
1553632619.894,6.836,31.250,49.316,-29.785,-572.266,0
1553632619.898,-11.230,36.133,34.180,24.902,-19.043,0
1553632619.902,6.836,39.062,37.598,18.066,-81.055,0
1553632619.906,63.477,28.320,45.410,-27.832,-1000.000,0
1553632619.910,34.180,39.062,24.902,-8.789,-685.059,0
1553632619.914,11.230,39.551,24.902,15.137,215.332,0
1553632619.918,44.434,45.898,28.320,0.977,-618.164,0
1553632619.921,73.730,42.480,31.250,-6.348,-1000.000,0
1553632619.925,12.207,22.949,27.344,20.020,236.328,0
1553632619.929,-104.004,33.203,33.691,16.113,-891.602,0
1553632619.933,-48.828,43.457,36.133,36.133,928.223,0
1553632619.937,9.766,35.645,32.227,48.828,822.266,0
1553632619.941,-39.551,31.250,32.715,42.969,897.461,0
1553632619.945,-50.293,35.156,31.250,24.414,927.246,0
1553632619.949,11.230,38.086,42.480,3.906,-154.297,0
1553632619.953,56.152,37.598,41.504,-10.742,-1000.000,0
1553632619.957,15.137,29.785,43.457,-43.457,-144.043,0
1553632619.960,12.695,39.551,39.062,20.996,7.324,0
1553632619.964,67.383,44.434,24.414,40.527,-1000.000,0
1553632619.968,76.660,48.340,33.691,-10.742,-1000.000,0
1553632619.972,-70.312,40.527,25.391,13.672,231.445,0
1553632619.976,-126.953,33.691,16.602,38.086,-864.746,0
1553632619.980,24.414,39.551,37.598,-16.602,-86.914,0
1553632619.984,89.844,40.039,32.227,-42.969,-1000.000,0
1553632619.988,44.922,45.898,21.973,14.160,-76.660,0
1553632619.992,-19.043,35.156,30.762,8.789,658.691,0
1553632619.996,-28.809,32.715,44.434,-25.391,381.836,0
1553632620.000,3.906,41.504,23.926,2.930,-424.805,0
1553632620.003,7.812,32.715,28.320,16.113,45.410,0
1553632620.007,7.812,37.109,41.504,1.465,-344.727,0
1553632620.011,66.406,36.621,41.504,6.836,-1000.000,0
1553632620.015,84.961,31.738,36.621,15.137,-548.340,0
1553632620.019,-5.371,39.062,28.809,33.203,764.160,0
1553632620.023,-1.465,61.523,12.207,32.715,-893.066,0
1553632620.027,59.570,50.781,29.785,-4.883,-209.473,0
1553632620.031,-3.906,29.297,38.574,-4.395,-387.695,0
1553632620.035,-110.352,50.781,26.367,7.812,-953.613,0
1553632620.039,-20.996,54.688,43.457,-2.441,867.676,0
1553632620.043,53.711,32.715,53.223,-10.254,-443.359,0
1553632620.046,23.438,40.039,31.250,37.598,-226.074,0
1553632620.050,-31.738,49.316,17.090,33.203,692.871,0
1553632620.054,-23.438,46.875,50.781,6.348,657.715,0
1553632620.058,71.289,49.805,29.297,-0.977,-324.707,0
1553632620.062,61.035,56.152,-3.418,14.648,-296.875,0
1553632620.066,-4.883,43.457,27.344,42.480,-955.078,0
1553632620.070,-21.973,44.922,37.109,47.852,-976.562,0
1553632620.074,-6.348,38.574,38.086,5.371,655.762,0
1553632620.078,-69.336,35.645,18.555,27.832,656.738,0
1553632620.082,-110.840,55.176,13.672,52.734,-943.359,0
1553632620.085,12.695,47.363,34.180,-2.930,438.477,0
1553632620.089,11.230,39.551,39.062,-14.648,-462.402,0
1553632620.093,27.832,35.645,26.855,20.996,200.684,0
1553632620.097,54.199,44.434,29.785,2.441,-140.625,0
1553632620.101,55.176,52.246,39.062,-5.371,-1000.000,0
1553632620.105,62.500,45.410,20.996,-10.254,-516.113,0
1553632620.109,21.484,39.062,29.297,5.859,348.145,0
1553632620.113,23.438,40.039,33.691,30.762,602.539,0
1553632620.117,9.277,48.828,12.695,36.133,966.797,0
1553632620.121,-16.602,39.551,25.879,39.062,958.984,0
1553632620.125,-91.309,40.527,24.414,37.109,975.586,0
1553632620.128,-41.016,57.617,28.809,41.504,969.727,0
1553632620.132,78.613,45.898,28.809,27.832,-290.039,0
1553632620.136,20.508,28.809,29.297,20.508,-166.504,0
1553632620.140,34.668,55.176,15.137,41.016,280.273,0
1553632620.144,65.430,47.852,24.414,0.000,-1000.000,0
1553632620.148,24.414,28.320,32.227,-41.504,-1000.000,0
1553632620.152,10.254,45.898,5.859,-3.906,118.652,0
1553632620.156,49.316,48.828,19.043,37.598,-39.062,0
1553632620.160,13.672,45.410,45.898,-26.855,164.062,0
1553632620.164,19.531,57.129,25.879,-42.969,751.953,0
1553632620.168,-2.441,48.828,-4.883,57.617,490.723,0
1553632620.171,-108.398,42.969,22.949,71.777,-916.504,0
1553632620.175,17.578,47.852,38.574,38.086,873.047,0
1553632620.179,54.199,32.227,36.621,-3.906,-263.672,0
1553632620.183,7.812,40.039,33.203,-14.648,149.902,0
1553632620.187,62.012,48.340,28.320,34.180,99.121,0
1553632620.191,101.074,44.922,39.062,17.578,-1000.000,0
1553632620.195,35.156,43.945,32.227,-17.578,-560.059,0
1553632620.199,-16.113,35.645,28.809,-17.578,73.730,0
1553632620.203,40.039,35.645,39.551,-34.180,-881.348,0
1553632620.207,6.348,45.898,25.879,-17.578,141.602,0
1553632620.210,-54.199,49.805,14.160,-27.344,-885.254,0
1553632620.214,-112.793,41.992,24.414,12.207,923.828,0
1553632620.218,-60.059,47.363,42.480,12.695,-991.211,0
1553632620.222,55.176,39.551,43.945,-13.184,-255.371,0
1553632620.226,1.953,37.109,20.996,23.926,-359.863,0
1553632620.230,-37.109,41.504,19.531,31.250,-905.762,0
1553632620.234,14.160,49.805,27.832,43.457,702.148,0
1553632620.238,42.480,50.781,27.832,-20.020,-807.617,0
1553632620.242,42.969,39.062,35.645,-24.902,-191.895,0
1553632620.246,35.645,39.062,38.574,16.602,65.430,0
1553632620.250,106.934,39.062,36.621,31.738,-1000.000,0
1553632620.253,59.082,39.062,27.344,43.945,212.891,0
1553632620.257,-60.059,33.691,19.531,47.852,-879.883,0
1553632620.261,-79.102,50.781,25.391,44.922,960.449,0
1553632620.265,17.090,49.805,45.410,-17.090,565.918,0
1553632620.269,77.148,31.250,48.828,0.000,-597.168,0
1553632620.273,45.410,44.922,35.156,0.977,-18.555,0
1553632620.277,55.176,42.969,32.227,-8.789,-90.820,0
1553632620.281,104.004,32.227,41.992,-12.695,-1000.000,0
1553632620.285,59.082,38.574,30.273,-20.996,-847.656,0
1553632620.289,-1.465,34.668,21.973,2.441,645.996,0
1553632620.293,-21.973,41.992,33.691,4.395,726.562,0
1553632620.296,14.160,43.945,35.156,-38.086,-784.180,0
1553632620.300,14.160,37.598,20.020,-6.836,163.574,0
1553632620.304,-81.055,44.434,24.902,39.551,-825.684,0
1553632620.308,-45.898,55.176,44.434,1.953,875.977,0
1553632620.312,71.777,51.270,40.527,-28.320,-421.387,0
1553632620.316,58.594,46.387,17.578,4.395,-235.840,0
1553632620.320,19.043,44.434,30.762,-5.859,385.254,0
1553632620.324,46.387,50.293,41.504,-33.691,-914.551,0
1553632620.328,88.379,44.922,33.691,-18.555,-1000.000,0
1553632620.332,6.348,29.785,38.086,20.508,-121.582,0
1553632620.335,-13.672,37.598,36.133,62.988,-3.906,0
1553632620.339,98.633,38.086,47.852,31.250,-1000.000,0
1553632620.343,91.309,39.551,43.457,-21.484,-1000.000,0
1553632620.347,-2.930,42.480,28.320,-10.742,197.266,0
1553632620.351,-29.297,52.734,20.508,29.297,-767.090,0
1553632620.355,6.836,45.410,36.133,5.859,130.371,0
1553632620.359,60.547,33.203,41.992,2.930,-1000.000,0
1553632620.363,3.906,36.133,17.578,73.242,278.320,0
1553632620.367,-58.594,44.922,34.668,39.062,-819.824,0
1553632620.371,0.000,49.316,46.875,-40.527,-140.625,0
1553632620.375,32.715,34.180,32.715,-38.086,-897.461,0
1553632620.378,9.766,37.109,30.762,-22.461,171.387,0
1553632620.382,1.953,51.270,37.109,-11.719,-293.945,0
1553632620.386,45.410,52.734,38.574,-57.129,-1000.000,0
1553632620.390,-6.348,44.434,27.832,-82.031,-548.340,0
1553632620.394,-77.148,43.457,13.184,-57.129,813.477,0
1553632620.398,-73.730,48.828,22.949,-19.531,-911.133,0
1553632620.402,10.742,47.363,41.016,-0.977,284.668,0
1553632620.406,-41.504,41.992,26.855,-32.715,88.867,0
1553632620.410,-161.133,46.387,6.348,-16.113,956.055,0
1553632620.414,-52.246,57.617,24.902,-12.695,959.473,0
1553632620.418,29.297,46.387,32.227,-39.062,-364.258,0
1553632620.421,8.301,38.574,25.391,-21.973,-190.918,0
1553632620.425,-4.395,45.898,20.508,9.766,724.609,0
1553632620.429,27.832,46.387,34.668,10.254,-502.930,0
1553632620.433,66.406,40.039,36.133,-7.812,-1000.000,0
1553632620.437,58.594,45.898,25.391,18.555,-188.477,0
1553632620.441,10.254,47.363,29.297,45.898,-969.238,0
1553632620.445,-5.859,43.945,34.668,47.363,971.680,0
1553632620.449,62.012,44.922,37.598,17.090,-317.871,0
1553632620.453,-26.367,41.504,22.461,16.113,-43.457,0
1553632620.457,-101.074,50.781,23.926,42.969,-843.750,0
1553632620.460,37.109,53.711,41.992,5.371,285.156,0
1553632620.464,10.254,39.551,29.785,-14.648,-55.176,0
1553632620.468,-39.551,41.504,28.320,5.859,767.090,0
1553632620.472,11.719,46.875,45.410,13.672,-45.898,0
1553632620.476,72.266,43.457,46.387,-5.371,-1000.000,0
1553632620.480,44.434,41.992,34.668,-7.812,-544.922,0
1553632620.484,-9.277,44.434,26.855,4.395,428.711,0
1553632620.488,-25.879,45.410,30.762,14.648,747.559,0
1553632620.492,-4.395,41.992,45.410,20.996,875.488,0
1553632620.496,27.832,40.527,36.133,34.668,613.770,0
1553632620.500,-56.152,48.828,28.809,73.242,918.457,0
1553632620.503,-37.109,52.734,49.316,43.457,-974.121,0
1553632620.507,45.898,40.527,49.805,-14.160,-330.078,0
1553632620.511,6.348,39.062,30.273,1.953,-168.945,0
1553632620.515,-12.695,43.457,34.668,13.672,368.164,0
1553632620.519,79.590,47.852,40.039,1.953,-970.703,0
1553632620.523,47.852,45.410,20.996,-23.438,-1000.000,0
1553632620.527,-18.066,43.457,22.461,-31.250,84.961,0
1553632620.531,31.250,45.410,35.645,4.883,-48.828,0
1553632620.535,14.160,45.410,28.320,12.695,212.402,0
1553632620.539,5.371,43.457,31.738,0.977,860.352,0
1553632620.543,-53.711,40.039,26.855,26.367,572.266,0
1553632620.546,-112.793,47.363,29.297,49.316,-904.785,0
1553632620.550,-10.742,46.387,45.410,-15.625,240.723,0
1553632620.554,25.879,38.086,41.016,-36.621,-938.965,0
1553632620.558,-12.695,41.504,34.668,0.000,111.816,0
1553632620.562,2.441,45.410,36.133,-23.926,27.832,0
1553632620.566,63.477,40.039,45.410,-28.809,-1000.000,0
1553632620.570,42.969,36.133,31.738,8.789,-583.008,0
1553632620.574,5.371,38.574,29.297,21.973,156.738,0
1553632620.578,24.414,39.551,42.480,12.207,-781.250,0
1553632620.582,12.207,38.574,31.738,15.625,159.668,0
1553632620.585,-22.949,33.203,32.715,19.531,-870.605,0
1553632620.589,-91.797,40.527,33.203,36.621,925.293,0
1553632620.593,-63.477,56.641,37.109,19.531,932.129,0
1553632620.597,20.996,48.828,38.574,-35.645,-400.391,0
1553632620.601,-15.137,45.410,24.414,-1.953,-184.570,0
1553632620.605,-21.973,49.316,28.809,27.832,451.660,0
1553632620.609,59.082,50.293,38.086,-7.812,-874.512,0
1553632620.613,93.750,46.387,29.297,-10.742,-1000.000,0
1553632620.617,45.898,48.828,24.414,13.672,-79.102,0
1553632620.621,6.836,52.734,35.156,16.113,10.742,0
1553632620.625,52.734,51.758,30.762,1.953,-1000.000,0
1553632620.628,33.203,48.340,16.602,18.555,215.332,0
1553632620.632,-74.219,43.457,16.113,40.527,-847.656,0
1553632620.636,-90.820,50.293,23.438,51.270,947.754,0
1553632620.640,9.277,51.270,38.086,1.953,602.051,0
1553632620.644,1.465,43.945,31.738,9.766,700.195,0
1553632620.648,1.953,47.852,35.645,24.414,-946.777,0
1553632620.652,42.480,52.734,37.109,21.484,2.930,0
1553632620.656,55.176,50.293,38.086,30.762,-1000.000,0
1553632620.660,66.406,48.340,27.344,-6.348,-728.516,0
1553632620.664,21.973,46.387,26.855,1.465,220.703,0
1553632620.668,53.223,53.711,37.598,12.695,-576.660,0
1553632620.671,109.375,52.734,34.180,-3.906,-1000.000,0
1553632620.675,5.859,43.945,19.531,3.906,239.258,0
1553632620.679,-100.098,54.199,15.625,54.199,-891.602,0
1553632620.683,-21.484,59.570,42.969,60.547,932.617,0
1553632620.687,50.781,48.340,46.875,7.324,-327.637,0
1553632620.691,-7.324,40.039,32.715,-16.602,-293.457,0
1553632620.695,-6.836,44.434,33.691,40.527,683.594,0
1553632620.699,91.797,49.316,45.898,34.180,-806.152,0
1553632620.703,63.477,45.898,29.785,10.742,-345.703,0
1553632620.707,-22.461,44.922,27.344,49.805,-867.188,0
1553632620.710,8.789,46.875,37.598,18.066,47.363,0
1553632620.714,76.172,45.410,37.598,-9.277,-1000.000,0
1553632620.718,82.520,39.062,38.086,-1.465,-971.191,0
1553632620.722,0.000,41.504,25.391,23.926,260.254,0
1553632620.726,-46.387,45.410,30.273,36.133,-814.941,0
1553632620.730,2.441,46.387,40.527,5.371,67.383,0
1553632620.734,94.727,46.387,32.715,3.418,-1000.000,0
1553632620.738,-11.719,42.969,11.230,53.223,82.520,0
1553632620.742,-87.891,46.875,29.297,45.898,-890.625,0
1553632620.746,44.922,46.387,56.641,2.441,-259.766,0
1553632620.750,67.383,41.016,44.434,-1.953,-937.500,0
1553632620.753,-15.137,36.133,37.598,-2.441,306.641,0
1553632620.757,-1.953,32.715,52.734,-6.836,-409.180,0
1553632620.761,29.785,28.320,51.758,3.906,-368.164,0
1553632620.765,-15.625,26.367,44.434,30.273,976.562,0
1553632620.769,-35.645,25.879,45.410,11.719,919.434,0
1553632620.773,-28.320,28.320,53.223,16.602,967.285,0
1553632620.777,25.391,29.785,58.594,17.578,-208.496,0
1553632620.781,-7.812,20.996,39.062,3.906,-408.203,0
1553632620.785,-131.836,27.344,30.762,29.785,-975.586,0
1553632620.789,-67.383,38.086,49.316,31.738,881.836,0
1553632620.793,23.438,29.785,50.781,-8.789,-520.508,0
1553632620.796,-1.953,23.926,43.457,5.859,-177.246,0
1553632620.800,-10.742,31.250,40.527,25.391,626.953,0
1553632620.804,53.223,34.180,46.875,7.324,-649.902,0
1553632620.808,73.730,32.227,40.039,-5.371,-1000.000,0
1553632620.812,12.695,34.180,34.180,25.879,-181.641,0
1553632620.816,-43.945,32.227,37.598,8.301,998.047,0
1553632620.820,-37.109,34.180,34.668,-8.789,974.121,0
1553632620.824,-28.809,32.227,41.016,16.113,958.984,0
1553632620.828,-98.145,31.250,33.691,39.062,989.746,0
1553632620.832,-123.047,40.039,36.133,26.855,997.070,0
1553632620.835,7.324,35.645,51.758,-0.977,661.133,0
1553632620.839,25.879,25.391,42.969,1.465,-278.320,0
1553632620.843,-12.695,28.809,36.133,3.906,135.254,0
1553632620.847,27.832,34.668,41.016,-2.441,-72.754,0
1553632620.851,72.266,37.109,41.992,-29.297,-1000.000,0
1553632620.855,38.574,38.574,24.414,-1.465,-562.988,0
1553632620.859,-16.602,38.574,22.461,26.855,404.785,0
1553632620.863,-34.668,40.527,35.645,20.020,784.668,0
1553632620.867,-19.043,43.457,42.969,19.531,880.371,0
1553632620.871,-27.832,42.480,29.297,9.277,593.262,0
1553632620.875,-114.258,44.434,23.438,17.090,880.859,0
1553632620.878,-91.309,49.805,38.574,4.395,-898.438,0
1553632620.882,-18.555,43.945,36.621,-17.090,539.062,0
1553632620.886,-33.691,41.504,28.320,-2.441,437.988,0
1553632620.890,-17.090,41.992,32.715,2.441,289.551,0
1553632620.894,65.918,46.387,38.086,-12.207,-907.227,0
1553632620.898,81.055,44.434,34.668,-26.855,-1000.000,0
1553632620.902,3.418,44.434,29.785,-1.953,-145.508,0
1553632620.906,-16.602,43.457,33.691,2.441,-160.156,0
1553632620.910,-15.137,37.109,35.645,0.000,103.027,0
1553632620.914,-36.133,47.363,31.250,-1.953,985.840,0
1553632620.918,-98.633,45.410,26.855,28.320,770.996,0
1553632620.921,-133.789,43.945,30.273,22.949,-919.922,0
1553632620.925,-14.160,48.828,41.504,-29.297,129.395,0
1553632620.929,31.738,39.551,33.203,-20.020,-960.938,0
1553632620.933,-3.418,38.574,27.832,-2.930,-17.090,0
1553632620.937,-24.414,40.527,28.809,3.418,590.820,0
1553632620.941,-2.441,38.086,32.227,-8.789,179.688,0
1553632620.945,8.301,36.133,29.785,-11.230,-330.078,0
1553632620.949,-16.602,37.109,28.320,0.000,150.879,0
1553632620.953,7.812,41.504,37.598,-9.766,-632.812,0
1553632620.957,-20.996,41.016,31.250,-20.996,162.598,0
1553632620.960,-64.941,46.387,20.020,-16.113,-836.426,0
1553632620.964,-104.004,50.293,20.508,12.207,931.152,0
1553632620.968,-60.059,49.805,42.480,25.879,939.453,0
1553632620.972,35.645,43.945,45.410,-5.859,-440.430,0
1553632620.976,-9.277,39.062,29.785,-28.320,-204.102,0
1553632620.980,-44.434,41.016,33.691,-20.020,395.996,0
1553632620.984,42.969,44.434,40.039,-8.789,-897.949,0
1553632620.988,72.266,39.551,38.086,-16.602,-1000.000,0
1553632620.992,16.113,43.457,32.227,-17.090,-106.445,0
1553632620.996,-21.484,45.898,26.367,6.836,757.324,0
1553632621.000,-39.551,43.457,38.086,15.137,647.949,0
1553632621.003,-62.012,42.480,39.062,-9.766,967.285,0
1553632621.007,-122.559,42.480,24.414,17.578,986.328,0
1553632621.011,-150.879,46.387,31.738,32.227,995.117,0
1553632621.015,-31.250,42.480,47.363,10.742,702.637,0
1553632621.019,11.230,36.133,40.039,-15.625,-382.324,0
1553632621.023,-27.344,49.316,28.320,-41.504,-14.648,0
1553632621.027,-28.320,57.617,25.879,-44.434,-55.664,0
1553632621.031,32.715,45.898,35.645,-17.090,-1000.000,0
1553632621.035,27.832,45.898,27.832,-12.695,-691.895,0
1553632621.039,-29.297,59.082,17.090,-41.016,73.242,0
1553632621.043,23.926,65.430,25.879,-29.297,-741.211,0
1553632621.046,62.500,63.477,20.508,-20.996,-1000.000,0
1553632621.050,13.672,59.570,2.930,-7.324,252.441,0
1553632621.054,-118.652,64.453,3.906,20.508,-921.875,0
1553632621.058,-126.465,60.059,25.391,15.137,-943.848,0
1553632621.062,15.625,49.805,30.273,-3.418,-18.555,0
1553632621.066,-13.184,47.363,15.625,-16.113,-243.652,0
1553632621.070,-62.500,49.316,16.113,-10.742,712.891,0
1553632621.074,5.859,56.152,27.832,-30.762,-469.238,0
1553632621.078,35.645,53.711,26.855,-61.035,-1000.000,0
1553632621.082,4.883,49.316,25.391,-32.227,-94.238,0
1553632621.085,-0.488,53.223,28.320,3.418,31.738,0
1553632621.089,52.734,52.246,26.855,5.859,-1000.000,0
1553632621.093,62.500,50.781,21.973,-7.812,-1000.000,0
1553632621.097,-31.250,54.688,19.043,2.930,40.527,0
1553632621.101,-60.547,59.082,17.090,20.996,-816.895,0
1553632621.105,15.625,58.105,26.367,4.395,29.785,0
1553632621.109,54.199,43.945,37.109,-17.090,-1000.000,0
1553632621.113,-72.754,39.062,22.949,6.348,67.383,0
1553632621.117,-131.348,46.387,27.832,23.926,-808.105,0
1553632621.121,-12.695,45.410,40.527,-13.672,503.906,0
1553632621.125,11.719,40.527,32.715,-10.742,-437.500,0
1553632621.128,-22.949,39.551,30.273,-4.883,167.480,0
1553632621.132,-10.742,47.363,30.762,-7.324,-79.590,0
1553632621.136,44.434,48.828,36.133,11.719,-1000.000,0
1553632621.140,23.438,42.969,26.855,-0.488,-588.379,0
1553632621.144,-30.273,44.434,16.602,-2.930,756.348,0
1553632621.148,-33.203,47.852,28.809,4.883,-920.410,0
1553632621.152,4.395,50.293,35.156,-11.719,183.594,0
1553632621.156,-11.230,43.945,27.832,10.742,-61.523,0
1553632621.160,-110.840,46.875,26.855,49.805,965.820,0
1553632621.164,-47.363,53.223,41.016,31.250,878.906,0
1553632621.168,42.480,43.945,38.086,-10.742,-465.332,0
1553632621.171,-27.344,41.992,30.273,-7.324,-262.207,0
1553632621.175,-62.500,44.434,32.227,11.719,-925.781,0
1553632621.179,14.160,47.852,40.527,11.230,-38.574,0
1553632621.183,60.547,46.875,37.598,-6.348,-1000.000,0
1553632621.187,33.203,46.875,27.344,30.273,-195.312,0
1553632621.191,-7.324,50.781,23.438,47.363,-998.535,0
1553632621.195,-21.973,50.781,28.809,6.836,-937.500,0
1553632621.199,37.109,51.758,35.156,-4.883,-143.555,0
1553632621.203,-38.574,48.340,18.066,29.785,-67.871,0
1553632621.207,-120.605,54.199,20.508,38.086,-877.441,0
1553632621.210,15.137,57.617,42.480,3.906,351.074,0
1553632621.214,27.344,42.969,36.621,-23.926,-600.586,0
1553632621.218,-17.578,39.551,34.668,-17.090,102.051,0
1553632621.222,17.578,48.828,40.527,15.625,-109.863,0
1553632621.226,69.336,41.992,42.969,-1.465,-1000.000,0
1553632621.230,32.227,36.621,29.297,2.930,-620.117,0
1553632621.234,-6.348,41.016,24.902,43.457,680.176,0
1553632621.238,-31.738,50.293,34.180,20.996,-864.746,0
1553632621.242,-35.645,60.547,33.691,-21.973,541.016,0
1553632621.246,-15.625,53.223,21.973,-13.672,69.824,0
1553632621.250,-105.957,52.734,19.531,16.602,918.457,0
1553632621.253,-83.984,58.594,41.992,12.207,957.520,0
1553632621.257,25.391,52.246,41.016,-22.949,-524.414,0
1553632621.261,12.695,50.781,22.949,-4.883,-162.109,0
1553632621.265,-22.949,49.805,26.855,19.043,295.898,0
1553632621.269,43.457,50.781,38.086,-6.836,-991.699,0
1553632621.273,63.965,48.828,31.250,-22.949,-1000.000,0
1553632621.277,17.578,46.387,30.762,-14.160,-159.180,0
1553632621.281,11.719,51.270,32.715,-4.883,-179.688,0
1553632621.285,-15.625,49.316,22.949,-6.348,198.730,0
1553632621.289,-12.207,49.805,26.367,-4.883,822.754,0
1553632621.293,-80.078,50.781,18.555,19.043,534.668,0
1553632621.296,-154.297,53.223,20.020,41.504,-907.227,0
1553632621.300,-13.672,53.223,41.992,6.836,217.773,0
1553632621.304,21.484,45.410,36.621,-17.578,-971.680,0
1553632621.308,-14.160,43.457,23.438,-6.836,95.703,0
1553632621.312,4.395,49.805,28.320,-8.789,32.715,0
1553632621.316,48.340,49.805,36.133,-26.367,-1000.000,0
1553632621.320,9.277,42.969,25.879,-19.043,-616.211,0
1553632621.324,-9.766,46.387,26.855,1.465,61.523,0
1553632621.328,34.668,51.270,36.133,-9.277,-833.008,0
1553632621.332,20.020,49.316,33.691,9.766,103.027,0
1553632621.335,-29.785,51.270,27.344,62.012,-897.461,0
1553632621.339,-137.207,53.223,21.484,56.152,937.012,0
1553632621.343,-75.195,59.570,37.109,12.695,883.301,0
1553632621.347,57.617,51.270,43.945,-10.742,-417.480,0
1553632621.351,19.531,40.527,24.902,6.836,-235.352,0
1553632621.355,-53.223,45.898,20.020,11.719,783.691,0
1553632621.359,1.465,51.758,33.203,-17.090,-504.395,0
1553632621.363,72.266,50.293,29.785,-23.438,-1000.000,0
1553632621.367,5.859,47.852,23.926,-11.719,-79.590,0
1553632621.371,-24.902,51.270,30.273,-2.930,20.020,0
1553632621.375,26.855,50.293,34.180,-12.207,-1000.000,0
1553632621.378,6.836,43.945,27.344,-0.488,186.523,0
1553632621.382,-97.168,43.945,22.949,43.457,-870.117,0
1553632621.386,-122.559,54.199,25.391,30.273,924.316,0
1553632621.390,-9.766,56.152,38.086,-7.324,601.562,0
1553632621.394,54.199,47.363,35.156,-15.625,-536.621,0
1553632621.398,4.883,46.387,27.832,-4.883,-20.996,0
1553632621.402,-8.789,49.805,29.297,7.812,4.883,0
1553632621.406,70.801,49.805,28.809,-15.137,-1000.000,0
1553632621.410,58.105,42.969,22.461,3.906,-870.605,0
1553632621.414,-3.418,41.504,16.113,23.926,448.730,0
1553632621.418,-18.555,48.340,21.973,14.160,604.492,0
1553632621.421,19.043,46.875,34.668,4.395,-763.672,0
1553632621.425,-5.371,40.039,25.879,-4.883,140.137,0
1553632621.429,-113.770,46.387,22.949,59.570,-832.031,0
1553632621.433,-70.801,52.734,43.945,76.172,876.953,0
1553632621.437,50.781,50.781,42.969,-3.906,-368.652,0
1553632621.441,15.625,49.805,20.996,-26.855,-332.520,0
1553632621.445,-33.691,49.316,24.414,-0.488,649.902,0
1553632621.449,39.551,52.246,41.016,2.930,-528.320,0
1553632621.453,87.402,49.316,41.504,-11.230,-1000.000,0
1553632621.457,7.324,48.340,26.855,-15.625,-55.664,0
1553632621.460,-17.578,55.176,24.902,-4.395,142.578,0
1553632621.464,49.316,52.246,32.715,-11.230,-1000.000,0
1553632621.468,46.875,45.898,29.785,-20.996,-1000.000,0
1553632621.472,-18.066,47.852,21.973,0.977,-1.953,0
1553632621.476,-61.035,51.758,24.902,24.414,-820.312,0
1553632621.480,-10.742,55.176,34.668,-7.324,196.777,0
1553632621.484,72.266,54.199,39.551,-24.902,-1000.000,0
1553632621.488,-50.293,52.246,25.391,9.277,57.129,0
1553632621.492,-113.281,57.617,29.785,10.742,-925.781,0
1553632621.496,1.465,53.223,43.457,-21.484,-261.230,0
1553632621.500,33.691,45.410,32.715,-15.137,-959.473,0
1553632621.503,10.254,45.410,27.832,15.625,210.449,0
1553632621.507,9.277,53.223,31.738,-1.953,-132.812,0
1553632621.511,49.316,49.316,35.645,-19.531,-1000.000,0
1553632621.515,22.949,38.086,29.785,-13.184,-591.797,0
1553632621.519,-38.574,40.039,23.926,12.207,779.785,0
1553632621.523,-26.367,51.758,29.297,6.348,-953.125,0
1553632621.527,-3.906,52.734,32.715,-13.672,470.215,0
1553632621.531,-48.828,41.992,28.809,15.137,656.250,0
1553632621.535,-120.117,48.340,28.320,45.410,-928.711,0
1553632621.539,-34.668,55.176,42.969,13.672,854.980,0
1553632621.543,37.109,47.363,41.992,-15.625,-399.414,0
1553632621.546,-21.484,46.387,33.203,7.812,-181.641,0
1553632621.550,-39.551,50.781,34.180,6.836,557.617,0
1553632621.554,-9.277,53.711,31.738,-9.766,-688.965,0
1553632621.558,44.434,47.363,34.180,-32.715,-1000.000,0
1553632621.562,23.438,42.480,34.180,-21.484,-177.246,0
1553632621.566,-29.297,41.504,23.926,22.461,975.098,0
1553632621.570,-27.832,43.457,31.250,27.832,-975.098,0
1553632621.574,11.719,48.340,41.504,10.742,-152.832,0
1553632621.578,-84.473,52.734,26.855,-5.859,-47.363,0
1553632621.582,-125.977,64.941,19.043,4.883,-870.117,0
1553632621.585,18.066,53.223,34.668,9.766,423.340,0
1553632621.589,0.488,47.852,29.297,9.766,604.980,0
1553632621.593,-37.598,60.059,29.785,10.742,973.145,0
1553632621.597,9.766,59.570,36.133,3.418,-167.969,0
1553632621.601,93.262,59.570,31.738,7.812,-1000.000,0
1553632621.605,77.148,63.477,14.160,19.043,-586.426,0
1553632621.609,0.977,61.523,1.953,15.625,232.910,0
1553632621.613,-23.926,59.082,10.742,19.531,769.531,0
1553632621.617,9.277,64.453,16.113,15.137,622.559,0
1553632621.621,14.648,49.316,17.578,14.648,23.438,0
1553632621.625,-102.539,51.270,15.625,52.734,889.160,0
1553632621.628,-69.336,64.941,29.785,27.344,-930.664,0
1553632621.632,51.758,54.688,39.062,-18.555,-365.723,0
1553632621.636,31.738,53.223,26.367,-2.441,-152.832,0
1553632621.640,9.277,58.105,25.879,18.066,354.004,0
1553632621.644,73.242,53.711,40.527,4.883,-1000.000,0
1553632621.648,48.340,43.945,30.273,7.324,-321.777,0
1553632621.652,7.324,57.129,22.461,20.020,729.980,0
1553632621.656,41.992,62.500,27.344,-0.488,-219.727,0
1553632621.660,34.180,54.199,21.973,-0.977,219.238,0
1553632621.664,26.367,55.664,30.273,25.391,790.039,0
1553632621.668,-62.500,53.223,21.484,8.301,506.836,0
1553632621.671,-145.508,50.781,26.367,23.438,-919.922,0
1553632621.675,-4.883,51.758,50.781,27.832,0.977,0
1553632621.679,83.496,50.293,39.551,-23.926,-1000.000,0
1553632621.683,11.230,52.734,28.809,-7.324,104.004,0
1553632621.687,4.395,61.523,32.715,20.020,7.324,0
1553632621.691,80.078,59.082,32.715,-6.836,-1000.000,0
1553632621.695,43.457,50.293,21.484,-15.137,-627.441,0
1553632621.699,21.484,55.176,18.555,11.230,-1.465,0
1553632621.703,56.152,57.617,28.809,37.109,-886.230,0
1553632621.707,19.531,49.805,24.414,6.836,138.672,0
1553632621.710,-25.879,49.316,18.066,7.324,-854.492,0
1553632621.714,-93.262,57.129,17.578,50.781,925.781,0
1553632621.718,-70.801,56.641,35.645,23.438,923.340,0
1553632621.722,25.391,44.922,44.434,-21.484,-378.906,0
1553632621.726,13.184,43.457,28.809,-16.602,-204.102,0
1553632621.730,-7.324,50.293,26.855,4.395,347.656,0
1553632621.734,35.645,49.316,41.992,-4.395,-927.734,0
1553632621.738,59.570,48.828,37.598,-6.348,-1000.000,0
1553632621.742,12.695,50.293,29.297,-3.418,-107.422,0
1553632621.746,-6.836,54.199,32.715,-8.789,-36.133,0
1553632621.750,48.340,50.293,33.691,-4.883,-1000.000,0
1553632621.753,12.695,42.480,28.320,15.137,214.355,0
1553632621.757,-104.004,45.410,20.020,2.441,-832.520,0
1553632621.761,-108.398,53.711,23.438,17.578,857.910,0
1553632621.765,-5.371,50.293,42.969,17.578,878.418,0
1553632621.769,-18.066,46.387,35.156,0.977,717.285,0
1553632621.773,-29.785,51.270,33.203,12.695,670.410,0
1553632621.777,-12.695,47.363,46.875,19.043,-59.082,0
1553632621.781,64.453,42.480,48.828,4.883,-1000.000,0
1553632621.785,66.895,43.945,30.273,-1.953,-786.133,0
1553632621.789,4.883,47.363,22.461,16.602,-4.883,0
1553632621.793,49.805,49.316,39.062,-0.977,-669.922,0
1553632621.796,60.059,51.270,37.109,-24.414,-1000.000,0
1553632621.800,18.555,47.852,21.973,11.230,211.426,0
1553632621.804,-85.449,51.758,22.461,54.199,-884.277,0
1553632621.808,-66.406,58.594,41.992,37.109,865.723,0
1553632621.812,44.434,50.781,46.387,-13.184,-420.410,0
1553632621.816,24.902,46.387,24.902,-17.090,-260.742,0
1553632621.820,7.812,52.734,24.414,13.184,506.836,0
1553632621.824,13.672,53.711,37.598,15.625,227.539,0
1553632621.828,8.301,51.270,37.598,7.324,70.801,0
1553632621.832,12.207,52.734,36.621,17.578,-150.879,0
1553632621.835,17.578,53.223,33.691,6.348,59.082,0
1553632621.839,21.484,52.734,35.156,-22.949,-99.121,0
1553632621.843,35.645,48.828,38.574,-22.949,-577.148,0
1553632621.847,-39.551,45.898,23.438,7.324,104.004,0
1553632621.851,-68.359,52.246,30.762,31.250,-879.883,0
1553632621.855,60.547,55.664,43.457,0.977,-213.379,0
1553632621.859,79.590,48.828,41.016,-23.438,-1000.000,0
1553632621.863,20.508,49.316,34.668,-2.441,74.707,0
1553632621.867,21.973,60.059,36.133,16.113,67.871,0
1553632621.871,76.660,56.152,44.434,-4.883,-1000.000,0
1553632621.875,70.312,48.340,37.109,-20.020,-915.527,0
1553632621.878,-0.488,52.734,25.879,22.949,240.234,0
1553632621.882,13.184,59.570,27.344,53.223,543.945,0
1553632621.886,19.043,53.711,46.387,17.578,278.809,0
1553632621.890,-25.391,45.410,50.781,-18.066,71.289,0
1553632621.894,-38.086,45.410,38.086,-1.465,631.836,0
1553632621.898,-43.457,48.828,45.898,6.348,-852.051,0
1553632621.902,-22.949,45.410,56.641,-20.020,390.137,0
1553632621.906,-9.766,30.273,43.457,-8.789,51.758,0
1553632621.910,-112.793,28.320,40.039,8.301,948.242,0
1553632621.914,-108.398,35.156,65.918,-30.273,820.312,0
1553632621.918,1.465,22.949,63.965,-42.480,-584.473,0
1553632621.921,-47.363,11.719,56.152,-14.160,-132.812,0
1553632621.925,-65.918,11.719,63.965,-3.418,300.293,0
1553632621.929,25.879,13.672,65.430,-6.836,-946.289,0
1553632621.933,19.531,7.812,58.105,-7.324,-1000.000,0
1553632621.937,-21.484,11.230,46.875,3.906,-172.852,0
1553632621.941,-41.504,21.973,40.527,11.230,958.496,0
1553632621.945,-45.410,20.508,48.828,9.277,967.285,0
1553632621.949,-38.574,17.090,48.340,-10.254,540.527,0
1553632621.953,-118.652,16.602,31.738,5.859,533.203,0
1553632621.957,-151.367,21.973,34.668,21.484,-980.957,0
1553632621.960,-20.508,21.973,48.340,-21.484,455.078,0
1553632621.964,14.648,13.672,43.945,-26.855,-448.242,0
1553632621.968,-27.832,18.066,40.039,1.465,55.176,0
1553632621.972,-6.348,24.902,43.945,8.301,-137.207,0
1553632621.976,62.988,24.414,47.852,-12.695,-1000.000,0
1553632621.980,26.367,23.438,38.574,-10.742,-542.480,0
1553632621.984,4.883,26.855,32.227,21.484,158.203,0
1553632621.988,-10.742,33.691,33.691,39.062,544.434,0
1553632621.992,-35.156,40.039,38.086,26.367,849.121,0
1553632621.996,-34.668,30.762,38.574,24.902,385.254,0
1553632622.000,-119.141,27.832,29.785,59.570,859.375,0
1553632622.003,-76.660,35.156,45.898,41.016,-848.633,0
1553632622.007,21.484,24.414,49.316,9.766,-225.098,0
1553632622.011,-12.207,25.391,30.273,20.996,-185.547,0
1553632622.015,-42.969,30.273,25.879,6.836,381.836,0
1553632622.019,28.809,29.297,37.598,-10.742,-913.086,0
1553632622.023,57.617,26.367,36.133,-12.695,-1000.000,0
1553632622.027,27.832,27.344,31.250,11.719,-152.832,0
1553632622.031,9.766,31.738,33.691,22.461,-201.660,0
1553632622.035,-30.273,29.297,33.691,21.973,171.387,0
1553632622.039,-18.066,37.109,35.645,26.855,827.637,0
1553632622.043,-83.008,34.668,23.926,11.719,535.645,0
1553632622.046,-133.789,33.691,25.879,17.578,-940.430,0
1553632622.050,-3.418,43.457,40.039,6.836,789.062,0
1553632622.054,6.836,39.551,36.133,-18.066,-365.234,0
1553632622.058,-15.625,36.133,35.645,-18.066,-121.582,0
1553632622.062,-25.879,41.504,33.203,-4.395,935.547,0
1553632622.066,2.441,42.969,34.668,-4.395,128.418,0
1553632622.070,34.668,40.527,36.133,-9.277,-629.883,0
1553632622.074,12.695,39.551,26.367,1.465,98.145,0
1553632622.078,26.855,36.133,28.320,-0.977,-696.777,0
1553632622.082,7.324,37.109,27.344,-10.254,103.516,0
1553632622.085,-58.594,35.645,28.320,6.348,-866.699,0
1553632622.089,-108.887,41.504,26.367,27.832,937.012,0
1553632622.093,-41.504,52.246,36.133,10.742,874.023,0
1553632622.097,60.547,40.527,41.992,-2.930,-464.844,0
1553632622.101,27.344,36.621,27.832,18.066,-218.750,0
1553632622.105,-20.020,41.016,27.832,11.230,271.484,0
1553632622.109,44.922,36.133,41.504,-1.465,-958.008,0
1553632622.113,80.078,37.109,36.621,10.254,-1000.000,0
1553632622.117,19.043,42.969,26.367,14.160,-220.703,0
1553632622.121,-32.715,44.922,34.668,61.523,843.262,0
1553632622.125,24.414,47.363,42.480,40.527,-297.852,0
1553632622.128,31.250,46.387,29.785,-6.348,73.730,0
1553632622.132,-91.797,43.945,19.043,47.363,-868.164,0
1553632622.136,-102.051,43.945,31.738,55.664,999.023,0
1553632622.140,-3.418,41.992,48.828,5.859,431.641,0
1553632622.144,37.109,33.691,44.922,-2.441,-844.727,0
1553632622.148,-27.832,33.691,35.156,5.371,-56.641,0
1553632622.152,-9.766,42.969,31.250,2.441,-52.734,0
1553632622.156,76.172,41.504,35.156,-9.766,-1000.000,0
1553632622.160,41.016,38.574,29.297,-8.301,-798.828,0
1553632622.164,17.578,37.598,28.809,3.906,-85.938,0
1553632622.168,37.109,42.969,40.039,-5.859,-718.262,0
1553632622.171,34.180,45.410,35.645,-17.090,-1000.000,0
1553632622.175,-19.531,41.992,17.578,12.695,234.863,0
1553632622.179,-118.652,44.434,21.973,50.293,-888.672,0
1553632622.183,-72.754,49.316,43.457,31.250,892.090,0
1553632622.187,39.551,47.363,39.551,-8.789,-380.859,0
1553632622.191,6.836,45.898,20.020,-2.441,-351.074,0
1553632622.195,-25.879,48.828,21.484,28.320,665.039,0
1553632622.199,42.969,49.805,41.504,13.184,-536.621,0
1553632622.203,64.941,42.969,39.551,-19.531,-1000.000,0
1553632622.207,8.789,46.387,18.555,8.301,-113.770,0
1553632622.210,-0.977,49.316,22.461,24.902,12.695,0
1553632622.214,38.086,43.945,37.109,0.000,-1000.000,0
1553632622.218,73.242,32.715,36.133,17.578,-1000.000,0
1553632622.222,-16.602,33.203,23.438,45.410,217.285,0
1553632622.226,-118.652,60.547,21.484,19.531,-918.945,0
1553632622.230,-18.066,64.453,39.062,-13.184,-106.934,0
1553632622.234,57.129,52.734,32.715,-16.113,-1000.000,0
1553632622.238,-17.578,57.617,17.090,17.578,101.074,0
1553632622.242,-26.367,62.988,24.902,19.531,703.613,0
1553632622.246,77.637,60.059,31.738,-23.438,-729.004,0
1553632622.250,97.168,62.500,19.531,-29.297,-954.590,0
1553632622.253,22.461,61.035,11.230,11.719,128.418,0
1553632622.257,17.578,61.035,20.996,-1.953,-70.801,0
1553632622.261,26.855,62.500,22.461,-18.555,-289.062,0
1553632622.265,30.762,57.617,23.926,16.113,-169.922,0
1553632622.269,0.000,53.711,24.414,23.926,629.395,0
1553632622.273,-56.641,56.641,28.809,16.602,-888.184,0
1553632622.277,-22.949,57.617,34.180,-6.836,140.137,0
1553632622.281,-8.789,44.434,23.926,-1.953,-103.516,0
1553632622.285,-93.262,49.805,19.531,41.992,972.656,0
1553632622.289,-39.551,63.477,34.668,-3.418,807.617,0
1553632622.293,23.926,50.781,31.250,-28.320,-276.367,0
1553632622.296,-12.207,47.363,23.926,15.137,56.641,0
1553632622.300,-41.992,51.758,26.367,22.461,698.242,0
1553632622.304,20.996,50.781,36.621,1.953,-482.910,0
1553632622.308,89.844,49.316,34.180,-28.809,-1000.000,0
1553632622.312,29.297,46.387,31.250,-14.160,-187.500,0
1553632622.316,-33.203,51.270,26.367,6.348,-998.047,0
1553632622.320,-36.133,55.176,31.250,8.789,-983.398,0
1553632622.324,-2.930,46.387,42.480,1.953,-198.242,0
1553632622.328,7.324,46.387,41.016,1.465,-131.348,0
1553632622.332,7.324,53.223,36.133,13.184,451.172,0
1553632622.335,59.082,57.617,32.715,-15.625,-732.910,0
1553632622.339,78.613,47.852,31.738,-31.250,-1000.000,0
1553632622.343,-60.059,41.016,16.113,-7.324,248.047,0
1553632622.347,-107.910,50.293,20.996,23.926,-922.852,0
1553632622.351,22.461,47.363,41.016,-1.953,26.855,0
1553632622.355,38.574,43.945,30.273,-5.859,-254.395,0
1553632622.359,6.348,46.875,20.020,6.836,636.719,0
1553632622.363,-22.461,49.316,29.297,1.465,873.047,0
1553632622.367,-12.207,49.316,35.156,-6.348,872.559,0
1553632622.371,-16.602,45.410,27.344,-20.508,739.746,0
1553632622.375,-99.121,47.363,20.508,5.371,962.402,0
1553632622.378,-45.898,55.664,37.109,-15.137,855.469,0
1553632622.382,82.520,45.410,44.434,-40.527,-524.902,0
1553632622.386,41.016,42.480,27.832,-1.465,-202.148,0
1553632622.390,-0.977,46.387,26.855,-6.836,410.156,0
1553632622.394,42.480,46.875,40.039,-12.207,-885.254,0
1553632622.398,51.270,41.992,37.109,-5.371,-1000.000,0
1553632622.402,26.855,43.945,30.273,-1.465,-129.883,0
1553632622.406,4.395,47.363,29.785,13.672,-160.156,0
1553632622.410,-6.836,41.504,30.273,13.672,128.418,0
1553632622.414,-5.859,41.504,35.156,0.000,854.980,0
1553632622.418,-53.223,43.457,28.809,29.297,725.586,0
1553632622.421,-71.777,46.387,33.203,44.434,918.945,0
1553632622.425,56.641,46.387,46.875,-0.977,-241.211,0
1553632622.429,94.238,38.086,38.574,-13.672,-1000.000,0
1553632622.433,-12.695,39.551,27.832,11.230,234.863,0
1553632622.437,-28.809,50.293,32.715,35.156,741.699,0
1553632622.441,32.715,43.945,37.598,-6.836,-856.445,0
1553632622.445,45.410,36.621,28.320,-1.953,-796.875,0
1553632622.449,18.066,42.969,26.367,44.434,274.902,0
1553632622.453,10.742,48.340,34.180,17.578,-656.738,0
1553632622.457,19.043,49.805,24.414,-9.766,-125.000,0
1553632622.460,-10.254,45.410,25.879,22.461,-868.652,0
1553632622.464,-81.055,46.875,34.668,65.430,955.566,0
1553632622.468,-37.109,54.688,44.434,49.805,921.875,0
1553632622.472,31.250,48.828,42.969,16.113,680.664,0
1553632622.476,-7.812,48.340,32.715,26.367,885.254,0
1553632622.480,-6.836,47.852,35.645,46.875,626.953,0
1553632622.484,58.594,44.922,50.781,28.320,-633.789,0
1553632622.488,104.492,48.828,42.480,11.230,-1000.000,0
1553632622.492,37.109,46.387,31.738,32.227,-60.059,0
1553632622.496,12.695,45.410,43.457,19.043,47.852,0
1553632622.500,52.246,44.922,41.992,-3.906,-1000.000,0
1553632622.503,30.762,39.551,32.715,13.672,200.684,0
1553632622.507,-52.734,40.039,27.832,36.621,-893.066,0
1553632622.511,-95.703,47.852,28.809,29.297,996.094,0
1553632622.515,17.578,49.805,46.875,-1.465,478.516,0
1553632622.519,74.707,43.457,40.527,-11.230,-811.035,0
1553632622.523,10.254,40.527,34.180,1.465,-62.012,0
1553632622.527,0.977,43.945,37.598,1.953,-31.738,0
1553632622.531,78.613,44.922,36.621,-20.020,-1000.000,0
1553632622.535,53.223,42.480,33.203,6.836,-106.934,0
1553632622.539,-0.488,46.387,34.180,20.996,787.598,0
1553632622.543,41.504,49.316,36.621,-12.207,-612.793,0
1553632622.546,65.430,43.945,35.156,-20.020,-1000.000,0
1553632622.550,-11.719,41.504,23.926,-6.348,280.762,0
1553632622.554,-103.516,47.852,16.602,44.434,-881.348,0
1553632622.558,-42.480,52.246,32.227,31.250,863.281,0
1553632622.562,62.988,43.457,43.457,-30.762,-391.602,0
1553632622.566,29.297,33.691,28.320,-2.441,-369.141,0
1553632622.570,-15.137,35.156,20.508,8.301,747.559,0
1553632622.574,22.949,46.387,37.109,-9.766,-350.098,0
1553632622.578,81.543,46.875,36.133,-10.742,-1000.000,0
1553632622.582,19.531,40.527,26.367,14.160,-110.840,0
1553632622.585,-2.441,44.922,32.227,28.320,83.496,0
1553632622.589,73.242,45.898,40.039,14.160,-1000.000,0
1553632622.593,41.016,42.969,29.297,17.090,-262.207,0
1553632622.597,-37.598,48.340,26.855,42.480,971.680,0
1553632622.601,-16.602,51.758,38.086,58.594,-958.008,0
1553632622.605,52.246,51.758,42.480,34.668,52.246,0
1553632622.609,83.496,47.363,41.016,14.160,-1000.000,0
1553632622.613,-36.133,41.016,23.926,27.344,64.453,0
1553632622.617,-115.723,48.340,30.762,42.969,-899.902,0
1553632622.621,14.648,48.340,47.363,32.227,-223.145,0
1553632622.625,77.637,39.062,34.668,5.371,-1000.000,0
1553632622.628,1.953,39.551,26.855,7.812,153.809,0
1553632622.632,5.371,50.293,33.691,14.648,-107.910,0
1553632622.636,86.426,51.758,41.016,3.906,-1000.000,0
1553632622.640,80.078,44.434,30.273,14.160,-625.977,0
1553632622.644,-19.043,41.992,24.902,24.414,753.418,0
1553632622.648,-40.039,46.875,32.715,28.809,993.164,0
1553632622.652,-0.488,51.270,36.621,52.246,814.941,0
1553632622.656,-30.273,46.387,32.227,34.180,973.145,0
1553632622.660,-104.004,48.828,29.297,31.738,-977.539,0
1553632622.664,-50.781,49.805,42.480,21.484,814.453,0
1553632622.668,10.742,41.504,38.086,-1.953,65.918,0
1553632622.671,-36.621,39.551,27.832,20.996,328.613,0
1553632622.675,-24.902,46.875,29.297,10.254,395.508,0
1553632622.679,73.730,48.828,31.738,-6.348,-644.531,0
1553632622.683,64.941,45.898,28.809,0.977,-361.816,0
1553632622.687,6.836,51.270,28.320,30.762,143.066,0
1553632622.691,-24.414,48.828,26.367,41.992,915.039,0
1553632622.695,-32.227,47.852,30.273,28.809,-890.137,0
1553632622.699,39.551,47.363,39.551,3.906,-229.004,0
1553632622.703,-41.504,43.457,26.367,30.762,-67.383,0
1553632622.707,-88.379,50.781,26.855,53.711,951.660,0
1553632622.710,3.418,52.246,36.133,19.043,720.703,0
1553632622.714,-1.953,45.898,27.832,16.113,386.719,0
1553632622.718,-3.418,48.828,29.297,23.438,505.859,0
1553632622.722,2.441,52.246,34.180,18.555,132.812,0
1553632622.726,84.473,46.387,39.551,8.789,-1000.000,0
1553632622.730,84.473,42.480,28.320,0.977,-624.512,0
1553632622.734,2.441,43.945,23.438,9.766,29.297,0
1553632622.738,-46.387,45.410,28.320,23.438,624.512,0
1553632622.742,-3.418,40.527,35.156,29.297,530.273,0
1553632622.746,34.180,34.180,30.273,38.574,-177.246,0
1553632622.750,-81.055,49.805,15.625,20.508,915.039,0
1553632622.753,-63.477,66.895,30.273,-12.695,844.238,0
1553632622.757,68.848,58.594,36.621,-22.461,-739.746,0
1553632622.761,36.133,56.641,20.020,-2.930,-141.113,0
1553632622.765,0.000,63.477,17.578,15.625,147.949,0
1553632622.769,39.551,64.453,20.508,20.996,-291.016,0
1553632622.773,42.969,64.453,15.137,11.230,33.691,0
1553632622.777,49.316,72.754,18.066,-7.324,-166.504,0
1553632622.781,38.086,70.312,17.090,0.977,-219.727,0
1553632622.785,22.461,66.406,17.578,25.879,233.398,0
1553632622.789,17.578,74.707,16.602,19.531,719.727,0
1553632622.793,-24.902,75.684,6.836,23.926,397.949,0
1553632622.796,-29.297,73.242,12.207,48.828,833.984,0
1553632622.800,74.707,65.918,26.855,26.367,-347.168,0
1553632622.804,124.023,62.012,22.949,12.695,-1000.000,0
1553632622.808,31.738,66.406,11.230,36.133,255.371,0
1553632622.812,-13.672,70.312,20.020,34.668,517.578,0
1553632622.816,89.844,67.383,31.250,7.812,-1000.000,0
1553632622.820,91.309,62.988,23.438,20.508,-750.977,0
1553632622.824,47.363,60.059,21.484,18.066,-25.391,0
1553632622.828,55.664,57.129,24.414,5.371,-284.180,0
1553632622.832,39.062,60.059,20.508,13.184,662.598,0
1553632622.835,-5.859,61.523,20.996,26.367,-929.199,0
1553632622.839,-83.496,60.547,21.484,40.527,924.316,0
1553632622.843,-32.715,64.453,32.715,4.395,979.004,0
1553632622.847,64.453,56.152,33.691,-19.043,-331.543,0
1553632622.851,2.930,53.223,19.531,1.465,-227.051,0
1553632622.855,-12.207,59.570,19.043,1.953,334.961,0
1553632622.859,47.363,54.688,31.738,-9.766,-927.246,0
1553632622.863,86.426,46.875,26.367,-17.578,-1000.000,0
1553632622.867,36.621,49.805,17.090,-0.977,-56.641,0
1553632622.871,4.883,54.688,26.855,3.418,61.035,0
1553632622.875,92.773,56.641,33.203,1.953,-1000.000,0
1553632622.878,57.617,54.688,22.461,21.973,180.664,0
1553632622.882,-60.059,48.828,15.625,53.223,-852.051,0
1553632622.886,-88.867,53.711,22.949,47.852,922.363,0
1553632622.890,1.465,59.082,33.203,9.766,973.145,0
1553632622.894,23.926,53.711,26.855,-18.066,619.629,0
1553632622.898,-15.137,55.176,27.344,-25.879,647.461,0
1553632622.902,11.719,56.641,33.203,-19.531,12.695,0
1553632622.906,90.820,54.688,34.180,-50.781,-1000.000,0
1553632622.910,64.453,49.316,21.484,-61.523,-841.309,0
1553632622.914,4.395,52.246,17.090,-15.625,-62.012,0
1553632622.918,60.059,57.129,31.250,-24.902,-651.855,0
1553632622.921,99.121,54.199,33.203,-35.156,-1000.000,0
1553632622.925,12.207,51.270,20.020,-11.230,235.840,0
1553632622.929,-125.000,55.176,16.113,38.086,-890.137,0
1553632622.933,-86.426,57.129,33.203,38.574,880.371,0
1553632622.937,48.340,49.316,41.504,5.859,-344.238,0
1553632622.941,38.574,40.527,28.320,4.395,-384.766,0
1553632622.945,-13.672,42.480,24.902,0.488,657.715,0
1553632622.949,18.555,49.316,35.156,14.648,753.906,0
1553632622.953,66.895,50.781,39.062,18.066,-254.395,0
1553632622.957,28.809,45.898,32.227,-4.395,-250.000,0
1553632622.960,15.137,45.898,32.715,11.719,77.148,0
1553632622.964,94.727,44.434,39.551,21.973,-1000.000,0
1553632622.968,113.281,41.016,37.109,-0.488,-1000.000,0
1553632622.972,-34.180,53.223,24.414,-14.160,187.500,0
1553632622.976,-82.520,58.594,26.367,-12.207,-960.938,0
1553632622.980,14.648,52.734,35.156,8.301,-228.516,0
1553632622.984,86.426,51.270,29.785,15.625,-1000.000,0
1553632622.988,-25.391,52.246,11.719,11.719,4.883,0
1553632622.992,-86.426,61.035,17.090,24.414,-858.887,0
1553632622.996,46.387,59.570,36.133,8.301,-20.996,0
1553632623.000,56.152,54.199,27.832,5.371,-991.699,0
1553632623.003,19.531,51.270,22.949,30.273,172.363,0
1553632623.007,10.254,53.711,29.297,36.133,915.527,0
1553632623.011,62.012,58.594,32.715,11.230,-398.926,0
1553632623.015,36.133,47.363,27.832,4.395,-757.812,0
1553632623.019,5.371,47.852,20.020,47.363,686.035,0
1553632623.023,-2.441,58.105,24.902,53.711,-784.668,0
1553632623.027,28.809,58.594,34.180,22.461,40.039,0
1553632623.031,55.664,48.828,23.926,24.902,-433.594,0
1553632623.035,-56.152,54.688,14.648,90.332,975.098,0
1553632623.039,-34.668,62.500,34.180,82.520,873.535,0
1553632623.043,86.914,53.711,35.645,17.578,-531.738,0
1553632623.046,60.547,53.223,20.996,38.574,-146.973,0
1553632623.050,-4.395,53.223,23.926,44.434,338.379,0
1553632623.054,71.777,52.246,33.691,15.625,-917.969,0
1553632623.058,93.750,48.828,27.832,17.578,-1000.000,0
1553632623.062,16.113,47.852,22.461,22.461,-178.711,0
1553632623.066,-16.602,51.270,20.508,41.992,-987.305,0
1553632623.070,4.395,56.152,21.973,43.457,918.457,0
1553632623.074,21.973,54.199,26.367,27.832,923.340,0
1553632623.078,-58.594,51.270,20.020,48.340,979.004,0
1553632623.082,-105.469,52.246,24.414,62.012,-961.914,0
1553632623.085,25.879,52.734,37.109,34.668,502.930,0
1553632623.089,83.008,47.363,30.762,25.879,-670.410,0
1553632623.093,20.508,46.875,26.367,27.344,18.066,0
1553632623.097,40.527,49.316,32.227,28.809,-191.406,0
1553632623.101,98.633,42.969,32.227,17.090,-1000.000,0
1553632623.105,1.953,40.039,21.973,19.531,125.000,0
1553632623.109,-16.602,43.945,25.879,30.273,564.941,0
1553632623.113,18.555,44.922,27.344,11.719,760.254,0
1553632623.117,8.301,44.922,34.180,8.789,643.555,0
1553632623.121,4.395,42.969,31.250,18.066,-8.789,0
1553632623.125,-110.352,44.434,20.508,42.969,903.809,0
1553632623.128,-69.824,49.316,37.598,18.066,870.117,0
1553632623.132,78.613,44.434,43.457,-7.812,-649.414,0
1553632623.136,15.625,43.945,29.297,6.348,-200.684,0
1553632623.140,-21.484,45.898,28.320,14.160,404.785,0
1553632623.144,54.199,48.828,37.598,-1.465,-917.480,0
1553632623.148,76.660,47.363,29.297,-20.020,-1000.000,0
1553632623.152,23.438,47.363,23.438,11.230,-132.812,0
1553632623.156,2.930,43.945,33.203,23.438,-185.059,0
1553632623.160,-3.418,40.527,31.250,11.230,208.496,0
1553632623.164,-1.465,47.852,28.809,7.812,742.188,0
1553632623.168,-39.551,43.945,25.391,13.672,361.816,0
1553632623.171,-101.074,48.828,27.344,25.879,-921.875,0
1553632623.175,-15.625,55.176,41.504,-1.465,107.910,0
1553632623.179,41.992,45.898,37.109,1.465,-1000.000,0
1553632623.183,28.809,48.340,27.832,16.113,207.031,0
1553632623.187,23.438,57.617,34.180,31.250,174.316,0
1553632623.191,73.730,53.223,38.086,16.602,-1000.000,0
1553632623.195,74.707,46.875,25.391,-4.883,-768.555,0
1553632623.199,30.762,53.711,25.391,14.160,93.262,0
1553632623.203,29.297,50.293,37.109,20.996,-606.445,0
1553632623.207,25.391,41.016,33.203,38.086,83.984,0
1553632623.210,-6.348,48.828,25.391,41.992,-862.305,0
1553632623.214,-75.195,54.688,26.855,57.617,914.551,0
1553632623.218,-36.621,61.035,38.086,49.316,978.516,0
1553632623.222,60.547,52.734,41.992,25.879,-176.270,0
1553632623.226,18.066,45.410,35.156,34.668,-192.871,0
1553632623.230,-3.906,48.828,31.250,29.785,338.867,0
1553632623.234,67.871,50.781,40.527,15.625,-856.934,0
1553632623.238,71.289,47.852,36.621,24.414,-1000.000,0
1553632623.242,9.766,41.992,29.785,15.137,-133.789,0
1553632623.246,-31.738,49.316,26.855,10.254,-953.125,0
1553632623.250,17.578,51.758,30.273,5.371,-175.293,0
1553632623.253,25.391,44.434,30.762,18.066,148.438,0
1553632623.257,-86.426,44.434,22.949,46.387,-854.980,0
1553632623.261,-118.652,50.781,27.832,44.922,970.703,0
1553632623.265,-5.859,55.176,38.086,1.465,450.195,0
1553632623.269,57.617,49.316,31.250,-22.949,-773.438,0
1553632623.273,30.273,48.340,30.762,-14.648,-90.820,0
1553632623.277,11.230,46.387,42.969,11.230,-47.852,0
1553632623.281,90.820,46.387,45.410,13.672,-1000.000,0
1553632623.285,80.566,47.852,32.227,-2.930,-848.633,0
1553632623.289,13.672,51.270,25.879,11.719,-93.750,0
1553632623.293,46.387,54.688,36.133,14.160,-659.180,0
1553632623.296,100.586,44.434,37.598,1.953,-1000.000,0
1553632623.300,18.555,41.504,26.855,49.316,239.258,0
1553632623.304,-111.328,50.293,22.949,88.379,-843.750,0
1553632623.308,-55.176,59.082,38.574,45.410,800.781,0
1553632623.312,44.922,48.828,41.504,19.043,-233.887,0
1553632623.316,-19.043,42.480,28.320,17.578,308.105,0
1553632623.320,-62.988,45.898,30.273,18.066,939.453,0
1553632623.324,24.414,44.434,43.945,21.973,-382.324,0
1553632623.328,82.031,44.434,41.016,6.348,-1000.000,0
1553632623.332,15.137,45.410,18.555,-7.324,-129.883,0
1553632623.335,-12.207,46.387,22.949,-8.301,54.688,0
1553632623.339,35.156,41.992,41.992,-22.461,-1000.000,0
1553632623.343,55.664,40.527,38.574,-0.977,-1000.000,0
1553632623.347,-36.133,45.410,14.648,8.301,193.848,0
1553632623.351,-86.426,46.387,29.785,42.969,-913.574,0
1553632623.355,-14.160,48.828,46.387,33.203,-83.008,0
1553632623.359,38.574,42.969,30.273,-24.902,-1000.000,0
1553632623.363,7.324,41.016,21.484,6.348,120.117,0
1553632623.367,-35.156,47.363,29.785,21.484,631.348,0
1553632623.371,20.996,35.156,48.340,-4.395,-780.273,0
1553632623.375,73.242,40.039,35.156,-24.902,-1000.000,0
1553632623.378,38.574,50.293,21.484,12.695,142.578,0
1553632623.382,9.277,45.410,37.109,21.973,-123.535,0
1553632623.386,50.781,42.969,36.133,13.672,-1000.000,0
1553632623.390,79.590,41.016,25.391,41.504,-651.855,0
1553632623.394,21.484,41.504,24.902,35.645,673.340,0
1553632623.398,-28.320,44.434,36.133,46.875,-908.203,0
1553632623.402,-6.836,48.828,41.016,15.137,624.512,0
1553632623.406,-14.160,44.434,31.738,-16.113,364.258,0
1553632623.410,-113.770,42.969,26.855,-14.160,975.586,0
1553632623.414,-64.941,50.293,47.852,-14.160,830.078,0
1553632623.418,4.883,44.922,41.016,0.977,187.500,0
1553632623.421,-46.387,45.410,26.855,9.766,701.172,0
1553632623.425,-57.129,45.410,33.203,-5.371,601.562,0
1553632623.429,-7.324,39.062,38.574,-26.855,-587.891,0
1553632623.433,32.227,36.621,32.227,-33.691,-1000.000,0
1553632623.437,14.648,39.062,26.367,-25.391,-223.633,0
1553632623.441,-20.508,48.340,22.461,14.160,939.453,0
1553632623.445,-42.969,47.363,32.227,13.672,-989.258,0
1553632623.449,31.738,43.457,44.922,2.441,-207.031,0
1553632623.453,-17.578,41.016,23.926,26.367,-147.949,0
1553632623.457,-96.680,48.828,23.926,41.992,-856.445,0
1553632623.460,14.648,48.340,47.852,14.648,315.430,0
1553632623.464,50.293,46.387,34.668,-12.695,-803.223,0
1553632623.468,5.859,50.293,26.855,15.625,29.785,0
1553632623.472,26.367,44.434,43.945,46.875,-104.492,0
1553632623.476,65.430,38.574,44.922,-0.977,-1000.000,0
1553632623.480,16.113,42.480,27.832,-4.395,62.012,0
1553632623.484,5.859,47.852,24.902,27.344,793.457,0
1553632623.488,-20.020,41.992,35.645,25.879,807.617,0
1553632623.492,-20.996,44.922,37.109,3.906,678.223,0
1553632623.496,-19.043,41.016,27.344,-0.977,141.113,0
1553632623.500,-95.703,41.992,21.973,51.758,917.480,0
1553632623.503,-37.598,54.199,38.086,46.387,893.555,0
1553632623.507,57.129,47.852,41.992,6.836,-565.430,0
1553632623.511,14.160,37.598,31.250,16.602,-256.836,0
1553632623.515,-6.836,38.574,32.715,28.809,609.863,0
1553632623.519,56.641,46.875,44.434,18.555,-714.355,0
1553632623.523,59.082,42.969,30.273,6.348,-1000.000,0
1553632623.527,53.223,46.875,24.414,45.898,223.633,0
1553632623.531,37.598,48.340,54.199,35.645,-32.227,0
1553632623.535,-44.922,38.086,53.223,-1.465,144.531,0
1553632623.539,-54.199,36.621,47.363,9.766,-882.812,0
1553632623.543,-100.098,33.691,41.504,21.973,905.273,0
1553632623.546,-149.414,31.250,50.293,41.504,-992.188,0
1553632623.550,-58.105,24.414,76.660,-5.371,584.473,0
1553632623.554,-39.551,13.672,67.383,-50.293,-523.438,0
1553632623.558,-52.734,9.277,52.734,-41.016,-4.395,0
1553632623.562,-18.066,5.859,60.547,-18.066,-37.109,0
1553632623.566,33.691,3.418,77.148,-20.020,-1000.000,0
1553632623.570,5.859,0.488,65.430,-42.969,-764.648,0
1553632623.574,-61.035,-4.883,47.852,-18.555,97.656,0
1553632623.578,-34.668,-3.906,59.570,-20.020,-609.863,0
1553632623.582,-26.855,-6.348,59.082,-14.160,81.055,0
1553632623.585,-48.340,-1.953,47.852,-1.465,-856.934,0
1553632623.589,-132.812,2.441,40.039,12.207,987.793,0
1553632623.593,-106.445,3.906,53.223,4.883,763.672,0
1553632623.597,-20.020,-0.488,50.293,-4.395,593.262,0
1553632623.601,-62.500,1.953,36.133,15.625,-934.570,0
1553632623.605,-68.359,3.906,41.016,-14.160,662.109,0
1553632623.609,23.438,5.859,45.898,-23.926,-579.102,0
1553632623.613,62.500,2.930,44.922,-35.645,-1000.000,0
1553632623.617,-21.484,4.883,36.133,-34.668,-85.938,0
1553632623.621,-22.949,14.160,35.645,-14.160,0.488,0
1553632623.625,36.621,10.742,42.969,1.465,-1000.000,0
1553632623.628,1.953,14.160,31.738,-8.789,166.504,0
1553632623.632,-91.309,17.090,23.438,37.598,-898.926,0
1553632623.636,-120.605,20.020,36.621,53.223,-985.352,0
1553632623.640,-18.555,24.902,50.781,2.441,254.395,0
1553632623.644,55.176,22.949,43.457,9.277,-1000.000,0
1553632623.648,19.531,26.367,37.109,11.719,20.508,0
1553632623.652,-7.812,23.926,49.805,15.137,-181.641,0
1553632623.656,23.438,20.508,46.875,6.348,-381.836,0
1553632623.660,-4.395,27.344,32.227,3.418,768.555,0
1553632623.664,-20.996,30.762,41.016,31.738,439.453,0
1553632623.668,33.691,35.156,43.945,19.531,-556.152,0
1553632623.671,86.914,32.227,37.598,3.906,-1000.000,0
1553632623.675,1.953,29.785,25.391,-12.695,230.469,0
1553632623.679,-136.230,38.086,21.484,14.648,-879.883,0
1553632623.683,-88.867,42.969,41.016,46.387,861.816,0
1553632623.687,48.340,35.645,52.734,10.742,-441.406,0
1553632623.691,25.879,28.809,41.016,0.488,-352.051,0
1553632623.695,-28.809,30.762,38.086,8.301,589.355,0
1553632623.699,45.898,40.039,43.945,8.789,-665.527,0
1553632623.703,75.195,39.551,41.992,20.508,-1000.000,0
1553632623.707,-22.949,36.621,40.039,4.883,-49.805,0
1553632623.710,22.949,44.434,36.621,20.996,-173.340,0
1553632623.714,54.688,39.551,37.109,11.719,-319.336,0
1553632623.718,-9.766,35.645,34.668,3.418,172.363,0
1553632623.722,-69.824,35.645,26.855,35.156,193.359,0
1553632623.726,-65.430,43.945,30.273,55.664,-976.074,0
1553632623.730,35.645,47.852,52.734,23.438,-147.461,0
1553632623.734,27.832,35.645,46.387,-13.184,-1000.000,0
1553632623.738,-10.742,43.457,28.809,32.715,354.004,0
1553632623.742,11.230,54.688,41.992,43.945,375.488,0
1553632623.746,75.195,47.852,50.293,18.066,-1000.000,0
1553632623.750,45.410,40.039,42.480,30.762,-939.941,0
1553632623.753,-12.207,48.340,29.297,7.812,16.113,0
1553632623.757,20.996,50.781,37.598,17.578,-369.629,0
1553632623.761,68.359,40.039,46.875,-0.488,-1000.000,0
1553632623.765,41.992,34.668,40.039,-39.062,-661.133,0
1553632623.769,-6.348,37.109,29.785,31.250,635.742,0
1553632623.773,-44.922,44.434,29.785,52.246,-891.602,0
1553632623.777,-56.152,41.504,41.992,28.320,707.520,0
1553632623.781,-36.133,34.180,35.645,-2.930,445.312,0
1553632623.785,-105.469,44.922,22.949,11.230,949.219,0
1553632623.789,-91.797,47.852,45.898,20.020,880.859,0
1553632623.793,-6.348,32.715,52.734,2.441,-30.762,0
1553632623.796,1.953,34.180,37.109,39.062,188.965,0
1553632623.800,-28.809,38.086,36.133,19.043,433.594,0
1553632623.804,20.508,40.039,40.039,-20.996,-736.328,0
1553632623.808,64.453,38.574,39.062,-6.348,-1000.000,0
1553632623.812,27.344,40.039,37.109,32.227,-223.145,0
1553632623.816,-27.832,41.016,37.109,35.156,926.758,0
1553632623.820,-47.852,41.992,37.598,11.719,-977.051,0
1553632623.824,26.367,47.363,40.039,4.395,-233.887,0
1553632623.828,-38.086,43.457,23.926,16.113,-170.410,0
1553632623.832,-129.395,44.434,23.438,48.340,-889.160,0
1553632623.835,-8.301,51.270,40.527,31.250,895.508,0
1553632623.839,43.945,44.922,40.527,24.414,-178.223,0
1553632623.843,16.113,43.457,41.504,42.969,-1.465,0
1553632623.847,20.996,49.805,42.480,23.438,-69.824,0
1553632623.851,85.938,45.898,43.457,-10.254,-1000.000,0
1553632623.855,76.172,45.410,27.344,-3.418,-702.148,0
1553632623.859,24.902,42.969,22.461,15.625,137.695,0
1553632623.863,-19.043,41.992,31.250,35.156,798.828,0
1553632623.867,7.324,46.875,36.133,36.621,658.203,0
1553632623.871,34.180,43.457,30.273,25.391,108.398,0
1553632623.875,-106.934,46.875,20.996,50.293,894.043,0
1553632623.878,-67.871,50.781,41.016,35.645,869.629,0
1553632623.882,71.777,39.551,50.781,11.719,-537.598,0
1553632623.886,12.207,35.156,38.086,41.016,-283.203,0
1553632623.890,-25.391,36.621,34.180,40.527,590.332,0
1553632623.894,0.000,41.504,42.969,1.953,418.457,0
1553632623.898,34.180,47.363,38.574,-12.695,-461.914,0
1553632623.902,39.551,53.223,30.762,-6.836,-266.113,0
1553632623.906,20.996,54.688,31.738,28.320,-74.707,0
1553632623.910,15.137,52.246,28.809,37.598,218.262,0
1553632623.914,23.926,57.617,25.391,17.090,751.465,0
1553632623.918,-44.922,55.176,13.672,40.039,413.574,0
1553632623.921,-114.746,59.082,20.020,59.570,-929.688,0
1553632623.925,18.066,62.012,41.992,25.391,76.660,0
1553632623.929,41.504,54.199,30.762,7.324,-1000.000,0
1553632623.933,8.301,51.270,24.414,16.602,13.184,0
1553632623.937,45.898,53.711,35.645,19.043,-123.047,0
1553632623.941,98.145,54.199,37.109,1.953,-1000.000,0
1553632623.945,80.566,49.316,28.320,5.371,-816.895,0
1553632623.949,36.133,49.805,21.973,19.531,-31.738,0
1553632623.953,15.137,50.781,24.414,35.156,333.496,0
1553632623.957,7.812,46.875,29.297,33.203,816.895,0
1553632623.960,-6.348,42.969,27.344,18.066,997.070,0
1553632623.964,-97.656,46.875,20.508,44.922,941.406,0
1553632623.968,-68.848,51.270,37.598,32.227,-932.129,0
1553632623.972,51.270,47.852,43.945,-5.859,-201.660,0
1553632623.976,13.672,46.875,30.273,10.254,-278.809,0
1553632623.980,-21.484,44.922,30.273,26.367,389.160,0
1553632623.984,57.617,43.457,42.480,3.418,-871.582,0
1553632623.988,71.289,39.551,38.574,4.395,-1000.000,0
1553632623.992,10.742,40.527,25.391,19.043,-86.914,0
1553632623.996,19.531,44.434,30.273,3.418,-17.578,0
1553632624.000,65.918,39.062,35.156,-2.441,-1000.000,0
1553632624.003,33.203,38.086,25.879,20.020,217.773,0
1553632624.007,-71.777,42.969,19.531,36.621,-881.836,0
1553632624.011,-119.141,49.316,31.250,51.758,963.867,0
1553632624.015,-7.812,46.387,48.340,28.809,707.520,0
1553632624.019,52.246,36.621,40.527,4.883,-555.664,0
1553632624.023,21.973,41.504,32.715,3.906,-38.086,0
1553632624.027,9.766,43.945,36.621,0.488,93.262,0
1553632624.031,63.477,43.945,43.457,2.930,-1000.000,0
1553632624.035,50.293,41.016,37.598,5.371,-876.953,0
1553632624.039,-15.625,38.086,31.250,16.602,-38.574,0
1553632624.043,18.555,41.992,38.086,12.695,-604.004,0
1553632624.046,59.570,41.504,38.574,-8.789,-1000.000,0
1553632624.050,-3.418,41.016,24.902,17.090,306.641,0
1553632624.054,-120.117,46.875,18.066,47.363,-889.648,0
1553632624.058,-74.707,51.758,35.645,29.297,889.160,0
1553632624.062,47.852,45.898,45.410,-12.695,-311.523,0
1553632624.066,12.695,38.574,31.250,-15.137,-451.660,0
1553632624.070,-48.828,39.551,25.391,20.508,-949.219,0
1553632624.074,-30.273,48.828,32.715,3.906,798.828,0
1553632624.078,34.668,49.316,36.133,-16.602,-713.379,0
1553632624.082,16.602,43.457,33.203,5.371,-196.777,0
1553632624.085,-15.137,50.293,33.691,15.625,218.262,0
1553632624.089,57.129,47.363,44.922,10.742,-1000.000,0
1553632624.093,69.336,38.086,40.039,4.883,-1000.000,0
1553632624.097,3.418,38.574,28.320,20.508,185.059,0
1553632624.101,-23.926,38.574,34.668,48.340,-988.770,0
1553632624.105,23.438,42.969,36.621,25.879,-190.430,0
1553632624.109,78.125,48.828,31.250,-26.367,-1000.000,0
1553632624.113,-48.828,43.945,16.602,2.930,-28.809,0
1553632624.117,-104.004,49.805,24.414,38.574,-889.648,0
1553632624.121,13.672,47.363,44.434,6.836,-68.848,0
1553632624.125,31.250,38.574,38.574,9.766,-1000.000,0
1553632624.128,-29.785,42.480,30.762,32.715,314.941,0
1553632624.132,-34.668,47.363,34.180,22.461,650.879,0
1553632624.136,58.594,46.875,36.621,0.977,-829.102,0
1553632624.140,59.082,44.922,25.391,-20.020,-766.602,0
1553632624.144,-19.043,41.016,16.602,-0.977,638.184,0
1553632624.148,-35.645,45.898,21.484,26.855,-795.410,0
1553632624.152,14.648,44.922,35.645,7.812,81.055,0
1553632624.156,13.672,30.273,31.738,-5.371,-388.184,0
1553632624.160,-104.492,38.574,19.043,36.133,941.895,0
1553632624.164,-61.523,54.199,38.086,23.926,941.895,0
1553632624.168,30.273,43.945,41.016,-0.488,-105.957,0
1553632624.171,-8.789,39.551,28.809,13.672,45.410,0
1553632624.175,-32.715,43.457,28.320,2.441,384.766,0
1553632624.179,30.762,44.434,39.062,-5.371,-783.691,0
1553632624.183,76.660,42.480,36.621,1.465,-1000.000,0
1553632624.187,16.113,43.945,24.414,15.625,-187.988,0
1553632624.191,-54.199,44.434,17.578,9.766,989.258,0
1553632624.195,-41.504,42.969,23.438,10.254,-969.238,0
1553632624.199,34.180,46.875,32.227,-0.488,-213.867,0
1553632624.203,-32.227,45.410,18.066,12.695,-160.645,0
1553632624.207,-107.422,47.852,19.043,41.016,-859.863,0
1553632624.210,10.742,47.852,38.574,0.000,290.527,0
1553632624.214,54.688,39.551,34.180,-13.672,-833.984,0
1553632624.218,5.371,39.551,28.809,10.254,26.367,0
1553632624.222,4.395,43.457,35.156,22.461,-54.199,0
1553632624.226,68.848,42.969,38.574,-3.906,-1000.000,0
1553632624.230,62.500,38.574,26.367,-4.395,-724.121,0
1553632624.234,9.766,38.086,16.602,16.602,179.688,0
1553632624.238,-18.066,43.945,21.484,26.855,856.445,0
1553632624.242,-3.418,48.340,29.785,18.066,686.523,0
1553632624.246,-3.906,39.551,26.855,15.137,118.652,0
1553632624.250,-96.680,41.504,17.578,45.410,853.516,0
1553632624.253,-58.105,51.758,37.109,28.809,962.402,0
1553632624.257,58.594,43.945,41.504,-0.488,-500.000,0
1553632624.261,30.273,42.969,19.531,9.277,-263.184,0
1553632624.265,-11.230,45.898,15.625,29.297,679.199,0
1553632624.269,37.109,50.781,33.691,7.324,-592.285,0
1553632624.273,51.270,39.551,40.039,-30.762,-1000.000,0
1553632624.277,25.391,33.203,31.738,15.137,-124.512,0
1553632624.281,22.949,38.086,35.645,47.852,-83.008,0
1553632624.285,2.930,28.809,39.062,37.598,188.965,0
1553632624.289,-16.113,29.297,39.062,48.340,-871.094,0
1553632624.293,-78.125,31.738,31.250,51.270,941.895,0
1553632624.296,-105.957,28.809,35.156,59.082,977.539,0
1553632624.300,11.719,30.762,53.711,31.738,572.754,0
1553632624.304,49.316,32.715,46.387,13.672,-532.715,0
1553632624.308,-3.418,35.156,36.621,33.203,24.902,0
1553632624.312,4.883,36.133,44.922,35.156,57.617,0
1553632624.316,80.078,30.762,71.777,20.508,-1000.000,0
1553632624.320,58.594,29.785,75.195,18.555,-799.316,0
1553632624.324,-1.953,33.203,67.383,24.902,162.109,0
1553632624.328,23.438,29.785,73.730,22.461,-466.797,0
1553632624.332,19.043,29.297,68.359,32.227,63.965,0
1553632624.335,-13.672,35.645,61.523,42.480,-864.258,0
1553632624.339,-76.660,39.062,57.129,64.453,915.039,0
1553632624.343,-55.664,43.457,69.336,45.410,-983.887,0
1553632624.347,44.922,41.504,67.871,4.395,-259.766,0
1553632624.351,13.672,37.598,48.340,17.090,-291.016,0
1553632624.355,-14.648,40.039,44.922,20.996,403.320,0
1553632624.359,47.363,42.969,50.781,7.812,-858.398,0
1553632624.363,79.590,36.621,42.480,4.395,-1000.000,0
1553632624.367,9.277,39.062,31.738,18.555,168.945,0
1553632624.371,-21.484,44.434,36.133,25.391,779.785,0
1553632624.375,37.598,40.527,40.527,1.465,-706.543,0
1553632624.378,20.020,36.621,32.715,7.812,158.691,0
1553632624.382,-86.426,35.645,23.438,37.109,-849.609,0
1553632624.386,-110.840,44.434,30.762,39.062,958.984,0
1553632624.390,-3.418,45.410,44.922,13.672,482.422,0
1553632624.394,34.668,38.086,35.156,-15.137,-785.156,0
1553632624.398,1.465,41.016,26.855,0.000,-26.855,0
1553632624.402,-6.348,39.551,36.133,16.602,97.168,0
1553632624.406,48.340,38.086,43.457,4.883,-1000.000,0
1553632624.410,55.664,35.156,35.645,15.625,-886.719,0
1553632624.414,-4.395,31.738,29.297,18.066,-66.406,0
1553632624.418,14.648,37.109,37.598,6.836,-600.098,0
1553632624.421,60.059,36.133,36.621,-2.930,-1000.000,0
1553632624.425,3.418,34.668,22.461,0.488,283.203,0
1553632624.429,-106.445,42.480,18.066,48.340,-897.461,0
1553632624.433,-92.773,50.781,32.227,45.898,937.012,0
1553632624.437,24.414,47.363,33.203,-2.441,-304.199,0
1553632624.441,5.859,40.527,20.020,5.371,-356.445,0
1553632624.445,-28.809,41.504,20.508,15.625,623.535,0
1553632624.449,40.527,47.852,27.832,-12.207,-589.355,0
1553632624.453,68.848,41.504,26.855,7.324,-1000.000,0
1553632624.457,20.996,40.039,17.090,25.391,-104.980,0
1553632624.460,-6.836,44.922,13.672,5.371,124.512,0
1553632624.464,51.758,44.434,18.555,4.395,-1000.000,0
1553632624.468,89.844,39.551,15.625,-1.953,-1000.000,0
1553632624.472,-31.738,38.086,-2.441,28.320,247.559,0
1553632624.476,-94.238,48.828,6.836,41.016,-943.848,0
1553632624.480,0.977,53.711,21.484,-2.930,184.570,0
1553632624.484,-3.906,48.340,10.742,-3.418,350.586,0
1553632624.488,-41.992,49.316,12.695,32.227,-948.242,0
1553632624.492,-16.113,51.758,22.461,28.320,593.750,0
1553632624.496,43.945,44.922,28.320,5.371,-566.895,0
1553632624.500,70.801,49.316,20.508,12.207,-993.164,0
1553632624.503,25.391,52.246,11.230,32.227,23.438,0
1553632624.507,23.438,55.664,19.043,17.578,-312.988,0
1553632624.511,84.961,56.641,25.391,15.137,-1000.000,0
1553632624.515,54.199,48.828,18.066,26.855,-664.062,0
1553632624.519,-31.250,51.270,12.207,18.066,634.277,0
1553632624.523,-55.664,55.176,18.066,25.879,-858.887,0
1553632624.527,-6.348,54.688,29.785,20.508,601.562,0
1553632624.531,-2.441,49.805,21.484,20.508,213.867,0
1553632624.535,-106.445,51.758,16.602,47.852,965.332,0
1553632624.539,-61.523,58.105,38.574,37.109,805.176,0
1553632624.543,-0.488,46.387,30.273,8.789,560.547,0
1553632624.546,-55.664,46.387,18.066,20.996,-958.496,0
1553632624.550,-38.086,47.363,28.320,23.438,702.148,0
1553632624.554,33.691,47.852,36.133,-0.977,-385.742,0
1553632624.558,68.359,50.781,28.809,-15.625,-1000.000,0
1553632624.562,32.227,50.781,20.996,4.395,-183.105,0
1553632624.566,-33.691,52.734,20.020,23.926,981.445,0
1553632624.570,-47.363,56.641,21.973,23.438,-903.809,0
1553632624.574,15.625,59.082,32.227,9.766,38.574,0
1553632624.578,-45.898,52.734,15.137,15.625,-106.445,0
1553632624.582,-110.840,53.711,15.625,37.109,-885.742,0
1553632624.585,-1.953,54.688,38.086,8.301,381.348,0
1553632624.589,31.250,44.434,28.320,-19.043,-784.668,0
1553632624.593,3.418,42.480,22.461,-4.395,55.664,0
1553632624.597,19.043,48.828,33.203,10.742,-237.793,0
1553632624.601,28.320,43.457,32.227,-3.418,-348.633,0
1553632624.605,-30.762,40.527,25.879,11.230,894.043,0
1553632624.609,-22.461,44.922,28.320,5.371,508.789,0
1553632624.613,-17.578,46.387,24.902,11.719,826.172,0
1553632624.617,-6.836,50.781,29.785,18.555,730.957,0
1553632624.621,6.836,48.828,24.414,3.418,72.754,0
1553632624.625,-90.820,48.340,13.672,44.434,859.863,0
1553632624.628,-62.988,51.270,33.691,33.203,890.137,0
1553632624.632,57.617,46.875,35.156,-13.184,-636.230,0
1553632624.636,14.160,44.922,14.648,-1.953,-227.539,0
1553632624.640,-35.156,48.340,17.578,-0.488,504.395,0
1553632624.644,33.203,51.758,30.273,-10.254,-826.172,0
1553632624.648,71.777,47.363,28.809,-13.184,-1000.000,0
1553632624.652,22.949,47.363,23.438,1.953,-126.953,0
1553632624.656,4.883,45.898,24.902,17.578,-92.773,0
1553632624.660,2.441,44.434,31.738,21.484,88.379,0
1553632624.664,-20.508,47.363,32.227,5.371,-985.352,0
1553632624.668,-80.078,44.434,20.996,31.738,941.895,0
1553632624.671,-83.008,44.434,30.273,52.734,920.410,0
1553632624.675,22.461,40.527,47.363,20.996,-143.066,0
1553632624.679,46.875,38.086,42.480,-7.812,-1000.000,0
1553632624.683,-47.852,41.504,29.297,6.836,148.926,0
1553632624.687,-57.617,48.340,30.762,21.484,742.676,0
1553632624.691,48.828,45.898,39.062,-10.254,-817.383,0
1553632624.695,37.598,37.598,29.785,-15.625,-885.254,0
1553632624.699,-15.137,38.574,25.391,3.906,223.145,0
1553632624.703,13.672,42.969,36.133,8.301,-516.602,0
1553632624.707,4.395,44.922,29.785,5.859,34.668,0
1553632624.710,-48.340,46.387,27.344,19.531,-839.844,0
1553632624.714,-111.816,48.340,26.367,46.387,894.531,0
1553632624.718,-86.426,54.199,32.715,48.340,-905.273,0
1553632624.722,6.348,48.340,37.109,9.277,572.754,0
1553632624.726,6.348,41.504,29.297,1.953,293.945,0
1553632624.730,-18.066,40.039,29.297,18.066,409.180,0
1553632624.734,43.457,42.480,40.527,5.859,-752.441,0
1553632624.738,81.055,42.480,34.668,-22.949,-1000.000,0
1553632624.742,20.020,39.551,23.438,-1.465,-94.238,0
1553632624.746,13.184,41.016,32.227,14.648,-12.207,0
1553632624.750,62.500,42.480,37.109,2.930,-1000.000,0
1553632624.753,18.066,40.527,23.438,35.645,162.109,0
1553632624.757,-86.914,41.504,13.672,39.062,-916.016,0
1553632624.761,-123.535,47.363,24.902,17.578,999.512,0
1553632624.765,-14.648,47.852,41.016,6.348,368.652,0
1553632624.769,48.340,41.016,30.762,-14.648,-921.387,0
1553632624.773,17.578,45.410,21.484,-10.254,-46.387,0
1553632624.777,10.254,49.316,26.367,0.977,-24.902,0
1553632624.781,26.855,45.410,32.227,17.090,-187.988,0
1553632624.785,37.109,41.504,31.738,16.113,-259.277,0
1553632624.789,9.766,38.086,26.855,-5.859,-2.930,0
1553632624.793,-22.949,43.945,28.809,-3.418,603.027,0
1553632624.796,37.598,44.434,32.715,-5.371,-762.695,0
1553632624.800,20.996,41.016,20.996,2.930,-71.289,0
1553632624.804,-99.121,48.340,13.672,39.551,-833.496,0
1553632624.808,-73.730,55.176,32.715,25.879,840.332,0
1553632624.812,32.227,49.316,39.551,-17.578,-501.465,0
1553632624.816,2.441,40.039,24.414,-11.230,-334.473,0
1553632624.820,-36.133,38.574,27.832,5.859,433.105,0
1553632624.824,31.250,45.898,42.480,-23.438,-825.684,0
1553632624.828,76.660,44.434,40.527,-30.762,-1000.000,0
