timestamps,TP9,AF7,AF8,TP10,Right AUX,Marker0
30850.670,19.043,33.691,22.461,20.020,60.059,0
30850.674,17.578,31.250,27.344,39.551,139.648,0
30850.678,22.461,29.297,27.832,27.832,-30.762,0
30850.682,27.832,32.227,26.855,12.207,-134.766,0
30850.686,29.297,33.691,33.691,15.137,20.508,0
30850.690,34.180,29.785,34.668,36.621,163.574,0
30850.694,34.180,27.832,32.227,38.086,38.086,0
30850.698,31.250,27.344,32.715,20.508,-125.000,0
30850.702,30.762,25.879,31.250,22.949,-25.879,0
30850.705,31.738,25.391,27.832,46.387,156.250,0
30850.709,37.109,27.344,30.273,49.805,99.121,0
30850.713,40.527,26.855,35.156,25.391,-89.355,0
30850.717,39.062,26.367,35.645,20.020,-75.195,0
30850.721,39.062,29.297,37.598,40.039,125.000,0
30850.725,38.574,29.785,37.109,49.316,145.508,0
30850.729,33.691,30.273,34.668,36.621,-60.059,0
30850.733,33.691,32.715,32.715,21.484,-118.652,0
30850.737,29.785,31.250,33.203,28.809,67.871,0
30850.741,29.785,28.320,32.715,41.992,165.039,0
30850.745,32.227,30.762,31.738,31.738,-5.371,0
30850.748,35.156,31.738,34.180,12.207,-139.160,0
30850.752,35.645,33.203,34.180,18.555,11.719,0
30850.756,25.391,30.273,26.367,30.273,171.387,0
30850.760,20.996,27.344,22.461,21.484,53.223,0
30850.764,15.625,28.809,25.879,3.418,-131.348,0
30850.768,18.555,32.715,29.297,2.441,-63.477,0
30850.772,23.438,31.250,30.273,28.809,124.512,0
30850.776,23.438,28.809,29.297,37.109,84.961,0
30850.780,31.250,29.297,30.762,20.996,-107.910,0
30850.784,35.156,28.809,30.762,11.719,-103.516,0
30850.787,26.367,26.367,28.320,23.926,90.332,0
30850.791,26.855,24.414,28.809,41.992,127.441,0
30850.795,36.133,26.367,30.762,36.133,-53.711,0
30850.799,38.086,28.809,31.738,18.555,-128.906,0
30850.803,37.109,29.297,33.203,25.391,37.109,0
30850.807,35.645,26.367,31.738,45.898,151.367,0
30850.811,30.273,20.508,30.273,41.016,1.953,0
30850.815,30.273,20.996,32.715,23.438,-132.812,0
30850.819,33.203,26.855,36.133,28.320,0.000,0
30850.823,30.273,28.809,36.621,45.410,162.109,0
30850.827,26.367,27.344,35.156,48.340,62.500,0
30850.830,28.320,28.320,35.156,34.668,-120.605,0
30850.834,29.297,30.762,33.203,30.273,-59.082,0
30850.838,29.297,27.832,32.227,48.340,136.230,0
30850.842,30.762,30.762,34.180,44.922,118.652,0
30850.846,32.715,37.109,34.180,18.555,-79.102,0
30850.850,31.250,35.156,35.156,6.348,-102.051,0
30850.854,28.320,33.691,33.203,15.625,87.402,0
30850.858,23.438,29.785,28.320,29.785,153.320,0
30850.862,15.625,26.855,27.832,27.344,-33.203,0
30850.866,15.625,29.297,33.203,10.254,-147.949,0
30850.870,20.996,29.785,34.668,14.160,14.648,0
30850.873,16.113,27.832,36.133,34.180,144.043,0
30850.877,13.184,27.832,34.180,32.227,0.488,1
30850.881,21.973,30.273,32.715,11.719,-151.855,0
30850.885,24.902,27.344,35.156,11.230,-40.039,0
30850.889,23.438,25.879,32.715,29.785,137.207,0
30850.893,25.391,27.344,32.227,39.062,74.707,0
30850.897,23.438,27.344,31.738,23.438,-110.840,0
30850.901,21.973,27.344,30.273,20.996,-76.172,0
30850.905,27.832,27.344,36.133,57.129,125.488,0
30850.909,30.762,29.297,36.621,61.035,141.113,0
30850.912,24.902,28.809,33.691,24.414,-49.805,0
30850.916,31.738,29.297,33.691,11.230,-100.098,0
30850.920,39.551,26.855,34.668,31.738,82.031,0
30850.924,32.715,25.879,35.645,49.805,159.668,0
30850.928,35.156,29.297,34.180,40.527,-8.301,0
30850.932,38.574,31.250,33.691,23.438,-121.582,0
30850.936,31.738,31.250,35.156,24.414,21.973,0
30850.940,29.785,29.785,35.645,44.434,170.410,0
30850.944,31.250,27.832,29.297,42.969,52.246,0
30850.948,30.762,28.809,27.832,20.020,-129.883,0
30850.952,27.344,29.785,31.250,15.137,-57.129,0
30850.955,22.461,28.809,31.250,33.691,136.719,0
30850.959,24.414,30.273,33.691,41.992,99.121,0
30850.963,25.391,33.691,36.621,21.973,-104.980,0
30850.967,22.949,36.133,36.133,10.254,-110.352,0
30850.971,23.438,34.668,36.621,24.414,84.473,0
30850.975,23.438,31.738,34.668,36.621,130.859,0
30850.979,23.926,27.832,30.762,24.414,-54.199,0
30850.983,22.461,29.297,31.738,16.113,-126.465,0
30850.987,30.762,30.762,33.203,34.668,62.012,0
30850.991,33.691,29.297,35.156,41.992,169.434,0
30850.995,24.414,30.762,32.715,24.414,-1.953,0
30850.998,28.809,34.180,32.715,9.277,-141.113,0
30851.002,33.203,35.645,37.109,16.113,-6.836,0
30851.006,36.621,32.715,38.086,42.480,160.645,0
30851.010,38.086,31.738,34.180,42.969,77.637,0
30851.014,35.645,34.180,27.344,21.973,-97.656,0
30851.018,37.598,34.180,28.320,28.320,-46.387,0
30851.022,41.992,33.203,31.738,52.734,146.973,0
30851.026,42.969,32.227,32.227,58.105,133.301,0
30851.030,44.434,31.250,35.645,34.668,-67.383,0
30851.034,41.016,33.691,36.133,15.625,-94.727,0
30851.037,35.156,34.180,35.156,32.227,99.609,0
30851.041,34.180,31.250,32.227,50.781,165.527,0
30851.045,36.621,32.227,29.785,47.852,-5.859,0
30851.049,39.551,32.715,32.715,29.785,-93.750,0
30851.053,35.156,29.785,33.691,27.344,72.754,0
30851.057,27.832,26.855,28.809,41.992,187.988,0
30851.061,27.344,27.344,27.344,40.527,12.207,0
30851.065,32.715,29.785,32.715,23.926,-160.645,0
30851.069,30.762,31.738,33.691,17.090,-45.898,0
30851.073,29.785,31.738,33.203,40.039,136.719,0
30851.077,35.645,29.297,33.203,42.480,65.430,0
30851.080,34.668,31.250,32.715,11.719,-120.605,0
30851.084,35.156,33.691,34.668,5.371,-75.684,0
30851.088,38.574,31.250,34.668,27.832,124.023,0
30851.092,39.551,28.320,32.227,39.551,130.371,0
30851.096,35.645,30.273,29.785,25.391,-64.941,0
30851.100,33.203,35.645,30.273,15.137,-101.562,0
30851.104,36.133,37.109,36.133,35.645,100.098,0
30851.108,41.016,31.250,38.086,57.129,178.711,0
30851.112,41.504,29.297,33.691,51.270,-6.836,0
30851.116,39.551,32.715,34.180,35.156,-128.418,0
30851.120,35.156,32.715,34.180,31.250,24.902,0
30851.123,34.180,29.785,32.227,44.922,179.688,0
30851.127,39.062,29.785,32.227,39.062,60.547,0
30851.131,41.504,34.668,37.598,20.020,-99.609,0
30851.135,40.039,36.621,41.504,24.902,-5.371,0
30851.139,38.574,34.668,34.668,44.434,159.668,0
30851.143,32.715,33.691,33.203,44.922,103.027,0
30851.147,29.785,33.203,35.156,34.180,-85.449,0
30851.151,35.645,34.180,29.297,25.391,-76.660,0
30851.155,32.715,31.738,28.320,38.574,117.676,0
30851.159,30.273,29.297,32.715,59.570,146.484,0
30851.162,35.645,32.227,30.273,39.062,-52.734,0
30851.166,40.527,31.250,28.320,19.531,-114.258,0
30851.170,40.039,26.855,37.598,33.203,68.359,0
30851.174,36.621,24.902,43.457,49.805,159.180,0
30851.178,33.203,27.344,34.668,43.457,-4.883,0
30851.182,34.180,32.227,29.297,20.996,-140.137,0
30851.186,34.668,30.762,30.273,21.484,-10.742,0
30851.190,32.715,28.809,34.180,48.340,152.832,0
30851.194,28.320,28.809,34.668,49.805,49.805,0
30851.198,23.438,28.809,29.297,26.855,-134.277,0
30851.202,31.250,28.320,31.738,24.902,-56.641,0
30851.205,36.621,27.832,33.203,40.039,136.230,0
30851.209,32.227,24.414,32.227,41.016,96.680,0
30851.213,26.367,21.973,34.668,21.484,-103.027,0
30851.217,25.391,27.344,34.180,19.043,-109.375,0
30851.221,28.320,25.879,30.762,33.203,85.938,0
30851.225,17.090,18.555,27.344,31.250,131.348,0
30851.229,16.602,21.973,26.855,21.973,-45.410,0
30851.233,28.809,26.367,29.785,16.602,-122.559,0
30851.237,26.855,22.461,32.227,22.949,50.293,0
30851.241,27.832,21.973,32.715,42.480,174.805,0
30851.245,27.344,25.391,30.273,46.387,24.414,0
30851.248,21.484,24.414,29.297,22.949,-130.859,0
30851.252,24.902,23.926,31.250,17.090,-14.648,0
30851.256,27.344,21.484,26.855,36.621,151.855,0
30851.260,25.391,20.020,23.926,42.969,61.035,0
30851.264,26.367,23.926,27.344,24.414,-124.512,0
30851.268,26.367,24.414,26.855,15.137,-81.543,0
30851.272,29.785,24.902,29.785,33.203,110.840,0
30851.276,32.227,26.367,31.738,41.504,113.281,0
30851.280,28.809,27.832,30.762,24.414,-70.801,0
30851.284,28.320,27.832,29.785,12.695,-101.562,0
30851.287,22.949,23.926,26.855,17.090,79.102,0
30851.291,20.508,24.902,29.785,29.297,142.090,0
30851.295,23.926,26.855,34.668,25.391,-46.387,0
30851.299,26.367,26.367,34.668,15.625,-148.438,0
30851.303,25.879,27.832,33.691,26.855,15.625,0
30851.307,27.344,26.367,34.668,33.691,155.273,0
30851.311,30.273,25.879,37.598,30.762,38.574,0
30851.315,32.715,27.832,35.156,21.484,-118.652,0
30851.319,29.297,27.344,31.738,17.090,-28.320,0
30851.323,23.926,23.438,29.785,30.273,142.090,0
30851.327,20.508,22.461,29.297,39.062,76.660,0
30851.330,21.484,28.809,28.809,21.973,-109.863,0
30851.334,23.438,30.273,30.762,15.137,-82.031,0
30851.338,23.438,26.855,30.762,34.180,118.652,0
30851.342,27.344,26.367,28.320,50.781,144.043,0
30851.346,23.926,25.879,30.273,37.109,-54.199,0
30851.350,28.809,25.391,32.227,16.113,-126.953,0
30851.354,32.715,26.367,34.180,27.832,53.711,0
30851.358,24.902,26.367,33.691,44.922,150.391,0
30851.362,23.438,27.832,32.715,33.691,-4.883,0
30851.366,31.738,32.227,33.691,12.695,-126.465,0
30851.370,39.062,32.227,26.367,19.531,-2.441,0
30851.373,36.621,33.203,24.414,38.574,146.484,0
30851.377,35.645,34.180,31.738,35.156,47.852,0
30851.381,38.086,32.715,33.203,15.137,-118.164,0
30851.385,40.527,31.250,28.809,20.996,-42.969,0
30851.389,40.527,30.762,26.367,41.992,140.625,0
30851.393,38.574,34.180,25.879,48.340,108.887,0
30851.397,34.668,36.621,23.926,26.367,-75.684,0
30851.401,33.203,35.645,23.926,7.812,-73.730,0
30851.405,32.715,36.621,26.855,25.879,117.188,0
30851.409,31.250,36.621,28.320,44.434,151.367,0
30851.412,32.227,37.598,29.297,34.180,-31.738,0
30851.416,32.227,38.574,27.344,15.137,-107.422,0
30851.420,30.762,37.598,25.879,24.414,57.129,0
30851.424,25.391,33.691,24.902,48.828,166.992,0
30851.428,26.855,29.785,22.949,49.316,12.695,0
30851.432,36.621,33.691,26.367,31.250,-128.906,0
30851.436,39.062,36.621,28.809,32.227,-0.488,0
30851.440,37.598,37.598,29.297,54.199,165.527,0
30851.444,36.621,37.109,28.809,57.617,68.359,0
30851.448,34.668,35.156,24.414,33.203,-113.770,1
30851.452,40.039,37.598,22.949,21.973,-48.828,0
30851.455,39.062,35.156,23.438,35.645,145.508,0
30851.459,30.762,29.785,22.461,40.039,115.234,0
30851.463,33.691,33.691,25.391,29.297,-83.496,0
30851.467,38.574,36.621,24.902,19.043,-99.609,0
30851.471,34.180,35.156,23.926,26.855,91.797,0
30851.475,34.668,36.621,28.809,39.551,155.762,0
30851.479,31.250,34.180,25.879,33.691,-20.020,0
30851.483,31.738,32.227,23.926,20.508,-112.793,0
30851.487,35.645,37.109,22.949,27.832,40.527,0
30851.491,27.832,34.180,20.020,42.969,154.297,0
30851.495,30.762,32.227,24.414,40.527,24.414,0
30851.498,39.062,36.133,25.391,24.414,-127.441,0
30851.502,35.156,33.203,26.367,23.926,-31.250,0
30851.506,26.855,30.762,28.809,41.992,136.719,0
30851.510,22.949,28.320,27.344,41.504,66.895,0
30851.514,21.484,26.367,29.785,23.438,-110.840,0
30851.518,28.809,31.738,33.691,23.926,-77.148,0
30851.522,34.180,32.715,35.156,46.875,113.281,0
30851.526,31.738,30.273,33.691,54.688,120.605,0
30851.530,34.180,27.832,30.273,36.621,-67.871,0
30851.534,38.574,25.879,30.273,21.973,-104.004,0
30851.537,41.504,27.344,30.762,38.574,92.773,0
30851.541,37.598,26.367,27.832,61.523,174.316,0
30851.545,36.621,25.879,27.832,44.434,-2.441,0
30851.549,42.969,27.344,28.320,21.973,-124.512,0
30851.553,44.922,32.227,31.250,32.227,23.438,0
30851.557,44.434,29.297,32.227,51.270,172.852,0
30851.561,41.992,21.484,31.738,46.387,54.199,0
30851.565,40.039,23.926,32.715,28.809,-115.723,0
30851.569,41.016,25.879,34.180,25.879,-32.715,0
30851.573,40.039,26.855,33.203,41.016,165.039,0
30851.577,43.457,30.273,33.203,50.781,128.418,0
30851.580,47.852,30.273,33.691,36.621,-65.430,0
30851.584,44.922,27.832,33.203,22.949,-58.105,0
30851.588,41.504,25.391,32.715,35.645,141.602,0
30851.592,39.551,21.484,33.691,45.898,178.223,0
30851.596,36.133,22.461,38.574,34.180,-19.043,0
30851.600,39.062,24.902,36.133,25.879,-97.168,0
30851.604,38.086,25.879,33.203,34.668,76.660,0
30851.608,31.738,24.414,34.668,48.340,175.781,0
30851.612,24.902,21.484,30.762,40.039,-0.488,0
30851.616,25.391,22.949,30.273,24.902,-136.230,0
30851.620,31.250,23.438,31.738,28.809,2.930,0
30851.623,34.180,23.438,28.320,42.969,156.738,0
30851.627,34.180,26.367,26.855,44.922,56.152,0
30851.631,34.668,28.320,24.414,23.438,-118.652,0
30851.635,32.715,31.738,24.414,8.789,-56.152,0
30851.639,32.715,33.691,25.879,27.344,136.230,0
30851.643,34.180,32.715,27.344,41.504,115.234,0
30851.647,36.621,32.227,30.273,20.996,-89.355,0
30851.651,37.109,31.738,27.344,7.812,-115.723,0
30851.655,35.645,31.250,27.344,23.926,84.961,0
30851.659,30.273,26.367,27.344,35.156,138.184,0
30851.662,30.273,27.344,24.902,25.879,-49.805,0
30851.666,32.715,28.809,27.832,8.789,-141.602,0
30851.670,25.879,27.832,25.879,15.137,22.949,0
30851.674,22.461,27.344,24.414,34.668,147.949,0
30851.678,20.508,26.855,28.320,25.879,-1.953,0
30851.682,22.461,30.273,27.344,6.836,-148.438,0
30851.686,23.438,30.762,26.855,12.207,-29.297,0
30851.690,25.391,27.344,28.320,31.738,145.508,0
30851.694,23.926,28.320,24.902,35.645,75.684,0
30851.698,21.973,31.738,26.855,18.555,-112.305,0
30851.702,26.367,31.250,35.156,13.184,-70.801,0
30851.705,24.902,32.227,36.621,30.762,131.836,0
30851.709,21.973,32.227,28.809,45.898,129.395,0
30851.713,30.762,32.715,31.250,37.109,-65.918,0
30851.717,34.668,35.156,35.156,22.461,-99.609,0
30851.721,33.691,34.180,31.250,38.086,91.309,0
30851.725,34.180,31.738,29.785,52.246,172.363,0
30851.729,34.668,31.250,30.762,35.156,-2.441,0
30851.733,41.504,34.668,32.715,18.066,-119.141,0
30851.737,38.574,35.156,32.227,21.973,31.738,0
30851.741,30.762,32.715,34.668,49.316,177.734,0
30851.745,31.250,30.273,36.133,53.711,49.316,0
30851.748,37.598,31.250,34.668,23.926,-115.723,0
30851.752,44.922,34.180,36.133,31.250,-15.137,0
30851.756,43.945,33.691,35.156,60.059,162.598,0
30851.760,41.992,33.203,34.180,58.105,96.191,0
30851.764,46.875,36.621,34.180,38.086,-99.121,0
30851.768,45.898,35.156,32.715,29.785,-85.938,0
30851.772,42.480,30.273,28.809,41.016,101.562,0
30851.776,35.156,27.832,26.855,50.293,123.047,0
30851.780,31.250,23.926,29.297,34.668,-61.035,0
30851.784,35.645,26.855,32.715,19.531,-118.652,0
30851.787,32.227,32.227,35.645,35.156,59.570,0
30851.791,32.227,31.738,31.250,54.199,152.344,0
30851.795,35.156,30.762,29.785,43.945,-8.789,0
30851.799,37.109,29.785,34.180,20.508,-137.207,0
30851.803,32.715,29.297,31.738,25.391,0.000,0
30851.807,26.855,28.809,27.832,48.828,155.273,0
30851.811,26.855,27.344,27.832,51.270,48.340,0
30851.815,32.227,29.297,29.297,24.414,-124.512,0
30851.819,41.016,32.227,26.367,21.484,-47.363,0
30851.823,39.551,33.203,27.832,45.898,141.602,0
30851.827,35.156,33.691,32.227,50.781,104.492,0
30851.830,36.133,34.668,29.785,33.203,-92.285,0
30851.834,36.621,36.133,27.832,16.602,-96.680,0
30851.838,32.715,34.668,28.320,31.250,108.398,0
30851.842,30.273,31.738,29.785,49.805,159.668,0
30851.846,39.062,32.227,29.785,45.410,-39.062,0
30851.850,48.828,38.086,27.344,30.762,-116.211,0
30851.854,50.781,41.504,24.902,41.016,72.266,0
30851.858,43.945,37.109,25.391,57.617,180.176,0
30851.862,32.227,31.250,27.344,39.062,15.137,0
30851.866,23.926,29.297,31.738,7.812,-136.719,0
30851.870,26.367,31.738,33.691,14.160,-9.766,0
30851.873,27.832,32.715,31.250,44.434,163.574,0
30851.877,27.832,28.320,30.762,45.410,69.336,0
30851.881,28.809,32.715,31.250,28.320,-117.676,0
30851.885,28.320,38.086,34.668,24.902,-65.430,0
30851.889,26.367,34.180,38.574,35.156,120.605,0
30851.893,18.555,29.297,37.109,38.574,98.633,0
30851.897,25.879,26.855,33.691,27.832,-96.680,0
30851.901,26.855,28.320,33.691,12.695,-127.441,0
30851.905,20.020,28.320,40.039,25.879,62.500,0
30851.909,21.973,29.297,34.668,42.480,135.254,0
30851.912,6.836,25.879,33.203,20.020,-55.664,0
30851.916,-5.859,23.926,38.574,-5.859,-165.527,0
30851.920,-2.930,30.273,34.668,-5.859,-0.977,0
30851.924,-2.441,35.645,40.039,10.742,134.277,0
30851.928,-17.090,37.598,39.551,-11.230,-19.043,0
30851.932,-27.832,39.062,42.969,-47.363,-193.359,0
30851.936,-47.852,33.203,42.969,-50.781,-105.957,0
30851.940,-70.312,27.832,39.062,-45.898,50.781,0
30851.944,-73.730,34.668,36.621,-60.059,-22.949,0
30851.948,-86.426,44.434,34.668,-96.680,-224.121,0
30851.952,-99.609,55.664,39.062,-117.676,-208.008,0
30851.955,-112.305,58.594,41.504,-111.816,-30.273,0
30851.959,-140.137,46.387,40.039,-127.930,-41.992,0
30851.963,-143.555,42.480,41.016,-156.250,-240.723,0
30851.967,-129.395,54.688,43.457,-150.391,-286.133,0
30851.971,-148.438,55.664,38.086,-148.438,-123.047,0
30851.975,-160.645,45.898,35.156,-149.414,-43.945,0
30851.979,-150.879,45.410,35.156,-144.531,-193.848,0
30851.983,-148.438,47.852,33.203,-159.668,-315.918,1
30851.987,-147.461,47.363,42.480,-153.320,-172.852,0
30851.991,-147.461,41.992,45.898,-128.906,-18.555,0
30851.995,-134.766,41.992,34.668,-125.977,-125.977,0
30851.998,-118.164,42.969,35.156,-139.648,-288.574,0
30852.002,-121.094,35.645,41.504,-140.137,-202.637,0
30852.006,-119.141,36.621,34.668,-117.676,-7.812,0
30852.010,-114.746,40.039,33.203,-111.328,-55.664,0
30852.014,-106.934,44.434,34.180,-125.488,-256.348,0
30852.018,-104.492,43.945,32.715,-127.441,-249.023,0
30852.022,-105.957,34.668,39.551,-105.957,-49.805,0
30852.026,-103.027,30.762,42.969,-86.914,-0.488,0
30852.030,-99.609,30.273,39.551,-95.215,-181.152,0
30852.034,-87.891,31.738,39.062,-104.492,-253.418,0
30852.037,-76.172,36.133,38.086,-92.285,-73.730,0
30852.041,-74.219,47.852,23.438,-72.266,48.828,0
30852.045,-66.895,47.363,20.020,-68.848,-86.426,0
30852.049,-58.594,42.480,28.809,-83.984,-218.262,0
30852.053,-69.824,33.691,33.203,-79.590,-103.516,0
30852.057,-80.078,20.508,33.203,-61.035,48.340,0
30852.061,-75.684,21.484,23.926,-60.059,-40.527,0
30852.065,-67.383,26.367,25.879,-74.219,-216.309,0
30852.069,-56.152,39.551,31.738,-81.055,-151.855,0
30852.073,-49.316,44.434,24.414,-60.059,51.270,0
30852.077,-49.316,37.109,25.879,-41.992,34.668,0
30852.080,-49.316,34.180,35.156,-57.617,-162.598,0
30852.084,-58.105,28.809,32.227,-73.730,-193.359,0
30852.088,-54.688,26.367,31.738,-54.199,-3.418,0
30852.092,-41.016,26.855,36.621,-33.203,80.566,0
30852.096,-30.762,30.273,31.250,-38.574,-89.355,0
30852.100,-20.020,28.809,31.738,-41.992,-188.965,0
30852.104,-21.973,24.414,37.598,-35.645,-27.344,0
30852.108,-23.438,26.367,38.574,-25.391,113.281,0
30852.112,-28.809,24.414,35.645,-30.762,-22.461,0
30852.116,-25.391,26.367,44.434,-36.621,-188.965,0
30852.120,-23.438,26.855,45.410,-36.133,-92.773,0
30852.123,-17.090,25.391,35.156,-15.625,85.938,0
30852.127,-5.371,30.762,38.086,0.000,35.156,0
30852.131,-10.742,28.809,41.504,-27.832,-155.273,0
30852.135,-13.672,27.344,36.621,-39.062,-122.559,0
30852.139,-6.348,35.645,40.527,-10.254,92.285,0
30852.143,-17.090,27.344,40.039,-1.953,96.680,0
30852.147,-26.855,23.438,34.668,-30.273,-102.539,0
30852.151,-9.766,36.133,39.062,-29.297,-132.324,0
30852.155,-15.137,30.273,42.969,-4.395,37.598,0
30852.159,-25.391,24.414,37.598,-6.348,97.656,0
30852.162,-24.414,24.414,36.133,-20.996,-75.195,0
30852.166,-30.273,20.996,43.945,-36.621,-192.871,0
30852.170,-31.250,20.020,38.574,-32.715,-48.828,0
30852.174,-18.066,20.508,34.180,-4.395,113.770,0
30852.178,-1.953,23.438,43.457,2.441,17.090,0
30852.182,0.977,24.414,45.898,-14.160,-154.297,0
30852.186,2.930,21.484,47.852,-9.277,-73.242,0
30852.190,5.371,22.949,47.852,12.695,115.234,0
30852.194,-2.930,18.555,41.016,14.648,62.500,0
30852.198,7.324,20.508,44.922,5.859,-124.512,0
30852.202,9.766,16.113,49.316,8.301,-108.887,0
30852.205,1.465,8.301,49.316,23.926,84.961,0
30852.209,2.930,22.461,44.922,26.367,118.652,0
30852.213,1.953,21.973,41.992,9.766,-69.824,0
30852.217,0.488,15.625,48.340,-0.488,-133.789,0
30852.221,-9.277,15.625,44.434,6.836,24.902,0
30852.225,-5.859,13.672,38.574,23.438,121.582,0
30852.229,-5.859,16.113,40.039,14.648,-31.738,0
30852.233,-2.930,15.625,43.457,1.953,-161.133,0
30852.237,-4.395,9.766,44.922,3.906,-23.926,0
30852.241,-11.719,11.230,40.527,10.742,131.836,0
30852.245,3.418,21.973,33.203,15.625,37.109,0
30852.248,9.277,20.996,32.715,6.348,-125.977,0
30852.252,1.953,13.672,41.992,1.465,-61.035,0
30852.256,9.766,21.484,40.039,19.531,123.047,0
30852.260,25.879,24.902,39.062,37.109,111.328,0
30852.264,26.855,23.438,39.062,28.320,-75.195,0
30852.268,21.484,23.438,38.086,17.578,-98.145,0
30852.272,23.926,20.508,41.504,40.527,98.145,0
30852.276,24.902,14.160,46.875,62.012,155.762,0
30852.280,38.086,19.043,45.898,56.641,-23.926,0
30852.284,45.898,25.879,41.992,41.504,-104.004,0
30852.287,49.316,23.926,41.504,49.316,61.523,0
30852.291,58.594,21.484,39.551,72.266,176.270,0
30852.295,62.012,20.508,38.086,72.266,33.203,0
30852.299,66.406,22.461,39.551,67.871,-103.516,0
30852.303,77.148,22.949,44.922,74.707,23.438,0
30852.307,83.008,21.973,40.039,87.402,190.918,0
30852.311,90.332,22.949,27.832,95.215,120.117,0
30852.315,106.934,25.879,24.414,90.332,-45.898,0
30852.319,116.699,26.367,28.809,91.797,-0.977,0
30852.323,122.559,27.344,25.391,111.328,201.660,0
30852.327,127.441,28.320,21.484,131.836,206.055,0
30852.330,130.859,23.438,25.391,126.465,10.742,0
30852.334,142.578,20.508,22.461,116.699,-15.625,0
30852.338,151.855,19.531,20.996,134.766,187.012,0
30852.342,152.832,20.996,20.020,153.320,267.578,0
30852.346,156.738,20.508,21.973,151.367,109.375,0
30852.350,162.598,17.090,27.832,145.996,20.996,0
30852.354,164.062,17.090,26.855,161.133,179.199,0
30852.358,166.504,17.090,20.996,187.012,313.965,0
30852.362,170.898,19.043,18.555,185.547,174.316,0
30852.366,182.617,24.414,17.090,166.992,9.277,0
30852.370,189.453,24.414,14.160,167.969,109.375,0
30852.373,181.641,25.391,10.742,182.617,284.668,0
30852.377,174.316,28.320,8.301,179.199,216.797,0
30852.381,174.316,31.250,11.230,157.227,21.973,0
30852.385,172.852,32.227,13.184,152.832,42.969,0
30852.389,164.062,27.344,7.324,160.645,235.840,0
30852.393,162.598,24.414,8.789,164.551,267.090,0
30852.397,169.922,28.809,12.207,151.367,83.496,0
30852.401,174.805,29.297,12.695,140.625,27.832,0
30852.405,171.875,28.809,12.695,155.273,209.473,0
30852.409,169.922,25.391,10.742,168.457,296.875,0
30852.412,169.434,20.996,12.207,162.109,127.441,0
30852.416,167.480,25.391,13.672,147.949,1.953,0
30852.420,163.574,27.832,15.137,153.320,142.578,0
30852.424,158.691,21.484,17.578,170.898,283.691,0
30852.428,146.484,18.066,15.625,164.062,157.715,0
30852.432,139.648,25.391,14.648,135.742,-12.207,0
30852.436,137.207,28.809,16.113,127.441,65.430,0
30852.440,129.883,23.438,16.602,146.484,235.352,0
30852.444,124.023,23.438,18.555,145.996,185.547,0
30852.448,121.094,24.902,18.066,125.488,-5.859,0
30852.452,123.535,31.250,16.602,119.141,-3.906,0
30852.455,119.141,32.227,16.113,129.883,190.918,0
30852.459,117.676,26.367,16.602,136.230,240.723,0
30852.463,114.258,25.391,19.043,119.629,58.105,0
30852.467,109.375,26.855,17.578,98.633,-18.066,0
30852.471,113.281,27.344,16.113,105.957,160.156,0
30852.475,114.746,26.855,17.578,124.512,281.738,0
30852.479,110.840,25.391,14.648,111.816,130.371,0
30852.483,116.211,26.855,16.602,90.820,-25.879,0
30852.487,116.211,27.832,20.508,92.285,83.008,0
30852.491,112.305,28.320,20.020,108.398,246.582,0
30852.495,109.863,27.832,24.414,116.699,156.738,0
30852.498,103.516,28.809,23.926,93.750,-41.992,0
30852.502,106.934,33.203,20.996,82.520,1.953,0
30852.506,104.980,32.227,23.438,99.121,194.824,0
30852.510,94.727,31.738,20.508,98.633,168.945,0
30852.514,87.891,34.668,18.066,83.008,-30.273,0
30852.518,87.891,35.156,19.043,74.707,-57.617,0
30852.522,86.426,36.621,19.043,86.914,129.883,0
30852.526,78.125,35.156,17.090,95.703,193.359,0
30852.530,70.312,36.133,18.555,79.102,10.742,0
30852.534,65.918,39.551,21.484,62.500,-89.355,0
30852.537,62.988,39.062,21.484,74.219,77.637,0
30852.541,64.941,34.668,22.461,88.867,216.309,0
30852.545,66.406,33.203,24.902,82.031,77.148,0
30852.549,64.453,33.203,27.344,62.988,-83.496,0
30852.553,65.918,32.715,27.832,61.523,19.531,0
30852.557,68.359,32.715,25.391,82.031,196.289,0
30852.561,71.289,29.785,24.414,80.566,136.230,0
30852.565,76.172,30.762,23.926,59.082,-46.387,0
30852.569,81.055,35.645,24.414,57.617,-19.043,0
30852.573,78.613,37.109,26.367,68.848,162.598,0
30852.577,71.289,33.691,26.367,76.660,167.969,0
30852.580,72.266,29.785,27.344,64.941,-23.438,0
30852.584,72.754,34.180,30.762,40.039,-86.426,0
30852.588,66.406,33.203,28.320,46.875,89.844,0
30852.592,61.035,27.832,26.367,69.824,187.500,0
30852.596,57.129,25.879,27.344,61.523,13.184,0
30852.600,57.617,26.855,27.832,39.062,-119.629,0
30852.604,57.129,26.855,29.297,48.340,16.602,0
30852.608,54.199,24.414,29.297,69.336,163.574,0
30852.612,52.246,25.391,27.832,65.918,53.223,0
30852.616,52.734,26.367,26.367,42.480,-111.816,0
30852.620,54.199,25.879,24.902,31.250,-26.855,0
30852.623,49.805,25.879,26.367,48.340,163.574,1
30852.627,39.551,22.949,26.855,50.781,122.559,0
30852.631,40.039,21.973,27.344,37.109,-77.637,0
30852.635,45.410,22.949,26.367,35.645,-78.125,0
30852.639,43.945,24.414,30.762,54.199,123.047,0
30852.643,41.992,23.926,38.086,66.406,162.109,0
30852.647,44.922,23.438,36.621,54.199,-22.949,0
30852.651,53.711,26.367,33.691,43.457,-81.055,0
30852.655,56.152,28.320,31.738,52.734,88.867,0
30852.659,52.246,25.879,33.203,69.336,183.105,0
30852.662,48.340,24.414,33.203,63.477,24.902,0
30852.666,50.293,26.855,31.738,43.945,-109.375,0
30852.670,50.781,27.344,32.715,45.898,29.785,0
30852.674,47.852,28.320,30.762,62.012,192.383,0
30852.678,43.945,27.832,24.902,56.152,79.102,0
30852.682,41.504,28.809,22.949,38.086,-116.211,0
30852.686,41.504,31.250,26.855,30.762,-64.453,0
30852.690,33.203,26.855,27.344,40.527,121.582,0
30852.694,27.832,21.973,24.414,45.410,102.539,0
30852.698,28.320,20.508,20.996,27.344,-87.891,0
30852.702,28.320,22.461,20.020,20.996,-109.375,0
30852.705,34.180,24.902,26.367,45.410,81.543,0
30852.709,36.621,24.414,31.738,60.547,148.438,0
30852.713,38.086,23.926,31.738,44.434,-21.973,0
30852.717,41.992,22.461,30.762,25.879,-107.910,0
30852.721,41.016,22.949,26.367,41.504,56.641,0
30852.725,35.156,23.438,25.391,58.105,184.082,0
30852.729,36.133,23.438,29.297,47.363,54.688,0
30852.733,39.551,24.414,29.297,33.203,-100.586,0
30852.737,37.598,27.344,26.855,36.133,3.906,0
30852.741,36.133,29.297,27.344,52.246,187.012,0
30852.745,38.086,27.344,27.832,58.594,113.281,0
30852.748,40.039,27.344,26.367,44.922,-74.707,0
30852.752,42.480,29.297,29.785,32.227,-38.086,0
30852.756,41.992,26.367,30.273,44.434,151.367,0
30852.760,41.016,22.461,25.879,56.152,150.879,0
30852.764,42.969,21.484,24.902,43.945,-47.363,0
30852.768,43.945,22.949,24.414,31.738,-94.727,0
30852.772,43.457,25.879,25.879,45.898,89.844,0
30852.776,33.203,26.855,24.902,55.176,156.738,0
30852.780,30.273,26.855,21.973,37.598,-23.926,0
30852.784,39.551,29.297,22.949,20.020,-131.836,0
30852.787,39.551,34.180,28.320,32.715,19.531,0
30852.791,35.645,33.203,28.809,49.316,149.414,0
30852.795,35.156,28.809,26.367,37.109,18.555,0
30852.799,31.738,30.273,25.879,9.766,-140.625,0
30852.803,35.645,30.762,26.855,10.254,-46.387,0
30852.807,32.715,29.297,30.762,28.320,136.230,0
30852.811,26.855,27.344,27.832,27.344,82.520,0
30852.815,34.180,30.762,27.344,14.648,-104.980,0
30852.819,34.180,30.762,26.367,7.812,-83.984,0
30852.823,29.785,29.297,25.879,28.320,123.047,0
30852.827,30.273,28.809,28.320,39.551,146.973,0
30852.830,29.297,30.273,30.273,23.438,-51.758,0
30852.834,29.297,33.203,31.738,10.742,-109.375,0
30852.838,31.738,30.762,34.180,18.555,66.406,0
30852.842,29.297,26.367,35.156,37.109,158.691,0
30852.846,27.344,25.391,32.227,37.598,0.000,0
30852.850,28.809,28.320,35.645,20.996,-122.070,0
30852.854,32.715,26.855,42.969,40.527,29.297,0
30852.858,33.203,28.320,39.551,67.383,189.453,0
30852.862,31.250,33.203,34.668,52.246,73.242,0
30852.866,37.109,35.645,34.180,27.832,-103.516,0
30852.870,37.598,36.133,31.250,26.367,-37.598,0
30852.873,31.250,34.668,30.762,43.457,147.949,0
30852.877,27.832,32.715,30.273,41.992,119.141,0
30852.881,28.320,31.738,30.762,22.461,-82.520,0
30852.885,37.109,33.203,30.762,18.555,-85.449,0
30852.889,39.551,35.645,32.227,34.180,108.398,0
30852.893,37.598,39.062,35.645,42.969,145.020,0
30852.897,37.598,37.598,35.156,28.809,-36.621,0
30852.901,38.574,37.109,34.180,12.207,-110.840,0
30852.905,43.457,38.086,35.645,22.461,49.316,0
30852.909,41.992,33.691,35.156,41.992,157.715,0
30852.912,38.574,28.809,32.715,36.133,27.344,0
30852.916,41.504,32.227,32.227,14.160,-125.977,0
30852.920,39.551,37.109,34.180,18.066,-25.879,0
30852.924,34.180,33.691,34.180,32.715,142.090,0
30852.928,33.203,32.715,35.156,28.809,56.641,0
30852.932,36.133,35.645,36.133,15.625,-124.023,0
30852.936,36.133,33.691,38.086,13.184,-75.195,0
30852.940,27.832,27.832,40.039,34.180,118.164,0
30852.944,26.855,28.809,41.016,47.363,119.629,0
30852.948,27.832,31.250,40.527,25.391,-80.078,0
30852.952,31.738,30.762,40.039,12.207,-118.164,0
30852.955,33.691,32.715,41.992,32.227,79.102,0
30852.959,27.344,30.273,41.992,48.340,153.320,0
30852.963,26.855,28.320,42.969,40.039,-14.648,0
30852.967,31.738,27.832,43.945,23.926,-112.305,0
30852.971,33.203,25.391,45.898,33.203,38.574,0
30852.975,21.973,21.484,40.527,52.246,162.598,0
30852.979,13.184,18.555,36.133,39.062,29.297,0
30852.983,21.484,22.461,37.109,14.160,-136.719,0
30852.987,29.785,27.344,41.504,11.230,-36.621,0
30852.991,30.273,27.832,45.410,31.250,150.879,0
30852.995,30.762,29.785,40.039,34.180,84.961,0
30852.998,30.273,33.203,36.133,11.719,-110.352,0
30853.002,29.297,33.203,39.551,2.930,-87.891,0
30853.006,25.391,31.738,38.086,25.391,105.469,0
30853.010,28.320,31.738,36.133,45.410,125.977,0
30853.014,28.320,31.738,36.133,31.738,-61.035,0
30853.018,27.344,29.785,34.668,9.277,-119.141,0
30853.022,24.902,31.738,38.574,16.113,50.293,0
30853.026,16.113,29.785,39.062,34.180,139.160,0
30853.030,18.555,26.855,36.133,22.949,-11.719,0
30853.034,23.438,28.809,38.574,3.418,-136.719,0
30853.037,24.902,29.785,40.039,16.602,2.930,0
30853.041,23.438,29.297,38.574,43.457,155.273,0
30853.045,19.043,30.273,39.062,37.598,36.133,0
30853.049,24.414,31.738,40.527,14.160,-125.000,0
30853.053,31.738,34.180,41.992,19.043,-36.133,0
30853.057,33.691,34.668,42.969,39.062,148.438,0
30853.061,31.738,33.691,42.969,46.387,101.074,0
30853.065,33.691,33.691,39.062,31.738,-98.145,0
30853.069,37.109,36.133,38.086,25.879,-91.797,0
30853.073,35.156,38.574,42.969,41.016,107.910,0
30853.077,35.645,35.645,41.016,46.387,151.367,0
30853.080,42.480,36.133,41.016,38.086,-41.504,0
30853.084,43.457,39.551,41.504,23.926,-126.953,0
30853.088,40.527,41.504,39.551,30.273,51.758,0
30853.092,41.992,44.434,42.480,50.293,166.504,0
30853.096,40.527,46.387,44.922,41.992,8.789,0
30853.100,39.062,48.828,46.387,24.414,-132.324,0
30853.104,41.016,47.363,44.434,29.297,-4.883,0
30853.108,42.480,45.898,43.457,43.945,169.922,0
30853.112,38.086,41.992,47.363,44.922,78.613,0
30853.116,38.574,41.992,49.316,28.809,-114.746,0
30853.120,37.598,46.387,48.828,18.555,-63.477,0
30853.123,33.691,48.340,49.805,38.086,129.395,0
30853.127,31.738,43.945,51.758,55.664,124.512,0
30853.131,29.297,35.645,52.246,39.551,-73.730,0
30853.135,28.809,33.203,54.688,22.949,-108.398,0
30853.139,29.297,30.762,54.688,35.156,86.426,0
30853.143,27.344,29.297,54.199,51.270,157.227,0
30853.147,26.367,33.203,57.617,41.504,-20.020,0
30853.151,27.832,38.574,56.152,25.391,-130.371,0
30853.155,22.461,36.621,54.199,29.297,18.555,0
30853.159,23.438,31.250,54.688,49.805,154.297,0
30853.162,31.250,30.762,51.270,45.410,29.785,0
30853.166,37.109,34.668,48.340,23.438,-119.141,0
30853.170,43.457,37.598,50.293,31.250,-8.301,0
30853.174,44.434,37.598,50.781,50.293,174.316,0
30853.178,42.480,38.086,48.828,43.945,102.539,0
30853.182,47.363,39.551,51.758,23.438,-91.797,0
30853.186,49.805,41.992,53.711,16.113,-60.547,0
30853.190,41.504,39.062,49.316,30.273,126.953,0
30853.194,40.039,35.645,49.316,41.504,128.906,0
30853.198,39.062,36.621,47.363,28.809,-67.383,0
30853.202,33.691,39.551,45.410,17.578,-111.816,0
30853.205,27.344,40.527,50.781,25.391,87.402,0
30853.209,18.066,37.109,51.270,35.156,164.062,0
30853.213,21.484,37.598,49.316,28.809,-32.227,0
30853.217,26.367,42.969,49.805,11.230,-151.855,0
30853.221,20.020,41.504,50.293,14.648,5.859,0
30853.225,18.066,38.086,52.734,39.062,157.715,0
30853.229,16.602,36.133,52.734,40.527,44.434,0
30853.233,16.113,32.227,50.781,18.066,-119.629,1
30853.237,13.672,34.668,50.293,15.625,-29.785,0
30853.241,9.277,36.133,48.828,33.691,148.926,0
30853.245,10.742,32.227,49.805,39.551,88.867,0
30853.248,15.137,32.715,49.805,23.926,-101.562,0
30853.252,25.391,34.180,52.734,22.461,-87.891,0
30853.256,27.344,35.156,56.152,41.504,105.469,0
30853.260,26.367,36.621,52.734,49.316,132.812,0
30853.264,35.156,36.621,47.852,32.227,-48.828,0
30853.268,36.133,39.551,50.293,19.043,-112.305,0
30853.272,33.203,41.016,49.805,31.250,57.129,0
30853.276,37.109,40.527,47.852,44.922,159.180,0
30853.280,39.062,39.551,46.875,35.156,4.883,0
30853.284,40.527,42.969,47.852,18.066,-132.324,0
30853.287,38.086,44.434,49.316,16.602,-6.836,0
30853.291,36.621,43.945,49.805,38.086,150.879,0
30853.295,37.598,44.434,49.316,45.898,50.781,0
30853.299,38.086,45.410,47.852,22.949,-123.535,0
30853.303,38.086,47.363,50.293,20.020,-47.852,0
30853.307,26.855,46.875,51.270,38.086,143.555,0
30853.311,18.555,44.434,48.828,40.527,107.422,0
30853.315,14.648,43.945,48.340,14.648,-93.262,0
30853.319,8.789,41.992,47.852,5.371,-107.910,0
30853.323,10.254,40.039,47.852,28.809,82.520,0
30853.327,17.090,39.551,53.223,41.016,138.184,0
30853.330,15.625,37.109,54.199,23.438,-47.852,0
30853.334,12.695,39.551,47.852,11.719,-133.301,0
30853.338,14.648,41.992,49.316,27.344,43.945,0
30853.342,9.277,37.598,53.223,43.457,171.875,0
30853.346,7.812,36.133,54.199,40.039,41.992,0
30853.350,14.160,35.645,56.152,24.902,-109.863,0
30853.354,20.996,36.621,58.105,30.273,-4.883,0
30853.358,30.273,37.109,53.223,48.340,163.574,0
30853.362,35.156,37.598,48.828,46.387,89.844,0
30853.366,35.156,39.062,46.387,30.762,-94.727,0
30853.370,39.062,40.039,44.922,25.391,-66.895,0
30853.373,42.480,39.551,46.875,37.598,131.348,0
30853.377,49.316,39.551,45.898,50.781,134.277,0
30853.381,51.758,41.016,46.387,39.551,-66.406,0
30853.385,46.387,40.039,43.945,21.484,-110.352,0
30853.389,40.527,39.062,40.527,25.391,70.312,0
30853.393,39.062,40.039,42.969,37.598,142.090,0
30853.397,37.109,41.016,41.992,31.738,-35.645,0
30853.401,37.598,43.457,41.992,17.578,-153.320,0
30853.405,33.691,44.434,43.457,22.461,-5.859,0
30853.409,26.367,41.992,42.480,34.180,134.277,0
30853.412,29.297,39.551,41.992,31.738,12.695,0
30853.416,32.227,39.551,45.898,7.324,-142.578,0
30853.420,23.926,39.551,45.410,2.441,-51.758,0
30853.424,17.578,39.062,42.480,24.902,128.418,0
30853.428,14.648,38.574,46.875,31.250,82.031,0
30853.432,14.648,36.133,51.270,16.113,-104.492,0
30853.436,17.090,35.156,50.781,7.812,-94.238,0
30853.440,10.254,34.668,47.852,21.484,93.750,0
30853.444,2.441,34.180,47.852,33.203,114.258,0
30853.448,9.766,36.133,51.270,24.902,-67.383,0
30853.452,16.113,36.621,50.293,15.137,-114.258,0
30853.455,14.160,37.598,49.805,30.762,68.848,0
30853.459,18.555,36.621,51.758,51.758,169.434,0
30853.463,29.297,37.598,53.223,47.852,8.301,0
30853.467,31.738,39.062,44.922,27.832,-132.324,0
30853.471,29.297,39.062,37.598,24.902,9.766,0
30853.475,31.250,38.086,45.898,44.922,173.828,0
30853.479,33.203,38.574,49.805,46.875,61.035,0
30853.483,34.180,39.551,50.293,21.973,-113.770,0
30853.487,35.156,38.086,51.758,21.484,-31.738,0
30853.491,31.250,36.621,48.828,46.387,160.645,0
30853.495,29.785,33.691,46.875,50.293,115.723,0
30853.498,42.480,36.133,48.340,30.273,-88.379,0
30853.502,46.875,38.086,48.828,23.438,-90.820,0
30853.506,40.527,38.086,50.781,41.992,104.980,0
30853.510,39.062,37.109,52.734,52.246,150.391,0
30853.514,38.086,35.645,52.246,38.574,-29.785,0
30853.518,37.598,35.645,49.805,21.484,-116.699,0
30853.522,43.457,38.574,49.805,36.133,46.387,0
30853.526,38.574,36.133,46.875,56.641,162.598,0
30853.530,29.785,32.715,46.875,51.270,20.020,0
30853.534,35.156,36.133,51.758,36.133,-115.723,0
30853.537,36.133,36.621,48.828,37.598,-1.953,0
30853.541,28.809,35.156,48.828,45.410,156.738,0
30853.545,24.414,33.691,50.781,47.852,78.125,0
30853.549,22.949,34.668,53.223,38.086,-96.191,0
30853.553,28.809,38.086,52.246,33.203,-48.340,0
30853.557,31.738,41.504,51.270,40.039,137.695,0
30853.561,23.926,39.062,47.852,41.504,114.746,0
30853.565,23.438,38.574,43.457,27.344,-81.055,0
30853.569,28.320,40.039,45.410,12.695,-102.539,0
30853.573,27.832,39.551,48.340,27.832,90.332,0
30853.577,24.902,35.645,50.293,40.527,159.180,0
30853.580,26.855,35.156,51.758,26.855,-28.809,0
30853.584,29.785,37.109,52.734,8.301,-146.484,0
30853.588,29.785,35.156,50.781,10.254,5.371,0
30853.592,24.902,34.668,46.875,30.762,135.254,0
30853.596,21.973,39.551,44.922,26.855,5.371,0
30853.600,22.461,41.504,45.410,3.906,-149.902,0
30853.604,23.438,40.039,45.410,12.695,-46.875,0
30853.608,20.020,36.621,41.992,29.785,133.301,0
30853.612,21.484,37.109,42.969,26.855,74.707,0
30853.616,25.391,42.969,49.316,14.648,-111.328,0
30853.620,22.461,40.527,49.805,7.812,-85.449,0
30853.623,20.508,38.086,45.410,17.578,107.422,0
30853.627,19.531,41.992,45.898,31.250,117.676,0
30853.631,21.484,38.086,48.828,22.949,-72.266,0
30853.635,23.438,36.621,43.945,5.371,-122.559,0
30853.639,16.602,36.621,41.016,18.555,61.523,0
30853.643,15.137,34.668,41.992,38.086,151.367,0
30853.647,16.602,33.203,43.457,29.297,-20.508,0
30853.651,23.926,38.086,41.992,17.578,-138.184,0
30853.655,27.344,41.992,43.945,21.973,8.301,0
30853.659,28.320,37.598,46.875,38.086,152.832,0
30853.662,31.738,36.621,45.410,40.039,39.062,0
30853.666,25.879,41.504,46.387,20.508,-136.230,0
30853.670,30.273,41.504,48.828,19.043,-56.152,0
30853.674,33.203,37.109,46.875,39.551,132.812,0
30853.678,29.297,36.133,45.898,41.016,90.820,0
30853.682,28.809,34.668,46.875,18.555,-101.074,0
30853.686,27.832,37.109,45.410,1.953,-100.586,0
30853.690,28.809,42.969,46.875,18.066,95.703,0
30853.694,30.273,43.457,49.805,33.203,135.254,0
30853.698,31.738,40.039,47.852,19.043,-56.641,0
30853.702,37.109,42.969,46.387,12.207,-127.930,0
30853.705,39.551,41.504,47.363,21.973,46.387,0
30853.709,36.133,37.598,48.340,36.621,159.180,0
30853.713,37.109,41.016,48.828,34.180,12.207,0
30853.717,38.086,43.945,48.340,18.066,-132.324,0
30853.721,24.902,42.480,46.387,12.695,-14.648,0
30853.725,21.973,37.598,46.875,30.273,148.438,0
30853.729,26.367,37.109,46.875,37.109,62.012,0
30853.733,21.973,39.062,45.898,19.043,-113.770,0
30853.737,24.414,40.527,44.922,18.555,-61.035,0
30853.741,22.949,41.016,41.992,30.762,116.699,0
30853.745,22.461,37.109,42.480,38.086,94.727,0
30853.748,22.949,36.133,45.410,23.926,-94.238,0
30853.752,16.113,39.551,46.875,11.719,-112.793,0
30853.756,19.531,38.086,48.340,24.902,77.148,0
30853.760,27.344,33.203,49.316,34.180,136.719,0
30853.764,27.344,32.227,41.992,26.855,-45.410,0
30853.768,30.273,35.156,40.527,13.184,-137.695,0
30853.772,32.227,37.109,47.363,19.531,35.645,0
30853.776,33.203,37.598,47.363,36.133,166.992,0
30853.780,36.133,37.598,46.875,38.574,32.715,0
30853.784,35.156,35.645,49.805,20.508,-125.000,0
30853.787,31.738,36.621,49.316,15.625,-22.949,0
30853.791,29.297,37.109,46.875,45.410,156.738,0
30853.795,25.391,35.156,46.875,48.340,89.844,0
30853.799,29.785,39.062,47.852,24.414,-99.121,0
30853.803,33.203,42.969,46.387,29.297,-66.895,0
30853.807,27.344,41.504,40.039,43.457,116.211,0
30853.811,32.715,39.551,38.574,50.293,121.582,0
30853.815,38.574,39.062,42.480,42.969,-60.547,0
30853.819,41.016,42.969,43.945,30.762,-107.422,0
30853.823,36.621,42.480,43.457,42.480,78.613,0
30853.827,29.297,36.621,43.457,59.082,161.621,1
30853.830,27.832,36.133,41.992,43.457,-17.090,0
30853.834,30.273,40.039,45.410,23.926,-122.559,0
30853.838,29.297,39.551,44.434,35.156,38.574,0
30853.842,28.809,37.598,41.016,49.316,168.945,0
30853.846,33.203,39.551,43.457,40.039,46.875,0
30853.850,36.133,40.527,44.922,29.297,-117.188,0
30853.854,39.062,38.574,43.945,30.762,-28.809,0
30853.858,32.715,37.598,41.016,40.039,157.715,0
30853.862,22.461,35.645,40.039,42.480,91.797,0
30853.866,29.785,39.551,41.992,26.367,-101.074,0
30853.870,41.016,41.992,42.480,25.879,-76.660,0
30853.873,39.551,39.551,41.992,47.363,111.816,0
30853.877,37.598,39.062,41.016,57.129,135.254,0
30853.881,39.551,41.016,40.527,39.062,-49.316,0
30853.885,41.992,43.457,40.527,21.973,-108.398,0
30853.889,48.828,43.945,43.945,33.691,60.547,0
30853.893,44.922,45.410,46.875,49.805,154.297,0
30853.897,36.133,43.945,43.457,41.016,1.953,0
30853.901,36.133,41.504,42.480,18.555,-121.582,0
30853.905,34.180,41.992,41.992,26.855,16.113,0
30853.909,29.785,39.062,43.457,52.734,176.758,0
30853.912,30.762,35.645,42.969,42.969,74.219,0
30853.916,29.785,35.156,41.992,20.020,-109.375,0
30853.920,28.809,36.621,41.504,18.555,-43.457,0
30853.924,30.273,39.551,37.598,33.203,147.949,0
30853.928,26.855,35.645,35.156,38.574,114.258,0
30853.932,29.785,34.180,39.551,32.715,-84.961,0
30853.936,38.574,38.086,41.992,27.344,-97.656,0
30853.940,34.180,35.156,38.086,33.691,95.215,0
30853.944,29.785,33.203,37.598,44.922,150.879,0
30853.948,34.180,40.039,40.039,39.551,-33.203,0
30853.952,36.621,41.016,37.598,20.996,-125.000,0
30853.955,36.621,39.551,36.621,25.879,41.504,0
30853.959,38.086,40.527,37.109,45.410,165.039,0
30853.963,36.621,38.574,37.109,39.551,25.391,0
30853.967,36.621,37.109,36.621,17.090,-124.023,0
30853.971,36.621,39.062,34.180,17.090,-5.371,0
30853.975,34.180,37.109,34.668,37.598,167.480,0
30853.979,37.598,34.668,36.133,42.969,85.449,0
30853.983,43.945,36.621,35.645,33.691,-103.027,0
30853.987,42.969,40.527,37.598,31.738,-57.617,0
30853.991,36.621,40.039,38.574,42.969,149.902,0
30853.995,29.785,38.086,34.668,46.875,137.695,0
30853.998,31.250,39.551,33.691,34.180,-76.660,0
30854.002,38.086,39.551,38.086,23.926,-113.281,0
30854.006,36.133,41.016,41.992,39.551,81.543,0
30854.010,30.762,39.551,40.527,51.758,154.297,0
30854.014,27.832,37.598,36.621,34.180,-27.344,0
30854.018,26.855,37.109,35.156,8.789,-143.066,0
30854.022,20.508,36.621,31.250,8.789,3.906,0
30854.026,15.137,36.621,30.762,28.320,146.973,0
30854.030,22.461,35.645,30.762,28.809,28.320,0
30854.034,31.250,40.039,29.297,14.160,-126.953,0
30854.037,33.203,44.922,31.738,19.531,-20.996,0
30854.041,32.227,40.039,30.273,29.297,161.133,0
30854.045,32.715,38.574,28.320,33.691,107.422,0
30854.049,32.715,40.527,29.297,24.414,-69.824,0
30854.053,37.109,41.992,32.715,14.160,-47.363,0
30854.057,44.922,41.504,32.715,43.457,144.043,0
30854.061,43.457,39.062,34.180,58.594,158.691,0
30854.065,39.551,39.551,38.086,33.691,-32.715,0
30854.069,39.551,40.527,38.086,18.555,-87.891,0
30854.073,41.504,40.039,39.062,37.598,75.195,0
30854.077,33.691,38.086,38.086,57.129,154.785,0
30854.080,23.926,37.598,35.156,44.922,0.977,0
30854.084,33.203,40.039,34.668,22.461,-113.770,0
30854.088,41.504,44.434,34.668,27.832,19.043,0
30854.092,37.598,43.945,34.668,48.340,164.551,0
30854.096,30.762,40.039,39.551,55.664,54.688,0
30854.100,23.926,38.086,42.969,34.668,-118.652,0
30854.104,22.949,37.598,43.945,25.391,-41.504,0
30854.108,28.809,36.621,44.434,43.457,145.996,0
30854.112,26.855,38.086,44.922,48.340,106.445,0
30854.116,22.949,36.621,42.480,26.367,-95.703,0
30854.120,24.902,35.645,39.551,14.160,-104.004,0
30854.123,25.391,36.133,36.621,36.133,90.820,0
30854.127,32.227,34.668,32.715,47.363,136.230,0
30854.131,39.551,38.086,35.645,29.297,-45.898,0
30854.135,38.574,41.016,36.133,15.137,-125.488,0
30854.139,38.086,40.039,35.645,27.832,52.734,0
30854.143,35.156,38.086,37.598,44.922,171.387,0
30854.147,33.203,37.598,36.133,34.180,14.648,0
30854.151,35.645,40.527,33.203,15.625,-135.254,0
30854.155,33.203,40.039,33.691,25.391,-16.113,0
30854.159,30.273,39.551,31.250,46.387,148.926,0
30854.162,33.691,36.621,32.227,42.480,55.664,0
30854.166,40.039,35.645,32.715,22.949,-119.629,0
30854.170,46.875,38.574,29.297,19.043,-60.547,0
30854.174,42.480,39.062,33.691,45.410,128.906,0
30854.178,32.227,35.156,34.668,60.547,120.117,0
30854.182,34.180,34.668,27.344,38.086,-64.941,0
30854.186,36.621,40.039,26.855,23.926,-96.680,0
30854.190,35.156,37.109,29.785,43.945,83.496,0
30854.194,32.715,35.156,31.738,55.664,146.973,0
30854.198,29.785,39.062,34.668,37.598,-34.668,0
30854.202,30.273,41.504,33.691,17.090,-138.184,0
30854.205,25.879,40.039,31.738,20.508,26.367,0
30854.209,23.438,33.691,32.227,41.504,159.668,0
30854.213,31.250,34.180,34.180,46.387,32.227,0
30854.217,34.180,38.574,32.715,30.762,-122.070,0
30854.221,32.715,39.062,33.691,24.902,-25.879,0
30854.225,33.203,37.598,36.133,42.969,155.762,0
30854.229,33.691,34.180,32.227,40.527,87.402,0
30854.233,38.086,34.668,29.785,27.832,-104.004,0
30854.237,41.504,38.574,27.832,22.949,-76.660,0
30854.241,40.039,38.086,23.926,29.785,114.746,0
30854.245,37.109,37.109,25.391,39.551,131.836,0
30854.248,38.574,38.086,30.273,25.879,-63.965,0
30854.252,39.062,40.039,34.668,22.949,-118.164,0
30854.256,36.621,41.016,31.738,31.738,65.918,0
30854.260,42.969,39.551,27.344,42.480,156.250,0
30854.264,48.828,39.062,29.785,39.062,-4.883,0
30854.268,49.805,40.527,28.320,23.438,-118.164,0
30854.272,49.316,41.016,27.832,29.785,32.227,0
30854.276,34.180,40.039,30.762,45.410,175.293,0
30854.280,28.320,40.039,32.227,38.574,51.758,0
30854.284,40.039,40.039,33.203,25.391,-117.676,0
30854.287,39.062,38.574,33.203,24.902,-38.574,0
30854.291,36.621,38.574,32.715,40.527,151.367,0
30854.295,29.785,37.109,29.297,45.410,99.121,0
30854.299,25.391,35.645,24.414,29.297,-106.934,0
30854.303,34.180,37.598,29.785,22.461,-82.520,0
30854.307,35.645,37.109,35.156,39.062,119.629,0
30854.311,28.809,34.668,31.738,48.340,142.578,0
30854.315,33.691,36.621,30.273,32.227,-48.828,0
30854.319,39.062,40.039,30.273,15.625,-125.977,0
30854.323,36.621,39.551,28.320,23.926,42.480,0
30854.327,40.039,34.668,26.855,44.922,157.715,0
30854.330,45.410,33.203,28.320,45.898,14.648,0
30854.334,50.293,35.645,31.250,30.762,-119.629,0
30854.338,54.199,35.645,29.785,35.156,14.648,0
30854.342,56.152,36.621,29.297,55.664,177.734,0
30854.346,52.246,37.598,29.785,47.852,71.777,0
30854.350,49.805,38.086,30.762,27.832,-115.234,0
30854.354,49.805,38.086,31.738,28.809,-55.176,0
30854.358,44.434,37.109,30.273,42.969,140.137,0
30854.362,41.016,34.668,28.809,53.223,120.605,0
30854.366,41.992,35.645,30.273,39.551,-70.312,0
30854.370,43.457,39.062,30.762,29.297,-85.938,0
30854.373,43.945,37.109,32.227,40.527,116.699,0
30854.377,39.062,31.250,30.273,51.758,173.828,0
30854.381,37.598,32.227,27.832,40.527,-28.320,0
30854.385,39.551,37.598,28.320,22.461,-122.559,0
30854.389,41.504,36.621,28.809,33.691,47.852,0
30854.393,40.039,35.156,28.809,56.152,173.828,0
30854.397,34.180,35.156,29.297,53.223,35.645,0
30854.401,37.109,35.645,27.832,30.273,-118.652,0
30854.405,42.480,36.621,28.320,28.809,-8.301,0
30854.409,34.668,34.668,29.785,47.852,172.363,0
30854.412,34.180,33.691,27.832,47.852,91.309,0
30854.416,43.457,35.156,29.297,26.855,-108.398,0
30854.420,45.898,38.574,35.156,24.414,-78.613,0
30854.424,42.480,36.621,35.645,42.480,116.699,0
30854.428,38.086,31.250,34.180,46.875,130.371,0
30854.432,38.086,34.668,32.227,33.691,-55.664,0
30854.436,37.598,38.086,27.344,19.531,-106.445,0
30854.440,40.527,40.039,26.367,23.926,71.289,0
30854.444,41.016,39.551,26.367,45.898,154.785,0
30854.448,37.109,39.062,23.926,36.621,-21.973,0
30854.452,41.992,40.039,26.855,12.207,-135.254,0
30854.455,44.434,38.086,29.297,21.484,22.461,0
30854.459,37.109,34.668,27.832,41.992,163.086,0
30854.463,40.039,37.109,29.785,43.945,43.457,0
30854.467,46.387,43.457,34.668,26.855,-119.629,0
30854.471,44.922,42.480,32.227,26.855,-23.926,0
30854.475,44.434,41.504,29.297,49.316,172.363,0
30854.479,40.527,37.598,28.320,55.176,106.445,0
30854.483,42.480,34.180,28.809,39.551,-102.539,0
30854.487,42.969,36.621,28.809,33.691,-76.660,0
30854.491,40.527,37.109,28.320,50.781,121.094,0
30854.495,40.039,36.133,28.809,59.570,136.719,0
30854.498,34.668,36.621,29.297,39.551,-53.711,0
30854.502,37.598,36.621,31.738,26.855,-113.770,0
30854.506,36.133,33.691,28.320,39.551,64.941,0
30854.510,36.621,33.691,27.344,42.480,166.504,0
30854.514,42.480,35.156,29.297,33.691,12.695,0
30854.518,39.551,35.645,27.832,24.902,-115.234,0
30854.522,40.039,36.133,28.320,29.785,13.184,0
30854.526,41.992,35.156,27.832,47.363,162.598,1
30854.530,43.945,34.668,27.344,50.293,57.617,0
30854.534,43.945,35.156,28.320,28.809,-114.258,0
30854.537,43.945,36.621,26.367,21.973,-44.434,0
30854.541,43.457,32.715,24.902,43.457,142.578,0
30854.545,36.621,31.738,25.391,50.781,114.746,0
30854.549,35.156,34.180,28.320,35.645,-77.148,0
30854.553,38.574,35.645,30.762,25.879,-88.867,0
30854.557,31.250,34.668,26.855,30.762,101.562,0
30854.561,23.926,31.250,21.973,38.574,142.090,0
30854.565,30.762,34.180,21.973,38.086,-44.922,0
30854.569,39.062,35.156,23.438,30.762,-122.070,0
30854.573,40.039,34.668,23.438,42.480,52.246,0
30854.577,33.691,34.668,23.438,60.547,178.223,0
30854.580,33.203,33.691,24.902,49.805,36.621,0
30854.584,37.598,33.203,27.832,28.320,-112.793,0
30854.588,37.598,33.203,26.367,26.367,6.348,0
30854.592,32.227,34.180,23.438,48.828,174.805,0
30854.596,33.203,35.156,25.391,54.688,84.961,0
30854.600,35.156,33.203,24.902,23.926,-102.051,0
30854.604,34.668,35.645,22.949,15.137,-45.898,0
30854.608,32.227,32.715,22.949,38.086,147.461,0
30854.612,29.297,26.367,22.949,44.922,118.164,0
30854.616,32.227,27.832,24.414,22.949,-81.543,0
30854.620,34.668,33.203,25.391,13.184,-103.516,0
30854.623,36.621,33.691,25.391,30.762,88.379,0
30854.627,40.527,32.715,21.973,49.805,162.109,0
30854.631,38.574,34.668,21.484,41.504,-9.766,0
30854.635,37.109,36.621,24.902,27.832,-115.723,0
30854.639,34.180,35.645,25.391,28.320,43.457,0
30854.643,29.785,33.691,27.832,40.527,180.176,0
30854.647,34.668,34.668,26.855,41.016,37.598,0
30854.651,38.086,37.109,24.414,24.902,-124.023,0
30854.655,39.062,35.156,27.832,23.438,-14.160,0
30854.659,42.480,28.809,26.367,42.480,157.715,0
30854.662,34.180,26.855,23.438,44.922,85.449,0
30854.666,25.879,27.344,20.020,24.902,-98.633,0
30854.670,29.297,27.344,22.949,16.602,-62.988,0
30854.674,26.855,23.926,22.949,32.715,116.699,0
30854.678,28.809,24.902,20.508,48.828,115.234,0
30854.682,31.738,29.297,21.973,34.668,-68.848,0
30854.686,28.809,29.297,21.484,15.625,-120.605,0
30854.690,29.785,30.762,21.484,27.344,63.965,0
30854.694,27.344,30.762,21.973,48.340,153.809,0
30854.698,20.508,30.273,25.391,37.598,-18.555,0
30854.702,27.344,32.715,27.832,19.531,-143.066,0
30854.705,29.785,31.250,26.367,32.227,-3.418,0
30854.709,23.926,26.367,25.879,41.992,145.508,0
30854.713,26.855,26.367,27.344,37.109,46.875,0
30854.717,25.879,31.738,29.297,19.531,-110.840,0
30854.721,24.902,35.645,30.273,14.648,-34.180,0
30854.725,28.320,33.691,29.785,32.227,138.672,0
30854.729,24.414,29.297,24.414,37.109,90.332,0
30854.733,32.227,30.762,22.949,25.391,-97.656,0
30854.737,43.457,35.156,26.367,20.020,-88.867,0
30854.741,35.156,34.668,27.832,37.109,108.398,0
30854.745,24.414,32.715,26.855,50.781,144.043,0
30854.748,29.785,29.297,24.902,35.156,-39.062,0
30854.752,31.250,31.738,24.902,14.160,-107.422,0
30854.756,28.320,34.668,27.832,28.809,65.430,0
30854.760,29.297,31.250,24.902,48.340,179.199,0
30854.764,32.227,35.645,15.137,33.203,39.062,0
30854.768,38.086,39.062,13.184,11.230,-98.145,0
30854.772,39.551,36.133,19.043,22.949,4.395,0
30854.776,41.992,37.598,21.973,46.875,157.227,0
30854.780,38.574,36.621,20.996,40.527,71.777,0
30854.784,33.203,35.645,19.043,22.461,-105.957,0
30854.787,34.668,35.156,23.926,20.508,-48.340,0
30854.791,34.180,36.133,26.855,41.504,145.508,0
30854.795,32.227,36.621,22.461,48.340,131.836,0
30854.799,31.738,36.133,20.996,25.879,-78.125,0
30854.803,36.621,36.133,21.973,18.555,-108.398,0
30854.807,36.621,38.574,21.484,40.527,91.309,0
30854.811,32.227,39.062,20.508,57.129,153.320,0
30854.815,27.832,33.203,21.973,36.621,-28.320,0
30854.819,32.227,33.691,21.484,21.484,-129.395,0
30854.823,36.133,34.668,20.508,30.273,31.250,0
30854.827,30.273,33.691,22.461,41.504,151.367,0
30854.830,27.832,35.156,20.996,38.574,5.371,0
30854.834,37.598,37.598,20.020,27.832,-140.137,0
30854.838,35.156,39.551,23.438,22.461,-34.180,0
30854.842,34.668,37.598,25.391,35.156,135.254,0
30854.846,40.527,34.180,22.461,44.922,72.754,0
30854.850,39.551,34.668,19.531,30.762,-108.398,0
30854.854,43.945,40.527,21.973,25.879,-81.543,0
30854.858,41.504,40.527,22.949,37.598,113.770,0
30854.862,36.133,37.598,24.414,45.410,125.000,0
30854.866,40.039,36.621,27.344,30.762,-65.918,0
30854.870,42.480,38.086,24.414,15.625,-115.234,0
30854.873,37.598,36.621,23.926,22.461,64.941,0
30854.877,35.156,33.691,25.391,44.434,154.785,0
30854.881,35.156,36.133,21.973,40.527,-14.160,0
30854.885,38.574,36.133,21.484,23.926,-128.418,0
30854.889,38.574,32.227,22.949,35.156,20.508,0
30854.893,31.250,32.715,20.996,48.828,161.133,0
30854.897,32.715,35.156,18.555,43.945,42.480,0
30854.901,34.668,38.086,17.090,20.508,-114.746,0
30854.905,33.691,36.133,14.160,11.719,-29.297,0
30854.909,29.785,35.156,15.625,29.297,145.020,0
30854.912,35.156,35.645,20.996,38.086,94.727,0
30854.916,44.434,35.156,20.996,24.414,-96.191,0
30854.920,45.410,37.109,19.531,13.672,-78.613,0
30854.924,40.039,39.551,20.996,30.273,122.070,0
30854.928,33.203,34.180,20.508,38.574,149.902,0
30854.932,34.668,32.715,20.996,27.344,-47.363,0
30854.936,37.598,36.133,21.484,18.066,-122.559,0
30854.940,36.621,31.250,18.555,24.414,57.129,0
30854.944,28.320,28.809,17.090,39.551,164.551,0
30854.948,27.344,32.715,17.090,33.691,2.441,0
30854.952,41.992,36.621,20.020,21.973,-126.465,0
30854.955,41.016,38.574,20.996,29.785,11.230,0
30854.959,30.762,35.645,20.996,37.598,162.598,0
30854.963,31.250,30.762,22.949,42.969,61.523,0
30854.967,36.133,29.297,22.461,35.156,-105.957,0
30854.971,41.016,31.250,22.461,29.297,-46.875,0
30854.975,35.645,33.691,22.949,45.410,136.719,0
30854.979,33.203,35.156,22.949,52.246,123.535,0
30854.983,34.180,32.227,24.414,40.039,-62.500,0
30854.987,30.762,31.738,23.438,25.879,-87.402,0
30854.991,26.367,32.227,21.484,30.273,94.238,0
30854.995,22.949,29.297,18.066,40.527,146.484,0
30854.998,31.250,32.227,18.555,40.527,-36.133,0
30855.002,40.039,39.551,21.484,30.273,-115.234,0
30855.006,37.598,44.922,21.973,36.621,50.293,0
30855.010,37.109,41.016,22.949,53.223,166.992,0
30855.014,34.180,35.156,24.414,38.574,27.832,0
30855.018,28.320,35.156,20.996,18.066,-122.070,0
30855.022,35.156,35.645,18.066,24.902,-6.836,0
30855.026,38.574,33.691,17.578,47.852,160.645,0
30855.030,30.273,30.273,15.137,45.898,74.707,0
30855.034,29.785,34.668,18.066,21.484,-103.516,0
30855.037,35.645,37.109,16.602,18.066,-53.223,0
30855.041,37.598,36.621,19.531,42.969,142.090,0
30855.045,33.691,34.668,25.391,57.129,128.906,0
30855.049,32.227,35.156,24.414,33.203,-66.895,0
30855.053,35.156,34.668,25.879,15.625,-92.285,0
30855.057,36.621,36.133,23.926,34.180,92.285,0
30855.061,30.273,31.250,21.973,47.363,150.391,0
30855.065,30.273,26.367,21.973,32.715,-20.996,0
30855.069,42.480,30.762,20.508,17.578,-114.258,0
30855.073,40.527,36.621,21.484,31.738,29.785,0
30855.077,37.109,35.645,22.461,50.293,154.785,1
30855.080,35.645,35.156,22.461,43.457,37.598,0
30855.084,38.086,37.598,23.926,30.762,-110.840,0
30855.088,41.016,36.133,21.973,36.133,-13.672,0
30855.092,37.109,35.645,22.949,53.223,166.016,0
30855.096,33.691,34.180,23.438,53.711,95.215,0
30855.100,31.738,31.250,21.484,31.250,-109.863,0
30855.104,36.621,31.738,19.043,21.973,-89.355,0
30855.108,44.922,33.691,18.555,50.781,109.863,0
30855.112,40.039,34.668,21.973,70.801,135.254,0
30855.116,34.180,35.156,24.902,42.969,-52.246,0
30855.120,36.133,33.203,19.043,16.113,-109.863,0
30855.123,41.504,33.203,17.578,36.621,74.707,0
30855.127,46.875,34.180,24.902,57.129,176.270,0
30855.131,43.457,31.738,24.414,47.852,9.277,0
30855.135,44.922,33.203,24.414,34.180,-121.094,0
30855.139,46.387,33.691,26.855,36.621,18.555,0
30855.143,44.922,34.180,26.367,53.223,160.645,0
30855.147,42.480,34.668,22.461,46.387,57.617,0
30855.151,43.457,36.133,22.949,33.691,-103.027,0
30855.155,40.039,39.551,29.785,37.109,-35.156,0
30855.159,35.645,37.109,28.320,41.504,145.508,0
30855.162,38.086,34.180,20.996,50.293,110.840,0
30855.166,36.133,34.180,22.461,38.086,-83.984,0
30855.170,37.109,33.691,24.414,24.414,-91.797,0
30855.174,37.598,36.133,20.020,44.434,98.145,0
30855.178,40.039,36.621,19.531,55.664,149.414,0
30855.182,46.875,35.156,20.508,37.598,-35.156,0
30855.186,51.270,35.645,20.508,19.531,-120.117,0
30855.190,45.410,37.598,21.973,28.809,52.246,0
30855.194,43.457,38.086,23.438,51.758,169.922,0
30855.198,47.363,35.156,21.484,49.805,23.438,0
30855.202,49.805,29.785,19.043,28.320,-113.281,0
30855.205,44.922,29.785,17.578,18.555,6.836,0
30855.209,42.480,33.203,16.113,38.574,170.410,0
30855.213,40.527,32.715,17.578,43.457,83.008,0
30855.217,45.410,30.762,20.996,29.297,-99.609,0
30855.221,52.734,32.227,19.531,24.414,-47.852,0
30855.225,39.551,31.250,19.043,43.945,144.043,0
30855.229,36.621,28.809,19.531,60.059,127.441,0
30855.233,44.434,30.273,18.555,40.039,-70.312,0
30855.237,41.016,29.297,16.113,28.809,-94.238,0
30855.241,34.668,26.855,12.695,40.039,87.891,0
30855.245,30.273,26.367,14.160,49.316,140.137,0
30855.248,28.320,24.902,19.043,42.969,-33.203,0
30855.252,33.691,27.344,20.996,20.020,-120.605,0
30855.256,32.227,30.762,19.531,23.926,38.574,0
30855.260,26.855,24.902,15.625,42.480,160.156,0
30855.264,26.855,18.555,14.648,33.203,19.043,0
30855.268,31.250,22.949,17.090,14.160,-130.859,0
30855.272,32.227,29.297,17.578,21.973,-20.996,0
30855.276,26.367,27.344,17.090,41.504,151.855,0
30855.280,29.785,23.926,19.043,44.434,92.773,0
30855.284,39.551,28.809,20.508,30.273,-87.891,0
30855.287,38.574,34.180,18.555,26.367,-63.477,0
30855.291,33.203,32.227,15.137,43.945,124.512,0
30855.295,29.785,29.785,19.043,52.246,131.836,0
30855.299,25.879,28.809,20.020,37.109,-73.242,0
30855.303,27.832,29.785,20.508,20.508,-122.559,0
30855.307,35.645,29.785,24.414,29.785,76.660,0
30855.311,29.785,24.902,22.949,44.434,158.203,0
30855.315,28.809,22.949,21.484,41.992,-7.812,0
30855.319,38.086,26.855,21.973,31.250,-117.188,0
30855.323,32.715,30.762,22.461,34.180,23.438,0
30855.327,26.855,29.297,20.508,52.734,161.133,0
30855.330,31.250,23.926,20.508,57.129,52.734,0
30855.334,40.527,25.391,20.996,33.691,-104.492,0
30855.338,43.457,29.297,19.531,28.320,-30.273,0
30855.342,36.621,27.344,22.461,45.410,153.809,0
30855.346,35.645,24.414,19.531,44.434,116.211,0
30855.350,43.457,25.879,17.090,30.762,-79.590,0
30855.354,40.039,27.832,19.043,30.273,-83.984,0
30855.358,36.133,25.391,21.484,43.457,102.051,0
30855.362,33.691,22.949,19.531,44.922,142.090,0
30855.366,31.250,23.926,16.113,31.738,-43.945,0
30855.370,36.621,27.344,20.020,20.020,-117.676,0
30855.373,33.691,26.855,18.555,33.203,55.664,0
30855.377,25.879,23.926,16.602,45.898,158.203,0
30855.381,32.715,25.391,18.555,32.715,10.742,0
30855.385,34.180,26.367,17.090,16.602,-123.535,0
30855.389,27.344,25.879,16.602,20.996,-5.371,0
30855.393,31.738,25.879,20.996,45.898,147.461,0
30855.397,34.668,26.367,24.414,47.363,51.758,0
30855.401,37.109,27.832,24.414,29.785,-117.676,0
30855.405,37.109,27.344,19.531,31.738,-48.828,0
30855.409,32.227,28.320,15.625,50.781,148.438,0
30855.412,31.250,32.715,17.090,46.875,128.418,0
30855.416,36.621,32.227,19.531,26.855,-77.148,0
30855.420,39.062,28.320,21.484,19.531,-105.957,0
30855.424,38.574,29.785,21.973,31.250,93.262,0
30855.428,33.203,29.297,22.949,45.898,158.203,0
30855.432,33.203,29.785,21.484,34.180,-30.762,0
30855.436,35.156,30.273,20.508,17.090,-131.348,0
30855.440,35.156,31.738,18.066,27.344,32.715,0
30855.444,37.109,31.738,16.602,49.316,164.062,0
30855.448,35.645,30.273,20.508,46.875,29.785,0
30855.452,39.062,31.250,22.461,22.949,-126.953,0
30855.455,38.574,28.320,22.461,25.879,-22.949,0
30855.459,30.273,27.832,22.461,39.062,150.391,0
30855.463,32.227,29.785,19.043,37.598,78.613,0
30855.467,36.133,29.785,17.578,20.508,-104.492,0
30855.471,37.109,34.180,21.484,18.066,-52.734,0
30855.475,32.715,34.668,21.484,37.598,142.578,0
30855.479,30.273,30.762,19.043,38.086,125.000,0
30855.483,43.945,32.227,16.602,28.809,-62.500,0
30855.487,54.688,33.691,14.160,28.809,-90.332,0
30855.491,40.039,28.809,16.113,34.180,87.891,0
30855.495,19.531,24.414,17.090,35.645,150.391,0
30855.498,17.090,23.438,18.066,24.902,-22.461,0
30855.502,30.273,27.344,22.461,17.090,-125.000,0
30855.506,32.227,27.344,23.926,24.902,22.949,0
30855.510,21.484,25.879,25.391,32.715,159.180,0
30855.514,29.297,29.785,26.367,38.574,49.316,0
30855.518,45.898,29.297,25.879,30.273,-96.191,0
30855.522,45.898,29.297,24.414,25.879,-14.648,0
30855.526,36.621,29.785,20.996,44.922,146.973,0
30855.530,32.227,25.391,18.066,46.387,89.355,0
30855.534,35.156,23.926,18.555,25.391,-102.539,0
30855.537,34.668,23.926,20.020,10.742,-83.496,0
30855.541,36.621,23.926,21.484,32.227,114.746,0
30855.545,35.645,22.461,18.066,47.363,140.625,0
30855.549,40.527,25.391,20.020,36.621,-41.992,0
30855.553,43.457,30.273,25.391,31.738,-99.609,0
30855.557,33.203,32.715,22.949,26.367,63.965,0
30855.561,36.621,37.109,24.414,40.527,162.598,0
30855.565,34.180,36.621,30.273,36.133,11.719,0
30855.569,20.508,32.227,23.926,2.930,-131.836,0
30855.573,11.230,32.715,20.020,5.859,0.488,0
30855.577,3.906,34.668,25.879,26.367,147.949,0
30855.580,3.906,33.691,25.391,21.484,24.902,0
30855.584,5.371,40.039,25.879,-1.465,-146.973,0
30855.588,1.465,47.852,26.855,-7.324,-75.195,0
30855.592,-7.324,46.875,30.762,-2.930,100.586,0
30855.596,-19.531,46.387,31.738,-7.812,57.617,0
30855.600,-39.551,46.875,30.273,-32.227,-145.020,0
30855.604,-61.035,41.992,26.367,-65.430,-163.574,0
30855.608,-62.500,44.434,25.879,-63.477,11.719,0
30855.612,-68.848,50.781,27.832,-53.223,39.551,0
30855.616,-83.984,47.363,28.809,-73.730,-157.715,0
30855.620,-93.262,45.410,28.320,-107.422,-253.418,0
30855.623,-102.539,45.410,29.785,-107.910,-90.332,0
30855.627,-105.469,41.992,28.809,-81.543,20.996,0
30855.631,-104.004,41.992,28.320,-84.961,-119.629,0
30855.635,-99.609,43.945,30.273,-109.863,-265.137,0
30855.639,-100.098,38.574,29.297,-112.305,-162.109,0
30855.643,-100.586,30.762,30.762,-83.496,12.695,1
30855.647,-88.379,29.297,36.133,-68.359,-49.316,0
30855.651,-72.754,27.832,38.086,-78.125,-214.844,0
30855.655,-54.199,28.809,34.668,-66.406,-153.809,0
30855.659,-38.574,28.809,32.715,-37.598,44.434,0
30855.662,-32.715,21.484,30.762,-24.902,44.922,0
30855.666,-27.344,17.578,29.785,-29.785,-139.160,0
30855.670,-12.695,20.996,31.250,-29.785,-160.645,0
30855.674,0.488,22.949,35.156,-10.742,41.504,0
30855.678,7.812,20.508,32.715,11.230,122.070,0
30855.682,16.113,20.508,27.832,10.254,-44.434,0
30855.686,27.344,20.996,26.855,6.348,-145.020,0
30855.690,34.668,23.438,24.414,20.508,18.555,0
30855.694,35.645,23.926,23.438,40.527,173.828,0
30855.698,37.109,20.508,23.438,46.387,52.734,0
30855.702,44.922,20.508,20.020,33.691,-117.676,0
30855.705,56.152,21.484,19.531,41.504,-18.555,0
30855.709,58.105,20.508,18.555,67.871,160.645,0
30855.713,56.152,18.555,16.113,71.777,83.496,0
30855.717,66.406,21.973,14.648,53.711,-96.191,0
30855.721,78.125,23.438,17.578,47.363,-49.316,0
30855.725,80.078,19.531,21.973,72.754,155.762,0
30855.729,82.031,20.508,22.461,100.586,175.293,0
30855.733,83.984,22.461,22.949,92.285,-4.395,0
30855.737,87.891,23.926,22.949,69.336,-43.945,0
30855.741,87.891,25.391,22.949,82.520,135.742,0
30855.745,82.520,23.438,21.973,101.562,220.703,0
30855.748,84.961,22.461,20.020,91.309,60.547,0
30855.752,95.703,24.414,18.066,75.195,-62.012,0
30855.756,87.891,26.367,18.555,79.590,66.895,0
30855.760,75.195,25.391,19.531,98.633,215.820,0
30855.764,74.707,21.973,21.973,94.238,108.887,0
30855.768,81.055,23.438,20.996,67.871,-73.242,0
30855.772,83.984,26.855,18.555,70.312,-5.859,0
30855.776,78.125,23.926,17.090,87.402,174.316,0
30855.780,80.078,21.973,15.625,91.797,146.484,0
30855.784,89.844,27.344,16.602,82.031,-47.852,0
30855.787,87.402,29.297,19.043,67.383,-66.406,0
30855.791,77.637,27.344,21.484,75.195,135.254,0
30855.795,72.754,23.926,19.531,85.449,177.246,0
30855.799,73.242,23.926,17.578,71.777,0.488,0
30855.803,74.707,26.367,20.508,54.199,-57.129,0
30855.807,72.266,27.832,20.996,64.941,103.027,0
30855.811,69.336,27.344,22.461,83.984,208.496,0
30855.815,68.848,24.902,25.879,83.008,71.289,0
30855.819,68.848,25.391,24.414,63.965,-60.547,0
30855.823,63.477,27.832,24.414,59.082,59.570,0
30855.827,56.641,26.367,24.902,69.336,209.473,0
30855.830,55.664,22.949,19.531,68.359,110.352,0
30855.834,63.477,26.855,14.648,47.363,-70.801,0
30855.838,68.848,31.250,19.531,44.434,-12.207,0
30855.842,64.941,26.367,21.484,72.266,179.199,0
30855.846,66.406,23.438,19.531,83.984,180.664,0
30855.850,72.266,26.855,18.066,61.035,-7.324,0
30855.854,71.777,27.832,18.555,49.316,-48.340,0
30855.858,72.266,25.879,18.555,68.848,130.859,0
30855.862,67.383,22.949,15.137,83.984,187.500,0
30855.866,63.965,26.367,17.578,78.613,25.391,0
30855.870,72.754,31.738,22.461,61.035,-51.758,0
30855.873,72.266,32.715,20.996,64.941,85.938,0
30855.877,63.965,29.785,16.602,79.590,188.965,0
30855.881,57.617,27.832,17.090,65.430,54.199,0
30855.885,62.988,29.297,20.996,46.875,-92.773,0
30855.889,68.848,30.273,21.973,56.641,23.438,0
30855.893,61.035,29.297,21.973,73.242,196.777,0
30855.897,56.641,29.785,20.020,71.289,136.230,0
30855.901,61.523,31.250,19.531,50.293,-43.945,0
30855.905,62.012,30.762,22.461,37.109,-41.504,0
30855.909,56.641,26.855,20.508,55.176,138.184,0
30855.912,54.199,25.391,20.020,68.848,161.133,0
30855.916,56.641,29.297,20.020,43.945,-26.855,0
30855.920,60.059,29.785,18.066,22.461,-83.008,0
30855.924,59.082,31.738,20.996,45.898,97.168,0
30855.928,50.781,36.621,20.508,73.242,192.383,0
30855.932,47.363,34.180,20.508,60.547,35.645,0
30855.936,55.176,33.691,22.949,43.945,-83.008,0
30855.940,55.664,32.715,23.926,55.664,57.617,0
30855.944,51.270,30.762,21.484,67.871,202.637,0
30855.948,49.316,27.832,16.113,65.918,71.289,0
30855.952,51.758,29.297,15.625,52.246,-102.051,0
30855.955,54.688,32.715,17.578,38.574,-6.348,0
30855.959,52.734,29.297,18.555,50.293,181.152,0
30855.963,48.828,26.855,21.484,57.617,120.605,0
30855.967,48.340,30.273,20.996,42.480,-82.520,0
30855.971,48.340,31.250,21.973,37.109,-74.707,0
30855.975,43.945,28.320,26.367,49.805,113.770,0
30855.979,40.039,25.391,26.855,58.105,154.297,0
30855.983,44.922,25.391,23.438,42.480,-26.367,0
30855.987,51.758,32.227,20.020,25.391,-111.328,0
30855.991,48.340,32.715,24.414,34.668,53.711,0
30855.995,38.086,28.320,24.902,50.781,161.621,0
30855.998,37.109,27.832,21.484,48.340,11.230,0
30856.002,40.039,27.344,19.531,33.203,-121.582,0
30856.006,38.086,26.367,21.484,33.691,6.836,0
30856.010,35.156,25.391,21.973,50.293,166.016,0
30856.014,34.668,27.344,24.414,51.270,72.754,0
30856.018,39.062,27.832,25.879,29.297,-108.398,0
30856.022,42.480,28.320,17.090,21.484,-45.410,0
30856.026,43.945,28.320,13.672,41.992,149.902,0
30856.030,41.016,26.367,16.113,54.688,120.117,0
30856.034,48.340,29.297,21.484,43.457,-65.430,0
30856.037,54.688,32.227,22.461,29.297,-78.125,0
30856.041,44.434,30.762,21.973,41.016,100.098,0
30856.045,42.480,27.344,21.973,58.105,161.133,0
30856.049,51.270,28.809,22.461,46.875,-14.160,0
30856.053,54.688,33.203,20.020,27.832,-114.258,0
30856.057,49.805,31.738,17.090,32.227,42.969,0
30856.061,45.898,31.738,21.484,49.805,175.781,0
30856.065,44.434,33.203,20.508,43.945,36.621,0
30856.069,49.316,31.250,19.043,27.832,-127.930,0
30856.073,48.828,31.250,21.484,32.715,-8.301,0
30856.077,42.480,33.203,20.996,49.316,171.387,0
30856.080,43.457,29.785,21.973,52.246,75.195,0
30856.084,44.434,28.320,24.902,35.645,-113.281,0
30856.088,44.922,27.344,26.367,31.738,-60.547,0
30856.092,42.969,26.855,25.879,49.805,139.648,0
30856.096,43.945,30.273,24.414,63.965,138.672,0
30856.100,51.270,32.227,22.949,50.781,-60.547,0
30856.104,52.734,31.250,23.438,39.062,-97.168,0
30856.108,48.828,29.297,22.461,49.316,101.074,0
30856.112,48.828,25.879,20.996,62.988,178.711,0
30856.116,46.387,23.438,22.949,50.781,-7.324,0
30856.120,44.434,26.367,16.602,22.461,-122.559,0
30856.123,41.992,28.320,13.184,22.949,33.203,0
30856.127,36.133,25.391,18.066,42.480,168.457,0
30856.131,33.691,24.414,19.043,41.992,37.598,0
30856.135,36.621,26.367,19.531,22.949,-124.023,0
30856.139,35.156,23.926,21.484,22.461,-35.645,0
30856.143,27.344,20.020,20.508,39.551,140.625,0
30856.147,27.832,21.973,17.578,44.922,81.543,0
30856.151,31.250,24.414,19.043,31.250,-104.980,0
30856.155,30.762,27.344,19.043,19.531,-84.473,0
30856.159,27.832,28.320,19.043,30.762,110.840,0
30856.162,28.809,23.438,22.461,44.434,135.254,0
30856.166,26.855,20.020,19.043,28.320,-66.895,0
30856.170,29.785,24.414,19.043,17.578,-128.418,0
30856.174,31.738,27.832,21.973,38.086,60.059,0
30856.178,30.273,29.297,20.020,45.410,155.273,0
30856.182,32.715,28.809,15.625,35.645,-3.906,0
30856.186,40.527,29.785,17.578,29.785,-112.793,0
30856.190,41.504,28.809,22.461,34.180,21.973,0
30856.194,38.086,29.297,21.484,43.945,163.086,0
30856.198,42.480,32.227,23.926,46.875,55.176,0
30856.202,47.852,30.273,25.391,34.180,-123.535,0
30856.205,47.363,31.250,21.973,26.367,-52.246,0
30856.209,46.875,34.180,20.508,44.922,146.484,0
30856.213,43.945,32.227,23.438,51.758,106.934,0
30856.217,38.574,33.691,23.438,27.344,-97.656,0
30856.221,33.691,32.715,18.555,9.766,-102.539,0
30856.225,30.762,29.297,22.461,26.367,86.914,0
30856.229,26.855,27.832,26.367,41.016,131.836,0
30856.233,25.391,27.344,22.949,25.391,-51.758,0
30856.237,33.203,30.273,22.949,10.254,-132.324,0
30856.241,34.180,29.785,25.391,24.902,40.527,0
30856.245,27.832,23.926,26.367,47.363,157.715,0
30856.248,26.855,21.484,21.484,40.039,6.836,0
30856.252,31.738,27.832,20.508,20.020,-133.789,0
30856.256,31.250,27.832,28.320,22.949,-17.578,0
30856.260,25.879,23.438,25.879,37.598,144.531,0
30856.264,26.367,23.438,21.484,43.945,68.359,0
30856.268,32.715,21.973,22.949,32.715,-102.539,0
30856.272,37.598,22.949,24.414,27.344,-50.293,0
30856.276,32.715,24.902,23.926,41.016,135.254,0
30856.280,29.297,21.973,18.066,50.781,122.070,0
30856.284,35.645,23.438,15.625,37.598,-63.477,0
30856.287,41.504,24.902,19.043,21.484,-85.938,0
30856.291,37.598,24.414,22.949,40.527,95.215,0
30856.295,31.738,24.902,21.484,54.199,153.809,0
30856.299,32.227,23.438,20.508,35.156,-22.461,0
30856.303,37.109,27.344,24.414,22.949,-119.141,0
30856.307,32.227,28.809,26.367,33.203,44.922,0
30856.311,26.855,27.832,26.367,52.734,174.316,0
30856.315,31.738,28.809,22.949,50.781,33.691,0
30856.319,38.574,29.785,25.391,28.809,-123.047,0
30856.323,40.039,30.762,29.297,24.414,-22.461,0
30856.327,34.180,26.855,25.879,43.945,149.902,0
30856.330,34.180,26.855,22.461,47.363,85.449,0
30856.334,38.574,27.832,23.438,28.809,-109.375,0
30856.338,35.645,28.320,22.949,23.926,-91.309,0
30856.342,26.855,27.344,22.461,35.156,111.328,1
30856.346,27.344,26.367,21.484,42.480,130.371,0
30856.350,34.180,28.320,22.461,31.738,-74.219,0
30856.354,38.574,27.344,25.879,23.926,-124.023,0
30856.358,30.762,23.438,22.949,35.156,59.082,0
30856.362,22.949,21.484,19.043,38.574,137.207,0
30856.366,26.855,23.926,18.066,25.879,-19.531,0
30856.370,35.156,26.855,20.020,11.719,-132.812,0
30856.373,28.809,26.367,22.949,19.043,8.789,0
30856.377,27.344,24.414,24.902,50.293,171.387,0
30856.381,36.621,21.484,22.461,44.922,61.035,0
30856.385,33.691,22.949,19.043,14.160,-116.699,0
30856.389,34.180,27.832,23.438,11.230,-28.809,0
30856.393,39.551,31.250,28.809,33.203,165.527,0
30856.397,36.621,31.250,28.809,43.457,109.863,0
30856.401,35.156,28.320,26.367,25.879,-99.121,0
30856.405,37.109,26.367,25.391,15.625,-96.191,0
30856.409,34.180,26.367,26.855,34.180,104.492,0
30856.412,34.668,25.879,29.785,54.199,143.555,0
30856.416,38.574,31.250,32.227,42.480,-49.316,0
30856.420,36.621,34.180,31.738,20.996,-117.676,0
30856.424,30.762,30.762,28.320,30.273,56.641,0
30856.428,28.809,27.832,24.902,48.340,165.527,0
30856.432,31.738,29.297,24.414,47.363,24.414,0
30856.436,33.203,34.180,28.320,26.855,-109.863,0
30856.440,34.668,33.203,29.297,16.113,10.742,0
30856.444,34.180,29.297,25.879,33.691,169.434,0
30856.448,29.297,30.762,26.367,37.109,82.520,0
30856.452,33.203,32.715,27.344,20.020,-86.426,0
30856.455,33.691,30.762,29.297,27.832,-24.902,0
30856.459,25.391,25.879,28.320,43.457,162.109,0
30856.463,31.250,26.855,26.855,44.922,138.672,0
30856.467,36.621,28.809,26.367,32.715,-58.594,0
30856.471,38.086,29.297,28.809,26.855,-74.707,0
30856.475,39.551,30.762,30.762,45.410,117.676,0
30856.479,33.203,27.832,27.832,55.664,165.527,0
30856.483,36.621,30.273,24.902,44.922,-22.949,0
30856.487,42.480,29.785,21.973,28.320,-120.117,0
30856.491,33.203,28.809,20.508,33.203,41.504,0
30856.495,26.855,31.250,24.414,46.387,160.156,0
30856.498,28.809,30.273,25.879,37.598,11.719,0
30856.502,31.250,31.738,19.531,21.484,-139.160,0
30856.506,34.668,30.273,19.531,24.414,-31.738,0
30856.510,29.297,28.809,24.414,45.898,145.020,0
30856.514,21.973,27.832,26.367,45.898,64.453,0
30856.518,26.855,28.320,27.344,23.438,-134.766,0
30856.522,31.738,31.250,25.391,18.555,-87.402,0
30856.526,30.762,27.832,26.367,37.109,118.652,0
30856.530,24.902,22.949,28.809,45.898,122.559,0
30856.534,28.809,26.367,27.832,34.180,-71.777,0
30856.537,36.621,29.785,23.438,18.066,-112.793,0
30856.541,31.738,27.344,23.438,22.949,75.684,0
30856.545,27.344,26.855,26.367,41.016,163.574,0
30856.549,26.855,24.414,25.879,41.016,-0.488,0
30856.553,37.109,25.879,24.414,24.414,-121.094,0
30856.557,36.133,28.809,23.926,21.484,23.926,0
30856.561,25.391,24.902,20.020,37.109,171.387,0
30856.565,30.762,23.438,21.484,46.387,62.012,0
30856.569,37.598,22.949,24.414,25.391,-96.680,0
30856.573,38.086,26.367,24.414,24.414,-4.883,0
30856.577,28.809,25.391,23.438,46.875,174.805,0
30856.580,24.902,23.438,20.020,48.828,107.910,0
30856.584,34.180,26.855,19.531,27.832,-92.773,0
30856.588,34.668,28.809,21.484,19.531,-83.984,0
30856.592,30.273,26.855,22.461,34.180,112.793,0
30856.596,39.062,27.344,24.902,47.852,147.461,0
30856.600,46.387,32.227,29.785,42.969,-35.156,0
30856.604,46.875,33.691,31.250,23.926,-101.074,0
30856.608,43.457,32.715,27.344,33.203,61.035,0
30856.612,36.621,29.785,23.438,45.898,154.785,0
30856.616,31.250,28.809,24.414,33.691,7.324,0
30856.620,32.227,29.297,24.902,16.602,-110.840,0
30856.623,36.133,31.250,26.855,27.832,9.277,0
30856.627,33.203,33.203,26.855,42.480,141.602,0
30856.631,36.621,33.691,25.391,41.016,46.387,0
30856.635,39.551,34.180,27.344,30.762,-112.305,0
30856.639,39.062,33.203,30.762,24.902,-43.945,0
30856.643,38.574,29.785,29.785,39.551,141.602,0
30856.647,39.062,25.391,28.809,46.387,109.863,0
30856.651,38.574,25.879,27.832,32.227,-94.727,0
30856.655,38.086,30.273,25.391,15.137,-100.586,0
30856.659,32.715,29.297,24.902,30.273,98.633,0
30856.662,30.273,26.855,22.949,52.246,142.090,0
30856.666,37.109,29.785,22.461,35.645,-41.016,0
30856.670,38.086,32.715,22.949,11.230,-121.582,0
30856.674,42.480,31.250,23.438,24.902,44.922,0
30856.678,46.875,30.273,25.391,46.875,156.250,0
30856.682,39.062,32.715,25.391,34.668,15.137,0
30856.686,32.715,32.227,24.902,10.742,-126.953,0
30856.690,37.109,33.691,25.879,22.461,-10.742,0
30856.694,38.086,35.156,29.785,41.016,156.250,0
30856.698,30.762,30.273,28.809,36.621,68.848,0
30856.702,27.832,29.785,25.391,22.461,-105.957,0
30856.705,31.250,31.738,24.414,18.555,-56.641,0
30856.709,34.668,32.715,24.414,32.227,128.906,0
30856.713,31.738,32.227,23.926,43.945,115.234,0
30856.717,32.227,34.180,24.902,31.738,-83.008,0
30856.721,33.203,35.156,26.855,17.578,-125.000,0
30856.725,25.391,30.762,30.762,26.367,58.594,0
30856.729,18.066,27.832,30.273,39.551,136.230,0
30856.733,26.367,28.320,26.367,28.809,-36.621,0
30856.737,38.574,30.273,26.855,10.742,-137.695,0
30856.741,32.227,28.320,27.344,19.043,30.273,0
30856.745,23.438,25.879,28.809,41.016,183.105,0
30856.748,26.367,27.832,27.344,44.434,47.363,0
30856.752,35.645,32.227,25.391,36.621,-118.164,0
30856.756,41.992,32.227,28.809,29.785,-9.766,0
30856.760,39.551,29.785,30.762,42.480,170.898,0
30856.764,36.133,28.320,30.762,45.898,103.027,0
30856.768,36.133,27.344,27.832,22.949,-91.797,0
30856.772,38.574,29.785,26.367,22.949,-72.266,0
30856.776,27.832,30.273,28.320,40.039,113.281,0
30856.780,25.391,25.391,26.855,47.363,131.348,0
30856.784,32.715,26.367,24.902,30.273,-58.594,0
30856.787,31.250,29.297,22.461,13.184,-115.234,0
30856.791,29.785,30.762,21.973,30.273,68.848,0
30856.795,23.926,31.738,29.297,46.875,165.039,0
30856.799,24.902,30.273,31.250,32.227,6.348,0
30856.803,32.715,32.227,28.809,20.508,-118.652,0
30856.807,38.574,35.645,28.320,22.949,9.766,0
30856.811,36.133,37.109,30.762,42.969,155.273,0
30856.815,34.668,38.086,32.715,48.340,50.781,0
30856.819,41.992,40.039,30.273,28.320,-120.605,0
30856.823,41.016,41.016,26.855,21.484,-41.504,0
30856.827,36.133,39.062,26.367,31.738,151.367,0
30856.830,30.273,35.156,27.344,40.527,106.445,0
30856.834,34.180,37.109,28.809,26.855,-93.262,0
30856.838,41.016,40.039,31.250,13.672,-90.820,0
30856.842,37.109,37.598,31.250,27.344,101.074,0
30856.846,32.227,34.668,29.785,39.062,131.836,0
30856.850,36.133,34.180,32.715,33.691,-56.641,0
30856.854,38.574,35.156,34.180,21.484,-126.465,0
30856.858,33.203,32.715,33.203,27.832,43.945,0
30856.862,28.320,32.715,36.621,44.434,152.832,0
30856.866,32.227,34.668,36.133,37.109,8.789,0
30856.870,39.551,36.133,34.180,18.555,-122.070,0
30856.873,39.551,36.133,33.203,20.508,7.324,0
30856.877,34.180,36.621,33.203,42.480,176.270,0
30856.881,27.344,33.203,29.785,42.969,84.961,0
30856.885,29.785,31.738,25.879,20.508,-112.793,0
30856.889,34.180,34.180,31.738,15.137,-65.430,0
30856.893,34.180,32.715,35.156,35.156,130.859,0
30856.897,33.203,31.738,34.180,42.480,117.676,0
30856.901,36.621,29.297,32.715,27.344,-68.848,1
30856.905,38.574,30.762,33.691,15.625,-91.309,0
30856.909,30.273,31.738,34.180,24.902,86.914,0
30856.912,30.273,27.344,31.738,43.945,154.297,0
30856.916,34.668,28.320,30.273,36.621,-13.184,0
30856.920,39.062,31.738,32.227,24.902,-117.188,0
30856.924,42.480,33.203,34.668,41.992,38.086,0
30856.928,38.086,32.715,34.180,48.340,166.016,0
30856.932,36.621,33.691,33.691,39.551,33.203,0
30856.936,40.039,35.645,34.668,32.227,-114.746,0
30856.940,40.039,31.250,33.691,31.250,-14.160,0
30856.944,36.133,31.738,35.645,42.480,151.367,0
30856.948,32.227,34.668,36.133,44.922,83.496,0
30856.952,32.715,33.203,37.598,29.297,-100.098,0
30856.955,40.527,31.738,39.062,21.484,-74.219,0
30856.959,37.598,31.738,39.551,43.457,117.676,0
30856.963,26.855,30.273,39.551,57.617,128.418,0
30856.967,29.297,31.250,40.527,41.992,-61.523,0
30856.971,35.645,32.227,40.527,21.484,-116.699,0
30856.975,31.738,32.227,41.016,27.344,66.406,0
30856.979,27.344,30.273,42.969,48.340,152.344,0
30856.983,30.762,30.273,40.527,35.645,-30.273,0
30856.987,29.785,33.203,37.109,15.625,-150.879,0
30856.991,29.785,33.203,39.551,26.855,-5.371,0
30856.995,28.320,31.250,41.504,42.480,144.531,0
30856.998,28.809,30.762,42.480,40.039,33.203,0
30857.002,42.969,34.668,39.062,22.461,-125.000,0
30857.006,41.992,35.156,36.621,16.113,-36.133,0
30857.010,28.320,36.621,40.039,33.203,142.090,0
30857.014,25.879,34.668,42.969,46.387,96.680,0
30857.018,32.227,32.715,40.527,31.738,-97.656,0
30857.022,39.551,35.156,38.086,23.926,-91.797,0
30857.026,34.668,34.180,38.574,37.109,108.398,0
30857.030,35.156,31.250,35.645,50.781,152.832,0
30857.034,37.109,30.762,34.668,39.551,-31.738,0
30857.037,41.504,34.180,36.621,21.973,-100.098,0
30857.041,35.645,36.133,39.062,32.227,78.613,0
30857.045,22.461,30.273,39.551,50.293,175.293,0
30857.049,26.855,29.785,39.062,43.457,10.254,0
30857.053,33.691,29.297,38.574,20.996,-126.465,0
30857.057,27.832,24.902,40.039,21.484,2.441,0
30857.061,30.273,27.344,40.527,49.805,162.598,0
30857.065,29.297,27.344,36.133,51.270,63.477,0
30857.069,25.879,25.391,37.109,25.391,-119.629,0
30857.073,33.203,31.250,41.016,22.949,-51.758,0
30857.077,32.227,33.203,37.598,43.945,136.719,0
30857.080,27.344,30.273,34.668,48.340,106.934,0
30857.084,31.250,31.250,38.086,26.367,-82.520,0
30857.088,40.039,31.738,41.504,22.461,-92.285,0
30857.092,35.156,31.250,45.410,45.410,84.473,0
30857.096,30.762,32.715,45.898,51.758,127.441,0
30857.100,34.668,34.180,42.969,41.992,-48.828,0
30857.104,30.273,34.668,40.039,25.879,-133.789,0
30857.108,21.973,33.203,39.062,20.508,27.832,0
30857.112,20.508,34.668,39.551,41.992,146.973,0
30857.116,26.367,36.133,40.039,44.434,16.602,0
30857.120,34.180,33.203,42.480,20.020,-125.977,0
30857.123,31.250,30.762,43.457,15.137,-14.648,0
30857.127,31.250,29.785,44.922,36.621,156.738,0
30857.131,30.762,28.809,48.340,42.969,71.289,0
30857.135,28.809,29.297,47.363,19.531,-117.676,0
30857.139,30.273,33.691,41.992,9.277,-69.824,0
30857.143,25.391,32.715,44.434,27.344,125.000,0
30857.147,22.461,29.785,46.875,40.039,121.094,0
30857.151,25.391,30.273,44.922,29.297,-79.590,0
30857.155,26.855,34.668,42.969,14.648,-112.305,0
30857.159,33.691,35.156,42.480,31.250,90.332,0
30857.162,35.645,29.785,44.922,55.176,170.898,0
30857.166,34.668,29.297,48.340,45.410,0.000,0
30857.170,42.969,33.691,52.734,25.879,-113.281,0
30857.174,38.574,34.180,52.246,36.133,31.250,0
30857.178,27.832,33.203,47.363,54.199,169.434,0
30857.182,35.645,32.715,47.852,50.781,46.875,0
30857.186,44.922,32.227,46.387,31.738,-112.305,0
30857.190,40.527,31.738,45.410,27.344,-16.602,0
30857.194,35.645,31.738,46.875,52.246,171.387,0
30857.198,35.156,31.250,46.387,58.105,110.352,0
30857.202,37.598,34.668,44.434,33.203,-91.797,0
30857.205,45.898,37.109,45.410,20.996,-68.848,0
30857.209,40.527,34.668,45.410,33.691,120.117,0
30857.213,32.715,34.180,43.945,46.387,134.277,0
30857.217,29.785,34.668,42.480,31.738,-58.594,0
30857.221,29.785,30.762,41.992,6.836,-125.000,0
30857.225,36.621,33.203,48.340,20.508,48.340,0
30857.229,31.250,38.574,47.852,44.922,146.484,0
30857.233,26.367,38.086,42.969,32.715,-13.184,0
30857.237,32.227,41.016,45.410,16.602,-139.648,0
30857.241,34.180,40.039,43.457,27.344,-4.395,0
30857.245,27.832,36.133,41.504,38.574,148.438,0
30857.248,27.344,35.645,46.875,34.668,50.293,0
30857.252,34.180,40.527,43.945,23.926,-114.746,0
30857.256,39.551,43.945,42.480,25.879,-41.504,0
30857.260,33.691,40.039,44.922,44.922,146.484,0
30857.264,31.250,39.551,42.480,46.875,103.027,0
30857.268,38.574,40.527,41.504,28.320,-105.469,0
30857.272,43.457,41.504,40.039,23.926,-110.352,0
30857.276,39.062,42.969,41.504,43.457,91.797,0
30857.280,30.762,35.156,40.039,46.387,136.719,0
30857.284,31.738,35.645,38.574,27.832,-51.270,0
30857.287,35.645,38.086,42.969,15.137,-134.766,0
30857.291,29.785,35.156,45.410,21.973,37.598,0
30857.295,23.438,34.180,42.969,36.621,164.551,0
30857.299,23.438,33.691,41.504,30.273,17.578,0
30857.303,32.227,39.062,46.875,9.277,-133.789,0
30857.307,35.156,39.551,46.387,5.859,-23.438,0
30857.311,33.203,36.621,44.922,24.414,146.973,0
30857.315,34.180,37.109,49.805,33.203,64.453,0
30857.319,34.180,36.621,50.781,18.066,-123.535,0
30857.323,31.738,37.598,48.340,13.672,-71.289,0
30857.327,29.297,40.039,47.363,32.715,129.883,0
30857.330,23.438,38.086,43.457,42.969,114.258,0
30857.334,22.461,35.156,41.992,20.020,-88.379,0
30857.338,25.879,36.621,46.387,3.906,-111.816,0
30857.342,20.508,37.109,45.898,20.996,74.707,0
30857.346,23.438,36.621,45.410,39.551,144.531,0
30857.350,21.973,34.668,47.363,24.414,-30.273,0
30857.354,23.438,33.691,45.410,5.859,-134.277,0
30857.358,25.391,35.156,44.434,21.973,26.855,0
30857.362,25.391,33.691,41.992,45.898,162.598,0
30857.366,30.273,36.133,41.992,46.387,34.180,0
30857.370,34.180,40.527,44.922,22.461,-125.488,0
30857.373,32.227,39.551,43.457,17.578,-22.949,0
30857.377,25.391,35.645,42.480,37.109,157.227,0
30857.381,25.879,33.691,44.434,42.480,81.543,0
30857.385,30.762,35.645,44.922,23.926,-108.887,0
30857.389,30.762,37.109,45.410,17.090,-76.660,0
30857.393,26.367,37.598,46.387,37.598,116.211,0
30857.397,25.391,36.621,43.945,41.016,133.789,0
30857.401,31.250,36.133,42.480,25.391,-51.270,0
30857.405,34.180,38.086,46.875,14.648,-103.516,0
30857.409,37.109,40.527,46.387,33.203,84.473,0
30857.412,39.062,42.969,42.969,56.641,161.621,0
30857.416,30.273,40.527,39.551,35.156,-21.973,0
30857.420,28.809,38.086,37.598,9.277,-142.090,0
30857.424,27.344,38.086,35.645,24.414,10.742,0
30857.428,21.973,32.715,37.109,43.945,159.180,0
30857.432,22.461,31.738,38.574,37.598,28.320,0
30857.436,24.902,36.133,36.133,22.949,-139.648,0
30857.440,27.344,35.645,39.551,20.508,-46.875,0
30857.444,24.414,31.250,38.086,44.434,133.789,0
30857.448,24.902,30.273,35.156,52.734,92.285,0
30857.452,27.832,31.738,40.039,34.180,-90.820,0
30857.455,29.785,34.180,45.410,27.832,-78.613,0
30857.459,27.344,35.156,44.434,35.645,105.957,0
30857.463,24.902,34.180,41.016,40.527,136.230,0
30857.467,31.738,33.203,41.992,25.391,-46.387,0
30857.471,33.691,34.668,44.434,12.207,-118.164,0
30857.475,33.203,38.574,47.852,25.879,70.312,0
30857.479,30.762,37.109,45.898,45.898,184.570,0
30857.483,31.250,36.621,42.480,43.457,14.648,0
30857.487,41.992,42.969,43.945,28.809,-125.488,0
30857.491,40.527,44.434,44.434,22.461,-5.859,0
30857.495,30.762,41.016,42.480,35.645,145.508,0
30857.498,28.320,38.574,42.969,54.688,59.082,0
30857.502,34.180,38.086,43.457,40.039,-108.398,0
30857.506,40.039,38.574,44.922,20.996,-50.781,0
30857.510,35.156,37.109,45.898,37.598,135.254,0
30857.514,32.715,37.109,41.016,52.734,119.141,0
30857.518,33.203,41.016,35.156,35.645,-72.266,0
30857.522,40.527,40.527,42.969,12.207,-85.938,0
30857.526,38.086,36.621,42.480,20.020,103.027,0
30857.530,21.484,36.621,35.156,35.645,150.391,0
30857.534,17.578,33.691,39.062,31.250,-32.715,0
30857.537,20.020,31.738,41.504,13.672,-129.883,0
30857.541,26.367,31.738,40.039,24.414,28.320,0
30857.545,30.273,32.715,35.645,46.875,154.785,0
30857.549,34.180,34.180,35.156,39.551,16.602,0
30857.553,41.016,36.621,41.016,23.926,-132.812,0
30857.557,38.086,38.086,43.945,21.484,-30.762,0
30857.561,30.762,32.227,42.969,32.715,134.277,0
30857.565,32.715,29.297,41.992,36.133,63.965,0
30857.569,37.109,34.180,40.527,18.066,-121.094,0
30857.573,32.715,37.598,42.480,15.137,-83.496,0
30857.577,25.879,36.621,43.457,32.715,113.770,0
30857.580,28.809,36.133,38.574,41.016,122.070,2
30857.584,35.156,37.598,41.016,24.902,-69.824,0
30857.588,42.969,37.598,47.363,10.254,-113.770,0
30857.592,40.039,36.133,43.945,23.926,76.660,0
30857.596,30.273,36.133,43.457,39.062,162.109,0
30857.600,27.344,33.203,43.945,28.320,-20.996,0
30857.604,33.691,32.227,39.062,15.137,-136.230,0
30857.608,39.551,37.109,40.039,26.367,24.414,0
30857.612,28.320,37.109,44.922,41.504,166.504,0
30857.616,21.973,33.691,42.480,38.574,46.387,0
30857.620,34.668,35.156,41.016,23.926,-118.652,0
30857.623,33.691,38.086,44.922,22.949,-31.738,0
30857.627,22.949,34.180,45.410,38.086,163.574,0
30857.631,20.996,29.785,43.457,44.922,115.234,0
30857.635,25.391,33.691,42.969,30.762,-83.008,0
30857.639,33.691,40.039,41.992,21.484,-73.242,0
30857.643,33.203,41.016,42.480,38.086,112.793,0
30857.647,30.762,41.504,43.457,49.316,137.695,0
30857.651,33.691,41.504,43.945,34.668,-51.758,0
30857.655,35.156,39.062,45.898,27.832,-125.000,0
30857.659,31.250,36.621,44.434,33.203,52.246,0
30857.662,28.320,37.598,42.969,36.621,162.109,0
30857.666,33.203,38.574,43.457,34.668,10.254,0
30857.670,37.109,39.551,41.504,19.043,-129.395,0
30857.674,37.109,40.039,40.039,22.461,-1.953,0
30857.678,30.273,39.551,33.691,40.527,162.109,0
30857.682,29.297,38.574,34.180,45.410,70.801,0
30857.686,39.062,37.109,45.410,37.109,-90.332,0
30857.690,37.109,36.621,49.316,31.250,-15.137,0
30857.694,36.133,37.598,48.828,48.340,172.852,0
30857.698,35.645,36.621,44.922,59.570,139.160,0
30857.702,40.527,36.621,44.434,49.805,-47.363,0
30857.705,44.922,38.574,44.434,38.574,-65.430,0
30857.709,34.668,37.109,40.039,41.992,113.281,0
30857.713,32.227,36.621,41.992,58.105,170.410,0
30857.717,39.551,37.598,44.434,50.293,-8.789,0
30857.721,45.410,41.016,45.410,24.414,-96.680,0
30857.725,42.969,42.969,43.457,25.391,66.895,0
30857.729,37.598,40.039,42.480,46.387,183.594,0
30857.733,33.203,37.598,42.969,40.527,43.457,0
30857.737,39.551,40.039,44.434,20.020,-95.215,0
30857.741,40.527,39.062,46.387,21.973,7.812,0
30857.745,35.156,35.156,46.387,33.203,157.227,0
30857.748,29.785,35.645,42.969,37.109,69.336,0
30857.752,26.855,39.551,42.480,24.902,-120.117,0
30857.756,28.320,38.574,48.340,22.461,-77.637,0
30857.760,24.902,35.156,44.922,42.969,117.676,0
30857.764,20.996,36.621,43.945,54.688,114.258,0
30857.768,21.973,38.086,43.945,30.273,-80.078,0
30857.772,26.367,40.039,40.527,5.859,-117.676,0
30857.776,22.949,40.527,41.504,19.043,69.824,0
30857.780,18.066,38.086,40.039,32.227,149.414,0
30857.784,20.508,38.086,41.016,17.090,-16.602,0
30857.787,24.902,41.016,41.504,4.395,-127.441,0
30857.791,26.367,38.574,39.551,13.672,20.508,0
30857.795,20.020,34.180,39.551,32.715,161.133,0
30857.799,20.020,32.715,38.086,33.691,42.480,0
30857.803,30.762,31.738,36.133,20.508,-110.840,0
30857.807,29.785,32.715,34.668,25.879,-21.973,0
30857.811,24.902,30.273,30.762,43.457,150.879,0
30857.815,32.715,30.273,34.180,41.504,99.121,0
30857.819,37.109,34.180,39.062,29.785,-83.984,0
30857.823,36.621,33.203,41.016,27.832,-67.383,0
30857.827,32.715,32.227,41.016,45.410,131.836,0
30857.830,30.762,31.738,37.598,58.105,152.832,0
30857.834,37.598,34.668,37.109,47.363,-32.715,0
30857.838,39.551,35.645,36.621,27.832,-94.727,0
30857.842,38.086,31.250,34.668,29.297,77.637,0
30857.846,33.691,32.227,35.645,50.781,172.852,0
30857.850,31.250,36.133,34.668,43.457,7.324,0
30857.854,31.738,36.621,36.133,19.043,-107.910,0
30857.858,25.879,34.668,37.109,25.879,37.109,0
30857.862,26.367,37.598,34.180,46.875,173.828,0
30857.866,31.738,40.039,35.156,44.922,60.547,0
30857.870,37.598,39.062,35.645,25.391,-102.539,0
30857.873,44.922,40.039,36.621,24.414,-22.949,0
30857.877,47.363,40.527,36.621,45.898,163.574,0
30857.881,39.551,41.992,37.109,51.758,121.094,0
30857.885,43.457,42.969,36.133,32.227,-73.730,0
30857.889,48.828,42.969,30.273,25.391,-76.660,0
30857.893,41.016,42.480,32.227,39.062,105.957,0
30857.897,37.598,39.551,37.598,52.246,145.508,0
30857.901,46.875,42.969,38.574,44.922,-30.273,0
30857.905,52.734,44.922,41.504,33.203,-103.027,0
30857.909,46.875,43.457,38.574,39.062,67.871,0
30857.912,42.969,41.504,36.133,54.199,167.480,0
30857.916,44.922,38.574,35.645,48.828,13.672,0
30857.920,44.922,38.574,34.668,29.297,-122.070,0
30857.924,38.086,38.574,36.621,34.180,5.371,0
30857.928,37.598,38.574,38.574,54.688,174.316,0
30857.932,41.016,39.062,37.109,58.105,92.773,0
30857.936,51.758,41.504,35.156,37.109,-80.566,0
30857.940,53.223,41.992,34.180,30.762,-42.480,0
30857.944,47.363,42.969,36.133,51.270,136.230,0
30857.948,48.340,41.016,39.062,62.012,125.000,0
30857.952,48.828,38.086,36.621,37.109,-66.406,0
30857.955,47.852,39.062,34.668,23.438,-89.355,0
30857.959,41.992,41.992,35.156,41.016,93.750,0
30857.963,30.762,41.992,36.133,48.828,144.531,0
30857.967,30.273,37.598,36.133,35.156,-40.039,0
30857.971,34.180,37.598,36.133,15.625,-137.695,0
30857.975,37.598,40.039,37.598,21.973,19.043,0
30857.979,34.668,38.086,37.598,43.945,144.531,0
30857.983,34.180,34.668,37.109,42.480,16.113,0
30857.987,41.992,37.109,36.621,33.691,-128.418,0
30857.991,45.898,39.551,35.645,32.715,-18.066,0
30857.995,44.434,37.598,33.203,40.039,155.273,0
30857.998,45.898,36.133,37.598,49.316,83.496,0
30858.002,54.199,38.574,41.504,47.363,-90.332,0
30858.006,45.410,40.527,40.039,29.785,-62.500,0
30858.010,31.738,43.457,34.668,30.762,121.582,0
30858.014,29.785,42.969,31.250,45.410,130.371,0
30858.018,24.414,37.109,31.738,28.320,-68.359,0
30858.022,26.855,34.668,37.109,10.742,-121.582,0
30858.026,22.461,36.621,38.086,18.555,52.246,0
30858.030,19.531,37.109,30.762,30.762,146.484,0
30858.034,29.785,36.133,31.250,31.738,-10.254,0
30858.037,33.691,35.156,34.180,15.625,-143.555,0
30858.041,32.715,35.156,33.691,20.020,-1.465,0
30858.045,21.973,33.203,29.297,29.785,148.926,0
30858.049,16.113,32.715,28.320,20.020,31.250,0
30858.053,28.320,37.109,33.203,12.695,-136.719,0
30858.057,37.598,40.527,37.109,20.996,-53.711,0
30858.061,35.156,42.480,36.621,40.039,141.113,0
30858.065,38.086,40.039,36.621,46.387,108.398,0
30858.069,40.039,39.551,37.109,31.250,-87.402,0
30858.073,38.574,39.551,36.133,18.066,-89.355,0
30858.077,31.250,39.551,33.691,30.762,103.027,0
30858.080,27.344,37.109,31.250,49.316,145.996,0
30858.084,34.668,34.180,31.738,35.156,-38.086,0
30858.088,37.598,37.109,32.227,15.137,-114.746,0
30858.092,35.645,37.598,33.203,25.879,58.594,0
30858.096,35.156,36.621,32.227,44.434,167.480,0
30858.100,35.156,36.133,34.180,44.922,17.578,0
30858.104,36.621,38.574,37.109,29.297,-116.699,0
30858.108,32.715,37.109,34.180,18.555,-3.906,0
30858.112,29.785,32.715,36.133,37.598,144.531,0
30858.116,31.738,36.133,33.203,44.922,44.434,0
30858.120,34.180,41.504,31.738,28.320,-134.766,0
30858.123,32.715,40.527,35.645,21.973,-77.637,0
30858.127,21.973,36.621,35.156,31.250,121.582,0
30858.131,16.113,31.250,33.691,41.016,109.863,0
30858.135,24.902,31.738,31.738,22.949,-93.262,0
30858.139,28.320,34.180,30.762,4.395,-119.141,0
30858.143,20.020,33.203,30.762,20.020,77.637,0
30858.147,21.973,34.180,28.809,36.621,149.902,0
30858.151,32.715,37.598,29.785,30.273,-29.297,0
30858.155,35.645,40.527,29.297,22.949,-126.465,0
30858.159,36.621,40.527,27.832,27.344,27.832,0
30858.162,38.086,36.133,29.785,38.086,151.367,0
30858.166,36.621,36.133,28.320,33.203,20.996,0
30858.170,41.992,36.621,28.320,15.625,-126.465,0
30858.174,43.945,36.621,30.762,25.879,-9.277,0
30858.178,36.621,36.621,31.250,43.457,164.062,0
30858.182,36.133,36.621,31.738,46.875,91.797,0
30858.186,41.992,36.133,34.668,35.645,-80.078,0
30858.190,46.387,38.086,35.645,26.855,-43.457,0
30858.194,43.457,40.039,33.203,48.340,139.648,0
30858.198,42.480,37.598,31.250,59.082,142.090,0
30858.202,40.527,34.180,26.367,44.434,-57.129,0
30858.205,40.527,33.691,23.926,38.574,-100.098,0
30858.209,43.457,36.621,32.227,41.016,88.867,1
30858.213,40.039,36.133,37.598,47.852,160.156,0
30858.217,37.598,35.156,36.133,40.527,-11.719,0
30858.221,37.109,38.086,32.227,20.996,-120.117,0
30858.225,39.551,35.645,30.273,22.949,30.762,0
30858.229,29.785,31.250,29.785,33.691,174.805,0
30858.233,20.020,32.227,28.809,23.438,47.363,0
30858.237,33.203,37.598,28.809,12.695,-126.465,0
30858.241,37.109,38.574,28.809,17.090,-45.898,0
30858.245,30.762,35.645,29.785,34.668,133.789,0
30858.248,36.621,36.621,29.297,50.293,84.961,0
30858.252,39.062,35.645,24.414,33.691,-105.469,0
30858.256,33.691,34.180,24.414,14.648,-80.078,0
30858.260,29.785,32.227,24.902,31.738,114.258,0
30858.264,26.855,27.344,24.902,42.480,127.441,0
30858.268,34.668,29.297,27.832,37.109,-61.035,0
30858.272,34.668,31.738,30.273,23.926,-116.211,0
30858.276,20.508,29.297,28.320,31.250,58.105,0
30858.280,20.020,28.809,28.320,53.711,156.250,0
30858.284,26.855,30.273,28.320,39.062,3.418,0
30858.287,31.250,30.762,29.297,19.531,-128.418,0
30858.291,32.227,33.691,33.203,23.926,6.836,0
30858.295,31.250,34.668,31.250,37.109,160.156,0
30858.299,31.738,33.203,23.438,38.574,51.270,0
30858.303,36.133,32.715,26.367,22.949,-117.676,0
30858.307,33.691,31.250,34.668,22.949,-54.199,0
30858.311,29.785,30.273,35.156,46.387,130.371,0
30858.315,33.203,32.715,33.203,50.781,115.234,0
30858.319,39.551,34.668,28.809,32.715,-67.383,0
30858.323,45.410,34.668,24.902,28.809,-80.078,0
30858.327,41.992,31.738,23.438,39.551,103.027,0
30858.330,37.598,29.297,25.391,57.129,159.180,0
30858.334,41.016,35.645,30.762,55.664,-11.719,0
30858.338,40.527,36.133,29.297,23.926,-96.680,0
30858.342,41.504,33.691,25.391,25.879,69.824,0
30858.346,43.457,35.645,26.367,49.805,201.660,0
30858.350,38.574,33.203,24.414,41.016,45.898,0
30858.354,36.133,35.156,22.461,26.367,-118.164,0
30858.358,40.527,38.574,26.855,33.203,-3.906,0
30858.362,35.156,34.668,29.297,52.246,160.645,0
30858.366,34.180,34.668,25.391,54.199,81.543,0
30858.370,40.527,37.598,23.438,28.320,-96.680,0
30858.373,41.016,41.992,28.809,23.926,-54.688,0
30858.377,33.691,41.016,30.273,40.527,125.977,0
30858.381,27.832,37.109,30.762,42.480,118.164,0
30858.385,33.691,36.133,26.367,29.785,-79.590,0
30858.389,39.551,36.133,22.461,19.531,-115.234,0
30858.393,34.668,38.086,25.879,30.762,84.961,0
30858.397,26.855,36.621,22.949,49.805,157.227,0
30858.401,30.762,34.180,20.996,46.387,-22.461,0
30858.405,38.086,36.621,24.414,25.879,-128.418,0
30858.409,39.062,39.551,27.832,31.738,26.855,0
30858.412,39.062,40.039,30.273,54.199,174.316,0
30858.416,37.598,37.598,27.832,47.852,52.246,0
30858.420,40.527,36.621,25.391,31.738,-116.211,0
30858.424,41.504,37.109,28.320,28.320,-12.695,0
30858.428,38.086,35.645,31.250,41.016,184.082,0
30858.432,38.086,31.738,30.273,50.781,111.328,0
30858.436,39.551,31.738,27.832,33.691,-103.027,0
30858.440,51.758,34.668,26.855,27.344,-67.383,0
30858.444,51.758,35.645,25.879,50.781,136.230,0
30858.448,37.598,36.133,25.391,58.105,142.578,0
30858.452,35.645,34.668,21.973,38.574,-50.293,0
30858.455,42.480,35.645,22.949,25.879,-97.168,0
30858.459,46.875,35.156,26.855,38.086,95.703,0
30858.463,38.574,30.762,26.855,54.199,194.824,0
30858.467,35.156,31.250,28.809,48.828,19.043,0
30858.471,42.969,33.203,28.809,37.109,-112.793,0
30858.475,42.969,32.227,26.367,42.480,28.320,0
30858.479,40.039,29.297,25.879,51.270,163.574,0
30858.483,34.180,28.809,21.484,41.992,46.875,0
30858.487,36.133,32.227,18.555,22.949,-115.723,0
30858.491,47.363,37.109,24.902,29.785,-29.297,0
30858.495,44.922,36.133,25.879,52.734,162.598,0
30858.498,37.109,35.645,20.020,52.734,117.676,0
30858.502,33.691,36.621,19.531,31.250,-89.355,0
30858.506,30.762,33.203,21.484,20.996,-101.074,0
30858.510,30.273,33.691,20.996,41.992,93.750,0
30858.514,32.715,34.180,16.602,53.223,138.672,0
30858.518,34.668,31.250,15.137,38.086,-43.945,0
30858.522,34.180,31.738,19.531,26.855,-113.281,0
30858.526,31.738,32.715,26.367,34.668,53.711,0
30858.530,28.809,30.273,26.855,49.316,167.480,0
30858.534,37.598,30.273,28.809,40.527,25.391,0
30858.537,39.062,31.250,21.973,21.973,-129.395,0
30858.541,32.227,30.762,14.160,25.391,-19.043,0
30858.545,33.203,30.762,20.996,50.293,153.320,0
30858.549,38.086,27.832,25.879,57.617,74.219,0
30858.553,40.039,28.320,26.367,36.133,-105.957,0
30858.557,42.969,30.273,25.391,26.855,-56.641,0
30858.561,43.945,28.320,24.902,45.898,141.113,0
30858.565,37.598,27.344,21.973,56.152,132.324,0
30858.569,33.203,27.832,21.484,43.457,-63.965,0
30858.573,33.691,30.273,21.973,25.879,-95.703,0
30858.577,33.203,32.715,18.555,27.832,80.566,0
30858.580,30.762,29.297,18.555,44.922,140.625,0
30858.584,33.203,26.367,21.973,39.551,-29.297,0
30858.588,39.062,28.320,22.949,16.602,-133.789,0
30858.592,37.598,32.715,22.949,23.926,16.602,0
30858.596,26.367,32.715,21.973,50.781,147.461,0
30858.600,24.902,29.785,22.461,44.922,17.578,0
30858.604,26.855,26.367,20.020,17.090,-125.977,0
30858.608,24.414,30.273,18.066,19.531,-18.555,0
30858.612,26.367,34.668,26.367,46.875,148.926,0
30858.616,19.043,29.785,26.855,48.828,73.242,0
30858.620,19.043,31.738,20.996,23.926,-117.676,0
30858.623,26.855,35.156,23.926,14.160,-78.613,0
30858.627,26.367,31.250,30.273,35.645,117.188,0
30858.631,23.438,25.879,27.344,43.457,123.535,0
30858.635,20.996,24.414,23.438,25.391,-61.035,0
30858.639,21.973,25.879,25.391,12.695,-103.516,0
30858.643,22.949,27.832,25.391,27.344,73.242,0
30858.647,21.973,26.855,26.855,41.504,144.531,0
30858.651,22.949,25.879,25.879,30.273,-20.020,0
30858.655,30.762,26.855,19.531,14.648,-126.465,0
30858.659,37.598,28.809,20.508,19.531,19.531,0
30858.662,30.762,26.855,25.391,38.574,151.367,0
30858.666,21.973,23.926,22.949,40.527,30.273,0
30858.670,25.391,28.320,22.461,21.973,-129.883,0
30858.674,32.227,32.715,24.902,16.113,-40.039,0
30858.678,28.809,32.227,25.879,30.273,147.461,0
30858.682,34.668,32.715,24.414,42.480,107.422,0
30858.686,39.551,36.621,24.902,30.762,-83.008,0
30858.690,37.109,42.480,26.367,30.273,-76.172,0
30858.694,36.621,42.480,28.809,44.922,121.582,0
30858.698,35.645,37.109,30.273,49.316,160.156,0
30858.702,41.992,36.621,27.832,36.133,-26.855,0
30858.705,48.340,41.504,28.320,22.949,-100.586,0
30858.709,40.527,42.969,31.250,37.109,77.637,0
30858.713,34.180,40.527,30.762,55.664,171.875,0
30858.717,34.180,38.574,29.297,49.316,5.859,0
30858.721,39.551,40.527,31.250,28.809,-128.418,0
30858.725,44.434,42.480,34.180,38.086,3.418,0
30858.729,35.645,41.016,28.809,59.570,168.457,0
30858.733,34.180,40.039,23.438,53.711,68.848,0
30858.737,42.969,41.992,31.738,27.344,-106.445,0
30858.741,43.945,41.016,37.109,19.043,-40.039,0
30858.745,45.898,36.621,34.180,41.016,146.484,0
30858.748,43.457,34.180,28.320,51.270,120.117,0
30858.752,47.852,36.621,27.344,40.527,-67.383,0
30858.756,51.270,40.039,28.320,33.691,-83.984,0
30858.760,40.039,37.109,28.809,39.062,100.586,0
30858.764,36.621,35.645,29.785,53.711,160.156,0
30858.768,37.109,36.133,28.320,46.387,-27.832,0
30858.772,39.551,36.133,25.879,25.879,-124.512,0
30858.776,37.598,35.645,25.879,29.785,43.945,0
30858.780,28.809,33.691,23.926,47.363,167.480,0
30858.784,30.273,36.621,20.508,40.527,31.738,0
30858.787,39.062,39.062,20.508,20.020,-121.582,0
30858.791,35.645,38.086,20.508,22.461,-16.602,0
30858.795,29.297,36.621,22.949,49.316,157.227,0
30858.799,28.320,36.621,16.113,51.758,76.172,0
30858.803,37.109,34.180,14.648,27.832,-112.305,1
30858.807,41.016,33.203,25.391,29.785,-60.059,0
30858.811,36.133,32.715,25.879,42.969,138.184,0
30858.815,26.855,26.855,22.949,38.574,137.207,0
30858.819,24.902,27.832,20.996,23.926,-58.594,0
30858.823,32.715,33.691,22.949,15.625,-111.328,0
30858.827,34.180,33.203,24.414,28.809,71.777,0
30858.830,36.133,32.715,22.461,49.805,152.344,0
30858.834,41.992,36.621,23.438,40.039,-21.484,0
30858.838,47.363,37.598,22.949,20.508,-126.953,0
30858.842,46.387,39.551,22.949,30.273,34.180,0
30858.846,40.527,37.598,24.414,50.781,182.617,0
30858.850,35.645,35.156,20.996,48.340,59.570,0
30858.854,35.156,37.598,21.973,22.949,-112.305,0
30858.858,36.621,38.574,25.879,21.973,-26.367,0
30858.862,36.133,36.621,23.926,45.410,155.762,0
30858.866,35.645,37.109,21.973,53.711,105.957,0
30858.870,40.039,39.551,23.926,36.621,-87.891,0
30858.873,40.039,37.598,17.578,25.391,-80.566,0
30858.877,34.180,35.156,16.113,44.922,109.375,0
30858.881,31.738,34.180,20.020,54.199,138.672,0
30858.885,37.109,36.621,19.043,31.738,-43.945,0
30858.889,42.480,39.551,19.531,18.066,-107.910,0
30858.893,43.457,39.062,21.484,31.250,72.266,0
30858.897,38.086,37.109,21.973,50.293,172.852,0
30858.901,37.109,38.574,23.926,51.270,16.602,0
30858.905,46.387,36.621,24.902,36.133,-109.863,0
30858.909,39.062,32.227,22.461,30.273,19.043,0
30858.912,31.738,31.738,21.973,49.316,165.527,0
30858.916,39.062,32.715,23.438,61.035,62.500,0
30858.920,41.992,32.715,23.926,42.969,-101.074,0
30858.924,42.969,32.227,23.438,29.785,-27.344,0
30858.928,42.480,31.738,22.949,43.457,165.039,0
30858.932,41.992,29.785,20.996,58.105,133.301,0
30858.936,50.293,30.273,17.578,41.992,-65.430,0
30858.940,54.199,34.180,18.555,19.043,-65.430,0
30858.944,49.805,36.133,19.531,34.668,127.930,0
30858.948,46.875,32.715,16.113,57.129,160.156,0
30858.952,43.945,30.273,13.672,42.480,-27.832,0
30858.955,45.410,32.715,15.137,29.297,-105.957,0
30858.959,42.969,33.203,18.555,44.434,64.941,0
30858.963,38.574,31.250,16.113,58.594,187.988,0
30858.967,43.457,31.250,12.207,42.480,35.645,0
30858.971,49.805,35.645,17.090,24.414,-124.512,0
30858.975,48.340,37.598,18.555,36.133,-5.859,0
30858.979,41.504,33.203,20.020,53.223,162.598,0
30858.983,37.598,33.203,26.367,45.410,75.684,0
30858.987,37.109,34.668,24.902,28.320,-106.445,0
30858.991,37.598,33.691,21.973,22.461,-61.035,0
30858.995,36.621,31.250,21.973,35.645,124.023,0
30858.998,34.668,29.297,20.508,47.363,113.281,0
30859.002,39.062,32.227,19.531,34.668,-75.195,0
30859.006,38.574,35.156,18.066,15.625,-95.703,0
30859.010,36.621,31.738,20.020,28.320,89.844,0
30859.014,40.039,31.738,20.996,50.293,155.762,0
30859.018,42.480,36.133,18.066,46.875,-7.812,0
30859.022,47.852,39.551,20.508,26.367,-111.328,0
30859.026,53.223,38.574,21.973,27.344,43.945,0
30859.030,51.758,34.668,19.043,49.316,174.805,0
30859.034,43.457,34.668,20.508,43.457,38.086,0
30859.037,41.504,34.668,24.414,20.996,-112.793,0
30859.041,41.504,36.621,19.043,24.902,-7.324,0
30859.045,38.574,34.180,20.508,41.016,168.945,0
30859.049,37.109,30.273,24.902,44.434,103.516,0
30859.053,38.086,28.809,26.367,38.086,-94.727,0
30859.057,41.992,29.785,26.855,26.855,-76.660,0
30859.061,39.062,32.227,27.832,38.086,124.512,0
30859.065,37.109,34.668,30.273,57.617,138.672,0
30859.069,39.551,34.668,28.320,43.457,-57.129,0
30859.073,42.969,36.133,26.367,27.344,-108.398,0
30859.077,39.062,37.109,27.832,34.668,77.637,0
30859.080,32.227,31.738,26.855,49.316,173.828,0
30859.084,36.133,31.738,26.367,43.945,2.930,0
30859.088,41.504,35.645,23.438,25.391,-132.812,0
30859.092,36.621,33.203,22.949,39.551,11.719,0
30859.096,28.320,33.691,24.414,55.176,170.410,0
30859.100,25.391,32.227,21.484,36.621,41.992,0
30859.104,30.273,29.297,23.438,23.438,-134.766,0
30859.108,29.297,31.250,25.879,28.320,-45.410,0
30859.112,23.926,27.832,24.414,40.039,141.113,0
30859.116,24.902,29.297,25.879,41.992,98.633,0
30859.120,28.320,32.227,24.902,24.902,-89.844,0
30859.123,31.738,29.297,21.484,10.742,-83.008,0
30859.127,35.156,29.785,18.066,25.879,114.258,0
30859.131,39.062,30.762,18.555,41.992,142.578,0
30859.135,31.250,32.227,20.508,26.855,-59.082,0
30859.139,35.156,33.203,24.414,19.531,-135.742,0
30859.143,41.504,29.785,28.320,43.457,43.945,0
30859.147,34.668,26.855,27.832,52.246,165.527,0
30859.151,33.203,26.855,29.297,35.156,3.418,0
30859.155,38.574,29.785,27.832,20.508,-139.648,0
30859.159,42.969,28.320,27.344,27.832,-7.324,0
30859.162,36.133,28.320,29.785,47.852,150.391,0
30859.166,26.855,27.832,27.344,47.363,56.152,0
30859.170,32.715,25.879,26.855,31.250,-124.512,0
30859.174,34.180,25.879,27.832,26.367,-66.895,0
30859.178,24.902,26.367,26.367,45.898,129.395,0
30859.182,27.344,27.344,24.902,56.641,113.281,0
30859.186,32.227,26.855,25.391,34.180,-82.520,0
30859.190,36.133,24.902,20.020,21.484,-105.469,0
30859.194,39.062,26.367,20.996,40.527,90.332,0
30859.198,33.203,25.391,28.320,52.734,154.297,0
30859.202,26.855,24.902,26.855,33.203,-31.250,0
30859.205,32.715,26.855,24.902,14.160,-119.629,0
30859.209,38.086,30.273,23.438,28.320,43.457,0
30859.213,38.086,29.297,23.926,52.734,169.434,0
30859.217,33.691,23.926,22.461,44.922,38.574,0
30859.221,44.434,25.879,22.461,14.648,-118.164,0
30859.225,50.293,27.344,23.438,16.113,-22.461,0
30859.229,38.574,26.855,18.555,39.551,141.602,0
30859.233,34.668,29.785,20.508,45.898,75.684,0
30859.237,35.156,29.785,22.949,33.691,-100.098,0
30859.241,37.109,29.785,19.043,21.484,-60.547,0
30859.245,41.016,30.762,18.066,38.574,132.812,0
30859.248,39.062,25.879,19.043,47.363,124.512,0
30859.252,35.645,26.855,21.973,23.926,-81.543,0
30859.256,37.598,31.250,21.973,17.578,-115.723,0
30859.260,34.668,27.832,15.625,32.227,72.754,0
30859.264,31.250,26.367,20.020,43.457,150.391,0
30859.268,34.180,25.879,20.996,31.738,-14.160,0
30859.272,38.574,24.902,20.508,14.160,-127.441,0
30859.276,37.109,26.855,22.949,22.949,22.461,0
30859.280,36.621,27.344,21.973,47.852,171.387,0
30859.284,39.551,26.367,20.020,49.805,51.270,0
30859.287,40.527,28.320,16.602,29.297,-126.465,0
30859.291,39.062,27.832,17.090,28.320,-40.039,0
30859.295,39.551,24.414,18.066,44.434,152.344,0
30859.299,38.086,24.902,17.578,35.645,108.398,0
30859.303,30.273,26.367,17.578,17.578,-86.426,0
30859.307,31.250,25.879,20.508,11.719,-78.125,0
30859.311,30.273,24.414,21.484,25.879,121.582,0
30859.315,25.879,23.438,20.996,35.645,138.672,0
30859.319,31.250,23.926,19.043,24.414,-65.430,0
30859.323,38.086,23.926,15.137,15.625,-127.441,0
30859.327,28.809,21.973,16.602,28.320,58.105,0
30859.330,21.484,19.043,15.625,42.480,158.691,0
30859.334,22.949,19.043,15.137,32.715,-6.836,0
30859.338,26.367,22.461,18.555,15.137,-131.836,0
30859.342,30.273,24.414,18.066,20.508,9.277,0
30859.346,33.203,23.926,14.648,42.480,161.621,0
30859.350,32.227,24.414,10.742,49.316,53.711,0
30859.354,35.156,27.344,14.648,33.203,-116.699,0
30859.358,41.504,29.785,21.484,30.762,-47.852,0
30859.362,44.434,28.320,23.438,52.734,138.184,0
30859.366,41.504,26.855,20.508,54.688,107.910,0
30859.370,35.645,25.879,17.090,32.715,-82.520,0
30859.373,40.039,28.320,20.508,19.043,-84.961,0
30859.377,33.203,27.344,22.461,31.250,101.074,0
30859.381,29.785,24.414,19.043,47.363,152.832,0
30859.385,38.086,23.926,14.648,35.156,-23.926,0
30859.389,40.039,27.344,16.602,22.461,-104.004,0
30859.393,44.434,30.762,21.484,34.180,51.270,0
30859.397,40.527,29.297,20.508,48.340,149.414,0
30859.401,31.738,26.367,21.484,45.410,7.324,0
30859.405,33.203,29.297,25.391,28.809,-131.348,0
30859.409,30.273,31.250,24.414,29.297,-16.602,0
30859.412,26.855,25.391,22.461,42.480,157.715,0
30859.416,28.809,24.902,24.902,44.922,78.125,0
30859.420,34.668,28.809,24.414,28.809,-104.980,0
30859.424,38.086,32.227,23.438,15.137,-50.293,0
30859.428,32.715,32.227,25.391,30.273,134.277,0
30859.432,31.738,27.344,20.508,37.109,113.281,0
30859.436,43.945,28.320,21.484,24.902,-67.383,0
30859.440,50.781,33.203,27.344,22.949,-85.449,0
30859.444,47.363,33.691,27.832,41.016,102.051,1
30859.448,49.805,29.297,29.785,52.734,174.316,0
30859.452,46.387,25.879,25.391,41.504,0.977,0
30859.455,39.062,28.320,24.902,23.926,-105.957,0
30859.459,37.109,29.785,28.320,29.297,49.805,0
30859.463,29.297,26.855,25.391,55.664,169.434,0
30859.467,26.855,26.855,23.438,48.828,24.414,0
30859.471,35.645,31.738,25.391,22.461,-136.719,0
30859.475,40.039,34.668,26.367,22.461,-38.086,0
30859.479,35.156,29.785,21.484,36.133,147.461,0
30859.483,32.715,27.344,20.020,43.457,93.262,0
30859.487,41.992,28.809,20.996,31.738,-103.027,0
30859.491,45.410,27.832,20.508,25.391,-89.844,0
30859.495,36.621,28.809,19.531,39.062,105.469,0
30859.498,33.203,28.320,20.020,50.781,130.859,0
30859.502,36.621,26.855,20.020,41.016,-53.223,0
30859.506,36.621,28.320,20.996,26.367,-103.516,0
30859.510,35.156,25.879,22.461,33.203,80.078,0
30859.514,35.156,23.926,20.020,46.875,175.293,0
30859.518,31.250,23.926,13.672,33.203,5.859,0
30859.522,36.133,26.855,16.602,9.766,-121.582,0
30859.526,38.574,30.273,20.996,15.137,16.602,0
30859.530,30.762,27.832,16.602,35.645,160.645,0
30859.534,25.879,25.879,14.648,42.969,56.152,0
30859.537,33.691,26.367,18.066,18.066,-115.723,0
30859.541,35.156,25.879,19.043,5.371,-46.387,0
30859.545,29.297,28.809,20.996,28.320,133.789,0
30859.549,32.227,26.855,21.484,39.551,83.496,0
30859.553,41.504,26.855,18.066,29.297,-104.980,0
30859.557,42.480,27.832,19.043,25.879,-91.797,0
30859.561,35.156,27.344,18.555,40.039,111.328,0
30859.565,32.715,28.809,16.602,51.270,163.086,0
30859.569,38.086,27.832,13.184,30.762,-29.785,0
30859.573,46.387,30.762,14.648,23.926,-113.281,0
30859.577,50.781,29.785,15.137,41.992,64.941,0
30859.580,43.457,26.855,11.719,51.758,181.641,0
30859.584,38.086,25.879,9.277,45.898,33.203,0
30859.588,43.457,24.414,6.836,30.273,-113.281,0
30859.592,45.898,25.879,18.066,36.133,12.695,0
30859.596,41.992,24.902,22.949,56.152,178.223,0
30859.600,35.156,22.461,14.160,53.711,75.195,0
30859.604,41.504,25.879,13.672,31.738,-102.051,0
30859.608,44.434,30.273,20.020,33.203,-39.062,0
30859.612,39.062,27.832,21.973,52.246,152.832,0
30859.616,32.715,24.414,18.066,53.711,123.047,0
30859.620,29.785,23.438,14.160,32.715,-81.543,0
30859.623,33.203,25.879,12.695,14.160,-95.215,0
30859.627,30.762,26.855,14.160,26.855,97.168,0
30859.631,28.809,23.926,16.113,47.363,152.832,0
30859.635,26.367,23.926,17.090,34.668,-29.297,0
30859.639,24.414,24.902,14.160,12.207,-125.000,0
30859.643,26.855,23.926,12.207,23.926,41.016,0
30859.647,27.832,23.926,15.625,43.945,167.480,0
30859.651,29.297,26.367,16.602,37.109,22.461,0
30859.655,34.180,27.344,19.531,21.484,-134.766,0
30859.659,35.645,27.344,22.949,29.785,-12.207,0
30859.662,38.086,26.367,20.508,48.828,177.734,0
30859.666,40.527,23.926,17.090,45.898,95.215,0
30859.670,39.551,20.996,18.555,21.973,-92.285,0
30859.674,41.504,24.902,19.531,18.066,-49.805,0
30859.678,41.016,26.367,21.973,44.922,141.602,0
30859.682,38.574,22.461,19.531,54.688,148.926,0
30859.686,33.203,23.438,15.625,35.645,-48.340,0
30859.690,33.691,22.461,18.555,24.902,-102.539,0
30859.694,36.133,21.973,21.973,35.156,83.984,0
30859.698,31.738,20.996,21.484,48.340,171.387,0
30859.702,30.762,21.484,17.578,37.598,0.488,0
30859.705,33.203,24.414,19.043,20.508,-117.188,0
30859.709,37.598,22.461,21.973,26.367,29.297,0
30859.713,39.062,21.484,18.555,42.480,174.316,0
30859.717,35.645,19.531,15.625,41.504,53.711,0
30859.721,33.203,18.066,14.648,23.438,-115.234,0
30859.725,35.156,21.484,15.625,25.391,-26.367,0
30859.729,32.715,20.508,15.137,47.363,154.297,0
30859.733,25.879,19.043,17.578,42.969,106.445,0
30859.737,29.785,20.020,17.090,17.090,-88.379,0
30859.741,28.320,21.484,16.113,4.883,-86.914,0
30859.745,23.926,22.461,20.020,23.438,108.887,0
30859.748,21.973,18.555,18.066,41.992,143.555,0
30859.752,24.414,17.090,15.625,29.785,-53.711,0
30859.756,33.691,24.414,18.066,18.555,-123.535,0
30859.760,30.762,22.461,20.996,26.855,54.688,0
30859.764,24.414,18.555,22.949,40.039,157.715,0
30859.768,28.809,19.531,21.973,32.715,1.465,0
30859.772,33.203,17.578,18.066,15.137,-134.766,0
30859.776,34.180,17.090,15.137,15.625,-0.488,0
30859.780,35.156,18.066,14.160,37.109,158.691,0
30859.784,37.109,20.020,14.648,44.434,54.199,0
30859.787,38.086,21.484,15.625,20.020,-123.047,0
30859.791,35.156,24.414,18.066,19.043,-65.918,0
30859.795,30.273,26.367,19.531,46.387,126.953,0
30859.799,27.344,22.461,16.602,41.016,115.723,0
30859.803,28.809,20.996,16.113,18.555,-78.125,0
30859.807,35.156,24.414,16.113,16.602,-88.867,0
30859.811,36.621,24.902,17.578,35.156,107.422,0
30859.815,34.668,22.461,15.137,54.199,163.086,0
30859.819,35.645,23.438,12.695,36.621,-20.996,0
30859.823,41.992,25.879,19.531,11.230,-117.188,0
30859.827,39.062,24.414,21.973,20.996,51.270,0
30859.830,34.180,19.043,18.066,43.945,172.852,0
30859.834,37.109,19.531,14.160,47.852,19.043,0
30859.838,39.062,22.461,13.184,25.879,-135.254,0
30859.842,35.156,21.973,16.602,17.090,-24.414,0
30859.846,33.691,20.996,17.578,35.645,156.738,0
30859.850,32.227,18.555,12.695,39.062,82.520,0
30859.854,29.297,19.531,10.742,19.531,-115.723,0
30859.858,26.367,23.926,9.277,13.184,-82.031,0
30859.862,30.273,24.414,9.277,32.227,116.211,0
30859.866,30.762,23.438,9.277,45.410,126.953,0
30859.870,26.855,24.414,11.230,26.367,-59.082,0
30859.873,36.621,24.902,15.137,18.555,-93.750,0
30859.877,42.969,26.367,16.113,37.598,89.844,0
30859.881,41.016,26.855,14.160,46.387,157.715,0
30859.885,37.109,25.879,15.625,30.273,-9.766,0
30859.889,35.645,27.344,20.020,15.625,-113.770,0
30859.893,36.621,24.902,17.578,27.832,33.691,0
30859.897,36.133,20.020,13.184,44.922,165.039,0
30859.901,39.062,19.531,11.230,42.480,49.316,0
30859.905,46.387,20.996,15.137,31.738,-111.328,0
30859.909,46.387,23.438,21.484,32.715,-25.391,0
30859.912,39.551,24.902,24.414,51.270,165.527,0
30859.916,38.086,22.461,21.973,57.617,109.375,0
30859.920,43.945,23.438,20.508,39.062,-83.496,0
30859.924,46.387,25.879,20.020,29.785,-62.988,0
30859.928,38.574,21.973,20.508,36.621,119.629,0
30859.932,33.691,20.020,24.902,48.828,137.695,0
30859.936,42.480,21.484,24.902,38.574,-43.457,0
30859.940,46.387,22.461,23.438,16.113,-104.980,0
30859.944,38.574,24.414,22.461,29.297,68.848,0
30859.948,39.062,24.414,21.973,53.711,164.551,0
30859.952,41.504,24.414,22.949,42.969,1.953,0
30859.955,39.062,27.344,25.391,26.855,-131.348,0
30859.959,35.156,27.832,25.391,32.715,0.000,0
30859.963,30.273,25.879,23.438,41.504,159.668,0
30859.967,36.133,26.367,21.973,43.945,62.500,0
30859.971,41.016,29.785,20.996,34.668,-103.516,0
30859.975,37.109,31.738,23.438,21.973,-22.949,0
30859.979,32.227,30.273,21.973,37.109,147.461,0
30859.983,29.785,29.297,18.066,50.781,97.656,0
30859.987,37.109,29.785,21.973,36.621,-95.703,0
30859.991,40.039,31.250,26.855,24.902,-101.074,0
30859.995,33.203,32.715,25.391,43.457,95.215,0
30859.998,28.320,32.715,20.508,50.781,131.836,0
30860.002,34.180,31.250,20.508,35.645,-49.805,0
30860.006,40.527,28.809,20.508,21.973,-125.488,0
30860.010,33.203,28.809,19.043,24.902,40.527,0
30860.014,28.320,28.320,22.461,43.457,161.621,0
30860.018,28.809,27.832,23.438,43.945,14.160,0
30860.022,34.180,32.227,24.902,31.738,-135.742,0
30860.026,34.668,31.250,26.367,29.297,-19.043,0
30860.030,29.297,26.367,20.508,49.316,153.320,0
30860.034,32.715,27.832,18.555,55.176,77.148,0
30860.037,34.668,27.344,18.555,23.438,-113.281,0
30860.041,33.691,29.297,17.578,17.090,-72.266,0
30860.045,35.645,32.715,20.996,43.457,125.977,0
30860.049,31.738,27.832,21.484,46.387,120.605,0
30860.053,29.297,24.414,17.090,28.320,-76.660,0
30860.057,35.156,27.832,21.484,20.996,-105.957,0
30860.061,34.180,29.785,26.367,27.832,86.914,0
30860.065,28.809,30.273,24.414,43.457,156.250,0
30860.069,25.879,29.297,21.484,34.180,-21.484,0
30860.073,28.809,32.227,20.996,9.277,-125.000,0
30860.077,29.785,34.668,24.414,22.949,29.785,0
30860.080,26.855,31.738,23.438,44.922,162.598,0
30860.084,29.785,33.691,20.508,36.621,26.855,0
30860.088,35.645,37.109,20.508,18.555,-134.277,0
30860.092,38.086,37.109,20.996,20.996,-29.785,0
30860.096,35.156,34.180,21.973,45.410,155.273,0
30860.100,33.203,30.273,20.996,59.082,85.449,0
30860.104,36.621,31.738,19.531,38.574,-116.211,0
30860.108,40.527,33.691,20.508,23.926,-80.566,0
30860.112,31.738,30.762,21.973,38.086,129.883,0
30860.116,28.320,28.809,23.438,40.039,144.531,0
30860.120,35.156,29.297,25.391,27.344,-48.828,0
30860.123,41.016,32.227,24.902,20.508,-101.074,0
30860.127,38.086,32.227,23.438,35.645,80.078,0
30860.131,33.691,31.738,24.902,51.270,166.016,0
30860.135,37.598,30.762,24.414,39.062,2.441,0
30860.139,45.898,31.738,19.043,26.367,-119.629,2
30860.143,46.387,33.691,22.461,34.668,7.812,0
30860.147,33.691,30.273,25.391,46.387,152.344,0
30860.151,30.762,29.297,23.926,34.180,41.504,0
30860.155,36.133,29.297,24.902,12.695,-128.418,0
30860.159,31.250,31.738,22.949,19.043,-49.805,0
30860.162,24.902,31.738,23.926,43.945,139.648,0
30860.166,27.832,29.297,24.902,46.387,104.492,0
30860.170,27.832,30.762,22.461,26.367,-91.309,0
30860.174,32.715,33.203,22.949,19.043,-83.008,0
30860.178,36.621,30.273,23.926,30.273,110.840,0
30860.182,31.738,26.367,24.414,42.969,139.648,0
30860.186,34.180,28.320,25.391,33.203,-44.434,0
30860.190,35.156,29.785,24.414,19.043,-116.699,0
30860.194,36.133,33.203,25.391,36.133,65.918,0
30860.198,38.086,32.715,30.273,58.105,181.152,0
30860.202,39.062,29.785,28.320,46.875,20.508,0
30860.205,42.480,33.203,22.949,22.949,-115.723,0
30860.209,37.109,31.250,22.949,38.574,19.043,0
30860.213,25.879,25.391,21.484,55.664,178.223,0
30860.217,26.367,25.391,20.020,34.180,67.383,0
30860.221,33.691,26.367,18.066,19.531,-123.535,0
30860.225,39.062,28.809,17.578,26.855,-61.523,0
30860.229,34.668,27.344,20.996,42.969,128.418,0
30860.233,29.785,22.949,24.414,41.504,98.145,0
30860.237,34.668,25.391,23.926,27.832,-93.750,0
30860.241,33.203,25.391,24.414,20.020,-109.863,0
30860.245,22.949,24.902,22.461,25.879,85.449,0
30860.248,21.973,28.320,18.066,36.621,150.391,0
30860.252,26.855,32.227,19.043,26.367,-38.574,0
30860.256,34.180,34.668,18.066,10.742,-139.160,0
30860.260,32.227,31.250,17.578,20.020,26.855,0
30860.264,26.367,26.367,21.484,41.504,164.062,0
30860.268,28.809,28.320,19.043,40.039,30.273,0
30860.272,34.180,32.227,17.578,19.531,-114.258,0
30860.276,35.156,35.156,17.578,18.555,0.488,0
30860.280,31.738,34.668,17.578,46.875,179.688,0
30860.284,35.156,31.250,18.555,57.129,111.816,0
30860.287,37.109,29.785,15.625,27.832,-88.867,0
30860.291,40.039,31.738,17.578,20.508,-57.617,0
30860.295,38.086,30.762,21.973,39.062,143.066,0
30860.299,33.203,29.785,19.531,41.992,140.137,0
30860.303,38.086,29.785,14.648,33.691,-61.035,0
30860.307,37.109,29.785,14.160,32.715,-102.051,0
30860.311,35.645,30.273,22.949,39.062,84.961,0
30860.315,34.180,29.297,27.832,47.363,161.133,0
30860.319,32.715,29.785,23.926,40.039,-4.883,0
30860.323,38.574,30.762,22.461,27.832,-116.699,0
30860.327,38.086,28.320,22.461,25.391,22.461,0
30860.330,36.133,25.879,20.508,43.457,166.992,0
30860.334,39.062,29.785,18.066,45.410,42.480,0
30860.338,40.039,33.691,17.090,19.531,-127.441,0
30860.342,38.086,31.738,17.090,18.066,-36.621,0
30860.346,33.203,29.785,19.043,38.086,145.508,0
30860.350,29.785,29.785,19.043,41.992,94.238,0
30860.354,31.250,33.691,23.926,25.879,-94.238,0
30860.358,33.691,35.156,26.367,20.996,-67.871,0
30860.362,28.320,30.273,24.902,32.715,121.094,0
30860.366,24.414,28.320,24.414,43.457,129.883,0
30860.370,26.855,29.297,20.508,35.645,-54.199,0
30860.373,38.086,31.738,21.973,20.996,-103.516,0
30860.377,37.598,29.785,24.414,33.203,68.359,0
30860.381,34.668,26.367,28.320,56.152,159.668,0
30860.385,34.668,27.832,30.273,51.758,3.418,0
30860.389,32.227,27.832,30.762,27.832,-127.930,0
30860.393,33.691,27.832,25.879,31.738,7.324,0
30860.397,27.832,23.926,23.438,61.523,167.480,0
30860.401,30.273,19.043,25.879,61.035,64.941,0
30860.405,41.016,25.391,24.902,30.273,-104.492,0
30860.409,41.504,32.227,23.926,22.949,-30.762,0
30860.412,40.527,30.273,24.902,49.805,163.574,0
30860.416,40.527,26.855,24.414,59.570,134.277,0
30860.420,43.945,28.320,24.902,39.551,-69.336,0
30860.424,42.480,30.273,27.344,30.762,-81.543,0
30860.428,37.109,32.715,28.809,44.434,105.957,0
