timestamps,TP9,AF7,AF8,TP10,Right AUX,Marker0
1553807791.075,9.277,44.922,27.344,-30.762,-533.691,0
1553807791.079,10.254,43.945,28.809,-15.137,-516.113,0
1553807791.083,23.438,41.504,21.484,-17.578,-461.426,0
1553807791.087,16.113,44.434,19.043,-18.066,-404.297,0
1553807791.091,-3.418,45.410,24.902,-8.789,-354.492,0
1553807791.095,4.395,46.387,26.367,-9.277,-300.293,0
1553807791.099,10.254,50.293,29.785,-6.836,-297.363,0
1553807791.103,10.254,50.781,27.832,-6.836,-288.574,0
1553807791.106,4.883,50.781,20.020,-12.207,-289.062,0
1553807791.110,6.348,43.945,19.043,-3.418,-265.625,0
1553807791.114,13.672,39.551,22.949,-4.883,-258.301,0
1553807791.118,23.926,43.457,25.391,-3.906,-301.270,0
1553807791.122,16.113,40.527,33.203,0.000,-313.477,0
1553807791.126,0.977,35.645,30.762,-20.020,-260.254,0
1553807791.130,-6.348,32.227,28.320,-14.160,-219.727,0
1553807791.134,-8.789,28.809,37.109,-3.906,-232.422,0
1553807791.138,-0.977,27.344,38.574,-9.766,-232.422,0
1553807791.142,0.000,25.391,40.527,-7.812,-179.688,0
1553807791.146,-3.418,29.785,49.805,-14.648,-159.668,0
1553807791.149,-9.277,33.203,50.781,-21.484,-153.320,0
1553807791.153,-15.625,28.320,46.875,-20.020,-63.477,0
1553807791.157,-8.789,24.414,45.410,-12.695,-56.152,0
1553807791.161,-6.836,26.855,41.504,-8.301,-104.004,0
1553807791.165,4.883,25.879,41.016,-12.695,-95.215,0
1553807791.169,8.301,27.344,39.062,-2.930,-91.309,0
1553807791.173,4.883,32.227,33.691,0.000,-111.816,0
1553807791.177,5.859,28.320,34.668,-7.812,-64.453,0
1553807791.181,3.906,27.344,36.133,-1.465,-34.668,0
1553807791.185,11.230,31.738,35.645,12.207,-71.777,0
1553807791.188,5.371,30.273,35.156,8.301,-35.156,0
1553807791.192,8.301,34.180,34.180,-3.906,-11.719,0
1553807791.196,16.113,37.109,37.598,-6.348,-38.086,0
1553807791.200,17.090,33.691,38.086,-11.719,-65.430,0
1553807791.204,28.320,32.715,32.227,-7.324,-63.477,0
1553807791.208,29.297,32.227,35.156,2.441,-61.035,0
1553807791.212,0.488,28.809,42.480,-20.020,-98.633,0
1553807791.216,-12.207,25.391,40.039,-28.320,-79.590,0
1553807791.220,5.371,23.438,43.457,0.977,-21.973,0
1553807791.224,-1.465,19.531,50.781,-7.812,-41.504,0
1553807791.228,-9.277,20.996,45.410,-25.879,-87.402,0
1553807791.231,-1.953,25.879,41.016,-15.137,-32.227,0
1553807791.235,-3.418,25.879,39.551,-6.348,11.719,0
1553807791.239,3.906,27.344,39.062,-9.277,-58.105,0
1553807791.243,10.254,30.762,43.945,-10.742,0.488,0
1553807791.247,12.695,31.250,45.898,-8.301,71.777,0
1553807791.251,19.531,31.738,44.922,-19.531,-15.137,0
1553807791.255,15.137,30.273,45.898,-25.391,-62.012,0
1553807791.259,12.207,27.832,44.922,-23.438,1.953,0
1553807791.263,18.066,24.414,39.062,-26.367,-19.043,0
1553807791.267,20.020,20.020,37.109,-24.414,-39.551,0
1553807791.271,19.531,18.555,43.457,-13.672,-8.301,0
1553807791.274,11.719,19.531,46.875,1.953,-58.594,0
1553807791.278,1.953,17.090,45.898,9.277,-4.395,0
1553807791.282,2.930,17.578,46.875,9.766,45.410,0
1553807791.286,0.977,22.949,44.922,7.812,48.340,0
1553807791.290,8.301,26.855,41.992,11.230,52.246,0
1553807791.294,15.137,27.832,41.016,13.184,-30.273,0
1553807791.298,23.926,29.297,41.504,4.883,-62.012,0
1553807791.302,29.297,35.156,45.410,14.160,-25.391,0
1553807791.306,21.973,34.668,47.852,20.508,-16.113,0
1553807791.310,24.414,31.738,44.922,24.902,-92.285,0
1553807791.313,34.180,32.715,39.062,32.715,-20.996,0
1553807791.317,35.156,30.762,37.109,33.203,57.129,0
1553807791.321,37.598,33.203,36.133,30.762,6.836,0
1553807791.325,44.434,32.227,33.691,29.297,13.672,0
1553807791.329,41.016,31.250,34.180,24.902,31.250,0
1553807791.333,36.133,30.762,32.227,20.996,-0.977,0
1553807791.337,38.086,30.762,29.785,21.973,-88.379,0
1553807791.341,49.316,35.156,29.297,22.949,-98.145,0
1553807791.345,53.223,35.645,31.250,22.949,-36.621,0
1553807791.349,52.246,38.574,34.180,21.484,-35.645,0
1553807791.353,54.688,41.992,36.621,29.785,33.691,0
1553807791.356,60.059,38.574,36.621,32.715,33.691,0
1553807791.360,52.734,32.227,34.180,10.742,32.715,0
1553807791.364,43.457,28.320,32.715,16.113,57.617,0
1553807791.368,36.133,30.762,28.320,20.996,0.000,0
1553807791.372,35.156,27.344,29.297,13.184,-6.348,0
1553807791.376,37.109,25.391,36.133,20.020,-21.973,0
1553807791.380,43.457,28.809,37.598,18.066,50.781,0
1553807791.384,50.781,28.809,37.109,24.414,98.633,0
1553807791.388,46.387,26.367,37.598,27.344,51.758,0
1553807791.392,47.852,27.832,35.156,22.461,59.570,0
1553807791.396,46.387,27.832,34.668,25.879,59.570,0
1553807791.399,40.527,29.785,36.133,20.508,10.742,0
1553807791.403,44.434,36.133,38.086,21.973,-10.742,0
1553807791.407,52.246,41.016,41.504,31.738,-7.812,0
1553807791.411,71.289,34.668,51.270,54.688,0.977,0
1553807791.415,76.660,41.016,45.898,74.219,45.898,0
1553807791.419,53.223,56.641,20.996,35.645,50.293,0
1553807791.423,39.062,56.641,17.090,3.906,41.016,0
1553807791.427,42.969,56.641,17.090,9.277,27.344,0
1553807791.431,45.898,57.129,11.230,14.160,6.836,0
1553807791.435,47.852,62.012,7.324,16.113,50.293,0
1553807791.438,47.852,67.871,-2.441,0.000,10.742,0
1553807791.442,52.734,67.871,-7.324,-5.371,4.395,0
1553807791.446,41.504,67.383,-4.883,3.906,47.363,0
1553807791.450,32.227,70.312,0.977,9.277,10.742,0
1553807791.454,38.574,68.848,2.441,17.578,-31.250,0
1553807791.458,33.691,67.871,-1.953,10.254,-16.113,0
1553807791.462,47.363,63.477,0.977,10.254,-26.855,0
1553807791.466,51.270,57.129,2.930,9.766,-19.043,0
1553807791.470,24.414,56.641,5.371,0.000,18.066,0
1553807791.474,26.367,54.199,10.254,9.277,37.598,0
1553807791.478,30.273,55.176,4.395,11.230,51.270,0
1553807791.481,32.227,57.129,2.441,6.836,80.566,0
1553807791.485,34.668,51.758,7.324,9.277,76.660,0
1553807791.489,25.391,50.781,5.859,2.930,37.598,0
1553807791.493,33.203,53.223,3.906,6.836,45.898,0
1553807791.497,39.062,50.781,12.695,22.949,68.359,0
1553807791.501,42.480,47.852,23.926,25.879,28.320,0
1553807791.505,39.551,43.457,27.344,24.902,-39.551,0
1553807791.509,16.602,41.992,24.902,26.855,-28.320,0
1553807791.513,19.043,45.898,3.906,20.020,-12.207,0
1553807791.517,27.344,44.922,2.441,11.230,-13.672,0
1553807791.521,25.391,46.875,22.461,9.277,16.113,0
1553807791.524,18.066,49.805,27.832,0.000,51.270,0
1553807791.528,17.090,48.828,24.414,-0.488,54.199,0
1553807791.532,29.785,46.875,11.230,24.902,0.977,0
1553807791.536,32.715,46.875,14.648,29.785,0.977,0
1553807791.540,23.926,43.945,24.414,15.625,54.688,0
1553807791.544,27.832,45.898,23.438,19.043,27.832,0
1553807791.548,34.668,52.734,29.297,18.555,56.152,0
1553807791.552,29.785,48.340,16.113,20.508,61.035,0
1553807791.556,23.926,43.457,5.371,20.996,34.180,0
1553807791.560,20.996,39.062,29.297,10.742,56.641,0
1553807791.563,20.020,38.086,24.902,13.672,55.176,0
1553807791.567,3.418,40.527,21.484,3.906,80.566,0
1553807791.571,4.883,38.086,35.645,-1.953,44.434,0
1553807791.575,17.090,35.645,35.156,3.418,13.672,0
1553807791.579,13.672,40.039,31.738,7.812,24.414,0
1553807791.583,18.555,44.922,30.762,19.043,100.586,0
1553807791.587,20.996,41.504,24.902,5.859,88.867,0
1553807791.591,15.625,40.039,20.996,8.789,-8.789,0
1553807791.595,15.137,42.480,20.508,14.648,25.879,0
1553807791.599,14.160,42.480,23.926,7.812,-9.766,0
1553807791.603,18.066,44.922,28.809,13.184,-21.484,0
1553807791.606,32.715,47.852,34.668,24.414,30.762,0
1553807791.610,20.996,47.363,29.297,22.461,-9.277,0
1553807791.614,9.277,41.992,18.555,8.789,3.906,0
1553807791.618,20.020,41.992,23.438,8.789,78.613,0
1553807791.622,25.879,38.086,24.902,7.324,54.199,0
1553807791.626,25.879,38.574,19.531,14.160,-43.945,0
1553807791.630,20.508,38.574,26.367,13.184,-29.297,0
1553807791.634,19.531,35.645,23.438,17.578,53.711,0
1553807791.638,23.438,39.062,23.438,21.484,15.625,0
1553807791.642,17.578,34.668,32.227,8.789,19.043,0
1553807791.646,20.996,37.598,31.250,8.789,98.145,0
1553807791.649,26.855,44.434,34.180,7.812,80.566,0
1553807791.653,15.625,39.551,35.645,7.324,20.020,0
1553807791.657,16.113,35.645,27.832,5.371,49.805,0
1553807791.661,19.531,35.645,28.320,-1.465,93.750,0
1553807791.665,16.602,36.621,28.809,4.395,54.688,0
1553807791.669,18.555,37.109,25.879,16.113,48.340,0
1553807791.673,14.648,35.645,23.438,12.695,84.961,0
1553807791.677,9.766,36.133,18.555,-1.953,125.977,0
1553807791.681,10.254,37.109,22.949,-4.395,68.359,0
1553807791.685,9.766,36.133,25.391,2.930,13.672,0
1553807791.688,33.691,41.504,25.879,17.578,4.883,0
1553807791.692,62.012,51.758,31.738,40.039,17.578,0
1553807791.696,53.223,40.039,37.598,30.762,25.879,0
1553807791.700,12.695,26.855,37.598,9.277,7.812,0
1553807791.704,-31.738,28.320,36.133,-8.301,19.043,0
1553807791.708,-19.043,28.320,41.016,-9.766,3.906,0
1553807791.712,-4.883,28.320,50.781,9.766,47.363,0
1553807791.716,-24.414,18.555,56.641,-2.930,47.852,0
1553807791.720,-20.508,15.625,56.152,-13.672,43.945,0
1553807791.724,-15.625,20.996,56.152,-12.207,50.293,0
1553807791.728,-27.832,18.066,57.129,-17.578,-18.555,0
1553807791.731,-20.996,17.578,50.781,-3.418,-3.418,0
1553807791.735,-4.883,20.020,49.316,0.000,42.480,0
1553807791.739,8.301,28.809,52.246,4.395,50.293,0
1553807791.743,13.672,31.250,53.711,13.672,24.902,0
1553807791.747,6.836,27.344,51.270,1.953,69.336,0
1553807791.751,-1.953,26.367,44.434,-3.906,98.145,0
1553807791.755,-5.859,25.879,38.086,-10.254,77.148,0
1553807791.759,0.977,21.973,35.645,-5.371,65.918,0
1553807791.763,13.184,20.020,36.621,11.230,77.637,0
1553807791.767,3.418,23.438,39.551,-11.230,79.102,0
1553807791.771,-7.812,26.855,42.480,-6.348,120.117,0
1553807791.774,0.488,29.785,39.551,-1.953,65.918,0
1553807791.778,6.348,27.832,39.062,-10.254,-13.184,0
1553807791.782,10.742,30.762,36.133,2.441,84.961,0
1553807791.786,16.602,36.621,41.992,15.137,85.938,0
1553807791.790,25.391,41.504,45.898,24.902,64.453,0
1553807791.794,20.996,42.480,38.086,10.742,86.914,0
1553807791.798,7.812,34.668,32.715,-2.441,150.391,0
1553807791.802,11.719,31.250,36.621,13.184,107.910,0
1553807791.806,8.301,34.180,35.156,19.531,33.691,0
1553807791.810,-8.301,36.133,28.320,6.836,42.969,0
1553807791.813,-15.137,28.809,33.203,-2.930,14.648,0
1553807791.817,-8.789,27.344,40.527,2.930,-8.789,0
1553807791.821,-0.488,35.645,38.086,13.672,-35.645,0
1553807791.825,6.836,38.086,35.156,9.277,0.977,0
1553807791.829,0.977,38.086,29.785,2.441,14.160,0
1553807791.833,-3.906,33.203,27.344,0.977,14.648,0
1553807791.837,3.906,37.598,27.344,8.789,18.555,0
1553807791.841,6.348,40.527,25.879,7.324,31.250,0
1553807791.845,6.348,38.086,32.715,0.488,61.523,0
1553807791.849,-0.488,35.156,31.250,10.742,41.992,0
1553807791.853,2.930,31.738,28.809,7.812,8.789,0
1553807791.856,-4.883,34.180,35.156,-5.371,39.551,0
1553807791.860,-13.672,33.691,38.086,-9.766,79.590,0
1553807791.864,1.465,34.668,34.180,5.371,30.273,0
1553807791.868,1.465,40.039,27.832,11.230,44.922,0
1553807791.872,-10.254,41.992,27.344,-2.441,111.816,0
1553807791.876,-1.953,40.039,27.832,-10.254,37.598,0
1553807791.880,-6.836,40.039,26.367,-7.812,27.832,0
1553807791.884,-5.371,41.016,30.762,7.324,40.039,0
1553807791.888,6.348,43.457,29.297,7.812,29.297,0
1553807791.892,3.418,44.434,24.902,4.883,31.250,0
1553807791.896,-3.418,42.969,23.438,-0.488,32.227,0
1553807791.899,-0.488,41.992,17.578,-5.371,87.891,0
1553807791.903,-6.836,39.551,21.484,-0.488,41.016,0
1553807791.907,-13.672,40.527,30.762,6.836,19.531,0
1553807791.911,-1.465,41.016,31.250,7.324,44.922,0
1553807791.915,1.465,39.551,31.250,-8.301,46.875,0
1553807791.919,-16.602,40.039,30.762,-15.625,31.250,0
1553807791.923,-17.578,42.480,20.508,-3.906,13.184,0
1553807791.927,-8.301,48.340,11.719,14.648,-6.836,0
1553807791.931,-9.766,42.969,21.484,7.812,50.293,0
1553807791.935,-9.766,38.086,37.598,-2.441,130.859,0
1553807791.938,-5.859,41.504,40.039,5.859,85.938,0
1553807791.942,-4.395,37.598,33.691,5.859,42.969,0
1553807791.946,-10.742,36.621,30.273,1.465,-0.977,0
1553807791.950,-5.371,39.551,23.926,-4.883,11.230,0
1553807791.954,-7.812,36.133,27.832,-5.371,76.660,0
1553807791.958,-11.230,35.156,31.738,-3.906,39.551,0
1553807791.962,-2.441,40.527,28.320,-3.906,5.859,0
1553807791.966,-3.418,41.992,31.250,0.488,27.344,0
1553807791.970,-7.324,44.434,34.180,-0.488,-7.324,0
1553807791.974,5.859,47.363,35.156,9.766,-3.906,0
1553807791.978,9.766,44.922,36.621,20.508,43.457,0
1553807791.981,1.465,36.133,28.809,7.324,80.566,0
1553807791.985,6.348,35.156,20.020,13.672,62.988,0
1553807791.989,-6.836,36.133,30.762,0.000,34.180,0
1553807791.993,-20.020,28.809,28.809,-17.090,75.195,0
1553807791.997,-10.254,35.156,22.461,1.953,32.715,0
1553807792.001,-5.371,41.504,25.879,-0.977,-11.230,0
1553807792.005,0.000,41.992,21.484,-3.906,-1.465,0
1553807792.009,2.930,39.551,25.879,12.207,23.438,0
1553807792.013,2.441,40.039,36.133,2.930,41.992,0
1553807792.017,7.324,42.969,36.133,0.000,25.391,0
1553807792.021,4.395,42.480,25.879,19.531,16.602,0
1553807792.024,-1.465,42.480,27.344,11.719,19.531,0
1553807792.028,-7.324,40.527,31.738,6.348,20.020,0
1553807792.032,-6.836,39.551,32.227,13.184,3.418,0
1553807792.036,2.441,38.086,33.691,-1.465,33.203,0
1553807792.040,4.395,38.086,33.691,1.465,48.828,0
1553807792.044,8.301,32.715,36.621,27.344,80.566,0
1553807792.048,20.020,36.621,29.785,30.762,41.504,0
1553807792.052,8.301,46.387,24.414,10.742,40.527,0
1553807792.056,5.371,47.852,22.949,-0.488,45.410,0
1553807792.060,10.742,51.758,16.113,3.906,2.930,0
1553807792.063,19.043,54.688,18.555,14.160,43.945,0
1553807792.067,17.090,51.758,26.855,19.043,40.039,0
1553807792.071,8.301,53.711,19.043,11.719,1.953,0
1553807792.075,0.000,50.293,12.207,0.977,23.926,0
1553807792.079,0.000,40.527,19.043,-0.488,59.082,0
1553807792.083,15.625,41.016,5.859,7.324,6.348,0
1553807792.087,17.090,43.457,2.441,18.066,52.734,0
1553807792.091,16.602,39.062,25.879,5.371,74.707,0
1553807792.095,19.043,29.785,32.715,-1.465,11.230,0
1553807792.099,17.090,34.180,26.367,7.812,52.246,0
1553807792.103,16.113,44.922,22.949,9.766,88.379,0
1553807792.106,10.254,48.340,23.926,11.230,67.871,0
1553807792.110,14.160,49.316,19.043,6.836,38.086,0
1553807792.114,12.695,52.734,23.926,10.742,43.945,0
1553807792.118,18.555,51.758,32.715,20.020,67.871,0
1553807792.122,26.855,48.828,26.855,16.602,85.938,0
1553807792.126,15.137,45.410,24.902,14.648,103.516,0
1553807792.130,11.230,41.992,24.902,13.672,135.254,0
1553807792.134,12.695,40.039,21.484,3.906,72.266,0
1553807792.138,13.672,35.156,19.043,12.695,31.738,0
1553807792.142,8.789,36.133,11.230,14.160,29.297,0
1553807792.146,0.488,39.062,9.766,4.395,-32.715,0
1553807792.149,-3.418,42.480,24.414,1.465,-7.812,0
1553807792.153,3.906,44.434,33.203,-3.906,42.969,0
1553807792.157,14.160,41.016,33.203,-5.859,52.246,0
1553807792.161,0.488,40.527,30.273,-2.930,98.633,0
1553807792.165,-1.465,41.504,34.180,10.254,75.684,0
1553807792.169,7.812,39.062,34.668,14.160,85.449,0
1553807792.173,8.789,40.039,32.715,5.371,68.848,0
1553807792.177,7.812,41.504,28.320,12.207,20.508,0
1553807792.181,7.812,40.527,21.484,14.160,16.113,0
1553807792.185,7.324,39.062,23.926,-5.371,16.113,0
1553807792.188,7.812,39.062,29.297,-9.277,67.383,0
1553807792.192,0.977,41.016,26.855,6.348,60.547,0
1553807792.196,-3.906,41.992,19.043,12.207,-12.207,0
1553807792.200,-0.977,44.434,19.043,5.859,-7.812,0
1553807792.204,10.742,48.828,27.832,5.859,20.996,0
1553807792.208,13.672,50.293,38.086,7.324,0.000,0
1553807792.212,20.996,45.898,33.691,9.277,17.090,0
1553807792.216,8.789,43.945,27.344,16.113,62.500,0
1553807792.220,-8.789,41.016,28.809,12.207,96.680,0
1553807792.224,6.348,37.598,32.227,9.766,62.988,0
1553807792.228,12.695,44.434,32.715,12.695,85.938,0
1553807792.231,0.488,39.551,26.855,-7.812,112.793,0
1553807792.235,2.930,37.109,26.367,-7.812,68.359,0
1553807792.239,5.371,42.969,31.250,4.395,37.109,0
1553807792.243,-2.441,39.062,29.785,-2.930,-7.812,0
1553807792.247,2.930,38.086,29.785,-0.977,64.453,0
1553807792.251,6.348,41.992,29.785,7.324,64.453,0
1553807792.255,23.438,43.457,30.762,18.066,-21.484,0
1553807792.259,22.949,41.504,32.227,15.137,-20.020,0
1553807792.263,5.859,39.062,26.367,10.742,25.391,0
1553807792.267,13.672,44.922,20.996,12.695,50.781,0
1553807792.271,11.230,42.969,25.879,6.836,11.719,0
1553807792.274,6.836,38.086,32.715,7.812,1.465,0
1553807792.278,5.371,39.551,26.367,12.207,44.434,0
1553807792.282,6.836,42.969,24.414,5.371,57.617,0
1553807792.286,5.371,41.016,30.273,8.301,84.961,0
1553807792.290,-3.906,36.621,22.949,-0.977,56.152,0
1553807792.294,0.488,40.039,24.902,-3.906,67.383,0
1553807792.298,6.836,41.504,35.645,12.207,32.227,0
1553807792.302,4.883,41.016,37.109,12.695,-43.945,0
1553807792.306,8.301,39.551,32.715,5.859,-23.926,0
1553807792.310,7.812,41.016,29.785,-3.906,54.688,0
1553807792.313,-4.883,38.574,29.297,-2.930,110.840,0
1553807792.317,3.906,38.086,28.320,11.719,89.844,0
1553807792.321,5.371,41.016,27.344,3.906,0.977,0
1553807792.325,0.488,37.598,30.273,4.395,18.066,0
1553807792.329,8.301,38.574,29.785,3.906,34.668,0
1553807792.333,0.488,41.016,24.414,-3.418,-2.930,0
1553807792.337,-0.977,41.504,23.438,9.277,30.762,0
1553807792.341,7.324,46.875,25.879,15.137,19.043,0
1553807792.345,11.719,49.316,32.715,14.160,-14.648,0
1553807792.349,11.230,50.293,36.133,9.277,43.457,0
1553807792.353,4.883,49.805,29.785,5.371,65.918,0
1553807792.356,1.953,44.922,23.926,6.836,80.566,0
1553807792.360,0.977,42.969,21.973,2.441,62.988,0
1553807792.364,-2.441,44.922,23.438,-2.930,41.504,0
1553807792.368,-6.836,45.898,26.367,-2.930,69.336,0
1553807792.372,-5.859,39.551,27.832,-8.301,34.668,0
1553807792.376,2.441,39.551,24.902,6.836,52.734,0
1553807792.380,-2.930,41.504,26.855,5.371,50.293,0
1553807792.384,-8.301,43.457,27.344,-3.906,17.578,0
1553807792.388,0.488,45.898,24.414,0.977,21.973,0
1553807792.392,0.977,46.875,29.785,-1.953,82.520,0
1553807792.396,1.465,48.340,34.668,3.906,125.977,0
1553807792.399,1.953,45.410,34.180,3.906,56.152,0
1553807792.403,-3.906,39.551,29.785,0.000,4.883,0
1553807792.407,0.000,38.574,33.203,-2.930,36.133,0
1553807792.411,0.488,36.621,34.668,4.395,69.824,0
1553807792.415,4.395,36.621,30.273,17.578,62.988,0
1553807792.419,0.000,38.086,31.250,4.395,2.441,0
1553807792.423,-3.906,32.715,33.691,-3.418,49.316,0
1553807792.427,3.906,36.133,35.645,5.371,78.125,0
1553807792.431,10.742,40.039,36.621,10.742,17.090,0
1553807792.435,21.484,41.992,34.180,21.973,5.371,0
1553807792.438,5.859,41.016,35.156,21.973,38.574,0
1553807792.442,0.977,35.156,36.621,22.949,60.547,0
1553807792.446,6.348,42.969,34.668,22.461,44.922,0
1553807792.450,6.836,42.969,26.855,16.602,12.207,0
1553807792.454,9.766,33.203,24.414,13.184,22.949,0
1553807792.458,3.906,33.691,15.625,10.742,103.516,0
1553807792.462,5.859,35.645,12.207,11.230,71.777,0
1553807792.466,10.254,36.621,28.320,10.742,20.996,0
1553807792.470,9.766,40.527,29.297,14.160,96.680,0
1553807792.474,9.277,40.527,28.320,17.090,83.984,0
1553807792.478,16.602,47.363,32.715,6.836,-20.508,0
1553807792.481,25.391,53.223,34.180,22.461,-50.781,0
1553807792.485,8.301,46.387,32.715,27.344,14.648,0
1553807792.489,9.277,39.551,26.367,11.719,91.309,0
1553807792.493,11.230,36.133,19.531,18.066,82.520,0
1553807792.497,1.465,40.039,24.414,15.625,75.684,0
1553807792.501,1.953,41.016,26.367,13.184,76.172,0
1553807792.505,2.930,39.062,27.832,15.625,64.941,0
1553807792.509,3.906,40.527,26.855,18.555,43.457,0
1553807792.513,10.254,40.527,21.973,22.949,4.395,0
1553807792.517,12.207,37.109,25.879,14.160,38.574,0
1553807792.521,21.484,39.551,33.691,20.020,32.715,0
1553807792.524,20.020,43.945,33.691,14.160,-35.156,0
1553807792.528,19.043,42.969,33.203,5.371,4.395,0
1553807792.532,17.090,43.457,30.273,12.207,96.191,0
1553807792.536,0.977,41.504,22.949,7.812,128.418,0
1553807792.540,0.488,35.156,24.414,6.836,39.062,0
1553807792.544,10.254,32.227,24.902,7.324,-0.488,0
1553807792.548,6.348,32.715,18.555,4.883,58.105,0
1553807792.552,10.742,34.180,23.438,8.301,61.035,0
1553807792.556,26.367,38.086,23.438,16.602,25.879,0
1553807792.560,19.531,37.109,25.391,7.324,5.859,0
1553807792.563,7.812,38.574,33.691,5.859,55.176,0
1553807792.567,2.441,44.922,34.668,12.207,42.969,0
1553807792.571,7.812,42.969,32.227,12.207,23.438,0
1553807792.575,21.484,39.551,34.180,20.020,46.387,0
1553807792.579,13.672,38.574,36.621,18.066,20.996,0
1553807792.583,14.648,36.621,33.203,14.160,5.371,0
1553807792.587,26.367,41.016,30.762,15.625,46.387,0
1553807792.591,27.832,33.691,26.367,7.812,73.730,0
1553807792.595,23.438,28.809,22.461,7.812,73.730,0
1553807792.599,20.996,35.156,24.902,13.672,22.461,0
1553807792.603,19.531,36.621,30.762,26.367,6.348,0
1553807792.606,15.625,39.551,32.227,34.180,85.449,0
1553807792.610,8.789,36.621,30.762,12.695,48.828,0
1553807792.614,7.812,34.180,26.855,9.277,9.766,0
1553807792.618,6.836,34.668,21.973,13.184,40.039,0
1553807792.622,0.000,32.227,24.414,6.836,69.336,0
1553807792.626,-7.324,35.156,23.438,5.371,85.449,0
1553807792.630,-5.859,35.156,22.949,7.324,66.406,0
1553807792.634,8.789,36.133,35.645,13.184,35.156,0
1553807792.638,9.277,39.062,32.715,13.184,57.129,0
1553807792.642,-1.953,30.273,20.996,5.859,29.785,0
1553807792.646,-6.836,28.809,26.367,6.348,35.645,0
1553807792.649,-2.441,36.621,31.250,11.719,47.852,0
1553807792.653,12.207,41.992,34.180,12.695,24.902,0
1553807792.657,3.906,38.086,34.668,12.207,-8.301,0
1553807792.661,3.418,35.645,28.320,18.066,-10.742,0
1553807792.665,1.953,36.133,20.996,2.930,22.949,0
1553807792.669,4.883,36.621,22.949,-3.906,-1.465,0
1553807792.673,13.672,40.039,26.855,10.254,49.316,0
1553807792.677,-2.930,41.504,26.855,3.906,33.691,0
1553807792.681,-2.441,41.992,28.320,3.418,-6.836,0
1553807792.685,-3.906,42.480,26.855,2.441,45.410,0
1553807792.688,-5.859,41.504,25.879,-4.395,35.645,0
1553807792.692,-1.465,40.527,29.297,6.348,-20.020,0
1553807792.696,0.000,41.504,29.297,14.648,44.434,0
1553807792.700,1.953,39.062,28.809,13.184,79.590,0
1553807792.704,3.906,32.227,28.809,8.789,12.207,0
1553807792.708,3.418,29.785,25.391,4.395,74.219,0
1553807792.712,0.977,37.598,23.926,-12.207,98.145,0
1553807792.716,8.789,44.434,21.484,1.465,-12.207,0
1553807792.720,9.766,48.340,19.531,12.207,41.016,0
1553807792.724,-2.441,46.875,26.367,-7.324,78.125,0
1553807792.728,-1.465,41.016,31.250,-8.301,57.617,0
1553807792.731,-3.418,39.551,30.762,-0.977,6.836,0
1553807792.735,3.906,41.016,31.738,11.230,23.926,0
1553807792.739,10.742,51.270,28.320,11.230,116.211,0
1553807792.743,2.930,51.270,28.809,-3.418,92.285,0
1553807792.747,12.207,41.016,31.738,0.488,40.039,0
1553807792.751,6.348,43.945,28.320,7.324,72.754,0
1553807792.755,2.441,40.039,27.344,3.418,48.828,0
1553807792.759,-3.906,35.156,26.855,0.000,76.660,0
1553807792.763,0.000,38.574,25.879,6.348,78.125,0
1553807792.767,9.277,43.945,27.832,4.395,49.316,0
1553807792.771,2.930,47.852,29.297,2.441,49.805,0
1553807792.774,3.906,47.852,21.973,4.395,-22.461,0
1553807792.778,4.395,47.363,24.902,0.488,17.090,0
1553807792.782,5.859,47.363,35.645,10.254,75.195,0
1553807792.786,4.883,41.504,36.133,8.789,88.379,0
1553807792.790,9.277,37.598,34.180,5.371,26.367,0
1553807792.794,20.020,41.504,29.785,16.113,-54.688,0
1553807792.798,9.277,37.109,26.855,17.090,-35.156,0
1553807792.802,-0.977,28.320,24.414,12.207,12.207,0
1553807792.806,4.395,35.156,26.367,16.602,43.945,0
1553807792.810,4.395,43.457,27.832,21.973,104.980,0
1553807792.813,7.324,41.016,20.508,13.672,101.562,0
1553807792.817,9.766,41.016,19.043,6.836,69.824,0
1553807792.821,7.812,44.434,24.902,9.277,30.273,0
1553807792.825,0.000,45.898,29.297,16.602,-3.418,0
1553807792.829,3.418,46.875,27.832,19.531,67.871,0
1553807792.833,3.418,48.340,23.926,24.902,88.867,0
1553807792.837,3.418,47.852,27.832,24.414,-10.254,0
1553807792.841,11.719,41.016,34.180,21.973,45.410,0
1553807792.845,7.324,36.133,32.227,10.254,114.746,0
1553807792.849,-2.930,41.992,27.344,5.859,56.152,0
1553807792.853,11.719,48.828,26.855,16.602,19.043,0
1553807792.856,5.371,45.898,24.902,16.602,-6.836,0
1553807792.860,0.977,40.039,22.949,16.602,12.695,0
1553807792.864,7.812,36.621,27.832,16.602,54.199,0
1553807792.868,0.977,35.156,25.879,11.719,61.523,0
1553807792.872,6.836,37.598,22.461,1.953,-1.465,0
1553807792.876,17.578,39.062,22.461,5.371,-14.648,0
1553807792.880,7.812,39.551,23.926,13.184,4.395,0
1553807792.884,-1.465,41.992,29.297,15.625,24.902,0
1553807792.888,1.953,41.016,30.762,16.602,56.152,0
1553807792.892,-2.441,38.086,26.367,9.766,70.312,0
1553807792.896,8.789,37.109,20.508,3.418,76.172,0
1553807792.899,6.348,40.527,17.090,1.465,31.250,0
1553807792.903,2.930,41.016,19.043,4.395,62.012,0
1553807792.907,6.348,39.062,21.973,13.672,104.980,0
1553807792.911,2.441,34.180,27.344,20.020,62.500,0
1553807792.915,7.324,29.785,32.715,22.461,30.762,0
1553807792.919,6.836,29.785,22.461,19.043,7.324,0
1553807792.923,10.742,32.227,20.508,16.113,47.363,0
1553807792.927,17.090,41.016,39.551,18.555,53.711,0
1553807792.931,18.066,51.758,42.480,29.785,-15.137,0
1553807792.935,11.719,50.781,28.320,18.555,29.297,0
1553807792.938,9.277,41.504,24.902,8.789,130.859,0
1553807792.942,24.902,44.922,28.809,29.785,52.246,0
1553807792.946,1.953,55.664,23.926,4.883,28.809,0
1553807792.950,-30.762,53.223,23.438,-27.344,102.051,0
1553807792.954,-37.109,48.828,23.926,-27.344,143.066,0
1553807792.958,-38.574,46.387,23.438,-31.250,67.871,0
1553807792.962,-41.016,47.363,26.367,-43.457,48.828,0
1553807792.966,-56.152,50.781,20.020,-51.270,34.180,0
1553807792.970,-58.105,47.852,18.555,-45.898,19.043,0
1553807792.974,-52.246,52.734,15.625,-47.363,113.770,0
1553807792.978,-45.898,56.641,20.996,-48.828,57.129,0
1553807792.981,-41.992,48.828,28.320,-56.641,-12.207,0
1553807792.985,-35.156,41.016,20.996,-39.551,56.641,0
1553807792.989,-25.879,37.598,21.973,-17.090,87.402,0
1553807792.993,-24.902,35.156,19.043,-12.207,61.523,0
1553807792.997,-15.625,41.504,16.602,-3.418,84.473,0
1553807793.001,-25.879,42.969,22.461,-16.113,78.125,0
1553807793.005,-31.250,37.598,22.461,-20.996,24.902,0
1553807793.009,-23.926,35.645,20.020,-2.930,27.832,0
1553807793.013,-22.949,35.645,21.484,7.324,66.895,0
1553807793.017,-11.719,39.551,23.438,12.695,73.730,0
1553807793.021,-3.906,39.551,25.391,14.648,86.426,0
1553807793.024,-7.324,42.480,25.879,11.230,74.707,0
1553807793.028,-4.883,44.922,28.320,3.418,23.438,0
1553807793.032,-2.930,40.039,28.320,9.766,19.043,0
1553807793.036,9.277,36.133,19.531,18.066,50.293,0
1553807793.040,11.719,32.715,19.531,7.324,62.012,0
1553807793.044,-7.324,27.344,29.785,2.930,-13.184,0
1553807793.048,-18.066,33.203,28.320,4.395,-49.316,0
1553807793.052,-10.254,41.016,22.949,5.859,31.250,0
1553807793.056,-4.883,42.480,27.344,9.766,30.762,0
1553807793.060,-9.277,41.504,26.855,18.555,57.129,0
1553807793.063,1.465,42.480,30.762,15.625,65.430,0
1553807793.067,5.859,42.480,31.250,11.230,13.672,0
1553807793.071,-2.441,39.062,29.297,11.230,54.199,0
1553807793.075,-5.859,37.109,29.785,4.395,59.570,0
1553807793.079,-4.395,33.691,24.414,12.695,-19.043,0
1553807793.083,-7.324,32.715,17.090,0.977,33.691,0
1553807793.087,-4.395,38.086,16.602,-10.254,62.500,0
1553807793.091,2.930,42.969,16.602,-6.348,66.895,0
1553807793.095,4.395,45.898,18.066,1.465,87.402,0
1553807793.099,3.906,43.945,24.414,9.766,61.035,0
1553807793.103,-0.488,42.969,25.879,8.789,64.941,0
1553807793.106,8.301,44.434,23.438,11.230,41.016,0
1553807793.110,6.836,41.504,27.344,14.160,15.137,0
1553807793.114,9.766,42.480,27.832,13.184,53.223,0
1553807793.118,-1.465,37.598,26.367,12.695,58.594,0
1553807793.122,-8.301,32.715,17.090,22.949,32.715,0
1553807793.126,4.395,37.109,11.230,20.996,32.715,0
1553807793.130,-0.977,37.598,21.973,9.277,69.336,0
1553807793.134,1.465,36.133,31.738,5.859,79.590,0
1553807793.138,2.930,37.598,31.250,1.465,-4.395,0
1553807793.142,6.348,36.621,25.879,11.719,39.551,0
1553807793.146,22.461,37.598,22.949,14.160,32.715,0
1553807793.149,31.738,37.598,28.320,18.555,16.113,0
1553807793.153,0.000,30.273,33.691,14.648,58.105,0
1553807793.157,-19.043,30.273,30.762,0.977,77.148,0
1553807793.161,-1.465,28.320,30.273,10.742,114.746,0
1553807793.165,4.883,25.391,38.086,20.020,-4.395,0
1553807793.169,-0.488,26.855,47.363,20.020,-54.199,0
1553807793.173,-2.930,24.902,49.316,21.973,8.789,0
1553807793.177,-0.488,25.879,47.363,24.902,39.551,0
1553807793.181,-1.953,22.949,45.410,20.508,83.008,0
1553807793.185,3.906,23.438,43.945,20.996,37.109,0
1553807793.188,11.719,25.391,43.945,24.414,-61.035,0
1553807793.192,4.395,23.438,40.527,26.367,-21.484,0
1553807793.196,-0.977,24.414,37.109,30.273,28.809,0
1553807793.200,5.859,24.414,37.598,32.227,67.871,0
1553807793.204,9.766,20.020,39.551,28.809,56.641,0
1553807793.208,-0.977,20.020,38.086,19.531,17.090,0
1553807793.212,0.488,22.949,36.621,24.414,-8.789,0
1553807793.216,19.531,24.414,33.691,32.715,20.020,0
1553807793.220,13.672,25.879,32.715,30.273,86.914,0
1553807793.224,1.953,28.320,39.062,30.273,47.852,0
1553807793.228,8.789,31.250,40.527,26.855,26.367,0
1553807793.231,14.648,25.879,42.969,28.809,20.508,0
1553807793.235,13.184,22.461,39.551,29.785,20.508,0
1553807793.239,3.418,27.832,36.133,17.578,33.203,0
1553807793.243,9.277,31.250,37.109,14.160,80.566,0
1553807793.247,9.277,29.297,37.109,27.832,44.434,0
1553807793.251,5.859,31.250,34.180,29.297,9.277,0
1553807793.255,13.672,33.691,32.227,16.602,78.613,0
1553807793.259,9.277,33.203,31.738,18.555,83.984,0
1553807793.263,5.859,32.715,32.715,33.691,46.875,0
1553807793.267,7.812,30.273,35.645,22.949,101.562,0
1553807793.271,11.230,33.691,32.227,14.648,96.191,0
1553807793.274,11.719,36.133,24.414,20.996,4.883,0
1553807793.278,11.230,34.668,29.297,14.648,78.613,0
1553807793.282,20.508,35.645,32.227,22.461,108.887,0
1553807793.286,30.273,36.621,33.691,31.250,-2.930,0
1553807793.290,32.227,41.992,35.645,41.992,-1.465,0
1553807793.294,17.090,39.062,40.527,32.227,3.906,0
1553807793.298,-2.441,33.691,50.293,16.113,46.875,0
1553807793.302,-2.441,29.297,45.898,22.949,67.383,0
1553807793.306,2.441,29.297,46.387,35.645,68.359,0
1553807793.310,1.465,31.250,51.758,25.879,80.566,0
1553807793.313,-1.953,22.949,45.410,18.555,64.941,0
1553807793.317,6.836,24.414,40.039,26.855,53.223,0
1553807793.321,4.883,26.367,43.457,22.461,26.855,0
1553807793.325,0.000,26.855,42.480,28.809,45.898,0
1553807793.329,12.695,26.855,39.062,37.109,26.855,0
1553807793.333,19.531,28.320,38.574,33.691,13.184,0
1553807793.337,4.883,28.809,39.062,28.809,6.348,0
1553807793.341,3.418,30.273,39.551,29.297,-13.184,0
1553807793.345,7.812,30.273,37.109,27.344,19.043,0
1553807793.349,15.137,30.273,41.992,34.180,22.461,0
1553807793.353,24.902,37.598,40.039,44.922,32.227,0
1553807793.356,18.066,40.039,36.621,31.738,76.660,0
1553807793.360,8.301,35.156,38.086,19.043,103.516,0
1553807793.364,13.672,33.203,36.621,24.414,38.574,0
1553807793.368,14.648,31.250,34.180,23.438,21.484,0
1553807793.372,15.137,21.484,26.367,24.902,30.762,0
1553807793.376,8.301,24.902,25.879,24.414,103.516,0
1553807793.380,-1.953,35.156,32.227,16.113,64.453,0
1553807793.384,-0.977,37.598,31.250,18.066,42.480,0
1553807793.388,-1.465,40.527,35.645,23.438,58.594,0
1553807793.392,2.441,37.109,38.574,26.367,48.340,0
1553807793.396,1.953,34.668,38.086,34.668,20.996,0
1553807793.399,9.277,36.133,35.645,33.691,-9.277,0
1553807793.403,9.277,39.062,29.297,21.973,8.301,0
1553807793.407,5.371,40.527,32.715,27.832,42.969,0
1553807793.411,25.391,41.016,40.039,36.621,55.176,0
1553807793.415,29.785,44.434,39.551,31.250,56.152,0
1553807793.419,12.695,42.480,36.621,22.949,81.055,0
1553807793.423,15.625,39.551,33.203,27.832,76.660,0
1553807793.427,22.461,37.109,26.855,24.902,52.246,0
1553807793.431,16.113,30.762,29.297,13.672,36.133,0
1553807793.435,15.625,30.762,27.344,19.531,42.480,0
1553807793.438,9.766,37.598,24.414,25.391,54.688,0
1553807793.442,0.488,40.039,27.832,21.973,66.895,0
1553807793.446,8.789,33.203,32.715,22.949,106.934,0
1553807793.450,33.691,32.227,30.762,39.551,76.172,0
1553807793.454,33.203,47.852,21.973,27.344,42.969,0
1553807793.458,8.789,56.641,17.090,-10.254,85.449,0
1553807793.462,15.137,65.430,6.348,-11.230,-2.441,0
1553807793.466,27.344,69.336,2.930,-1.465,21.973,0
1553807793.470,23.438,68.359,-0.977,3.418,73.242,0
1553807793.474,20.508,75.684,-8.301,12.695,24.414,0
1553807793.478,19.531,83.496,-16.113,5.859,55.664,0
1553807793.481,16.113,80.566,-19.531,2.441,2.930,0
1553807793.485,10.742,75.195,-15.625,6.348,50.293,0
1553807793.489,1.465,78.125,-15.625,-0.977,48.340,0
1553807793.493,10.254,76.660,-3.906,11.719,49.316,0
1553807793.497,23.438,71.289,0.000,18.066,76.172,0
1553807793.501,16.602,69.336,-8.789,15.137,-20.508,0
1553807793.505,13.184,65.430,-9.766,7.812,-16.113,0
1553807793.509,7.812,58.105,-18.066,6.348,68.848,0
1553807793.513,17.090,56.641,-15.625,13.672,65.430,0
1553807793.517,27.344,55.664,4.883,6.348,29.785,0
1553807793.521,19.531,51.758,13.672,10.742,25.391,0
1553807793.524,10.742,54.199,12.207,9.766,83.496,0
1553807793.528,7.324,51.758,9.766,4.395,75.195,0
1553807793.532,10.742,51.270,11.230,16.113,48.340,0
1553807793.536,20.508,52.734,6.348,16.113,93.262,0
1553807793.540,18.555,44.922,4.883,13.672,142.090,0
1553807793.544,23.926,47.852,7.812,20.508,76.172,0
1553807793.548,25.391,52.246,8.301,26.855,-6.348,0
1553807793.552,17.090,54.199,16.602,32.715,55.664,0
1553807793.556,20.996,51.270,20.508,16.602,58.594,0
1553807793.560,25.879,49.805,14.160,15.137,-0.488,0
1553807793.563,23.926,48.828,13.672,35.645,3.906,0
1553807793.567,17.090,46.387,15.625,26.367,18.066,0
1553807793.571,22.949,47.852,15.625,26.367,-9.766,0
1553807793.575,20.020,47.363,18.555,26.855,13.184,0
1553807793.579,16.113,43.945,22.949,19.531,35.156,0
1553807793.583,17.578,44.922,21.484,28.809,42.480,0
1553807793.587,17.090,44.434,15.137,22.461,-11.719,0
1553807793.591,14.648,43.945,19.043,21.973,-43.945,0
1553807793.595,24.902,46.875,23.438,20.020,69.824,0
1553807793.599,28.320,44.922,20.996,10.254,83.984,0
1553807793.603,-2.441,40.527,22.949,10.742,45.410,0
1553807793.606,-1.953,41.992,29.785,25.391,63.965,0
1553807793.610,7.812,44.434,30.762,31.738,32.715,0
1553807793.614,2.930,42.969,24.902,20.508,52.734,0
1553807793.618,5.371,41.992,21.484,21.484,62.500,0
1553807793.622,5.859,42.969,17.578,20.020,56.152,0
1553807793.626,3.906,42.969,16.602,13.672,71.289,0
1553807793.630,4.883,43.457,22.949,17.090,83.984,0
1553807793.634,5.371,41.016,23.926,11.230,73.730,0
1553807793.638,6.836,39.062,23.438,5.371,89.355,0
1553807793.642,3.418,41.992,27.832,13.184,73.730,0
1553807793.646,6.348,41.992,27.344,17.090,-1.953,0
1553807793.649,4.883,42.480,26.367,16.602,35.156,0
1553807793.653,-6.836,42.480,26.367,14.160,47.363,0
1553807793.657,4.395,40.039,27.344,6.348,22.949,0
1553807793.661,3.906,41.504,22.949,7.324,87.891,0
1553807793.665,19.043,47.363,17.578,32.227,54.688,0
1553807793.669,51.270,49.316,32.227,62.012,39.062,0
1553807793.673,15.625,41.992,44.922,38.086,71.289,0
1553807793.677,-11.230,39.551,44.922,4.395,53.223,0
1553807793.681,-6.836,31.250,52.734,12.695,14.648,0
1553807793.685,-7.812,14.648,62.988,27.344,-13.184,0
1553807793.688,4.883,8.301,68.848,34.180,30.273,0
1553807793.692,-9.277,3.418,73.730,30.762,96.191,0
1553807793.696,-8.301,-0.977,77.637,36.621,25.391,0
1553807793.700,-5.371,-7.324,84.473,44.922,14.160,0
1553807793.704,-3.418,-11.719,86.426,46.387,126.465,0
1553807793.708,6.836,-5.859,78.613,44.434,61.523,0
1553807793.712,-10.254,-3.418,69.336,29.785,36.621,0
1553807793.716,-9.277,0.000,75.684,32.227,105.957,0
1553807793.720,5.859,5.371,83.984,45.898,139.648,0
1553807793.724,20.996,9.766,81.543,46.387,82.520,0
1553807793.728,19.043,9.277,76.172,41.992,31.738,0
1553807793.731,13.184,7.324,68.848,45.410,93.750,0
1553807793.735,21.973,12.695,64.941,44.434,69.336,0
1553807793.739,11.719,11.230,62.012,39.062,-8.301,0
1553807793.743,6.348,5.859,57.617,36.133,30.273,0
1553807793.747,7.324,9.766,56.152,25.879,90.332,0
1553807793.751,-5.859,10.742,57.129,31.738,84.961,0
1553807793.755,-0.977,13.184,55.176,36.621,-0.977,0
1553807793.759,11.230,19.531,50.293,37.598,57.129,0
1553807793.763,15.137,23.438,57.129,45.410,69.336,0
1553807793.767,21.973,25.879,60.059,51.270,-13.184,0
1553807793.771,28.320,27.344,52.734,42.480,24.414,0
1553807793.774,16.113,23.926,51.270,29.785,79.102,0
1553807793.778,7.812,19.531,48.340,31.250,79.590,0
1553807793.782,12.695,23.438,44.434,42.969,38.574,0
1553807793.786,6.348,24.902,44.922,36.621,-5.371,0
1553807793.790,7.812,23.438,40.039,27.832,-45.410,0
1553807793.794,11.230,24.414,43.457,36.133,0.488,0
1553807793.798,6.836,23.438,47.363,34.668,75.195,0
1553807793.802,14.160,25.391,42.480,37.109,86.426,0
1553807793.806,11.719,29.785,42.969,37.598,39.551,0
1553807793.810,8.789,33.203,44.922,35.645,22.949,0
1553807793.813,20.508,32.227,45.410,33.203,28.809,0
1553807793.817,13.184,26.855,37.598,35.156,5.371,0
1553807793.821,4.395,29.297,37.109,30.762,11.230,0
1553807793.825,20.996,34.668,43.945,17.090,44.434,0
1553807793.829,7.812,30.762,42.480,17.090,-25.391,0
1553807793.833,-10.254,31.250,39.551,22.949,23.926,0
1553807793.837,-0.488,31.250,38.574,26.855,98.145,0
1553807793.841,0.000,26.855,37.598,25.879,37.109,0
1553807793.845,-0.977,24.902,34.180,15.625,-0.977,0
1553807793.849,-0.488,23.438,35.156,18.066,64.941,0
1553807793.853,-1.465,29.297,38.086,13.184,104.492,0
1553807793.856,-6.836,34.668,38.086,7.324,60.547,0
1553807793.860,-0.977,33.691,39.551,28.809,-3.418,0
1553807793.864,18.066,40.039,41.992,25.879,28.320,0
1553807793.868,13.184,40.527,40.039,23.438,79.590,0
1553807793.872,-3.418,33.203,35.156,22.461,76.172,0
1553807793.876,-3.906,30.273,35.156,18.555,47.852,0
1553807793.880,-6.836,32.227,35.645,16.113,19.043,0
1553807793.884,1.953,36.621,33.691,17.090,62.988,0
1553807793.888,3.418,36.621,33.691,22.461,88.379,0
1553807793.892,-5.371,35.156,34.668,11.719,-0.488,0
1553807793.896,-5.859,37.109,34.668,15.625,-15.625,0
1553807793.899,2.441,32.715,35.156,25.391,5.371,0
1553807793.903,10.742,31.250,37.598,26.855,-22.949,0
1553807793.907,6.836,35.645,39.551,35.645,14.160,0
1553807793.911,2.441,41.504,34.668,20.996,52.246,0
1553807793.915,1.953,41.016,29.297,5.371,74.707,0
1553807793.919,-9.766,35.645,24.414,13.184,63.477,0
1553807793.923,-13.672,35.156,25.879,18.555,34.180,0
1553807793.927,-2.441,32.715,30.762,18.555,50.781,0
1553807793.931,6.348,35.645,35.156,24.414,88.379,0
1553807793.935,9.277,35.156,35.645,24.414,48.828,0
1553807793.938,8.301,33.203,26.367,22.461,60.547,0
1553807793.942,3.906,36.133,28.320,21.973,79.102,0
1553807793.946,-2.930,34.180,32.227,23.438,80.078,0
1553807793.950,-0.977,35.156,28.320,14.648,93.750,0
1553807793.954,5.859,38.086,28.320,8.301,82.031,0
1553807793.958,10.742,42.969,33.691,14.160,109.375,0
1553807793.962,2.930,44.922,30.762,16.113,51.758,0
1553807793.966,0.977,42.480,26.367,19.531,10.254,0
1553807793.970,1.465,38.086,29.785,16.602,88.867,0
1553807793.974,1.465,38.086,32.715,13.672,56.641,0
1553807793.978,-1.953,35.645,29.297,21.973,55.176,0
1553807793.981,-2.441,31.738,27.344,19.531,61.035,0
1553807793.985,-1.953,37.109,25.391,16.602,86.426,0
1553807793.989,-4.883,39.551,24.414,14.648,121.094,0
1553807793.993,-3.418,34.668,28.809,9.277,31.738,0
1553807793.997,6.348,36.133,31.250,16.113,12.695,0
1553807794.001,16.602,35.645,31.738,18.066,73.242,0
1553807794.005,13.672,34.668,31.738,21.484,120.605,0
1553807794.009,13.672,42.480,33.691,24.902,55.664,0
1553807794.013,17.090,43.945,36.133,21.973,26.367,0
1553807794.017,12.207,41.016,32.227,24.414,68.848,0
1553807794.021,11.230,39.062,31.250,25.391,60.059,0
1553807794.024,6.348,37.109,27.344,22.949,28.809,0
1553807794.028,3.418,37.109,21.973,27.832,73.730,0
1553807794.032,4.883,32.227,33.203,28.320,75.684,0
1553807794.036,0.488,34.668,40.527,18.066,10.742,0
1553807794.040,2.930,41.016,34.668,20.996,35.645,0
1553807794.044,14.648,41.504,31.250,23.926,42.480,0
1553807794.048,8.301,41.992,29.297,18.555,56.641,0
1553807794.052,3.906,43.457,28.809,22.949,98.633,0
1553807794.056,10.254,41.016,31.250,30.762,71.777,0
1553807794.060,-2.930,41.016,33.203,17.090,44.434,0
1553807794.063,-3.906,42.969,35.156,10.254,44.434,0
1553807794.067,8.789,46.875,38.574,20.508,-4.395,0
1553807794.071,0.000,46.387,35.645,27.344,41.992,0
1553807794.075,-4.395,43.945,28.809,22.461,33.691,0
1553807794.079,-3.418,45.898,28.320,13.184,-36.621,0
1553807794.083,2.930,43.945,36.621,19.043,-27.832,0
1553807794.087,3.418,41.992,31.738,24.414,57.129,0
1553807794.091,4.883,38.574,24.414,22.461,78.613,0
1553807794.095,12.207,38.574,30.762,22.949,13.672,0
1553807794.099,3.906,43.945,29.297,27.832,42.969,0
1553807794.103,8.301,48.828,29.297,40.527,32.227,0
1553807794.106,8.301,49.805,36.621,32.715,31.250,0
1553807794.110,12.695,47.852,35.645,17.578,45.898,0
1553807794.114,12.695,41.992,32.227,22.461,16.113,0
1553807794.118,-1.465,39.062,27.832,26.855,61.035,0
1553807794.122,-0.488,42.480,25.391,27.832,68.848,0
1553807794.126,10.742,41.016,27.832,24.414,51.758,0
1553807794.130,8.789,39.062,27.832,20.020,96.191,0
1553807794.134,2.930,38.574,31.250,16.602,91.309,0
1553807794.138,3.418,35.645,34.668,14.648,69.824,0
1553807794.142,4.883,39.062,33.691,20.020,41.504,0
1553807794.146,8.301,45.410,38.086,24.902,44.434,0
1553807794.149,3.906,46.387,40.039,16.113,90.332,0
1553807794.153,4.883,45.898,36.621,14.648,51.270,0
1553807794.157,1.953,42.480,28.809,17.578,6.348,0
1553807794.161,0.000,39.551,26.855,18.555,72.754,0
1553807794.165,-5.371,35.156,34.180,22.461,106.445,0
1553807794.169,-9.277,34.668,33.203,7.324,53.711,0
1553807794.173,-2.441,36.133,29.297,0.977,63.477,0
1553807794.177,-11.230,34.180,28.809,4.395,81.055,0
1553807794.181,-10.254,34.180,25.879,2.441,54.199,0
1553807794.185,-8.301,33.691,24.414,12.207,37.109,0
1553807794.188,0.977,37.109,28.809,15.137,43.457,0
1553807794.192,5.859,39.062,35.645,16.113,82.031,0
1553807794.196,-4.883,37.109,33.691,20.020,63.965,0
1553807794.200,6.348,40.527,29.785,14.648,20.508,0
1553807794.204,7.324,41.992,28.809,14.160,0.977,0
1553807794.208,-7.812,40.039,30.273,7.324,22.461,0
1553807794.212,1.953,39.062,31.738,8.301,56.641,0
1553807794.216,1.465,40.527,27.832,11.230,104.004,0
1553807794.220,-6.836,39.062,26.367,13.184,89.355,0
1553807794.224,-7.324,36.133,25.391,12.695,1.465,0
1553807794.228,-4.395,39.551,23.926,8.789,31.250,0
1553807794.231,-10.254,38.574,23.438,10.254,85.449,0
1553807794.235,-13.184,39.551,25.391,17.090,55.664,0
1553807794.239,10.254,45.410,32.227,20.020,30.273,0
1553807794.243,13.184,45.410,39.551,21.973,-3.418,0
1553807794.247,-5.371,39.062,39.062,15.625,5.371,0
1553807794.251,-1.465,37.109,35.645,15.625,79.590,0
1553807794.255,-6.348,38.086,33.691,19.043,21.484,0
1553807794.259,-9.766,36.133,31.738,16.602,14.648,0
1553807794.263,-5.859,34.668,32.715,19.043,32.227,0
1553807794.267,-6.836,35.645,33.203,15.137,-19.531,0
1553807794.271,-8.789,37.598,27.344,2.441,24.902,0
1553807794.274,-5.859,39.551,26.855,6.348,35.645,0
1553807794.278,-2.441,37.109,32.715,9.766,37.598,0
1553807794.282,-6.836,37.109,33.691,7.812,44.434,0
1553807794.286,3.418,35.645,38.574,18.066,117.676,0
1553807794.290,27.832,36.621,45.898,44.434,115.723,0
1553807794.294,35.156,52.246,32.227,45.898,61.035,0
1553807794.298,8.789,59.082,20.996,2.930,48.340,0
1553807794.302,-5.859,59.082,18.066,-16.602,44.434,0
1553807794.306,0.488,68.848,4.883,-10.742,64.453,0
1553807794.310,4.883,71.777,-2.441,-17.090,46.387,0
1553807794.313,7.812,77.148,-11.230,-24.902,13.672,0
1553807794.317,4.395,86.426,-21.973,-27.832,41.992,0
1553807794.321,-1.953,88.379,-26.855,-27.344,33.691,0
1553807794.325,0.000,87.402,-24.414,-19.531,19.531,0
1553807794.329,-14.160,80.078,-22.461,-34.668,17.578,0
1553807794.333,-16.602,73.730,-20.996,-35.156,-10.742,0
1553807794.337,-19.043,69.824,-14.648,-27.832,36.621,0
1553807794.341,-26.855,71.777,-16.113,-31.738,41.016,0
1553807794.345,-14.648,68.848,-8.789,-15.625,57.129,0
1553807794.349,-17.090,58.105,5.371,-12.695,119.141,0
1553807794.353,-12.695,46.875,5.859,-11.230,105.957,0
1553807794.356,-12.695,33.691,11.719,-2.930,33.691,0
1553807794.360,-10.742,32.227,13.672,-6.348,26.367,0
1553807794.364,-8.301,36.133,10.742,-12.207,39.551,0
1553807794.368,-4.395,47.363,9.277,-5.371,35.645,0
1553807794.372,-0.488,45.898,8.789,6.348,95.215,0
1553807794.376,-4.395,40.527,15.137,4.395,66.406,0
1553807794.380,-11.719,47.363,17.090,-6.348,13.672,0
1553807794.384,-9.277,52.734,21.484,-2.441,5.859,0
1553807794.388,3.418,54.688,25.879,15.625,-31.250,0
1553807794.392,5.859,52.734,28.320,10.254,42.969,0
1553807794.396,6.836,52.734,30.273,5.859,92.285,0
1553807794.399,9.766,49.805,23.926,15.137,39.062,0
1553807794.403,6.836,48.828,20.020,13.672,30.273,0
1553807794.407,8.301,48.828,22.949,10.254,14.160,0
1553807794.411,5.371,43.457,22.949,11.719,6.348,0
1553807794.415,7.812,42.969,21.973,11.230,50.781,0
1553807794.419,14.648,39.551,24.902,9.766,65.918,0
1553807794.423,8.301,37.109,24.902,14.160,70.801,0
1553807794.427,0.000,38.574,19.043,8.301,62.988,0
1553807794.431,0.977,40.039,20.020,14.648,48.828,0
1553807794.435,2.441,40.039,26.367,19.043,35.156,0
1553807794.438,6.836,43.945,29.297,10.742,41.016,0
1553807794.442,11.719,49.316,29.297,22.461,54.199,0
1553807794.446,6.836,44.922,31.250,18.555,102.539,0
1553807794.450,12.695,40.039,26.367,9.277,90.820,0
1553807794.454,12.207,40.039,26.855,16.602,17.090,0
1553807794.458,6.836,41.992,28.809,28.320,-6.836,0
1553807794.462,9.277,40.039,27.344,28.320,37.598,0
1553807794.466,-0.488,38.086,28.809,14.648,32.227,0
1553807794.470,-3.906,37.598,28.809,11.719,-0.977,0
1553807794.474,-1.465,33.203,31.250,12.695,22.461,0
1553807794.478,5.859,34.668,25.391,14.160,60.547,0
1553807794.481,13.672,42.969,22.461,19.531,22.461,0
1553807794.485,9.277,42.969,38.574,23.438,30.762,0
1553807794.489,8.301,36.133,43.457,26.855,23.438,0
1553807794.493,7.812,33.691,38.574,25.879,3.906,0
1553807794.497,12.695,38.086,35.645,24.902,-33.691,0
1553807794.501,0.977,38.086,31.738,27.344,-47.363,0
1553807794.505,-4.395,36.133,33.203,26.367,53.711,0
1553807794.509,0.488,36.133,34.668,26.855,83.984,0
1553807794.513,-1.465,35.156,33.691,26.367,25.879,0
1553807794.517,-1.953,39.551,29.785,26.367,15.625,0
1553807794.521,2.930,44.922,29.297,27.832,66.895,0
1553807794.524,4.883,46.875,31.738,16.602,63.965,0
1553807794.528,5.371,47.852,28.320,17.578,51.758,0
1553807794.532,9.277,44.434,31.250,35.156,10.254,0
1553807794.536,7.812,43.457,34.180,38.086,-45.898,0
1553807794.540,4.883,43.457,31.250,32.715,51.270,0
1553807794.544,8.789,38.086,30.762,16.602,87.891,0
1553807794.548,10.254,37.598,29.297,10.742,15.625,0
1553807794.552,3.418,38.574,27.832,19.531,-29.297,0
1553807794.556,-0.977,34.668,27.344,26.855,-12.207,0
1553807794.560,-1.953,35.645,27.344,24.414,43.457,0
1553807794.563,0.977,38.086,26.367,20.020,51.758,0
1553807794.567,5.859,36.621,28.320,23.438,71.289,0
1553807794.571,3.418,35.645,30.762,19.043,27.344,0
1553807794.575,5.859,34.180,28.320,21.973,48.340,0
1553807794.579,9.277,34.180,29.297,36.621,54.199,0
1553807794.583,15.137,41.016,33.691,39.062,30.273,0
1553807794.587,14.648,44.434,35.645,35.645,52.734,0
1553807794.591,14.160,42.480,33.691,33.691,33.691,0
1553807794.595,13.672,42.480,29.785,25.391,5.371,0
1553807794.599,-3.418,38.574,28.320,21.484,44.922,0
1553807794.603,-2.441,36.133,26.855,19.043,42.969,0
1553807794.606,-1.465,37.598,29.785,11.230,51.270,0
1553807794.610,-1.465,36.621,36.133,19.531,126.953,0
1553807794.614,-0.977,35.156,36.621,26.855,113.770,0
1553807794.618,-5.859,37.109,34.668,13.672,97.168,0
1553807794.622,-5.371,38.086,34.180,11.230,105.469,0
1553807794.626,-3.418,37.109,31.250,16.113,120.605,0
1553807794.630,2.930,38.086,31.738,12.207,38.574,0
1553807794.634,6.836,37.598,36.621,15.625,33.203,0
1553807794.638,16.113,40.039,37.109,23.438,106.445,0
1553807794.642,12.695,45.410,31.250,14.160,90.820,0
1553807794.646,-11.230,40.527,27.344,14.648,34.668,0
1553807794.649,-11.719,40.039,27.832,16.113,7.324,0
1553807794.653,-7.324,42.480,30.273,15.137,34.668,0
1553807794.657,-7.812,38.574,26.367,14.160,69.336,0
1553807794.661,-6.348,40.039,25.391,2.441,47.852,0
1553807794.665,-4.395,39.551,28.320,-0.488,34.668,0
1553807794.669,-0.488,41.504,27.344,3.418,5.371,0
1553807794.673,0.488,40.039,30.273,3.418,-0.488,0
1553807794.677,1.953,35.645,34.180,16.113,41.504,0
1553807794.681,10.254,41.992,36.621,22.461,65.430,0
1553807794.685,14.648,45.898,38.086,18.066,84.473,0
1553807794.688,-1.953,39.551,31.250,10.254,41.992,0
1553807794.692,-10.254,36.621,25.879,5.859,41.992,0
1553807794.696,-4.395,36.621,25.879,7.324,74.707,0
1553807794.700,-8.789,38.086,21.484,6.836,54.199,0
1553807794.704,-2.930,40.527,20.020,3.418,108.398,0
1553807794.708,0.977,35.645,23.438,0.000,75.684,0
1553807794.712,-10.254,33.691,21.484,7.812,12.207,0
1553807794.716,-3.906,38.574,24.414,20.508,19.043,0
1553807794.720,11.719,40.527,28.320,16.113,23.926,0
1553807794.724,0.488,34.180,26.367,12.207,61.523,0
1553807794.728,-4.883,38.574,29.785,18.555,27.344,0
1553807794.731,-1.465,46.875,33.203,22.949,22.949,0
1553807794.735,-11.230,43.945,32.227,13.672,43.945,0
1553807794.739,-12.207,41.992,30.762,13.184,14.160,0
1553807794.743,3.906,36.621,31.250,16.602,29.297,0
1553807794.747,-3.418,32.715,27.832,11.230,2.930,0
1553807794.751,-18.555,34.668,24.414,15.625,17.090,0
1553807794.755,-7.812,31.738,26.855,18.066,54.199,0
1553807794.759,5.859,31.250,29.297,10.742,20.020,0
1553807794.763,11.719,32.715,29.297,11.230,5.859,0
1553807794.767,2.930,38.086,33.203,18.066,32.227,0
1553807794.771,2.441,47.852,36.621,22.949,53.223,0
1553807794.774,2.441,43.457,37.109,27.832,46.875,0
1553807794.778,-2.930,35.645,34.180,25.879,44.922,0
1553807794.782,-1.465,36.133,27.344,10.742,41.992,0
1553807794.786,2.441,36.621,25.879,9.277,82.031,0
1553807794.790,-1.465,33.691,27.344,18.066,60.547,0
1553807794.794,3.418,26.855,27.832,17.090,28.320,0
1553807794.798,2.930,27.832,25.879,10.254,56.641,0
1553807794.802,2.930,34.180,23.926,15.625,85.938,0
1553807794.806,8.301,39.062,25.391,20.508,-4.883,0
1553807794.810,-2.441,40.527,26.367,17.578,4.883,0
1553807794.813,5.371,41.504,29.297,20.996,77.148,0
1553807794.817,10.254,45.410,30.762,31.250,40.039,0
1553807794.821,2.441,42.969,28.320,21.484,67.871,0
1553807794.825,4.883,40.039,29.297,11.230,54.688,0
1553807794.829,3.418,37.109,32.227,17.578,45.898,0
1553807794.833,2.930,35.156,29.297,21.973,9.766,0
1553807794.837,0.000,34.180,24.902,23.926,-40.527,0
1553807794.841,9.277,32.715,28.809,19.043,46.387,0
1553807794.845,2.930,32.715,29.297,13.184,46.387,0
1553807794.849,-7.324,37.109,27.344,23.438,-4.395,0
1553807794.853,1.953,39.062,32.227,17.578,0.000,0
1553807794.856,6.836,42.480,37.109,16.113,-4.883,0
1553807794.860,8.789,45.898,35.156,22.461,50.781,0
1553807794.864,6.836,37.109,32.715,17.578,52.734,0
1553807794.868,5.859,30.762,31.738,22.949,6.836,0
1553807794.872,-1.465,31.250,30.273,23.438,54.688,0
1553807794.876,-5.371,29.297,27.344,19.531,88.867,0
1553807794.880,2.930,35.645,22.949,24.414,46.875,0
1553807794.884,3.906,40.527,21.484,20.996,-5.371,0
1553807794.888,9.277,41.016,23.438,13.184,26.367,0
1553807794.892,5.371,46.387,22.949,13.672,56.152,0
1553807794.896,-0.488,45.898,24.414,18.555,72.754,0
1553807794.899,14.160,43.945,31.250,23.438,74.219,0
1553807794.903,13.184,44.922,31.250,20.996,55.664,0
1553807794.907,11.230,45.898,28.809,26.367,37.598,0
1553807794.911,7.324,42.969,30.762,27.344,-7.812,0
1553807794.915,3.418,37.598,32.227,26.367,23.926,0
1553807794.919,6.348,35.645,31.250,26.855,63.477,0
1553807794.923,3.906,37.109,30.273,20.508,40.039,0
1553807794.927,9.277,33.203,28.320,19.531,67.383,0
1553807794.931,15.137,24.902,23.438,19.043,24.902,0
1553807794.935,5.371,26.855,19.043,16.113,29.297,0
1553807794.938,10.742,34.668,25.879,27.832,42.480,0
1553807794.942,2.930,42.969,29.785,25.391,96.191,0
1553807794.946,3.418,45.898,25.391,11.230,88.867,0
1553807794.950,14.648,45.410,30.273,20.020,41.504,0
1553807794.954,11.230,43.457,35.156,37.109,7.812,0
1553807794.958,11.230,37.109,31.250,35.156,-18.066,0
1553807794.962,7.324,33.203,29.785,24.902,15.625,0
1553807794.966,8.301,34.668,29.785,25.391,67.383,0
1553807794.970,10.742,35.645,25.879,15.625,53.223,0
1553807794.974,6.348,38.086,23.926,20.996,15.625,0
1553807794.978,15.137,40.527,25.391,26.855,64.941,0
1553807794.981,11.719,38.086,25.391,14.160,47.363,0
1553807794.985,1.953,40.039,23.438,18.555,39.551,0
1553807794.989,6.836,40.039,22.461,21.484,90.820,0
1553807794.993,-2.930,38.086,23.926,7.324,97.168,0
1553807794.997,2.930,42.969,30.273,7.324,31.250,0
1553807795.001,13.184,46.387,33.203,14.160,-16.113,0
1553807795.005,18.066,46.387,29.785,16.113,49.316,0
1553807795.009,12.695,43.457,24.902,17.578,86.914,0
1553807795.013,-0.488,41.504,24.414,12.207,51.270,0
1553807795.017,-2.441,40.527,25.391,10.742,61.035,0
1553807795.021,1.953,37.598,27.344,10.254,1.953,0
1553807795.024,3.906,37.109,25.879,19.043,21.973,0
1553807795.028,4.883,38.574,23.926,28.809,80.566,0
1553807795.032,4.395,34.180,26.855,25.879,62.988,0
1553807795.036,0.488,29.297,29.297,14.160,15.625,0
1553807795.040,-0.977,35.156,26.855,9.766,77.637,0
1553807795.044,7.324,41.016,22.461,18.066,112.305,0
1553807795.048,7.324,45.410,31.738,24.902,57.617,0
1553807795.052,4.883,46.875,39.062,23.438,-0.488,0
1553807795.056,-1.465,40.527,32.227,14.648,-25.879,0
1553807795.060,-1.953,39.062,28.320,11.719,-14.160,0
1553807795.063,1.953,38.574,32.227,19.531,29.785,0
1553807795.067,-4.395,37.598,32.715,23.438,48.340,0
1553807795.071,3.418,37.598,29.785,20.996,34.180,0
1553807795.075,6.348,39.062,25.391,19.043,41.016,0
1553807795.079,1.465,41.504,25.391,9.766,77.148,0
1553807795.083,2.930,40.039,25.879,9.766,71.777,0
1553807795.087,-5.371,38.086,25.391,19.531,24.902,0
1553807795.091,-3.906,39.062,27.832,22.949,24.414,0
1553807795.095,5.371,41.504,30.273,21.484,41.992,0
1553807795.099,7.812,43.457,31.250,9.277,42.969,0
1553807795.103,4.395,38.086,26.367,13.672,-5.371,0
1553807795.106,6.836,37.109,20.996,23.926,-1.465,0
1553807795.110,13.184,43.457,19.043,26.855,63.477,0
1553807795.114,4.883,40.527,23.926,26.367,67.871,0
1553807795.118,0.977,41.504,27.832,24.414,54.199,0
1553807795.122,3.906,44.434,25.879,19.531,36.621,0
1553807795.126,6.836,42.969,29.297,16.113,40.039,0
1553807795.130,11.719,43.945,33.203,18.555,27.832,0
1553807795.134,5.859,42.480,33.691,25.391,35.156,0
1553807795.138,1.953,40.527,31.250,19.531,85.938,0
1553807795.142,15.137,42.480,32.227,9.766,56.152,0
1553807795.146,9.766,42.969,34.668,15.625,28.320,0
1553807795.149,1.465,41.016,29.297,23.438,14.160,0
1553807795.153,5.371,37.109,22.949,24.414,59.082,0
1553807795.157,-0.977,38.574,25.391,21.973,52.734,0
1553807795.161,3.418,41.504,26.855,15.625,5.859,0
1553807795.165,11.230,40.527,26.855,17.578,39.551,0
1553807795.169,20.996,45.410,28.320,27.344,18.066,0
1553807795.173,27.832,40.039,25.879,21.973,-2.930,0
1553807795.177,24.414,33.203,26.855,15.625,61.035,0
1553807795.181,14.160,38.086,25.391,18.066,113.281,0
1553807795.185,7.812,39.062,23.438,12.695,86.914,0
1553807795.188,4.395,37.109,29.785,14.648,74.707,0
1553807795.192,0.488,41.992,34.180,20.020,77.637,0
1553807795.196,2.930,44.434,30.273,10.254,32.715,0
1553807795.200,3.906,42.480,27.832,9.766,8.789,0
1553807795.204,-0.977,41.016,26.367,19.043,68.359,0
1553807795.208,6.348,39.551,23.438,24.414,62.500,0
1553807795.212,8.789,36.621,25.391,19.531,24.414,0
1553807795.216,-3.906,35.645,24.414,20.508,56.641,0
1553807795.220,-6.836,38.574,20.020,19.531,59.082,0
1553807795.224,-2.930,40.039,18.555,18.066,96.191,0
1553807795.228,-2.441,36.621,21.484,17.578,122.559,0
1553807795.231,-1.465,40.039,29.297,7.324,20.020,0
1553807795.235,7.812,40.527,29.785,14.160,19.531,0
1553807795.239,28.809,37.109,30.762,37.109,33.691,0
1553807795.243,19.043,40.039,33.203,35.156,37.109,0
1553807795.247,-9.277,50.293,28.809,5.371,45.898,0
1553807795.251,-6.348,53.711,25.391,2.441,-15.137,0
1553807795.255,6.836,48.828,22.461,15.625,41.016,0
1553807795.259,-7.324,50.781,19.531,14.160,85.449,0
1553807795.263,-15.137,51.758,19.043,4.395,27.832,0
1553807795.267,-5.859,49.316,20.020,6.348,34.668,0
1553807795.271,-3.906,47.852,18.066,8.301,107.910,0
1553807795.274,2.441,42.969,19.043,14.648,93.262,0
1553807795.278,6.348,41.504,22.461,19.531,67.383,0
1553807795.282,-3.418,44.434,23.926,14.648,25.391,0
1553807795.286,9.766,43.945,26.855,28.320,-8.301,0
1553807795.290,12.207,42.480,30.273,25.879,32.715,0
1553807795.294,6.348,40.527,30.273,15.625,35.156,0
1553807795.298,13.184,34.668,28.320,18.555,20.020,0
1553807795.302,16.113,35.156,22.949,22.461,32.715,0
1553807795.306,18.555,45.410,18.555,23.926,25.879,0
1553807795.310,13.672,44.434,21.973,20.508,46.387,0
1553807795.313,1.465,38.086,23.926,15.625,60.059,0
1553807795.317,3.418,35.645,23.926,14.160,74.707,0
1553807795.321,8.789,37.598,23.926,10.254,116.699,0
1553807795.325,14.160,41.504,32.227,14.648,89.355,0
1553807795.329,16.113,49.316,32.227,20.508,35.156,0
1553807795.333,14.648,48.828,22.461,16.113,59.570,0
1553807795.337,10.254,43.945,28.809,12.207,41.016,0
1553807795.341,2.441,42.969,31.738,13.672,20.020,0
1553807795.345,2.441,40.039,23.438,24.902,28.809,0
1553807795.349,5.859,39.551,25.391,29.785,49.805,0
1553807795.353,1.953,42.969,26.367,24.414,5.859,0
1553807795.356,-2.441,40.039,20.508,24.902,-7.324,0
1553807795.360,1.465,33.691,20.020,19.531,56.641,0
1553807795.364,9.766,32.227,20.996,18.555,31.738,0
1553807795.368,9.277,36.133,27.832,26.855,2.930,0
1553807795.372,10.742,37.598,27.832,27.344,-20.020,0
1553807795.376,18.066,40.039,26.367,30.273,-32.715,0
1553807795.380,19.531,44.922,35.645,42.480,66.895,0
1553807795.384,12.695,44.922,31.250,38.574,101.074,0
1553807795.388,4.883,36.621,22.949,25.391,36.133,0
1553807795.392,14.160,32.227,27.344,39.551,30.273,0
1553807795.396,10.254,35.645,25.391,22.949,25.391,0
1553807795.399,2.441,35.645,22.949,7.812,28.320,0
1553807795.403,8.301,34.180,25.391,32.227,34.668,0
1553807795.407,5.371,35.156,22.461,38.086,19.043,0
1553807795.411,11.230,37.598,20.508,27.344,58.105,0
1553807795.415,20.508,36.621,23.438,14.160,57.129,0
1553807795.419,5.371,34.180,28.809,20.508,39.062,0
1553807795.423,0.977,39.062,32.715,28.320,47.363,0
1553807795.427,6.348,39.551,28.809,23.926,30.762,0
1553807795.431,12.207,39.551,28.809,26.367,78.125,0
1553807795.435,8.301,37.109,30.273,23.438,113.281,0
1553807795.438,12.207,34.668,26.367,26.855,35.645,0
1553807795.442,12.695,36.621,21.484,25.391,43.945,0
1553807795.446,11.230,40.527,20.020,18.555,91.797,0
1553807795.450,13.672,43.945,17.090,28.320,113.770,0
1553807795.454,4.883,42.969,15.137,19.531,100.098,0
1553807795.458,4.395,43.457,20.508,7.324,56.152,0
1553807795.462,9.277,42.969,24.902,12.207,44.922,0
1553807795.466,1.953,33.203,23.438,5.371,0.977,0
1553807795.470,0.977,29.785,21.973,8.301,32.715,0
1553807795.474,-6.348,31.738,27.832,9.766,44.434,0
1553807795.478,-5.859,35.645,35.645,9.766,-5.371,0
1553807795.481,8.789,44.434,37.598,20.508,-40.039,0
1553807795.485,10.742,46.875,30.762,21.973,-17.578,0
1553807795.489,8.301,40.527,21.973,24.414,66.406,0
1553807795.493,7.324,40.039,24.414,27.344,56.641,0
1553807795.497,6.348,38.086,29.785,21.973,-0.977,0
1553807795.501,0.977,32.227,29.785,19.531,64.941,0
1553807795.505,-4.883,32.715,31.250,16.113,77.148,0
1553807795.509,-2.930,32.227,30.762,15.625,24.414,0
1553807795.513,0.977,29.785,30.762,14.160,33.203,0
1553807795.517,4.395,36.133,30.273,18.555,42.969,0
1553807795.521,7.324,41.016,28.320,22.461,28.809,0
1553807795.524,7.324,40.039,28.809,18.066,-18.555,0
1553807795.528,-2.441,41.992,34.180,27.832,-28.809,0
1553807795.532,-4.395,42.480,33.691,32.715,56.641,0
1553807795.536,2.930,41.504,29.297,27.344,51.270,0
1553807795.540,3.906,38.086,26.855,29.297,28.809,0
1553807795.544,6.836,37.598,22.461,27.344,15.137,0
1553807795.548,6.348,35.156,24.414,13.184,-0.977,0
1553807795.552,4.883,31.738,27.344,12.695,18.555,0
1553807795.556,22.949,35.645,23.438,39.551,28.809,0
1553807795.560,44.922,41.016,31.738,55.664,41.992,0
1553807795.563,24.414,37.598,38.086,28.320,77.637,0
1553807795.567,-10.254,34.180,35.645,4.883,75.195,0
1553807795.571,-6.836,30.273,43.457,13.672,6.836,0
1553807795.575,4.395,25.391,52.246,23.438,51.758,0
1553807795.579,-4.883,23.926,60.059,23.926,79.102,0
1553807795.583,-8.301,19.531,68.848,31.250,46.387,0
1553807795.587,-10.254,11.719,75.684,32.227,69.824,0
1553807795.591,-22.461,2.930,71.289,20.508,35.156,0
1553807795.595,-17.090,6.836,63.477,27.832,24.414,0
1553807795.599,-8.789,12.207,66.406,29.785,46.387,0
1553807795.603,-10.742,12.207,66.895,28.809,60.547,0
1553807795.606,-6.836,15.625,60.059,31.738,94.238,0
1553807795.610,0.977,20.020,59.082,36.133,91.309,0
1553807795.614,6.836,20.508,59.570,36.133,22.949,0
1553807795.618,14.160,19.043,52.246,43.945,-6.836,0
1553807795.622,9.277,11.230,48.340,47.363,42.480,0
1553807795.626,4.395,2.930,48.828,38.574,29.785,0
1553807795.630,-2.441,5.859,49.805,40.039,19.043,0
1553807795.634,-11.230,12.695,49.316,42.480,19.531,0
1553807795.638,1.953,19.043,47.363,46.875,53.711,0
1553807795.642,5.859,20.508,43.945,46.875,58.594,0
1553807795.646,0.000,23.926,41.992,42.480,38.574,0
1553807795.649,13.184,27.344,48.828,37.109,10.742,0
1553807795.653,18.066,27.344,48.828,34.180,-31.738,0
1553807795.657,2.441,23.438,45.898,33.691,-23.926,0
1553807795.661,4.395,24.902,45.898,40.527,5.371,0
1553807795.665,22.461,28.809,49.316,49.805,2.930,0
1553807795.669,24.414,29.785,49.805,51.270,20.508,0
1553807795.673,14.160,28.809,44.922,33.691,48.828,0
1553807795.677,8.789,23.438,44.434,33.691,78.125,0
1553807795.681,9.766,20.996,41.992,33.203,93.262,0
1553807795.685,-1.465,20.996,42.480,30.762,49.805,0
1553807795.688,-10.254,19.531,44.434,40.039,14.160,0
1553807795.692,-9.766,21.973,38.086,32.227,13.672,0
1553807795.696,2.930,28.809,35.156,27.344,61.035,0
1553807795.700,16.113,32.715,37.109,35.645,79.590,0
1553807795.704,7.812,31.738,37.109,37.598,62.500,0
1553807795.708,6.348,30.762,39.062,35.156,58.105,0
1553807795.712,16.602,32.227,38.574,39.062,83.008,0
1553807795.716,12.695,31.738,38.086,34.180,57.129,0
1553807795.720,4.883,31.250,36.621,29.785,27.344,0
1553807795.724,6.348,30.273,32.715,21.973,65.918,0
1553807795.728,15.137,28.809,33.203,25.879,51.758,0
1553807795.731,24.902,31.738,33.203,35.645,23.438,0
1553807795.735,18.066,34.668,32.715,22.461,53.223,0
1553807795.739,15.625,33.691,30.762,13.184,76.172,0
1553807795.743,16.602,30.273,27.832,19.531,128.418,0
1553807795.747,7.812,27.344,27.832,28.809,81.055,0
1553807795.751,8.789,29.297,30.273,25.879,24.414,0
1553807795.755,9.766,34.180,37.109,21.484,26.855,0
1553807795.759,11.230,41.016,42.969,31.250,-10.742,0
1553807795.763,20.020,36.621,36.133,29.785,19.043,0
1553807795.767,12.207,31.738,32.715,29.297,74.707,0
1553807795.771,4.883,35.156,34.180,30.762,81.055,0
1553807795.774,5.371,30.273,26.367,20.996,61.035,0
1553807795.778,13.184,26.367,26.367,20.996,31.250,0
1553807795.782,9.277,33.203,33.203,20.996,90.332,0
1553807795.786,-0.488,37.598,31.738,19.531,149.414,0
1553807795.790,4.395,36.133,27.344,18.555,112.793,0
1553807795.794,4.883,36.133,29.785,18.555,94.238,0
1553807795.798,2.930,34.668,28.809,23.438,44.922,0
1553807795.802,5.859,37.109,29.785,20.508,51.270,0
1553807795.806,21.973,40.039,28.809,18.555,45.898,0
1553807795.810,18.066,35.645,26.367,20.508,16.602,0
1553807795.813,8.301,36.133,30.762,23.438,17.090,0
1553807795.817,10.742,41.504,36.621,29.297,36.621,0
1553807795.821,1.953,37.109,32.227,18.555,54.199,0
1553807795.825,7.324,31.738,28.320,15.625,24.414,0
1553807795.829,5.859,32.715,31.250,22.949,15.625,0
1553807795.833,-0.977,36.133,32.227,27.344,56.641,0
1553807795.837,0.000,37.109,31.250,19.531,66.406,0
1553807795.841,5.371,38.086,29.785,25.391,45.410,0
1553807795.845,7.324,40.039,27.832,22.949,51.270,0
1553807795.849,2.441,41.016,26.367,12.695,52.734,0
1553807795.853,5.371,40.527,33.203,23.438,41.016,0
1553807795.856,8.301,46.875,37.598,35.156,46.387,0
1553807795.860,5.371,47.852,35.156,29.297,75.195,0
1553807795.864,5.371,41.016,37.598,18.066,62.988,0
1553807795.868,1.465,36.133,30.762,7.324,28.320,0
1553807795.872,-5.859,34.180,24.902,8.301,-0.488,0
1553807795.876,-7.812,32.715,33.203,15.137,62.500,0
1553807795.880,-10.742,32.227,34.668,11.230,90.820,0
1553807795.884,-6.348,35.645,36.133,8.789,37.598,0
1553807795.888,-4.883,34.668,36.621,13.672,6.836,0
1553807795.892,-6.836,32.227,31.250,5.859,54.688,0
1553807795.896,-7.812,34.180,28.320,0.977,76.172,0
1553807795.899,-7.812,37.598,29.785,10.254,32.715,0
1553807795.903,-5.371,41.504,32.227,15.625,22.461,0
1553807795.907,-6.348,39.551,30.762,10.742,86.914,0
1553807795.911,-7.812,33.691,27.344,-0.977,71.777,0
1553807795.915,-6.836,38.574,28.809,8.789,30.273,0
1553807795.919,2.930,38.086,32.715,13.672,43.945,0
1553807795.923,-7.324,29.297,29.785,12.207,48.340,0
1553807795.927,-13.672,33.691,25.879,15.137,54.688,0
1553807795.931,-12.695,37.598,24.902,1.953,-0.977,0
1553807795.935,-7.324,36.133,23.926,9.277,18.066,0
1553807795.938,0.977,36.621,21.484,15.137,-2.441,0
1553807795.942,-9.766,35.645,25.391,7.324,-14.648,0
1553807795.946,-1.953,33.691,27.344,19.043,88.379,0
1553807795.950,7.324,35.156,26.855,21.484,114.258,0
1553807795.954,0.977,36.133,30.273,18.555,2.930,0
1553807795.958,0.977,39.062,32.715,28.320,31.250,0
1553807795.962,6.836,42.969,32.227,25.391,79.590,0
1553807795.966,10.254,46.387,33.203,21.973,61.035,0
1553807795.970,-0.977,45.410,29.297,16.113,91.797,0
1553807795.974,-2.441,42.480,24.414,1.465,72.754,0
1553807795.978,-2.930,38.574,23.438,0.977,-1.465,0
1553807795.981,-0.977,41.016,17.090,8.789,34.668,0
1553807795.985,7.324,41.992,20.508,7.324,31.738,0
1553807795.989,2.930,37.109,25.879,2.441,9.766,0
1553807795.993,3.418,35.156,25.879,2.441,36.621,0
1553807795.997,12.695,36.133,24.902,13.672,-5.371,0
1553807796.001,11.719,34.668,25.879,20.508,-13.184,0
1553807796.005,-4.883,31.250,26.367,19.043,8.301,0
1553807796.009,-1.953,33.203,29.785,13.672,34.668,0
1553807796.013,1.953,38.086,37.109,9.277,43.945,0
1553807796.017,0.000,41.992,36.621,18.555,89.355,0
1553807796.021,8.301,43.945,32.227,22.461,83.496,0
1553807796.024,5.859,41.504,30.762,20.508,51.758,0
1553807796.028,1.465,39.551,29.297,21.484,15.137,0
1553807796.032,11.719,40.039,28.320,26.367,6.348,0
1553807796.036,11.230,40.527,25.391,26.367,76.172,0
1553807796.040,8.301,41.016,27.832,18.555,60.547,0
1553807796.044,6.836,38.086,32.715,24.414,11.719,0
1553807796.048,-2.930,32.227,31.738,18.066,18.555,0
1553807796.052,3.418,27.832,35.156,15.137,-8.301,0
1553807796.056,21.484,21.973,41.504,43.945,0.977,0
1553807796.060,28.320,35.645,35.645,47.852,-0.488,0
1553807796.063,5.371,53.711,24.902,20.020,39.062,0
1553807796.067,-9.766,57.617,24.414,8.301,81.543,0
1553807796.071,-0.488,62.988,17.090,7.812,65.918,0
1553807796.075,-0.488,66.895,4.883,2.930,84.473,0
1553807796.079,-6.348,69.336,-2.930,-0.977,51.758,0
1553807796.083,6.348,71.289,-8.789,1.465,-6.836,0
1553807796.087,0.488,78.613,-18.066,-8.301,10.742,0
1553807796.091,2.441,77.637,-20.508,-9.766,56.152,0
1553807796.095,17.090,73.242,-14.160,2.441,50.781,0
1553807796.099,-2.930,75.195,-15.137,-16.113,109.863,0
1553807796.103,-17.090,67.383,-14.160,-30.762,154.785,0
1553807796.106,-2.930,61.035,-9.766,-14.648,23.438,0
1553807796.110,0.977,57.129,-0.488,-8.301,35.645,0
1553807796.114,-10.742,54.199,10.742,-4.883,58.105,0
1553807796.118,-3.906,54.688,8.789,-3.418,34.668,0
1553807796.122,-3.418,46.875,15.625,-5.371,85.938,0
1553807796.126,-9.277,47.852,27.832,1.953,82.031,0
1553807796.130,-9.766,45.410,28.809,-2.930,17.090,0
1553807796.134,-9.277,37.109,21.484,-4.395,29.785,0
1553807796.138,-3.418,36.621,20.020,-0.977,58.594,0
1553807796.142,1.465,37.109,20.020,1.953,-0.488,0
1553807796.146,4.883,39.551,19.043,10.742,-7.812,0
1553807796.149,6.348,44.434,19.043,13.672,15.137,0
1553807796.153,6.836,42.969,20.508,9.277,41.504,0
1553807796.157,11.230,43.457,20.020,9.277,73.730,0
1553807796.161,11.719,48.340,22.461,16.602,55.176,0
1553807796.165,10.742,44.922,25.391,19.531,20.020,0
1553807796.169,11.719,41.504,22.461,17.578,-27.344,0
1553807796.173,9.277,43.457,21.484,26.367,31.250,0
1553807796.177,8.301,45.410,23.438,27.832,75.684,0
1553807796.181,14.648,45.410,24.902,27.344,44.434,0
1553807796.185,20.020,41.016,25.391,24.902,34.668,0
1553807796.188,18.066,37.109,26.367,19.043,45.898,0
1553807796.192,18.066,38.574,22.949,22.461,62.988,0
1553807796.196,18.066,41.504,22.461,25.391,21.973,0
1553807796.200,14.648,41.992,24.902,27.344,14.160,0
1553807796.204,16.602,41.504,25.879,33.203,105.957,0
1553807796.208,31.738,41.016,26.855,28.809,92.285,0
1553807796.212,32.227,42.969,22.461,26.367,0.488,0
1553807796.216,13.672,44.434,20.996,26.855,-8.301,0
1553807796.220,7.324,42.480,24.414,16.113,5.859,0
1553807796.224,14.648,41.016,27.344,22.949,38.574,0
1553807796.228,21.973,37.598,29.297,39.062,31.738,0
1553807796.231,19.531,45.410,24.902,35.645,46.875,0
1553807796.235,-0.488,51.758,21.484,4.883,60.059,0
1553807796.239,-0.977,49.316,20.020,-4.883,41.504,0
1553807796.243,13.184,50.781,16.602,8.301,32.715,0
1553807796.247,3.906,50.293,19.043,9.766,32.715,0
1553807796.251,5.859,51.270,19.531,6.348,27.344,0
1553807796.255,4.395,53.223,20.020,8.789,92.285,0
1553807796.259,0.977,57.129,20.508,15.137,46.875,0
1553807796.263,6.836,55.664,20.996,19.531,27.832,0
1553807796.267,12.207,52.246,21.973,10.742,76.172,0
1553807796.271,12.695,55.664,20.020,12.207,62.988,0
1553807796.274,6.836,55.664,20.996,18.066,41.992,0
1553807796.278,4.883,52.246,25.391,8.789,12.695,0
1553807796.282,7.324,50.293,29.297,13.672,19.531,0
1553807796.286,5.859,48.828,29.785,15.625,28.809,0
1553807796.290,15.137,48.828,26.367,2.441,8.789,0
1553807796.294,11.719,48.828,26.367,5.859,44.922,0
1553807796.298,-0.977,45.898,36.621,12.207,91.797,0
1553807796.302,-2.441,41.992,34.180,9.277,64.453,0
1553807796.306,3.418,42.480,26.855,7.812,67.383,0
1553807796.310,5.371,39.551,26.855,7.324,36.621,0
1553807796.313,-1.465,40.527,26.367,10.742,16.602,0
1553807796.317,2.441,45.410,25.879,10.254,69.336,0
1553807796.321,7.324,46.875,28.320,9.277,52.246,0
1553807796.325,4.395,47.363,29.297,5.371,14.160,0
1553807796.329,0.977,46.387,27.832,1.465,26.855,0
1553807796.333,-0.977,45.410,25.879,8.301,28.320,0
1553807796.337,-5.371,45.410,25.879,9.277,31.738,0
1553807796.341,0.977,45.410,32.715,8.301,32.715,0
1553807796.345,14.648,49.316,30.273,10.742,32.715,0
1553807796.349,5.371,50.293,23.926,15.137,54.688,0
1553807796.353,-4.395,47.852,26.367,18.066,28.809,0
1553807796.356,5.371,45.898,29.785,14.160,-0.977,0
1553807796.360,3.418,42.969,26.855,16.113,67.871,0
1553807796.364,-0.488,41.504,30.762,17.090,42.969,0
1553807796.368,1.953,41.016,32.227,14.648,21.484,0
1553807796.372,-6.348,40.527,27.832,7.812,42.969,0
1553807796.376,-4.883,40.527,29.785,1.465,11.719,0
1553807796.380,0.000,40.039,33.691,11.719,26.367,0
1553807796.384,-6.348,40.527,32.715,10.742,-18.066,0
1553807796.388,-1.953,42.969,30.762,10.254,-40.527,0
1553807796.392,-2.441,40.527,27.832,13.184,27.344,0
1553807796.396,-11.230,39.551,27.832,8.301,48.828,0
1553807796.399,-6.348,38.574,32.715,11.719,59.082,0
1553807796.403,3.418,35.156,29.297,8.301,83.984,0
1553807796.407,-0.977,37.598,30.762,10.254,97.168,0
1553807796.411,-14.648,37.109,35.645,19.043,109.863,0
1553807796.415,-10.254,34.668,35.156,11.230,48.340,0
1553807796.419,-2.441,35.156,32.715,11.230,35.156,0
1553807796.423,-2.930,35.156,30.273,18.066,44.922,0
1553807796.427,-5.859,34.180,30.273,12.695,15.137,0
1553807796.431,-0.488,39.062,33.203,22.949,77.148,0
1553807796.435,4.395,38.574,36.621,16.113,30.273,0
1553807796.438,4.395,29.297,36.621,8.789,24.414,0
1553807796.442,3.418,29.785,36.621,14.160,27.832,0
1553807796.446,2.930,32.227,36.621,6.348,-16.113,0
1553807796.450,5.371,35.156,34.668,8.789,39.062,0
1553807796.454,2.930,36.133,29.297,14.648,4.395,0
1553807796.458,-2.930,31.250,26.367,15.625,7.812,0
1553807796.462,8.789,33.203,28.809,18.555,39.062,0
1553807796.466,13.184,34.668,33.203,24.414,24.902,0
1553807796.470,0.488,33.203,35.645,22.949,34.180,0
1553807796.474,1.465,35.645,35.156,26.367,27.344,0
1553807796.478,-3.906,34.180,30.273,27.832,13.672,0
1553807796.481,0.000,32.715,27.832,21.973,-4.395,0
1553807796.485,9.277,32.715,30.273,23.926,0.977,0
1553807796.489,5.371,35.156,25.391,24.414,112.305,0
1553807796.493,4.883,39.062,22.949,23.926,102.051,0
1553807796.497,5.859,41.016,25.391,21.484,36.621,0
1553807796.501,10.254,39.062,26.367,26.367,55.664,0
1553807796.505,10.742,37.598,26.855,27.832,58.594,0
1553807796.509,5.859,41.016,25.879,25.879,33.691,0
1553807796.513,10.742,38.086,25.879,29.297,-5.371,0
1553807796.517,-0.977,32.227,20.996,27.832,-6.348,0
1553807796.521,0.977,35.156,17.090,24.414,-4.395,0
1553807796.524,8.301,35.156,18.066,23.926,45.898,0
1553807796.528,-6.836,31.738,22.949,24.902,35.156,0
1553807796.532,-5.859,31.738,30.273,21.973,-10.254,0
1553807796.536,1.953,33.203,29.785,20.508,25.391,0
1553807796.540,2.441,35.645,26.367,28.320,96.191,0
1553807796.544,-4.395,35.645,25.391,16.602,62.012,0
1553807796.548,-7.812,37.109,23.926,7.324,53.711,0
1553807796.552,-10.742,35.645,21.973,7.324,95.215,0
1553807796.556,-4.395,36.621,24.414,7.812,63.965,0
1553807796.560,6.348,35.645,23.926,7.812,75.684,0
1553807796.563,5.371,26.367,21.484,-4.883,33.203,0
1553807796.567,-8.301,24.414,20.020,0.977,-6.348,0
1553807796.571,-6.836,30.762,20.020,13.184,26.855,0
1553807796.575,0.977,37.109,21.973,15.137,69.824,0
1553807796.579,2.441,39.062,17.090,12.207,104.004,0
1553807796.583,2.930,40.039,18.066,5.371,47.363,0
1553807796.587,-0.488,38.574,23.926,0.977,48.828,0
1553807796.591,0.488,35.645,26.367,11.230,105.957,0
1553807796.595,1.465,31.250,25.879,10.742,85.449,0
1553807796.599,9.766,26.855,29.785,7.324,41.504,0
1553807796.603,7.812,31.250,31.738,16.113,71.777,0
1553807796.606,-0.488,38.086,29.297,25.879,62.012,0
1553807796.610,0.000,41.504,27.832,24.902,69.336,0
1553807796.614,7.324,42.969,28.320,10.742,60.547,0
1553807796.618,2.930,42.969,25.391,10.742,27.832,0
1553807796.622,0.488,42.480,25.391,14.160,69.824,0
1553807796.626,-0.488,36.621,26.367,12.695,86.426,0
1553807796.630,-10.742,34.180,29.785,9.766,-1.953,0
1553807796.634,-2.441,35.645,33.691,15.137,41.016,0
1553807796.638,-2.441,34.180,29.297,15.137,98.145,0
1553807796.642,-7.324,38.574,26.367,3.906,-0.977,0
1553807796.646,-5.859,41.992,31.250,10.254,50.293,0
1553807796.649,1.465,40.039,34.180,21.484,66.406,0
1553807796.653,0.488,38.574,28.320,14.160,33.203,0
1553807796.657,6.348,39.062,25.391,15.625,3.906,0
1553807796.661,7.324,39.551,23.438,21.484,48.340,0
1553807796.665,-4.883,37.109,16.113,15.137,23.926,0
1553807796.669,2.930,32.227,22.461,16.602,-20.508,0
1553807796.673,4.395,35.156,32.715,17.578,33.691,0
1553807796.677,-7.324,43.945,36.621,16.113,58.594,0
1553807796.681,-2.930,47.852,41.016,25.879,4.883,0
1553807796.685,9.766,47.852,38.574,23.926,15.137,0
1553807796.688,6.836,47.363,36.133,16.113,50.293,0
1553807796.692,-1.465,44.922,36.621,20.996,42.480,0
1553807796.696,8.789,43.457,34.180,26.367,49.316,0
1553807796.700,12.695,45.898,30.762,21.484,83.008,0
1553807796.704,16.113,46.387,26.367,22.461,43.945,0
1553807796.708,15.625,45.898,28.809,32.715,-4.395,0
1553807796.712,1.953,47.852,34.180,21.973,-48.340,0
1553807796.716,4.395,45.898,34.668,18.555,2.930,0
1553807796.720,2.930,41.992,33.203,25.879,20.508,0
1553807796.724,-4.883,41.992,31.738,20.996,-7.812,0
1553807796.728,-3.906,42.480,30.273,22.461,16.113,0
1553807796.731,3.418,46.387,31.250,20.996,8.301,0
1553807796.735,0.488,46.387,32.227,12.695,31.738,0
1553807796.739,0.977,42.480,31.250,20.020,68.848,0
1553807796.743,8.789,45.410,33.691,28.809,102.539,0
1553807796.747,9.277,45.410,34.668,21.484,93.262,0
1553807796.751,2.930,45.410,27.832,15.625,43.457,0
1553807796.755,-5.371,45.410,25.391,6.836,43.457,0
1553807796.759,-1.465,48.340,29.297,6.348,62.988,0
1553807796.763,2.930,52.246,28.809,4.883,72.754,0
1553807796.767,9.277,51.270,28.320,15.625,61.035,0
1553807796.771,11.230,47.363,30.273,20.508,28.320,0
1553807796.774,1.953,45.898,31.738,6.348,35.156,0
1553807796.778,-6.348,42.969,31.738,2.930,56.641,0
1553807796.782,-12.207,41.504,33.691,3.906,28.320,0
1553807796.786,-13.672,40.527,35.156,8.789,67.383,0
1553807796.790,-16.113,37.109,32.227,7.324,80.078,0
1553807796.794,-20.508,38.574,28.809,6.348,86.426,0
1553807796.798,-22.949,42.480,32.715,0.488,43.457,0
1553807796.802,-20.996,40.527,38.574,0.000,3.906,0
1553807796.806,-20.996,39.062,40.039,10.254,58.105,0
1553807796.810,-11.719,45.898,38.574,7.812,94.727,0
1553807796.813,-11.719,46.875,41.016,2.930,97.656,0
1553807796.817,-19.043,44.922,41.016,8.301,34.180,0
1553807796.821,-14.160,46.387,40.527,9.766,94.727,0
1553807796.825,-8.301,42.969,44.434,2.441,89.844,0
1553807796.829,-12.207,44.922,47.363,-5.371,-1.953,0
1553807796.833,-37.598,47.852,49.805,-16.113,39.551,0
1553807796.837,-49.805,52.246,54.199,-21.973,28.809,0
1553807796.841,-52.246,55.176,56.152,-39.551,-0.488,0
1553807796.845,-60.059,56.152,52.246,-52.734,-44.434,0
1553807796.849,-67.871,57.617,59.570,-53.711,-4.883,0
1553807796.853,-75.195,59.082,62.500,-63.477,72.754,0
1553807796.856,-84.473,61.523,64.941,-74.219,-28.320,0
1553807796.860,-96.680,62.500,76.660,-83.008,-42.969,0
1553807796.864,-110.352,62.012,78.613,-96.680,71.289,0
1553807796.868,-125.488,59.082,78.613,-108.398,84.961,0
1553807796.872,-123.535,57.129,83.496,-104.492,72.754,0
1553807796.876,-126.953,59.082,83.008,-105.957,66.895,0
1553807796.880,-143.066,60.059,80.566,-116.699,69.824,0
1553807796.884,-146.973,58.594,80.078,-119.141,42.969,0
1553807796.888,-133.789,53.711,77.148,-116.211,61.523,0
1553807796.892,-110.840,54.688,79.590,-108.887,18.555,0
1553807796.896,-123.047,54.199,79.590,-103.516,-27.832,0
1553807796.899,-128.418,52.246,66.406,-96.680,19.043,0
1553807796.903,-111.328,48.828,64.941,-90.820,21.484,0
1553807796.907,-100.586,45.410,67.871,-75.195,23.926,0
1553807796.911,-84.473,49.316,61.523,-66.406,56.641,0
1553807796.915,-70.801,45.410,59.082,-53.711,57.129,0
1553807796.919,-50.293,39.551,50.293,-25.391,20.996,0
1553807796.923,-27.832,37.598,44.922,-15.625,39.551,0
1553807796.927,-14.648,40.039,41.504,-5.859,22.949,0
1553807796.931,-17.090,33.691,36.133,-1.465,31.250,0
1553807796.935,-11.230,28.320,38.086,10.742,-11.719,0
1553807796.938,6.348,31.250,24.902,26.367,37.109,0
1553807796.942,24.902,33.691,21.484,30.762,57.129,0
1553807796.946,30.762,33.691,28.809,36.133,-9.766,0
1553807796.950,23.438,29.785,24.414,41.504,-8.789,0
1553807796.954,32.715,27.832,19.531,51.758,37.598,0
1553807796.958,46.875,29.785,20.020,59.570,62.988,0
1553807796.962,52.734,27.344,15.625,56.152,16.113,0
1553807796.966,54.199,21.484,12.207,61.523,33.691,0
1553807796.970,56.152,17.578,6.348,63.965,73.242,0
1553807796.974,58.105,15.137,3.418,54.199,17.578,0
1553807796.978,57.129,20.996,19.043,55.176,58.594,0
1553807796.981,54.688,22.949,23.438,59.082,70.801,0
1553807796.985,58.105,17.578,10.254,63.477,30.273,0
1553807796.989,61.035,17.578,11.230,70.801,17.090,0
1553807796.993,59.570,22.949,22.949,78.125,-11.719,0
1553807796.997,68.848,33.203,20.020,78.613,65.918,0
1553807797.001,64.453,34.180,17.090,73.730,126.953,0
1553807797.005,62.988,27.832,19.043,71.289,91.797,0
1553807797.009,70.312,27.344,17.578,64.453,35.156,0
1553807797.013,65.918,25.391,18.555,64.941,49.316,0
1553807797.017,64.941,29.785,18.066,70.801,132.812,0
1553807797.021,59.570,30.273,18.066,65.918,95.703,0
1553807797.024,60.059,29.297,18.555,67.383,39.062,0
1553807797.028,61.035,31.250,14.160,68.359,34.180,0
1553807797.032,55.176,26.367,6.348,66.406,42.480,0
1553807797.036,59.082,31.250,4.395,71.777,72.754,0
1553807797.040,56.152,30.273,10.254,64.453,54.688,0
1553807797.044,46.387,27.344,13.184,61.523,48.828,0
1553807797.048,48.340,28.320,14.160,62.988,48.340,0
1553807797.052,46.875,22.461,15.137,63.477,71.289,0
1553807797.056,50.293,26.367,19.531,70.801,104.492,0
1553807797.060,47.363,31.250,17.578,60.059,25.391,0
1553807797.063,41.504,25.879,10.742,61.523,48.828,0
1553807797.067,38.086,29.297,15.625,68.359,73.242,0
1553807797.071,39.062,33.691,22.949,62.500,55.664,0
1553807797.075,46.387,31.738,20.996,70.312,5.371,0
1553807797.079,47.852,32.227,21.484,63.965,36.133,0
1553807797.083,43.945,32.715,17.578,53.711,53.223,0
1553807797.087,48.340,36.621,10.254,60.059,-16.602,0
1553807797.091,37.598,37.598,12.207,50.781,33.691,0
1553807797.095,28.320,29.297,20.508,42.969,101.074,0
1553807797.099,34.668,25.391,25.879,46.875,91.797,0
1553807797.103,40.039,29.785,26.367,43.457,36.133,0
1553807797.106,37.598,31.738,23.438,42.969,17.578,0
1553807797.110,35.156,30.762,21.973,42.480,17.090,0
1553807797.114,31.738,35.156,21.484,41.992,20.508,0
1553807797.118,35.156,36.133,21.973,43.457,23.438,0
1553807797.122,38.086,34.668,23.438,44.434,-0.488,0
1553807797.126,32.715,35.645,23.438,47.363,38.086,0
1553807797.130,33.203,35.156,19.043,41.504,57.129,0
1553807797.134,34.180,30.762,17.090,39.062,24.902,0
1553807797.138,38.574,27.344,19.531,43.457,12.207,0
1553807797.142,41.504,24.902,20.020,33.203,61.523,0
1553807797.146,30.762,24.902,19.531,36.621,56.641,0
1553807797.149,22.949,29.785,15.625,41.016,35.156,0
1553807797.153,16.113,33.203,16.602,32.715,119.141,0
1553807797.157,20.508,35.156,21.484,27.832,109.863,0
1553807797.161,21.973,37.109,22.949,27.832,45.898,0
1553807797.165,6.836,38.574,25.391,24.414,92.773,0
1553807797.169,12.207,34.668,22.461,25.879,75.684,0
1553807797.173,8.301,33.203,20.996,29.785,20.020,0
1553807797.177,0.488,40.527,19.043,26.367,11.719,0
1553807797.181,8.301,40.039,17.578,31.250,24.902,0
1553807797.185,11.230,34.180,19.043,31.250,10.254,0
1553807797.188,0.488,30.273,19.043,17.578,31.250,0
1553807797.192,5.859,32.715,20.996,26.367,93.750,0
1553807797.196,13.672,40.039,30.273,26.367,132.812,0
1553807797.200,-0.488,35.156,31.250,10.254,70.801,0
1553807797.204,-1.953,28.320,22.949,14.160,28.809,0
1553807797.208,0.977,33.203,26.367,24.414,81.543,0
1553807797.212,-5.371,34.668,24.902,16.113,94.727,0
1553807797.216,-2.930,30.762,20.020,9.277,46.387,0
1553807797.220,11.230,32.227,32.715,15.625,-12.695,0
1553807797.224,20.996,36.133,37.109,18.555,25.391,0
1553807797.228,8.301,33.203,32.715,25.391,29.297,0
1553807797.231,-1.465,35.156,26.367,24.414,-4.883,0
1553807797.235,0.000,45.410,21.484,20.020,52.246,0
1553807797.239,4.395,46.875,25.879,15.625,89.355,0
1553807797.243,4.883,44.434,31.738,13.672,38.574,0
1553807797.247,4.883,44.922,32.227,26.855,66.895,0
1553807797.251,10.254,41.992,31.738,24.902,96.191,0
1553807797.255,2.441,43.945,29.785,12.207,64.453,0
1553807797.259,-6.348,43.945,26.367,13.184,79.590,0
1553807797.263,-6.836,41.016,25.391,13.184,85.449,0
1553807797.267,-6.836,40.527,26.855,4.883,8.789,0
1553807797.271,4.395,37.598,24.414,9.277,21.973,0
1553807797.274,-0.488,38.086,23.438,16.113,41.016,0
1553807797.278,-6.348,43.945,33.691,21.484,-8.301,0
1553807797.282,6.348,44.922,30.762,27.832,4.395,0
1553807797.286,1.953,42.480,19.043,17.090,17.578,0
1553807797.290,6.348,36.621,24.414,19.531,54.688,0
1553807797.294,25.391,37.109,34.668,32.227,16.113,0
1553807797.298,6.836,40.039,31.738,18.066,-14.648,0
1553807797.302,-16.602,43.945,28.320,2.441,71.777,0
1553807797.306,-16.113,50.781,23.926,-3.418,45.898,0
1553807797.310,-11.230,47.363,22.461,7.812,12.207,0
1553807797.313,0.977,43.457,25.391,10.254,20.020,0
1553807797.317,-1.953,45.898,25.391,0.488,-29.297,0
1553807797.321,-7.324,41.992,23.926,8.301,-4.883,0
1553807797.325,-9.766,38.086,25.879,10.742,91.309,0
1553807797.329,-9.766,40.527,24.902,2.441,88.867,0
1553807797.333,0.000,43.457,22.949,6.836,42.480,0
1553807797.337,-1.465,38.086,18.555,10.742,4.883,0
1553807797.341,-5.371,30.273,18.066,24.414,47.852,0
1553807797.345,7.324,39.551,26.367,22.461,104.980,0
1553807797.349,15.625,44.922,29.785,10.742,99.121,0
1553807797.353,15.137,34.668,22.949,13.184,82.031,0
1553807797.356,0.977,38.086,6.836,18.555,88.379,0
1553807797.360,-3.418,36.621,9.277,17.578,44.434,0
1553807797.364,4.883,28.320,27.344,8.301,-0.488,0
1553807797.368,-1.953,29.297,31.250,11.230,-7.812,0
1553807797.372,-6.836,32.715,27.344,17.090,40.039,0
1553807797.376,4.883,35.156,25.391,16.113,87.402,0
1553807797.380,3.418,30.273,26.367,9.277,33.691,0
1553807797.384,1.953,31.738,20.508,16.602,-15.137,0
1553807797.388,6.348,37.598,22.461,27.344,-28.320,0
1553807797.392,8.789,36.133,24.902,19.531,8.789,0
1553807797.396,5.371,35.645,21.484,15.137,-9.277,0
1553807797.399,-0.488,35.645,22.461,19.043,14.160,0
1553807797.403,5.371,37.109,22.461,14.160,57.617,0
1553807797.407,8.301,39.062,21.484,10.742,4.883,0
1553807797.411,6.836,38.574,21.484,13.672,21.973,0
1553807797.415,14.648,38.086,21.973,8.789,62.012,0
1553807797.419,15.137,40.039,22.949,6.348,64.941,0
1553807797.423,3.418,37.109,20.508,15.625,62.988,0
1553807797.427,7.812,28.809,15.625,21.484,116.211,0
1553807797.431,8.301,33.203,16.113,17.090,99.609,0
1553807797.435,2.930,43.945,21.484,13.184,76.660,0
1553807797.438,2.930,45.898,29.297,5.371,84.473,0
1553807797.442,2.441,41.016,30.762,11.230,82.520,0
1553807797.446,6.836,39.551,26.855,16.113,29.785,0
1553807797.450,8.301,41.016,26.855,14.648,2.441,0
1553807797.454,3.418,39.062,24.414,9.766,7.812,0
1553807797.458,5.859,37.598,21.484,11.230,-18.066,0
1553807797.462,5.859,36.133,23.926,20.020,-15.137,0
1553807797.466,5.371,34.180,22.949,22.461,-12.207,0
1553807797.470,2.441,32.715,23.438,20.508,53.711,0
1553807797.474,-7.324,33.203,23.926,18.555,87.891,0
1553807797.478,-0.977,34.668,20.996,17.090,86.426,0
1553807797.481,2.441,33.203,17.090,16.602,40.039,0
1553807797.485,3.906,35.156,22.949,13.184,-2.441,0
1553807797.489,4.395,37.109,27.832,11.719,7.324,0
1553807797.493,4.395,35.156,24.414,16.113,27.344,0
1553807797.497,0.977,34.668,26.855,20.996,77.148,0
1553807797.501,13.672,47.363,33.691,37.598,72.266,0
1553807797.505,21.484,55.176,33.691,30.273,19.531,0
1553807797.509,-0.488,49.316,28.320,11.230,61.035,0
1553807797.513,0.488,46.387,28.809,17.090,26.855,0
1553807797.517,9.766,45.410,30.762,23.926,-39.551,0
1553807797.521,10.742,42.969,34.180,21.973,51.758,0
1553807797.524,17.090,39.551,27.832,23.438,81.055,0
1553807797.528,13.672,43.457,19.043,22.949,-13.672,0
1553807797.532,9.277,45.410,30.762,22.949,-15.625,0
1553807797.536,9.277,40.527,35.645,22.461,12.207,0
1553807797.540,3.906,44.434,24.902,16.602,37.109,0
1553807797.544,8.301,49.805,22.461,14.648,98.633,0
1553807797.548,15.625,49.805,29.297,24.902,60.547,0
1553807797.552,13.184,52.734,32.227,21.484,49.805,0
1553807797.556,8.301,42.969,25.391,10.742,52.734,0
1553807797.560,10.254,38.086,22.949,21.973,47.363,0
1553807797.563,7.812,44.922,27.832,22.461,44.434,0
1553807797.567,3.418,45.898,29.297,24.414,61.035,0
1553807797.571,-1.953,44.434,30.273,24.902,37.598,0
1553807797.575,-5.859,41.504,26.855,16.113,34.180,0
1553807797.579,1.465,43.945,20.508,21.484,38.086,0
1553807797.583,-2.441,45.898,26.367,24.414,89.355,0
1553807797.587,-4.395,46.875,30.762,23.438,97.168,0
1553807797.591,-6.836,42.969,26.855,12.207,36.621,0
1553807797.595,3.418,34.180,25.391,14.160,-5.859,0
1553807797.599,20.996,36.133,27.832,37.109,-42.480,0
1553807797.603,4.883,47.363,27.344,22.949,40.527,0
1553807797.606,-24.902,53.223,25.391,-6.348,90.332,0
1553807797.610,-20.020,48.828,24.902,0.000,110.352,0
1553807797.614,-10.254,49.805,24.902,-4.395,49.805,0
1553807797.618,-23.438,53.711,20.508,-17.090,2.930,0
1553807797.622,-20.020,54.199,16.113,-15.137,42.480,0
1553807797.626,-11.230,55.664,15.137,-4.395,54.199,0
1553807797.630,-14.648,60.059,13.184,-4.395,9.277,0
1553807797.634,-16.113,63.477,7.812,-15.625,14.648,0
1553807797.638,-19.043,56.152,7.324,-12.695,67.383,0
1553807797.642,-20.508,54.199,11.230,-11.719,31.738,0
1553807797.646,-17.578,53.711,9.277,-11.230,-10.254,0
1553807797.649,-13.672,52.246,8.789,-5.371,31.250,0
1553807797.653,-13.672,52.246,13.184,-9.766,62.500,0
1553807797.657,4.883,50.293,17.090,4.883,36.621,0
1553807797.661,10.742,47.852,19.531,12.207,32.715,0
1553807797.665,-9.277,46.875,18.066,-3.418,36.133,0
1553807797.669,-4.883,52.734,13.672,0.488,83.008,0
1553807797.673,-0.488,54.199,10.254,3.418,55.176,0
1553807797.677,1.953,49.805,10.742,7.812,-17.578,0
1553807797.681,6.836,48.340,17.090,7.812,41.504,0
1553807797.685,-0.488,53.223,20.020,4.395,46.875,0
1553807797.688,0.488,52.734,17.090,11.719,35.645,0
1553807797.692,6.348,43.945,16.602,8.789,62.500,0
1553807797.696,-0.488,39.062,12.695,3.906,101.562,0
1553807797.700,0.000,39.062,11.719,-0.488,88.379,0
1553807797.704,7.812,38.574,14.648,5.371,51.758,0
1553807797.708,2.930,39.551,15.137,13.184,104.004,0
1553807797.712,-1.953,40.527,15.137,4.883,53.223,0
1553807797.716,5.371,41.016,16.602,14.648,30.273,0
1553807797.720,6.348,46.387,22.949,18.066,116.699,0
1553807797.724,4.395,50.781,23.438,12.695,69.336,0
1553807797.728,5.859,38.574,17.090,18.066,34.180,0
1553807797.731,10.742,31.250,21.484,16.113,54.688,0
1553807797.735,6.836,36.621,26.855,9.277,49.316,0
1553807797.739,1.465,36.621,23.926,10.254,58.105,0
1553807797.743,5.859,34.180,25.879,12.695,-14.648,0
1553807797.747,3.418,32.227,31.250,9.277,20.508,0
1553807797.751,5.371,35.156,28.809,12.695,129.883,0
1553807797.755,10.254,37.109,24.414,18.066,63.965,0
1553807797.759,17.090,37.109,26.367,21.973,-3.906,0
1553807797.763,15.625,36.133,23.926,15.137,19.043,0
1553807797.767,9.766,39.551,21.484,9.766,53.223,0
1553807797.771,10.742,38.574,23.926,6.836,56.641,0
1553807797.774,9.766,36.621,24.414,7.324,55.664,0
1553807797.778,8.789,41.504,27.344,12.207,26.855,0
1553807797.782,4.883,41.504,21.973,15.137,27.344,0
1553807797.786,7.812,37.109,20.996,27.832,28.320,0
1553807797.790,14.648,37.109,32.227,19.043,10.254,0
1553807797.794,16.602,42.969,36.621,12.207,30.273,0
1553807797.798,28.320,43.457,33.691,36.133,17.578,0
1553807797.802,31.738,45.410,30.273,38.574,18.066,0
1553807797.806,26.367,43.457,33.203,29.297,65.430,0
1553807797.810,28.809,39.062,34.180,20.996,57.129,0
1553807797.813,18.066,41.016,32.227,19.043,19.531,0
1553807797.817,19.531,43.457,31.250,32.227,3.906,0
1553807797.821,18.066,41.016,27.832,30.762,63.965,0
1553807797.825,14.648,39.062,22.461,24.414,8.789,0
1553807797.829,21.973,41.992,22.949,17.578,-4.395,0
1553807797.833,25.391,40.039,28.809,14.648,34.668,0
1553807797.837,21.973,44.434,32.227,22.949,0.488,0
1553807797.841,18.555,47.363,33.691,28.320,-8.789,0
1553807797.845,9.766,43.945,26.855,23.926,18.555,0
1553807797.849,24.414,42.969,19.531,22.949,24.414,0
1553807797.853,54.199,40.039,31.738,50.781,-32.715,0
1553807797.856,11.230,33.691,41.992,34.668,50.293,0
1553807797.860,-28.809,28.809,38.086,-0.488,45.410,0
1553807797.864,-14.160,27.344,40.039,13.672,54.688,0
1553807797.868,-15.625,19.531,44.434,13.672,70.801,0
1553807797.872,-32.227,10.742,47.852,6.836,18.066,0
1553807797.876,-34.668,6.836,58.105,10.742,76.660,0
1553807797.880,-27.344,2.441,64.941,6.836,14.160,0
1553807797.884,-26.367,-1.953,61.523,5.859,8.301,0
1553807797.888,-31.250,-0.977,66.406,9.766,108.887,0
1553807797.892,-41.016,-2.441,66.406,2.930,62.500,0
1553807797.896,-28.320,-0.977,58.105,5.371,7.812,0
1553807797.899,-22.461,2.441,57.617,3.906,45.898,0
1553807797.903,-20.508,0.488,57.617,8.301,71.777,0
1553807797.907,-7.324,4.883,54.688,20.020,69.824,0
1553807797.911,-3.906,8.789,53.711,22.461,36.621,0
1553807797.915,0.488,5.859,54.688,30.762,44.434,0
1553807797.919,3.418,14.648,54.688,35.645,88.867,0
1553807797.923,-2.441,22.949,46.875,33.203,56.152,0
1553807797.927,2.441,21.973,44.434,25.879,34.668,0
1553807797.931,1.953,15.137,42.969,20.996,71.777,0
1553807797.935,-1.953,19.043,35.645,21.973,90.820,0
1553807797.938,5.859,28.320,36.133,25.879,53.711,0
1553807797.942,2.441,27.344,38.086,25.879,36.621,0
1553807797.946,-2.930,26.855,38.574,20.508,113.770,0
1553807797.950,1.953,22.461,39.551,11.230,83.496,0
1553807797.954,12.207,20.020,38.086,15.137,7.812,0
1553807797.958,4.395,20.020,37.109,20.996,20.508,0
1553807797.962,-7.324,23.926,38.574,16.113,30.273,0
1553807797.966,3.418,33.203,42.480,24.414,-36.133,0
1553807797.970,8.301,36.133,39.062,31.738,18.066,0
1553807797.974,21.973,40.039,38.574,30.273,62.500,0
1553807797.978,22.461,39.551,42.480,31.250,-16.113,0
1553807797.981,13.184,31.250,39.062,35.156,-15.137,0
1553807797.985,21.484,32.227,37.109,36.133,77.637,0
1553807797.989,19.043,37.598,40.527,37.598,84.473,0
1553807797.993,8.301,37.109,41.504,32.715,83.008,0
1553807797.997,8.789,36.133,41.504,25.879,93.262,0
1553807798.001,10.742,39.062,40.527,23.438,-0.977,0
1553807798.005,12.695,37.598,40.527,24.414,-45.410,0
1553807798.009,8.301,32.227,40.527,32.227,27.832,0
1553807798.013,7.812,31.250,39.551,28.809,1.465,0
1553807798.017,13.184,34.180,38.086,18.555,-28.809,0
1553807798.021,17.090,37.109,33.203,23.926,58.594,0
1553807798.024,15.137,38.574,31.738,24.902,52.734,0
1553807798.028,3.906,35.156,34.180,22.461,28.809,0
1553807798.032,8.789,36.133,26.855,25.391,33.203,0
1553807798.036,17.578,39.062,21.973,24.902,104.492,0
1553807798.040,7.324,30.762,26.855,25.879,119.629,0
1553807798.044,2.441,31.738,26.367,24.414,-3.906,0
1553807798.048,6.348,36.621,26.367,18.066,5.371,0
1553807798.052,5.859,32.715,28.320,17.090,76.172,0
1553807798.056,10.254,31.738,27.832,20.020,53.223,0
1553807798.060,18.066,31.250,26.855,17.090,24.414,0
1553807798.063,13.672,31.738,28.320,17.090,34.180,0
1553807798.067,10.254,36.621,33.691,26.367,59.082,0
1553807798.071,11.719,49.316,29.785,31.738,70.312,0
1553807798.075,3.418,51.758,19.043,19.043,12.207,0
1553807798.079,7.324,45.898,26.855,9.766,-25.879,0
1553807798.083,10.254,46.387,31.738,6.348,8.789,0
1553807798.087,1.465,41.992,22.949,3.906,65.430,0
1553807798.091,5.371,39.551,19.531,10.742,84.473,0
1553807798.095,7.324,39.062,20.508,12.207,34.668,0
1553807798.099,7.812,36.133,21.484,9.277,32.715,0
1553807798.103,7.812,35.156,18.555,20.508,21.973,0
1553807798.106,7.812,35.645,23.438,16.113,65.918,0
1553807798.110,4.883,33.203,25.391,8.789,77.148,0
1553807798.114,1.953,40.527,22.461,13.672,34.668,0
1553807798.118,3.418,45.898,21.484,10.742,33.203,0
1553807798.122,-0.977,47.852,16.113,11.719,40.527,0
1553807798.126,0.000,48.340,19.043,5.859,116.699,0
1553807798.130,1.953,47.363,26.367,2.930,76.660,0
1553807798.134,7.812,47.363,26.367,15.137,1.953,0
1553807798.138,8.301,40.527,24.902,13.184,49.805,0
1553807798.142,6.836,37.109,26.367,18.066,90.332,0
1553807798.146,4.883,41.504,26.855,17.578,90.820,0
1553807798.149,7.812,44.434,27.344,15.137,65.430,0
1553807798.153,6.836,41.992,28.320,22.949,68.848,0
1553807798.157,-0.488,39.062,30.273,19.531,95.215,0
1553807798.161,3.418,39.062,35.156,18.066,78.613,0
1553807798.165,10.254,41.504,38.574,18.066,39.062,0
1553807798.169,8.301,40.039,26.855,17.090,46.875,0
1553807798.173,5.859,42.969,19.531,22.949,75.195,0
1553807798.177,1.953,41.504,25.879,20.996,99.121,0
1553807798.181,-0.977,38.574,28.320,22.949,36.621,0
1553807798.185,6.836,36.133,33.203,19.043,18.066,0
1553807798.188,8.301,35.156,35.156,20.020,50.781,0
1553807798.192,1.953,37.598,32.715,23.438,2.930,0
1553807798.196,5.371,31.250,26.855,10.254,-12.207,0
1553807798.200,-1.953,29.297,23.438,8.789,22.461,0
1553807798.204,-10.742,33.203,21.484,8.789,69.336,0
1553807798.208,-2.441,35.156,22.949,6.348,68.848,0
1553807798.212,-4.883,30.762,23.438,10.742,20.020,0
1553807798.216,13.184,32.715,28.320,38.574,11.230,0
1553807798.220,10.742,54.199,27.344,30.762,47.852,0
1553807798.224,-28.320,54.688,18.555,-6.836,90.820,0
1553807798.228,-10.742,41.016,18.555,7.324,53.711,0
1553807798.231,8.789,50.293,17.090,23.438,63.965,0
1553807798.235,-4.395,57.617,9.277,-0.977,76.172,0
1553807798.239,-1.465,54.199,5.371,-4.883,31.250,0
1553807798.243,0.000,54.199,5.371,4.395,45.410,0
1553807798.247,-6.348,50.293,11.230,0.000,67.871,0
1553807798.251,-2.930,47.363,16.602,9.766,54.688,0
1553807798.255,-3.418,41.016,10.742,6.836,19.531,0
1553807798.259,0.488,38.574,15.625,11.719,29.785,0
1553807798.263,2.930,35.156,15.137,18.066,26.855,0
1553807798.267,8.301,36.133,9.277,20.996,6.836,0
1553807798.271,9.277,36.621,16.113,24.902,60.547,0
1553807798.274,20.020,40.039,16.113,21.973,101.562,0
1553807798.278,25.879,52.246,19.043,21.973,86.914,0
1553807798.282,21.484,52.246,26.855,23.438,-16.113,0
1553807798.286,25.879,52.734,29.785,32.227,-75.195,0
1553807798.290,19.043,49.316,24.414,28.320,-13.184,0
1553807798.294,16.602,46.387,20.020,20.996,27.344,0
1553807798.298,19.531,45.898,21.484,31.250,43.945,0
1553807798.302,20.996,47.363,20.020,31.250,43.945,0
1553807798.306,23.438,51.270,18.555,27.344,52.246,0
1553807798.310,22.949,50.781,23.438,31.250,34.180,0
1553807798.313,25.879,47.363,28.320,39.062,92.773,0
1553807798.317,25.879,44.922,28.320,39.551,49.316,0
1553807798.321,24.414,47.852,28.320,31.250,-16.113,0
1553807798.325,24.902,51.758,27.344,26.367,19.531,0
1553807798.329,25.879,49.316,22.949,30.273,39.551,0
1553807798.333,27.344,49.805,24.902,31.738,82.031,0
1553807798.337,20.508,48.340,29.785,23.438,60.059,0
1553807798.341,28.320,44.434,32.715,31.250,21.973,0
1553807798.345,29.297,45.898,32.715,24.902,-14.648,0
1553807798.349,12.207,41.504,31.250,21.484,36.133,0
1553807798.353,13.672,37.109,31.738,24.902,86.426,0
1553807798.356,16.602,36.621,32.227,16.113,47.363,0
1553807798.360,14.648,40.039,29.297,17.578,27.344,0
1553807798.364,9.766,38.574,29.785,14.648,57.129,0
1553807798.368,2.930,34.180,29.785,9.766,45.410,0
1553807798.372,1.465,37.598,24.902,11.719,21.484,0
1553807798.376,-1.953,36.133,18.555,14.648,61.035,0
1553807798.380,13.672,39.551,16.113,20.996,76.172,0
1553807798.384,15.625,40.039,22.461,16.602,115.234,0
1553807798.388,-6.348,35.645,30.762,2.930,61.523,0
1553807798.392,-4.883,33.691,33.691,8.301,32.715,0
1553807798.396,25.879,28.809,26.855,19.531,71.289,0
1553807798.399,27.832,30.762,23.438,23.438,40.527,0
1553807798.403,16.602,33.203,30.273,24.902,65.430,0
1553807798.407,20.508,32.227,34.668,23.438,49.805,0
1553807798.411,19.043,28.809,31.738,20.508,37.109,0
1553807798.415,18.555,29.297,36.133,22.461,133.789,0
1553807798.419,13.184,28.809,36.133,30.273,121.582,0
1553807798.423,0.977,23.926,28.809,21.973,74.707,0
1553807798.427,0.000,25.391,28.320,19.531,106.934,0
1553807798.431,9.766,29.297,22.461,24.902,86.914,0
1553807798.435,1.465,31.738,25.391,15.137,46.875,0
1553807798.438,6.836,33.203,32.227,9.766,68.848,0
1553807798.442,13.672,29.785,31.250,8.789,73.242,0
1553807798.446,2.441,25.879,28.809,8.789,81.543,0
1553807798.450,2.930,30.762,23.926,18.066,64.453,0
1553807798.454,2.441,34.668,27.832,14.648,-3.906,0
1553807798.458,2.930,31.738,30.762,5.859,-8.789,0
1553807798.462,9.277,36.133,23.926,13.184,93.262,0
1553807798.466,8.301,41.504,25.879,12.695,79.590,0
1553807798.470,4.395,46.387,32.715,19.043,14.648,0
1553807798.474,6.348,42.480,29.297,23.438,7.324,0
1553807798.478,7.812,35.156,32.715,22.461,16.113,0
1553807798.481,5.859,37.598,37.109,18.066,68.359,0
1553807798.485,1.953,36.621,35.645,14.648,85.449,0
1553807798.489,4.883,35.156,34.180,18.066,-20.996,0
1553807798.493,10.254,41.504,31.738,24.414,-12.207,0
1553807798.497,17.090,47.852,25.879,22.949,40.039,0
1553807798.501,13.184,46.875,31.738,20.996,-5.859,0
1553807798.505,7.324,42.480,34.668,28.809,39.062,0
1553807798.509,18.555,39.551,31.250,33.203,106.934,0
1553807798.513,6.348,37.109,32.715,23.438,47.852,0
1553807798.517,-2.441,37.109,34.180,15.137,17.578,0
1553807798.521,5.371,36.133,32.715,17.578,20.996,0
1553807798.524,0.000,34.180,31.250,15.137,33.203,0
1553807798.528,0.000,32.715,32.227,9.766,50.293,0
1553807798.532,2.441,26.367,29.785,8.301,18.555,0
1553807798.536,-1.953,25.391,23.438,10.254,34.668,0
1553807798.540,1.953,29.297,23.926,21.484,48.340,0
1553807798.544,3.418,31.738,20.508,17.090,18.555,0
1553807798.548,4.395,35.645,17.578,6.348,45.898,0
1553807798.552,10.742,37.109,25.879,20.508,57.617,0
1553807798.556,7.812,34.180,28.809,22.461,-71.777,0
1553807798.560,7.324,28.320,27.344,18.066,-24.414,0
1553807798.563,18.066,34.180,27.344,15.137,56.152,0
1553807798.567,12.695,39.551,21.973,14.160,15.137,0
1553807798.571,1.953,38.574,21.484,19.043,-15.137,0
1553807798.575,2.930,34.668,27.832,14.160,5.371,0
1553807798.579,11.719,37.598,31.250,18.555,45.898,0
1553807798.583,13.184,35.645,33.691,20.020,22.461,0
1553807798.587,5.859,29.297,26.855,16.113,26.367,0
1553807798.591,4.883,33.203,13.184,19.043,79.590,0
1553807798.595,7.812,33.691,20.508,23.438,69.336,0
1553807798.599,9.766,35.156,30.762,20.508,55.664,0
1553807798.603,13.184,32.715,24.414,15.625,-15.625,0
1553807798.606,4.883,29.785,23.438,15.137,-6.836,0
1553807798.610,13.184,15.625,31.250,21.484,60.547,0
1553807798.614,43.457,22.461,35.645,49.316,29.297,0
1553807798.618,24.414,55.664,26.855,47.852,14.648,0
1553807798.622,-7.324,61.035,17.578,1.465,42.480,0
1553807798.626,-1.953,63.477,13.672,-8.301,76.660,0
1553807798.630,15.625,72.754,6.348,6.348,13.672,0
1553807798.634,26.855,71.289,2.441,12.207,10.254,0
1553807798.638,33.203,76.172,-0.977,17.090,6.348,0
1553807798.642,26.367,84.473,-7.812,6.836,2.441,0
1553807798.646,17.578,79.102,-8.301,1.953,53.711,0
1553807798.649,18.066,71.777,-1.953,3.418,51.270,0
1553807798.653,17.090,73.242,-2.441,0.977,17.578,0
1553807798.657,19.531,70.801,-4.395,15.625,67.383,0
1553807798.661,19.531,64.941,-1.953,15.625,60.059,0
1553807798.665,29.297,60.059,8.301,19.043,-22.949,0
1553807798.669,29.297,53.223,10.254,25.879,-0.488,0
1553807798.673,23.926,51.270,3.418,28.320,55.176,0
1553807798.677,31.250,59.082,8.789,39.062,15.137,0
1553807798.681,44.434,64.453,9.277,47.363,48.828,0
1553807798.685,43.457,61.523,6.836,39.062,40.527,0
1553807798.688,32.227,59.570,17.090,32.715,28.320,0
1553807798.692,35.645,58.594,19.043,34.668,104.492,0
1553807798.696,26.855,56.152,11.230,26.367,144.043,0
1553807798.700,24.902,54.199,12.695,20.996,63.477,0
1553807798.704,36.133,51.270,17.090,26.855,-0.977,0
1553807798.708,40.039,49.316,15.137,31.738,51.270,0
1553807798.712,25.391,52.734,14.648,28.809,36.133,0
1553807798.716,19.531,55.664,19.043,26.855,17.578,0
1553807798.720,31.250,55.664,19.531,30.762,35.156,0
1553807798.724,24.902,50.293,16.602,24.414,12.695,0
1553807798.728,18.555,43.945,18.066,34.180,27.832,0
1553807798.731,26.367,45.410,20.996,32.227,33.691,0
1553807798.735,26.855,47.363,19.531,25.879,20.996,0
1553807798.739,32.227,48.828,16.602,26.367,35.156,0
1553807798.743,24.414,51.758,18.555,21.484,50.293,0
1553807798.747,17.578,47.363,23.438,27.344,18.066,0
1553807798.751,20.508,39.551,21.484,25.391,-0.977,0
1553807798.755,16.602,38.086,15.625,27.344,62.988,0
1553807798.759,24.902,42.969,12.695,25.879,64.453,0
1553807798.763,21.484,43.945,15.137,19.531,90.332,0
1553807798.767,17.090,38.574,18.555,24.414,96.191,0
1553807798.771,15.137,40.039,20.020,27.344,105.469,0
1553807798.774,12.207,45.898,22.461,19.531,77.637,0
1553807798.778,11.230,43.945,20.996,17.090,10.254,0
1553807798.782,8.789,41.504,18.555,27.832,-49.316,0
1553807798.786,5.859,35.645,20.996,18.066,-26.367,0
1553807798.790,3.418,41.504,26.367,15.137,71.777,0
1553807798.794,4.395,46.387,29.785,21.973,55.664,0
1553807798.798,7.324,39.551,24.414,19.531,74.219,0
1553807798.802,4.883,41.504,20.996,22.461,104.980,0
1553807798.806,-3.418,37.109,25.391,19.043,38.574,0
1553807798.810,2.930,30.762,28.320,22.949,20.020,0
1553807798.813,1.953,39.551,23.926,26.855,84.961,0
1553807798.817,-4.395,41.992,22.461,18.066,94.727,0
1553807798.821,1.465,42.480,25.391,22.461,0.977,0
1553807798.825,7.812,41.992,29.297,27.344,-14.648,0
1553807798.829,0.977,40.039,28.809,15.137,104.004,0
1553807798.833,8.301,42.969,23.926,14.160,120.117,0
1553807798.837,21.973,44.922,20.020,30.273,82.031,0
1553807798.841,9.277,42.480,27.344,27.832,34.668,0
1553807798.845,-10.742,36.621,36.133,3.418,-2.441,0
1553807798.849,-10.742,34.668,36.133,3.418,60.059,0
1553807798.853,-5.371,30.762,34.668,14.160,37.598,0
1553807798.856,-3.418,30.762,36.621,16.113,-31.250,0
1553807798.860,-5.371,34.668,35.645,8.301,14.160,0
1553807798.864,-7.324,29.297,29.297,7.324,48.340,0
1553807798.868,-5.859,31.738,29.297,11.230,0.000,0
1553807798.872,-7.324,36.621,35.156,15.137,28.809,0
1553807798.876,1.465,32.227,38.086,19.531,37.109,0
1553807798.880,8.301,37.109,37.109,22.461,51.270,0
1553807798.884,-2.441,42.480,39.062,17.578,66.895,0
1553807798.888,-3.418,43.457,39.551,20.020,26.855,0
1553807798.892,0.000,42.480,43.945,19.043,44.434,0
1553807798.896,5.371,41.504,42.969,10.254,49.805,0
1553807798.899,3.906,41.504,41.016,15.137,31.250,0
1553807798.903,-6.348,38.574,42.969,12.695,10.742,0
1553807798.907,-8.301,44.434,36.133,9.766,27.344,0
1553807798.911,-3.906,59.570,44.434,9.277,92.285,0
1553807798.915,-20.508,59.082,47.363,-3.418,63.477,0
1553807798.919,-41.504,62.012,39.062,-20.020,17.090,0
1553807798.923,-48.340,86.914,50.781,-38.086,67.383,0
1553807798.927,-78.613,96.191,54.199,-64.941,83.496,0
1553807798.931,-122.070,94.238,50.293,-95.215,32.715,0
1553807798.935,-154.297,104.980,59.570,-131.348,57.129,0
1553807798.938,-183.105,106.934,67.383,-166.016,86.914,0
1553807798.942,-212.402,107.422,75.195,-186.035,99.609,0
1553807798.946,-225.098,111.328,80.078,-197.754,71.777,0
1553807798.950,-237.793,105.469,81.055,-216.309,-0.977,0
1553807798.954,-251.953,103.027,85.938,-226.562,-14.160,0
1553807798.958,-250.000,100.098,89.844,-229.004,41.992,0
1553807798.962,-247.559,99.121,87.891,-229.980,30.762,0
1553807798.966,-245.117,96.191,89.844,-214.355,35.156,0
1553807798.970,-230.957,85.449,94.727,-203.613,60.547,0
1553807798.974,-227.539,82.031,90.332,-201.660,66.406,0
1553807798.978,-217.773,85.449,92.285,-193.359,81.543,0
1553807798.981,-191.895,80.078,88.867,-177.246,58.594,0
1553807798.985,-169.434,73.242,77.637,-150.879,94.238,0
1553807798.989,-149.902,61.523,81.055,-134.277,75.195,0
1553807798.993,-128.418,45.898,79.590,-106.934,60.059,0
1553807798.997,-107.910,42.480,77.148,-83.496,80.566,0
1553807799.001,-83.984,42.480,73.730,-68.848,30.762,0
1553807799.005,-52.734,35.156,65.918,-38.574,46.387,0
1553807799.009,-33.691,30.762,62.988,-22.461,33.691,0
1553807799.013,-12.695,31.738,53.223,-4.395,57.129,0
1553807799.017,7.324,29.785,42.480,12.207,68.359,0
1553807799.021,23.926,28.809,44.922,23.438,-24.414,0
1553807799.024,41.016,29.297,38.086,42.969,-43.945,0
1553807799.028,31.250,20.508,23.438,45.898,78.613,0
1553807799.032,29.785,11.230,20.508,36.621,84.473,0
1553807799.036,31.250,9.277,26.367,34.180,-19.043,0
1553807799.040,24.902,8.789,21.973,37.598,7.324,0
1553807799.044,37.109,15.625,7.812,47.852,64.941,0
1553807799.048,40.039,16.113,10.254,51.270,24.902,0
1553807799.052,36.133,11.719,21.484,52.734,41.504,0
1553807799.056,38.574,11.719,22.461,53.223,60.547,0
1553807799.060,48.340,11.719,17.578,53.711,4.883,0
1553807799.063,42.969,12.695,16.113,65.430,7.324,0
1553807799.067,42.480,16.602,24.902,68.359,83.984,0
1553807799.071,50.781,14.160,20.996,59.082,90.820,0
1553807799.075,44.434,9.766,10.742,60.059,15.137,0
1553807799.079,44.922,4.395,11.719,63.477,22.461,0
1553807799.083,45.898,2.441,13.184,61.035,23.438,0
1553807799.087,51.758,18.066,15.625,64.941,39.062,0
1553807799.091,52.246,20.508,9.277,68.359,51.758,0
1553807799.095,55.176,13.184,8.301,67.871,-3.418,0
1553807799.099,55.664,18.066,15.137,64.453,-0.977,0
1553807799.103,60.059,17.578,16.113,74.219,58.594,0
1553807799.106,62.988,12.695,16.602,74.219,18.066,0
1553807799.110,53.711,15.625,14.648,76.172,-8.789,0
1553807799.114,60.059,16.602,15.137,79.102,50.293,0
1553807799.118,59.082,12.695,18.066,73.730,46.875,0
1553807799.122,58.105,11.230,16.602,76.172,26.855,0
1553807799.126,75.195,19.531,18.066,78.125,32.715,0
1553807799.130,69.824,22.461,18.555,65.918,45.410,0
1553807799.134,57.129,20.020,14.648,55.664,76.660,0
1553807799.138,57.129,17.090,16.113,68.848,62.500,0
1553807799.142,53.711,16.602,16.113,68.359,44.434,0
1553807799.146,60.059,21.973,11.230,62.500,53.711,0
1553807799.149,63.477,20.996,7.812,66.895,4.395,0
1553807799.153,59.570,17.090,10.742,68.848,14.160,0
1553807799.157,56.152,20.996,19.531,73.730,52.246,0
1553807799.161,65.430,19.531,20.996,69.336,34.668,0
1553807799.165,65.430,22.461,20.020,63.965,31.738,0
1553807799.169,61.035,26.855,25.391,73.730,2.930,0
1553807799.173,68.359,26.367,27.344,79.590,23.926,0
1553807799.177,62.012,25.391,24.902,78.613,129.395,0
1553807799.181,66.895,23.926,25.391,82.520,89.844,0
1553807799.185,79.102,22.949,21.973,83.008,28.809,0
1553807799.188,64.941,21.484,17.090,76.172,49.316,0
1553807799.192,64.941,25.391,19.043,81.055,53.223,0
1553807799.196,66.406,26.855,20.508,80.078,35.156,0
1553807799.200,54.199,31.738,13.672,74.707,19.043,0
1553807799.204,65.430,31.738,16.113,80.566,26.367,0
1553807799.208,65.430,28.320,21.484,63.477,5.371,0
1553807799.212,59.082,24.414,22.461,58.105,28.809,0
1553807799.216,58.105,23.438,26.855,65.430,34.180,0
1553807799.220,55.664,27.832,19.531,62.012,19.043,0
1553807799.224,52.246,27.344,17.090,55.176,3.906,0
1553807799.228,52.246,32.715,21.484,58.105,13.184,0
1553807799.231,60.059,37.109,26.367,68.359,72.754,0
1553807799.235,61.035,33.203,22.461,62.500,45.898,0
1553807799.239,54.199,32.227,15.137,55.176,18.555,0
1553807799.243,68.848,37.109,16.113,59.570,20.020,0
1553807799.247,67.871,36.133,15.137,66.406,3.418,0
1553807799.251,36.133,28.809,22.949,51.758,-2.930,0
1553807799.255,18.066,24.902,28.320,30.762,52.734,0
1553807799.259,28.320,20.508,30.273,41.992,8.301,0
1553807799.263,34.180,15.137,32.715,55.664,-2.930,0
1553807799.267,26.367,13.184,26.367,53.711,25.391,0
1553807799.271,23.926,17.090,24.414,45.898,0.000,0
1553807799.274,32.715,24.414,25.391,38.574,-21.484,0
1553807799.278,37.598,27.832,27.344,35.156,8.789,0
1553807799.282,33.691,26.855,27.344,35.156,76.172,0
1553807799.286,46.387,28.809,23.438,44.434,26.855,0
1553807799.290,47.363,35.156,24.414,41.016,-0.488,0
1553807799.294,47.363,33.691,20.020,36.621,-7.812,0
1553807799.298,43.457,25.391,17.578,42.480,29.785,0
1553807799.302,28.320,29.297,23.926,41.016,67.871,0
1553807799.306,24.414,32.715,30.762,39.551,33.691,0
1553807799.310,23.438,34.180,29.297,37.598,22.949,0
1553807799.313,25.879,37.109,27.344,31.250,83.496,0
1553807799.317,16.602,35.645,31.738,31.250,83.496,0
1553807799.321,10.742,31.738,30.273,32.715,25.879,0
1553807799.325,17.578,33.203,28.809,38.574,20.996,0
1553807799.329,16.602,32.715,27.832,37.598,52.246,0
1553807799.333,19.043,32.227,25.879,27.344,-10.742,0
1553807799.337,25.391,36.133,29.785,30.762,33.691,0
1553807799.341,23.926,35.156,29.785,34.180,127.930,0
1553807799.345,20.508,35.156,29.785,26.855,66.406,0
1553807799.349,14.160,38.086,36.133,30.273,38.574,0
1553807799.353,14.160,35.645,40.039,30.762,38.574,0
1553807799.356,18.555,34.180,39.551,30.273,75.195,0
1553807799.360,21.973,36.133,37.598,30.273,70.801,0
1553807799.364,19.043,34.180,37.109,29.297,20.020,0
1553807799.368,20.508,35.645,35.645,32.227,46.387,0
1553807799.372,16.602,32.715,32.715,22.949,71.289,0
1553807799.376,13.184,28.809,33.691,16.602,66.406,0
1553807799.380,12.695,29.297,30.273,21.973,42.480,0
1553807799.384,8.301,24.902,19.531,20.020,54.688,0
1553807799.388,15.625,29.297,23.926,20.996,41.992,0
1553807799.392,18.066,28.320,30.273,20.020,28.809,0
1553807799.396,7.324,22.461,26.367,8.301,50.293,0
1553807799.399,13.184,30.762,26.855,11.719,115.723,0
1553807799.403,14.648,32.227,27.832,19.531,84.961,0
1553807799.407,2.930,32.715,24.414,23.926,18.066,0
1553807799.411,-0.488,32.227,23.438,14.648,20.996,0
1553807799.415,1.953,29.785,25.391,13.672,20.996,0
1553807799.419,0.977,28.320,22.949,15.625,63.965,0
1553807799.423,1.953,33.203,22.461,15.137,69.824,0
1553807799.427,-0.977,28.320,24.414,15.137,42.480,0
1553807799.431,11.719,25.391,25.879,25.879,86.426,0
1553807799.435,20.996,33.691,33.691,39.062,86.914,0
1553807799.438,-15.137,29.785,31.738,15.137,71.289,0
1553807799.442,-24.414,24.902,26.855,6.348,70.312,0
1553807799.446,-6.348,21.484,33.203,13.672,91.309,0
1553807799.450,3.906,22.461,39.062,11.719,86.426,0
1553807799.454,11.719,25.879,42.480,25.391,90.820,0
1553807799.458,11.230,31.250,49.316,31.250,37.109,0
1553807799.462,9.277,31.738,45.410,34.668,9.766,0
1553807799.466,9.766,30.273,38.574,37.598,79.590,0
1553807799.470,6.836,30.273,44.922,37.109,57.129,0
1553807799.474,8.789,29.785,48.340,39.551,7.812,0
1553807799.478,10.254,25.391,48.340,41.504,49.805,0
1553807799.481,10.254,26.367,48.340,36.621,10.254,0
1553807799.485,17.090,27.832,42.480,40.527,6.348,0
1553807799.489,23.438,28.320,33.203,45.410,126.465,0
1553807799.493,17.578,33.691,37.109,33.691,116.211,0
1553807799.497,13.672,32.227,43.457,28.809,17.090,0
1553807799.501,11.230,29.297,41.016,34.668,-18.066,0
1553807799.505,11.719,23.438,37.109,34.668,30.762,0
1553807799.509,16.113,20.996,33.691,30.762,0.000,0
1553807799.513,17.090,26.367,27.344,26.367,23.438,0
1553807799.517,12.695,29.785,27.832,25.391,47.852,0
1553807799.521,11.230,31.738,28.809,26.367,54.688,0
1553807799.524,11.719,30.273,28.320,32.227,82.031,0
1553807799.528,10.742,33.203,28.320,26.367,46.875,0
1553807799.532,17.578,39.551,26.367,17.578,0.000,0
1553807799.536,8.789,36.621,27.344,18.066,-12.695,0
1553807799.540,4.395,31.738,26.367,15.625,17.090,0
1553807799.544,10.742,28.320,23.438,18.555,-28.320,0
1553807799.548,10.254,27.832,24.414,23.438,-18.066,0
1553807799.552,14.648,33.691,26.855,29.297,86.426,0
1553807799.556,19.531,37.598,26.855,26.855,85.938,0
1553807799.560,14.648,36.133,23.926,26.367,9.277,0
1553807799.563,15.625,35.156,22.949,23.926,57.129,0
1553807799.567,20.020,34.668,26.855,21.484,116.211,0
1553807799.571,17.090,33.691,29.785,26.367,81.055,0
1553807799.575,20.508,37.109,28.809,27.344,97.656,0
1553807799.579,21.484,38.574,27.832,20.996,100.586,0
1553807799.583,21.484,43.457,31.250,22.461,40.527,0
1553807799.587,18.555,46.875,35.645,32.715,79.590,0
1553807799.591,24.902,44.434,37.109,26.855,77.148,0
1553807799.595,27.832,42.480,35.156,23.438,32.227,0
1553807799.599,14.648,40.527,34.668,30.762,74.219,0
1553807799.603,15.625,37.598,35.645,25.391,68.359,0
1553807799.606,16.602,39.062,36.133,30.762,90.332,0
1553807799.610,16.602,39.551,33.691,35.645,98.145,0
1553807799.614,17.090,43.945,35.156,24.902,-12.207,0
1553807799.618,23.438,37.109,37.109,27.344,24.414,0
1553807799.622,16.602,26.855,31.738,26.855,115.723,0
1553807799.626,2.930,33.691,23.926,16.602,53.711,0
1553807799.630,4.395,38.086,23.926,17.090,-8.301,0
1553807799.634,2.930,37.598,26.855,19.043,-12.207,0
1553807799.638,5.371,38.574,25.391,20.020,24.414,0
1553807799.642,10.254,37.109,29.785,23.438,62.500,0
1553807799.646,3.418,38.086,27.832,18.555,41.992,0
1553807799.649,1.953,37.109,22.949,10.742,18.555,0
1553807799.653,7.812,40.527,28.320,9.766,-12.695,0
1553807799.657,11.230,37.598,22.949,16.602,14.648,0
1553807799.661,11.719,31.250,19.531,15.137,1.465,0
1553807799.665,7.812,37.109,26.855,19.531,1.465,0
1553807799.669,5.371,40.039,28.320,23.438,61.523,0
1553807799.673,-5.859,34.668,30.273,12.695,99.609,0
1553807799.677,-0.977,29.785,30.762,15.137,84.473,0
1553807799.681,16.113,29.785,30.273,30.273,63.477,0
1553807799.685,13.184,42.480,28.320,24.902,74.707,0
1553807799.688,-10.254,47.363,20.996,-5.859,82.520,0
1553807799.692,-6.348,47.363,20.996,4.883,63.477,0
1553807799.696,6.348,53.223,22.461,22.461,-9.766,0
1553807799.700,2.441,44.434,17.578,7.324,26.855,0
1553807799.704,-0.488,41.016,17.578,8.301,47.363,0
1553807799.708,0.488,45.410,18.066,15.137,19.531,0
1553807799.712,0.488,42.969,18.555,15.625,47.363,0
1553807799.716,1.953,40.039,21.484,17.578,72.754,0
1553807799.720,4.883,42.480,23.926,23.438,116.211,0
1553807799.724,9.277,42.969,27.832,29.785,87.891,0
1553807799.728,21.484,42.480,30.273,31.738,68.848,0
1553807799.731,22.949,44.922,27.832,24.414,41.016,0
1553807799.735,17.578,41.992,28.320,21.973,-1.953,0
1553807799.739,15.137,40.527,30.273,23.926,45.410,0
1553807799.743,22.949,44.434,30.273,26.367,52.246,0
1553807799.747,22.949,43.945,27.832,29.785,5.371,0
1553807799.751,16.113,37.598,26.367,23.926,31.250,0
1553807799.755,15.625,41.992,26.855,25.879,60.059,0
1553807799.759,16.602,50.293,24.902,30.762,65.918,0
1553807799.763,13.672,49.805,26.367,26.367,16.113,0
1553807799.767,12.695,43.945,24.902,22.461,-2.441,0
1553807799.771,20.020,42.969,22.461,25.391,2.441,0
1553807799.774,20.508,49.805,24.902,27.344,9.277,0
1553807799.778,15.625,50.781,25.391,20.996,50.293,0
1553807799.782,18.066,48.828,24.902,25.391,67.383,0
1553807799.786,25.879,50.781,22.949,34.668,53.711,0
1553807799.790,29.297,49.316,25.391,36.621,7.812,0
1553807799.794,20.020,46.875,31.250,29.297,13.184,0
1553807799.798,22.949,48.340,34.668,28.320,27.832,0
1553807799.802,22.461,47.363,35.156,28.320,-23.438,0
1553807799.806,13.672,41.992,33.203,23.926,18.555,0
1553807799.810,18.555,42.480,32.715,27.344,51.270,0
1553807799.813,20.020,40.039,31.250,23.926,37.109,0
1553807799.817,15.625,36.133,28.809,22.949,54.688,0
1553807799.821,6.348,38.086,28.320,17.090,55.664,0
1553807799.825,1.465,37.598,25.391,10.742,73.730,0
1553807799.829,8.301,41.504,25.879,10.254,66.895,0
1553807799.833,2.930,40.039,26.855,2.441,85.938,0
1553807799.837,7.324,36.133,24.902,9.277,102.051,0
1553807799.841,9.766,39.062,25.391,14.648,26.367,0
1553807799.845,2.441,35.156,26.367,9.766,-13.184,0
1553807799.849,7.812,31.250,25.391,16.113,38.086,0
1553807799.853,8.789,33.691,28.809,20.508,65.918,0
1553807799.856,7.324,35.645,31.738,20.020,36.133,0
1553807799.860,3.906,37.598,25.391,13.672,8.789,0
1553807799.864,0.000,33.691,23.926,3.418,42.480,0
1553807799.868,2.441,36.621,23.438,9.277,88.379,0
1553807799.872,8.789,48.340,25.391,15.137,96.680,0
1553807799.876,7.324,44.922,23.926,11.719,28.809,0
1553807799.880,2.930,37.598,20.996,6.836,35.156,0
1553807799.884,2.930,39.062,22.461,11.719,82.520,0
1553807799.888,-0.977,33.691,21.973,9.766,69.336,0
1553807799.892,0.977,35.156,23.438,4.883,54.199,0
1553807799.896,14.160,44.922,28.809,19.043,59.570,0
1553807799.899,10.742,43.945,35.156,18.066,77.148,0
1553807799.903,9.766,44.434,37.598,16.602,16.602,0
1553807799.907,10.254,45.898,33.691,12.695,6.348,0
1553807799.911,9.766,40.527,36.621,14.160,44.434,0
1553807799.915,8.789,41.992,37.598,22.461,-2.441,0
1553807799.919,5.371,42.969,34.180,17.578,-25.879,0
1553807799.923,11.719,42.969,35.156,30.762,2.441,0
1553807799.927,20.996,41.992,33.691,31.738,80.078,0
1553807799.931,9.766,33.203,25.391,18.066,51.270,0
1553807799.935,-8.789,32.227,21.973,12.207,-9.766,0
1553807799.938,-5.859,32.227,23.926,12.207,27.832,0
1553807799.942,-1.953,33.691,21.484,13.672,18.555,0
1553807799.946,0.977,37.598,21.484,8.301,20.020,0
1553807799.950,-1.465,37.109,19.531,5.371,10.742,0
1553807799.954,-1.953,39.062,19.043,6.836,45.898,0
1553807799.958,6.348,42.480,29.297,5.859,41.504,0
1553807799.962,5.859,33.203,29.785,12.207,40.039,0
1553807799.966,2.441,26.367,26.367,8.789,2.441,0
1553807799.970,3.906,34.180,20.508,8.301,-2.930,0
1553807799.974,4.395,36.133,12.207,9.766,80.566,0
1553807799.978,1.465,32.715,21.484,2.930,60.059,0
1553807799.981,0.977,34.668,22.461,2.441,14.160,0
1553807799.985,6.836,39.551,20.996,5.371,66.406,0
1553807799.989,11.719,42.969,25.391,2.930,65.430,0
1553807799.993,7.324,40.039,22.949,1.465,2.441,0
1553807799.997,15.137,38.574,27.344,10.742,14.160,0
1553807800.001,15.137,42.969,27.832,12.207,14.160,0
1553807800.005,7.324,46.875,24.902,13.184,63.477,0
1553807800.009,10.254,45.410,26.855,17.090,60.547,0
1553807800.013,16.602,41.992,22.461,16.602,20.020,0
1553807800.017,12.207,42.969,24.902,8.789,62.988,0
1553807800.021,15.625,48.828,36.133,17.090,125.488,0
1553807800.024,25.879,48.828,30.273,26.855,117.676,0
1553807800.028,19.531,45.410,18.066,20.508,104.004,0
1553807800.032,11.230,41.016,21.484,18.555,41.016,0
1553807800.036,15.137,34.180,26.367,20.996,-29.297,0
1553807800.040,12.207,29.297,29.785,28.320,41.504,0
1553807800.044,4.883,26.367,30.273,31.738,82.031,0
1553807800.048,13.184,34.180,25.879,27.344,67.383,0
1553807800.052,8.301,40.039,24.902,10.254,62.500,0
1553807800.056,0.000,37.598,27.832,3.906,17.090,0
1553807800.060,10.254,39.551,31.250,15.625,1.953,0
1553807800.063,9.766,36.133,27.344,7.324,41.016,0
1553807800.067,7.812,29.785,21.973,11.230,84.473,0
1553807800.071,14.160,34.668,24.902,27.344,41.016,0
1553807800.075,11.719,35.645,19.531,15.625,22.949,0
1553807800.079,10.742,36.133,13.184,13.184,48.828,0
1553807800.083,15.625,36.621,20.508,20.996,27.344,0
1553807800.087,15.137,33.203,27.832,14.648,-15.625,0
1553807800.091,14.160,37.598,33.691,21.484,-8.789,0
1553807800.095,12.695,42.480,34.668,24.414,62.012,0
1553807800.099,17.578,39.062,38.086,25.391,-0.488,0
1553807800.103,19.531,38.086,39.062,34.668,-28.809,0
1553807800.106,23.438,43.457,34.668,24.902,0.488,0
1553807800.110,20.508,41.992,32.715,22.461,32.715,0
1553807800.114,17.090,38.086,31.738,26.367,15.625,0
1553807800.118,19.043,43.945,33.203,31.250,10.742,0
1553807800.122,11.719,42.480,30.762,32.715,73.242,0
1553807800.126,6.348,34.180,25.391,21.484,33.691,0
1553807800.130,8.301,33.203,22.461,17.578,37.598,0
1553807800.134,11.230,39.062,24.902,13.672,32.715,0
1553807800.138,15.137,41.016,25.879,7.812,5.859,0
1553807800.142,19.043,40.527,25.391,10.742,31.738,0
