timestamps,TP9,AF7,AF8,TP10,Right AUX,Marker0
1542736891.959,21.484,38.086,32.227,26.855,0.977,0
1542736891.963,8.789,41.016,30.762,23.926,61.035,0
1542736891.967,-0.488,40.039,32.715,8.301,50.293,0
1542736891.971,2.930,35.156,43.945,9.766,27.344,0
1542736891.975,-12.695,31.738,42.480,13.672,48.828,0
1542736891.979,-1.953,33.691,34.180,20.508,48.828,0
1542736891.983,16.113,37.109,37.598,15.625,68.359,0
1542736891.987,10.742,39.551,40.039,12.207,28.809,0
1542736891.991,12.695,37.598,36.133,20.020,-5.859,0
1542736891.994,29.785,38.574,27.344,19.043,18.066,0
1542736891.998,26.855,42.480,29.785,22.461,24.414,0
1542736892.002,22.461,39.551,44.922,28.809,-9.766,0
1542736892.006,17.578,26.855,45.410,27.344,-18.555,0
1542736892.010,14.160,19.531,34.668,24.902,6.348,0
1542736892.014,0.488,25.879,29.785,13.184,53.223,0
1542736892.018,-25.391,31.250,29.297,15.137,85.938,0
1542736892.022,-3.418,37.109,36.133,41.992,77.637,0
1542736892.026,20.020,41.992,49.805,47.852,28.320,0
1542736892.030,13.184,41.504,41.016,28.809,12.695,0
1542736892.034,3.418,36.621,26.855,17.090,14.160,0
1542736892.037,-3.418,33.203,31.250,27.832,15.625,0
1542736892.041,11.719,32.227,33.691,14.648,-13.672,0
1542736892.045,14.648,37.598,33.691,16.113,29.785,0
1542736892.049,1.953,43.457,42.969,24.902,12.207,0
1542736892.053,12.207,42.969,48.340,28.320,-16.113,0
1542736892.057,8.789,43.945,41.016,33.203,48.828,0
1542736892.061,-7.324,35.156,27.832,11.230,15.137,0
1542736892.065,-7.324,31.738,20.508,4.395,20.996,0
1542736892.069,18.066,43.945,29.785,30.273,41.992,0
1542736892.073,20.020,55.664,40.527,35.645,32.227,0
1542736892.076,11.230,32.715,29.785,14.160,71.289,0
1542736892.080,4.883,9.766,22.461,11.719,33.203,0
1542736892.084,-12.207,13.672,27.344,14.160,32.227,0
1542736892.088,-10.254,30.762,26.367,12.207,65.918,0
1542736892.092,-3.906,46.875,29.785,3.906,44.922,0
1542736892.096,-1.953,47.363,34.668,1.465,9.766,0
1542736892.100,6.836,46.387,29.297,9.766,0.000,0
1542736892.104,12.207,40.527,25.879,17.578,61.035,0
1542736892.108,5.859,30.273,33.203,8.301,58.594,0
1542736892.112,-1.953,31.738,31.250,-7.324,3.418,0
1542736892.116,-2.441,39.551,23.438,6.348,34.668,0
1542736892.119,5.859,46.387,31.250,19.531,38.574,0
1542736892.123,5.859,46.875,39.062,17.578,17.090,0
1542736892.127,5.859,43.945,31.738,12.207,43.457,0
1542736892.131,6.348,31.250,21.484,6.836,54.199,0
1542736892.135,-0.488,9.766,14.160,3.418,53.711,0
1542736892.139,-0.977,16.602,22.949,-5.371,36.133,0
1542736892.143,16.602,24.414,22.949,0.977,24.414,0
1542736892.147,7.324,22.461,16.113,16.113,-3.418,0
1542736892.151,-7.324,28.809,21.973,15.625,16.602,0
1542736892.155,-2.441,39.062,25.879,14.648,32.227,0
1542736892.159,-2.930,40.039,23.438,11.719,11.719,0
1542736892.162,0.488,19.531,23.438,0.488,14.160,0
1542736892.166,4.883,20.996,32.227,12.695,1.465,0
1542736892.170,11.230,35.156,38.086,27.344,-33.691,0
1542736892.174,25.391,26.367,30.273,32.227,35.645,0
1542736892.178,20.020,18.066,20.020,23.438,55.664,0
1542736892.182,7.812,18.066,18.555,0.488,49.805,0
1542736892.186,-3.418,28.809,13.672,12.207,47.852,0
1542736892.190,-1.953,30.762,10.254,18.555,7.812,0
1542736892.194,16.602,24.902,24.902,14.648,49.805,0
1542736892.198,7.812,27.832,24.902,17.090,83.984,0
1542736892.201,13.672,29.297,25.391,20.996,9.277,0
1542736892.205,12.695,14.160,31.738,26.367,27.832,0
1542736892.209,-2.441,14.160,32.227,24.902,55.664,0
1542736892.213,5.371,28.809,36.133,24.902,9.277,0
1542736892.217,20.020,36.621,36.133,27.832,33.203,0
1542736892.221,20.508,34.180,28.320,16.602,47.363,0
1542736892.225,11.230,22.461,27.832,5.859,16.113,0
1542736892.229,1.465,24.414,33.691,10.254,47.363,0
1542736892.233,-3.418,31.738,32.715,7.324,75.195,0
1542736892.237,2.441,28.320,31.738,1.465,59.082,0
1542736892.241,1.953,32.227,37.598,6.348,47.852,0
1542736892.244,3.906,28.809,35.645,14.160,37.598,0
1542736892.248,-1.465,21.973,33.691,5.859,-2.441,0
1542736892.252,4.395,28.809,36.621,10.254,28.320,0
1542736892.256,5.371,26.367,32.227,8.301,36.621,0
1542736892.260,-0.488,27.832,34.180,10.254,-21.973,0
1542736892.264,9.766,32.715,42.480,29.297,-55.176,0
1542736892.268,16.602,34.180,39.062,30.273,50.781,0
1542736892.272,19.531,35.645,31.250,31.250,96.680,0
1542736892.276,5.859,26.367,30.273,26.367,50.293,0
1542736892.280,-1.465,25.879,28.809,12.695,66.406,0
1542736892.284,-2.441,35.645,22.949,17.090,49.316,0
1542736892.287,-0.488,38.574,22.949,12.207,41.992,0
1542736892.291,-5.371,31.250,23.926,15.137,52.246,0
1542736892.295,1.465,27.344,26.855,16.113,44.434,0
1542736892.299,6.348,34.668,30.273,17.578,52.246,0
1542736892.303,4.883,46.387,26.367,26.367,28.809,0
1542736892.307,9.277,53.711,28.320,37.109,40.039,0
1542736892.311,11.230,44.922,32.227,26.367,75.195,0
1542736892.315,2.441,23.438,24.902,-5.859,25.391,0
1542736892.319,-6.836,20.508,22.949,0.000,-35.645,0
1542736892.323,0.977,35.645,32.227,11.719,-0.488,0
1542736892.326,5.371,43.457,36.133,8.789,56.152,0
1542736892.330,5.859,41.016,29.297,11.230,72.754,0
1542736892.334,-8.789,31.250,15.625,-1.465,22.461,0
1542736892.338,-14.648,22.461,22.461,0.000,-34.668,0
1542736892.342,-8.789,19.531,31.738,12.207,1.953,0
1542736892.346,-20.020,21.973,21.484,6.348,0.000,0
1542736892.350,-4.395,30.273,29.297,0.488,45.898,0
1542736892.354,6.836,31.738,37.109,6.348,46.875,0
1542736892.358,-11.230,21.973,23.926,5.859,4.883,0
1542736892.362,-7.812,29.297,20.020,4.883,-1.465,0
1542736892.366,-10.742,37.109,26.367,4.395,6.348,0
1542736892.369,-15.625,34.668,30.273,5.859,45.410,0
1542736892.373,-5.371,25.879,37.598,18.066,62.500,0
1542736892.377,1.953,23.926,42.480,18.066,77.637,0
1542736892.381,0.488,35.645,35.156,14.160,83.008,0
1542736892.385,-16.113,33.203,21.484,-3.906,77.148,0
1542736892.389,-17.578,18.555,24.902,-15.625,60.059,0
1542736892.393,6.836,19.043,34.180,5.859,38.086,0
1542736892.397,7.812,33.691,32.227,10.742,46.875,0
1542736892.401,-9.766,31.738,20.996,-0.977,45.898,0
1542736892.405,-6.348,35.645,12.207,-8.789,34.668,0
1542736892.409,4.395,52.246,20.508,6.348,1.465,0
1542736892.412,3.418,49.316,34.180,25.391,19.531,0
1542736892.416,-2.930,32.227,36.133,14.648,64.453,0
1542736892.420,-3.418,29.297,36.621,8.789,19.531,0
1542736892.424,4.395,39.062,33.691,20.020,2.441,0
1542736892.428,8.301,34.668,23.438,31.738,66.895,0
1542736892.432,-5.859,20.508,23.438,21.484,51.270,0
1542736892.436,-9.766,28.809,20.996,3.418,46.875,0
1542736892.440,-0.488,35.645,16.602,8.301,106.445,0
1542736892.444,2.441,28.809,25.391,16.113,114.258,0
1542736892.448,8.789,31.250,31.250,4.395,36.621,0
1542736892.451,18.066,40.527,30.273,7.324,29.785,0
1542736892.455,5.371,40.039,35.156,19.043,70.801,0
1542736892.459,-1.465,34.668,30.762,19.043,21.484,0
1542736892.463,5.371,32.227,26.855,24.902,34.668,0
1542736892.467,20.996,33.691,37.598,20.508,65.430,0
1542736892.471,22.461,39.551,36.133,10.742,73.242,0
1542736892.475,1.465,27.832,25.879,10.254,12.695,0
1542736892.479,1.953,17.090,22.461,15.625,14.648,0
1542736892.483,6.348,40.039,32.715,19.531,-0.977,0
1542736892.487,-4.883,41.504,38.086,17.090,-19.043,0
1542736892.491,-10.254,24.902,35.156,1.465,41.504,0
1542736892.494,-8.789,27.344,25.879,13.184,6.348,0
1542736892.498,-2.441,34.668,17.090,1.465,-44.922,0
1542736892.502,-1.465,33.203,17.578,-18.066,3.906,0
1542736892.506,-2.930,33.203,19.043,-0.488,47.363,0
1542736892.510,13.184,43.457,18.066,10.254,-8.789,0
1542736892.514,20.020,55.176,27.344,18.555,33.203,0
1542736892.518,12.207,38.574,31.250,14.160,53.223,0
1542736892.522,15.137,20.508,16.602,10.254,33.203,0
1542736892.526,13.672,31.738,31.738,23.926,34.668,0
1542736892.530,0.977,40.039,35.645,22.461,7.812,0
1542736892.534,-9.277,33.203,17.578,6.348,35.156,0
1542736892.537,-8.789,37.109,22.461,11.230,11.230,0
1542736892.541,-6.836,37.109,25.879,15.625,8.301,0
1542736892.545,-11.230,21.973,20.508,2.441,34.180,0
1542736892.549,4.395,25.391,18.066,20.508,44.434,0
1542736892.553,18.555,34.668,18.555,28.320,50.293,0
1542736892.557,-2.441,35.156,24.414,0.977,45.410,0
1542736892.561,-2.930,42.480,32.227,0.488,12.695,0
1542736892.565,-0.977,38.574,30.273,-0.977,4.395,0
1542736892.569,-6.348,27.832,29.297,0.488,49.805,0
1542736892.573,-0.488,25.391,34.180,15.137,102.051,0
1542736892.576,-2.930,23.438,29.297,17.578,130.371,0
1542736892.580,-6.836,23.438,25.879,14.648,45.410,0
1542736892.584,-9.277,21.973,23.926,14.160,-23.438,0
1542736892.588,-9.766,24.414,20.996,17.578,28.320,0
1542736892.592,5.859,31.250,27.344,25.879,43.945,0
1542736892.596,13.184,36.133,27.344,20.508,38.086,0
1542736892.600,-4.883,29.297,23.926,8.789,26.367,0
1542736892.604,-17.578,25.391,27.344,14.648,8.789,0
1542736892.608,0.000,24.902,27.344,15.137,34.668,0
1542736892.612,10.742,27.832,31.738,31.738,28.809,0
1542736892.616,13.184,36.621,27.344,26.367,56.641,0
1542736892.619,19.043,33.203,21.484,-3.906,57.129,0
1542736892.623,15.137,31.250,24.414,3.906,24.414,0
1542736892.627,10.742,35.156,29.297,11.230,30.762,0
1542736892.631,11.230,35.156,24.414,1.953,58.594,0
1542736892.635,11.719,35.645,14.648,-1.953,36.621,0
1542736892.639,12.207,41.992,21.484,16.113,28.809,0
1542736892.643,11.230,39.551,23.926,19.043,56.641,0
1542736892.647,16.113,33.691,24.902,13.672,47.852,0
1542736892.651,12.207,28.320,38.574,26.367,93.750,0
1542736892.655,7.324,33.691,34.180,31.738,73.242,0
1542736892.659,1.465,38.086,21.973,23.926,-22.949,0
1542736892.662,-2.930,33.691,32.227,24.414,-11.719,0
1542736892.666,12.695,44.922,38.086,37.598,56.152,0
1542736892.670,13.184,48.340,27.344,19.043,83.008,0
1542736892.674,-1.465,38.086,20.020,3.906,39.062,0
1542736892.678,-13.184,22.949,17.090,5.859,72.754,0
1542736892.682,3.906,31.250,23.926,13.184,119.629,0
1542736892.686,8.789,40.527,30.762,20.020,62.012,0
1542736892.690,-3.906,26.367,27.344,11.230,31.738,0
1542736892.694,5.371,25.879,26.367,9.766,62.500,0
1542736892.698,5.371,32.227,30.273,19.043,45.898,0
1542736892.701,1.953,26.855,32.715,11.719,33.203,0
1542736892.705,5.859,19.531,33.203,11.230,61.035,0
1542736892.709,-4.395,22.461,34.668,6.836,2.441,0
1542736892.713,-8.789,34.668,29.785,0.488,-59.082,0
1542736892.717,-6.836,42.969,30.273,0.488,-26.367,0
1542736892.721,0.977,41.992,38.086,-2.930,37.109,0
1542736892.725,0.000,31.250,30.762,5.371,25.391,0
1542736892.729,-10.254,27.344,19.043,-7.324,46.387,0
1542736892.733,-11.230,22.949,18.555,-8.301,71.289,0
1542736892.737,-10.254,23.926,25.391,-10.742,34.668,0
1542736892.741,-0.977,32.227,23.438,-8.301,-17.090,0
1542736892.744,0.000,30.762,22.949,5.371,14.160,0
1542736892.748,-2.930,29.785,21.484,1.953,81.543,0
1542736892.752,17.578,35.156,23.926,38.086,52.734,0
1542736892.756,29.785,42.969,33.203,45.898,0.488,0
1542736892.760,-1.953,36.621,22.949,-11.719,0.977,0
1542736892.764,-12.695,24.414,21.973,-11.230,-1.953,0
1542736892.768,14.648,26.367,34.180,19.531,-3.906,0
1542736892.772,27.344,35.645,33.691,11.719,63.965,0
1542736892.776,20.020,42.969,32.715,8.789,74.707,0
1542736892.780,1.465,33.691,25.391,6.836,87.402,0
1542736892.784,14.160,32.227,24.902,1.953,50.781,0
1542736892.787,30.762,43.945,28.320,18.066,-31.250,0
1542736892.791,12.695,32.715,17.090,20.996,18.066,0
1542736892.795,-0.977,24.902,8.301,11.230,24.414,0
1542736892.799,-4.395,32.227,7.812,7.324,-51.270,0
1542736892.803,2.441,30.762,18.066,25.879,0.488,0
1542736892.807,18.555,38.086,30.762,35.645,73.242,0
1542736892.811,23.926,40.527,31.738,25.391,14.160,0
1542736892.815,19.043,36.133,31.738,12.695,27.344,0
1542736892.819,11.230,34.668,27.344,13.184,54.199,0
1542736892.823,-0.488,24.902,19.531,27.344,25.391,0
1542736892.826,-5.859,13.672,16.113,-7.324,51.270,0
1542736892.830,5.371,25.391,26.367,-5.371,37.598,0
1542736892.834,-1.953,40.527,20.996,4.395,8.301,0
1542736892.838,0.488,37.598,16.113,0.000,2.441,0
1542736892.842,11.230,43.945,35.645,25.391,5.371,0
1542736892.846,12.207,43.457,36.133,19.531,55.664,0
1542736892.850,-1.465,28.809,28.320,7.324,92.285,0
1542736892.854,-16.602,22.949,34.180,3.418,50.781,0
1542736892.858,-10.742,25.391,38.574,10.254,31.738,0
1542736892.862,2.441,30.273,32.715,19.043,55.664,0
1542736892.866,5.371,21.484,27.832,20.996,42.969,0
1542736892.869,0.977,14.160,23.438,20.996,0.488,0
1542736892.873,8.301,20.020,13.184,29.785,8.789,0
1542736892.877,37.109,43.945,18.555,47.852,-24.902,0
1542736892.881,23.926,45.898,26.855,20.996,-24.902,0
1542736892.885,1.465,27.832,27.832,-1.953,25.879,0
1542736892.889,3.418,16.602,23.438,0.488,-17.090,0
1542736892.893,0.000,14.648,23.438,6.836,-14.160,0
1542736892.897,4.395,23.926,32.715,17.578,-10.254,0
1542736892.901,14.160,24.902,33.691,18.066,20.508,0
1542736892.905,10.254,24.414,33.691,13.672,5.371,0
1542736892.909,-5.859,25.391,24.902,12.207,6.348,0
1542736892.912,-6.836,16.602,20.996,21.484,44.434,0
1542736892.916,-6.836,17.578,26.855,19.531,39.062,0
1542736892.920,0.488,25.391,30.273,25.391,30.273,0
1542736892.924,4.395,21.973,31.250,35.156,4.883,0
1542736892.928,3.906,23.926,30.273,9.277,24.414,0
1542736892.932,-6.348,28.320,30.273,1.953,37.598,0
1542736892.936,-21.484,19.531,23.926,-3.418,-12.695,0
1542736892.940,-10.254,23.438,26.367,-5.371,28.320,0
1542736892.944,6.836,31.250,31.738,20.020,45.410,0
1542736892.948,0.977,25.879,26.855,6.348,-4.395,0
1542736892.951,-6.836,36.621,32.715,1.953,19.043,0
1542736892.955,5.859,53.223,35.156,12.207,6.348,0
1542736892.959,35.156,48.340,28.320,36.133,5.371,0
1542736892.963,39.062,26.367,43.945,47.852,53.711,0
1542736892.967,-0.977,12.695,42.969,6.348,44.922,0
1542736892.971,-32.227,22.949,23.438,-23.438,9.277,0
1542736892.975,-35.156,31.738,27.344,-27.344,30.273,0
1542736892.979,-33.691,34.180,25.879,-39.551,45.898,0
1542736892.983,-48.828,29.297,22.461,-45.898,14.160,0
1542736892.987,-56.641,29.785,27.832,-40.039,65.918,0
1542736892.991,-43.457,41.016,35.645,-38.574,92.773,0
1542736892.994,-36.621,49.316,36.133,-29.297,15.137,0
1542736892.998,-58.594,33.691,20.996,-31.250,2.441,0
1542736893.002,-57.129,23.926,24.902,-18.555,66.406,0
1542736893.006,-42.969,22.461,30.762,-20.996,69.336,0
1542736893.010,-39.551,18.066,21.973,-24.902,24.414,0
1542736893.014,-24.902,26.855,17.090,5.371,31.738,0
1542736893.018,-12.207,32.715,25.879,4.395,45.410,0
1542736893.022,-13.184,27.832,29.297,-31.250,24.902,0
1542736893.026,-13.184,20.996,29.785,-7.324,41.504,0
1542736893.030,-18.066,25.391,34.668,41.504,49.316,0
1542736893.034,-1.465,43.945,33.691,81.055,64.941,0
1542736893.037,6.836,33.691,22.949,87.891,49.805,0
1542736893.041,-20.020,11.230,25.879,60.059,5.859,0
1542736893.045,-12.695,14.648,41.016,54.688,3.906,0
1542736893.049,6.348,24.902,29.785,-14.160,68.359,0
1542736893.053,11.719,37.598,17.578,-50.293,34.668,0
1542736893.057,22.461,35.645,26.855,-13.672,-29.297,0
1542736893.061,16.113,24.414,20.508,-55.664,36.621,0
1542736893.065,3.906,27.832,22.949,-59.570,25.879,0
1542736893.069,18.066,38.086,36.133,-25.391,15.137,0
1542736893.073,20.508,46.387,33.691,-25.391,30.273,0
1542736893.076,9.277,48.340,40.039,10.254,14.160,0
1542736893.080,11.719,33.203,36.133,10.742,17.578,0
1542736893.084,0.488,27.344,21.973,-6.836,-2.930,0
1542736893.088,-5.859,24.902,21.484,20.996,52.734,0
1542736893.092,11.719,17.090,12.695,30.273,59.570,0
1542736893.096,14.160,26.367,12.695,72.754,41.504,0
1542736893.100,30.273,31.738,17.090,154.785,35.645,0
1542736893.104,56.152,24.414,24.902,272.949,25.391,0
1542736893.108,53.223,22.461,51.758,299.805,18.066,0
1542736893.112,51.758,36.133,56.152,208.984,33.691,0
1542736893.116,51.758,43.457,49.805,103.516,54.688,0
1542736893.119,1.465,35.645,30.762,-78.613,25.391,0
1542736893.123,-75.195,48.340,25.391,-118.652,65.918,0
1542736893.127,-89.355,48.828,47.363,-107.422,89.844,0
1542736893.131,-104.980,20.508,70.801,-157.715,72.266,0
1542736893.135,-125.977,5.859,91.309,-181.641,57.617,0
1542736893.139,-145.508,15.137,97.168,-189.941,21.484,0
1542736893.143,-174.805,20.020,108.887,-176.758,2.441,0
1542736893.147,-193.848,12.695,118.652,-183.594,12.207,0
1542736893.151,-156.738,27.832,132.812,-125.000,38.574,0
1542736893.155,-115.723,45.410,149.414,-83.984,7.812,0
1542736893.159,-130.371,29.297,123.047,-74.219,18.555,0
1542736893.162,-79.102,34.668,99.609,-0.977,67.383,0
1542736893.166,-21.484,41.504,121.094,59.082,47.852,0
1542736893.170,-52.734,16.602,154.785,114.746,46.875,0
1542736893.174,-114.258,14.160,139.648,81.543,67.871,0
1542736893.178,-174.316,-31.250,101.074,46.875,69.824,0
1542736893.182,-136.230,-28.320,100.098,29.297,23.926,0
1542736893.186,-65.918,-6.836,115.723,-66.895,32.715,0
1542736893.190,-47.363,-33.203,134.277,-115.234,113.281,0
1542736893.194,-36.621,-28.320,133.301,-82.031,85.938,0
1542736893.198,-57.129,-34.668,126.953,-23.438,5.859,0
1542736893.201,-62.500,-56.641,116.211,-65.430,57.617,0
1542736893.205,-35.645,-37.109,95.215,-58.594,119.629,0
1542736893.209,-25.391,-12.207,96.680,1.953,160.156,0
1542736893.213,-2.441,3.906,117.676,40.039,187.500,0
1542736893.217,14.160,-7.324,130.371,80.078,161.621,0
1542736893.221,-2.930,-34.668,118.164,85.938,187.988,0
1542736893.225,23.926,-36.621,90.820,101.074,235.352,0
1542736893.229,64.453,-19.531,93.262,120.117,258.789,0
1542736893.233,43.457,-0.977,102.051,135.742,313.965,0
1542736893.237,51.758,17.578,79.102,136.719,336.426,0
1542736893.241,77.637,24.902,83.984,119.629,351.562,0
1542736893.244,51.270,-2.930,103.516,125.977,354.980,0
1542736893.248,73.242,-4.395,106.934,184.082,342.285,0
1542736893.252,84.961,-6.836,99.609,88.379,348.145,0
1542736893.256,55.664,-3.906,82.520,-45.410,320.312,0
1542736893.260,46.875,13.672,99.609,-56.152,309.082,0
1542736893.264,14.648,14.160,104.004,-18.555,328.125,0
1542736893.268,-12.695,-1.953,72.754,-15.625,382.324,0
1542736893.272,3.418,-5.371,69.824,-11.230,422.363,0
1542736893.276,19.531,3.906,85.449,-4.395,433.594,0
1542736893.280,67.383,23.926,83.496,29.785,454.102,0
1542736893.284,106.934,35.645,78.125,109.863,452.637,0
1542736893.287,97.168,19.043,92.773,135.254,455.566,0
1542736893.291,90.820,-2.441,89.844,119.141,444.336,0
1542736893.295,110.840,2.930,80.078,134.766,413.086,0
1542736893.299,157.715,32.715,101.562,145.020,411.621,0
1542736893.303,175.781,14.160,94.727,119.629,374.512,0
1542736893.307,171.875,2.930,67.383,65.430,337.891,0
1542736893.311,147.949,30.273,36.133,-7.324,334.961,0
1542736893.315,154.297,35.645,18.555,-27.344,312.500,0
1542736893.319,169.922,37.598,35.645,-34.180,295.898,0
1542736893.323,210.449,51.270,46.387,-0.488,294.434,0
1542736893.326,260.742,33.691,60.547,25.391,314.941,0
1542736893.330,249.512,-17.090,62.012,0.488,325.195,0
1542736893.334,250.488,9.277,39.062,-10.742,355.957,0
1542736893.338,231.445,55.176,31.738,-34.180,361.816,0
1542736893.342,267.090,49.805,31.738,-18.555,340.332,0
1542736893.346,317.383,45.410,25.391,32.715,354.004,0
1542736893.350,328.613,60.547,36.621,71.289,314.453,0
1542736893.354,360.352,45.898,35.156,36.621,272.949,0
1542736893.358,418.945,27.832,41.504,10.254,266.113,0
1542736893.362,467.773,30.762,74.707,36.621,215.332,0
1542736893.366,490.234,16.602,64.453,80.566,168.457,0
1542736893.369,481.445,20.508,52.246,80.566,159.668,0
1542736893.373,416.504,18.555,43.457,-13.672,109.863,0
1542736893.377,396.484,18.066,31.250,-53.223,66.895,0
1542736893.381,411.133,28.320,49.805,-51.270,23.926,0
1542736893.385,438.477,34.180,59.570,-41.992,39.062,0
1542736893.389,488.281,34.668,63.965,-12.695,55.664,0
1542736893.393,499.512,27.832,57.617,-8.301,3.418,0
1542736893.397,455.078,34.180,61.035,-7.324,1.465,0
1542736893.401,426.270,33.691,67.383,22.461,13.672,0
1542736893.405,445.801,20.996,58.594,-3.906,-0.977,0
1542736893.409,438.965,14.648,60.059,-13.672,-41.016,0
1542736893.412,401.367,31.738,56.152,25.391,-79.102,0
1542736893.416,407.227,49.805,47.363,66.406,-110.840,0
1542736893.420,430.664,58.105,33.691,125.000,-170.410,0
1542736893.424,459.473,43.457,46.387,108.398,-194.336,0
1542736893.428,452.637,29.297,61.035,34.668,-211.914,0
1542736893.432,400.391,-0.977,47.852,18.555,-235.840,0
1542736893.436,376.465,-9.277,46.875,-28.809,-245.605,0
1542736893.440,381.836,27.832,62.012,-70.801,-254.395,0
1542736893.444,340.332,39.551,59.570,-54.199,-247.559,0
1542736893.448,342.285,46.387,62.988,28.320,-237.305,0
1542736893.451,376.953,57.617,78.613,66.895,-203.613,0
1542736893.455,397.949,44.434,67.383,20.508,-226.074,0
1542736893.459,397.949,25.391,31.250,0.977,-226.562,0
1542736893.463,360.352,26.855,46.387,9.766,-158.203,0
1542736893.467,340.332,42.969,83.008,13.184,-142.578,0
1542736893.471,310.059,34.180,77.148,-2.441,-183.594,0
1542736893.475,283.691,16.113,62.012,-17.578,-184.082,0
1542736893.479,257.324,12.695,57.617,-20.020,-173.340,0
1542736893.483,254.395,21.973,73.730,13.672,-224.609,0
1542736893.487,279.297,39.062,95.215,18.555,-240.234,0
1542736893.491,292.969,56.152,94.238,17.090,-208.008,0
1542736893.494,244.629,32.227,63.477,22.461,-215.820,0
1542736893.498,209.961,11.719,51.270,-3.418,-241.211,0
1542736893.502,212.891,29.297,51.758,18.555,-184.570,0
1542736893.506,208.984,23.926,49.316,8.301,-201.172,0
1542736893.510,194.824,20.020,55.664,-25.391,-218.750,0
1542736893.514,200.195,20.020,55.664,29.785,-185.059,0
1542736893.518,229.980,4.395,44.922,39.062,-221.680,0
1542736893.522,214.355,14.648,47.363,27.832,-204.102,0
1542736893.526,187.988,31.738,62.500,31.738,-202.637,0
1542736893.530,172.852,21.484,52.734,-12.207,-199.219,0
1542736893.534,195.312,21.973,65.918,-22.949,-143.066,0
1542736893.537,195.312,33.691,73.242,-14.160,-162.598,0
1542736893.541,186.523,19.531,56.641,-1.465,-151.367,0
1542736893.545,224.609,4.883,56.152,1.953,-158.691,0
1542736893.549,198.242,7.324,65.430,-14.648,-150.391,0
1542736893.553,150.391,13.184,70.801,-25.391,-106.934,0
1542736893.557,174.805,29.785,74.219,-20.020,-105.957,0
1542736893.561,204.102,41.992,73.730,2.441,-79.102,0
1542736893.565,178.711,20.996,57.129,0.000,-104.004,0
1542736893.569,187.988,29.785,67.871,0.000,-115.234,0
1542736893.573,178.223,29.785,68.848,6.348,-45.898,0
1542736893.576,140.625,-8.301,53.223,-10.742,-20.508,0
1542736893.580,142.578,-17.090,57.129,-4.395,-95.215,0
1542736893.584,128.418,-9.766,50.781,9.277,-72.754,0
1542736893.588,141.602,-9.277,48.828,-4.883,-82.031,0
1542736893.592,182.129,-8.789,75.195,4.883,-63.965,0
1542736893.596,176.270,-2.441,86.426,16.602,-53.223,0
1542736893.600,164.062,20.996,69.336,24.902,-105.469,0
1542736893.604,174.805,17.578,65.918,35.156,-83.984,0
1542736893.608,165.527,4.883,88.867,38.574,-58.105,0
1542736893.612,170.410,4.883,81.055,102.539,-16.113,0
1542736893.616,175.781,3.906,46.875,102.051,-4.883,0
1542736893.619,135.254,8.301,59.082,32.715,-37.598,0
1542736893.623,131.348,19.043,91.797,14.160,10.254,0
1542736893.627,139.648,32.227,91.309,17.090,-15.625,0
1542736893.631,145.020,33.691,71.777,-30.762,-34.668,0
1542736893.635,146.973,6.836,67.383,-80.078,-43.945,0
1542736893.639,136.230,-5.859,66.406,-60.059,-84.473,0
1542736893.643,145.996,9.277,72.266,-41.016,-47.363,0
1542736893.647,148.438,17.090,81.543,-18.555,3.418,0
1542736893.651,146.973,12.695,74.219,0.977,-9.277,0
1542736893.655,162.109,6.348,72.266,-12.207,0.488,0
1542736893.659,160.645,-0.488,71.777,-21.484,46.875,0
1542736893.662,129.395,-5.859,78.125,-4.883,61.523,0
1542736893.666,159.180,10.254,78.613,-10.742,15.625,0
1542736893.670,186.035,26.367,60.059,-32.715,-27.344,0
1542736893.674,153.809,31.738,60.547,-19.531,-17.578,0
1542736893.678,159.180,23.926,78.125,-6.348,-32.227,0
1542736893.682,166.992,15.137,81.543,-9.766,-57.129,0
1542736893.686,151.855,19.531,73.730,0.977,-11.719,0
1542736893.690,118.164,16.113,79.590,11.230,62.500,0
1542736893.694,104.980,13.184,86.914,10.742,48.340,0
1542736893.698,104.492,18.555,84.961,3.906,22.949,0
1542736893.701,79.102,16.113,91.309,2.930,17.578,0
1542736893.705,66.406,11.230,100.586,-8.789,-8.789,0
1542736893.709,47.363,3.418,96.680,-33.691,32.227,0
1542736893.713,47.363,-7.324,88.379,-39.062,30.273,0
1542736893.717,87.891,-13.672,98.145,1.953,-11.230,0
1542736893.721,111.816,7.324,104.492,6.348,17.578,0
1542736893.725,89.355,26.855,87.402,-64.453,-15.625,0
1542736893.729,72.266,17.090,79.590,-97.656,0.488,0
1542736893.733,86.914,25.879,82.031,-110.352,30.273,0
1542736893.737,72.266,31.250,89.844,-124.512,13.184,0
1542736893.741,42.480,29.297,89.844,-147.949,19.043,0
1542736893.744,36.133,37.598,74.707,-177.734,-21.973,0
1542736893.748,1.465,46.387,66.406,-165.039,-26.855,0
1542736893.752,-53.223,48.340,60.547,-154.785,35.645,0
1542736893.756,-105.957,68.359,64.941,-169.922,29.297,0
1542736893.760,-110.352,82.520,75.684,-155.762,11.719,0
1542736893.764,-122.070,67.871,65.918,-183.105,-21.973,0
1542736893.768,-148.438,62.988,49.805,-219.727,20.996,0
1542736893.772,-131.348,69.336,27.832,-230.957,19.531,0
1542736893.776,-125.000,88.379,13.184,-241.211,13.184,0
1542736893.780,-90.820,103.516,21.484,-225.586,12.695,0
1542736893.784,-65.430,99.609,17.090,-220.703,-19.531,0
1542736893.787,-54.199,107.910,14.160,-201.172,12.207,0
1542736893.791,-35.645,120.117,15.625,-185.547,27.832,0
1542736893.795,-29.297,111.328,-0.977,-160.645,-5.859,0
1542736893.799,-16.113,105.469,-1.953,-129.395,16.602,0
1542736893.803,14.160,108.887,-5.859,-132.324,30.762,0
1542736893.807,47.363,108.887,-20.020,-109.375,22.949,0
1542736893.811,32.715,94.238,-19.531,-100.098,51.758,0
1542736893.815,5.371,98.633,-20.020,-95.215,62.500,0
1542736893.819,13.672,104.980,-28.320,-73.730,0.977,0
1542736893.823,31.738,83.984,-35.156,-51.270,-23.926,0
1542736893.826,9.277,74.707,-41.016,-26.367,3.418,0
1542736893.830,-20.020,93.262,-50.293,-24.902,-78.125,0
1542736893.834,2.930,96.680,-57.617,-11.230,-63.965,0
1542736893.838,24.902,85.449,-52.246,34.668,-4.395,0
1542736893.842,37.109,83.008,-29.785,42.969,-19.043,0
1542736893.846,48.828,76.172,-28.320,24.414,22.461,0
1542736893.850,62.500,54.688,-33.691,41.504,27.344,0
1542736893.854,68.359,45.410,-29.785,81.055,2.441,0
1542736893.858,65.430,56.641,-32.227,80.566,-37.109,0
1542736893.862,31.738,50.781,-41.992,59.082,-42.480,0
1542736893.866,11.230,43.945,-40.039,60.059,60.059,0
1542736893.869,24.902,44.434,-31.250,71.777,73.730,0
1542736893.873,34.668,46.875,-36.621,74.707,62.012,0
1542736893.877,38.086,45.410,-36.621,82.031,95.215,0
1542736893.881,40.039,38.086,-36.133,83.984,90.820,0
1542736893.885,47.363,43.457,-37.109,91.797,42.480,0
1542736893.889,43.945,46.387,-35.645,93.262,11.719,0
1542736893.893,45.410,42.480,-33.203,88.867,34.668,0
1542736893.897,53.223,44.434,-18.555,107.910,34.668,0
1542736893.901,12.695,32.715,-10.254,105.957,12.207,0
1542736893.905,-6.348,25.391,-18.555,99.121,17.578,0
1542736893.909,7.812,33.203,-18.066,86.426,35.156,0
1542736893.912,2.441,23.438,-10.742,91.309,27.832,0
1542736893.916,-7.812,17.578,-5.859,101.074,19.531,0
1542736893.920,-13.184,23.438,-10.742,83.496,62.012,0
1542736893.924,-21.484,27.832,-5.859,83.984,83.008,0
1542736893.928,-37.598,24.414,16.113,87.891,53.711,0
1542736893.932,-38.574,13.672,21.484,82.520,41.992,0
1542736893.936,-27.344,10.742,10.742,71.777,101.074,0
1542736893.940,-13.184,19.043,7.324,82.520,132.812,0
1542736893.944,-8.789,21.484,14.160,84.961,73.730,0
1542736893.948,-8.789,24.414,28.320,74.707,116.699,0
1542736893.951,-23.438,25.879,38.574,102.539,139.160,0
1542736893.955,-68.848,10.742,25.391,103.516,83.008,0
1542736893.959,-83.496,7.812,27.832,82.031,86.914,0
1542736893.963,-90.820,5.371,30.762,65.430,168.457,0
1542736893.967,-102.051,-3.418,20.508,64.941,262.695,0
1542736893.971,-83.008,-2.441,22.949,95.215,318.848,0
1542736893.975,-85.449,4.395,39.551,113.770,384.277,0
1542736893.979,-106.445,6.348,47.852,75.684,455.078,0
1542736893.983,-105.957,5.859,42.969,34.668,487.793,0
1542736893.987,-104.004,14.648,40.527,35.645,602.051,0
1542736893.991,-91.309,17.090,36.621,40.039,729.004,0
1542736893.994,-75.684,12.695,29.785,38.086,854.004,0
1542736893.998,-62.500,8.789,35.645,35.645,984.863,0
1542736894.002,-63.965,5.371,45.410,41.992,-998.535,0
1542736894.006,-90.820,6.836,36.621,28.809,995.605,0
1542736894.010,-92.773,8.301,35.645,26.367,-1000.000,0
1542736894.014,-76.172,12.207,39.062,20.020,999.512,0
1542736894.018,-79.590,17.090,32.227,15.137,999.512,0
1542736894.022,-76.660,20.996,33.203,33.203,999.512,0
1542736894.026,-74.707,21.484,40.039,44.922,999.023,0
1542736894.030,-78.125,17.090,39.062,47.363,996.582,0
1542736894.034,-68.848,18.555,41.992,56.152,-997.070,0
1542736894.037,-63.965,17.090,41.016,47.852,946.289,0
1542736894.041,-69.336,12.207,31.250,25.879,853.027,0
1542736894.045,-74.219,16.602,41.016,32.227,794.434,0
1542736894.049,-83.984,16.113,48.828,27.344,740.723,0
1542736894.053,-78.613,16.113,34.668,3.906,624.512,0
1542736894.057,-56.152,15.625,25.879,-1.953,521.484,0
1542736894.061,-43.457,12.695,41.016,18.555,489.258,0
1542736894.065,-56.641,9.277,52.734,28.320,416.504,0
1542736894.069,-74.219,9.277,43.457,6.348,361.328,0
1542736894.073,-90.820,15.625,35.156,13.184,306.641,0
1542736894.076,-111.328,23.438,45.898,39.551,254.395,0
1542736894.080,-110.352,29.297,53.711,26.367,217.285,0
1542736894.084,-105.957,24.414,50.781,14.160,167.480,0
1542736894.088,-84.961,24.414,44.922,9.766,96.191,0
1542736894.092,-67.383,42.480,49.316,2.930,23.926,0
1542736894.096,-62.012,45.898,48.340,9.277,-48.828,0
1542736894.100,-58.594,41.992,35.645,15.137,-131.348,0
1542736894.104,-58.594,51.758,34.668,31.738,-215.820,0
1542736894.108,-54.688,37.109,26.855,31.250,-255.859,0
1542736894.112,-54.199,22.461,22.949,0.488,-333.984,0
1542736894.116,-54.199,34.180,30.762,-4.883,-416.016,0
1542736894.119,-58.594,40.039,29.297,2.441,-461.914,0
1542736894.123,-56.641,44.434,31.738,-1.465,-538.574,0
1542736894.127,-52.734,42.480,34.180,-13.672,-604.980,0
1542736894.131,-53.711,39.551,35.645,-16.602,-698.730,0
1542736894.135,-57.129,44.434,39.062,0.977,-818.359,0
1542736894.139,-60.547,38.574,34.668,-5.371,-887.695,0
1542736894.143,-62.012,36.133,29.785,-27.344,-923.340,0
1542736894.147,-59.570,36.133,36.621,-21.484,-967.773,0
1542736894.151,-61.523,26.367,36.621,21.484,-925.293,0
1542736894.155,-35.156,30.762,35.645,64.453,-848.145,0
1542736894.159,-40.527,35.645,42.969,28.320,-837.891,0
1542736894.162,-69.824,36.621,41.992,0.000,-815.430,0
1542736894.166,-55.664,42.480,36.133,33.691,-743.164,0
1542736894.170,-52.246,41.504,34.180,4.883,-661.621,0
1542736894.174,-53.711,36.621,35.156,12.207,-660.156,0
1542736894.178,-36.133,35.156,38.086,54.688,-647.461,0
1542736894.182,-17.090,33.203,40.039,26.367,-594.727,0
1542736894.186,-41.504,33.691,44.434,7.812,-524.414,0
1542736894.190,-57.129,38.086,43.945,17.578,-473.145,0
1542736894.194,-43.457,38.574,44.434,31.250,-441.895,0
1542736894.198,-32.715,32.715,48.828,61.523,-385.742,0
1542736894.201,-17.578,30.273,46.875,68.848,-370.117,0
1542736894.205,-4.883,32.227,49.805,46.875,-303.711,0
1542736894.209,15.137,36.133,49.805,75.195,-279.297,0
1542736894.213,25.391,40.527,49.316,92.285,-264.160,0
1542736894.217,15.625,40.039,51.758,54.688,-204.590,0
1542736894.221,19.043,35.156,57.617,66.406,-216.309,0
1542736894.225,17.578,36.133,61.035,70.312,-261.719,0
1542736894.229,9.766,41.504,54.688,60.547,-241.211,0
1542736894.233,5.859,43.457,45.410,65.430,-198.242,0
1542736894.237,8.301,37.109,41.992,52.246,-171.875,0
1542736894.241,-19.043,23.438,43.457,56.641,-207.520,0
1542736894.244,-35.645,22.949,43.945,75.195,-185.059,0
1542736894.248,-22.461,30.762,42.969,70.801,-52.246,0
1542736894.252,-41.016,37.109,37.598,54.199,-80.566,0
1542736894.256,-49.316,35.156,29.297,49.805,-119.629,0
1542736894.260,-39.062,36.621,25.879,34.180,-55.176,0
1542736894.264,-26.367,40.039,24.902,14.648,-13.672,0
1542736894.268,-20.996,42.969,32.715,22.949,-5.371,0
1542736894.272,-34.180,42.969,40.039,28.320,-41.016,0
1542736894.276,-52.246,39.062,34.668,18.555,-85.449,0
1542736894.280,-50.293,39.551,36.133,22.949,-64.453,0
1542736894.284,-53.223,41.504,37.109,13.184,-31.250,0
1542736894.287,-70.312,43.945,32.715,7.324,-50.781,0
1542736894.291,-60.547,44.434,33.203,24.414,-88.867,0
1542736894.295,-42.480,42.969,36.621,30.273,-44.922,0
1542736894.299,-62.988,42.969,38.574,50.781,52.246,0
1542736894.303,-67.871,45.410,38.086,40.527,36.621,0
1542736894.307,-46.875,45.898,39.551,22.461,33.203,0
1542736894.311,-56.641,42.969,39.062,25.879,80.566,0
1542736894.315,-62.012,45.898,29.785,10.254,97.656,0
1542736894.319,-52.246,46.387,29.297,13.672,81.055,0
1542736894.323,-53.223,45.410,34.180,15.625,58.594,0
1542736894.326,-55.664,46.387,39.551,-1.953,76.660,0
1542736894.330,-53.711,42.480,40.527,14.160,85.449,0
1542736894.334,-58.105,40.039,30.762,0.977,58.105,0
1542736894.338,-39.062,46.387,28.809,2.930,69.336,0
1542736894.342,-23.926,44.434,41.016,32.715,78.613,0
1542736894.346,-58.594,31.738,52.734,8.301,36.621,0
1542736894.350,-70.801,34.180,54.199,0.000,3.418,0
1542736894.354,-55.664,41.016,53.711,7.812,39.551,0
1542736894.358,-39.062,41.016,55.664,23.926,23.438,0
1542736894.362,-39.551,35.156,57.617,22.949,-14.648,0
1542736894.366,-33.691,29.785,61.035,3.906,1.953,0
1542736894.369,-16.602,30.762,66.406,27.344,-17.090,0
1542736894.373,-12.207,30.762,68.848,44.434,-50.781,0
1542736894.377,-4.395,27.832,63.477,48.828,-64.453,0
1542736894.381,9.766,26.855,59.082,57.617,-59.082,0
1542736894.385,-0.977,20.020,53.711,82.520,-31.738,0
1542736894.389,6.836,3.906,55.664,70.801,-17.090,0
1542736894.393,12.207,-4.395,55.664,39.062,17.090,0
1542736894.397,-13.672,-2.930,50.781,52.734,46.875,0
1542736894.401,-17.090,-3.418,52.246,56.152,108.887,0
1542736894.405,-20.508,-5.859,57.129,47.363,284.668,0
1542736894.409,-18.066,-7.812,57.617,51.758,530.273,0
1542736894.412,-17.578,-11.230,57.617,54.688,750.977,0
1542736894.416,-16.113,-14.648,56.152,71.289,916.016,0
1542736894.420,-20.508,-9.766,50.781,80.078,-1000.000,0
1542736894.424,-42.969,-5.371,48.340,60.547,997.070,0
1542736894.428,-30.762,-8.301,50.293,69.824,998.047,0
1542736894.432,-6.836,-7.324,46.387,72.754,999.512,0
1542736894.436,-20.996,-2.930,42.480,61.035,997.070,0
1542736894.440,-19.043,-5.371,42.969,49.805,-997.559,0
1542736894.444,-17.090,-3.906,41.016,27.832,962.891,0
1542736894.448,-22.461,-1.465,41.992,38.086,865.234,0
1542736894.451,-10.742,-10.254,41.504,35.645,782.227,0
1542736894.455,-6.836,-20.996,42.480,-17.578,691.895,0
1542736894.459,-1.953,-28.809,44.922,-35.156,606.445,0
1542736894.463,-1.953,-25.879,46.387,3.418,538.574,0
1542736894.467,2.441,-17.090,50.293,42.480,458.984,0
1542736894.471,7.324,-15.625,51.270,35.645,381.348,0
1542736894.475,13.672,-12.207,51.758,4.883,265.137,0
1542736894.479,8.789,-11.230,56.641,19.531,153.320,0
1542736894.483,0.488,-13.184,56.641,36.133,80.566,0
1542736894.487,-2.441,-10.254,50.293,32.227,-14.648,0
1542736894.491,-9.277,-5.859,50.293,30.273,-103.516,0
1542736894.494,-13.672,-8.301,53.223,32.227,-163.086,0
1542736894.498,-12.207,-9.277,49.805,28.809,-247.559,0
1542736894.502,-28.809,-5.859,46.875,20.508,-371.582,0
1542736894.506,-38.574,-4.395,48.828,40.527,-434.570,0
1542736894.510,-24.414,2.441,45.410,37.598,-478.516,0
1542736894.514,-10.742,9.277,39.062,20.996,-540.527,0
1542736894.518,-8.301,14.648,38.574,14.160,-600.586,0
1542736894.522,-18.066,21.973,41.016,-6.836,-626.465,0
1542736894.526,-23.438,23.438,41.504,4.395,-604.492,0
1542736894.530,-16.602,16.602,41.992,35.645,-564.941,0
1542736894.534,-5.371,11.230,41.992,23.926,-574.219,0
1542736894.537,-20.996,14.160,40.527,17.578,-605.469,0
1542736894.541,-30.762,20.508,40.039,1.953,-537.109,0
1542736894.545,-26.367,19.531,42.969,-11.230,-435.547,0
1542736894.549,-21.484,15.137,41.504,14.160,-426.270,0
1542736894.553,-19.043,14.648,44.434,22.461,-406.738,0
1542736894.557,-12.695,20.508,46.387,33.691,-399.414,0
1542736894.561,2.441,23.438,35.645,34.180,-412.598,0
1542736894.565,-14.160,24.902,27.832,20.508,-353.516,0
1542736894.569,-28.809,24.902,32.227,14.648,-324.219,0
1542736894.573,-19.531,22.461,36.621,15.625,-319.336,0
1542736894.576,-5.371,24.414,33.691,12.695,-294.434,0
1542736894.580,-9.277,28.809,29.785,21.484,-287.598,0
1542736894.584,-23.438,29.785,32.227,17.578,-267.090,0
1542736894.588,-28.809,24.902,31.250,8.301,-210.938,0
1542736894.592,-36.133,21.973,29.785,2.441,-241.211,0
1542736894.596,-41.504,23.926,35.645,1.953,-229.492,0
1542736894.600,-31.250,19.531,37.109,8.789,-226.074,0
1542736894.604,-14.160,17.578,33.691,5.371,-182.617,0
1542736894.608,-29.785,21.973,30.273,23.438,-123.535,0
1542736894.612,-48.828,21.484,29.785,22.949,-91.309,0
1542736894.616,-46.387,20.508,30.762,17.090,-142.578,0
1542736894.619,-36.621,20.020,27.344,18.555,-162.109,0
1542736894.623,-35.645,20.020,26.855,19.531,-151.367,0
1542736894.627,-28.320,20.996,25.879,29.785,-160.156,0
1542736894.631,-22.949,20.508,25.879,29.785,-94.727,0
1542736894.635,-36.621,22.461,29.785,17.578,-48.340,0
1542736894.639,-38.086,27.832,29.785,-5.371,-63.965,0
1542736894.643,-23.438,29.297,28.809,-3.906,-41.504,0
1542736894.647,-23.438,33.203,27.344,12.207,-5.371,0
1542736894.651,-18.555,32.715,26.367,25.391,-61.523,0
1542736894.655,-13.672,30.762,24.414,11.230,-77.637,0
1542736894.659,-29.785,26.855,25.391,14.648,-66.895,0
1542736894.662,-34.180,25.391,23.926,47.852,-30.273,0
1542736894.666,-25.391,28.809,22.949,55.664,-36.133,0
1542736894.670,-13.672,30.273,24.902,28.809,-41.016,0
1542736894.674,-20.508,28.809,20.996,21.973,-28.320,0
1542736894.678,-29.785,25.879,23.926,26.855,-48.828,0
1542736894.682,-25.879,25.879,20.996,26.855,-0.977,0
1542736894.686,-22.949,25.879,17.578,62.012,30.762,0
1542736894.690,-12.207,26.855,19.043,40.039,-25.391,0
1542736894.694,-3.418,29.297,10.742,-19.531,-62.012,0
1542736894.698,1.465,34.668,7.324,-23.438,24.414,0
1542736894.701,-7.812,38.574,14.648,-23.438,62.988,0
1542736894.705,-17.090,35.645,19.531,0.977,8.301,0
1542736894.709,-9.766,29.785,23.438,17.578,-24.414,0
1542736894.713,3.906,33.203,22.949,0.488,19.043,0
1542736894.717,2.930,37.109,19.531,10.742,57.617,0
1542736894.721,-8.789,32.715,20.020,24.414,25.879,0
1542736894.725,-3.418,25.879,23.926,27.344,20.996,0
1542736894.729,-17.578,28.809,21.484,11.719,8.789,0
1542736894.733,-16.602,34.668,17.090,-8.789,3.906,0
1542736894.737,-10.742,33.203,17.578,2.930,-14.160,0
1542736894.741,-19.531,29.297,20.508,14.648,-39.062,0
1542736894.744,-16.602,25.391,20.508,12.207,7.324,0
1542736894.748,-12.207,26.367,25.391,19.531,20.508,0
1542736894.752,-13.672,29.297,26.855,59.082,-1.465,0
1542736894.756,-16.602,26.855,22.949,62.012,32.715,0
1542736894.760,-11.719,25.879,22.461,32.715,57.129,0
1542736894.764,2.441,31.738,19.043,15.625,80.078,0
1542736894.768,4.883,29.785,17.578,13.184,51.270,0
1542736894.772,5.859,24.414,21.484,22.949,-21.973,0
1542736894.776,14.648,21.973,20.508,0.977,7.812,0
1542736894.780,24.414,22.949,15.137,-13.184,67.383,0
1542736894.784,39.551,25.391,16.113,-13.184,51.758,0
1542736894.787,28.809,24.902,18.066,-14.160,59.082,0
1542736894.791,16.602,26.367,19.531,-0.488,85.938,0
1542736894.795,5.859,24.902,22.461,16.602,70.801,0
1542736894.799,-18.555,15.137,21.484,33.691,16.113,0
1542736894.803,-29.785,16.113,22.949,22.461,14.648,0
1542736894.807,-9.277,21.484,23.438,21.973,74.707,0
1542736894.811,0.977,20.996,18.555,36.621,62.012,0
1542736894.815,2.441,21.973,18.555,39.551,12.207,0
1542736894.819,19.531,20.020,24.902,28.809,63.965,0
1542736894.823,1.465,20.996,26.367,28.320,98.633,0
1542736894.826,-11.230,27.344,22.949,41.504,93.750,0
1542736894.830,13.672,27.344,26.855,23.438,65.918,0
1542736894.834,12.695,21.484,31.738,28.809,34.668,0
1542736894.838,12.695,24.414,28.809,42.480,43.457,0
1542736894.842,25.391,22.461,32.715,21.484,74.219,0
1542736894.846,29.785,16.602,40.039,33.203,107.910,0
1542736894.850,30.762,28.809,33.691,58.105,144.043,0
1542736894.854,37.598,36.621,27.344,10.742,182.617,0
1542736894.858,18.066,34.180,23.438,-39.551,232.910,0
1542736894.862,3.418,32.227,21.484,-45.898,296.387,0
1542736894.866,7.812,36.133,21.484,-39.062,336.426,0
1542736894.869,-16.113,33.691,16.113,-49.805,336.914,0
1542736894.873,-15.137,18.555,14.648,-58.105,357.422,0
1542736894.877,-17.090,11.230,11.719,-49.316,408.691,0
1542736894.881,-41.992,12.207,1.953,-60.547,444.336,0
1542736894.885,-19.531,18.555,-6.836,-65.918,468.262,0
1542736894.889,-14.648,21.973,-7.324,-76.660,468.750,0
1542736894.893,-36.133,22.949,-4.883,-54.688,458.984,0
1542736894.897,-29.297,23.926,-0.977,-45.410,468.262,0
1542736894.901,-26.367,34.668,1.465,-58.594,526.367,0
1542736894.905,-26.855,38.086,0.977,-38.574,576.172,0
1542736894.909,-26.367,26.367,5.859,-28.809,583.496,0
1542736894.912,-31.250,27.832,11.230,-28.809,595.215,0
1542736894.916,-26.367,32.715,15.625,-23.438,628.418,0
1542736894.920,-20.996,31.250,20.508,-3.418,616.699,0
1542736894.924,-26.367,29.785,20.020,46.875,570.801,0
1542736894.928,-17.578,31.738,21.484,27.832,537.598,0
1542736894.932,-13.184,36.133,29.785,-0.977,492.676,0
1542736894.936,-22.461,24.902,36.621,11.230,435.547,0
1542736894.940,-13.184,22.461,26.855,-4.883,379.883,0
1542736894.944,0.977,38.574,16.113,2.930,346.191,0
1542736894.948,-11.719,37.598,20.020,4.395,286.621,0
1542736894.951,-26.367,38.086,16.602,-2.930,209.961,0
1542736894.955,-14.160,33.203,19.043,-19.043,166.016,0
1542736894.959,-13.184,33.691,19.531,-25.879,113.281,0
1542736894.963,-9.277,33.691,15.137,-4.883,57.129,0
1542736894.967,-17.578,32.715,18.066,-7.324,27.832,0
1542736894.971,-26.367,42.969,22.949,-16.113,-47.852,0
1542736894.975,-20.996,49.316,29.297,-9.766,-106.934,0
1542736894.979,-14.648,37.598,30.762,-6.836,-145.508,0
1542736894.983,-7.324,20.020,29.297,-25.879,-196.777,0
1542736894.987,-29.297,24.902,18.066,-47.363,-262.695,0
1542736894.991,-55.664,29.785,11.719,-48.828,-313.965,0
1542736894.994,-39.062,28.320,17.090,-25.391,-338.379,0
1542736894.998,-29.785,22.461,20.996,-2.441,-344.238,0
1542736895.002,-43.457,20.508,28.320,-14.160,-321.289,0
1542736895.006,-41.016,23.926,24.414,-5.859,-296.387,0
1542736895.010,-26.367,29.297,15.625,-1.465,-286.133,0
1542736895.014,-35.645,34.668,17.578,-3.906,-254.883,0
1542736895.018,-46.875,31.250,23.438,7.324,-187.988,0
1542736895.022,-49.805,27.832,20.508,-23.438,-180.176,0
1542736895.026,-44.922,31.250,11.719,-28.809,-194.824,0
1542736895.030,-22.461,30.273,11.230,-16.113,-173.828,0
1542736895.034,-19.531,27.832,21.484,-37.109,-159.668,0
1542736895.037,-12.695,17.090,30.273,-32.715,-145.508,0
1542736895.041,-27.832,19.531,24.414,-22.949,-133.789,0
1542736895.045,-44.922,33.691,16.602,-27.832,-140.625,0
1542736895.049,-42.969,45.898,15.137,-21.484,-121.582,0
1542736895.053,-36.133,48.828,19.531,5.371,-140.625,0
1542736895.057,-39.062,42.969,22.461,-8.301,-191.895,0
1542736895.061,-32.227,39.551,23.926,-3.906,-159.180,0
1542736895.065,-15.137,42.969,21.973,27.832,-157.227,0
1542736895.069,-18.066,56.641,18.066,22.461,-184.082,0
1542736895.073,-19.043,67.383,14.648,-2.441,-226.562,0
1542736895.076,-51.758,66.406,2.441,-19.531,-237.793,0
1542736895.080,-64.941,57.129,-3.906,-40.527,-219.238,0
1542736895.084,-40.527,60.059,-3.906,-41.504,-182.129,0
1542736895.088,-41.016,64.453,-10.742,-55.176,-160.645,0
1542736895.092,-41.504,68.359,-18.066,-67.871,-164.062,0
1542736895.096,-17.090,82.031,-20.020,-19.531,-128.906,0
1542736895.100,-20.996,86.426,-13.184,-12.207,-159.180,0
1542736895.104,-32.715,77.148,-12.207,-54.688,-189.941,0
1542736895.108,-34.668,65.430,-13.672,-44.922,-134.766,0
1542736895.112,-45.898,59.082,-15.625,-26.855,-124.512,0
1542736895.116,-48.828,52.246,-16.602,-44.434,-159.180,0
1542736895.119,-45.898,49.805,-14.160,-46.875,-96.191,0
1542736895.123,-25.391,54.199,-15.625,-53.223,-61.523,0
1542736895.127,-37.109,48.340,-14.648,-44.434,-30.273,0
1542736895.131,-29.785,46.387,-14.648,-28.320,135.254,0
1542736895.135,-18.555,57.617,-8.789,-16.602,298.340,0
1542736895.139,-37.109,55.176,1.953,-8.789,435.059,0
1542736895.143,-26.855,48.340,0.000,-6.836,559.082,0
1542736895.147,-27.344,46.387,-6.836,-18.555,619.629,0
1542736895.151,-40.039,44.922,-3.906,-27.344,659.668,0
1542736895.155,-26.367,41.016,0.488,-28.320,669.434,0
1542736895.159,-15.137,35.645,-5.371,-37.109,646.973,0
1542736895.162,-22.949,41.016,-0.488,-40.039,561.035,0
1542736895.166,-33.203,53.711,5.371,-15.137,433.594,0
1542736895.170,-34.668,58.594,-4.883,-3.418,302.734,0
1542736895.174,-31.738,56.152,2.930,-11.230,115.234,0
1542736895.178,-34.180,49.316,10.742,2.441,-98.633,0
1542736895.182,-27.832,41.016,9.766,16.113,-261.230,0
1542736895.186,-34.180,37.598,14.160,-3.418,-329.102,0
1542736895.190,-36.133,36.133,13.672,-27.344,-324.219,0
1542736895.194,-30.762,30.762,11.719,-5.859,-390.625,0
1542736895.198,-27.344,31.738,18.066,17.578,-416.504,0
1542736895.201,-38.086,25.879,23.438,18.066,-369.629,0
1542736895.205,-46.387,20.508,25.879,4.395,-326.660,0
1542736895.209,-32.227,35.645,23.438,11.230,-303.711,0
1542736895.213,-36.133,48.340,11.230,9.277,-259.766,0
1542736895.217,-31.738,62.012,18.066,-1.465,-245.605,0
1542736895.221,-8.789,60.547,30.762,4.395,-289.062,0
1542736895.225,-22.949,41.504,19.043,-15.137,-256.348,0
1542736895.229,-42.969,27.832,5.371,-21.484,-306.641,0
1542736895.233,-49.316,21.484,2.930,-35.156,-286.133,0
1542736895.237,-73.242,20.020,5.859,-23.438,-174.805,0
1542736895.241,-69.336,30.762,15.625,14.160,-152.344,0
1542736895.244,-41.016,39.062,19.043,0.488,-172.363,0
1542736895.248,-49.805,39.062,16.602,-16.602,-240.234,0
1542736895.252,-57.129,36.133,12.695,-20.996,-218.262,0
1542736895.256,-41.016,32.715,12.695,-15.625,-156.738,0
1542736895.260,-39.551,31.250,15.625,-21.973,-147.949,0
1542736895.264,-40.527,33.203,13.184,-10.254,-155.273,0
1542736895.268,-49.805,32.715,9.766,-1.465,-132.324,0
1542736895.272,-37.109,36.621,7.812,-16.113,-42.969,0
1542736895.276,-4.883,38.086,11.230,-11.230,-57.129,0
1542736895.280,-6.348,29.785,12.695,7.812,-114.746,0
1542736895.284,-19.531,31.738,16.113,-2.930,-32.715,0
1542736895.287,-26.855,29.297,21.973,2.441,-23.438,0
1542736895.291,-21.484,27.344,20.020,3.418,-88.379,0
1542736895.295,-15.137,34.180,16.113,-15.625,-31.738,0
1542736895.299,-20.508,34.668,11.230,-18.066,-51.270,0
1542736895.303,2.930,31.250,4.395,-18.555,-91.797,0
1542736895.307,19.043,39.551,8.789,5.371,-65.918,0
1542736895.311,-2.441,45.898,22.461,13.184,-6.348,0
1542736895.315,-20.508,42.480,27.344,-8.301,37.109,0
1542736895.319,-35.156,41.016,33.691,6.348,-15.137,0
1542736895.323,-36.621,37.109,31.250,8.301,21.973,0
1542736895.326,-45.410,39.551,13.672,-4.883,74.707,0
1542736895.330,-49.316,46.387,18.555,1.953,3.418,0
1542736895.334,-67.871,46.387,29.297,-19.531,34.180,0
1542736895.338,-63.965,46.875,17.578,-31.250,102.539,0
1542736895.342,-58.105,43.457,32.715,-14.648,68.848,0
1542736895.346,-100.098,39.062,44.922,-59.082,30.762,0
1542736895.350,-125.977,53.223,26.855,-117.676,44.922,0
1542736895.354,-129.395,62.012,28.809,-114.258,62.012,0
1542736895.358,-138.672,55.664,37.109,-137.207,48.340,0
1542736895.362,-146.973,61.035,40.527,-179.199,40.527,0
1542736895.366,-154.297,74.219,50.781,-175.293,5.371,0
1542736895.369,-168.457,75.195,42.480,-165.527,-13.184,0
1542736895.373,-182.617,68.359,36.621,-187.012,3.418,0
1542736895.377,-183.594,64.941,45.410,-182.617,43.945,0
1542736895.381,-164.062,52.246,44.434,-139.160,68.848,0
1542736895.385,-159.180,66.895,53.711,-136.230,80.566,0
1542736895.389,-185.547,82.031,52.734,-161.133,86.914,0
1542736895.393,-209.473,65.918,40.039,-188.965,26.855,0
1542736895.397,-187.012,69.824,33.203,-187.012,-1.953,0
1542736895.401,-192.871,67.871,25.879,-188.477,28.809,0
1542736895.405,-199.707,60.059,33.203,-187.988,31.738,0
1542736895.409,-161.133,57.617,37.109,-156.250,-1.953,0
1542736895.412,-133.789,47.363,36.621,-121.094,24.414,0
1542736895.416,-126.953,46.387,28.320,-105.469,30.273,0
1542736895.420,-121.582,52.734,12.207,-96.680,20.996,0
1542736895.424,-112.305,56.152,6.348,-87.891,59.570,0
1542736895.428,-107.422,64.453,13.672,-77.637,53.711,0
1542736895.432,-81.055,57.617,9.766,-57.129,27.832,0
1542736895.436,-66.895,46.875,2.930,-50.293,32.715,0
1542736895.440,-85.449,45.898,3.906,-35.156,19.043,0
1542736895.444,-63.477,41.992,5.371,-6.348,11.719,0
1542736895.448,-32.227,32.227,-0.977,-3.418,47.852,0
1542736895.451,-26.367,36.621,-2.930,7.324,-13.184,0
1542736895.455,-9.277,43.945,8.301,18.555,-32.715,0
1542736895.459,0.977,23.926,4.883,9.277,32.227,0
1542736895.463,17.090,14.648,2.930,10.742,-7.812,0
1542736895.467,32.715,18.066,9.277,28.320,-34.668,0
1542736895.471,20.020,15.137,9.766,42.480,37.598,0
1542736895.475,22.461,14.160,2.930,41.016,75.684,0
1542736895.479,25.879,13.184,0.488,69.336,18.066,0
1542736895.483,27.344,18.555,3.906,84.473,25.879,0
1542736895.487,30.762,23.438,2.930,66.895,88.379,0
1542736895.491,31.250,20.508,-3.906,53.223,32.227,0
1542736895.494,28.320,17.090,-2.930,60.547,29.297,0
1542736895.498,51.270,23.438,3.906,97.168,53.223,0
1542736895.502,64.453,25.391,0.488,107.910,33.691,0
1542736895.506,59.570,14.160,-10.254,74.707,48.340,0
1542736895.510,56.152,8.301,-6.836,56.152,51.270,0
1542736895.514,63.477,11.719,2.930,93.750,46.875,0
1542736895.518,64.453,9.766,-0.488,97.656,36.621,0
1542736895.522,42.480,0.977,-4.395,58.105,50.293,0
1542736895.526,54.688,3.418,5.859,64.941,94.238,0
1542736895.530,65.918,4.395,10.742,78.613,57.129,0
1542736895.534,44.922,9.766,11.230,77.148,36.621,0
1542736895.537,27.344,16.602,7.812,73.730,-2.441,0
1542736895.541,46.875,15.137,1.465,49.805,-44.922,0
1542736895.545,60.059,21.973,0.977,61.035,11.719,0
1542736895.549,55.664,25.391,1.953,94.727,89.844,0
1542736895.553,61.035,15.137,5.371,79.102,35.645,0
1542736895.557,69.336,22.461,7.812,58.105,-1.465,0
1542736895.561,69.824,22.949,0.000,71.289,11.719,0
1542736895.565,49.805,14.648,-0.488,61.035,0.977,0
1542736895.569,34.668,17.090,11.719,60.547,23.438,0
1542736895.573,35.156,19.043,9.766,74.707,30.273,0
1542736895.576,39.551,19.531,1.953,64.941,-41.016,0
1542736895.580,50.293,16.113,0.488,40.527,-62.012,0
1542736895.584,47.363,17.090,3.418,52.246,11.230,0
1542736895.588,41.504,20.020,6.348,71.289,5.371,0
1542736895.592,44.922,22.461,6.348,78.125,-13.184,0
1542736895.596,46.387,22.949,5.859,80.566,55.176,0
1542736895.600,42.480,23.926,7.812,56.641,39.062,0
1542736895.604,35.645,25.879,16.602,46.875,31.738,0
1542736895.608,32.227,25.391,12.695,68.359,75.684,0
1542736895.612,31.250,28.320,3.906,55.664,34.180,0
1542736895.616,40.039,27.832,2.930,39.062,-20.508,0
1542736895.619,34.668,22.461,9.277,32.227,6.348,0
1542736895.623,39.551,27.344,7.812,14.160,20.996,0
1542736895.627,43.457,34.668,9.766,20.020,67.383,0
1542736895.631,19.531,34.180,15.137,57.129,59.082,0
1542736895.635,-14.648,20.020,11.719,62.988,37.109,0
1542736895.639,-21.484,14.648,15.137,16.602,47.852,0
1542736895.643,8.301,23.926,15.137,12.207,73.242,0
1542736895.647,24.902,30.273,14.648,28.809,84.473,0
1542736895.651,11.719,29.297,14.648,30.273,-9.277,0
1542736895.655,15.137,33.203,15.137,26.367,-33.691,0
1542736895.659,31.250,40.039,11.719,40.039,40.527,0
1542736895.662,39.551,40.039,7.812,41.992,-2.930,0
1542736895.666,33.203,41.016,12.207,28.809,23.438,0
1542736895.670,31.738,44.434,16.113,22.461,44.434,0
1542736895.674,28.320,38.086,19.043,7.324,13.672,0
1542736895.678,23.926,30.273,20.020,17.578,78.613,0
1542736895.682,19.531,32.715,10.742,26.367,62.012,0
1542736895.686,24.902,45.410,7.324,16.113,40.039,0
1542736895.690,21.484,37.598,15.137,41.504,73.242,0
1542736895.694,3.906,30.273,18.066,49.316,32.715,0
1542736895.698,-9.766,32.715,13.672,22.461,4.883,0
1542736895.701,-2.441,30.273,14.648,30.762,7.812,0
1542736895.705,5.371,35.645,22.461,41.992,34.668,0
1542736895.709,6.836,35.156,20.996,11.719,27.344,0
1542736895.713,13.184,27.832,12.695,1.465,8.301,0
1542736895.717,-0.977,24.414,11.719,19.531,12.207,0
1542736895.721,-9.277,24.414,12.207,10.254,34.180,0
1542736895.725,-9.766,27.344,15.625,30.273,50.781,0
1542736895.729,-9.277,31.250,20.508,21.484,-10.742,0
1542736895.733,-6.348,30.762,18.066,-12.695,-43.457,0
1542736895.737,-7.324,34.180,14.648,6.836,32.715,0
1542736895.741,-7.324,37.109,9.277,13.672,48.340,0
1542736895.744,-4.883,38.086,14.160,-7.812,57.129,0
1542736895.748,0.488,39.551,19.043,-5.859,20.508,0
1542736895.752,-9.766,37.109,15.625,15.137,-20.996,0
1542736895.756,-24.414,35.645,14.160,23.926,6.836,0
1542736895.760,-5.371,38.574,14.648,21.973,46.387,0
1542736895.764,-8.301,36.621,13.184,13.672,28.809,0
1542736895.768,-11.230,41.016,14.648,0.977,-39.062,0
1542736895.772,14.648,44.922,19.043,9.277,-20.020,0
1542736895.776,22.461,35.645,16.602,1.465,14.160,0
1542736895.780,18.066,35.645,15.625,5.371,32.715,0
1542736895.784,14.648,36.133,14.648,20.020,58.105,0
1542736895.787,14.648,34.180,11.230,-2.441,67.871,0
1542736895.791,17.578,39.551,15.137,15.137,49.316,0
1542736895.795,-2.930,35.645,14.648,18.555,38.574,0
1542736895.799,-30.762,34.180,14.160,-6.836,64.453,0
1542736895.803,-33.203,26.367,18.555,6.836,50.293,0
1542736895.807,-22.461,18.555,19.043,9.277,2.930,0
1542736895.811,-27.344,28.320,17.090,-2.441,23.926,0
1542736895.815,-31.738,33.203,15.625,-9.277,32.715,0
1542736895.819,-33.203,31.738,6.348,7.324,33.203,0
1542736895.823,-33.203,36.133,8.301,20.020,49.316,0
1542736895.826,-5.371,33.691,20.020,20.996,57.129,0
1542736895.830,-0.488,30.762,22.461,35.645,58.594,0
1542736895.834,-20.020,35.156,19.043,19.043,66.895,0
1542736895.838,-21.973,27.832,14.648,-0.977,58.594,0
1542736895.842,-22.461,29.297,17.578,8.789,57.129,0
1542736895.846,-11.719,38.086,21.484,22.461,81.543,0
1542736895.850,-16.602,27.832,15.625,8.301,82.520,0
1542736895.854,-26.367,20.020,9.766,-10.254,62.500,0
1542736895.858,-6.348,21.484,11.230,1.465,31.250,0
1542736895.862,8.789,26.367,20.020,2.441,55.664,0
1542736895.866,-7.812,20.996,22.461,1.953,57.617,0
1542736895.869,-8.301,25.391,18.555,2.441,57.617,0
1542736895.873,-5.859,34.180,21.484,1.465,88.867,0
1542736895.877,-17.578,33.691,23.438,3.906,98.633,0
1542736895.881,-13.672,38.086,23.926,4.395,123.535,0
1542736895.885,-22.949,39.551,18.555,-16.113,124.512,0
1542736895.889,-52.734,26.855,16.113,-11.230,100.098,0
1542736895.893,-43.457,19.531,21.973,1.953,175.293,0
1542736895.897,-35.645,24.902,17.090,-3.906,121.094,0
1542736895.901,-37.109,30.762,16.602,1.953,18.066,0
1542736895.905,-21.973,32.227,19.531,11.719,58.105,0
1542736895.909,-18.555,29.297,13.184,11.719,47.852,0
1542736895.912,-20.020,27.344,17.578,22.949,109.375,0
1542736895.916,-22.461,29.297,17.090,36.621,175.781,0
1542736895.920,-20.020,33.691,13.184,14.160,268.066,0
1542736895.924,-7.812,24.414,21.973,8.789,371.582,0
1542736895.928,3.906,24.902,20.020,25.391,412.598,0
1542736895.932,-0.488,37.598,17.578,10.742,485.352,0
1542736895.936,-14.160,38.086,24.902,28.809,562.012,0
1542736895.940,-9.766,30.762,22.461,18.066,587.891,0
1542736895.944,-12.207,27.344,18.066,-23.438,587.891,0
1542736895.948,-23.926,30.273,23.926,-23.926,610.840,0
1542736895.951,-11.719,36.133,23.438,1.465,627.930,0
1542736895.955,-14.648,39.062,20.508,11.230,620.605,0
1542736895.959,-19.043,33.203,15.625,7.324,616.211,0
1542736895.963,0.000,37.109,17.578,5.371,592.285,0
1542736895.967,-9.766,37.598,20.020,22.949,538.574,0
1542736895.971,-9.766,32.715,14.648,23.926,497.070,0
1542736895.975,-5.371,41.016,12.207,0.488,445.312,0
1542736895.979,-28.809,43.945,6.836,-7.812,395.020,0
1542736895.983,-32.715,32.227,3.418,-9.277,390.625,0
1542736895.987,-32.227,28.320,6.348,-6.836,362.793,0
1542736895.991,-34.180,39.551,10.742,5.859,342.285,0
1542736895.994,-17.578,40.527,18.066,14.648,298.340,0
1542736895.998,-9.277,34.180,17.090,12.207,239.746,0
1542736896.002,-15.625,35.156,10.254,5.859,206.543,0
1542736896.006,-25.879,34.668,14.648,-4.883,131.348,0
1542736896.010,-34.180,27.344,17.578,-16.602,61.035,0
1542736896.014,-42.969,31.738,18.555,-6.348,57.617,0
1542736896.018,-35.645,41.992,20.020,9.277,37.109,0
1542736896.022,-18.555,34.180,15.625,15.137,-41.016,0
1542736896.026,-17.090,30.762,15.625,18.066,-70.312,0
1542736896.030,-12.207,46.875,9.766,11.719,-90.820,0
1542736896.034,-20.020,42.480,3.906,0.000,-97.656,0
1542736896.037,-40.527,30.273,12.695,9.766,-99.121,0
1542736896.041,-44.922,30.273,15.625,8.789,-115.723,0
1542736896.045,-30.762,33.203,12.207,0.488,-103.027,0
1542736896.049,-24.414,31.738,13.672,-2.441,-101.562,0
1542736896.053,-32.227,27.344,10.254,2.441,-74.707,0
1542736896.057,-32.715,28.809,7.324,-8.301,-48.828,0
1542736896.061,-26.855,34.668,13.184,1.953,-58.105,0
1542736896.065,-28.320,41.992,20.508,15.137,-98.145,0
1542736896.069,-36.133,29.785,23.926,-9.277,-106.934,0
1542736896.073,-33.203,19.043,25.879,20.508,-75.195,0
1542736896.076,-37.598,25.879,14.648,32.715,-76.172,0
1542736896.080,-45.410,32.715,6.836,-17.090,-94.238,0
1542736896.084,-50.781,33.203,15.137,-21.973,-88.867,0
1542736896.088,-43.457,28.809,16.602,-12.207,-89.844,0
1542736896.092,-31.250,31.738,18.066,2.441,-131.836,0
1542736896.096,-30.273,39.062,27.344,18.555,-154.297,0
1542736896.100,-41.016,32.227,21.484,2.930,-120.605,0
1542736896.104,-52.734,24.902,9.766,-5.371,-94.727,0
1542736896.108,-48.340,23.926,9.766,-11.230,-62.500,0
1542736896.112,-42.480,23.438,17.578,-15.625,-6.348,0
1542736896.116,-43.457,23.926,17.090,-2.930,85.938,0
1542736896.119,-49.805,23.926,12.695,-8.301,144.531,0
1542736896.123,-51.758,25.879,15.137,-15.137,186.523,0
1542736896.127,-56.152,24.414,9.766,-29.297,287.598,0
1542736896.131,-53.223,22.949,6.348,-31.250,404.297,0
1542736896.135,-56.641,24.414,8.789,-17.090,487.793,0
1542736896.139,-49.316,24.902,9.766,-15.625,544.434,0
1542736896.143,-36.621,24.414,9.277,-16.602,610.840,0
1542736896.147,-32.715,22.461,9.277,-19.043,676.270,0
1542736896.151,-26.855,17.090,13.184,-6.836,726.074,0
1542736896.155,-23.926,20.020,15.137,5.371,785.156,0
1542736896.159,-26.855,26.855,18.066,-8.789,844.727,0
1542736896.162,-49.316,28.809,16.113,-20.996,937.012,0
1542736896.166,-46.875,33.203,15.625,-12.207,992.676,0
1542736896.170,-35.156,29.785,19.043,-4.395,997.559,0
1542736896.174,-42.969,8.301,17.090,-3.906,998.535,0
1542736896.178,-52.734,-0.977,19.531,-16.602,999.512,0
1542736896.182,-57.129,8.301,12.207,-16.602,999.512,0
1542736896.186,-48.340,19.043,7.812,-15.625,999.512,0
1542736896.190,-49.805,29.297,9.766,-30.273,999.512,0
1542736896.194,-65.430,29.297,3.906,-34.668,999.512,0
1542736896.198,-53.223,24.902,1.465,-34.180,999.512,0
1542736896.201,-35.645,27.344,4.883,-27.344,999.512,0
1542736896.205,-34.668,28.809,14.160,-5.859,999.512,0
1542736896.209,-36.133,22.461,19.043,-6.836,999.512,0
1542736896.213,-33.203,25.879,20.508,-8.301,999.512,0
1542736896.217,-38.086,23.926,20.020,3.418,999.512,0
1542736896.221,-36.133,18.066,16.113,-3.418,999.512,0
1542736896.225,-31.250,20.996,13.672,-10.254,999.512,0
1542736896.229,-35.645,21.484,15.137,-7.324,999.512,0
1542736896.233,-45.410,19.531,20.020,8.789,999.512,0
1542736896.237,-52.246,18.066,20.020,1.465,998.047,0
1542736896.241,-52.734,19.043,15.137,-14.648,999.512,0
1542736896.244,-48.340,15.137,12.207,-5.859,990.723,0
1542736896.248,-36.621,19.043,16.602,-15.137,942.383,0
1542736896.252,-35.156,23.438,21.973,-13.672,849.121,0
1542736896.256,-22.949,23.438,26.855,7.812,765.137,0
1542736896.260,-29.785,25.879,20.996,-3.418,675.293,0
1542736896.264,-47.363,29.785,12.207,-21.484,581.543,0
1542736896.268,-43.945,33.203,13.184,7.812,515.137,0
1542736896.272,-45.898,30.273,12.695,-6.348,435.059,0
1542736896.276,-40.527,35.156,17.578,-30.273,369.629,0
1542736896.280,-22.461,38.086,25.391,-2.930,298.828,0
1542736896.284,-30.273,25.391,23.926,-3.418,194.824,0
1542736896.287,-33.203,22.461,21.973,5.371,99.121,0
1542736896.291,-24.902,21.973,20.996,0.000,9.277,0
1542736896.295,-28.320,11.719,20.020,-8.789,-106.934,0
1542736896.299,-41.016,9.277,21.484,2.441,-183.105,0
1542736896.303,-30.273,18.555,21.973,-7.812,-277.344,0
1542736896.307,-24.902,27.832,12.695,-6.348,-417.969,0
1542736896.311,-13.184,25.879,13.672,3.906,-503.906,0
1542736896.315,-25.879,22.461,21.973,-16.113,-572.754,0
1542736896.319,-43.457,21.973,22.461,-9.766,-661.133,0
1542736896.323,-36.133,25.879,18.066,0.977,-760.254,0
1542736896.326,-38.574,30.762,14.648,-7.324,-841.309,0
1542736896.330,-23.438,28.809,18.555,18.555,-930.176,0
1542736896.334,-28.320,23.438,20.996,5.859,-975.586,0
1542736896.338,-31.738,17.578,21.973,-26.855,-970.703,0
1542736896.342,-17.578,22.949,21.484,-3.418,-972.656,0
1542736896.346,-32.715,27.832,21.973,10.254,-973.145,0
1542736896.350,-44.922,29.785,21.973,-1.953,-973.145,0
1542736896.354,-33.203,36.133,21.973,-9.277,-973.145,0
1542736896.358,-34.668,37.109,19.531,-20.508,-973.145,0
1542736896.362,-34.668,30.762,19.043,-14.160,-973.145,0
1542736896.366,-28.809,35.156,28.320,-3.418,-973.145,0
1542736896.369,-32.227,36.133,26.855,-15.625,-973.145,0
1542736896.373,-31.738,34.668,16.602,-24.414,-973.145,0
1542736896.377,-27.832,40.039,8.301,-10.742,-973.145,0
1542736896.381,-25.391,42.480,6.836,0.488,-973.145,0
1542736896.385,-25.391,51.270,19.043,3.906,-973.145,0
1542736896.389,-18.555,42.969,18.066,9.277,-971.680,0
1542736896.393,-9.766,40.527,17.090,12.695,-970.703,0
1542736896.397,-5.859,54.688,33.203,18.066,-971.191,0
1542736896.401,-19.531,37.109,28.809,16.113,-875.000,0
1542736896.405,-48.828,25.391,14.160,-10.254,-765.137,0
1542736896.409,-38.086,33.691,9.277,-14.160,-716.309,0
1542736896.412,-29.785,31.738,7.812,-19.043,-669.922,0
1542736896.416,-42.969,29.785,14.160,-12.695,-649.414,0
1542736896.420,-42.480,28.809,22.461,7.812,-552.734,0
1542736896.424,-35.156,35.156,24.414,1.465,-520.508,0
1542736896.428,-33.203,42.480,17.090,0.488,-534.180,0
1542736896.432,-29.785,49.316,15.137,0.488,-504.883,0
1542736896.436,-26.855,49.316,21.484,13.672,-463.379,0
1542736896.440,-31.250,41.992,18.066,-2.441,-375.977,0
1542736896.444,-24.414,39.551,12.695,-23.438,-355.957,0
1542736896.448,-24.902,38.574,19.043,-3.418,-334.473,0
1542736896.451,-29.785,39.062,21.973,17.578,-336.914,0
1542736896.455,-32.715,35.645,15.137,18.066,-249.512,0
1542736896.459,-36.621,35.645,9.766,-0.488,-212.402,0
1542736896.463,-31.738,34.668,9.277,6.836,-300.781,0
1542736896.467,-36.133,33.203,13.672,8.301,-241.699,0
1542736896.471,-36.133,35.645,14.160,-1.953,-200.684,0
1542736896.475,-39.551,33.691,14.648,-10.742,-212.402,0
1542736896.479,-38.086,33.203,11.230,-9.277,-179.199,0
1542736896.483,-21.973,30.273,11.230,5.371,-173.828,0
1542736896.487,-22.949,34.668,13.672,-4.883,-164.062,0
1542736896.491,-26.855,46.387,19.043,-28.809,-182.617,0
1542736896.494,-20.020,40.527,26.367,-10.254,-178.223,0
1542736896.498,-30.273,27.832,19.531,-16.113,-129.395,0
1542736896.502,-34.668,25.391,16.113,-35.645,-127.441,0
1542736896.506,-32.227,27.344,17.090,-18.555,-133.789,0
1542736896.510,-36.133,31.738,18.066,-16.113,-62.500,0
1542736896.514,-38.574,31.738,17.090,-3.418,-52.246,0
1542736896.518,-38.086,31.738,17.578,3.418,-122.070,0
1542736896.522,-32.227,27.832,21.973,-1.465,-92.285,0
1542736896.526,-38.574,22.461,18.066,18.066,-22.949,0
1542736896.530,-31.250,28.809,14.160,14.648,-5.859,0
1542736896.534,-19.043,37.598,11.230,10.742,0.977,0
1542736896.537,-26.367,34.668,12.695,5.371,-7.812,0
1542736896.541,-29.297,31.738,16.602,-0.977,6.348,0
1542736896.545,-16.113,37.109,9.277,8.301,7.812,0
1542736896.549,-14.160,42.480,9.766,25.879,-21.973,0
1542736896.553,-5.859,31.738,21.973,24.902,4.883,0
1542736896.557,-5.859,16.113,27.832,4.395,60.547,0
1542736896.561,-20.996,12.207,27.344,11.230,31.738,0
1542736896.565,-30.762,25.391,22.949,-5.371,3.418,0
1542736896.569,-44.434,34.668,12.695,-6.836,29.297,0
1542736896.573,-48.340,28.809,14.648,-1.465,7.812,0
1542736896.576,-37.109,34.668,21.484,0.000,-3.418,0
1542736896.580,-20.020,42.480,27.832,17.090,47.363,0
1542736896.584,-18.066,47.363,36.133,5.859,33.203,0
1542736896.588,-15.137,50.781,36.133,9.766,52.246,0
1542736896.592,-26.855,46.387,20.508,12.207,76.660,0
1542736896.596,-25.391,42.480,19.043,-4.883,36.621,0
1542736896.600,-8.301,42.480,22.461,-5.859,53.711,0
1542736896.604,-29.297,37.598,21.484,2.441,73.730,0
1542736896.608,-42.480,34.180,20.020,13.184,44.922,0
1542736896.612,-35.156,36.621,14.160,7.812,52.734,0
1542736896.616,-31.738,35.645,20.508,-5.859,43.945,0
1542736896.619,-33.691,30.762,20.508,-13.672,47.363,0
1542736896.623,-38.086,36.621,21.484,-19.531,54.688,0
1542736896.627,-30.762,44.434,31.250,-0.977,60.059,0
1542736896.631,-20.020,46.387,28.809,3.906,79.590,0
1542736896.635,-21.973,44.434,24.414,-12.207,54.688,0
1542736896.639,-35.645,28.320,23.438,-18.555,24.902,0
1542736896.643,-39.551,21.973,20.996,-11.230,4.395,0
1542736896.647,-34.180,33.691,17.090,4.883,-16.602,0
1542736896.651,-27.832,42.480,19.043,17.578,-2.441,0
1542736896.655,-34.668,43.945,23.926,13.672,-16.113,0
1542736896.659,-40.039,45.410,22.949,8.789,24.902,0
1542736896.662,-31.738,49.316,27.832,12.695,17.090,0
1542736896.666,-26.855,45.898,34.180,5.371,-10.742,0
1542736896.670,-27.344,34.180,21.484,-2.930,-4.883,0
1542736896.674,-37.109,29.785,16.602,-9.277,-21.484,0
1542736896.678,-47.852,34.180,27.832,-20.508,54.199,0
1542736896.682,-55.176,37.598,29.297,-19.043,59.082,0
1542736896.686,-39.062,41.992,34.180,-0.977,-37.109,0
1542736896.690,-13.672,38.086,37.109,11.230,-6.348,0
1542736896.694,-23.926,33.691,27.344,10.742,37.109,0
1542736896.698,-39.551,31.250,24.902,12.695,-11.230,0
1542736896.701,-34.668,36.621,25.879,4.395,-19.531,0
1542736896.705,-29.785,50.781,15.137,-15.137,34.668,0
1542736896.709,-34.180,56.152,6.348,-4.883,36.621,0
1542736896.713,-25.879,53.711,15.625,8.301,-31.738,0
1542736896.717,-16.602,49.316,32.227,17.578,0.488,0
1542736896.721,-29.785,45.410,38.086,20.508,38.574,0
1542736896.725,-45.898,41.016,36.133,-14.160,-14.160,0
1542736896.729,-37.109,41.016,35.645,-18.555,-33.691,0
1542736896.733,-28.320,43.945,30.273,4.395,31.738,0
1542736896.737,-32.227,44.922,21.484,0.000,27.832,0
1542736896.741,-30.762,46.875,26.367,-10.742,9.277,0
1542736896.744,-29.297,38.086,26.855,13.184,-0.977,0
1542736896.748,-31.250,37.109,23.438,15.137,-55.664,0
1542736896.752,-19.043,43.945,24.414,-1.465,-39.062,0
1542736896.756,-16.113,44.922,17.090,5.859,6.348,0
1542736896.760,-11.230,50.781,20.508,24.902,32.715,0
1542736896.764,-15.625,54.688,22.461,8.301,53.711,0
1542736896.768,-20.508,49.805,13.672,-1.465,46.875,0
1542736896.772,-29.785,48.340,19.043,11.719,15.137,0
1542736896.776,-43.457,43.945,30.762,4.395,-12.207,0
1542736896.780,-26.855,47.363,38.086,10.254,-28.809,0
1542736896.784,-19.043,51.758,41.504,2.930,11.719,0
1542736896.787,-31.738,46.875,25.879,-16.602,42.969,0
1542736896.791,-27.832,47.363,18.066,-3.906,43.457,0
1542736896.795,-19.043,51.270,28.809,4.395,61.523,0
1542736896.799,-20.508,42.969,24.414,-17.090,25.391,0
1542736896.803,-33.691,35.645,26.855,-13.672,15.625,0
1542736896.807,-29.297,44.922,34.668,2.930,63.477,0
1542736896.811,-13.184,47.363,31.738,8.789,56.152,0
1542736896.815,-21.973,36.621,30.273,5.371,39.551,0
1542736896.819,-26.367,41.504,29.785,29.785,53.223,0
1542736896.823,-22.461,54.688,35.645,16.602,4.883,0
1542736896.826,-19.531,50.293,40.527,-6.836,23.926,0
1542736896.830,-22.461,43.945,33.203,16.113,46.875,0
1542736896.834,-21.973,43.945,27.344,9.277,71.777,0
1542736896.838,-21.484,42.969,25.879,-4.883,68.359,0
1542736896.842,-21.484,48.828,26.855,11.719,2.441,0
1542736896.846,-16.113,54.199,30.762,8.301,52.734,0
1542736896.850,-18.066,52.246,26.367,10.254,40.527,0
1542736896.854,-14.648,43.945,27.832,36.133,1.953,0
1542736896.858,-9.277,35.156,36.133,12.695,35.645,0
1542736896.862,-26.855,43.457,36.621,-6.348,-8.789,0
1542736896.866,-20.508,56.152,36.621,10.254,42.480,0
1542736896.869,-16.602,47.852,30.762,0.488,71.777,0
1542736896.873,-31.738,47.363,21.973,16.113,12.207,0
1542736896.877,-15.625,47.852,23.438,17.090,42.969,0
1542736896.881,0.000,43.945,23.926,-8.789,30.762,0
1542736896.885,-19.043,46.387,26.855,9.277,26.367,0
1542736896.889,-8.789,50.293,33.691,29.297,60.547,0
1542736896.893,-5.859,45.898,26.855,4.883,65.430,0
1542736896.897,-17.578,39.062,20.996,-7.324,70.312,0
1542736896.901,-11.719,48.340,28.320,5.371,49.805,0
1542736896.905,9.277,52.246,31.738,15.625,46.875,0
1542736896.909,6.348,41.504,26.855,9.766,41.992,0
1542736896.912,-22.461,33.691,25.879,-5.859,21.973,0
1542736896.916,-24.414,39.551,27.832,0.000,0.977,0
1542736896.920,-7.812,42.480,23.926,13.184,0.977,0
1542736896.924,-13.184,38.574,21.973,29.785,-3.418,0
1542736896.928,-19.043,35.645,30.273,23.438,-19.531,0
1542736896.932,-12.207,38.086,32.715,29.785,24.902,0
1542736896.936,-5.371,44.922,31.250,23.438,70.801,0
1542736896.940,-7.812,50.781,34.668,-3.906,88.379,0
1542736896.944,-6.836,55.176,34.668,34.180,83.008,0
1542736896.948,-3.906,54.199,32.227,17.090,47.852,0
1542736896.951,3.418,51.758,29.785,-10.254,18.555,0
1542736896.955,-3.418,50.781,18.555,5.859,34.180,0
1542736896.959,-9.766,47.852,20.020,14.160,51.270,0
1542736896.963,-8.301,45.898,25.879,30.273,70.801,0
1542736896.967,-8.789,45.410,20.996,23.926,30.273,0
1542736896.971,-9.766,42.480,19.531,-5.371,20.996,0
1542736896.975,2.441,39.551,12.695,-8.301,82.520,0
1542736896.979,4.395,24.902,19.531,13.184,62.012,0
1542736896.983,2.441,29.785,37.598,8.789,23.438,0
1542736896.987,6.836,45.898,42.480,10.742,55.176,0
1542736896.991,-1.465,42.969,33.203,26.855,46.875,0
1542736896.994,-3.418,48.340,24.902,-3.418,42.480,0
1542736896.998,-2.441,54.688,27.832,1.953,46.387,0
1542736897.002,-7.324,41.504,32.227,38.086,85.449,0
1542736897.006,-8.789,33.203,30.273,30.762,58.105,0
1542736897.010,-19.531,40.039,20.996,5.371,41.504,0
1542736897.014,-37.598,34.668,18.555,9.277,37.109,0
1542736897.018,-19.043,32.715,19.043,18.555,52.246,0
1542736897.022,6.348,26.855,17.090,3.906,42.480,0
1542736897.026,1.953,20.508,20.508,19.531,35.645,0
1542736897.030,-11.230,31.738,24.902,10.742,95.215,0
1542736897.034,-1.953,34.180,29.297,17.090,157.227,0
1542736897.037,5.859,32.715,36.133,32.227,310.547,0
1542736897.041,-11.719,38.574,32.227,-1.953,493.164,0
1542736897.045,-19.043,41.016,25.391,-17.578,646.973,0
1542736897.049,-16.113,37.109,27.344,-6.836,805.176,0
1542736897.053,-24.414,37.109,29.785,-0.977,892.578,0
1542736897.057,-22.461,33.691,32.715,-10.742,933.105,0
1542736897.061,-23.926,32.715,36.621,14.160,973.633,0
1542736897.065,-8.301,42.480,39.551,22.461,985.352,0
1542736897.069,3.906,40.039,27.832,5.371,943.359,0
1542736897.073,-8.789,31.250,16.113,18.555,890.137,0
1542736897.076,13.672,31.738,20.020,13.672,835.938,0
1542736897.080,17.578,30.762,23.438,24.414,767.090,0
1542736897.084,4.883,39.551,24.902,25.879,676.270,0
1542736897.088,-9.766,43.457,29.785,17.090,566.406,0
1542736897.092,-11.230,40.527,29.785,22.461,482.422,0
1542736897.096,-1.465,35.645,25.879,32.715,401.855,0
1542736897.100,-2.930,40.039,28.809,43.945,335.938,0
1542736897.104,10.742,52.246,37.109,31.250,248.535,0
1542736897.108,19.531,46.387,39.551,23.438,152.344,0
1542736897.112,13.184,40.527,38.086,13.672,97.656,0
1542736897.116,-4.395,39.551,32.227,-9.766,45.898,0
1542736897.119,-16.113,31.738,26.855,-19.531,-27.344,0
1542736897.123,1.953,31.250,32.227,30.273,-94.238,0
1542736897.127,19.043,46.875,40.039,40.527,-152.344,0
1542736897.131,14.648,42.480,39.551,23.926,-189.941,0
1542736897.135,22.461,32.227,31.738,34.668,-220.215,0
1542736897.139,12.207,33.203,30.762,23.438,-279.297,0
1542736897.143,-1.953,34.668,30.273,26.855,-349.609,0
1542736897.147,0.977,44.922,33.203,19.531,-428.223,0
1542736897.151,9.277,40.527,40.039,13.184,-475.586,0
1542736897.155,3.418,31.738,35.156,21.484,-485.840,0
1542736897.159,-11.719,39.062,31.738,8.789,-507.812,0
1542736897.162,11.719,48.828,35.645,0.488,-541.992,0
1542736897.166,11.719,49.805,36.133,12.207,-491.211,0
1542736897.170,3.906,49.805,41.504,27.344,-437.988,0
1542736897.174,16.113,50.293,34.180,23.926,-484.863,0
1542736897.178,23.438,52.734,24.414,21.973,-425.781,0
1542736897.182,34.180,50.781,36.621,32.227,-396.973,0
1542736897.186,21.973,49.805,41.504,45.410,-414.551,0
1542736897.190,13.672,45.898,35.645,22.461,-393.066,0
1542736897.194,11.719,37.109,31.250,4.395,-320.312,0
1542736897.198,0.977,34.180,26.855,30.273,-290.527,0
1542736897.201,-6.348,31.738,29.785,46.875,-296.875,0
1542736897.205,0.000,39.551,32.715,32.715,-229.004,0
1542736897.209,4.883,52.734,37.109,30.762,-162.109,0
1542736897.213,-20.020,42.969,35.645,11.719,-182.617,0
1542736897.217,-16.602,34.668,27.832,-15.137,-172.363,0
1542736897.221,-1.953,38.086,27.832,2.441,-113.281,0
1542736897.225,-6.348,40.039,27.832,4.883,-144.043,0
1542736897.229,11.230,39.062,28.320,27.344,-128.906,0
1542736897.233,8.789,30.762,25.391,22.949,-113.770,0
1542736897.237,4.395,41.992,32.227,23.926,-117.188,0
1542736897.241,-0.488,49.316,34.668,44.922,-137.695,0
1542736897.244,-10.254,41.992,25.391,16.602,-92.773,0
1542736897.248,2.441,43.945,25.391,8.301,-105.469,0
1542736897.252,5.371,38.574,32.715,9.277,-97.656,0
1542736897.256,-8.789,33.203,36.133,-13.184,-62.012,0
1542736897.260,-12.207,29.297,32.227,3.418,-112.793,0
1542736897.264,8.301,29.785,34.668,11.719,-94.238,0
1542736897.268,0.488,38.086,40.527,2.930,-59.082,0
1542736897.272,-9.277,30.273,35.645,1.465,-49.316,0
1542736897.276,-0.488,28.320,36.133,8.789,-29.297,0
1542736897.280,1.465,38.086,43.945,39.551,-29.297,0
1542736897.284,-0.977,43.945,42.969,50.293,-41.504,0
1542736897.287,-11.230,40.039,33.203,26.855,-78.613,0
1542736897.291,-13.672,30.762,24.414,14.160,-77.148,0
1542736897.295,-29.297,27.832,21.973,18.555,-18.066,0
1542736897.299,-41.016,25.391,26.855,9.766,-23.926,0
1542736897.303,-21.973,26.367,32.227,-8.789,-80.566,0
1542736897.307,-7.324,35.645,42.480,11.230,-40.527,0
1542736897.311,-20.020,37.109,41.504,33.203,31.250,0
1542736897.315,-3.906,35.156,33.691,17.578,29.785,0
1542736897.319,3.906,36.133,30.273,4.395,-3.906,0
1542736897.323,-17.578,29.297,33.691,15.625,-41.016,0
1542736897.326,-26.855,22.461,39.062,9.766,-38.574,0
1542736897.330,-19.043,36.621,37.598,-15.137,26.367,0
1542736897.334,-10.742,44.434,34.668,10.254,16.113,0
1542736897.338,-32.227,29.785,28.809,18.066,-16.602,0
1542736897.342,-43.945,21.973,25.391,-4.883,28.320,0
1542736897.346,-29.297,23.926,25.391,-10.254,59.570,0
1542736897.350,-24.902,25.879,29.297,-2.441,18.066,0
1542736897.354,-41.504,26.855,30.273,-16.602,49.805,0
1542736897.358,-32.227,28.320,30.762,-6.836,80.566,0
1542736897.362,-21.973,25.879,31.250,16.113,25.879,0
1542736897.366,-24.902,25.879,25.879,19.531,28.320,0
1542736897.369,-26.367,31.738,29.785,16.113,61.523,0
1542736897.373,-33.203,30.762,30.273,-11.719,42.969,0
1542736897.377,-34.668,29.785,27.344,-19.043,28.809,0
1542736897.381,-27.344,33.203,37.109,-7.324,34.668,0
1542736897.385,-14.160,28.320,40.039,6.348,-0.977,0
1542736897.389,-6.348,34.668,41.504,19.043,-1.953,0
1542736897.393,-7.324,42.969,45.898,7.812,42.480,0
1542736897.397,-23.438,31.250,36.621,12.695,43.457,0
1542736897.401,-37.109,27.344,33.691,24.414,44.434,0
1542736897.405,-29.785,25.391,32.227,13.672,62.500,0
1542736897.409,-29.297,26.367,24.414,1.953,36.621,0
1542736897.412,-32.715,35.645,22.461,19.531,-0.488,0
1542736897.416,-22.461,41.504,29.785,1.465,23.926,0
1542736897.420,-14.160,44.922,30.273,1.465,41.504,0
1542736897.424,-19.043,34.668,22.949,14.160,3.906,0
1542736897.428,-11.230,27.344,24.902,-12.207,20.996,0
1542736897.432,-4.395,28.320,28.809,3.906,10.742,0
1542736897.436,-19.531,20.996,19.043,-4.883,14.648,0
1542736897.440,-32.715,31.738,23.926,-6.348,6.348,0
1542736897.444,-31.738,45.898,36.621,-8.301,12.695,0
1542736897.448,-24.414,39.062,35.645,-13.184,2.930,0
1542736897.451,-13.184,32.715,33.691,19.531,28.320,0
1542736897.455,-11.230,29.785,26.367,22.461,99.609,0
1542736897.459,-25.879,28.809,24.414,1.465,35.156,0
1542736897.463,-25.879,33.203,22.949,-2.930,40.039,0
1542736897.467,-27.344,33.203,18.066,-4.395,47.363,0
1542736897.471,-38.574,29.785,20.020,-10.254,3.418,0
1542736897.475,-40.527,28.320,25.391,9.766,79.102,0
1542736897.479,-39.062,26.855,29.297,39.551,104.492,0
1542736897.483,-26.367,25.391,25.879,31.250,53.711,0
1542736897.487,-13.184,32.227,24.414,20.508,76.172,0
1542736897.491,-6.836,31.738,28.809,11.719,74.219,0
1542736897.494,-24.902,20.508,27.832,2.930,3.906,0
1542736897.498,-39.062,25.879,20.996,-7.324,9.766,0
1542736897.502,-40.527,30.762,20.996,3.906,42.480,0
1542736897.506,-40.039,25.391,15.137,14.648,106.445,0
1542736897.510,-15.625,38.086,10.742,0.977,89.844,0
1542736897.514,-2.930,49.316,26.855,2.441,80.078,0
1542736897.518,-19.531,39.062,28.809,-4.395,67.871,0
1542736897.522,-19.531,37.598,35.156,-10.742,-16.113,0
1542736897.526,-2.930,39.551,44.922,30.273,7.812,0
1542736897.530,-17.090,28.320,33.203,31.738,17.578,0
1542736897.534,-20.996,26.855,37.109,11.230,28.809,0
1542736897.537,-18.066,34.180,47.363,24.414,21.973,0
1542736897.541,-23.926,30.273,40.039,10.254,6.348,0
1542736897.545,-28.320,31.250,25.391,4.395,8.789,0
1542736897.549,-27.832,26.855,16.113,6.348,21.484,0
1542736897.553,-37.109,19.531,22.461,17.090,44.434,0
1542736897.557,-34.668,29.297,21.973,0.977,46.875,0
1542736897.561,-16.113,35.645,15.625,10.742,42.480,0
1542736897.565,-18.555,44.922,22.949,18.555,33.691,0
1542736897.569,-16.602,44.434,32.715,-10.254,48.828,0
1542736897.573,0.977,31.738,38.086,-0.488,-30.273,0
1542736897.576,5.371,30.273,34.180,15.625,-11.230,0
1542736897.580,4.883,37.598,30.762,-2.441,4.395,0
1542736897.584,-0.488,36.133,28.320,-18.066,25.879,0
1542736897.588,-16.113,33.203,29.785,-8.789,91.309,0
1542736897.592,-16.602,34.668,32.715,0.488,31.738,0
1542736897.596,-11.230,35.156,29.297,23.438,13.184,0
1542736897.600,-11.719,37.109,26.855,5.371,6.836,0
1542736897.604,-4.883,35.156,32.715,18.555,-36.133,0
1542736897.608,-3.906,26.367,36.621,27.832,-23.926,0
1542736897.612,-17.578,33.203,34.180,11.719,37.109,0
1542736897.616,-25.879,42.480,30.273,30.762,29.785,0
1542736897.619,-16.113,44.434,31.738,24.902,32.715,0
1542736897.623,-20.996,37.598,30.762,5.859,25.391,0
1542736897.627,-30.762,23.438,23.926,1.953,-26.855,0
1542736897.631,-26.855,20.996,30.273,5.371,-24.902,0
1542736897.635,-12.695,35.156,38.574,26.367,15.137,0
1542736897.639,-6.836,37.598,38.086,40.527,59.082,0
1542736897.643,-8.301,31.250,27.344,26.367,46.387,0
1542736897.647,3.418,39.551,24.902,25.879,25.391,0
1542736897.651,1.953,44.922,36.133,43.457,22.461,0
1542736897.655,-0.977,42.969,29.297,32.715,49.805,0
1542736897.659,-0.977,38.086,24.902,15.625,24.414,0
1542736897.662,-13.672,33.691,25.391,-9.766,-0.977,0
1542736897.666,-21.484,32.227,35.156,12.695,23.926,0
1542736897.670,-10.742,35.156,41.992,52.246,56.152,0
1542736897.674,-10.742,38.086,29.785,34.668,76.172,0
1542736897.678,-25.879,35.645,22.949,30.762,57.617,0
1542736897.682,-19.531,32.715,26.367,63.965,24.414,0
1542736897.686,-6.836,33.203,32.227,50.781,19.043,0
1542736897.690,1.465,42.480,41.504,31.738,38.086,0
1542736897.694,3.418,36.621,41.016,57.129,76.172,0
1542736897.698,-2.930,25.879,33.691,36.621,75.195,0
1542736897.701,-0.977,28.809,28.809,12.207,24.414,0
1542736897.705,0.000,34.668,22.949,-20.996,79.590,0
1542736897.709,1.953,38.086,18.066,-70.801,124.512,0
1542736897.713,2.441,36.133,24.414,-5.371,97.168,0
1542736897.717,-4.883,46.875,30.762,32.227,57.617,0
1542736897.721,5.371,56.641,36.133,31.250,-3.906,0
1542736897.725,-5.859,44.922,41.504,55.664,29.785,0
1542736897.729,-11.719,36.133,38.574,27.832,42.480,0
1542736897.733,-1.465,37.598,32.227,33.691,43.457,0
1542736897.737,2.930,47.852,26.855,55.176,43.945,0
1542736897.741,-0.488,50.781,31.250,2.930,50.293,0
1542736897.744,-4.883,42.480,30.762,-54.688,59.082,0
1542736897.748,1.953,42.969,27.832,-28.809,23.926,0
1542736897.752,1.465,38.086,20.508,24.902,26.367,0
1542736897.756,0.488,34.668,9.277,-4.395,48.340,0
1542736897.760,-11.230,41.016,13.184,-20.996,37.109,0
1542736897.764,-10.742,38.574,24.902,21.484,18.555,0
1542736897.768,-26.855,21.973,25.391,18.555,11.230,0
1542736897.772,-43.457,21.484,24.414,42.969,9.277,0
1542736897.776,-27.832,33.691,31.250,96.191,47.852,0
1542736897.780,3.418,40.039,24.902,141.602,82.520,0
1542736897.784,12.207,39.551,11.719,174.805,48.340,0
1542736897.787,26.855,31.738,14.648,147.461,20.508,0
1542736897.791,28.320,29.785,17.090,92.773,37.109,0
1542736897.795,72.754,54.688,23.926,128.418,24.902,0
1542736897.799,143.555,80.566,43.945,184.570,37.598,0
1542736897.803,94.238,72.266,35.645,55.176,12.695,0
1542736897.807,40.039,49.805,19.531,-21.484,28.320,0
1542736897.811,-34.668,39.062,32.715,-34.180,88.867,0
1542736897.815,-72.754,39.551,39.062,-72.266,123.535,0
1542736897.819,-66.406,39.551,36.133,-50.293,86.914,0
1542736897.823,-114.258,44.922,41.504,-144.043,41.992,0
1542736897.826,-162.598,55.176,52.246,-234.375,42.480,0
1542736897.830,-179.199,43.457,80.566,-156.250,-0.977,0
1542736897.834,-184.082,36.621,91.797,-145.996,-20.508,0
1542736897.838,-185.059,46.875,83.984,-138.672,23.438,0
1542736897.842,-199.219,38.574,98.633,-104.492,42.969,0
1542736897.846,-208.496,27.344,98.633,-170.898,52.734,0
1542736897.850,-219.238,29.785,94.238,-199.707,47.363,0
1542736897.854,-225.098,27.344,116.699,-141.602,12.695,0
1542736897.858,-196.289,33.691,147.461,-29.785,54.688,0
1542736897.862,-171.875,30.273,145.508,83.496,90.820,0
1542736897.866,-139.160,-2.441,145.996,238.770,105.957,0
1542736897.869,-79.102,1.953,150.879,178.223,138.672,0
1542736897.873,-88.379,2.441,137.695,-58.594,146.973,0
1542736897.877,-161.621,-13.672,132.324,-163.086,153.809,0
1542736897.881,-169.922,7.324,122.070,-250.977,179.688,0
1542736897.885,-120.117,44.434,112.305,-266.602,203.125,0
1542736897.889,-110.352,39.062,120.117,-167.969,226.074,0
1542736897.893,-131.348,-8.789,122.070,-134.277,238.770,0
1542736897.897,-120.117,-35.156,118.164,-125.488,263.184,0
1542736897.901,-75.684,-30.762,111.816,-53.223,294.922,0
1542736897.905,-76.660,-28.320,88.379,38.574,291.992,0
1542736897.909,-49.805,-27.832,88.379,128.418,303.223,0
1542736897.912,5.371,-19.043,108.398,177.734,348.633,0
1542736897.916,33.691,-16.602,96.191,199.707,377.930,0
1542736897.920,57.617,-32.715,103.027,142.090,400.391,0
1542736897.924,34.180,-30.273,109.375,90.332,413.574,0
1542736897.928,56.152,-35.645,78.613,138.184,454.102,0
1542736897.932,136.719,-25.391,84.473,242.188,487.305,0
1542736897.936,178.711,-23.926,87.402,311.523,479.980,0
1542736897.940,168.945,-63.965,54.688,338.867,445.312,0
1542736897.944,176.758,-41.016,47.852,187.012,446.777,0
1542736897.948,158.691,3.418,71.777,66.895,442.871,0
1542736897.951,129.883,-2.930,77.148,130.371,368.164,0
1542736897.955,133.789,-11.719,56.641,132.812,359.863,0
1542736897.959,129.395,8.301,50.293,128.906,387.207,0
1542736897.963,143.555,38.574,51.758,165.527,380.859,0
1542736897.967,183.105,43.457,50.293,174.316,372.070,0
1542736897.971,189.453,38.086,42.969,200.684,361.328,0
1542736897.975,171.387,48.828,45.410,235.352,329.102,0
1542736897.979,186.523,51.270,39.062,169.434,328.613,0
1542736897.983,236.816,67.383,42.969,120.605,337.402,0
1542736897.987,260.742,79.102,62.500,158.203,285.645,0
1542736897.991,286.133,78.125,45.410,207.031,280.762,0
1542736897.994,264.160,74.219,25.879,121.094,299.805,0
1542736897.998,217.285,68.848,32.715,49.316,234.375,0
1542736898.002,252.441,85.938,42.969,114.746,187.988,0
1542736898.006,289.062,100.586,48.828,108.887,148.438,0
1542736898.010,288.086,93.750,45.410,126.953,111.816,0
1542736898.014,323.242,73.730,34.668,203.613,100.586,0
1542736898.018,316.406,65.430,36.133,209.961,95.703,0
1542736898.022,269.531,82.520,38.574,167.969,75.684,0
1542736898.026,262.695,71.289,20.996,96.191,42.969,0
1542736898.030,297.363,58.594,7.324,84.473,18.066,0
1542736898.034,377.441,93.262,21.973,162.109,-15.625,0
1542736898.037,410.156,114.746,22.949,185.547,-21.973,0
1542736898.041,333.496,100.586,6.348,123.535,0.977,0
1542736898.045,274.414,79.102,16.113,51.270,-20.020,0
1542736898.049,264.160,62.988,20.020,59.570,-19.043,0
1542736898.053,270.508,64.941,15.137,104.492,0.977,0
1542736898.057,315.918,86.914,32.715,84.473,-19.043,0
1542736898.061,307.617,90.332,41.504,91.309,-17.578,0
1542736898.065,258.301,65.918,28.809,115.234,-11.230,0
1542736898.069,223.145,35.645,19.531,149.414,17.090,0
1542736898.073,224.121,18.555,24.902,172.852,8.301,0
1542736898.076,283.691,33.691,35.156,179.199,-51.758,0
1542736898.080,300.781,57.129,32.715,166.992,-19.531,0
1542736898.084,258.301,44.922,14.160,118.164,-11.230,0
1542736898.088,229.004,26.855,5.371,44.434,-55.176,0
1542736898.092,201.660,39.062,-7.324,-13.184,-69.336,0
1542736898.096,217.285,58.594,-7.324,-18.555,-83.008,0
1542736898.100,236.816,50.293,15.625,10.742,-82.031,0
1542736898.104,236.328,29.297,26.367,22.949,-62.500,0
1542736898.108,211.914,39.551,21.973,40.527,-58.105,0
1542736898.112,226.074,50.293,26.855,96.191,-75.195,0
1542736898.116,221.680,35.156,25.391,109.863,-83.496,0
1542736898.119,181.152,41.992,25.391,91.797,-110.840,0
1542736898.123,222.656,57.129,48.340,125.977,-110.352,0
1542736898.127,240.723,58.105,33.203,135.254,-105.469,0
1542736898.131,192.383,18.066,2.930,108.398,-145.996,0
1542736898.135,148.438,2.441,27.832,104.492,-173.828,0
1542736898.139,128.418,21.484,43.945,154.297,-163.086,0
1542736898.143,170.410,24.414,40.527,185.547,-142.578,0
1542736898.147,175.781,51.270,35.645,94.238,-149.414,0
1542736898.151,138.672,69.824,24.902,8.789,-155.273,0
1542736898.155,153.809,57.129,34.668,20.996,-192.871,0
1542736898.159,154.785,32.227,49.805,78.613,-199.707,0
1542736898.162,119.141,20.020,49.316,138.672,-166.992,0
1542736898.166,126.465,16.113,34.180,125.000,-172.852,0
1542736898.170,144.531,24.902,26.855,23.926,-193.848,0
1542736898.174,135.742,40.039,38.086,8.789,-195.801,0
1542736898.178,126.953,32.227,31.738,43.945,-187.988,0
1542736898.182,131.348,37.598,14.160,59.570,-188.477,0
1542736898.186,161.133,48.340,35.645,83.008,-165.039,0
1542736898.190,166.992,28.809,62.012,71.777,-169.922,0
1542736898.194,104.980,2.930,48.340,56.641,-202.637,0
1542736898.198,81.055,5.859,42.480,55.176,-151.367,0
1542736898.201,122.070,19.043,45.898,55.176,-137.207,0
1542736898.205,146.973,23.438,41.504,61.523,-169.434,0
1542736898.209,147.461,34.180,41.992,88.379,-155.762,0
1542736898.213,132.324,46.387,33.691,111.816,-119.141,0
1542736898.217,106.934,41.992,25.391,97.656,-108.398,0
1542736898.221,112.305,41.992,56.152,139.648,-93.262,0
1542736898.225,139.160,19.531,98.633,211.914,-104.004,0
1542736898.229,123.047,18.066,64.941,210.938,-178.223,0
1542736898.233,107.910,47.363,8.789,80.566,-164.551,0
1542736898.237,111.328,35.645,2.930,-27.344,-127.441,0
1542736898.241,116.211,41.504,26.855,-25.879,-85.449,0
1542736898.244,89.844,30.273,52.246,1.465,-73.730,0
1542736898.248,52.734,2.930,43.457,-8.789,-102.051,0
1542736898.252,74.707,16.113,37.598,2.930,-96.191,0
1542736898.256,102.051,29.785,39.062,20.508,-111.328,0
1542736898.260,80.078,21.973,38.086,20.996,-83.496,0
1542736898.264,104.492,32.227,47.363,85.938,-111.816,0
1542736898.268,141.602,47.363,42.969,135.742,-110.840,0
1542736898.272,90.820,20.996,30.762,75.684,-44.922,0
1542736898.276,67.383,12.695,30.273,28.320,-88.867,0
1542736898.280,95.215,21.484,42.969,60.059,-101.562,0
1542736898.284,75.195,11.230,49.316,99.121,-69.336,0
1542736898.287,61.523,8.789,42.480,132.812,-91.797,0
1542736898.291,80.078,21.484,33.203,94.727,-84.473,0
1542736898.295,106.934,56.152,22.461,62.012,-40.527,0
1542736898.299,121.582,46.387,41.016,112.305,-6.348,0
1542736898.303,81.543,20.996,62.012,98.633,35.156,0
1542736898.307,81.543,34.668,60.547,45.410,-33.691,0
1542736898.311,98.633,23.926,62.500,-62.988,-28.809,0
1542736898.315,66.895,26.855,44.434,-92.773,35.645,0
1542736898.319,36.621,21.484,18.555,-34.668,1.953,0
1542736898.323,35.645,9.766,29.785,-33.203,4.395,0
1542736898.326,44.922,16.113,54.199,-29.785,22.461,0
1542736898.330,49.805,16.602,52.246,13.184,44.922,0
1542736898.334,98.145,40.039,52.246,41.992,62.988,0
1542736898.338,127.441,61.035,59.082,87.402,32.227,0
1542736898.342,104.980,41.992,49.805,96.680,-0.488,0
1542736898.346,90.820,19.043,49.805,31.738,11.230,0
1542736898.350,60.547,29.297,43.945,31.738,35.645,0
1542736898.354,42.480,41.016,47.363,38.086,-24.414,0
1542736898.358,50.293,26.367,43.945,7.324,-28.320,0
1542736898.362,65.430,16.113,28.320,11.719,19.043,0
1542736898.366,62.988,16.602,44.434,40.039,61.523,0
1542736898.369,73.730,37.109,70.801,47.852,60.547,0
1542736898.373,91.797,58.594,66.406,40.039,51.270,0
1542736898.377,73.730,45.898,60.059,49.805,18.066,0
1542736898.381,48.340,27.344,45.898,69.336,34.668,0
1542736898.385,64.453,36.621,28.320,154.785,20.508,0
1542736898.389,86.914,53.711,69.824,197.754,-5.859,0
1542736898.393,58.594,35.645,86.914,16.602,35.156,0
1542736898.397,66.895,23.438,50.293,-77.148,10.742,0
1542736898.401,109.863,47.363,67.871,-9.277,4.883,0
1542736898.405,53.223,37.109,71.777,-43.945,37.598,0
1542736898.409,45.410,28.809,42.480,-59.570,23.438,0
1542736898.412,85.449,37.109,52.734,-37.109,-36.133,0
1542736898.416,66.895,35.645,52.734,-55.664,-25.879,0
1542736898.420,49.805,31.250,48.340,-54.688,63.477,0
1542736898.424,89.355,30.273,45.410,-37.598,64.941,0
1542736898.428,100.586,36.133,42.969,6.836,-10.254,0
1542736898.432,33.691,33.691,54.688,3.418,12.207,0
1542736898.436,5.371,22.461,62.500,-16.113,63.965,0
1542736898.440,14.648,15.137,62.012,20.020,42.969,0
1542736898.444,-7.324,18.066,64.941,21.484,9.277,0
1542736898.448,-50.781,38.574,60.059,37.598,0.000,0
1542736898.451,-58.594,33.203,60.547,51.270,39.062,0
1542736898.455,-17.578,23.926,56.641,34.668,0.488,0
1542736898.459,-3.418,29.297,46.875,23.438,-3.418,0
1542736898.463,66.406,15.137,53.711,-21.973,28.809,0
1542736898.467,109.863,9.277,57.129,-4.883,-33.691,0
1542736898.471,70.312,25.879,68.359,28.809,-30.273,0
1542736898.475,125.488,47.852,72.266,1.465,29.785,0
1542736898.479,183.105,46.875,68.359,-32.227,29.785,0
1542736898.483,139.160,19.043,83.496,-18.066,2.441,0
1542736898.487,92.285,14.160,92.285,35.645,-2.441,0
1542736898.491,73.730,34.668,81.055,29.785,40.039,0
1542736898.494,30.273,35.645,77.148,-6.348,23.926,0
1542736898.498,-88.379,20.020,74.707,-32.227,8.789,0
1542736898.502,-177.734,15.625,64.453,-53.223,17.578,0
1542736898.506,-125.000,24.902,63.477,-69.336,20.020,0
1542736898.510,-90.820,26.367,58.105,-85.938,32.227,0
1542736898.514,-119.629,28.320,55.664,-110.840,-30.273,0
1542736898.518,-145.020,38.086,58.105,-143.555,-49.316,0
1542736898.522,-145.508,42.969,57.129,-155.273,36.133,0
1542736898.526,-129.883,46.387,56.641,-139.160,0.488,0
1542736898.530,-101.074,55.664,61.523,-148.438,-12.695,0
1542736898.534,-69.336,54.688,56.641,-188.477,59.570,0
1542736898.537,-76.172,63.477,41.016,-214.355,10.254,0
1542736898.541,-92.285,77.148,32.715,-212.891,-20.996,0
1542736898.545,-82.031,83.984,41.992,-192.871,-10.254,0
1542736898.549,-28.320,89.844,57.617,-174.316,-29.297,0
1542736898.553,-31.738,89.844,34.668,-175.293,1.953,0
1542736898.557,-92.285,88.867,24.414,-188.965,-43.945,0
1542736898.561,-82.031,63.477,44.922,-163.574,-24.414,0
1542736898.565,-75.195,61.523,24.414,-188.965,19.531,0
1542736898.569,-62.500,82.520,0.977,-187.988,-20.996,0
1542736898.573,-6.348,104.004,12.695,-123.535,32.715,0
1542736898.576,-17.090,118.652,8.301,-128.418,53.711,0
1542736898.580,-51.270,111.816,-22.949,-145.020,58.105,0
1542736898.584,14.160,115.234,-36.621,-114.258,11.719,0
1542736898.588,47.363,117.676,-32.715,-102.051,-15.137,0
1542736898.592,14.648,106.445,-30.273,-83.496,29.297,0
1542736898.596,19.531,95.703,-32.715,-85.938,-21.484,0
1542736898.600,21.973,97.656,-35.645,-74.707,-56.641,0
1542736898.604,46.875,91.309,-27.344,-65.430,5.371,0
1542736898.608,44.922,116.211,-32.715,-60.059,53.711,0
1542736898.612,61.035,111.328,-47.363,7.812,18.066,0
1542736898.616,95.215,49.805,-35.156,26.367,28.320,0
1542736898.619,77.148,70.801,-38.574,12.207,-7.812,0
1542736898.623,77.148,73.730,-45.410,40.527,10.254,0
1542736898.627,106.934,45.898,-37.598,56.152,34.180,0
1542736898.631,125.977,56.641,-35.645,50.781,22.461,0
1542736898.635,148.926,56.152,-41.016,98.145,-8.301,0
1542736898.639,156.738,54.688,-42.480,114.258,-9.277,0
1542736898.643,167.480,67.383,-37.109,133.789,41.992,0
1542736898.647,169.922,72.266,-34.180,162.598,46.387,0
1542736898.651,143.066,60.547,-28.809,66.406,8.301,0
1542736898.655,125.977,49.805,-20.996,40.039,23.926,0
1542736898.659,105.957,42.969,-19.043,79.590,29.785,0
1542736898.662,125.488,36.621,-22.461,71.289,0.488,0
1542736898.666,116.699,29.785,-19.043,96.680,19.043,0
1542736898.670,104.492,26.367,-11.230,106.934,18.555,0
1542736898.674,140.137,33.691,-16.113,123.535,21.973,0
1542736898.678,130.859,34.180,-17.090,129.395,29.785,0
1542736898.682,101.562,26.367,-7.812,111.328,16.113,0
1542736898.686,100.098,24.902,-3.906,102.051,19.531,0
1542736898.690,117.188,20.508,-4.883,125.488,39.551,0
1542736898.694,124.023,19.531,-5.371,150.879,28.320,0
1542736898.698,118.652,15.137,2.441,133.301,56.641,0
1542736898.701,110.840,6.836,13.672,108.398,81.055,0
1542736898.705,84.961,3.418,11.230,115.723,36.621,0
1542736898.709,93.262,0.488,-1.465,91.797,44.434,0
1542736898.713,104.004,13.184,13.184,82.520,116.699,0
1542736898.717,74.707,15.625,29.297,69.824,62.500,0
1542736898.721,61.035,-1.465,24.902,62.988,-3.418,0
1542736898.725,57.129,-5.859,28.320,74.219,20.996,0
1542736898.729,62.012,7.324,37.109,87.891,8.301,0
1542736898.733,62.012,5.371,37.109,111.328,7.324,0
1542736898.737,72.266,0.488,25.391,77.637,60.059,0
1542736898.741,65.430,2.441,20.508,34.668,76.660,0
1542736898.744,38.086,0.488,19.531,26.855,55.664,0
1542736898.748,42.480,-0.488,19.531,15.625,16.602,0
1542736898.752,51.758,10.254,22.949,11.230,-15.137,0
1542736898.756,57.617,15.625,27.832,78.125,-19.531,0
1542736898.760,27.832,-8.789,33.691,94.238,11.230,0
1542736898.764,-25.391,-13.184,40.527,32.715,16.602,0
1542736898.768,-25.391,2.441,35.156,23.926,63.965,0
1542736898.772,-14.648,3.906,25.879,42.480,72.754,0
1542736898.776,11.719,5.859,34.180,77.637,50.293,0
1542736898.780,21.973,9.277,35.156,61.523,66.895,0
1542736898.784,9.277,15.137,35.156,46.387,63.477,0
1542736898.787,-1.953,8.789,46.875,49.805,50.293,0
1542736898.791,-21.484,10.254,46.387,23.926,49.316,0
1542736898.795,5.859,18.066,37.598,48.828,26.855,0
1542736898.799,30.273,18.066,38.086,34.180,3.906,0
1542736898.803,38.086,18.555,29.297,-7.812,25.879,0
1542736898.807,25.391,22.949,28.809,-11.230,15.625,0
1542736898.811,27.832,26.367,29.785,-25.879,6.836,0
1542736898.815,67.871,16.602,30.273,-11.719,63.965,0
1542736898.819,63.965,28.320,35.645,15.137,62.500,0
1542736898.823,22.949,48.340,33.691,3.906,28.320,0
1542736898.826,14.648,43.457,32.227,-4.883,41.992,0
1542736898.830,13.672,25.391,33.203,-5.371,3.418,0
1542736898.834,7.812,18.555,25.879,-1.465,30.273,0
1542736898.838,9.766,35.645,18.066,7.812,40.527,0
1542736898.842,-2.930,41.016,17.090,-28.320,-19.043,0
1542736898.846,4.395,39.062,23.438,-26.367,20.996,0
1542736898.850,18.066,37.109,29.297,-1.465,60.547,0
1542736898.854,12.695,32.715,27.832,-0.488,72.754,0
1542736898.858,26.367,34.668,30.762,19.043,62.988,0
1542736898.862,20.020,36.133,35.645,23.926,63.477,0
1542736898.866,24.902,32.715,34.668,16.113,36.621,0
1542736898.869,49.805,24.414,28.320,31.250,16.113,0
1542736898.873,35.156,33.203,25.879,-3.418,50.293,0
1542736898.877,56.641,44.434,21.484,-16.113,40.527,0
1542736898.881,70.312,30.762,21.973,35.645,38.574,0
1542736898.885,34.180,23.438,36.621,18.555,38.574,0
1542736898.889,13.184,27.832,47.363,-5.859,48.828,0
1542736898.893,27.832,40.527,46.387,26.855,52.246,0
1542736898.897,62.500,57.617,42.969,37.598,30.273,0
1542736898.901,103.027,52.246,38.086,26.855,-18.555,0
1542736898.905,76.172,23.926,48.828,12.695,-37.109,0
1542736898.909,15.137,-3.418,52.734,-28.320,14.648,0
1542736898.912,-13.672,-17.090,48.340,-53.711,48.828,0
1542736898.916,-5.859,-7.324,41.992,-29.785,61.523,0
1542736898.920,19.043,7.812,36.621,-0.488,79.590,0
1542736898.924,1.953,9.766,29.785,-24.414,77.637,0
1542736898.928,-20.508,15.137,19.043,-40.039,52.734,0
1542736898.932,-20.996,24.414,24.414,-41.504,36.133,0
1542736898.936,16.602,34.180,23.438,-0.488,33.691,0
1542736898.940,52.246,43.457,16.113,30.273,-2.930,0
1542736898.944,42.969,40.039,24.902,5.859,27.832,0
1542736898.948,-0.488,15.625,35.645,-12.207,55.664,0
1542736898.951,-10.254,2.930,35.156,-11.719,77.148,0
1542736898.955,25.391,5.859,34.668,-18.555,63.477,0
1542736898.959,30.273,9.277,32.227,-36.133,15.625,0
1542736898.963,57.617,37.109,31.250,3.906,17.090,0
1542736898.967,77.637,51.270,30.762,40.527,59.570,0
1542736898.971,65.918,33.203,15.137,49.316,52.734,0
1542736898.975,38.574,26.855,15.625,9.766,27.344,0
1542736898.979,23.926,34.180,29.297,-5.859,-7.812,0
1542736898.983,34.180,28.320,41.016,15.625,-28.809,0
1542736898.987,18.555,21.484,37.109,17.578,7.812,0
1542736898.991,-0.977,30.273,12.207,5.371,12.695,0
1542736898.994,20.508,32.227,16.113,6.836,15.137,0
1542736898.998,33.203,28.809,26.855,14.648,10.254,0
1542736899.002,0.000,20.020,12.695,-13.672,15.625,0
1542736899.006,-12.695,7.324,15.137,-15.625,32.715,0
1542736899.010,-1.465,10.254,18.555,13.184,36.133,0
1542736899.014,21.973,26.855,21.484,19.043,7.812,0
1542736899.018,55.176,32.715,37.598,14.160,9.277,0
1542736899.022,50.781,27.832,33.203,-3.906,51.270,0
1542736899.026,29.785,24.414,26.367,-3.906,41.016,0
1542736899.030,28.320,40.527,30.762,20.508,62.988,0
1542736899.034,16.602,43.457,25.391,40.527,47.852,0
1542736899.037,-2.441,8.301,11.719,41.992,25.879,0
1542736899.041,8.789,-2.441,0.488,27.344,57.617,0
1542736899.045,-0.977,9.277,9.766,-1.465,34.180,0
1542736899.049,-23.438,12.695,20.996,10.742,73.730,0
1542736899.053,-6.836,25.879,32.227,26.367,86.914,0
1542736899.057,2.441,34.668,33.691,-7.324,24.414,0
1542736899.061,9.277,27.344,25.879,-1.465,35.156,0
1542736899.065,20.996,37.109,24.902,29.297,53.711,0
1542736899.069,-1.953,29.297,18.066,-27.344,-9.766,0
1542736899.073,-31.250,26.367,17.578,-67.383,29.785,0
1542736899.076,-34.668,45.410,18.555,-36.133,65.430,0
1542736899.080,-8.789,36.621,16.113,-8.789,63.477,0
1542736899.084,25.879,18.555,20.996,-4.883,62.012,0
1542736899.088,23.926,10.742,19.043,-7.812,22.949,0
1542736899.092,15.137,25.391,12.207,-14.160,51.758,0
1542736899.096,26.367,42.480,9.766,1.953,37.109,0
1542736899.100,20.996,20.020,14.160,31.250,10.742,0
1542736899.104,-1.953,-9.766,20.508,25.879,11.230,0
1542736899.108,-2.441,-3.418,31.250,4.395,47.852,0
1542736899.112,4.883,3.418,31.738,14.648,93.262,0
1542736899.116,-3.906,-6.836,25.391,24.414,56.641,0
1542736899.119,-7.812,-19.531,23.926,33.691,0.000,0
1542736899.123,8.789,-31.250,20.996,44.922,26.367,0
1542736899.127,-0.488,-32.227,7.812,26.367,54.199,0
1542736899.131,-39.551,-21.973,-0.488,4.883,31.250,0
1542736899.135,-27.344,0.488,19.531,6.836,56.152,0
1542736899.139,-20.020,-5.859,29.785,13.184,50.781,0
1542736899.143,-30.273,-22.461,20.996,9.766,59.570,0
1542736899.147,-24.902,-12.695,20.508,7.812,53.223,0
1542736899.151,-29.785,-12.695,22.949,23.438,20.508,0
1542736899.155,-18.555,-15.137,21.973,55.664,-0.488,0
1542736899.159,-3.906,-15.625,26.367,51.270,-21.973,0
1542736899.162,1.953,-10.742,23.438,30.273,-10.254,0
1542736899.166,7.324,-6.348,15.625,19.531,53.711,0
1542736899.170,-2.441,-17.578,14.160,-8.789,65.918,0
1542736899.174,-9.277,-27.344,16.113,50.293,37.109,0
1542736899.178,-0.488,-32.227,14.648,146.484,58.594,0
1542736899.182,-4.883,-23.438,33.203,167.480,52.246,0
1542736899.186,-19.531,-19.531,41.992,139.648,67.383,0
1542736899.190,-15.625,-12.695,12.695,29.785,79.590,0
1542736899.194,1.465,-0.977,2.441,26.855,73.242,0
1542736899.198,-3.906,4.395,21.484,23.926,48.340,0
1542736899.201,-7.812,4.883,26.367,-70.312,-4.883,0
1542736899.205,-8.789,1.465,13.184,4.883,-20.508,0
1542736899.209,12.207,9.766,15.137,-29.297,51.270,0
1542736899.213,25.879,21.973,31.738,-161.133,49.316,0
1542736899.217,5.859,7.812,28.809,-141.113,-30.762,0
1542736899.221,-20.996,-6.836,15.137,-95.215,-22.461,0
1542736899.225,-40.039,2.441,8.789,-84.473,24.902,0
1542736899.229,-45.898,7.324,15.625,-70.801,56.152,0
1542736899.233,-53.223,10.254,18.555,-42.480,79.102,0
1542736899.237,-59.570,22.949,13.184,-38.574,80.566,0
1542736899.241,-57.617,27.832,26.367,29.297,83.496,0
1542736899.244,-40.527,32.715,27.832,153.809,28.320,0
1542736899.248,-27.344,27.832,23.438,173.340,29.297,0
1542736899.252,-30.273,19.043,39.062,236.816,57.617,0
1542736899.256,-37.598,20.996,53.223,260.742,46.875,0
1542736899.260,-66.895,19.531,42.480,29.785,76.172,0
1542736899.264,-111.328,14.160,41.992,-44.434,54.199,0
1542736899.268,-123.535,8.789,28.320,-27.344,5.371,0
1542736899.272,-165.527,20.508,30.273,-125.977,47.363,0
1542736899.276,-152.832,50.293,76.660,-187.988,69.336,0
1542736899.280,-111.328,55.664,92.773,-200.195,31.738,0
1542736899.284,-159.180,5.371,100.098,-217.285,91.797,0
1542736899.287,-248.535,-48.828,115.234,-297.363,110.840,0
1542736899.291,-257.324,-20.996,115.723,-298.828,96.191,0
1542736899.295,-213.867,30.273,110.840,-186.035,83.008,0
1542736899.299,-229.980,14.160,122.559,-176.758,69.336,0
1542736899.303,-280.273,-30.762,133.301,-206.543,95.215,0
1542736899.307,-266.113,-35.156,128.418,-104.980,104.004,0
1542736899.311,-206.543,-31.738,120.117,-11.719,127.441,0
1542736899.315,-145.508,-46.875,104.980,119.629,146.973,0
1542736899.319,-108.887,-43.945,129.883,199.707,182.129,0
1542736899.323,-85.938,-29.785,149.902,49.316,189.941,0
1542736899.326,-39.551,-25.879,139.648,-16.602,219.727,0
1542736899.330,-76.172,-43.457,115.234,12.207,266.113,0
1542736899.334,-90.820,-75.684,73.730,31.738,303.711,0
1542736899.338,-51.758,-71.289,83.984,52.734,326.172,0
1542736899.342,-38.574,-48.828,88.379,51.270,345.703,0
1542736899.346,-12.207,-40.527,83.008,57.129,388.184,0
1542736899.350,12.695,-35.645,94.727,31.738,392.578,0
1542736899.354,13.184,-27.344,102.051,55.664,397.949,0
1542736899.358,-3.906,-29.785,92.773,102.539,439.453,0
1542736899.362,-9.766,-47.363,73.242,104.004,458.984,0
1542736899.366,-15.137,-54.199,78.125,83.496,476.074,0
1542736899.369,17.578,-30.762,70.312,117.676,470.215,0
1542736899.373,66.406,-11.719,56.152,167.480,473.145,0
1542736899.377,61.523,-10.254,66.895,172.363,472.168,0
1542736899.381,28.809,-4.395,63.965,176.758,442.871,0
1542736899.385,22.949,10.742,53.223,178.711,426.270,0
1542736899.389,51.270,19.043,55.176,189.941,414.062,0
1542736899.393,63.477,9.277,71.777,141.602,395.020,0
1542736899.397,41.992,8.789,64.941,52.734,355.957,0
1542736899.401,60.059,12.695,59.570,46.875,344.727,0
1542736899.405,57.617,6.836,58.594,60.547,347.656,0
1542736899.409,27.832,2.441,55.176,63.965,322.266,0
1542736899.412,21.973,3.418,50.781,114.258,320.312,0
1542736899.416,61.035,30.273,39.551,114.746,322.754,0
1542736899.420,49.316,53.711,47.363,55.664,286.133,0
1542736899.424,26.855,67.383,45.898,69.824,260.254,0
1542736899.428,67.871,83.496,44.434,99.121,252.441,0
1542736899.432,87.402,83.496,41.992,84.961,223.145,0
1542736899.436,64.941,73.730,36.621,80.078,187.012,0
1542736899.440,44.922,72.754,33.203,93.262,144.531,0
1542736899.444,140.137,83.008,33.691,118.164,87.402,0
1542736899.448,222.168,96.191,44.922,58.105,84.473,0
1542736899.451,114.746,75.195,22.949,-11.719,89.844,0
1542736899.455,35.156,47.363,5.371,11.719,104.492,0
1542736899.459,104.492,36.133,35.156,109.375,90.820,0
1542736899.463,163.086,41.016,29.297,91.797,51.270,0
1542736899.467,154.297,66.406,-5.371,-44.922,51.758,0
1542736899.471,120.117,51.758,-12.207,-53.223,73.242,0
1542736899.475,128.906,41.504,10.742,-0.488,48.340,0
1542736899.479,153.320,69.336,21.484,38.086,40.039,0
1542736899.483,187.500,59.082,7.324,71.777,49.805,0
1542736899.487,187.500,65.430,15.625,63.965,5.371,0
1542736899.491,145.508,104.492,30.762,93.750,25.391,0
1542736899.494,124.512,95.215,-0.488,109.375,34.668,0
1542736899.498,187.012,108.398,-15.625,92.285,-21.484,0
1542736899.502,221.680,110.840,14.160,54.199,-52.246,0
1542736899.506,159.180,51.758,21.484,-54.199,-44.434,0
1542736899.510,122.559,34.668,12.695,-104.980,-9.277,0
1542736899.514,98.633,58.594,17.578,-77.637,9.277,0
1542736899.518,100.098,65.918,15.625,-55.664,-13.184,0
1542736899.522,90.820,51.270,8.301,-64.941,2.441,0
1542736899.526,106.934,39.062,17.090,-33.691,40.039,0
1542736899.530,145.508,55.176,13.672,21.973,42.969,0
1542736899.534,144.043,62.988,14.160,51.758,67.383,0
1542736899.537,149.414,60.547,18.555,67.383,78.125,0
1542736899.541,154.785,60.059,13.672,40.527,73.730,0
1542736899.545,161.621,44.922,17.090,49.316,3.418,0
1542736899.549,154.297,51.758,17.578,63.477,-59.570,0
1542736899.553,108.887,46.875,11.230,73.242,-55.176,0
1542736899.557,132.812,49.805,-6.836,75.195,-105.957,0
1542736899.561,184.082,63.477,9.766,15.625,-127.930,0
1542736899.565,120.117,43.457,39.551,-66.406,-117.676,0
1542736899.569,62.012,34.180,32.227,-36.621,-134.277,0
1542736899.573,96.191,51.758,38.574,39.551,-160.156,0
1542736899.576,136.719,61.523,23.926,43.945,-199.707,0
1542736899.580,171.387,102.539,-8.301,50.781,-189.453,0
1542736899.584,160.645,106.934,12.695,7.324,-151.367,0
1542736899.588,110.840,22.461,27.832,-44.922,-158.203,0
1542736899.592,75.684,-13.184,36.133,-61.035,-182.129,0
1542736899.596,46.387,10.742,45.898,-47.363,-188.477,0
1542736899.600,67.871,5.371,21.484,-24.902,-173.828,0
1542736899.604,121.582,46.875,23.438,9.766,-184.082,0
1542736899.608,116.211,80.566,31.738,5.371,-167.969,0
1542736899.612,96.191,70.312,23.926,9.277,-147.461,0
1542736899.616,118.164,83.008,55.664,82.520,-171.875,0
1542736899.619,106.445,41.016,38.574,51.270,-183.105,0
1542736899.623,66.406,3.418,4.883,-42.480,-167.969,0
1542736899.627,54.688,19.043,27.832,-50.781,-166.016,0
1542736899.631,69.336,30.762,34.180,-56.152,-154.785,0
1542736899.635,95.703,26.855,24.902,-16.602,-133.789,0
1542736899.639,97.168,32.227,28.320,32.227,-122.559,0
1542736899.643,79.102,42.480,33.691,76.172,-128.418,0
1542736899.647,88.379,44.434,34.668,59.082,-114.746,0
1542736899.651,73.730,41.992,30.762,-38.086,-101.074,0
1542736899.655,38.574,38.574,37.109,-56.152,-97.168,0
1542736899.659,62.012,47.363,38.086,-36.621,-106.445,0
1542736899.662,78.125,56.152,22.461,-29.297,-121.094,0
1542736899.666,62.988,41.504,20.020,-6.836,-149.902,0
1542736899.670,98.145,61.035,44.922,12.695,-149.902,0
1542736899.674,64.941,51.270,34.180,19.043,-115.723,0
1542736899.678,26.855,4.883,15.137,-5.371,-114.746,0
1542736899.682,33.203,11.719,36.133,-62.988,-139.160,0
1542736899.686,14.648,24.902,23.926,-93.750,-150.879,0
1542736899.690,51.758,39.062,16.113,-68.848,-156.250,0
1542736899.694,58.105,56.641,46.875,-51.758,-138.672,0
1542736899.698,34.180,48.828,46.875,-39.551,-85.449,0
1542736899.701,112.305,31.738,46.387,10.742,-99.609,0
1542736899.705,105.469,19.531,41.992,27.344,-102.051,0
1542736899.709,37.598,29.785,17.578,-20.996,-62.500,0
1542736899.713,43.457,47.363,28.320,-34.180,-133.301,0
1542736899.717,52.734,46.387,24.902,-23.926,-134.766,0
1542736899.721,41.992,31.250,8.789,-19.531,-96.191,0
1542736899.725,35.156,43.945,15.137,27.344,-86.426,0
1542736899.729,30.762,41.016,22.949,13.184,-41.016,0
1542736899.733,36.621,23.438,43.457,17.090,-78.125,0
1542736899.737,52.734,27.344,60.547,62.988,-108.398,0
1542736899.741,58.105,20.996,49.805,42.480,-122.559,0
1542736899.744,88.867,26.855,41.016,6.836,-105.957,0
1542736899.748,109.375,48.828,35.156,-45.410,-39.551,0
1542736899.752,63.477,39.551,32.227,-73.242,-56.152,0
1542736899.756,-0.977,26.855,37.598,-69.336,-83.984,0
1542736899.760,7.812,25.391,34.668,-61.035,-57.617,0
1542736899.764,67.383,20.508,39.551,-43.457,-23.438,0
1542736899.768,67.383,28.809,53.223,-30.273,-50.293,0
1542736899.772,31.250,40.527,52.734,-31.250,-13.672,0
1542736899.776,41.992,31.738,39.551,-5.859,63.477,0
1542736899.780,64.941,36.621,16.602,5.859,16.113,0
1542736899.784,49.805,41.992,22.949,-11.230,-8.789,0
1542736899.787,22.949,25.879,44.922,-19.531,-14.160,0
1542736899.791,22.949,29.297,55.176,-21.484,-19.043,0
1542736899.795,56.152,43.945,47.852,-2.930,-40.527,0
1542736899.799,63.477,46.387,43.945,18.066,-76.660,0
1542736899.803,27.344,31.738,49.316,-5.371,-8.301,0
1542736899.807,9.766,14.160,41.016,10.254,33.203,0
1542736899.811,30.273,25.391,49.805,40.527,7.812,0
1542736899.815,49.316,19.531,55.664,57.129,-53.223,0
1542736899.819,68.848,37.109,32.227,37.109,-39.551,0
1542736899.823,62.012,58.105,17.578,13.672,28.320,0
1542736899.826,17.090,44.922,12.695,48.340,-26.367,0
1542736899.830,3.906,35.645,12.695,26.367,-62.500,0
1542736899.834,47.852,5.371,57.617,-74.219,-30.762,0
1542736899.838,56.641,6.348,80.078,-114.258,34.180,0
1542736899.842,5.859,19.043,42.969,-96.191,12.695,0
1542736899.846,9.277,44.922,31.250,-77.148,-19.043,0
1542736899.850,27.832,54.688,39.062,-48.828,46.875,0
1542736899.854,62.988,53.711,45.898,-11.230,82.520,0
1542736899.858,93.262,56.641,54.688,14.648,51.270,0
1542736899.862,40.527,15.137,42.480,-33.203,46.875,0
1542736899.866,17.578,-0.488,40.039,-43.457,43.945,0
1542736899.869,24.414,10.254,43.945,-26.855,61.523,0
1542736899.873,3.906,-0.977,56.152,-23.926,30.762,0
1542736899.877,43.945,-22.461,54.199,11.719,4.395,0
1542736899.881,89.355,18.066,30.762,68.359,41.504,0
1542736899.885,-4.395,34.180,21.973,89.844,13.672,0
1542736899.889,-61.035,19.043,42.969,130.859,16.602,0
1542736899.893,-26.367,28.320,68.359,98.633,39.551,0
1542736899.897,-5.371,39.551,74.707,17.090,-7.812,0
1542736899.901,3.906,38.086,65.918,-39.551,-32.715,0
1542736899.905,20.996,30.762,40.527,-127.930,-35.156,0
1542736899.909,29.297,36.621,35.156,-100.586,-38.086,0
1542736899.912,10.254,30.762,60.059,-51.758,1.953,0
1542736899.916,-3.418,18.066,67.871,-76.172,-3.418,0
1542736899.920,30.762,20.508,58.594,-65.918,-30.762,0
1542736899.924,18.555,30.762,49.805,-28.320,-13.672,0
1542736899.928,10.254,45.410,49.316,-0.977,6.836,0
1542736899.932,53.711,51.758,74.219,21.973,28.320,0
1542736899.936,57.129,26.367,86.914,25.391,27.832,0
1542736899.940,57.617,10.254,78.125,38.086,47.852,0
1542736899.944,32.227,11.230,57.129,29.785,33.691,0
1542736899.948,1.465,15.137,27.344,-12.695,27.832,0
1542736899.951,8.301,23.438,45.410,-31.738,38.574,0
1542736899.955,18.066,28.809,71.777,-10.742,37.109,0
1542736899.959,21.973,29.785,70.801,10.254,29.785,0
1542736899.963,1.953,28.320,93.262,-4.395,-13.184,0
1542736899.967,-11.719,14.160,104.492,-21.484,20.508,0
1542736899.971,16.113,10.254,82.031,13.672,48.340,0
1542736899.975,19.043,7.324,63.965,0.000,-5.371,0
1542736899.979,8.789,5.371,79.102,-17.578,52.246,0
1542736899.983,34.180,40.039,85.449,-13.672,80.078,0
1542736899.987,104.004,61.523,75.684,18.066,43.945,0
1542736899.991,99.609,42.480,69.336,86.914,-16.113,0
1542736899.994,29.785,23.438,60.059,71.289,-33.691,0
1542736899.998,-22.949,13.184,61.035,-13.184,26.367,0
1542736900.002,-41.992,41.992,60.547,-64.941,38.086,0
1542736900.006,-4.883,58.594,54.199,-55.664,26.367,0
1542736900.010,-10.254,32.715,65.918,-55.664,57.129,0
1542736900.014,-29.785,28.320,83.496,-50.293,34.668,0
1542736900.018,-32.715,12.207,66.895,-48.340,-44.434,0
1542736900.022,-20.508,-3.418,49.805,-33.203,-9.277,0
1542736900.026,12.695,5.371,56.641,10.742,50.781,0
1542736900.030,34.180,41.504,69.336,31.250,35.645,0
1542736900.034,29.785,64.941,62.500,2.441,14.648,0
1542736900.037,9.766,30.273,56.152,-22.949,53.711,0
1542736900.041,24.414,21.973,80.078,14.648,52.734,0
1542736900.045,41.504,41.504,70.312,25.391,17.578,0
1542736900.049,13.672,44.922,53.223,25.879,-4.883,0
1542736900.053,-18.066,29.297,80.078,147.949,31.250,0
1542736900.057,-20.996,20.996,86.426,246.094,36.621,0
1542736900.061,-0.977,29.297,51.758,111.816,27.344,0
1542736900.065,40.039,39.551,43.457,-111.816,24.902,0
1542736900.069,16.602,48.340,43.457,-173.340,55.176,0
1542736900.073,-9.277,28.320,31.738,-147.461,80.078,0
1542736900.076,-13.184,-5.859,54.199,-131.836,64.941,0
1542736900.080,-20.020,-10.254,74.707,-73.242,66.406,0
1542736900.084,34.668,31.738,85.449,-30.762,86.426,0
1542736900.088,30.273,44.922,66.895,-41.504,110.352,0
1542736900.092,15.137,36.133,45.898,-27.344,10.254,0
1542736900.096,26.367,55.176,51.758,6.348,-12.207,0
1542736900.100,-2.441,42.969,64.941,-8.301,36.621,0
1542736900.104,-16.602,19.043,77.637,16.602,33.203,0
1542736900.108,-3.906,17.578,74.707,107.910,42.969,0
1542736900.112,-40.527,2.441,62.500,161.621,39.062,0
1542736900.116,-71.777,-4.395,60.547,85.449,35.156,0
1542736900.119,-50.293,36.133,73.242,-7.324,39.551,0
1542736900.123,-22.949,41.992,66.895,-70.312,55.664,0
1542736900.127,12.207,32.227,55.664,-148.438,34.180,0
1542736900.131,57.129,73.242,74.219,-63.965,82.031,0
1542736900.135,63.477,73.242,88.867,9.277,97.656,0
1542736900.139,-18.066,15.137,55.664,-48.828,42.969,0
1542736900.143,-65.430,-7.812,31.250,-81.055,-4.883,0
1542736900.147,-47.363,-8.789,38.086,-64.941,-15.625,0
1542736900.151,-36.621,18.555,60.547,-42.969,22.461,0
1542736900.155,-3.418,33.203,86.426,-19.531,69.824,0
1542736900.159,-15.137,13.184,78.613,-47.852,57.129,0
1542736900.162,-34.668,10.742,66.406,-43.457,41.504,0
1542736900.166,3.906,33.203,59.570,-11.719,49.316,0
1542736900.170,39.062,48.828,54.199,23.438,67.871,0
1542736900.174,9.277,41.992,53.711,37.109,42.480,0
1542736900.178,-38.086,24.902,53.223,-9.766,9.766,0
1542736900.182,12.207,33.203,73.242,-18.555,64.941,0
1542736900.186,91.309,18.066,86.914,53.711,106.445,0
1542736900.190,34.668,6.836,63.965,46.875,85.938,0
1542736900.194,-41.992,20.020,43.945,1.953,74.219,0
1542736900.198,-51.270,16.602,43.945,-16.113,11.719,0
1542736900.201,-29.785,36.621,46.387,-17.578,9.277,0
1542736900.205,-1.465,45.410,56.152,42.969,27.344,0
1542736900.209,-39.551,17.090,53.711,17.090,-15.625,0
1542736900.213,-57.129,9.277,56.152,-41.016,4.883,0
1542736900.217,-29.785,-2.441,60.059,-42.480,31.738,0
1542736900.221,-23.438,-7.324,53.711,-29.785,3.906,0
1542736900.225,-14.160,26.855,54.688,-16.602,-23.926,0
1542736900.229,13.184,43.457,42.969,0.977,-10.742,0
1542736900.233,4.883,54.199,42.969,25.879,30.762,0
1542736900.237,-20.020,52.246,45.410,33.691,88.867,0
1542736900.241,-23.438,31.738,53.711,10.254,87.402,0
1542736900.244,26.855,30.273,83.008,17.578,13.184,0
1542736900.248,39.062,24.902,83.984,2.441,11.230,0
1542736900.252,3.906,14.160,60.547,-55.176,22.461,0
1542736900.256,-13.184,25.879,53.711,-47.852,3.906,0
1542736900.260,-15.625,31.738,39.062,-10.742,26.367,0
1542736900.264,0.000,20.020,29.297,21.973,24.902,0
1542736900.268,-9.277,9.766,26.855,4.883,32.715,0
1542736900.272,13.184,30.273,29.297,-11.719,47.363,0
1542736900.276,30.273,29.785,42.969,33.691,22.949,0
1542736900.280,5.371,1.465,41.016,21.973,1.465,0
1542736900.284,22.461,34.668,57.129,0.488,8.301,0
1542736900.287,38.574,40.039,73.730,29.785,57.129,0
1542736900.291,-3.906,-15.625,50.781,33.691,49.805,0
1542736900.295,-18.066,8.789,41.992,7.812,14.160,0
1542736900.299,-0.977,46.875,46.875,-5.371,13.672,0
1542736900.303,-12.695,25.391,51.758,20.508,-18.555,0
1542736900.307,-16.602,13.184,36.621,-16.602,2.930,0
1542736900.311,11.719,28.809,32.227,-62.012,20.020,0
1542736900.315,20.996,33.203,53.711,-22.949,-6.836,0
1542736900.319,17.578,23.926,54.199,19.043,1.953,0
1542736900.323,12.207,30.762,58.594,-27.344,15.137,0
1542736900.326,-9.766,37.598,51.758,-70.801,26.855,0
1542736900.330,-15.137,32.715,32.715,-30.762,7.324,0
1542736900.334,25.391,33.203,45.410,13.672,8.789,0
1542736900.338,45.898,27.832,48.340,8.301,21.484,0
1542736900.342,-2.441,8.301,40.039,-6.836,46.387,0
1542736900.346,-28.809,6.836,45.410,7.324,55.176,0
1542736900.350,-12.207,27.832,46.875,16.113,18.555,0
1542736900.354,-2.930,37.598,50.781,7.324,20.020,0
1542736900.358,63.965,46.875,64.941,50.781,58.105,0
1542736900.362,78.125,-13.672,64.453,83.496,69.336,0
1542736900.366,-13.672,-34.668,55.664,-0.488,37.109,0
1542736900.369,-48.340,57.129,33.691,-56.152,46.875,0
1542736900.373,-20.508,79.590,28.809,-22.949,69.336,0
1542736900.377,-21.973,46.875,37.598,-28.320,-8.301,0
1542736900.381,-41.992,29.785,35.156,-45.410,10.742,0
1542736900.385,-9.766,41.504,49.316,-14.160,43.945,0
1542736900.389,9.766,29.785,42.969,-19.531,33.691,0
1542736900.393,-6.348,19.531,29.785,-33.691,34.180,0
1542736900.397,-9.766,24.414,34.180,-20.020,19.531,0
1542736900.401,18.555,39.551,42.969,7.324,61.035,0
1542736900.405,12.207,45.898,50.781,41.016,29.297,0
1542736900.409,-21.973,27.832,43.457,48.340,-85.449,0
1542736900.412,-3.906,30.273,22.949,56.641,-79.102,0
1542736900.416,24.902,33.203,35.156,94.238,-16.113,0
1542736900.420,30.273,15.137,64.453,70.801,-20.508,0
1542736900.424,12.207,0.977,39.062,84.961,2.930,0
1542736900.428,13.184,27.344,49.805,82.031,65.918,0
1542736900.432,35.156,54.688,71.289,-13.672,42.480,0
1542736900.436,-3.906,51.270,41.504,-75.684,36.133,0
1542736900.440,-25.879,47.852,23.926,-119.141,68.848,0
1542736900.444,-14.648,40.527,36.621,-95.215,65.430,0
1542736900.448,-12.695,41.016,44.434,-62.012,46.875,0
1542736900.451,19.043,41.504,43.457,-42.480,29.785,0
1542736900.455,0.488,21.484,34.180,-18.066,63.477,0
1542736900.459,-6.836,19.531,23.926,9.766,1.465,0
1542736900.463,-6.348,4.395,32.227,1.953,-42.480,0
1542736900.467,-7.812,0.000,47.852,-17.578,42.969,0
1542736900.471,-6.836,22.949,37.598,-20.020,67.871,0
1542736900.475,-13.184,36.621,29.785,-29.785,59.570,0
1542736900.479,-2.441,38.574,46.387,6.348,81.055,0
1542736900.483,2.441,40.527,56.152,49.805,53.223,0
1542736900.487,24.414,58.594,75.684,42.480,45.898,0
1542736900.491,36.133,58.594,59.570,10.254,26.367,0
1542736900.494,19.531,31.738,14.648,2.930,9.277,0
1542736900.498,-10.742,11.230,10.254,28.809,11.230,0
1542736900.502,-1.953,27.344,20.996,53.223,35.156,0
1542736900.506,27.832,18.066,31.250,19.043,119.141,0
1542736900.510,30.762,-17.090,49.805,5.371,42.480,0
1542736900.514,12.207,9.277,55.176,25.391,8.789,0
1542736900.518,8.789,56.152,57.617,-23.926,75.684,0
1542736900.522,-6.836,57.617,47.852,-59.082,49.316,0
1542736900.526,-10.742,39.551,24.414,-45.410,35.156,0
1542736900.530,-7.812,33.691,31.250,-7.812,-12.695,0
1542736900.534,-8.789,18.555,26.367,-10.742,-69.824,0
1542736900.537,17.578,19.043,40.527,-17.090,-15.625,0
1542736900.541,52.246,38.574,61.523,10.254,2.441,0
1542736900.545,17.578,31.738,46.875,12.695,62.988,0
1542736900.549,-18.066,15.137,36.621,2.930,111.328,0
1542736900.553,6.836,33.203,43.457,3.906,70.312,0
1542736900.557,8.789,34.180,33.691,-15.137,16.602,0
1542736900.561,4.395,31.250,11.719,-10.742,-6.836,0
1542736900.565,25.391,47.363,29.297,9.766,8.301,0
1542736900.569,-0.488,32.227,53.223,3.418,0.977,0
1542736900.573,-14.160,13.184,52.246,26.855,-0.488,0
1542736900.576,5.859,23.926,38.574,66.895,34.668,0
1542736900.580,14.160,37.109,40.527,99.121,-15.625,0
1542736900.584,20.508,39.551,39.062,98.633,-33.203,0
1542736900.588,40.527,45.410,28.809,62.500,4.395,0
1542736900.592,37.598,20.996,30.762,-19.531,4.395,0
1542736900.596,26.855,4.883,54.199,-60.547,20.996,0
1542736900.600,26.367,18.555,46.387,-52.734,37.109,0
1542736900.604,-3.906,27.344,42.480,-45.898,36.621,0
1542736900.608,-22.949,29.297,54.688,-61.523,-13.184,0
1542736900.612,-7.812,34.668,38.574,-58.105,-23.926,0
1542736900.616,10.742,57.617,41.016,-16.113,8.789,0
1542736900.619,-9.277,47.363,33.203,-17.090,54.199,0
1542736900.623,-30.762,8.301,14.160,-30.762,32.715,0
1542736900.627,-16.602,18.066,23.926,-25.879,8.789,0
1542736900.631,12.695,33.203,49.805,5.859,52.734,0
1542736900.635,-4.883,15.137,44.922,35.156,69.336,0
1542736900.639,-5.859,0.488,29.297,84.961,66.406,0
1542736900.643,46.387,19.531,41.016,127.930,42.969,0
1542736900.647,59.570,39.551,51.758,25.879,26.855,0
1542736900.651,14.648,41.504,42.969,-68.848,36.621,0
1542736900.655,3.906,8.301,22.461,-37.109,37.109,0
1542736900.659,3.906,-15.137,34.180,-21.973,16.113,0
1542736900.662,-18.555,11.230,60.547,-41.992,60.059,0
1542736900.666,-19.531,38.086,56.641,-29.785,93.750,0
1542736900.670,-29.297,35.156,36.621,-18.555,44.922,0
1542736900.674,-3.906,36.621,39.551,-5.859,4.395,0
1542736900.678,16.113,36.621,45.410,-5.859,-17.090,0
1542736900.682,13.672,9.277,36.133,-32.227,13.672,0
1542736900.686,8.789,7.812,33.203,-27.344,54.688,0
1542736900.690,9.766,32.227,45.410,18.066,7.324,0
1542736900.694,12.695,32.227,60.547,19.531,19.043,0
1542736900.698,-2.930,8.301,49.316,-35.645,40.527,0
1542736900.701,0.977,1.953,27.832,-9.766,58.105,0
1542736900.705,20.508,26.367,32.715,66.406,113.770,0
1542736900.709,40.039,44.922,48.828,93.262,109.863,0
1542736900.713,40.039,33.691,42.969,11.230,62.500,0
1542736900.717,28.320,26.367,34.180,-35.156,-9.277,0
1542736900.721,30.762,22.461,11.230,1.953,28.809,0
1542736900.725,32.227,31.738,13.672,15.137,56.641,0
1542736900.729,41.992,36.133,43.945,26.855,-24.414,0
1542736900.733,35.156,32.227,56.641,73.242,-52.734,0
1542736900.737,20.508,32.227,70.312,154.297,-12.695,0
1542736900.741,15.137,43.457,48.828,102.539,42.969,0
1542736900.744,-6.836,33.203,24.414,-76.172,74.219,0
1542736900.748,-13.672,11.230,30.762,-85.938,58.105,0
1542736900.752,-11.230,4.395,23.926,-19.043,77.148,0
1542736900.756,1.953,16.113,23.926,-46.387,95.215,0
