timestamps,TP9,AF7,AF8,TP10,Right AUX,Marker0
1553633573.132,20.996,-698.730,-1000.000,21.973,-268.555,0
1553633573.136,14.648,-84.961,-605.957,20.996,75.195,0
1553633573.140,13.184,254.883,-315.918,21.484,365.723,0
1553633573.144,16.602,193.848,-359.375,23.926,338.379,0
1553633573.148,20.020,251.953,-280.762,23.926,345.215,0
1553633573.152,11.230,293.945,-279.785,23.438,358.887,0
1553633573.156,9.277,-175.293,-657.227,21.484,295.410,0
1553633573.160,20.020,-904.297,-986.816,20.508,-498.535,0
1553633573.164,9.766,-984.863,-963.379,24.414,-1000.000,0
1553633573.167,12.695,-901.367,-931.641,32.715,-900.391,0
1553633573.171,21.973,-1000.000,-1000.000,26.367,-1000.000,0
1553633573.175,-0.977,-314.453,-552.734,6.836,-291.016,0
1553633573.179,-10.742,845.215,301.758,5.371,627.930,0
1553633573.183,3.906,856.934,346.680,9.277,508.789,0
1553633573.187,13.184,635.742,110.840,10.742,503.418,0
1553633573.191,6.836,672.852,105.957,7.324,507.812,0
1553633573.195,0.977,702.148,114.258,4.883,462.402,0
1553633573.199,-2.441,523.926,-53.223,7.324,532.227,0
1553633573.203,-5.371,-36.621,-627.441,-0.977,564.941,0
1553633573.206,-3.418,-70.801,-723.633,-1.465,538.086,0
1553633573.210,0.488,415.527,-234.375,6.836,430.664,0
1553633573.214,12.207,315.918,-290.527,2.930,354.980,0
1553633573.218,18.066,217.285,-386.230,3.418,405.273,0
1553633573.222,8.789,378.906,-239.258,1.465,353.516,0
1553633573.226,4.395,442.383,-163.086,0.000,329.590,0
1553633573.230,-0.488,269.043,-328.613,-0.488,322.754,0
1553633573.234,5.371,163.574,-453.125,-7.324,322.266,0
1553633573.238,6.836,369.141,-238.770,0.488,364.746,0
1553633573.242,1.465,437.012,-145.020,9.766,344.727,0
1553633573.246,0.977,118.652,-455.078,9.766,336.426,0
1553633573.249,0.000,-99.121,-701.660,13.184,342.285,0
1553633573.253,-3.418,39.062,-553.711,17.090,223.145,0
1553633573.257,-7.812,263.672,-349.121,10.254,235.352,0
1553633573.261,-4.883,-113.281,-581.543,1.953,280.762,0
1553633573.265,4.883,-929.199,-990.723,8.301,-492.188,0
1553633573.269,8.301,-989.258,-971.191,15.625,-1000.000,0
1553633573.273,3.418,-891.602,-921.875,10.742,-889.160,0
1553633573.277,4.395,-1000.000,-1000.000,16.113,-1000.000,0
1553633573.281,7.324,-423.340,-599.609,17.578,-370.605,0
1553633573.285,3.418,760.254,297.363,9.766,652.832,0
1553633573.289,-3.906,780.273,334.961,5.859,573.730,0
1553633573.292,-1.953,521.484,65.918,8.789,575.684,0
1553633573.296,4.883,532.227,37.109,11.719,628.906,0
1553633573.300,4.883,726.074,211.426,13.672,555.664,0
1553633573.304,2.441,677.734,190.430,13.184,543.457,0
1553633573.308,3.418,140.137,-355.957,8.789,594.238,0
1553633573.312,6.348,232.910,-331.543,6.348,549.805,0
1553633573.316,5.371,641.602,86.426,11.230,466.309,0
1553633573.320,11.719,412.598,-119.629,19.043,418.945,0
1553633573.324,6.836,199.707,-345.703,7.324,458.984,0
1553633573.328,23.926,278.320,-279.297,27.344,443.848,0
1553633573.331,47.363,392.578,-164.551,51.758,346.191,0
1553633573.335,0.977,314.941,-240.723,3.906,357.910,0
1553633573.339,-18.555,22.461,-558.594,-17.578,331.055,0
1553633573.343,13.184,-155.273,-738.281,13.184,271.484,0
1553633573.347,13.672,72.754,-535.645,17.090,297.363,0
1553633573.351,14.160,-9.277,-558.594,13.672,390.625,0
1553633573.355,22.461,-827.148,-972.168,14.160,-369.629,0
1553633573.359,15.625,-1000.000,-982.910,6.348,-1000.000,0
1553633573.363,8.789,-888.184,-921.875,2.441,-893.066,0
1553633573.367,13.184,-1000.000,-1000.000,4.883,-1000.000,0
1553633573.371,14.648,-473.145,-647.461,14.648,-429.688,0
1553633573.374,14.648,725.586,221.191,20.996,574.219,0
1553633573.378,10.742,888.672,388.184,11.230,547.363,0
1553633573.382,15.137,703.613,227.539,13.672,576.660,0
1553633573.386,17.578,547.363,48.340,13.184,626.465,0
1553633573.390,10.742,505.859,-33.203,2.930,558.594,0
1553633573.394,7.324,514.160,-17.090,12.695,484.863,0
1553633573.398,9.766,62.988,-458.984,14.648,532.227,0
1553633573.402,10.742,153.320,-420.898,13.184,520.996,0
1553633573.406,4.883,630.371,70.801,16.602,436.035,0
1553633573.410,9.766,503.906,-15.625,16.602,457.031,0
1553633573.414,19.043,362.305,-171.875,23.438,435.547,0
1553633573.417,14.160,504.883,-50.293,18.066,375.488,0
1553633573.421,16.113,459.961,-94.238,18.555,319.336,0
1553633573.425,17.578,306.152,-254.395,25.879,359.375,0
1553633573.429,19.531,291.016,-281.250,20.020,373.047,0
1553633573.433,22.461,87.402,-469.727,19.043,299.316,0
1553633573.437,12.695,95.703,-509.277,20.996,329.590,0
1553633573.441,19.043,-54.688,-577.148,19.043,347.656,0
1553633573.445,16.113,-825.684,-949.219,12.207,-393.066,0
1553633573.449,15.137,-1000.000,-1000.000,13.184,-1000.000,0
1553633573.453,18.066,-588.379,-739.746,18.555,-525.391,0
1553633573.456,10.254,301.270,-145.508,18.066,464.844,0
1553633573.460,12.207,681.641,204.102,24.902,569.336,0
1553633573.464,19.043,770.508,319.824,25.879,439.453,0
1553633573.468,20.996,675.781,215.820,24.414,451.172,0
1553633573.472,27.344,529.785,64.453,25.879,483.887,0
1553633573.476,20.996,515.625,36.133,24.414,429.688,0
1553633573.480,4.883,380.371,-94.727,20.508,426.270,0
1553633573.484,20.508,266.113,-239.746,25.879,509.766,0
1553633573.488,23.926,-295.898,-693.848,32.715,337.402,0
1553633573.492,8.789,-286.621,-706.055,18.555,222.168,0
1553633573.496,11.230,400.879,-154.297,8.301,348.145,0
1553633573.499,9.277,224.121,-285.645,8.301,367.188,0
1553633573.503,9.766,15.137,-519.043,14.648,367.676,0
1553633573.507,10.742,253.906,-312.500,18.066,304.199,0
1553633573.511,7.324,369.141,-184.082,14.160,244.141,0
1553633573.515,34.668,148.926,-405.273,37.109,228.516,0
1553633573.519,41.016,134.766,-437.012,44.434,298.828,0
1553633573.523,21.973,212.402,-345.215,26.855,191.895,0
1553633573.527,5.371,-8.789,-643.555,8.789,211.914,0
1553633573.531,24.414,-490.723,-891.602,21.973,16.602,0
1553633573.535,44.434,-986.328,-975.098,35.645,-814.941,0
1553633573.539,44.434,-937.500,-947.266,42.480,-977.051,0
1553633573.542,69.336,-970.703,-971.191,67.871,-968.750,0
1553633573.546,63.965,-911.621,-946.289,67.383,-876.953,0
1553633573.550,62.500,176.758,-169.922,77.637,183.105,0
1553633573.554,69.824,957.031,458.008,81.543,651.855,0
1553633573.558,64.453,842.773,376.953,82.031,482.422,0
1553633573.562,78.125,607.422,118.164,88.867,541.504,0
1553633573.566,91.309,600.098,78.613,86.426,522.949,0
1553633573.570,75.684,710.449,194.336,84.961,473.145,0
1553633573.574,73.730,554.688,59.082,89.355,524.414,0
1553633573.578,81.543,20.996,-503.906,98.145,556.152,0
1553633573.581,85.449,35.156,-563.965,97.168,475.586,0
1553633573.585,87.891,596.680,2.441,94.727,440.430,0
1553633573.589,81.543,495.117,-53.711,88.379,439.941,0
1553633573.593,75.684,340.332,-212.891,78.613,441.406,0
1553633573.597,65.918,496.582,-69.336,83.496,397.461,0
1553633573.601,64.941,464.355,-98.633,83.008,331.543,0
1553633573.605,62.012,352.539,-209.961,74.707,404.297,0
1553633573.609,59.570,293.457,-282.715,70.801,406.250,0
1553633573.613,61.035,332.520,-236.328,64.453,305.176,0
1553633573.617,64.941,375.977,-249.023,63.965,333.984,0
1553633573.621,57.617,-250.000,-677.246,57.129,186.035,0
1553633573.624,48.340,-986.328,-999.023,49.805,-617.676,0
1553633573.628,51.758,-937.988,-942.383,53.711,-994.141,0
1553633573.632,43.945,-966.797,-967.285,53.711,-971.191,0
1553633573.636,47.852,-897.949,-940.430,53.711,-850.586,0
1553633573.640,48.340,121.094,-280.762,53.711,201.172,0
1553633573.644,43.457,896.484,340.332,56.641,691.406,0
1553633573.648,48.828,901.367,401.855,51.758,573.242,0
1553633573.652,38.574,781.250,271.973,43.945,629.883,0
1553633573.656,35.645,748.047,221.680,41.016,607.422,0
1553633573.660,35.156,762.695,222.656,41.504,546.387,0
1553633573.664,30.273,631.836,96.680,39.062,519.531,0
1553633573.667,30.273,337.891,-199.219,44.434,506.348,0
1553633573.671,28.809,168.457,-397.949,44.922,528.809,0
1553633573.675,33.203,395.996,-184.570,40.527,512.695,0
1553633573.679,29.297,401.855,-154.297,33.691,424.316,0
1553633573.683,35.156,-186.523,-723.145,24.414,402.344,0
1553633573.687,33.691,-35.156,-629.883,32.715,389.648,0
1553633573.691,22.949,506.348,-90.820,39.062,374.023,0
1553633573.695,22.949,338.867,-222.656,35.156,361.816,0
1553633573.699,22.461,274.902,-299.805,39.062,409.668,0
1553633573.703,22.949,483.887,-102.539,37.598,365.723,0
1553633573.706,15.625,405.762,-177.246,25.391,283.203,0
1553633573.710,13.184,177.734,-399.902,29.297,309.570,0
1553633573.714,17.090,1.465,-585.449,30.762,317.871,0
1553633573.718,19.531,-158.691,-754.883,28.320,254.395,0
1553633573.722,15.137,124.023,-499.512,31.738,271.973,0
1553633573.726,28.320,71.777,-473.633,36.133,340.820,0
1553633573.730,40.039,-511.719,-905.762,39.551,127.441,0
1553633573.734,8.789,32.715,-482.910,26.855,145.508,0
1553633573.738,-3.906,331.055,-249.023,16.113,246.582,0
1553633573.742,23.926,101.074,-451.660,35.645,226.074,0
1553633573.746,36.133,265.137,-317.383,41.016,250.977,0
1553633573.749,26.367,478.027,-89.355,39.062,239.746,0
1553633573.753,21.484,361.328,-193.848,44.434,204.590,0
1553633573.757,21.973,180.664,-387.207,41.992,206.055,0
1553633573.761,3.418,81.055,-502.930,25.391,218.262,0
1553633573.765,-8.301,-62.500,-655.762,15.625,136.230,0
1553633573.769,-6.836,5.371,-638.672,20.508,216.309,0
1553633573.773,-6.348,-531.738,-849.121,16.113,-291.992,0
1553633573.777,0.488,-1000.000,-998.535,14.648,-1000.000,0
1553633573.781,0.977,-943.359,-955.566,19.043,-956.055,0
1553633573.785,-0.977,-918.457,-934.570,21.973,-917.480,0
1553633573.789,-0.488,-1000.000,-1000.000,23.438,-1000.000,0
1553633573.792,2.441,-216.309,-433.594,31.250,-250.977,0
1553633573.796,11.719,938.477,451.172,27.344,602.539,0
1553633573.800,7.812,883.789,425.293,20.996,566.895,0
1553633573.804,4.883,903.809,434.570,24.902,582.520,0
1553633573.808,0.977,734.375,246.094,24.902,538.574,0
1553633573.812,-3.418,749.023,232.910,27.832,584.473,0
1553633573.816,8.301,561.035,57.617,18.555,588.867,0
1553633573.820,16.602,198.730,-334.961,16.113,587.402,0
1553633573.824,16.113,631.348,49.316,31.738,507.812,0
1553633573.828,15.625,782.715,234.375,32.227,419.922,0
1553633573.831,20.996,527.832,-21.973,27.344,399.902,0
1553633573.835,23.926,494.629,-82.520,23.926,418.457,0
1553633573.839,20.996,605.957,31.250,21.484,376.953,0
1553633573.843,17.578,515.137,-45.410,20.996,342.285,0
1553633573.847,17.578,406.738,-160.645,23.438,390.137,0
1553633573.851,20.020,498.047,-73.730,20.508,417.969,0
1553633573.855,15.625,341.309,-208.496,26.367,344.238,0
1553633573.859,12.207,146.973,-485.352,27.832,434.082,0
1553633573.863,11.719,-474.121,-829.102,19.043,17.090,0
1553633573.867,16.602,-1000.000,-994.141,24.414,-869.141,0
1553633573.871,16.602,-920.898,-938.477,29.297,-958.008,0
1553633573.874,11.230,-975.098,-969.238,23.926,-973.145,0
1553633573.878,13.672,-905.273,-951.172,22.949,-867.676,0
1553633573.882,41.504,218.750,-150.879,48.340,175.781,0
1553633573.886,40.039,-979.004,526.855,40.527,596.191,0
1553633573.890,-17.090,815.918,346.191,-15.625,467.773,0
1553633573.894,-44.922,795.898,282.715,-34.180,555.664,0
1553633573.898,-45.898,836.914,312.988,-39.062,496.094,0
1553633573.902,-83.008,660.645,119.629,-77.148,482.910,0
1553633573.906,-121.582,291.016,-255.371,-106.934,577.148,0
1553633573.910,-122.070,109.375,-466.309,-116.699,595.215,0
1553633573.914,-133.301,520.020,-103.027,-125.488,454.102,0
1553633573.917,-146.484,632.812,40.039,-137.207,450.684,0
1553633573.921,-128.418,376.953,-227.539,-126.953,436.523,0
1553633573.925,-138.184,456.543,-173.828,-122.559,375.977,0
1553633573.929,-144.043,673.828,64.453,-124.512,390.137,0
1553633573.933,-105.469,612.305,34.668,-99.609,372.070,0
1553633573.937,-92.773,430.176,-138.672,-82.031,376.953,0
1553633573.941,-90.820,425.781,-164.551,-72.754,336.426,0
1553633573.945,-71.777,436.523,-136.230,-62.988,238.281,0
1553633573.949,-55.664,266.113,-341.309,-46.387,393.066,0
1553633573.953,-58.594,-489.258,-814.453,-40.527,-136.719,0
1553633573.956,-62.988,-1000.000,-999.512,-43.945,-992.188,0
1553633573.960,-50.781,-895.020,-915.527,-39.551,-919.922,0
1553633573.964,-34.668,-1000.000,-1000.000,-36.133,-1000.000,0
1553633573.968,-36.621,-535.645,-670.410,-37.109,-481.934,0
1553633573.972,-41.992,701.172,277.344,-23.438,560.547,0
1553633573.976,-41.992,891.113,459.961,-9.277,554.199,0
1553633573.980,-35.156,718.750,307.617,-12.695,567.383,0
1553633573.984,-31.250,768.555,334.961,-17.578,579.590,0
1553633573.988,-30.273,766.602,319.336,-21.484,472.656,0
1553633573.992,-32.227,773.926,333.496,-27.344,457.031,0
1553633573.996,-32.715,325.684,-87.891,-22.949,500.488,0
1553633573.999,-26.367,54.688,-391.602,-8.789,511.230,0
1553633574.003,-28.809,426.758,-54.199,-7.812,418.945,0
1553633574.007,-19.531,585.449,132.812,-1.465,390.137,0
1553633574.011,-7.324,357.910,-85.449,4.395,445.312,0
1553633574.015,-10.254,337.891,-126.953,4.395,485.840,0
1553633574.019,-9.277,564.941,103.027,9.766,394.531,0
1553633574.023,-5.371,435.059,-19.043,8.301,305.176,0
1553633574.027,-2.930,259.766,-209.473,4.883,334.473,0
1553633574.031,-2.930,343.750,-142.578,1.953,353.027,0
1553633574.035,-0.977,337.402,-136.719,5.371,300.781,0
1553633574.039,-1.953,114.258,-352.051,2.930,345.703,0
1553633574.042,-10.254,60.547,-409.180,1.465,433.594,0
1553633574.046,-11.719,73.730,-408.203,0.977,384.277,0
1553633574.050,-8.301,229.492,-261.719,6.348,275.391,0
1553633574.054,-7.324,294.434,-190.918,6.348,304.688,0
1553633574.058,-7.812,-376.953,-761.719,-0.488,79.102,0
1553633574.062,-7.812,-333.008,-737.793,6.836,-6.836,0
1553633574.066,-4.883,395.996,-116.211,9.766,276.855,0
1553633574.070,-0.488,236.816,-262.207,13.184,205.078,0
1553633574.074,5.371,124.023,-397.949,10.742,193.359,0
1553633574.078,0.488,306.641,-230.469,11.230,208.984,0
1553633574.081,4.883,318.359,-211.426,19.043,161.133,0
1553633574.085,7.812,178.711,-345.703,17.578,174.805,0
1553633574.089,7.812,-53.711,-588.867,17.578,208.984,0
1553633574.093,13.184,-207.520,-746.094,14.160,112.793,0
1553633574.097,0.977,-100.098,-687.988,17.578,214.844,0
1553633574.101,-0.977,-389.648,-762.207,19.043,64.453,0
1553633574.105,4.883,-978.516,-980.957,6.836,-768.555,0
1553633574.109,13.184,-979.980,-975.098,14.648,-1000.000,0
1553633574.113,16.113,-900.391,-924.805,20.020,-885.254,0
1553633574.117,-0.977,-1000.000,-1000.000,16.113,-1000.000,0
1553633574.121,-3.418,-514.648,-650.391,20.020,-461.914,0
1553633574.124,-1.465,738.770,334.473,19.043,565.918,0
1553633574.128,0.977,952.637,554.199,11.230,551.758,0
1553633574.132,8.789,807.129,416.992,19.531,552.246,0
1553633574.136,7.324,743.164,326.172,18.066,602.051,0
1553633574.140,4.883,590.332,142.578,13.672,586.914,0
1553633574.144,6.348,620.605,172.852,9.277,592.773,0
1553633574.148,5.371,344.727,-94.727,0.488,656.250,0
1553633574.152,2.930,417.969,-62.500,6.836,627.441,0
1553633574.156,2.930,631.836,152.832,10.254,484.375,0
1553633574.160,-0.488,439.453,-34.180,10.254,485.840,0
1553633574.164,-1.465,410.156,-83.496,10.254,464.844,0
1553633574.167,1.953,509.277,-4.395,15.137,377.441,0
1553633574.171,4.883,552.246,48.340,15.137,395.020,0
1553633574.175,3.418,421.875,-76.172,15.137,435.547,0
1553633574.179,5.371,329.590,-186.523,22.461,394.531,0
1553633574.183,7.324,192.871,-312.012,22.949,376.953,0
1553633574.187,6.836,186.523,-353.027,20.020,381.348,0
1553633574.191,10.742,11.230,-508.789,19.531,388.184,0
1553633574.195,12.207,-610.840,-943.359,16.113,123.535,0
1553633574.199,9.766,-130.371,-575.684,22.949,135.254,0
1553633574.203,6.836,393.555,-161.621,23.926,328.125,0
1553633574.206,7.812,215.820,-302.734,20.996,295.898,0
1553633574.210,10.742,241.699,-307.129,18.066,302.246,0
1553633574.214,5.371,281.738,-262.695,18.066,283.203,0
1553633574.218,4.395,191.895,-340.820,18.066,280.762,0
1553633574.222,10.742,90.332,-460.449,17.090,227.539,0
1553633574.226,3.906,115.234,-441.895,19.531,201.660,0
1553633574.230,8.301,105.469,-447.266,24.414,239.746,0
1553633574.234,3.418,-177.734,-725.098,16.113,225.586,0
1553633574.238,6.836,-593.262,-941.895,12.695,-121.094,0
1553633574.242,15.625,-808.594,-982.910,20.020,-511.230,0
1553633574.246,6.836,-674.805,-932.617,13.672,-460.449,0
1553633574.249,5.371,-248.047,-740.723,12.695,66.406,0
1553633574.253,15.625,-12.207,-581.055,17.578,280.273,0
1553633574.257,19.043,198.242,-350.586,24.414,187.012,0
1553633574.261,12.207,379.883,-181.641,19.531,169.434,0
1553633574.265,4.883,34.668,-508.301,8.301,190.430,0
1553633574.269,14.648,-799.316,-968.262,22.949,-418.945,0
1553633574.273,26.855,-1000.000,-978.516,38.574,-1000.000,0
1553633574.277,-0.977,-905.273,-936.523,1.953,-911.133,0
1553633574.281,-27.344,-995.117,-977.051,-28.320,-1000.000,0
1553633574.285,-22.461,-877.441,-938.477,-30.762,-831.543,0
1553633574.289,-39.062,271.484,-136.719,-38.086,276.855,0
1553633574.292,-45.898,-901.367,559.082,-28.809,671.387,0
1553633574.296,-45.410,622.559,130.859,-40.039,590.332,0
1553633574.300,-51.270,399.902,-142.578,-46.387,727.051,0
1553633574.304,-41.992,842.285,273.438,-26.367,600.098,0
1553633574.308,-31.250,841.309,304.199,-21.973,519.043,0
1553633574.312,-21.484,621.094,80.566,-15.137,562.988,0
1553633574.316,-9.766,673.340,108.398,-8.301,555.664,0
1553633574.320,-13.184,737.305,170.410,-11.719,476.074,0
1553633574.324,-16.602,404.785,-153.320,-7.324,478.027,0
1553633574.328,-11.719,76.172,-514.648,1.465,481.445,0
1553633574.331,-11.719,184.570,-434.570,-1.953,395.508,0
1553633574.335,-4.395,354.004,-253.906,-6.348,414.062,0
1553633574.339,-1.953,264.648,-330.078,-3.906,410.156,0
1553633574.343,-7.324,-191.895,-748.535,-6.836,304.688,0
1553633574.347,-6.348,26.855,-562.500,2.441,316.895,0
1553633574.351,-1.465,457.031,-141.113,9.766,345.215,0
1553633574.355,-7.324,279.785,-296.387,8.301,306.152,0
1553633574.359,-12.695,230.469,-365.723,5.859,322.266,0
1553633574.363,-8.789,337.891,-250.977,2.441,263.672,0
1553633574.367,-2.930,438.477,-189.941,6.348,282.227,0
1553633574.371,-2.441,8.789,-537.109,-0.977,346.191,0
1553633574.374,5.371,-881.348,-995.117,-0.977,-445.312,0
1553633574.378,11.230,-953.125,-941.406,10.742,-992.188,0
1553633574.382,8.301,-987.793,-980.957,5.859,-1000.000,0
1553633574.386,2.441,-764.160,-874.512,6.836,-693.359,0
1553633574.390,-2.441,411.133,-86.914,12.695,406.250,0
1553633574.394,-3.418,894.531,300.781,11.230,714.844,0
1553633574.398,-3.906,761.719,174.805,15.137,539.551,0
1553633574.402,8.789,701.172,79.590,18.555,549.316,0
1553633574.406,8.789,704.102,64.453,17.578,550.293,0
1553633574.410,3.418,738.770,88.379,15.625,499.512,0
1553633574.414,5.859,596.680,-58.105,10.254,458.496,0
1553633574.417,8.789,348.633,-314.453,11.230,486.816,0
1553633574.421,5.859,251.953,-425.781,13.184,567.383,0
1553633574.425,3.906,443.848,-240.723,15.625,494.141,0
1553633574.429,11.719,440.918,-212.891,16.113,427.734,0
1553633574.433,13.184,82.520,-580.566,10.742,462.891,0
1553633574.437,5.371,222.168,-488.770,13.184,407.715,0
1553633574.441,9.277,496.582,-187.500,12.207,326.172,0
1553633574.445,17.090,309.570,-378.906,15.625,396.484,0
1553633574.449,18.555,-326.660,-868.164,16.602,129.395,0
1553633574.453,25.391,-616.699,-984.375,27.344,-216.797,0
1553633574.456,23.926,11.719,-566.406,37.598,179.688,0
1553633574.460,7.812,368.652,-324.219,16.113,401.367,0
1553633574.464,2.930,190.430,-471.680,14.160,348.633,0
1553633574.468,11.230,85.449,-579.102,24.902,321.777,0
1553633574.472,9.766,274.902,-454.590,19.531,331.543,0
1553633574.476,11.719,12.695,-583.008,10.254,250.000,0
1553633574.480,26.367,-779.785,-1000.000,18.066,-227.051,0
1553633574.484,21.484,-278.809,-764.160,23.926,-134.766,0
1553633574.488,18.555,410.156,-261.230,19.531,288.574,0
1553633574.492,14.160,317.383,-295.410,23.926,267.578,0
1553633574.496,7.324,335.938,-306.152,23.926,250.488,0
1553633574.499,19.531,459.473,-183.105,23.926,209.961,0
1553633574.503,21.973,314.453,-321.777,32.715,176.270,0
1553633574.507,20.508,190.430,-447.266,35.645,243.164,0
1553633574.511,24.414,83.496,-559.082,34.180,251.953,0
1553633574.515,24.414,-92.285,-753.418,31.738,172.363,0
1553633574.519,25.879,-62.500,-784.180,31.738,298.340,0
1553633574.523,20.996,-585.449,-916.992,23.438,-265.137,0
1553633574.527,10.742,-1000.000,-981.934,20.020,-999.512,0
1553633574.531,14.648,-902.832,-931.152,25.879,-924.805,0
1553633574.535,23.438,-1000.000,-1000.000,33.203,-1000.000,0
1553633574.539,18.066,-247.070,-508.301,33.691,-271.484,0
1553633574.542,21.484,822.754,215.820,24.414,550.781,0
1553633574.546,13.672,837.891,248.047,28.809,389.160,0
1553633574.550,7.812,736.816,158.203,35.156,494.141,0
1553633574.554,3.906,653.809,61.523,27.832,548.340,0
1553633574.558,4.883,484.863,-113.770,34.180,467.285,0
1553633574.562,14.648,428.223,-197.754,40.527,447.754,0
1553633574.566,14.160,263.672,-369.141,30.273,456.543,0
1553633574.570,18.066,-454.102,-922.852,23.926,203.125,0
1553633574.574,15.625,-66.895,-596.191,22.461,261.230,0
1553633574.578,8.789,585.938,-61.035,26.855,405.273,0
1553633574.581,11.230,485.352,-117.676,27.832,348.633,0
1553633574.585,11.230,473.633,-153.320,24.902,360.352,0
1553633574.589,16.113,567.871,-68.359,31.738,311.035,0
1553633574.593,11.719,489.258,-138.184,32.227,295.898,0
1553633574.597,8.789,343.262,-296.387,24.414,315.918,0
1553633574.601,13.672,418.457,-230.957,22.949,336.914,0
1553633574.605,2.930,281.738,-341.797,18.555,280.762,0
1553633574.609,11.230,56.641,-639.160,20.020,378.418,0
1553633574.613,19.043,-537.109,-896.973,16.602,-196.289,0
1553633574.617,31.738,-1000.000,-982.910,37.109,-1000.000,0
1553633574.621,10.254,-906.250,-932.617,20.996,-914.062,0
1553633574.624,-7.812,-1000.000,-1000.000,-12.695,-1000.000,0
1553633574.628,0.000,-564.941,-723.633,2.930,-446.777,0
1553633574.632,-1.953,546.387,44.922,12.207,587.402,0
1553633574.636,4.883,911.621,386.719,19.043,501.465,0
1553633574.640,3.418,730.957,218.750,15.137,449.707,0
1553633574.644,-1.465,708.496,154.785,5.371,535.156,0
1553633574.648,5.371,806.152,237.305,1.953,497.559,0
1553633574.652,13.672,635.254,68.848,5.371,482.910,0
1553633574.656,5.859,239.258,-345.215,0.977,524.902,0
1553633574.660,0.000,279.785,-339.844,2.930,549.805,0
1553633574.664,3.906,560.059,-63.965,2.441,431.641,0
1553633574.667,8.789,592.773,-14.648,2.930,363.281,0
1553633574.671,12.695,191.406,-388.184,5.371,436.523,0
1553633574.675,12.695,-18.066,-628.906,8.301,457.520,0
1553633574.679,16.113,473.145,-152.344,18.066,399.414,0
1553633574.683,18.066,420.898,-166.992,25.391,293.945,0
1553633574.687,7.324,222.656,-365.723,20.996,301.758,0
1553633574.691,7.324,174.316,-427.734,20.508,354.980,0
1553633574.695,24.902,251.465,-331.543,26.855,289.062,0
1553633574.699,27.832,311.035,-304.688,27.832,424.316,0
1553633574.703,19.043,-387.695,-737.793,20.508,124.023,0
1553633574.706,21.484,-1000.000,-1000.000,28.320,-797.363,0
1553633574.710,36.133,-926.758,-940.918,41.016,-970.703,0
1553633574.714,33.203,-965.332,-963.867,29.785,-962.402,0
1553633574.718,17.578,-933.594,-966.309,26.367,-899.902,0
1553633574.722,22.461,93.262,-269.531,24.414,95.215,0
1553633574.726,32.715,938.477,421.387,21.973,613.281,0
1553633574.730,27.832,752.930,284.180,27.344,482.422,0
1553633574.734,21.484,648.926,146.484,21.973,518.555,0
1553633574.738,22.949,779.785,265.137,21.484,517.090,0
1553633574.742,21.484,788.574,287.598,28.809,460.938,0
1553633574.746,21.973,311.035,-171.875,18.555,490.234,0
1553633574.749,29.297,-105.469,-620.117,21.484,545.410,0
1553633574.753,25.879,191.895,-362.305,37.598,462.891,0
1553633574.757,25.879,481.445,-48.828,39.551,386.719,0
1553633574.761,25.391,391.113,-118.652,30.273,414.062,0
1553633574.765,27.344,282.227,-238.281,18.555,434.082,0
1553633574.769,21.484,448.730,-83.008,27.344,377.930,0
1553633574.773,19.043,530.762,18.066,28.809,386.719,0
1553633574.777,25.391,306.152,-216.797,25.391,329.590,0
1553633574.781,20.020,219.727,-340.332,27.344,270.996,0
1553633574.785,16.113,358.887,-202.637,22.461,310.547,0
1553633574.789,7.812,287.109,-260.254,20.508,301.270,0
1553633574.792,8.789,21.484,-530.762,21.484,293.457,0
1553633574.796,24.902,-207.520,-791.016,25.391,257.812,0
1553633574.800,27.344,-124.023,-728.027,21.973,147.461,0
1553633574.804,20.020,55.664,-570.801,20.020,297.852,0
1553633574.808,21.973,-582.031,-871.582,16.602,-261.719,0
1553633574.812,9.766,-1000.000,-1000.000,7.812,-1000.000,0
1553633574.816,7.324,-902.344,-927.246,14.648,-910.156,0
1553633574.820,9.766,-1000.000,-996.094,22.461,-1000.000,0
1553633574.824,0.977,-780.273,-867.188,17.090,-718.750,0
1553633574.828,3.906,378.418,-40.039,14.160,389.648,0
1553633574.831,16.602,973.145,465.332,16.602,642.090,0
1553633574.835,21.973,736.328,255.859,26.855,524.902,0
1553633574.839,10.742,557.617,51.758,20.996,628.906,0
1553633574.843,12.695,518.555,4.395,12.695,660.645,0
1553633574.847,13.672,644.531,131.836,21.973,609.863,0
1553633574.851,5.859,371.582,-111.328,11.719,579.102,0
1553633574.855,-1.953,30.273,-468.750,5.859,582.520,0
1553633574.859,-3.418,424.805,-104.980,12.695,475.586,0
1553633574.863,-7.324,550.293,69.336,15.137,389.648,0
1553633574.867,-4.883,295.410,-164.551,21.484,424.805,0
1553633574.871,14.160,261.719,-216.797,20.508,413.086,0
1553633574.874,6.348,464.844,-10.254,19.043,365.234,0
1553633574.878,-1.953,432.617,-22.949,18.555,373.535,0
1553633574.882,8.301,257.324,-203.125,14.648,370.605,0
1553633574.886,4.395,76.660,-400.391,9.766,354.004,0
1553633574.890,5.371,-35.645,-506.836,10.742,354.004,0
1553633574.894,15.625,185.547,-312.988,16.113,445.312,0
1553633574.898,11.230,-382.812,-661.133,8.789,160.156,0
1553633574.902,2.930,-1000.000,-1000.000,12.207,-675.293,0
1553633574.906,6.836,-956.055,-956.543,11.719,-1000.000,0
1553633574.910,14.160,-920.410,-938.477,6.836,-896.484,0
1553633574.914,10.742,-1000.000,-1000.000,13.184,-1000.000,0
1553633574.917,-3.906,-709.473,-804.688,12.207,-625.977,0
1553633574.921,-1.953,459.473,132.324,13.184,422.363,0
1553633574.925,6.836,800.293,472.168,18.555,630.371,0
1553633574.929,-1.953,610.352,290.039,13.184,550.781,0
1553633574.933,3.418,623.047,280.273,18.066,593.262,0
1553633574.937,9.766,533.691,177.246,25.391,543.945,0
1553633574.941,4.395,208.008,-153.809,4.883,551.758,0
1553633574.945,2.930,82.031,-302.734,-5.859,617.188,0
1553633574.949,1.953,547.363,134.766,7.812,506.836,0
1553633574.953,-9.277,663.086,274.414,9.277,410.156,0
1553633574.956,-3.906,407.227,14.160,11.719,393.555,0
1553633574.960,13.672,386.230,-26.855,19.531,402.344,0
1553633574.964,15.625,584.961,185.547,20.020,423.828,0
1553633574.968,4.395,439.453,46.387,20.996,347.656,0
1553633574.972,-9.766,242.676,-160.645,12.695,375.488,0
1553633574.976,-15.625,231.934,-185.059,1.953,391.113,0
1553633574.980,-1.465,71.777,-344.727,14.648,284.668,0
1553633574.984,9.277,-29.785,-492.188,20.996,433.105,0
1553633574.988,7.324,-535.645,-785.156,12.207,-108.887,0
1553633574.992,6.836,-1000.000,-1000.000,10.742,-994.629,0
1553633574.996,11.230,-906.250,-921.387,10.742,-920.898,0
1553633574.999,-0.488,-1000.000,-1000.000,10.254,-1000.000,0
1553633575.003,-13.672,-642.578,-728.027,16.113,-562.012,0
1553633575.007,-4.883,513.672,222.168,12.207,522.461,0
1553633575.011,0.488,941.406,638.184,15.625,614.746,0
1553633575.015,4.883,762.695,482.910,20.020,568.359,0
1553633575.019,2.441,646.484,333.496,14.160,587.402,0
1553633575.023,5.371,690.430,359.375,15.625,546.875,0
1553633575.027,5.859,626.953,305.664,15.625,595.703,0
1553633575.031,9.277,169.922,-151.367,11.230,615.723,0
1553633575.035,5.859,-70.801,-436.523,11.719,614.258,0
1553633575.039,-5.371,319.336,-90.820,11.719,498.047,0
1553633575.042,-0.488,471.191,83.984,12.695,422.363,0
1553633575.046,8.789,341.797,-41.992,22.949,479.980,0
1553633575.050,6.348,328.125,-79.102,19.531,445.312,0
1553633575.054,0.488,460.449,47.852,12.695,407.227,0
1553633575.058,-2.441,411.133,12.695,14.160,389.648,0
1553633575.062,5.371,164.062,-247.070,15.625,348.145,0
1553633575.066,18.066,204.102,-228.027,13.184,371.094,0
1553633575.070,11.719,236.816,-169.922,12.695,273.438,0
1553633575.074,2.930,119.141,-332.031,22.949,434.570,0
1553633575.078,13.672,-476.074,-717.773,26.367,186.523,0
1553633575.081,14.648,-950.684,-987.305,20.996,-526.367,0
1553633575.085,6.348,-108.398,-448.242,25.879,14.160,0
1553633575.089,10.742,312.012,-124.512,25.391,445.312,0
1553633575.093,12.695,163.086,-242.676,15.625,330.078,0
1553633575.097,13.672,328.613,-115.234,25.391,305.176,0
1553633575.101,13.672,331.055,-109.375,23.926,241.699,0
1553633575.105,11.230,132.812,-309.570,11.719,272.461,0
1553633575.109,5.371,101.074,-350.586,10.254,320.801,0
1553633575.113,7.812,219.727,-212.402,14.160,242.676,0
1553633575.117,0.488,235.840,-208.984,14.160,215.332,0
1553633575.121,0.000,-225.586,-574.219,12.207,235.352,0
1553633575.124,6.348,-944.336,-992.188,5.859,-541.992,0
1553633575.128,-2.930,-947.266,-941.406,4.395,-1000.000,0
1553633575.132,-2.441,-973.633,-973.633,19.531,-982.422,0
1553633575.136,-4.395,-864.746,-908.203,13.672,-804.199,0
1553633575.140,-13.184,194.824,-69.824,8.789,273.438,0
1553633575.144,-6.348,846.680,522.949,13.184,639.648,0
1553633575.148,3.418,765.625,467.773,11.230,482.422,0
1553633575.152,-4.395,663.574,350.098,15.625,574.219,0
1553633575.156,4.883,666.992,335.449,23.438,568.848,0
1553633575.160,18.066,698.242,354.492,14.648,500.000,0
1553633575.164,-1.465,463.867,117.188,5.859,462.891,0
1553633575.167,-17.578,194.336,-167.480,5.371,497.070,0
1553633575.171,-8.789,168.945,-213.379,15.625,560.059,0
1553633575.175,3.418,354.004,-22.949,24.414,471.680,0
1553633575.179,-3.418,420.410,-1.953,11.719,435.059,0
1553633575.183,-4.395,-406.250,-642.090,10.742,216.797,0
1553633575.187,4.883,-919.922,-1000.000,20.996,-314.941,0
1553633575.191,1.465,-2.441,-344.238,23.926,107.422,0
1553633575.195,4.395,400.879,19.043,21.484,486.816,0
1553633575.199,8.789,327.148,-15.137,24.902,417.969,0
1553633575.203,12.695,455.078,93.750,36.133,354.980,0
1553633575.206,2.930,396.484,34.180,24.414,280.762,0
1553633575.210,5.371,305.664,-47.852,15.625,359.863,0
1553633575.214,15.625,100.098,-252.441,17.578,389.160,0
1553633575.218,16.602,-61.035,-436.523,23.926,311.035,0
1553633575.222,22.461,-33.203,-424.316,24.414,286.133,0
1553633575.226,19.043,-191.895,-562.988,13.184,368.652,0
1553633575.230,13.672,-661.621,-908.203,11.719,82.520,0
1553633575.234,12.695,-289.062,-605.957,17.090,-14.160,0
1553633575.238,17.578,209.473,-176.758,24.902,201.660,0
1553633575.242,12.207,88.867,-252.441,19.043,195.801,0
1553633575.246,5.371,180.176,-181.641,12.207,242.188,0
1553633575.249,3.906,393.555,41.504,14.160,235.840,0
1553633575.253,7.812,226.074,-123.047,18.555,149.414,0
1553633575.257,12.695,65.430,-298.340,13.184,187.500,0
1553633575.261,15.625,31.250,-344.727,12.695,274.414,0
1553633575.265,17.578,39.062,-337.891,22.949,222.656,0
1553633575.269,14.648,110.840,-307.617,19.531,263.184,0
1553633575.273,8.301,-522.461,-746.094,11.719,-227.051,0
1553633575.277,12.695,-1000.000,-1000.000,17.090,-979.980,0
1553633575.281,14.160,-953.613,-957.031,25.391,-979.980,0
1553633575.285,11.230,-918.945,-932.129,16.602,-898.438,0
1553633575.289,16.602,-1000.000,-1000.000,16.602,-1000.000,0
1553633575.292,4.883,-667.969,-747.559,21.973,-581.055,0
1553633575.296,4.883,596.680,363.281,21.484,514.160,0
1553633575.300,5.859,920.898,710.449,15.137,664.551,0
1553633575.304,0.488,803.711,610.840,11.719,590.820,0
1553633575.308,2.441,683.594,489.258,8.789,610.352,0
1553633575.312,7.812,610.840,384.766,12.695,573.242,0
1553633575.316,10.742,477.051,272.461,20.996,635.254,0
1553633575.320,3.906,188.965,-20.996,18.555,684.570,0
1553633575.324,2.930,534.668,281.250,25.879,556.152,0
1553633575.328,5.859,697.266,473.633,23.926,488.770,0
1553633575.331,8.789,458.496,233.887,14.648,482.910,0
1553633575.335,1.465,395.508,146.484,9.277,472.168,0
1553633575.339,5.371,508.301,262.207,12.207,438.477,0
1553633575.343,9.277,268.555,35.645,15.625,431.641,0
1553633575.347,16.113,64.453,-196.777,32.227,428.711,0
1553633575.351,37.598,275.391,4.883,56.152,428.711,0
1553633575.355,9.766,145.508,-111.328,16.113,341.797,0
1553633575.359,-4.883,-11.230,-315.430,-4.395,442.871,0
1553633575.363,19.043,-473.633,-656.250,11.719,230.469,0
1553633575.367,8.301,-1000.000,-1000.000,-5.859,-703.613,0
1553633575.371,3.418,-946.289,-950.195,-10.742,-996.582,0
1553633575.374,24.414,-934.082,-937.500,6.348,-921.875,0
1553633575.378,21.484,-1000.000,-1000.000,9.277,-1000.000,0
1553633575.382,16.113,-137.695,-288.574,1.953,-62.988,0
1553633575.386,19.043,865.723,634.277,7.812,677.246,0
1553633575.390,10.742,666.504,439.941,-1.953,487.793,0
1553633575.394,13.184,542.969,254.883,6.348,537.109,0
1553633575.398,24.902,587.891,268.555,17.090,543.945,0
1553633575.402,24.414,478.516,137.207,-1.465,546.875,0
1553633575.406,16.602,63.965,-290.527,-0.488,566.895,0
1553633575.410,18.555,-140.137,-541.992,9.766,560.547,0
1553633575.414,21.973,304.688,-148.926,9.277,464.355,0
1553633575.417,23.926,487.793,53.223,17.090,389.648,0
1553633575.421,16.602,335.449,-91.309,20.020,432.129,0
1553633575.425,16.602,328.613,-109.863,13.672,423.340,0
1553633575.429,21.973,421.875,-13.672,17.090,356.934,0
1553633575.433,20.508,317.383,-111.328,19.043,318.359,0
1553633575.437,16.602,139.648,-285.156,20.996,327.148,0
1553633575.441,7.324,163.086,-274.902,18.066,320.801,0
1553633575.445,8.789,230.469,-189.941,17.578,244.629,0
1553633575.449,21.973,49.316,-398.438,26.855,382.324,0
1553633575.453,21.484,-580.566,-826.172,20.020,-149.902,0
1553633575.456,19.531,-1000.000,-991.211,10.254,-1000.000,0
1553633575.460,20.996,-902.344,-919.434,15.137,-919.922,0
1553633575.464,19.531,-1000.000,-1000.000,17.090,-1000.000,0
1553633575.468,23.438,-430.176,-588.867,17.578,-385.742,0
1553633575.472,18.555,771.973,352.051,22.949,649.902,0
1553633575.476,23.926,951.172,538.086,17.578,562.500,0
1553633575.480,24.902,695.312,276.855,15.625,514.648,0
1553633575.484,17.090,603.516,150.391,22.949,558.594,0
1553633575.488,18.555,657.715,180.176,29.785,508.301,0
1553633575.492,21.973,708.984,226.074,31.738,495.117,0
1553633575.496,20.996,299.805,-165.039,19.043,554.688,0
1553633575.499,21.973,-46.387,-549.316,18.066,637.207,0
1553633575.503,23.438,352.539,-199.707,20.508,538.086,0
1553633575.507,22.949,546.875,18.066,16.113,437.988,0
1553633575.511,11.230,339.844,-190.918,17.578,446.289,0
1553633575.515,6.836,282.715,-282.715,16.602,418.457,0
1553633575.519,14.648,280.273,-288.086,10.742,400.391,0
1553633575.523,20.508,144.531,-422.852,13.672,399.414,0
1553633575.527,18.066,114.258,-459.961,25.391,362.305,0
1553633575.531,13.184,184.570,-370.117,26.855,366.211,0
1553633575.535,17.090,266.602,-244.629,31.250,318.359,0
1553633575.539,11.230,163.574,-301.758,36.133,283.203,0
1553633575.542,9.277,-33.203,-473.145,30.273,333.008,0
1553633575.546,14.160,-114.746,-553.223,27.832,391.113,0
1553633575.550,15.137,79.102,-354.492,17.578,298.340,0
1553633575.554,18.555,241.699,-226.562,17.578,381.836,0
1553633575.558,19.043,-508.789,-720.215,26.855,-25.391,0
1553633575.562,26.367,-835.938,-960.938,21.973,-496.582,0
1553633575.566,29.297,60.059,-371.582,23.438,149.902,0
1553633575.570,8.789,209.961,-226.074,10.742,330.078,0
1553633575.574,-1.465,40.527,-402.344,9.277,220.703,0
1553633575.578,6.348,218.750,-264.648,25.391,206.055,0
1553633575.581,4.395,171.387,-320.801,29.785,253.906,0
1553633575.585,-2.441,100.586,-416.504,19.531,304.199,0
1553633575.589,-7.812,-56.152,-605.469,11.230,242.188,0
1553633575.593,-8.301,-219.727,-781.250,14.648,208.496,0
1553633575.597,6.836,82.031,-523.926,10.742,251.953,0
1553633575.601,14.648,-129.395,-596.680,9.277,217.285,0
1553633575.605,14.648,-930.176,-994.629,19.043,-522.461,0
1553633575.609,15.625,-948.242,-943.359,31.250,-986.816,0
1553633575.613,10.742,-1000.000,-994.629,22.949,-1000.000,0
1553633575.617,12.695,-699.707,-798.828,17.578,-625.000,0
1553633575.621,17.578,387.207,-7.324,33.691,384.277,0
1553633575.624,6.836,818.359,374.512,30.273,522.461,0
1553633575.628,5.859,722.168,314.941,26.855,441.895,0
1553633575.632,5.859,586.426,180.664,32.715,498.535,0
1553633575.636,5.371,474.609,62.500,15.625,535.156,0
1553633575.640,11.719,397.949,-26.367,20.508,533.691,0
1553633575.644,20.508,347.168,-67.871,29.785,512.695,0
1553633575.648,17.090,3.418,-417.480,18.555,528.320,0
1553633575.652,11.230,98.633,-373.047,17.578,473.633,0
1553633575.656,15.625,551.270,93.262,23.438,377.930,0
1553633575.660,20.996,350.586,-70.801,30.762,350.098,0
1553633575.664,16.113,211.426,-222.656,30.762,356.934,0
1553633575.667,15.137,375.977,-75.195,25.391,298.340,0
1553633575.671,21.973,376.465,-66.406,32.227,257.324,0
1553633575.675,18.555,177.734,-275.879,31.738,254.395,0
1553633575.679,14.160,230.957,-236.328,26.367,320.312,0
1553633575.683,16.113,209.961,-233.398,34.668,328.125,0
1553633575.687,14.160,134.766,-357.910,32.227,248.047,0
1553633575.691,10.254,-56.641,-541.504,20.508,272.949,0
1553633575.695,12.207,-827.637,-964.844,20.020,-336.426,0
1553633575.699,13.672,-976.562,-958.984,23.926,-964.355,0
1553633575.703,16.113,-950.684,-955.566,29.785,-985.840,0
1553633575.706,18.066,-920.898,-957.520,27.344,-865.723,0
1553633575.710,19.043,160.645,-152.344,25.879,130.859,0
1553633575.714,26.367,937.500,512.695,35.156,568.359,0
1553633575.718,26.855,800.781,411.133,33.691,408.691,0
1553633575.722,19.043,741.699,332.520,27.832,533.203,0
1553633575.726,16.113,783.203,359.375,20.996,513.184,0
1553633575.730,20.020,563.965,127.930,25.391,443.359,0
1553633575.734,15.137,344.727,-101.562,32.715,487.305,0
1553633575.738,19.531,4.395,-454.102,24.902,543.457,0
1553633575.742,23.438,123.535,-379.395,29.297,498.535,0
1553633575.746,27.344,622.559,132.324,36.621,375.977,0
1553633575.749,25.879,445.801,-8.789,28.320,339.355,0
1553633575.753,20.996,336.426,-133.301,20.508,366.211,0
1553633575.757,28.809,403.320,-81.055,26.367,358.398,0
1553633575.761,21.973,354.980,-124.512,28.320,363.281,0
1553633575.765,20.508,303.711,-179.688,32.715,325.684,0
1553633575.769,27.344,254.883,-240.234,26.367,292.480,0
1553633575.773,25.391,347.656,-136.719,15.625,261.230,0
1553633575.777,18.066,202.637,-259.766,26.855,240.234,0
1553633575.781,6.348,-91.797,-577.637,20.996,409.668,0
1553633575.785,1.953,-725.586,-927.246,18.555,-178.711,0
1553633575.789,11.230,-984.863,-965.820,18.555,-946.777,0
1553633575.792,17.578,-948.730,-951.660,13.672,-983.398,0
1553633575.796,16.602,-938.965,-972.656,23.438,-888.672,0
1553633575.800,12.207,31.738,-271.484,31.250,53.223,0
1553633575.804,4.883,832.031,404.297,26.855,557.617,0
1553633575.808,8.789,814.941,421.875,19.043,436.523,0
1553633575.812,11.719,727.051,315.918,18.066,479.004,0
1553633575.816,10.742,550.781,117.676,26.855,422.363,0
1553633575.820,12.207,449.219,15.137,27.344,438.477,0
1553633575.824,16.113,403.320,-73.242,22.461,482.910,0
1553633575.828,8.789,-336.426,-691.895,20.020,274.902,0
1553633575.831,10.742,-420.898,-766.113,24.902,160.645,0
1553633575.835,22.461,405.762,-103.516,31.250,360.840,0
1553633575.839,17.578,348.633,-117.676,32.227,330.566,0
1553633575.843,18.555,195.312,-276.367,32.227,323.730,0
1553633575.847,15.625,417.969,-77.637,24.902,330.078,0
1553633575.851,14.648,458.496,-23.438,22.949,294.434,0
1553633575.855,16.113,277.832,-194.824,26.367,320.312,0
1553633575.859,19.531,138.672,-347.168,32.227,282.227,0
1553633575.863,19.531,258.301,-221.191,32.715,264.648,0
1553633575.867,15.137,357.422,-105.469,28.320,244.629,0
1553633575.871,16.602,-58.105,-487.305,25.879,327.637,0
1553633575.874,12.695,-823.242,-965.820,21.484,-296.387,0
1553633575.878,6.836,-1000.000,-975.098,22.949,-1000.000,0
1553633575.882,-1.465,-903.809,-928.223,19.043,-903.809,0
1553633575.886,14.648,-1000.000,-1000.000,23.438,-1000.000,0
1553633575.890,14.648,-764.160,-837.402,20.020,-693.848,0
1553633575.894,-2.930,409.180,88.379,15.625,412.598,0
1553633575.898,7.324,944.336,580.078,24.902,637.695,0
1553633575.902,9.766,761.230,405.273,17.578,530.762,0
1553633575.906,11.719,723.633,317.871,8.789,541.504,0
1553633575.910,11.719,761.230,337.891,12.695,509.766,0
1553633575.914,9.766,671.875,255.859,17.090,511.719,0
1553633575.917,15.137,426.270,4.883,29.297,549.805,0
1553633575.921,21.973,252.441,-194.824,29.297,563.965,0
1553633575.925,23.438,342.285,-142.090,14.160,466.797,0
1553633575.929,15.625,405.762,-52.246,19.043,429.199,0
1553633575.933,16.602,-141.602,-581.055,19.531,459.473,0
1553633575.937,23.438,-186.523,-679.688,24.902,452.637,0
1553633575.941,22.461,354.492,-116.699,35.645,397.949,0
1553633575.945,23.438,303.711,-115.234,35.156,349.121,0
1553633575.949,29.785,153.809,-275.391,35.156,327.637,0
1553633575.953,37.598,392.090,-40.039,39.551,339.355,0
1553633575.956,33.203,381.348,-45.410,30.273,267.090,0
1553633575.960,19.531,226.074,-201.660,23.438,288.086,0
1553633575.964,17.578,74.707,-343.750,23.438,337.402,0
1553633575.968,16.602,-25.879,-456.543,27.344,333.008,0
1553633575.972,18.066,209.961,-232.422,31.738,301.270,0
1553633575.976,21.484,26.367,-382.812,20.020,303.711,0
1553633575.980,19.531,-310.547,-745.117,16.113,330.566,0
1553633575.984,19.531,92.773,-383.789,17.578,204.102,0
1553633575.988,12.695,318.359,-114.258,17.578,191.406,0
1553633575.992,10.742,152.344,-267.578,16.602,207.520,0
1553633575.996,18.555,-3.906,-444.824,19.043,189.941,0
1553633575.999,16.602,165.039,-276.367,26.367,193.848,0
1553633576.003,15.625,206.055,-211.914,26.367,148.926,0
1553633576.007,21.973,15.137,-401.855,30.762,123.047,0
1553633576.011,30.762,-60.059,-487.793,26.367,191.895,0
1553633576.015,34.180,-98.145,-520.508,22.461,173.828,0
1553633576.019,18.555,12.695,-447.754,20.996,240.723,0
1553633576.023,13.672,-517.578,-761.719,20.996,-210.938,0
1553633576.027,24.414,-1000.000,-1000.000,27.832,-968.750,0
1553633576.031,15.137,-950.684,-956.055,28.809,-977.051,0
1553633576.035,22.461,-914.551,-929.688,28.809,-902.344,0
1553633576.039,22.461,-1000.000,-1000.000,25.391,-1000.000,0
1553633576.042,15.137,-365.234,-524.414,24.902,-341.797,0
1553633576.046,12.695,841.309,467.773,25.391,600.586,0
1553633576.050,4.883,910.156,571.289,18.066,572.266,0
1553633576.054,1.953,797.852,459.961,20.996,618.652,0
1553633576.058,0.000,638.672,285.645,20.508,622.070,0
1553633576.062,0.977,669.922,296.387,16.113,598.633,0
1553633576.066,6.836,375.000,8.789,22.461,521.484,0
1553633576.070,10.742,79.102,-307.617,21.973,575.195,0
1553633576.074,8.301,499.023,74.707,19.531,499.512,0
1553633576.078,10.742,636.719,237.793,23.438,398.926,0
1553633576.081,8.301,490.723,98.145,20.020,446.289,0
1553633576.085,-5.859,441.895,19.531,7.812,432.129,0
1553633576.089,2.930,601.074,177.734,14.160,420.898,0
1553633576.093,5.371,474.121,50.293,13.672,358.887,0
1553633576.097,1.465,246.582,-214.844,17.578,348.633,0
1553633576.101,7.812,291.504,-192.383,24.902,356.934,0
1553633576.105,12.695,200.684,-268.066,22.949,329.590,0
1553633576.109,21.973,11.719,-520.508,23.926,441.406,0
1553633576.113,17.090,-574.219,-857.910,13.672,-168.945,0
1553633576.117,12.695,-1000.000,-991.211,15.625,-994.141,0
1553633576.121,3.906,-897.461,-916.016,19.531,-916.992,0
1553633576.124,4.395,-1000.000,-1000.000,28.320,-1000.000,0
1553633576.128,9.766,-374.512,-541.992,29.297,-333.008,0
1553633576.132,11.230,805.664,383.789,27.832,684.082,0
1553633576.136,17.090,897.461,487.305,20.508,540.527,0
1553633576.140,16.113,666.016,253.906,17.090,527.832,0
1553633576.144,1.953,627.930,196.777,16.113,595.703,0
1553633576.148,-0.488,671.875,238.770,8.789,531.738,0
1553633576.152,8.301,519.531,90.820,17.578,560.059,0
1553633576.156,-2.441,125.488,-290.039,14.648,609.375,0
1553633576.160,-5.859,-167.969,-613.770,9.766,547.852,0
1553633576.164,8.301,228.027,-256.836,15.625,466.797,0
1553633576.167,8.789,523.926,86.426,19.531,437.012,0
1553633576.171,8.789,296.875,-130.859,20.508,400.391,0
1553633576.175,13.672,92.773,-368.164,25.879,412.109,0
1553633576.179,8.789,290.039,-183.105,21.484,404.297,0
1553633576.183,4.395,358.887,-107.910,17.090,347.168,0
1553633576.187,2.930,210.449,-256.348,17.090,372.070,0
1553633576.191,-0.488,185.059,-301.758,11.230,322.266,0
1553633576.195,-5.859,187.500,-289.062,13.184,216.309,0
1553633576.199,-2.930,64.941,-448.730,10.254,416.016,0
1553633576.203,0.000,-559.570,-831.543,5.371,-145.996,0
1553633576.206,-2.441,-1000.000,-991.699,4.883,-1000.000,0
1553633576.210,1.953,-955.078,-960.449,11.230,-966.797,0
1553633576.214,0.977,-915.039,-933.594,-0.977,-897.461,0
1553633576.218,-1.465,-1000.000,-1000.000,-1.465,-1000.000,0
1553633576.222,3.418,-506.836,-645.508,12.207,-412.109,0
1553633576.226,0.488,740.723,332.520,10.742,704.102,0
1553633576.230,0.000,870.117,473.633,6.348,740.723,0
1553633576.234,8.301,577.637,167.969,5.859,668.945,0
1553633576.238,4.395,617.676,168.457,16.113,641.602,0
1553633576.242,0.977,670.410,232.422,14.160,625.488,0
1553633576.246,-7.324,355.469,-59.570,0.977,699.707,0
1553633576.249,-13.672,112.305,-331.543,-5.859,674.316,0
1553633576.253,-11.719,410.156,-68.848,-2.441,544.922,0
1553633576.257,-10.254,598.633,152.832,-4.883,532.715,0
1553633576.261,-10.254,397.949,-27.344,-9.277,612.305,0
1553633576.265,-7.324,285.156,-158.691,-5.859,579.102,0
1553633576.269,-7.324,421.875,-35.645,-0.977,463.379,0
1553633576.273,-16.113,368.652,-76.172,0.977,443.359,0
1553633576.277,-22.461,276.367,-168.457,-0.488,483.887,0
1553633576.281,-20.508,305.664,-144.043,4.883,475.586,0
1553633576.285,-22.461,347.656,-103.516,-1.953,417.480,0
1553633576.289,-12.695,211.914,-229.492,7.812,384.766,0
1553633576.292,-12.207,-53.223,-499.512,10.254,398.926,0
1553633576.296,-16.602,-231.445,-719.727,-2.930,399.414,0
1553633576.300,-1.465,-447.266,-868.164,2.441,81.543,0
1553633576.304,-3.906,-246.582,-711.914,-5.859,274.902,0
1553633576.308,-7.324,-525.879,-806.641,-5.371,-31.738,0
1553633576.312,-5.859,-1000.000,-1000.000,0.488,-979.492,0
1553633576.316,-11.230,-905.762,-921.387,2.930,-932.617,0
1553633576.320,2.441,-1000.000,-1000.000,8.789,-1000.000,0
1553633576.324,27.344,-398.926,-540.039,31.738,-337.402,0
1553633576.328,17.578,700.684,342.773,27.344,661.621,0
1553633576.331,-12.207,806.152,448.730,-14.648,545.898,0
1553633576.335,-13.184,613.281,251.465,-12.207,537.109,0
1553633576.339,-18.066,397.949,29.297,-9.277,605.957,0
1553633576.343,-24.414,236.816,-167.480,-28.809,534.668,0
1553633576.347,-14.160,432.129,2.441,-22.461,488.281,0
1553633576.351,-12.207,210.449,-169.922,-20.020,539.551,0
1553633576.355,-18.066,-105.957,-499.512,-26.367,603.516,0
1553633576.359,-28.809,435.059,18.555,-25.879,541.992,0
1553633576.363,-24.414,532.227,153.320,-20.020,402.344,0
1553633576.367,-14.160,314.941,-68.848,-15.137,430.664,0
1553633576.371,-10.254,318.359,-79.590,-15.625,438.965,0
1553633576.374,-5.371,382.812,-14.160,-12.695,361.816,0
1553633576.378,0.488,313.965,-80.078,-5.371,347.656,0
1553633576.382,-5.859,142.578,-272.461,-1.465,335.449,0
1553633576.386,0.000,21.484,-427.246,-0.977,375.488,0
1553633576.390,8.789,-80.078,-542.480,1.465,314.941,0
1553633576.394,3.906,17.578,-499.023,2.441,388.672,0
1553633576.398,11.230,-490.723,-764.648,5.859,-130.859,0
1553633576.402,16.602,-998.535,-993.652,0.000,-932.129,0
1553633576.406,10.254,-977.539,-958.984,-0.488,-1000.000,0
1553633576.410,3.906,-734.375,-863.770,9.277,-483.887,0
1553633576.414,2.930,141.602,-268.555,10.254,498.535,0
1553633576.417,1.953,734.863,313.477,11.230,566.406,0
1553633576.421,3.906,740.723,346.680,15.137,435.059,0
1553633576.425,8.789,618.164,212.891,18.555,526.367,0
1553633576.429,10.254,571.289,161.621,17.090,540.039,0
1553633576.433,9.277,417.969,-1.953,10.742,500.000,0
1553633576.437,6.348,271.973,-172.852,11.230,444.824,0
1553633576.441,5.371,181.641,-288.086,12.207,407.715,0
1553633576.445,12.207,250.977,-229.004,11.230,443.359,0
1553633576.449,19.043,356.934,-111.816,15.625,350.586,0
1553633576.453,8.789,387.207,-100.586,17.578,342.285,0
1553633576.456,1.465,36.133,-418.457,15.137,400.879,0
1553633576.460,2.441,-676.270,-999.023,4.883,52.246,0
1553633576.464,4.883,-127.441,-567.871,4.395,100.586,0
1553633576.468,3.418,420.898,-75.684,9.766,367.188,0
1553633576.472,6.348,209.473,-249.023,14.160,310.059,0
1553633576.476,2.930,298.340,-186.523,15.137,330.566,0
1553633576.480,-2.441,319.824,-135.254,20.020,306.641,0
1553633576.484,9.277,191.895,-304.688,18.555,375.977,0
1553633576.488,6.348,-416.504,-735.352,13.184,188.965,0
1553633576.492,3.906,-529.297,-812.500,22.949,0.488,0
1553633576.496,14.648,309.082,-188.477,25.879,231.934,0
1553633576.499,12.207,358.398,-84.473,22.949,287.598,0
1553633576.503,8.789,126.465,-316.895,19.043,208.496,0
1553633576.507,17.090,222.656,-261.230,28.809,153.809,0
1553633576.511,18.555,420.410,-36.133,37.109,236.816,0
1553633576.515,13.184,229.980,-217.285,28.809,199.707,0
1553633576.519,8.301,123.535,-353.027,26.367,198.730,0
1553633576.523,15.625,221.191,-236.816,29.297,153.320,0
1553633576.527,17.090,62.012,-421.875,31.738,129.395,0
1553633576.531,15.137,-256.348,-700.684,21.973,242.676,0
1553633576.535,10.254,-856.934,-960.938,13.184,-448.242,0
1553633576.539,6.348,-1000.000,-978.027,24.414,-1000.000,0
1553633576.542,8.789,-923.340,-946.777,25.391,-915.527,0
1553633576.546,14.648,-962.891,-957.031,22.949,-971.191,0
1553633576.550,14.160,-990.723,-1000.000,19.043,-959.473,0
1553633576.554,15.625,121.582,-142.578,22.461,60.547,0
1553633576.558,26.855,-957.520,641.602,39.062,663.086,0
1553633576.562,17.578,884.277,515.137,21.973,523.926,0
1553633576.566,-2.441,934.082,526.367,-1.953,574.707,0
1553633576.570,-9.766,939.453,513.184,-4.883,530.273,0
1553633576.574,-11.719,733.887,305.664,1.465,564.453,0
1553633576.578,-9.766,200.195,-249.023,-6.348,622.559,0
1553633576.581,-11.230,266.602,-249.023,-5.371,604.980,0
1553633576.585,-0.977,798.340,281.250,11.719,520.508,0
1553633576.589,7.324,579.590,90.820,10.742,501.465,0
1553633576.593,4.395,406.250,-118.652,6.348,506.836,0
1553633576.597,12.695,623.047,77.637,12.695,436.523,0
1553633576.601,4.883,607.910,63.965,13.184,346.680,0
1553633576.605,-6.836,375.977,-172.363,17.090,354.004,0
1553633576.609,-3.418,354.980,-197.754,16.602,416.992,0
1553633576.613,1.953,483.398,-69.336,19.531,364.746,0
1553633576.617,6.836,509.766,-38.086,18.555,310.547,0
1553633576.621,8.301,230.469,-342.285,11.230,490.723,0
1553633576.624,1.953,-723.633,-954.102,8.789,-142.090,0
1553633576.628,0.488,-454.590,-685.547,15.137,-298.340,0
1553633576.632,3.418,498.047,-64.941,11.719,388.184,0
1553633576.636,4.395,387.207,-136.230,8.789,334.961,0
1553633576.640,-0.488,384.277,-140.625,16.602,346.680,0
1553633576.644,9.277,490.234,-42.969,21.973,259.277,0
1553633576.648,13.184,290.527,-240.723,19.531,232.910,0
1553633576.652,12.207,96.680,-453.125,17.578,263.184,0
1553633576.656,20.996,258.789,-310.059,20.020,257.324,0
1553633576.660,11.719,348.633,-202.148,25.391,212.891,0
1553633576.664,7.812,219.727,-319.824,27.832,215.332,0
1553633576.667,10.742,61.035,-484.375,22.949,250.488,0
1553633576.671,13.184,-82.031,-649.902,24.902,253.418,0
1553633576.675,7.812,116.699,-451.660,24.902,189.453,0
1553633576.679,7.812,314.941,-282.227,19.043,254.395,0
1553633576.683,8.301,-415.527,-737.793,16.113,-62.012,0
1553633576.687,5.859,-1000.000,-1000.000,14.160,-870.117,0
1553633576.691,6.836,-938.965,-947.266,14.648,-986.328,0
1553633576.695,9.766,-920.898,-935.547,24.902,-912.598,0
1553633576.699,10.254,-1000.000,-1000.000,20.020,-1000.000,0
1553633576.703,7.324,-128.906,-360.840,16.113,-185.059,0
1553633576.706,9.277,906.250,446.289,26.855,650.391,0
1553633576.710,6.836,733.887,306.152,20.996,566.406,0
1553633576.714,7.324,666.016,205.566,12.695,577.637,0
1553633576.718,2.930,566.406,78.125,9.277,557.617,0
1553633576.722,-4.395,728.516,218.262,9.277,497.070,0
1553633576.726,3.418,490.234,3.906,9.277,489.258,0
1553633576.730,10.742,140.625,-369.141,11.230,548.340,0
1553633576.734,3.906,564.453,7.324,13.672,445.312,0
1553633576.738,0.977,719.727,197.754,22.461,379.883,0
1553633576.742,-3.418,548.828,40.039,20.996,417.969,0
1553633576.746,0.000,531.738,6.348,17.090,406.250,0
1553633576.749,6.836,602.539,68.359,17.090,340.820,0
1553633576.753,2.930,568.848,37.598,9.766,372.559,0
1553633576.757,24.902,478.516,-45.410,28.320,420.410,0
1553633576.761,30.762,308.105,-227.539,36.621,409.668,0
1553633576.765,2.930,133.789,-402.344,8.301,358.398,0
1553633576.769,-3.418,161.621,-444.824,-1.953,432.617,0
1553633576.773,6.836,-358.398,-722.656,18.555,177.246,0
1553633576.777,15.625,-1000.000,-999.512,32.227,-724.121,0
1553633576.781,22.461,-914.062,-930.176,34.668,-965.332,0
1553633576.785,26.367,-1000.000,-1000.000,32.227,-1000.000,0
1553633576.789,27.832,-576.660,-725.586,35.156,-533.691,0
1553633576.792,17.090,551.758,67.871,34.668,437.012,0
1553633576.796,19.043,925.781,433.594,37.598,500.000,0
1553633576.800,8.789,761.719,295.898,35.645,472.168,0
1553633576.804,11.719,662.598,166.016,26.855,482.422,0
1553633576.808,19.531,575.684,80.078,21.484,492.676,0
1553633576.812,7.812,472.656,-35.156,19.043,487.793,0
1553633576.816,10.254,203.125,-295.410,20.508,459.473,0
1553633576.820,15.625,-5.371,-507.812,20.508,519.531,0
1553633576.824,20.996,464.355,-52.734,25.391,437.012,0
1553633576.828,12.207,425.293,-57.617,20.996,354.004,0
1553633576.831,13.672,231.934,-268.555,20.996,401.367,0
1553633576.835,21.484,412.109,-100.098,21.973,355.957,0
1553633576.839,17.578,471.191,-36.133,21.484,258.789,0
1553633576.843,-2.441,425.293,-61.035,25.879,269.531,0
1553633576.847,-1.465,247.559,-247.070,21.973,275.879,0
1553633576.851,14.160,337.402,-166.016,18.066,318.848,0
1553633576.855,13.184,215.332,-251.953,28.320,274.902,0
1553633576.859,11.719,39.551,-495.117,25.879,347.168,0
1553633576.863,8.789,-478.516,-778.320,20.508,2.930,0
1553633576.867,16.113,-1000.000,-999.512,28.320,-827.148,0
1553633576.871,16.602,-916.504,-932.617,30.273,-957.031,0
1553633576.874,2.930,-995.605,-987.793,22.461,-990.234,0
1553633576.878,-1.953,-847.168,-899.414,20.996,-808.594,0
1553633576.882,9.766,247.559,-96.191,20.508,200.195,0
1553633576.886,9.277,844.727,395.020,16.602,584.961,0
1553633576.890,9.277,696.777,266.602,16.113,501.465,0
1553633576.894,26.855,708.984,247.070,30.273,497.559,0
1553633576.898,41.504,734.863,272.949,41.016,422.852,0
1553633576.902,31.250,593.262,133.301,31.250,447.266,0
1553633576.906,2.441,246.094,-210.938,7.812,549.316,0
1553633576.910,17.090,42.969,-438.477,19.531,548.828,0
1553633576.914,39.551,457.520,-50.781,33.203,452.148,0
1553633576.917,44.434,640.625,173.340,44.434,361.328,0
1553633576.921,54.199,410.156,-52.246,58.594,360.352,0
1553633576.925,60.059,380.859,-99.609,61.035,366.211,0
1553633576.929,73.242,534.180,60.059,74.219,326.172,0
1553633576.933,76.660,505.859,44.434,75.684,320.312,0
1553633576.937,79.102,333.984,-134.277,78.125,334.473,0
1553633576.941,86.914,397.949,-82.031,89.355,343.262,0
1553633576.945,96.191,352.051,-110.352,101.074,290.527,0
1553633576.949,100.586,101.562,-352.539,105.957,303.711,0
1553633576.953,95.215,-252.930,-710.938,92.773,391.113,0
1553633576.956,105.957,-124.023,-621.094,95.215,370.605,0
1553633576.960,107.910,391.602,-104.004,107.422,264.160,0
1553633576.964,112.305,272.461,-178.223,110.840,231.934,0
1553633576.968,108.887,130.859,-324.707,101.562,250.000,0
1553633576.972,112.793,278.809,-203.613,104.492,207.031,0
1553633576.976,122.559,392.578,-80.566,113.281,206.543,0
1553633576.980,106.934,253.418,-211.426,105.957,238.281,0
1553633576.984,96.191,171.875,-306.641,102.539,260.254,0
1553633576.988,92.773,270.508,-194.824,94.727,186.035,0
1553633576.992,86.914,331.543,-172.852,90.820,216.797,0
1553633576.996,83.984,-224.609,-581.543,90.820,59.082,0
1553633576.999,78.613,-981.445,-1000.000,83.984,-729.980,0
1553633577.003,70.801,-971.680,-961.914,86.914,-1000.000,0
1553633577.007,73.242,-897.949,-921.387,83.008,-886.230,0
1553633577.011,78.613,-1000.000,-1000.000,62.988,-1000.000,0
1553633577.015,64.453,-425.781,-564.453,65.430,-388.672,0
1553633577.019,60.059,818.848,458.008,69.824,633.789,0
1553633577.023,64.453,961.426,618.164,64.941,544.434,0
1553633577.027,60.059,755.371,405.273,62.012,510.742,0
1553633577.031,58.594,750.977,368.652,58.105,532.715,0
1553633577.035,58.594,800.293,407.715,57.129,497.559,0
1553633577.039,56.641,695.801,309.570,60.547,482.910,0
1553633577.042,47.852,421.387,30.762,53.711,506.348,0
1553633577.046,51.270,274.414,-141.113,51.758,540.527,0
1553633577.050,46.875,387.207,-42.969,57.129,490.234,0
1553633577.054,40.527,445.801,42.969,54.688,424.805,0
1553633577.058,42.969,-21.484,-421.387,46.875,464.355,0
1553633577.062,43.945,30.762,-417.480,42.480,460.938,0
1553633577.066,42.480,325.684,-104.004,47.363,390.625,0
1553633577.070,41.016,229.004,-176.270,47.852,404.785,0
1553633577.074,41.016,324.707,-75.684,45.898,419.922,0
1553633577.078,28.320,534.180,136.230,48.828,364.746,0
1553633577.081,34.668,469.238,76.172,40.527,275.879,0
1553633577.085,37.109,203.125,-198.242,39.551,288.086,0
1553633577.089,26.855,31.250,-387.695,45.898,333.496,0
1553633577.093,27.832,-55.176,-503.906,39.551,265.625,0
1553633577.097,29.785,303.223,-145.996,39.551,291.992,0
1553633577.101,33.691,134.766,-260.742,35.645,309.082,0
1553633577.105,18.066,-373.535,-778.320,21.973,241.211,0
1553633577.109,25.879,138.184,-316.895,37.109,227.539,0
1553633577.113,50.781,431.152,11.230,53.223,212.402,0
1553633577.117,14.648,285.156,-129.395,20.996,242.676,0
1553633577.121,-26.367,309.570,-128.906,-15.137,273.926,0
1553633577.124,-33.691,260.742,-177.246,-26.367,208.008,0
1553633577.128,-54.688,220.703,-220.215,-50.293,215.332,0
1553633577.132,-90.820,246.094,-182.617,-75.684,242.676,0
1553633577.136,-119.141,46.875,-391.602,-109.863,211.914,0
1553633577.140,-135.254,0.977,-447.754,-133.789,186.035,0
1553633577.144,-156.738,149.414,-337.402,-138.184,252.930,0
1553633577.148,-172.852,-487.305,-747.559,-156.250,-249.512,0
1553633577.152,-171.387,-1000.000,-1000.000,-165.039,-987.305,0
1553633577.156,-180.664,-916.016,-930.664,-165.039,-937.988,0
1553633577.160,-180.664,-975.098,-968.750,-167.969,-979.492,0
1553633577.164,-165.527,-914.551,-952.148,-162.109,-877.930,0
1553633577.167,-149.414,208.496,-75.195,-141.602,164.551,0
1553633577.171,-131.836,-974.609,672.363,-123.047,594.727,0
1553633577.175,-121.094,839.355,533.203,-103.516,475.098,0
1553633577.179,-105.469,836.426,509.277,-93.262,551.270,0
1553633577.183,-85.449,745.605,416.016,-80.078,538.574,0
1553633577.187,-77.637,643.555,307.617,-69.336,574.707,0
1553633577.191,-73.730,373.535,41.016,-68.359,540.039,0
1553633577.195,-69.336,166.016,-183.594,-65.430,570.801,0
1553633577.199,-61.035,538.086,155.762,-50.293,465.332,0
1553633577.203,-52.246,666.016,304.199,-48.340,362.793,0
1553633577.206,-53.223,511.230,150.879,-45.898,402.832,0
1553633577.210,-50.781,484.375,105.957,-35.645,386.230,0
1553633577.214,-44.434,542.480,156.250,-29.297,301.758,0
1553633577.218,-38.086,477.051,97.168,-30.273,314.941,0
1553633577.222,-36.621,381.348,-0.488,-27.344,373.535,0
1553633577.226,-38.574,386.719,-7.812,-19.531,329.590,0
1553633577.230,-39.551,277.832,-107.910,-23.438,293.945,0
1553633577.234,-27.344,136.230,-309.082,-25.391,420.410,0
1553633577.238,-20.020,-524.414,-763.672,-11.719,-102.051,0
1553633577.242,-20.996,-621.094,-839.355,-5.371,-275.391,0
1553633577.246,-18.555,163.086,-308.105,-8.301,306.152,0
1553633577.249,-21.973,302.734,-119.141,-3.418,300.781,0
1553633577.253,-17.578,269.531,-149.902,-6.836,294.922,0
1553633577.257,-16.602,497.070,52.246,-7.324,298.340,0
1553633577.261,-18.066,509.277,59.570,-0.977,224.121,0
1553633577.265,-8.301,294.922,-173.340,4.395,228.027,0
1553633577.269,3.418,203.613,-299.805,5.859,223.145,0
1553633577.273,-0.488,251.465,-254.883,5.371,141.602,0
1553633577.277,-5.371,108.398,-451.172,9.766,145.020,0
1553633577.281,-2.930,-291.504,-763.184,9.766,175.293,0
1553633577.285,-1.465,-900.879,-974.609,3.418,-558.105,0
1553633577.289,-3.906,-979.492,-961.914,-1.953,-1000.000,0
1553633577.292,-1.953,-918.457,-941.406,8.301,-909.180,0
1553633577.296,-1.953,-1000.000,-1000.000,11.719,-1000.000,0
1553633577.300,-11.719,-218.262,-455.566,0.000,-149.902,0
1553633577.304,-10.742,845.215,364.746,0.977,705.566,0
1553633577.308,-12.207,954.590,500.488,3.418,483.398,0
1553633577.312,-7.324,836.426,379.395,1.465,486.328,0
1553633577.316,6.348,887.207,416.992,3.906,524.902,0
1553633577.320,6.348,919.922,453.125,8.789,484.375,0
1553633577.324,7.812,681.641,231.934,12.695,482.422,0
1553633577.328,7.324,141.113,-318.359,10.742,543.457,0
1553633577.331,1.465,207.031,-295.898,9.277,528.809,0
1553633577.335,8.301,729.492,235.352,12.695,423.828,0
1553633577.339,14.648,608.398,161.133,19.043,395.996,0
1553633577.343,11.230,432.617,-27.832,7.324,401.367,0
1553633577.347,4.883,654.297,179.688,7.324,409.180,0
1553633577.351,-2.930,663.574,209.961,17.090,327.148,0
1553633577.355,3.418,438.477,-7.812,15.137,331.055,0
1553633577.359,12.695,333.008,-111.328,14.160,352.539,0
1553633577.363,6.836,320.801,-114.258,11.230,375.488,0
1553633577.367,4.883,432.129,-1.465,15.625,352.051,0
1553633577.371,5.859,80.566,-311.523,20.508,288.086,0
1553633577.374,3.418,-389.648,-764.160,10.742,221.680,0
1553633577.378,2.441,108.398,-322.266,10.254,225.098,0
1553633577.382,2.930,478.027,63.477,8.301,249.512,0
1553633577.386,6.348,304.688,-97.656,18.066,232.422,0
1553633577.390,-1.465,285.645,-147.949,21.973,252.930,0
1553633577.394,4.395,443.359,1.465,16.602,213.379,0
1553633577.398,15.625,363.281,-85.449,13.672,164.551,0
1553633577.402,11.719,222.168,-239.746,13.672,197.266,0
1553633577.406,12.207,256.836,-217.285,15.137,199.707,0
1553633577.410,17.578,346.680,-126.953,21.973,160.156,0
1553633577.414,15.625,325.195,-126.465,21.484,176.270,0
1553633577.417,12.695,133.789,-310.547,20.020,228.516,0
1553633577.421,13.672,42.480,-420.898,15.137,269.043,0
1553633577.425,9.766,27.344,-432.129,18.555,193.848,0
1553633577.429,10.742,171.875,-325.684,24.902,231.934,0
1553633577.433,15.625,-382.324,-666.504,4.883,33.691,0
1553633577.437,7.812,-821.777,-1000.000,5.859,-342.285,0
1553633577.441,1.465,26.855,-407.715,21.973,2.441,0
1553633577.445,12.207,331.543,-115.234,20.020,238.281,0
1553633577.449,14.160,234.375,-199.219,14.160,184.570,0
1553633577.453,14.648,416.992,-48.340,16.602,149.902,0
1553633577.456,7.324,417.969,-46.875,17.578,112.305,0
1553633577.460,5.371,232.422,-233.887,16.602,127.441,0
1553633577.464,7.812,39.551,-435.059,17.090,176.758,0
1553633577.468,-3.906,20.020,-459.473,12.207,227.539,0
1553633577.472,3.418,265.137,-217.285,15.137,170.410,0
1553633577.476,15.137,131.836,-356.934,7.324,237.793,0
1553633577.480,9.766,-734.375,-934.082,8.301,-320.312,0
1553633577.484,9.277,-1000.000,-982.422,13.672,-1000.000,0
1553633577.488,2.441,-946.289,-957.031,7.324,-961.914,0
1553633577.492,8.301,-950.684,-958.008,13.672,-934.570,0
1553633577.496,7.812,-956.055,-952.637,6.836,-968.262,0
1553633577.499,-2.930,-1000.000,-1000.000,12.207,-987.305,0
1553633577.503,3.906,80.078,-127.441,22.461,19.531,0
1553633577.507,7.812,-957.520,730.957,11.719,710.449,0
1553633577.511,2.930,815.918,529.297,-1.953,525.391,0
1553633577.515,0.488,851.074,534.668,-0.488,625.488,0
1553633577.519,6.348,940.430,632.324,8.789,560.547,0
1553633577.523,2.930,484.375,177.734,-1.465,611.328,0
1553633577.527,-3.906,507.812,141.113,-10.742,630.859,0
1553633577.531,2.930,906.250,532.715,0.977,481.445,0
1553633577.535,0.488,762.695,419.922,1.465,489.746,0
1553633577.539,-0.488,526.367,166.016,5.371,564.453,0
1553633577.542,1.465,605.469,208.008,16.113,473.633,0
1553633577.546,-1.953,636.719,229.980,13.184,354.004,0
1553633577.550,13.184,531.738,131.836,23.438,439.941,0
1553633577.554,33.691,543.457,147.949,43.457,492.188,0
1553633577.558,10.742,394.531,-11.719,21.484,422.852,0
1553633577.562,-9.766,220.703,-227.539,-8.301,391.113,0
1553633577.566,4.883,55.176,-376.465,-5.859,436.523,0
1553633577.570,1.465,-187.988,-625.977,-3.906,442.871,0
1553633577.574,-1.953,222.656,-242.676,0.977,372.070,0
1553633577.578,5.371,456.055,33.691,9.277,268.555,0
1553633577.581,-0.488,311.035,-108.887,6.836,289.551,0
1553633577.585,-4.883,291.016,-152.832,1.953,278.809,0
1553633577.589,0.488,326.172,-126.465,12.695,183.594,0
1553633577.593,5.859,317.383,-129.395,18.555,199.219,0
1553633577.597,8.301,118.652,-327.637,19.043,254.883,0
1553633577.601,14.160,93.750,-374.023,16.602,294.434,0
1553633577.605,11.230,113.770,-335.449,19.043,247.559,0
1553633577.609,5.371,44.922,-454.590,19.043,292.480,0
1553633577.613,14.160,-394.043,-720.703,15.625,158.203,0
1553633577.617,20.996,-990.234,-992.676,22.461,-659.668,0
1553633577.621,15.137,-966.797,-962.402,20.996,-1000.000,0
1553633577.624,20.508,-955.078,-966.797,15.625,-935.059,0
1553633577.628,23.438,-923.340,-928.711,17.090,-930.176,0
1553633577.632,12.695,-1000.000,-1000.000,15.137,-1000.000,0
1553633577.636,18.066,-240.234,-410.156,13.184,-282.715,0
1553633577.640,18.066,875.977,512.207,16.113,690.430,0
1553633577.644,15.625,894.043,556.152,17.090,554.199,0
1553633577.648,15.625,892.578,545.898,17.090,461.914,0
1553633577.652,13.184,778.809,429.688,20.508,529.297,0
1553633577.656,8.301,350.098,6.348,21.973,579.590,0
1553633577.660,10.254,105.469,-279.297,13.672,592.773,0
1553633577.664,20.996,539.551,112.793,15.137,514.160,0
1553633577.667,16.602,688.965,287.109,22.461,382.324,0
1553633577.671,14.160,507.324,106.934,26.855,426.758,0
1553633577.675,19.531,509.766,95.703,22.949,461.426,0
1553633577.679,9.766,565.430,145.996,16.113,361.328,0
1553633577.683,17.090,480.469,65.430,20.996,331.055,0
1553633577.687,13.672,296.387,-119.141,26.855,343.262,0
1553633577.691,6.836,335.938,-94.727,25.391,375.000,0
1553633577.695,17.090,476.562,75.195,16.602,340.332,0
1553633577.699,15.625,310.547,-121.094,19.531,434.570,0
1553633577.703,18.555,-465.332,-717.773,17.578,36.133,0
1553633577.706,16.602,-1000.000,-994.629,8.301,-869.141,0
1553633577.710,13.672,-957.031,-958.496,21.484,-1000.000,0
1553633577.714,12.207,-911.621,-928.711,22.461,-886.230,0
1553633577.718,12.207,-1000.000,-1000.000,19.531,-1000.000,0
1553633577.722,14.648,-552.246,-661.621,22.461,-479.492,0
1553633577.726,9.277,715.332,390.625,28.320,580.566,0
1553633577.730,12.695,928.223,618.652,33.691,629.883,0
1553633577.734,20.020,796.387,484.375,23.438,584.961,0
1553633577.738,19.043,887.207,544.922,22.461,576.660,0
1553633577.742,6.348,836.914,479.004,20.508,498.535,0
1553633577.746,2.930,452.637,113.281,18.066,586.426,0
1553633577.749,7.812,145.508,-219.727,19.043,691.895,0
1553633577.753,6.836,539.551,127.441,19.043,613.281,0
1553633577.757,21.484,733.887,350.586,22.949,505.859,0
1553633577.761,24.414,482.910,99.121,24.414,467.285,0
1553633577.765,8.789,389.648,-19.531,15.625,444.824,0
1553633577.769,-1.953,537.598,123.047,12.695,433.105,0
1553633577.773,11.719,505.859,99.609,27.832,407.715,0
1553633577.777,23.438,244.141,-176.758,32.227,377.441,0
1553633577.781,13.672,280.762,-164.551,22.461,423.828,0
1553633577.785,11.719,423.828,-15.137,19.531,383.301,0
1553633577.789,18.555,327.637,-93.750,23.438,339.355,0
1553633577.792,19.531,85.449,-329.102,23.438,375.977,0
1553633577.796,15.137,-123.047,-556.641,19.531,383.301,0
1553633577.800,17.578,29.785,-401.367,21.973,296.387,0
1553633577.804,17.090,270.996,-162.109,24.414,346.191,0
1553633577.808,13.184,-381.836,-642.578,17.090,187.500,0
1553633577.812,15.625,-1000.000,-1000.000,27.832,-666.504,0
1553633577.816,19.043,-959.961,-956.055,30.762,-1000.000,0
1553633577.820,16.602,-911.621,-929.199,23.438,-885.254,0
1553633577.824,17.090,-1000.000,-1000.000,22.949,-1000.000,0
1553633577.828,12.207,-619.629,-714.844,28.809,-527.344,0
1553633577.831,7.324,587.891,311.523,32.227,523.926,0
1553633577.835,6.348,804.688,551.270,21.973,622.070,0
1553633577.839,6.348,515.137,264.648,21.484,566.406,0
1553633577.843,12.695,497.559,226.074,25.391,594.238,0
1553633577.847,11.719,717.285,440.430,22.949,532.715,0
1553633577.851,-9.277,353.027,94.727,5.859,471.191,0
1553633577.855,-2.930,-15.625,-304.199,6.348,571.777,0
1553633577.859,12.695,447.266,121.094,20.508,504.395,0
1553633577.863,12.695,532.715,232.422,22.461,367.188,0
1553633577.867,15.137,372.070,69.336,23.438,428.223,0
1553633577.871,13.672,417.480,109.375,22.461,471.680,0
1553633577.874,13.672,495.605,193.848,22.949,400.391,0
1553633577.878,8.789,373.535,75.195,20.020,341.797,0
1553633577.882,5.371,186.035,-119.141,17.090,347.656,0
1553633577.886,6.836,54.199,-259.277,18.555,370.605,0
1553633577.890,5.371,-39.551,-367.188,13.672,358.887,0
1553633577.894,5.859,-31.738,-348.145,13.184,375.000,0
1553633577.898,-3.906,-133.789,-450.195,14.648,356.445,0
1553633577.902,-4.395,11.719,-341.797,13.672,280.762,0
1553633577.906,3.906,257.812,-89.844,17.090,231.445,0
1553633577.910,-3.906,118.652,-208.008,10.742,272.949,0
1553633577.914,-2.441,-67.871,-416.992,6.348,284.180,0
1553633577.917,6.348,152.344,-211.426,14.648,273.926,0
1553633577.921,3.906,270.508,-72.266,18.555,197.754,0
1553633577.925,1.465,-80.566,-429.688,14.648,246.094,0
1553633577.929,7.812,-792.480,-925.781,12.695,-317.383,0
1553633577.933,9.766,-1000.000,-987.305,13.672,-1000.000,0
1553633577.937,-0.977,-913.574,-930.176,14.648,-918.457,0
1553633577.941,-1.465,-982.422,-974.609,3.906,-930.176,0
1553633577.945,2.930,-929.199,-957.031,0.977,-852.051,0
1553633577.949,5.859,226.074,35.156,12.695,203.613,0
1553633577.953,6.836,933.594,717.773,10.254,702.148,0
1553633577.956,14.160,575.684,385.742,14.648,605.957,0
1553633577.960,15.137,644.531,414.062,13.184,626.953,0
1553633577.964,4.883,792.480,555.664,10.254,499.512,0
1553633577.968,1.953,650.391,418.457,14.648,448.242,0
1553633577.972,2.930,486.328,235.352,12.695,493.164,0
1553633577.976,-3.418,538.086,268.066,12.695,517.578,0
1553633577.980,1.465,419.922,150.879,7.324,493.652,0
1553633577.984,10.254,237.305,-28.320,10.742,516.602,0
1553633577.988,13.672,-135.742,-400.879,7.324,538.086,0
1553633577.992,18.066,-76.172,-381.836,3.906,496.582,0
1553633577.996,12.695,418.457,114.746,9.766,386.230,0
1553633577.999,14.160,253.906,-10.254,16.602,325.195,0
1553633578.003,5.371,100.586,-167.480,18.555,362.305,0
1553633578.007,-6.836,326.172,41.504,14.648,360.352,0
1553633578.011,-0.977,347.656,75.684,12.207,302.246,0
1553633578.015,12.695,76.660,-188.965,18.066,318.848,0
1553633578.019,2.930,41.992,-244.629,19.043,342.773,0
1553633578.023,-3.906,159.180,-105.957,11.719,246.582,0
1553633578.027,12.695,32.227,-229.492,13.184,255.859,0
1553633578.031,16.113,-406.738,-615.723,12.695,239.258,0
1553633578.035,6.348,-950.195,-977.051,8.301,-552.734,0
1553633578.039,2.441,-973.633,-966.797,22.949,-1000.000,0
1553633578.042,5.371,-910.156,-919.434,28.320,-896.973,0
1553633578.046,3.906,-1000.000,-1000.000,21.484,-1000.000,0
1553633578.050,6.348,-300.781,-377.441,23.438,-230.469,0
1553633578.054,15.625,767.578,636.719,23.926,654.785,0
1553633578.058,8.789,756.836,656.250,20.020,469.727,0
1553633578.062,6.836,630.859,519.531,23.438,534.180,0
1553633578.066,18.555,647.461,508.301,26.367,550.781,0
1553633578.070,16.602,652.344,497.559,25.879,485.840,0
1553633578.074,8.789,508.301,360.352,23.926,546.387,0
1553633578.078,15.625,-93.262,-262.695,19.043,568.848,0
1553633578.081,15.625,-129.395,-366.211,20.020,508.301,0
1553633578.085,3.418,447.266,210.938,21.973,450.684,0
1553633578.089,3.418,296.875,94.238,18.555,396.484,0
1553633578.093,7.324,145.020,-73.242,21.484,437.500,0
1553633578.097,8.301,355.957,113.770,26.855,419.922,0
1553633578.101,6.348,374.023,131.348,27.344,341.309,0
1553633578.105,7.324,183.105,-59.082,23.438,357.910,0
1553633578.109,7.324,90.332,-171.387,20.508,369.629,0
1553633578.113,0.977,164.062,-115.723,16.602,302.734,0
1553633578.117,10.254,185.547,-94.238,20.020,223.633,0
1553633578.121,10.742,-74.707,-352.051,20.508,424.316,0
1553633578.124,5.371,-775.391,-891.113,9.277,-206.055,0
1553633578.128,5.371,-1000.000,-990.723,17.090,-1000.000,0
1553633578.132,7.324,-932.129,-942.871,19.043,-933.594,0
1553633578.136,13.184,-946.777,-945.801,21.484,-942.383,0
1553633578.140,6.836,-1000.000,-1000.000,23.926,-1000.000,0
1553633578.144,7.812,-112.305,-264.648,19.043,-46.875,0
1553633578.148,10.254,886.230,671.387,13.672,724.609,0
1553633578.152,7.324,761.230,587.402,19.531,580.566,0
1553633578.156,-0.977,733.887,533.203,18.555,591.309,0
1553633578.160,-1.953,799.316,589.844,15.137,557.129,0
1553633578.164,9.277,685.059,478.027,14.648,537.598,0
1553633578.167,10.254,514.648,311.035,12.695,641.113,0
1553633578.171,5.859,289.062,66.895,18.066,609.375,0
1553633578.175,0.000,291.504,27.344,9.766,534.668,0
1553633578.179,-5.371,499.023,263.184,11.230,557.617,0
1553633578.183,-0.488,-62.988,-284.180,9.277,499.512,0
1553633578.187,3.906,-114.258,-404.785,12.207,446.289,0
1553633578.191,9.766,370.117,110.352,23.926,462.402,0
1553633578.195,24.902,233.398,22.949,30.273,470.215,0
1553633578.199,4.395,210.938,-13.672,15.625,434.082,0
1553633578.203,5.371,395.996,157.227,13.184,397.949,0
1553633578.206,15.137,391.602,157.227,23.926,347.168,0
1553633578.210,-1.953,154.297,-84.473,16.602,312.500,0
1553633578.214,-7.812,-85.449,-335.449,9.766,332.520,0
1553633578.218,-0.977,-134.766,-391.113,11.230,362.305,0
1553633578.222,10.742,91.309,-165.527,20.020,309.570,0
1553633578.226,7.812,-50.781,-281.250,14.160,323.730,0
1553633578.230,5.371,-753.906,-889.648,9.277,20.508,0
1553633578.234,3.906,-396.484,-587.891,14.648,-52.734,0
1553633578.238,6.348,201.660,-55.176,20.508,257.324,0
1553633578.242,2.441,130.371,-88.379,11.719,276.855,0
1553633578.246,-1.465,165.527,-70.801,-0.488,257.812,0
1553633578.249,3.418,185.059,-39.062,7.812,216.797,0
1553633578.253,7.324,-9.277,-232.422,21.973,208.984,0
1553633578.257,12.207,-19.043,-263.672,28.809,216.797,0
1553633578.261,12.695,-96.680,-354.492,16.602,200.684,0
1553633578.265,5.859,-253.906,-534.668,4.883,139.160,0
1553633578.269,3.418,-105.469,-414.551,14.160,255.371,0
1553633578.273,9.766,-515.137,-669.434,16.602,-112.793,0
1553633578.277,9.766,-1000.000,-1000.000,13.672,-927.734,0
1553633578.281,1.465,-906.738,-916.992,16.602,-941.895,0
1553633578.285,-0.488,-1000.000,-1000.000,13.672,-1000.000,0
1553633578.289,8.301,-654.785,-719.727,13.672,-584.473,0
1553633578.292,4.883,488.770,282.227,13.184,463.867,0
1553633578.296,1.465,913.086,712.402,15.625,549.805,0
1553633578.300,6.836,693.359,497.559,16.602,476.562,0
1553633578.304,13.184,617.676,392.578,15.625,539.062,0
1553633578.308,11.719,499.512,270.996,21.484,548.828,0
1553633578.312,2.441,353.516,106.445,23.438,523.926,0
1553633578.316,1.465,112.793,-128.906,18.066,528.809,0
1553633578.320,6.348,-94.727,-359.863,22.461,546.387,0
1553633578.324,6.836,343.262,44.922,35.645,466.797,0
1553633578.328,12.207,519.531,256.836,32.715,379.395,0
1553633578.331,11.719,294.922,26.367,18.066,371.094,0
1553633578.335,5.859,259.766,-37.598,15.625,364.746,0
1553633578.339,8.301,360.352,62.500,23.926,318.848,0
1553633578.343,1.953,308.105,28.320,24.414,300.781,0
1553633578.347,-0.977,123.535,-158.691,20.508,306.152,0
1553633578.351,-2.441,160.156,-125.977,16.113,371.582,0
1553633578.355,-1.953,56.152,-211.914,19.043,318.359,0
1553633578.359,7.324,-13.184,-307.129,20.020,374.023,0
1553633578.363,7.324,-388.672,-630.371,8.789,309.570,0
1553633578.367,11.719,-511.230,-745.605,10.742,122.070,0
1553633578.371,23.438,26.367,-299.316,24.414,228.027,0
1553633578.374,0.488,51.758,-251.465,7.324,256.348,0
1553633578.378,-20.020,55.176,-243.164,-8.789,249.023,0
1553633578.382,-1.465,271.484,-45.898,7.324,246.094,0
1553633578.386,4.883,411.621,110.840,22.461,261.719,0
1553633578.390,7.324,165.527,-136.230,21.973,222.168,0
1553633578.394,-1.465,53.223,-276.855,10.742,231.445,0
1553633578.398,2.441,176.270,-131.348,10.742,163.086,0
1553633578.402,7.812,-41.016,-368.652,11.719,177.246,0
1553633578.406,-0.977,-527.832,-762.695,7.324,21.973,0
1553633578.410,2.441,-977.051,-982.422,5.859,-776.367,0
1553633578.414,-5.859,-940.918,-942.871,12.695,-985.840,0
1553633578.417,8.301,-972.656,-972.656,20.508,-965.820,0
1553633578.421,5.371,-912.109,-937.988,19.043,-877.930,0
1553633578.425,-7.324,78.125,-139.648,15.625,105.469,0
1553633578.429,-1.953,707.031,419.922,14.160,579.590,0
1553633578.433,-4.395,651.367,390.137,20.020,439.941,0
1553633578.437,-8.789,624.512,352.051,14.160,519.531,0
1553633578.441,-2.441,592.773,290.039,6.348,490.234,0
1553633578.445,6.348,672.852,368.652,17.090,453.613,0
1553633578.449,-6.836,469.238,181.641,16.113,461.914,0
1553633578.453,-1.953,-99.121,-408.691,8.789,516.602,0
1553633578.456,4.883,47.852,-297.852,12.695,566.895,0
1553633578.460,2.930,516.113,171.387,14.648,397.949,0
1553633578.464,5.371,356.934,42.969,13.184,351.074,0
1553633578.468,3.906,226.562,-92.773,14.160,408.691,0
1553633578.472,22.949,361.816,14.160,34.668,353.027,0
1553633578.476,43.457,432.129,83.984,46.387,314.941,0
1553633578.480,20.020,279.297,-68.359,20.508,341.309,0
1553633578.484,1.465,176.758,-198.730,0.000,330.566,0
1553633578.488,0.488,165.039,-215.820,3.418,299.805,0
1553633578.492,8.789,134.766,-235.840,4.883,238.770,0
1553633578.496,17.090,-84.961,-452.637,-1.953,325.684,0
1553633578.499,6.836,-714.844,-926.270,-11.230,18.066,0
1553633578.503,10.742,-772.949,-968.262,-9.277,-354.492,0
1553633578.507,21.973,-148.438,-503.418,6.836,53.223,0
1553633578.511,19.531,207.031,-134.277,12.695,351.074,0
1553633578.515,7.324,280.273,-37.109,2.930,314.941,0
1553633578.519,9.277,383.789,49.805,-2.930,232.422,0
1553633578.523,10.742,347.656,7.324,0.977,232.910,0
1553633578.527,9.766,122.070,-229.980,6.836,204.590,0
1553633578.531,19.531,83.008,-281.738,8.301,185.547,0
1553633578.535,24.414,198.730,-152.832,13.672,178.711,0
1553633578.539,20.508,115.234,-225.098,15.625,149.414,0
1553633578.542,19.043,-51.270,-391.113,18.555,215.332,0
1553633578.546,17.090,-169.434,-520.020,15.137,270.508,0
1553633578.550,15.625,-210.449,-576.660,12.207,133.301,0
1553633578.554,23.926,9.766,-379.395,17.578,221.191,0
1553633578.558,25.391,-444.824,-649.414,11.719,3.418,0
1553633578.562,18.066,-1000.000,-1000.000,14.160,-826.172,0
1553633578.566,19.043,-953.613,-955.566,18.066,-1000.000,0
1553633578.570,16.113,-967.773,-972.656,17.578,-943.359,0
1553633578.574,13.672,-916.016,-923.340,15.625,-922.363,0
1553633578.578,24.414,-1000.000,-1000.000,11.230,-1000.000,0
1553633578.581,21.484,-424.316,-523.926,20.020,-405.762,0
1553633578.585,15.625,754.883,481.445,22.461,693.848,0
1553633578.589,21.973,812.988,546.387,17.578,720.703,0
1553633578.593,31.738,751.465,467.285,20.508,652.344,0
1553633578.597,12.695,956.055,644.531,20.996,571.289,0
1553633578.601,7.324,661.133,372.559,14.160,597.656,0
1553633578.605,19.043,325.195,20.996,16.113,713.867,0
1553633578.609,8.301,629.883,281.738,19.531,643.555,0
1553633578.613,6.836,797.363,452.148,14.160,555.176,0
1553633578.617,6.348,660.645,305.664,16.602,530.273,0
1553633578.621,8.789,610.352,225.098,14.160,524.902,0
1553633578.624,11.230,661.133,261.230,16.113,445.801,0
1553633578.628,8.789,555.664,153.809,20.996,414.551,0
1553633578.632,6.348,401.367,-6.348,12.207,432.129,0
1553633578.636,6.836,306.641,-104.980,13.672,479.004,0
1553633578.640,1.953,195.801,-221.680,20.996,462.891,0
1553633578.644,6.348,220.215,-197.754,19.043,403.809,0
1553633578.648,8.301,-201.172,-599.609,14.160,344.238,0
1553633578.652,-1.465,-283.691,-725.098,15.625,271.484,0
1553633578.656,4.883,348.145,-79.102,18.555,310.059,0
1553633578.660,1.953,281.250,-81.055,12.695,298.340,0
1553633578.664,-3.906,143.066,-217.773,11.230,313.477,0
1553633578.667,0.488,204.102,-174.316,14.648,298.340,0
1553633578.671,2.441,275.879,-102.051,19.043,270.020,0
1553633578.675,-2.441,218.262,-155.762,14.648,255.859,0
1553633578.679,-0.488,166.016,-216.797,15.625,264.648,0
1553633578.683,5.859,33.203,-342.773,19.531,224.609,0
1553633578.687,0.000,-56.641,-487.793,16.602,143.555,0
1553633578.691,-0.977,-136.719,-556.152,16.113,230.957,0
1553633578.695,5.371,-832.520,-948.242,13.184,-422.852,0
1553633578.699,3.418,-1000.000,-989.746,10.742,-1000.000,0
1553633578.703,4.395,-900.391,-925.781,15.137,-898.926,0
1553633578.706,8.789,-1000.000,-999.023,20.508,-1000.000,0
1553633578.710,6.836,-773.438,-846.191,9.766,-710.938,0
1553633578.714,-4.395,445.312,116.699,2.441,372.559,0
1553633578.718,6.348,-991.699,636.719,12.695,618.164,0
1553633578.722,8.789,812.988,460.449,14.160,519.043,0
1553633578.726,-15.625,729.492,339.844,3.418,552.246,0
1553633578.730,2.441,615.723,212.891,15.137,586.914,0
1553633578.734,7.812,570.312,162.598,29.297,593.262,0
1553633578.738,-5.859,176.270,-246.582,16.602,583.496,0
1553633578.742,-0.488,246.582,-219.238,13.672,604.004,0
1553633578.746,1.953,729.492,267.090,16.113,480.957,0
1553633578.749,-5.859,603.027,182.617,5.859,452.637,0
1553633578.753,-9.766,412.598,-13.184,7.812,453.125,0
1553633578.757,-0.977,537.109,94.727,19.043,404.785,0
1553633578.761,-6.836,595.703,167.480,8.789,377.930,0
1553633578.765,-2.930,486.816,69.336,9.277,437.500,0
1553633578.769,5.859,387.695,-34.180,13.672,428.223,0
1553633578.773,1.953,266.113,-175.781,9.277,325.195,0
1553633578.777,0.488,235.840,-198.730,16.602,350.586,0
1553633578.781,0.000,27.344,-430.176,9.277,490.234,0
1553633578.785,2.930,-674.316,-903.320,10.742,-49.316,0
1553633578.789,10.254,-1000.000,-986.816,23.438,-931.641,0
1553633578.792,10.254,-900.391,-918.945,22.949,-929.199,0
1553633578.796,8.301,-1000.000,-1000.000,17.578,-1000.000,0
1553633578.800,3.906,-553.223,-668.945,16.602,-497.559,0
1553633578.804,3.418,587.402,226.562,14.160,482.910,0
1553633578.808,12.207,839.355,473.633,17.578,475.098,0
1553633578.812,15.137,747.559,395.508,19.531,507.324,0
1553633578.816,14.160,807.617,431.641,11.719,541.992,0
1553633578.820,14.160,767.578,380.859,14.648,448.730,0
1553633578.824,7.324,560.059,183.594,25.879,476.562,0
1553633578.828,4.395,17.578,-370.605,19.531,528.809,0
1553633578.831,8.789,79.102,-356.445,19.531,523.926,0
1553633578.835,14.648,611.816,186.523,31.250,419.922,0
1553633578.839,10.254,558.105,175.781,24.414,405.273,0
1553633578.843,9.277,287.598,-93.750,24.414,414.551,0
1553633578.847,16.602,290.527,-126.953,26.367,379.883,0
1553633578.851,23.438,522.461,101.562,26.367,368.652,0
1553633578.855,20.508,371.582,-30.273,19.531,333.496,0
1553633578.859,15.625,256.836,-150.391,26.367,338.379,0
1553633578.863,22.461,367.188,-44.434,31.738,299.805,0
1553633578.867,19.531,372.559,-49.805,19.531,249.023,0
1553633578.871,15.137,88.379,-331.543,15.625,370.605,0
1553633578.874,15.137,-589.355,-893.555,18.066,138.184,0
1553633578.878,10.742,-263.672,-629.883,18.555,72.266,0
1553633578.882,22.949,351.562,-117.676,20.508,285.156,0
1553633578.886,23.926,204.590,-226.074,19.043,242.676,0
1553633578.890,16.602,85.449,-368.652,9.766,186.035,0
1553633578.894,19.043,260.742,-187.988,16.602,197.754,0
1553633578.898,21.484,367.676,-50.781,11.719,243.652,0
1553633578.902,16.602,189.453,-220.703,5.371,212.891,0
1553633578.906,9.766,10.742,-415.527,6.348,206.055,0
1553633578.910,24.414,177.734,-250.977,17.578,215.332,0
1553633578.914,13.184,326.172,-75.195,14.648,223.145,0
1553633578.917,-1.953,33.203,-360.840,18.066,210.449,0
1553633578.921,14.648,-161.133,-602.051,23.926,175.781,0
1553633578.925,9.277,83.496,-370.117,9.277,117.188,0
1553633578.929,13.184,219.238,-246.582,17.578,240.234,0
1553633578.933,21.973,-457.520,-705.078,22.461,-125.488,0
1553633578.937,12.207,-1000.000,-1000.000,17.578,-936.035,0
1553633578.941,10.254,-955.566,-957.520,16.602,-998.047,0
1553633578.945,7.812,-926.758,-940.918,13.672,-899.902,0
1553633578.949,3.418,-999.023,-984.863,12.695,-1000.000,0
1553633578.953,-3.906,-868.164,-912.109,14.648,-805.176,0
1553633578.956,-7.324,349.121,117.676,16.602,293.945,0
1553633578.960,-4.883,942.871,680.176,4.395,686.035,0
1553633578.964,-2.930,693.359,448.730,4.883,599.121,0
1553633578.968,3.418,633.789,362.793,12.695,660.645,0
1553633578.972,20.996,757.324,463.867,15.625,562.500,0
1553633578.976,14.648,573.242,309.082,10.742,599.609,0
1553633578.980,-9.766,291.504,24.902,-4.883,719.727,0
1553633578.984,-12.695,550.293,236.328,-0.488,595.215,0
1553633578.988,-12.695,607.422,291.504,11.230,438.477,0
1553633578.992,0.000,468.262,143.555,20.996,458.008,0
1553633578.996,0.000,429.199,84.473,20.020,449.219,0
1553633578.999,-2.441,585.938,246.582,9.766,451.172,0
1553633579.003,-4.395,569.824,252.441,1.465,446.777,0
1553633579.007,-5.371,349.121,22.949,10.254,391.602,0
1553633579.011,6.836,214.355,-127.930,20.020,484.375,0
1553633579.015,7.812,208.008,-142.578,12.695,430.176,0
1553633579.019,10.742,304.688,-85.938,13.672,389.648,0
1553633579.023,6.348,-369.141,-590.820,8.301,182.129,0
1553633579.027,2.930,-1000.000,-1000.000,6.836,-669.922,0
1553633579.031,7.812,-941.406,-944.824,13.672,-1000.000,0
1553633579.035,14.160,-925.781,-935.547,18.555,-912.109,0
1553633579.039,17.578,-1000.000,-1000.000,20.020,-1000.000,0
1553633579.042,7.812,-234.863,-379.395,13.672,-183.105,0
1553633579.046,11.230,816.895,552.246,15.625,637.695,0
1553633579.050,13.184,755.371,534.668,15.625,556.152,0
1553633579.054,6.836,703.613,473.633,12.207,584.473,0
1553633579.058,11.230,505.371,264.160,13.184,533.203,0
1553633579.062,10.254,475.586,198.730,10.742,543.945,0
1553633579.066,4.883,384.766,119.141,5.859,578.613,0
1553633579.070,2.441,13.184,-276.855,4.395,578.125,0
1553633579.074,2.930,393.066,49.805,13.672,516.113,0
1553633579.078,-0.488,617.676,307.129,18.066,434.082,0
1553633579.081,2.441,290.039,-25.391,6.836,399.902,0
1553633579.085,0.977,242.676,-103.516,-1.465,413.574,0
1553633579.089,1.953,435.059,93.262,7.324,357.910,0
1553633579.093,2.930,319.824,-10.254,10.742,291.504,0
1553633579.097,1.465,213.867,-114.746,14.160,350.586,0
1553633579.101,2.441,261.719,-63.477,16.602,352.539,0
1553633579.105,3.906,113.770,-188.477,15.137,290.527,0
1553633579.109,5.859,2.930,-324.219,19.531,394.043,0
1553633579.113,2.930,-479.492,-669.434,12.695,139.160,0
1553633579.117,2.441,-1000.000,-1000.000,6.348,-703.613,0
1553633579.121,-3.906,-959.961,-960.938,4.883,-1000.000,0
1553633579.124,-1.465,-911.621,-924.805,5.371,-894.531,0
1553633579.128,11.719,-1000.000,-1000.000,11.719,-1000.000,0
1553633579.132,3.418,-437.988,-547.363,6.836,-394.043,0
1553633579.136,4.395,736.816,465.820,12.695,556.641,0
1553633579.140,-3.906,737.793,505.859,10.254,520.996,0
1553633579.144,-10.742,598.633,356.934,2.441,551.270,0
1553633579.148,6.348,737.793,472.168,11.230,523.926,0
1553633579.152,0.488,643.066,376.465,11.230,500.977,0
1553633579.156,-2.930,303.223,48.828,4.395,594.727,0
1553633579.160,-2.441,61.035,-223.145,4.883,611.328,0
1553633579.164,-5.371,453.613,129.883,14.160,515.137,0
1553633579.167,-7.812,641.113,345.703,11.230,397.461,0
1553633579.171,4.883,447.754,152.832,10.254,426.270,0
1553633579.175,12.207,397.461,82.520,14.648,431.152,0
1553633579.179,8.301,541.016,223.145,17.578,409.668,0
1553633579.183,9.277,498.535,192.871,22.461,377.441,0
1553633579.187,0.977,192.383,-145.508,16.602,296.387,0
1553633579.191,-17.578,249.023,-105.469,9.766,385.254,0
1553633579.195,-20.996,256.836,-73.242,5.371,294.434,0
1553633579.199,-8.301,115.723,-260.742,16.602,395.508,0
1553633579.203,-6.836,-458.496,-676.758,12.207,79.102,0
1553633579.206,-6.836,-1000.000,-1000.000,-0.488,-871.094,0
1553633579.210,-8.301,-906.250,-917.969,5.859,-951.660,0
1553633579.214,-1.953,-1000.000,-1000.000,14.648,-1000.000,0
1553633579.218,0.000,-592.285,-680.176,10.742,-518.066,0
1553633579.222,-0.977,647.461,373.047,10.254,593.750,0
1553633579.226,3.418,-998.535,719.238,16.113,581.055,0
1553633579.230,1.953,764.160,483.887,16.113,520.996,0
1553633579.234,-2.930,811.035,517.578,21.484,684.570,0
1553633579.238,-3.906,851.074,539.551,24.414,592.285,0
1553633579.242,3.906,751.465,418.945,23.438,497.070,0
1553633579.246,0.977,327.637,1.953,16.113,537.598,0
1553633579.249,-2.930,-44.922,-417.480,14.160,612.305,0
1553633579.253,6.348,366.211,-50.293,25.879,534.180,0
1553633579.257,0.000,637.207,255.859,20.508,474.609,0
1553633579.261,-4.883,446.777,70.801,12.207,497.559,0
1553633579.265,4.883,372.070,-34.668,12.207,440.918,0
1553633579.269,9.277,551.758,139.160,9.277,425.293,0
1553633579.273,14.160,518.555,114.258,16.113,397.461,0
1553633579.277,6.836,341.309,-69.824,20.996,384.766,0
1553633579.281,-1.465,273.438,-165.039,20.996,353.027,0
1553633579.285,7.812,390.137,-54.199,28.320,357.910,0
1553633579.289,12.695,366.699,-62.012,30.273,333.496,0
1553633579.292,13.184,38.086,-399.414,24.414,325.195,0
1553633579.296,9.277,17.578,-444.336,28.809,398.438,0
1553633579.300,13.672,207.031,-247.070,29.297,264.648,0
1553633579.304,20.508,274.414,-202.637,23.926,322.754,0
1553633579.308,16.602,-391.602,-659.180,17.090,118.652,0
1553633579.312,12.207,-1000.000,-1000.000,25.391,-723.633,0
1553633579.316,8.789,-905.273,-918.945,26.855,-956.543,0
1553633579.320,8.789,-1000.000,-1000.000,12.695,-1000.000,0
1553633579.324,6.836,-655.273,-759.766,10.254,-587.402,0
1553633579.328,1.465,505.371,150.391,12.207,468.262,0
1553633579.331,-1.465,943.359,577.148,11.719,555.176,0
1553633579.335,-3.906,618.164,260.742,13.672,404.785,0
1553633579.339,-0.977,389.160,-0.488,12.695,508.301,0
1553633579.343,5.859,322.754,-88.379,13.184,521.484,0
1553633579.347,7.324,510.254,75.195,11.719,448.730,0
1553633579.351,7.324,312.012,-94.238,15.137,428.711,0
1553633579.355,5.371,-20.508,-445.312,16.113,514.160,0
1553633579.359,-0.488,442.871,-15.137,20.508,454.590,0
1553633579.363,1.465,614.258,187.012,20.508,349.609,0
1553633579.367,4.395,468.262,39.551,20.020,394.531,0
1553633579.371,3.906,402.344,-56.152,16.602,353.516,0
1553633579.374,13.184,526.367,55.664,18.555,335.938,0
1553633579.378,8.789,418.945,-40.527,22.949,366.211,0
1553633579.382,5.371,220.703,-255.371,17.578,345.703,0
1553633579.386,15.137,182.129,-312.500,21.973,354.492,0
1553633579.390,9.277,92.285,-394.531,18.555,319.336,0
1553633579.394,2.441,195.801,-346.680,12.207,373.047,0
1553633579.398,1.953,-391.602,-684.570,10.254,-119.629,0
1553633579.402,4.395,-1000.000,-1000.000,11.230,-960.938,0
1553633579.406,-1.465,-917.480,-933.105,16.602,-946.777,0
1553633579.410,5.859,-970.215,-966.797,18.066,-971.680,0
1553633579.414,13.672,-931.152,-963.867,22.461,-895.996,0
1553633579.417,8.789,209.473,-102.539,22.461,168.457,0
1553633579.421,13.672,-972.656,576.660,23.438,631.348,0
1553633579.425,6.348,812.500,371.094,12.207,493.652,0
1553633579.429,-3.906,798.340,324.219,12.695,574.219,0
1553633579.433,2.930,663.574,169.922,12.695,550.781,0
1553633579.437,12.207,521.484,5.859,11.230,576.660,0
1553633579.441,19.043,270.996,-235.352,17.090,568.848,0
1553633579.445,11.719,20.508,-516.113,8.301,535.645,0
1553633579.449,-2.441,463.379,-109.863,3.906,479.492,0
1553633579.453,-7.812,677.246,138.184,1.465,406.250,0
1553633579.456,-8.301,455.566,-79.102,0.488,407.227,0
1553633579.460,2.441,396.484,-155.273,7.324,395.020,0
1553633579.464,6.836,534.180,-13.184,13.184,357.422,0
1553633579.468,-0.488,546.875,24.902,9.766,385.742,0
1553633579.472,-0.488,445.312,-61.523,5.371,416.504,0
1553633579.476,-2.930,347.656,-174.805,3.418,330.078,0
1553633579.480,-3.906,156.738,-351.562,3.418,262.207,0
1553633579.484,-0.977,135.254,-452.148,7.812,442.871,0
1553633579.488,4.883,-466.309,-774.414,5.371,70.801,0
1553633579.492,5.371,-667.969,-824.219,7.812,-312.500,0
1553633579.496,-3.418,327.637,-182.129,5.371,254.395,0
1553633579.499,1.465,309.570,-208.984,0.977,351.562,0
1553633579.503,8.301,160.645,-353.516,12.695,299.316,0
1553633579.507,6.348,462.891,-76.172,18.555,301.270,0
1553633579.511,14.648,481.445,-48.340,23.438,222.656,0
1553633579.515,20.020,250.000,-276.367,24.902,222.168,0
1553633579.519,15.625,189.453,-357.910,16.113,252.930,0
1553633579.523,13.672,274.902,-270.020,20.020,191.406,0
1553633579.527,13.184,188.965,-362.305,18.555,229.492,0
1553633579.531,11.230,-122.070,-635.742,6.348,336.914,0
1553633579.535,4.883,-818.848,-968.262,7.324,-388.184,0
1553633579.539,6.836,-1000.000,-977.539,13.184,-1000.000,0
1553633579.542,11.230,-889.160,-919.434,16.602,-894.531,0
1553633579.546,7.324,-1000.000,-1000.000,15.625,-1000.000,0
1553633579.550,-4.395,-497.070,-637.695,12.695,-447.266,0
1553633579.554,-8.301,759.277,342.285,10.254,604.004,0
1553633579.558,-12.207,926.270,501.465,1.953,607.422,0
1553633579.562,-7.812,794.922,368.652,13.184,593.750,0
1553633579.566,3.418,855.957,400.391,9.277,571.777,0
1553633579.570,4.395,851.562,389.648,8.789,519.531,0
1553633579.574,6.348,636.230,176.758,22.461,538.574,0
1553633579.578,8.789,65.430,-416.992,13.184,592.773,0
1553633579.581,-0.488,60.547,-481.445,6.836,550.293,0
1553633579.585,-5.371,585.449,29.297,10.742,443.359,0
1553633579.589,8.789,533.691,22.461,18.066,436.523,0
1553633579.593,3.906,350.098,-171.387,16.113,455.566,0
1553633579.597,1.465,505.859,-42.969,14.160,448.242,0
1553633579.601,10.742,541.016,2.441,16.602,361.816,0
1553633579.605,8.301,351.562,-171.875,17.090,382.324,0
1553633579.609,6.836,301.758,-233.887,6.348,422.363,0
1553633579.613,6.836,390.137,-132.324,6.348,355.469,0
1553633579.617,5.859,309.082,-228.516,10.742,392.578,0
1553633579.621,11.719,-129.395,-632.324,10.254,396.484,0
1553633579.624,-5.371,-862.305,-993.652,6.836,-321.289,0
1553633579.628,2.930,-647.949,-895.508,28.809,-419.434,0
1553633579.632,27.832,221.191,-345.215,41.016,299.805,0
1553633579.636,8.789,165.039,-382.812,13.672,336.426,0
1553633579.640,-9.766,43.945,-535.156,-7.812,299.805,0
1553633579.644,-11.230,375.000,-201.172,-1.953,294.434,0
1553633579.648,-0.977,397.949,-132.812,9.766,265.137,0
1553633579.652,4.395,259.277,-258.789,1.953,285.645,0
1553633579.656,8.789,248.047,-273.438,6.348,293.457,0
1553633579.660,9.766,327.637,-188.477,4.883,248.047,0
1553633579.664,12.695,277.832,-228.516,-7.812,221.680,0
1553633579.667,12.207,-20.996,-520.996,-1.953,253.906,0
1553633579.671,6.348,-72.266,-590.820,3.906,282.227,0
1553633579.675,3.418,12.207,-503.906,1.953,183.594,0
1553633579.679,6.836,-182.129,-731.934,0.488,249.512,0
1553633579.683,21.973,-682.129,-936.035,2.441,-311.523,0
1553633579.687,19.043,-1000.000,-977.539,6.836,-1000.000,0
1553633579.691,12.695,-911.133,-937.012,8.789,-911.621,0
1553633579.695,18.066,-1000.000,-1000.000,8.301,-1000.000,0
1553633579.699,20.508,-729.980,-822.754,12.207,-673.340,0
1553633579.703,19.043,411.621,28.809,16.113,395.020,0
1553633579.706,10.742,972.656,531.738,12.207,611.328,0
1553633579.710,13.672,802.246,388.184,13.672,540.039,0
1553633579.714,11.719,582.520,140.625,8.789,621.094,0
1553633579.718,12.207,423.340,-61.035,4.395,606.445,0
1553633579.722,13.184,584.473,67.383,8.301,529.785,0
1553633579.726,14.648,361.816,-128.906,10.742,511.230,0
1553633579.730,17.090,24.902,-491.699,10.254,577.637,0
1553633579.734,18.555,306.152,-246.582,8.301,500.000,0
1553633579.738,15.137,339.844,-191.406,11.719,433.594,0
1553633579.742,7.812,332.520,-210.449,13.184,455.078,0
1553633579.746,9.766,407.715,-140.137,10.254,438.477,0
1553633579.749,15.625,508.789,-40.039,8.789,391.602,0
1553633579.753,11.230,456.543,-85.938,6.348,379.395,0
1553633579.757,6.348,286.621,-262.695,17.090,375.000,0
1553633579.761,5.371,65.918,-494.629,25.391,369.141,0
1553633579.765,5.371,-62.988,-649.902,20.996,286.621,0
1553633579.769,7.812,15.137,-577.637,9.766,272.949,0
1553633579.773,7.812,27.344,-546.875,14.648,352.051,0
1553633579.777,13.672,168.457,-406.250,21.973,309.570,0
1553633579.781,21.973,295.898,-265.625,17.090,201.660,0
1553633579.785,15.137,104.492,-489.258,14.160,280.273,0
1553633579.789,13.672,-636.230,-904.297,8.301,-287.598,0
1553633579.792,15.137,-1000.000,-991.211,13.672,-1000.000,0
1553633579.796,8.301,-903.809,-930.176,14.160,-909.668,0
1553633579.800,10.254,-1000.000,-1000.000,11.719,-1000.000,0
1553633579.804,3.418,-718.750,-820.801,13.672,-659.668,0
1553633579.808,-6.348,244.629,-169.922,12.207,490.234,0
1553633579.812,-1.465,737.305,237.793,8.789,710.449,0
1553633579.816,4.395,450.684,-23.926,7.812,543.457,0
1553633579.820,8.301,173.340,-339.355,13.672,628.906,0
1553633579.824,9.277,527.832,-20.020,16.602,568.359,0
1553633579.828,20.508,633.301,113.281,22.461,501.953,0
1553633579.831,18.066,461.914,-70.312,21.484,497.070,0
1553633579.835,0.488,444.336,-111.816,-0.488,468.750,0
1553633579.839,-6.836,536.133,-24.902,-0.488,413.086,0
1553633579.843,-6.836,494.141,-58.105,2.441,410.156,0
1553633579.847,0.000,326.660,-227.539,4.395,417.480,0
1553633579.851,-1.953,299.805,-278.809,5.371,390.625,0
1553633579.855,0.977,259.277,-294.922,-0.488,395.996,0
1553633579.859,5.859,34.668,-569.824,5.859,479.004,0
1553633579.863,7.812,-547.363,-878.418,14.648,-88.867,0
1553633579.867,0.977,-1000.000,-978.027,20.020,-969.238,0
1553633579.871,-2.441,-936.035,-961.426,14.648,-964.355,0
1553633579.874,4.883,-178.711,-496.094,19.043,48.340,0
1553633579.878,3.906,524.902,18.066,20.508,667.969,0
1553633579.882,6.836,683.105,187.012,19.531,492.188,0
1553633579.886,14.160,718.262,210.449,21.484,477.539,0
1553633579.890,15.625,457.520,-56.641,20.508,465.332,0
1553633579.894,10.254,349.609,-189.941,18.555,486.328,0
1553633579.898,1.465,439.453,-90.332,20.020,419.922,0
1553633579.902,2.930,328.613,-208.984,24.414,446.777,0
1553633579.906,4.395,-25.391,-556.641,14.648,537.598,0
1553633579.910,4.395,-761.230,-959.961,13.184,-130.371,0
1553633579.914,11.719,-468.262,-789.062,26.367,-87.402,0
1553633579.917,16.113,293.945,-294.922,26.367,461.426,0
1553633579.921,13.184,318.359,-204.590,20.996,409.668,0
1553633579.925,9.277,286.133,-263.184,17.090,394.043,0
1553633579.929,12.695,360.840,-208.496,16.602,308.105,0
1553633579.933,12.207,324.707,-251.465,18.555,310.059,0
1553633579.937,2.930,204.590,-380.859,18.555,354.004,0
1553633579.941,-7.324,239.258,-354.980,18.066,360.352,0
1553633579.945,0.488,273.926,-293.945,21.973,260.742,0
1553633579.949,11.719,65.430,-537.598,30.273,384.277,0
1553633579.953,11.719,-587.891,-892.090,23.926,-176.758,0
1553633579.956,0.977,-1000.000,-983.398,18.066,-1000.000,0
1553633579.960,0.488,-940.918,-955.078,20.508,-951.660,0
1553633579.964,12.207,-934.570,-947.266,16.113,-920.410,0
1553633579.968,12.695,-1000.000,-1000.000,13.672,-1000.000,0
1553633579.972,12.695,-267.090,-518.555,17.578,-74.219,0
1553633579.976,4.883,837.402,331.543,27.832,826.660,0
1553633579.980,14.160,812.012,350.586,31.738,618.164,0
1553633579.984,31.250,693.848,212.402,38.574,644.043,0
1553633579.988,14.648,812.012,306.641,21.484,643.066,0
1553633579.992,-12.207,791.504,273.438,4.395,579.590,0
1553633579.996,5.371,341.309,-166.992,17.578,586.914,0
1553633579.999,16.602,-100.586,-667.480,14.160,625.977,0
1553633580.003,4.883,333.496,-291.504,12.695,606.934,0
1553633580.007,-2.441,558.105,-30.762,19.531,495.117,0
1553633580.011,10.254,340.332,-243.164,20.020,501.953,0
1553633580.015,22.461,362.305,-229.980,20.020,541.016,0
1553633580.019,7.812,497.070,-93.262,14.160,477.051,0
1553633580.023,-1.465,442.871,-136.230,6.348,436.035,0
1553633580.027,3.906,277.832,-302.246,9.766,416.016,0
1553633580.031,8.301,112.305,-471.191,16.602,417.969,0
1553633580.035,2.441,58.594,-513.672,9.277,387.695,0
1553633580.039,2.930,108.398,-513.184,12.207,395.996,0
1553633580.042,8.789,-459.961,-844.727,20.508,71.289,0
1553633580.046,10.742,-562.012,-872.070,18.066,-15.137,0
1553633580.050,11.719,127.441,-423.828,24.414,294.922,0
1553633580.054,10.254,176.270,-405.273,25.879,375.000,0
1553633580.058,20.020,-539.062,-831.055,19.531,-198.730,0
1553633580.062,24.414,-1000.000,-997.559,27.832,-993.164,0
1553633580.066,11.230,-947.266,-955.566,29.785,-967.285,0
1553633580.070,1.465,-915.527,-933.105,20.508,-900.391,0
1553633580.074,-2.441,-1000.000,-1000.000,14.648,-1000.000,0
1553633580.078,-4.395,-392.578,-575.195,16.113,-307.617,0
1553633580.081,-0.977,775.391,319.824,24.414,684.082,0
1553633580.085,0.000,691.406,256.348,20.020,581.055,0
1553633580.089,1.953,439.941,-2.930,19.531,621.094,0
1553633580.093,0.000,347.168,-129.883,24.414,636.230,0
1553633580.097,-3.418,466.309,-31.738,17.578,621.582,0
1553633580.101,0.977,310.547,-162.598,16.113,606.445,0
1553633580.105,-4.395,-18.066,-512.207,11.230,614.746,0
1553633580.109,-7.812,303.711,-242.676,5.859,498.535,0
1553633580.113,-5.859,493.652,-20.996,14.648,438.477,0
1553633580.117,-2.930,376.953,-120.605,13.184,487.305,0
1553633580.121,5.371,276.855,-237.793,17.090,415.527,0
1553633580.124,-4.883,365.723,-152.832,11.230,385.742,0
1553633580.128,-10.254,391.602,-111.328,5.859,431.152,0
1553633580.132,-3.418,264.648,-234.863,6.836,428.711,0
1553633580.136,-5.371,56.641,-460.449,0.488,434.570,0
1553633580.140,-2.441,-23.438,-561.523,4.883,382.812,0
1553633580.144,1.465,204.102,-386.230,12.207,428.223,0
1553633580.148,4.883,-391.113,-711.426,0.000,166.016,0
1553633580.152,-2.441,-1000.000,-1000.000,-4.883,-694.336,0
1553633580.156,-1.953,-913.086,-929.688,0.488,-965.820,0
1553633580.160,1.953,-996.094,-986.816,3.418,-999.512,0
1553633580.164,-5.371,-832.031,-897.949,2.930,-753.418,0
1553633580.167,-9.766,198.242,-183.105,3.906,314.941,0
1553633580.171,-7.324,724.121,236.816,4.395,584.961,0
1553633580.175,-10.254,517.090,53.223,1.953,489.258,0
1553633580.179,-9.277,490.723,9.766,4.395,552.246,0
1553633580.183,1.465,279.297,-199.219,0.488,475.098,0
1553633580.187,0.977,310.059,-197.266,-2.930,544.922,0
1553633580.191,9.766,150.879,-338.379,6.836,515.625,0
1553633580.195,6.348,-552.734,-887.695,8.789,245.117,0
1553633580.199,-11.230,-133.789,-559.570,3.418,280.762,0
1553633580.203,-3.418,351.074,-181.152,3.418,392.090,0
1553633580.206,-0.488,216.309,-272.949,-1.465,395.020,0
1553633580.210,-7.324,114.746,-388.672,0.000,452.148,0
1553633580.214,0.977,172.852,-346.191,8.789,343.750,0
1553633580.218,5.859,217.773,-295.410,5.371,292.480,0
1553633580.222,8.301,128.418,-374.023,8.789,337.402,0
1553633580.226,10.254,116.699,-393.066,14.160,296.875,0
1553633580.230,15.625,-24.902,-513.184,20.020,256.348,0
1553633580.234,11.719,-95.703,-644.531,17.578,398.926,0
1553633580.238,0.000,-509.766,-806.641,5.371,-110.352,0
1553633580.242,5.859,-987.305,-978.027,8.301,-924.316,0
1553633580.246,0.977,-982.910,-969.238,13.184,-1000.000,0
1553633580.249,-0.977,-786.133,-888.184,15.137,-583.496,0
1553633580.253,8.301,127.441,-276.367,19.043,464.844,0
1553633580.257,6.836,659.180,179.199,22.949,574.219,0
1553633580.261,9.766,687.988,229.492,24.414,461.914,0
1553633580.265,17.578,611.328,151.367,29.785,569.824,0
1553633580.269,18.555,376.953,-108.398,20.508,574.707,0
1553633580.273,20.996,368.164,-141.602,18.066,507.812,0
1553633580.277,14.648,299.316,-210.938,25.391,427.734,0
1553633580.281,12.207,0.488,-555.664,19.043,583.984,0
1553633580.285,12.207,-771.973,-968.750,16.113,-82.520,0
1553633580.289,10.254,-784.180,-873.047,18.066,-522.461,0
1553633580.292,12.207,145.508,-330.078,23.926,284.668,0
1553633580.296,8.301,340.332,-184.082,26.367,492.676,0
1553633580.300,6.836,316.406,-191.406,20.996,432.617,0
1553633580.304,8.789,424.805,-98.633,22.461,395.996,0
1553633580.308,2.930,364.258,-157.227,17.090,380.859,0
1553633580.312,8.301,204.102,-327.637,13.672,389.648,0
1553633580.316,7.324,148.926,-406.738,16.113,346.680,0
1553633580.320,-4.395,211.914,-332.031,12.207,297.363,0
1553633580.324,-6.348,19.043,-569.336,9.766,399.414,0
1553633580.328,-1.953,-622.559,-924.316,8.301,-93.262,0
1553633580.331,-0.488,-1000.000,-977.051,3.906,-905.273,0
1553633580.335,5.371,-945.801,-958.984,17.090,-968.262,0
1553633580.339,32.715,-930.176,-943.359,41.504,-916.016,0
1553633580.343,30.273,-1000.000,-1000.000,28.320,-1000.000,0
1553633580.347,-3.418,-298.828,-537.109,3.906,-199.219,0
1553633580.351,-5.859,746.582,263.672,14.648,687.988,0
1553633580.355,9.277,642.578,211.426,28.809,573.730,0
1553633580.359,21.484,505.371,53.223,41.504,581.055,0
1553633580.363,25.879,600.586,124.023,53.223,555.664,0
1553633580.367,27.832,584.961,104.004,53.223,498.535,0
1553633580.371,46.387,253.906,-206.055,73.242,601.562,0
1553633580.374,48.828,-379.395,-797.363,77.637,451.660,0
1553633580.378,58.105,-145.020,-630.859,88.379,333.008,0
1553633580.382,67.383,386.230,-137.207,89.844,466.309,0
1553633580.386,72.754,225.586,-252.930,93.750,477.539,0
1553633580.390,76.172,75.684,-418.945,107.910,481.445,0
1553633580.394,88.379,224.609,-287.109,116.699,379.395,0
1553633580.398,96.680,195.312,-306.641,122.559,302.246,0
1553633580.402,93.262,86.914,-411.133,123.047,361.328,0
1553633580.406,104.004,55.664,-446.777,131.836,344.727,0
1553633580.410,107.422,123.535,-366.211,141.602,302.246,0
1553633580.414,104.980,109.863,-366.699,145.508,288.086,0
1553633580.417,100.098,-188.965,-709.473,125.000,296.387,0
1553633580.421,113.281,-680.176,-978.516,123.047,-55.176,0
1553633580.425,107.910,-860.352,-962.891,123.535,-359.863,0
1553633580.429,85.449,-866.211,-966.797,111.328,-388.184,0
1553633580.433,89.844,-963.379,-969.727,109.375,-771.973,0
1553633580.437,84.473,-944.824,-950.684,104.980,-950.684,0
1553633580.441,84.473,-1000.000,-1000.000,110.352,-1000.000,0
1553633580.445,90.332,-503.906,-663.086,105.469,-264.160,0
1553633580.449,66.895,388.184,-3.418,89.355,767.090,0
1553633580.453,62.500,703.613,311.035,84.961,635.254,0
1553633580.456,66.406,684.570,298.828,86.426,531.250,0
1553633580.460,58.105,427.734,36.621,79.590,586.426,0
1553633580.464,55.664,315.918,-93.750,70.312,672.852,0
1553633580.468,53.223,175.781,-256.836,72.266,553.711,0
1553633580.472,59.082,238.281,-228.027,76.172,441.406,0
1553633580.476,58.105,167.969,-293.457,68.359,594.727,0
1553633580.480,54.688,-714.355,-926.270,63.965,27.832,0
1553633580.484,57.617,-395.508,-666.504,66.895,-23.926,0
1553633580.488,52.246,284.180,-198.242,65.430,476.562,0
1553633580.492,49.805,100.586,-340.820,62.012,397.461,0
1553633580.496,43.945,73.242,-389.648,62.988,386.230,0
1553633580.499,44.922,194.336,-273.926,67.383,349.609,0
1553633580.503,51.758,162.109,-295.410,55.664,353.027,0
1553633580.507,44.434,40.527,-408.203,54.199,408.203,0
1553633580.511,41.992,-159.180,-615.234,54.199,402.832,0
1553633580.515,39.551,-245.117,-716.309,51.758,284.180,0
1553633580.519,37.109,14.648,-493.164,48.340,437.012,0
1553633580.523,35.156,-479.980,-742.676,35.156,-76.660,0
1553633580.527,27.832,-1000.000,-1000.000,36.133,-970.215,0
1553633580.531,35.156,-908.691,-924.316,38.574,-933.594,0
1553633580.535,34.668,-1000.000,-1000.000,35.645,-1000.000,0
1553633580.539,33.691,-416.504,-578.613,36.621,-309.082,0
1553633580.542,31.738,555.176,164.551,34.668,656.250,0
1553633580.546,24.414,688.965,324.219,39.062,595.215,0
1553633580.550,27.832,519.531,166.504,46.387,592.773,0
1553633580.554,29.785,392.578,25.391,42.480,583.008,0
1553633580.558,23.438,220.215,-153.320,31.738,569.336,0
1553633580.562,19.531,207.520,-186.035,24.414,576.660,0
1553633580.566,19.043,84.961,-279.785,24.902,583.496,0
1553633580.570,18.555,-312.988,-695.801,29.297,577.637,0
1553633580.574,26.855,79.102,-342.773,36.621,512.695,0
1553633580.578,35.156,364.746,-10.742,40.527,454.590,0
1553633580.581,26.855,126.465,-245.605,39.062,433.594,0
1553633580.585,19.531,-3.906,-404.297,43.945,388.184,0
1553633580.589,14.648,172.363,-226.074,36.621,386.719,0
1553633580.593,19.531,157.227,-225.586,26.855,368.652,0
1553633580.597,22.461,-82.520,-480.957,30.273,326.172,0
1553633580.601,19.043,-33.691,-437.988,25.391,362.305,0
1553633580.605,15.625,-80.078,-460.938,24.902,350.586,0
1553633580.609,11.719,-294.922,-723.633,33.203,439.941,0
1553633580.613,11.230,-706.055,-908.691,27.832,-221.680,0
1553633580.617,8.301,-1000.000,-983.398,20.996,-1000.000,0
1553633580.621,3.906,-912.109,-931.641,23.926,-905.762,0
1553633580.624,0.488,-1000.000,-1000.000,26.855,-1000.000,0
1553633580.628,2.441,-672.852,-759.766,21.484,-566.406,0
1553633580.632,-0.977,388.672,92.285,23.438,547.363,0
1553633580.636,0.488,798.340,489.258,17.578,681.152,0
1553633580.640,15.625,532.227,241.699,18.555,580.078,0
1553633580.644,14.648,353.516,24.902,25.879,583.984,0
1553633580.648,8.301,405.762,65.430,25.879,520.996,0
1553633580.652,8.301,247.070,-95.215,26.367,516.113,0
1553633580.656,3.418,-95.215,-453.613,15.137,592.285,0
1553633580.660,1.953,-511.230,-828.613,13.184,449.219,0
1553633580.664,34.668,-118.164,-470.215,51.758,401.855,0
1553633580.667,42.480,300.293,-75.195,46.875,445.312,0
1553633580.671,-20.996,110.840,-259.766,-12.695,448.730,0
1553633580.675,-47.363,172.852,-222.656,-33.691,491.211,0
1553633580.679,-57.129,279.297,-103.516,-50.293,394.531,0
1553633580.683,-89.355,229.980,-128.906,-85.938,400.391,0
1553633580.687,-104.492,-4.883,-363.770,-104.980,375.977,0
1553633580.691,-115.723,-1.465,-377.441,-122.070,372.559,0
1553633580.695,-139.160,154.297,-189.941,-153.809,334.473,0
1553633580.699,-162.109,-93.262,-467.773,-168.457,423.828,0
1553633580.703,-165.039,-646.973,-863.770,-174.805,-105.469,0
1553633580.706,-178.711,-967.285,-960.449,-185.547,-948.730,0
1553633580.710,-182.129,-999.512,-986.328,-182.617,-1000.000,0
1553633580.714,-172.363,-593.750,-734.863,-175.293,-333.008,0
1553633580.718,-159.668,140.137,-178.223,-164.062,585.449,0
1553633580.722,-152.344,376.953,64.453,-157.227,496.582,0
1553633580.726,-126.465,395.020,85.938,-130.859,410.156,0
1553633580.730,-101.562,296.875,-0.488,-102.051,479.980,0
1553633580.734,-98.145,219.727,-83.008,-84.473,492.188,0
1553633580.738,-88.867,252.441,-66.895,-82.031,416.016,0
1553633580.742,-75.684,263.184,-56.152,-74.219,352.051,0
1553633580.746,-68.848,-94.727,-414.062,-61.035,454.590,0
1553633580.749,-60.547,-820.801,-948.242,-62.012,-100.586,0
1553633580.753,-47.363,-990.234,-973.145,-49.316,-926.270,0
1553633580.757,-45.898,-910.156,-924.805,-39.062,-933.594,0
1553633580.761,-43.945,-1000.000,-1000.000,-42.969,-1000.000,0
1553633580.765,-40.527,-396.973,-536.621,-39.062,-281.250,0
1553633580.769,-40.039,605.469,308.594,-36.133,662.109,0
1553633580.773,-37.598,664.551,394.043,-42.480,543.457,0
1553633580.777,-34.180,480.469,195.801,-31.250,534.668,0
1553633580.781,-35.156,420.898,110.352,-23.926,538.574,0
1553633580.785,-33.691,425.781,95.703,-19.531,477.051,0
1553633580.789,-31.250,422.363,96.680,-16.602,494.629,0
1553633580.792,-26.855,131.348,-194.336,-18.066,512.207,0
1553633580.796,-22.949,60.547,-297.363,-16.113,554.199,0
1553633580.800,-27.832,249.023,-108.398,-21.973,428.711,0
1553633580.804,-23.438,91.797,-300.781,-21.484,495.605,0
1553633580.808,-14.648,-562.500,-782.227,-20.020,49.805,0
1553633580.812,-17.578,-1000.000,-995.117,-18.066,-920.898,0
1553633580.816,-15.137,-915.039,-928.223,-6.348,-948.730,0
1553633580.820,-8.789,-1000.000,-998.047,-3.906,-979.980,0
1553633580.824,-11.719,-769.531,-835.938,-6.836,-664.551,0
1553633580.828,-8.301,269.043,-11.719,-0.977,422.363,0
1553633580.831,-22.461,759.766,441.406,0.977,647.949,0
1553633580.835,-21.973,541.992,246.582,-7.812,550.293,0
1553633580.839,-6.836,340.820,22.949,-9.277,662.109,0
1553633580.843,-11.230,226.562,-117.188,-8.301,634.766,0
1553633580.847,-13.672,361.816,1.465,-6.836,585.938,0
1553633580.851,-10.254,178.711,-160.645,-9.277,541.504,0
1553633580.855,-1.953,-390.137,-741.699,-18.555,434.082,0
1553633580.859,-1.465,32.227,-373.535,-6.348,424.805,0
1553633580.863,-11.719,323.242,-50.781,-6.836,489.258,0
1553633580.867,-0.977,93.750,-282.227,0.488,475.098,0
1553633580.871,14.648,190.430,-210.449,18.066,437.500,0
1553633580.874,19.531,313.965,-73.730,17.090,375.977,0
1553633580.878,-1.465,254.883,-129.395,-0.977,355.469,0
1553633580.882,-14.648,103.027,-293.945,-13.184,372.559,0
1553633580.886,2.441,-126.465,-539.062,9.766,367.188,0
1553633580.890,8.301,-255.859,-689.941,20.508,259.766,0
1553633580.894,17.090,-60.059,-548.828,18.066,361.816,0
1553633580.898,18.066,-493.164,-748.047,10.742,-34.668,0
1553633580.902,13.184,-1000.000,-1000.000,0.488,-938.965,0
1553633580.906,15.137,-914.062,-931.152,10.254,-942.383,0
1553633580.910,10.742,-1000.000,-1000.000,14.160,-1000.000,0
1553633580.914,6.348,-721.680,-814.941,12.695,-622.559,0
1553633580.917,3.418,359.375,16.113,12.207,466.309,0
1553633580.921,5.859,754.883,391.602,13.672,688.965,0
1553633580.925,3.418,500.488,148.438,15.137,599.609,0
1553633580.929,0.488,467.773,74.219,3.418,568.359,0
1553633580.933,4.883,354.492,-39.551,6.836,582.031,0
1553633580.937,2.930,392.578,-5.371,20.508,624.512,0
1553633580.941,2.930,233.398,-140.137,20.020,574.219,0
1553633580.945,7.812,-160.645,-555.176,12.207,567.383,0
1553633580.949,8.301,178.711,-260.254,11.719,488.770,0
1553633580.953,11.230,413.086,11.719,12.695,421.875,0
1553633580.956,9.277,223.145,-165.527,16.602,436.035,0
1553633580.960,8.789,143.066,-258.789,18.555,406.250,0
1553633580.964,13.184,333.496,-65.430,12.695,406.250,0
1553633580.968,11.230,278.809,-114.258,20.996,368.652,0
1553633580.972,12.695,125.977,-284.180,20.508,393.066,0
1553633580.976,6.836,110.840,-320.801,12.695,358.887,0
1553633580.980,11.719,-129.883,-569.824,16.602,228.516,0
1553633580.984,14.648,-304.688,-810.547,16.113,386.719,0
1553633580.988,11.230,-670.898,-919.922,12.207,-202.637,0
1553633580.992,1.953,-978.027,-962.402,12.207,-963.867,0
1553633580.996,5.859,-982.910,-973.633,19.531,-1000.000,0
1553633580.999,17.090,-780.273,-879.395,23.926,-552.246,0
1553633581.003,6.348,94.238,-257.812,21.484,495.117,0
1553633581.007,11.719,604.980,206.055,24.902,585.938,0
1553633581.011,11.719,631.836,250.488,21.484,468.262,0
1553633581.015,14.160,433.594,39.062,20.996,497.559,0
1553633581.019,17.578,302.734,-117.188,23.438,501.465,0
1553633581.023,10.742,426.270,-3.418,17.090,483.887,0
1553633581.027,7.324,296.875,-132.324,17.090,477.051,0
1553633581.031,6.348,9.277,-451.172,21.484,583.496,0
1553633581.035,8.789,-611.328,-931.152,15.625,227.539,0
1553633581.039,6.348,-373.047,-713.379,9.277,118.652,0
1553633581.042,3.906,240.723,-257.324,9.277,472.168,0
1553633581.046,0.000,87.402,-403.320,11.719,384.277,0
1553633581.050,-1.465,159.180,-343.750,8.301,366.699,0
1553633581.054,6.836,320.312,-175.781,12.695,345.215,0
1553633581.058,6.836,288.086,-196.289,15.625,324.707,0
1553633581.062,-3.906,106.934,-382.324,6.836,320.801,0
1553633581.066,-5.859,131.836,-370.117,10.254,339.844,0
1553633581.070,7.324,253.906,-209.473,20.996,287.598,0
1553633581.074,12.695,74.219,-413.574,18.066,418.457,0
1553633581.078,9.277,-582.520,-850.586,5.859,-156.250,0
1553633581.081,7.812,-1000.000,-992.188,6.348,-1000.000,0
1553633581.085,12.207,-909.180,-925.781,23.438,-916.504,0
1553633581.089,13.184,-1000.000,-1000.000,16.113,-1000.000,0
1553633581.093,1.465,-692.871,-795.410,6.348,-591.309,0
1553633581.097,-14.160,405.762,60.059,7.812,518.555,0
1553633581.101,1.953,662.109,293.945,16.602,649.902,0
1553633581.105,13.672,479.980,114.258,23.438,592.285,0
1553633581.109,2.441,565.430,173.340,17.090,645.996,0
1553633581.113,4.395,572.754,160.645,14.648,534.180,0
1553633581.117,2.930,604.004,191.895,18.066,511.719,0
1553633581.121,2.930,228.516,-159.180,17.578,567.871,0
1553633581.124,2.441,-82.031,-512.207,9.766,595.215,0
1553633581.128,6.348,282.715,-194.824,12.695,510.742,0
1553633581.132,15.137,411.621,-40.527,29.785,417.480,0
1553633581.136,9.277,35.156,-418.457,25.391,411.621,0
1553633581.140,10.254,-122.559,-615.723,20.508,407.227,0
1553633581.144,8.789,141.113,-366.699,18.066,347.656,0
1553633581.148,-1.953,159.180,-336.426,9.766,322.754,0
1553633581.152,-3.418,116.699,-368.652,18.066,395.508,0
1553633581.156,9.277,140.625,-343.750,12.695,386.719,0
1553633581.160,14.648,87.891,-395.020,11.719,340.820,0
1553633581.164,8.301,41.992,-431.152,25.879,329.590,0
1553633581.167,13.184,-127.930,-598.145,25.391,302.734,0
1553633581.171,14.648,-176.758,-666.016,19.531,333.496,0
1553633581.175,13.672,125.488,-350.586,15.625,306.152,0
1553633581.179,10.742,161.621,-343.262,14.648,373.047,0
1553633581.183,2.930,-553.223,-811.035,2.441,-224.609,0
1553633581.187,0.977,-1000.000,-1000.000,0.977,-1000.000,0
1553633581.191,2.441,-938.477,-948.242,17.578,-954.102,0
1553633581.195,0.977,-927.734,-940.430,18.066,-916.016,0
1553633581.199,5.371,-1000.000,-1000.000,16.602,-1000.000,0
1553633581.203,9.766,-283.203,-478.516,17.090,-190.918,0
1553633581.206,5.859,829.590,416.016,4.395,756.836,0
1553633581.210,3.906,729.492,357.422,5.371,642.090,0
1553633581.214,-4.395,451.660,64.941,14.648,673.828,0
1553633581.218,-11.230,415.039,9.766,6.348,712.891,0
1553633581.222,-6.836,459.961,41.504,8.301,667.969,0
1553633581.226,-2.930,224.121,-183.105,12.207,630.859,0
1553633581.230,0.488,-45.898,-467.773,9.277,647.461,0
1553633581.234,1.953,316.406,-142.578,12.695,554.199,0
1553633581.238,0.488,479.980,41.992,8.301,459.961,0
1553633581.242,0.000,359.863,-71.777,4.883,520.020,0
1553633581.246,-6.348,295.898,-150.879,10.742,468.262,0
1553633581.249,-3.418,393.066,-65.918,7.324,420.410,0
1553633581.253,-0.977,331.543,-128.906,13.672,403.809,0
1553633581.257,0.977,135.254,-334.961,9.277,390.137,0
1553633581.261,-0.977,-33.691,-516.602,-2.930,429.199,0
1553633581.265,-5.859,-90.332,-581.543,7.324,368.652,0
1553633581.269,-3.906,100.586,-436.035,15.625,390.137,0
1553633581.273,1.465,-431.152,-715.820,12.207,116.699,0
1553633581.277,7.812,-1000.000,-1000.000,16.602,-739.258,0
1553633581.281,13.184,-920.410,-934.570,29.297,-968.262,0
1553633581.285,3.906,-977.051,-972.656,17.578,-976.074,0
1553633581.289,0.977,-901.367,-937.988,12.695,-855.469,0
1553633581.292,-2.930,109.375,-201.660,11.230,218.262,0
1553633581.296,-2.441,882.324,463.379,8.789,699.707,0
1553633581.300,1.953,673.828,293.457,13.672,562.500,0
1553633581.304,-4.395,512.207,100.586,17.578,624.512,0
1553633581.308,-3.418,448.730,20.508,8.789,628.418,0
1553633581.312,13.184,415.039,-37.109,18.555,587.402,0
1553633581.316,9.277,258.301,-179.199,14.160,582.520,0
1553633581.320,-12.207,-100.586,-562.012,-6.836,580.078,0
1553633581.324,-16.602,239.258,-271.973,-1.953,501.465,0
1553633581.328,-0.488,473.145,-1.465,15.137,410.645,0
1553633581.331,2.930,248.047,-230.469,22.949,388.672,0
1553633581.335,-7.812,202.637,-297.852,11.230,398.438,0
1553633581.339,-12.207,290.039,-209.473,4.883,447.266,0
1553633581.343,-4.883,287.598,-204.102,8.301,418.945,0
1553633581.347,1.953,191.406,-299.805,8.301,353.027,0
1553633581.351,-3.906,250.488,-237.793,7.324,393.555,0
1553633581.355,3.418,97.168,-366.211,11.719,330.566,0
1553633581.359,0.488,12.207,-519.531,12.207,422.363,0
1553633581.363,-3.418,-457.520,-755.371,8.789,-36.133,0
1553633581.367,4.395,-1000.000,-1000.000,7.812,-921.875,0
1553633581.371,7.324,-922.852,-938.477,15.137,-952.637,0
1553633581.374,14.160,-982.422,-978.027,19.531,-980.957,0
1553633581.378,7.324,-882.324,-920.410,17.090,-839.355,0
1553633581.382,7.324,156.250,-149.902,19.531,222.168,0
1553633581.386,12.695,875.488,462.402,14.160,651.367,0
1553633581.390,7.324,699.707,323.242,15.137,550.293,0
1553633581.394,9.277,657.227,263.184,18.066,630.371,0
1553633581.398,18.066,594.238,182.129,13.672,578.125,0
1553633581.402,17.090,406.250,-21.973,20.508,550.781,0
1553633581.406,17.090,97.168,-325.195,16.113,548.340,0
1553633581.410,12.695,-189.941,-655.762,9.766,534.180,0
1553633581.414,7.324,266.602,-229.980,16.113,521.973,0
1553633581.417,4.395,568.848,117.188,15.137,450.684,0
1553633581.421,7.812,327.637,-123.535,11.719,419.434,0
1553633581.425,14.160,243.164,-230.957,8.789,406.250,0
1553633581.429,9.766,378.906,-87.402,16.602,358.887,0
1553633581.433,6.836,330.566,-113.770,19.043,320.312,0
1553633581.437,1.953,140.137,-304.199,9.766,333.984,0
1553633581.441,-3.418,154.785,-306.152,3.418,353.027,0
1553633581.445,-2.441,264.648,-163.086,16.113,278.809,0
1553633581.449,1.953,133.301,-323.242,17.090,411.621,0
1553633581.453,0.000,-491.211,-757.324,3.418,33.691,0
1553633581.456,4.883,-1000.000,-993.652,9.766,-901.855,0
1553633581.460,7.324,-911.621,-926.758,14.648,-947.266,0
1553633581.464,-0.977,-1000.000,-1000.000,8.301,-1000.000,0
1553633581.468,-2.930,-648.926,-751.953,2.441,-574.707,0
1553633581.472,1.465,481.445,110.840,7.812,523.438,0
1553633581.476,0.000,877.930,471.680,8.301,616.211,0
1553633581.480,6.348,712.402,323.242,5.859,557.617,0
1553633581.484,3.906,703.125,294.434,11.719,668.457,0
1553633581.488,5.371,654.297,219.727,13.672,518.066,0
1553633581.492,8.301,599.609,147.461,9.277,458.496,0
1553633581.496,-3.418,308.105,-118.652,3.418,581.055,0
1553633581.499,-8.789,-97.168,-568.848,2.930,614.746,0
1553633581.503,5.371,264.160,-276.855,5.859,545.898,0
1553633581.507,8.789,581.055,58.594,9.277,488.281,0
1553633581.511,-2.441,339.844,-187.500,6.836,442.871,0
1553633581.515,-3.906,86.914,-463.379,10.254,472.656,0
1553633581.519,-0.977,161.621,-411.621,14.160,439.941,0
1553633581.523,6.836,323.242,-249.512,14.160,377.441,0
1553633581.527,0.000,263.672,-293.945,18.555,375.000,0
1553633581.531,-1.465,207.031,-365.234,18.066,336.914,0
1553633581.535,6.836,395.020,-167.969,17.090,379.395,0
1553633581.539,6.348,404.785,-136.719,20.996,359.863,0
1553633581.542,9.766,69.824,-477.051,25.879,296.875,0
