timestamps,TP9,AF7,AF8,TP10,Right AUX,Marker0
1553807353.114,32.227,30.273,29.297,32.715,51.270,0
1553807353.118,21.973,39.062,25.879,40.527,30.762,0
1553807353.122,17.578,42.969,25.391,44.922,79.590,0
1553807353.126,19.531,40.527,28.320,43.945,102.539,0
1553807353.130,15.625,41.504,26.855,40.527,30.273,0
1553807353.134,27.344,35.645,30.273,54.688,32.715,0
1553807353.138,24.902,33.203,35.156,61.035,34.180,0
1553807353.141,15.137,40.039,34.180,46.875,69.824,0
1553807353.145,26.855,41.504,33.691,47.363,81.055,0
1553807353.149,29.785,37.598,35.156,67.871,11.719,0
1553807353.153,14.160,34.668,32.715,47.363,-2.930,0
1553807353.157,14.648,37.598,28.320,24.414,12.695,0
1553807353.161,21.973,35.156,27.832,43.945,34.668,0
1553807353.165,22.949,35.156,27.832,43.457,33.691,0
1553807353.169,8.789,36.133,27.832,27.344,42.480,0
1553807353.173,19.531,34.180,25.879,39.062,39.551,0
1553807353.177,41.016,37.109,27.344,66.406,49.316,0
1553807353.180,11.719,33.203,38.574,56.641,47.363,0
1553807353.184,-18.555,26.855,38.086,26.855,69.336,0
1553807353.188,0.000,20.508,30.762,33.203,55.664,0
1553807353.192,10.254,15.625,33.203,40.527,38.574,0
1553807353.196,4.395,15.625,38.086,35.156,51.758,0
1553807353.200,18.555,20.996,39.062,51.270,45.898,0
1553807353.204,17.578,20.020,39.551,50.293,22.949,0
1553807353.208,12.207,17.578,37.598,49.316,41.504,0
1553807353.212,7.324,20.996,37.598,50.293,28.320,0
1553807353.216,7.324,18.066,39.551,48.340,8.789,0
1553807353.220,10.254,16.602,36.133,39.551,36.133,0
1553807353.223,20.996,19.043,35.645,35.156,61.523,0
1553807353.227,25.879,19.531,40.527,50.293,65.430,0
1553807353.231,10.254,23.438,40.527,50.781,39.062,0
1553807353.235,10.254,26.855,37.598,48.340,49.805,0
1553807353.239,16.602,23.926,35.156,44.434,-7.812,0
1553807353.243,7.324,20.996,37.109,36.621,20.020,0
1553807353.247,1.465,20.020,37.598,39.062,85.938,0
1553807353.251,2.441,19.043,34.668,30.273,55.176,0
1553807353.255,-2.441,17.578,32.715,29.785,-1.465,0
1553807353.259,7.812,22.949,32.715,32.715,10.742,0
1553807353.263,12.695,28.320,35.156,35.645,35.156,0
1553807353.266,7.324,27.832,38.574,48.340,50.293,0
1553807353.270,12.207,30.762,36.133,50.781,60.547,0
1553807353.274,23.438,31.738,29.785,40.039,45.410,0
1553807353.278,20.020,28.809,26.855,28.809,62.500,0
1553807353.282,14.160,33.203,31.738,37.109,63.477,0
1553807353.286,11.230,37.598,32.715,40.527,31.250,0
1553807353.290,3.906,34.668,30.762,36.621,-4.395,0
1553807353.294,-0.977,32.227,34.668,36.133,-0.977,0
1553807353.298,14.648,30.273,38.086,34.668,58.105,0
1553807353.302,15.625,26.855,35.645,20.508,38.574,0
1553807353.305,-3.418,32.227,32.715,11.719,27.832,0
1553807353.309,6.348,40.527,32.715,19.531,16.602,0
1553807353.313,12.207,39.551,33.691,29.785,6.348,0
1553807353.317,3.418,35.645,37.598,34.668,-22.949,0
1553807353.321,-1.953,33.203,38.086,31.250,-46.387,0
1553807353.325,3.418,32.227,37.598,30.273,-30.273,0
1553807353.329,0.488,29.785,35.645,29.297,25.391,0
1553807353.333,9.277,25.391,31.250,25.391,77.637,0
1553807353.337,18.066,25.879,31.738,19.043,47.852,0
1553807353.341,0.000,28.809,28.809,21.973,51.270,0
1553807353.345,-10.254,27.344,30.273,16.113,67.383,0
1553807353.348,-6.348,26.367,30.273,2.930,21.484,0
1553807353.352,2.441,27.832,22.461,11.719,14.648,0
1553807353.356,15.137,27.344,21.973,24.414,14.648,0
1553807353.360,17.578,30.762,27.344,27.832,6.348,0
1553807353.364,11.230,38.086,29.785,21.973,11.230,0
1553807353.368,9.766,37.598,30.762,20.508,-5.859,0
1553807353.372,11.230,35.645,31.250,30.762,-32.227,0
1553807353.376,19.043,31.250,33.203,29.785,46.875,0
1553807353.380,25.391,29.785,37.109,25.391,59.570,0
1553807353.384,20.996,32.715,34.668,22.461,3.906,0
1553807353.388,16.602,33.203,26.855,26.855,24.414,0
1553807353.391,24.902,35.156,28.320,31.738,12.207,0
1553807353.395,22.461,34.180,34.180,29.785,51.270,0
1553807353.399,29.297,31.738,36.133,30.762,20.020,0
1553807353.403,28.320,34.180,34.180,30.273,-13.672,0
1553807353.407,7.812,32.227,33.691,40.527,25.391,0
1553807353.411,6.836,31.250,32.715,40.039,25.879,0
1553807353.415,29.785,27.344,40.039,48.828,0.000,0
1553807353.419,53.223,27.344,44.434,66.895,-4.395,0
1553807353.423,21.484,37.109,32.715,31.250,49.316,0
1553807353.427,-16.113,40.527,24.902,-13.672,58.594,0
1553807353.430,-19.043,42.480,21.484,-16.113,65.918,0
1553807353.434,-2.441,40.527,26.367,7.324,48.828,0
1553807353.438,12.207,44.434,29.785,14.160,44.434,0
1553807353.442,5.371,42.480,28.809,6.836,59.570,0
1553807353.446,3.418,35.645,24.902,8.301,23.926,0
1553807353.450,0.977,38.086,20.020,4.883,53.223,0
1553807353.454,6.836,41.992,22.461,4.883,41.016,0
1553807353.458,6.348,41.504,22.461,4.395,-19.043,0
1553807353.462,18.555,44.922,20.996,13.672,12.207,0
1553807353.466,22.461,47.852,22.949,11.230,48.828,0
1553807353.470,12.207,45.410,22.461,-2.441,48.828,0
1553807353.473,25.391,41.992,22.461,-9.277,43.457,0
1553807353.477,21.973,41.016,23.438,-1.953,20.996,0
1553807353.481,14.160,43.457,27.344,3.418,17.090,0
1553807353.485,21.973,42.969,33.203,6.348,61.035,0
1553807353.489,29.785,43.945,28.809,15.625,29.297,0
1553807353.493,26.367,45.410,26.855,18.555,14.648,0
1553807353.497,20.996,47.852,28.320,32.715,57.617,0
1553807353.501,27.832,48.340,30.273,34.668,76.660,0
1553807353.505,35.645,44.434,31.738,16.602,59.570,0
1553807353.509,32.715,41.992,34.180,23.926,41.016,0
1553807353.513,20.020,39.551,38.086,18.066,32.227,0
1553807353.516,23.438,38.086,37.598,10.254,-5.859,0
1553807353.520,30.762,39.551,33.203,20.508,18.555,0
1553807353.524,19.043,39.551,31.250,15.137,84.473,0
1553807353.528,14.648,37.598,31.250,14.648,45.410,0
1553807353.532,20.508,39.551,25.391,20.996,-5.371,0
1553807353.536,20.020,40.039,25.391,24.414,-24.414,0
1553807353.540,17.090,38.574,35.156,29.785,3.906,0
1553807353.544,15.625,37.109,38.086,27.832,40.527,0
1553807353.548,16.602,33.691,37.109,34.668,21.484,0
1553807353.552,17.578,33.203,35.156,28.809,14.160,0
1553807353.555,13.184,33.203,33.203,28.809,-0.977,0
1553807353.559,20.020,32.715,32.715,24.902,14.648,0
1553807353.563,33.203,35.645,31.250,20.508,41.504,0
1553807353.567,24.414,32.715,32.715,29.785,10.254,0
1553807353.571,11.230,34.668,32.227,21.973,-6.836,0
1553807353.575,16.113,40.039,30.762,23.438,-36.621,0
1553807353.579,21.484,37.109,29.297,20.508,9.766,0
1553807353.583,17.578,36.621,26.855,16.602,76.660,0
1553807353.587,12.695,31.738,26.855,11.230,43.457,0
1553807353.591,7.812,28.809,27.832,21.484,1.465,0
1553807353.595,11.230,33.203,29.785,29.297,13.184,0
1553807353.598,11.719,34.180,31.250,21.973,16.113,0
1553807353.602,15.137,34.180,31.738,26.855,-7.324,0
1553807353.606,15.625,38.574,33.203,14.160,-19.531,0
1553807353.610,11.230,38.574,31.738,19.043,-24.902,0
1553807353.614,15.137,32.715,29.785,38.086,11.230,0
1553807353.618,15.137,31.250,32.227,35.156,37.109,0
1553807353.622,15.137,32.715,34.668,43.945,7.324,0
1553807353.626,16.602,34.668,31.738,53.711,29.297,0
1553807353.630,25.391,33.203,29.785,58.594,49.805,0
1553807353.634,16.113,31.738,31.250,57.617,32.227,0
1553807353.638,-0.977,31.250,31.738,53.223,48.340,0
1553807353.641,9.277,33.203,29.297,43.945,-0.977,0
1553807353.645,15.137,35.156,28.809,48.828,-50.781,0
1553807353.649,6.836,30.762,34.668,62.988,40.527,0
1553807353.653,12.207,25.879,36.621,46.875,66.406,0
1553807353.657,6.348,27.832,32.227,41.992,4.395,0
1553807353.661,-12.695,30.273,31.250,44.434,27.832,0
1553807353.665,-10.742,29.785,31.250,32.715,44.434,0
1553807353.669,-10.254,27.344,29.785,31.250,47.852,0
1553807353.673,-6.836,28.320,31.250,44.922,72.266,0
1553807353.677,4.883,34.668,24.414,49.316,67.871,0
1553807353.680,0.977,36.621,16.113,41.992,68.848,0
1553807353.684,-8.789,32.715,21.484,44.922,86.426,0
1553807353.688,1.465,29.785,29.297,47.363,59.082,0
1553807353.692,12.695,31.738,31.250,48.828,62.012,0
1553807353.696,1.953,35.156,25.391,56.641,84.961,0
1553807353.700,18.555,37.598,19.043,80.566,60.547,0
1553807353.704,20.996,37.598,25.879,77.637,-4.883,0
1553807353.708,-33.203,30.762,29.785,23.438,-49.805,0
1553807353.712,-40.527,24.414,23.926,7.812,-12.695,0
1553807353.716,-11.719,22.461,29.297,35.156,98.145,0
1553807353.720,-23.438,16.113,36.621,32.227,70.312,0
1553807353.723,-20.996,9.277,37.598,35.645,-6.348,0
1553807353.727,-16.113,8.789,41.016,41.992,26.367,0
1553807353.731,-4.883,4.883,48.828,45.410,76.172,0
1553807353.735,4.883,1.953,52.246,67.383,60.547,0
1553807353.739,-9.277,3.906,50.293,71.289,9.766,0
1553807353.743,-8.301,9.277,47.852,74.219,29.297,0
1553807353.747,2.441,13.184,44.434,75.684,68.359,0
1553807353.751,3.906,11.230,42.480,55.664,30.273,0
1553807353.755,3.906,10.742,40.039,36.133,52.734,0
1553807353.759,4.395,14.160,36.621,27.832,78.613,0
1553807353.763,17.090,20.996,36.621,48.340,41.992,0
1553807353.766,31.738,23.926,37.109,68.848,4.395,0
1553807353.770,22.949,21.973,37.109,68.848,-10.254,0
1553807353.774,15.137,23.926,37.598,56.641,27.832,0
1553807353.778,18.555,23.438,39.551,46.875,48.340,0
1553807353.782,4.883,18.555,39.551,45.898,76.172,0
1553807353.786,-14.160,17.090,42.969,56.641,63.965,0
1553807353.790,-8.789,16.113,45.410,59.570,-9.766,0
1553807353.794,-3.418,20.020,43.945,56.641,-0.977,0
1553807353.798,1.465,24.414,41.992,52.734,54.199,0
1553807353.802,8.301,24.902,37.598,51.758,28.809,0
1553807353.805,12.695,23.438,32.715,52.246,16.602,0
1553807353.809,23.438,23.438,32.715,50.293,27.832,0
1553807353.813,21.484,23.926,34.180,52.734,36.621,0
1553807353.817,9.277,22.949,35.156,56.152,55.664,0
1553807353.821,5.859,25.391,34.668,63.965,73.730,0
1553807353.825,13.672,23.438,38.086,64.453,38.086,0
1553807353.829,17.578,23.926,38.574,65.918,-15.137,0
1553807353.833,3.418,21.973,35.645,51.758,12.695,0
1553807353.837,3.418,20.508,32.715,34.180,43.457,0
1553807353.841,16.113,24.902,30.273,36.133,71.777,0
1553807353.845,4.395,27.832,30.762,29.785,91.797,0
1553807353.848,-1.465,28.320,28.809,12.207,76.172,0
1553807353.852,2.441,32.227,22.949,10.254,55.664,0
1553807353.856,-5.859,34.180,25.879,20.508,24.414,0
1553807353.860,-3.906,38.086,34.180,40.039,40.527,0
1553807353.864,4.395,44.434,37.109,47.363,31.250,0
1553807353.868,-2.930,39.551,39.551,39.062,18.555,0
1553807353.872,4.395,41.504,51.758,34.668,47.363,0
1553807353.876,1.465,41.016,61.523,23.926,41.504,0
1553807353.880,-22.461,40.039,56.641,7.324,0.977,0
1553807353.884,-39.551,47.852,62.500,-14.160,16.602,0
1553807353.888,-51.758,58.594,69.824,-40.527,53.711,0
1553807353.891,-64.941,62.988,69.824,-65.430,41.504,0
1553807353.895,-127.441,62.012,66.406,-123.535,36.133,0
1553807353.899,-201.172,63.477,62.012,-193.359,86.914,0
1553807353.903,-244.141,65.430,53.223,-231.445,127.930,0
1553807353.907,-273.438,71.777,52.246,-263.184,59.082,0
1553807353.911,-300.781,72.266,49.805,-300.293,36.621,0
1553807353.915,-326.172,70.312,43.945,-313.477,29.297,0
1553807353.919,-343.262,69.336,39.551,-336.914,23.438,0
1553807353.923,-343.750,69.336,34.668,-335.938,-2.930,0
1553807353.927,-336.914,68.848,24.414,-322.266,-33.691,0
1553807353.930,-296.875,62.012,20.020,-311.523,-22.949,0
1553807353.934,-255.371,50.781,22.949,-264.648,-10.254,0
1553807353.938,-247.070,51.270,27.344,-230.469,63.477,0
1553807353.942,-204.590,61.035,28.320,-189.941,68.359,0
1553807353.946,-139.648,74.219,15.137,-140.137,57.129,0
1553807353.950,-97.656,63.965,5.371,-100.586,14.648,0
1553807353.954,-50.781,44.922,7.324,-33.691,1.953,0
1553807353.958,-3.418,50.293,2.930,12.695,42.480,0
1553807353.962,31.738,47.363,-3.418,35.156,76.172,0
1553807353.966,70.801,42.480,0.977,75.195,58.105,0
1553807353.970,110.840,40.039,1.953,119.629,42.969,0
1553807353.973,137.695,32.227,-2.441,164.551,20.996,0
1553807353.977,150.879,28.320,0.488,175.781,7.812,0
1553807353.981,161.621,27.344,0.488,187.012,8.301,0
1553807353.985,187.500,24.414,5.859,217.773,-9.766,0
1553807353.989,203.125,19.043,13.672,237.793,47.852,0
1553807353.993,212.402,22.949,14.648,240.723,68.359,0
1553807353.997,221.191,23.926,13.672,237.793,17.090,0
1553807354.001,234.375,19.043,16.113,235.352,3.418,0
1553807354.005,230.957,22.461,14.648,237.305,-32.227,0
1553807354.009,222.656,23.926,8.789,239.258,-13.672,0
1553807354.013,231.445,21.484,13.184,240.723,2.930,0
1553807354.016,228.516,19.043,20.020,239.746,-44.434,0
1553807354.020,221.680,17.578,23.438,236.816,-8.301,0
1553807354.024,209.961,18.066,23.926,224.121,25.879,0
1553807354.028,194.824,17.578,20.020,204.102,39.551,0
1553807354.032,181.641,16.602,17.578,201.172,46.387,0
1553807354.036,167.969,22.461,14.648,192.383,-7.812,0
1553807354.040,169.434,26.855,11.719,173.828,15.625,0
1553807354.044,159.180,20.996,17.578,169.434,43.457,0
1553807354.048,130.859,20.508,24.414,161.621,30.273,0
1553807354.052,127.930,22.461,24.414,159.180,95.703,0
1553807354.055,126.465,22.949,20.020,151.367,64.941,0
1553807354.059,111.328,23.438,17.578,145.020,11.230,0
1553807354.063,103.516,23.926,16.602,127.930,83.008,0
1553807354.067,107.910,26.855,21.973,111.328,94.238,0
1553807354.071,117.188,28.320,23.438,117.676,83.496,0
1553807354.075,117.676,31.250,16.602,120.605,94.727,0
1553807354.079,103.027,33.203,15.137,112.305,45.410,0
1553807354.083,81.543,30.762,19.043,103.027,22.461,0
1553807354.087,77.148,30.762,19.043,93.262,44.434,0
1553807354.091,71.777,33.203,13.672,78.125,66.406,0
1553807354.095,76.660,33.203,13.672,68.359,42.969,0
1553807354.098,72.266,28.809,14.648,80.566,82.031,0
1553807354.102,69.824,24.414,20.020,110.840,101.074,0
1553807354.106,48.340,30.762,19.531,83.008,64.941,0
1553807354.110,14.648,35.645,11.230,33.691,35.156,0
1553807354.114,47.363,37.598,11.719,46.387,-2.441,0
1553807354.118,51.270,42.480,19.531,62.012,20.996,0
1553807354.122,23.438,37.598,28.809,67.871,2.930,0
1553807354.126,19.043,30.762,23.926,62.012,-30.273,0
1553807354.130,17.090,31.250,16.602,41.016,83.008,0
1553807354.134,18.555,31.250,20.020,44.434,69.336,0
1553807354.138,27.344,34.180,22.461,62.988,-34.668,0
1553807354.141,20.508,36.133,20.996,56.641,12.207,0
1553807354.145,7.324,35.156,23.438,33.691,38.086,0
1553807354.149,2.441,36.133,24.414,21.973,2.441,0
1553807354.153,2.441,33.203,26.367,39.062,22.461,0
1553807354.157,3.906,33.203,28.809,49.316,78.125,0
1553807354.161,12.695,37.109,24.414,27.832,33.203,0
1553807354.165,11.719,37.598,24.414,18.555,-11.230,0
1553807354.169,4.883,32.227,29.297,16.113,28.320,0
1553807354.173,13.184,30.273,27.344,30.273,34.180,0
1553807354.177,9.277,30.762,20.508,29.297,19.043,0
1553807354.180,3.418,26.855,22.949,24.414,22.949,0
1553807354.184,10.742,28.320,23.926,41.504,45.410,0
1553807354.188,24.902,31.738,25.391,48.828,40.527,0
1553807354.192,38.574,31.250,28.809,51.758,74.707,0
1553807354.196,28.809,33.203,27.344,51.270,48.340,0
1553807354.200,24.902,35.156,27.832,49.805,15.137,0
1553807354.204,36.621,37.109,26.855,52.246,62.012,0
1553807354.208,24.902,40.039,23.438,53.223,48.340,0
1553807354.212,17.578,41.504,25.879,47.852,14.648,0
1553807354.216,10.742,44.434,25.391,42.480,24.902,0
1553807354.220,4.883,43.457,23.926,29.297,67.383,0
1553807354.223,0.977,37.109,27.832,11.719,89.844,0
1553807354.227,-5.371,35.156,27.832,9.277,27.832,0
1553807354.231,-7.324,32.715,26.855,1.465,-1.953,0
1553807354.235,-6.348,30.762,28.320,-1.465,-0.488,0
1553807354.239,4.883,32.715,25.879,17.578,-40.527,0
1553807354.243,12.207,33.691,24.414,17.578,10.742,0
1553807354.247,15.137,36.133,27.344,20.996,50.781,0
1553807354.251,5.859,37.109,30.273,28.320,24.902,0
1553807354.255,-5.859,34.668,30.273,18.066,37.598,0
1553807354.259,4.883,35.156,34.180,20.508,0.488,0
1553807354.263,16.113,37.598,32.715,30.273,34.180,0
1553807354.266,9.277,40.527,25.391,16.602,110.840,0
1553807354.270,14.160,38.086,26.855,20.020,93.262,0
1553807354.274,25.879,35.156,30.762,40.039,63.477,0
1553807354.278,15.137,35.156,28.809,43.457,40.039,0
1553807354.282,12.695,37.598,31.738,41.016,18.066,0
1553807354.286,21.973,37.598,35.645,41.504,14.648,0
1553807354.290,27.344,36.621,35.156,48.340,40.039,0
1553807354.294,35.156,37.109,37.109,39.551,99.121,0
1553807354.298,34.668,37.598,37.598,29.785,77.148,0
1553807354.302,32.715,37.598,34.668,29.297,44.434,0
1553807354.305,20.020,38.574,35.645,34.668,15.137,0
1553807354.309,-5.859,38.574,33.691,20.020,32.227,0
1553807354.313,-6.348,39.062,24.902,0.000,47.852,0
1553807354.317,12.207,41.992,27.344,23.926,29.297,0
1553807354.321,16.113,43.457,34.668,30.762,34.668,0
1553807354.325,10.254,44.434,31.738,20.508,15.625,0
1553807354.329,12.695,39.551,35.156,22.949,22.461,0
1553807354.333,11.719,37.109,32.715,31.250,35.645,0
1553807354.337,10.254,38.574,31.738,33.691,35.645,0
1553807354.341,13.184,33.203,37.598,44.922,19.531,0
1553807354.345,10.742,33.203,32.715,49.805,-3.906,0
1553807354.348,15.137,36.621,29.785,34.180,2.441,0
1553807354.352,15.625,38.086,30.273,27.832,14.648,0
1553807354.356,25.391,41.016,20.996,45.410,41.992,0
1553807354.360,46.875,41.016,20.020,69.336,62.012,0
1553807354.364,6.836,33.203,29.297,29.297,35.645,0
1553807354.368,-35.645,22.461,33.203,-14.648,23.926,0
1553807354.372,-7.812,19.043,38.086,14.160,37.598,0
1553807354.376,3.906,20.996,43.457,24.414,19.531,0
1553807354.380,0.000,19.531,42.969,24.414,51.270,0
1553807354.384,2.930,19.043,47.363,33.691,56.641,0
1553807354.388,-4.883,18.555,45.410,32.715,9.766,0
1553807354.391,-3.418,18.066,39.062,35.156,2.441,0
1553807354.395,1.953,20.020,38.574,24.902,22.461,0
1553807354.399,2.441,22.461,40.039,24.414,53.223,0
1553807354.403,-5.859,20.508,41.016,28.320,28.809,0
1553807354.407,12.695,21.973,41.992,39.062,28.809,0
1553807354.411,16.113,27.832,42.969,47.852,64.453,0
1553807354.415,18.555,28.320,41.504,36.133,45.410,0
1553807354.419,33.203,28.320,41.992,46.387,2.441,0
1553807354.423,2.441,29.785,42.969,46.875,33.691,0
1553807354.427,-14.160,25.391,45.898,35.645,47.852,0
1553807354.430,0.488,23.438,40.039,22.949,-8.789,0
1553807354.434,3.418,24.902,35.645,11.230,6.348,0
1553807354.438,-1.953,20.508,38.574,31.250,-26.367,0
1553807354.442,19.531,20.996,31.250,30.273,38.086,0
1553807354.446,29.785,31.250,36.133,32.715,49.805,0
1553807354.450,14.160,39.062,36.621,33.691,32.227,0
1553807354.454,-2.930,34.180,25.391,23.926,12.695,0
1553807354.458,-2.441,28.809,21.973,30.273,-0.977,0
1553807354.462,8.789,35.645,28.809,40.039,103.027,0
1553807354.466,11.230,39.062,29.297,21.973,42.969,0
1553807354.470,23.438,34.180,48.828,49.316,-0.977,0
1553807354.473,33.203,24.414,59.082,64.941,27.344,0
1553807354.477,7.812,13.672,24.902,30.273,6.836,0
1553807354.481,-22.461,19.043,11.230,21.973,37.598,0
1553807354.485,-24.902,30.273,16.113,24.902,75.195,0
1553807354.489,-17.578,39.062,19.531,22.949,125.977,0
1553807354.493,-12.207,47.852,27.344,1.953,148.438,0
1553807354.497,13.184,64.941,45.410,36.133,40.527,0
1553807354.501,19.043,59.570,38.086,43.457,36.133,0
1553807354.505,-9.766,43.457,22.461,-9.766,34.668,0
1553807354.509,1.465,61.523,36.621,-0.977,-14.648,0
1553807354.513,-7.812,55.664,18.555,21.973,27.344,0
1553807354.516,7.812,68.848,50.293,33.691,57.129,0
1553807354.520,39.062,83.008,82.520,38.086,51.270,0
1553807354.524,-7.324,39.551,32.227,-15.625,39.062,0
1553807354.528,-72.266,11.719,7.812,-72.266,85.449,0
1553807354.532,-108.887,0.977,6.348,-94.727,52.734,0
1553807354.536,-111.816,-2.441,0.488,-109.375,-5.859,0
1553807354.540,-83.984,14.160,25.879,-97.168,25.391,0
1553807354.544,-91.797,21.973,53.223,-72.266,34.180,0
1553807354.548,-117.676,25.391,54.199,-71.289,7.324,0
1553807354.552,-141.113,47.363,55.176,-102.539,45.410,0
1553807354.555,-125.977,67.871,70.801,-83.984,49.316,0
1553807354.559,-63.477,100.586,108.887,-25.391,30.762,0
1553807354.563,-118.652,83.984,74.219,-101.074,38.086,0
1553807354.567,-193.359,52.734,36.621,-207.520,20.508,0
1553807354.571,-213.379,42.480,36.133,-240.234,61.035,0
1553807354.575,-224.121,45.898,30.273,-243.164,100.098,0
1553807354.579,-206.543,87.402,44.434,-229.492,63.965,0
1553807354.583,-239.258,81.543,29.785,-270.508,-8.301,0
1553807354.587,-277.344,58.105,15.137,-315.918,-15.137,0
1553807354.591,-304.199,51.270,0.977,-334.473,4.395,0
1553807354.595,-324.707,62.012,-14.648,-341.797,-33.203,0
1553807354.598,-295.898,92.285,-5.859,-322.266,-34.668,0
1553807354.602,-279.785,110.352,-7.812,-316.895,66.406,0
1553807354.606,-296.875,101.562,-25.391,-325.195,61.035,0
1553807354.610,-286.621,103.516,-27.832,-311.035,56.641,0
1553807354.614,-256.836,130.371,-29.297,-274.414,37.598,0
1553807354.618,-201.660,185.059,7.324,-225.586,16.602,0
1553807354.622,-184.082,199.707,24.902,-219.727,67.871,0
1553807354.626,-269.531,116.211,-44.922,-309.082,50.781,0
1553807354.630,-269.531,86.914,-60.059,-325.684,45.410,0
1553807354.634,-244.141,107.422,-37.109,-292.969,52.734,0
1553807354.638,-267.578,108.398,-55.176,-314.941,44.922,0
1553807354.641,-222.168,127.441,-41.504,-268.066,47.852,0
1553807354.645,-135.254,161.133,-31.250,-178.711,13.672,0
1553807354.649,-81.543,189.941,-64.453,-133.789,25.879,0
1553807354.653,-114.746,165.039,-67.871,-141.602,54.199,0
1553807354.657,-151.855,124.512,-41.016,-166.992,10.254,0
1553807354.661,-78.613,133.301,-16.113,-103.516,-50.293,0
1553807354.665,-41.504,108.398,-15.137,-55.664,-26.855,0
1553807354.669,-93.750,91.309,-47.363,-112.305,71.777,0
1553807354.673,-108.887,72.266,-67.871,-142.090,109.863,0
1553807354.677,-57.129,77.148,-56.152,-94.238,134.766,0
1553807354.680,21.484,130.859,-34.668,-11.230,81.055,0
1553807354.684,68.848,104.980,-35.156,41.504,9.766,0
1553807354.688,106.934,89.355,-41.992,62.500,11.719,0
1553807354.692,153.809,128.906,-35.156,111.328,6.348,0
1553807354.696,188.965,142.578,-28.320,158.203,55.664,0
1553807354.700,203.613,106.445,-48.828,137.207,43.457,0
1553807354.704,215.820,104.004,-42.969,159.668,5.371,0
1553807354.708,254.395,120.117,-24.902,214.844,17.090,0
1553807354.712,277.344,104.492,-31.250,221.191,17.578,0
1553807354.716,284.180,91.797,-29.297,214.355,-10.254,0
1553807354.720,283.203,72.266,-9.766,208.008,16.602,0
1553807354.723,292.480,74.219,11.719,228.516,37.598,0
1553807354.727,321.289,93.750,18.066,242.676,33.691,0
1553807354.731,289.062,81.543,7.812,200.684,64.453,0
1553807354.735,291.992,75.684,4.395,197.754,56.641,0
1553807354.739,314.941,72.266,3.418,231.445,15.625,0
1553807354.743,319.336,65.430,13.672,233.887,3.906,0
1553807354.747,312.988,65.918,14.160,201.660,11.230,0
1553807354.751,321.777,70.312,13.672,182.617,31.738,0
1553807354.755,318.359,71.777,18.555,190.918,17.578,0
1553807354.759,296.875,71.289,16.113,184.082,25.879,0
1553807354.763,291.504,74.707,20.508,178.223,80.078,0
1553807354.766,314.453,77.637,24.902,179.199,34.180,0
1553807354.770,323.242,73.730,26.855,166.016,11.719,0
1553807354.774,316.895,70.312,22.949,153.320,36.133,0
1553807354.778,308.594,69.824,20.508,139.160,65.918,0
1553807354.782,280.762,63.965,22.949,118.652,28.320,0
1553807354.786,280.762,62.988,21.484,119.141,-8.789,0
1553807354.790,277.832,66.406,21.484,108.398,49.805,0
1553807354.794,276.855,62.988,17.090,106.445,6.348,0
1553807354.798,273.926,65.430,22.949,108.887,-8.301,0
1553807354.802,257.324,69.824,24.414,96.680,60.547,0
1553807354.805,229.980,68.359,17.090,80.566,45.410,0
1553807354.809,224.609,71.777,15.137,46.387,27.832,0
1553807354.813,204.102,71.777,15.137,44.434,35.645,0
1553807354.817,182.129,79.590,15.625,34.668,0.977,0
1553807354.821,165.039,92.285,13.672,-8.789,-28.809,0
1553807354.825,100.098,92.285,7.324,-45.410,3.906,0
1553807354.829,54.688,94.727,4.395,-69.336,31.250,0
1553807354.833,46.875,108.398,11.719,-92.285,19.043,0
1553807354.837,19.531,120.605,-1.465,-112.305,36.621,0
1553807354.841,-7.324,114.746,-9.766,-125.488,30.762,0
1553807354.845,-41.016,102.051,1.465,-165.527,24.414,0
1553807354.848,-96.680,113.770,2.930,-207.520,41.504,0
1553807354.852,-117.188,125.488,1.953,-216.309,76.660,0
1553807354.856,-108.398,133.789,0.488,-221.191,39.551,0
1553807354.860,-132.812,131.836,0.000,-246.094,-3.906,0
1553807354.864,-173.340,122.070,1.465,-279.785,57.617,0
1553807354.868,-177.246,115.723,-1.953,-268.555,26.855,0
1553807354.872,-150.391,108.887,5.859,-227.539,-12.207,0
1553807354.876,-127.441,96.680,10.254,-224.609,9.277,0
1553807354.880,-122.559,87.402,8.301,-223.145,7.324,0
1553807354.884,-107.910,83.496,18.555,-179.688,45.898,0
1553807354.888,-78.125,77.148,17.578,-138.184,71.777,0
1553807354.891,-64.941,78.125,8.789,-124.512,53.223,0
1553807354.895,-26.367,70.801,17.578,-89.355,47.852,0
1553807354.899,23.926,22.949,35.156,-28.320,17.090,0
1553807354.903,57.617,3.906,41.992,14.160,40.527,0
1553807354.907,50.293,6.348,24.414,1.953,39.062,0
1553807354.911,66.895,23.438,29.297,11.719,-7.324,0
1553807354.915,94.238,21.484,33.691,48.340,-13.184,0
1553807354.919,92.773,-66.895,18.066,61.035,27.832,0
1553807354.923,119.141,-59.082,35.645,104.980,57.129,0
1553807354.927,93.262,-31.738,32.227,87.402,32.227,0
1553807354.930,66.406,-80.078,35.156,55.664,35.645,0
1553807354.934,86.914,-91.309,62.500,89.844,56.641,0
1553807354.938,120.605,-92.773,77.637,135.742,63.965,0
1553807354.942,117.188,-97.168,77.637,152.832,45.898,0
1553807354.946,110.840,-97.168,81.055,148.926,49.316,0
1553807354.950,119.141,-127.441,90.820,152.832,47.852,0
1553807354.954,152.832,-130.371,86.426,181.641,62.500,0
1553807354.958,167.480,-118.164,62.500,177.734,50.293,0
1553807354.962,153.320,-128.418,77.637,164.551,27.344,0
1553807354.966,166.992,-132.324,110.352,160.156,26.367,0
1553807354.970,179.199,-127.930,125.000,169.434,25.391,0
1553807354.973,171.387,-127.930,108.398,172.852,11.230,0
1553807354.977,161.133,-157.715,88.867,173.828,26.367,0
1553807354.981,156.738,-166.504,108.887,181.641,84.473,0
1553807354.985,144.531,-142.090,108.887,167.969,88.867,0
1553807354.989,149.414,-137.207,100.098,172.363,43.457,0
1553807354.993,147.461,-145.020,116.699,191.895,3.906,0
1553807354.997,135.254,-138.672,122.559,184.082,-7.324,0
1553807355.001,115.234,-131.836,117.188,168.457,12.695,0
1553807355.005,112.305,-128.906,109.375,148.438,-20.508,0
1553807355.009,135.254,-112.793,94.727,136.230,-54.199,0
1553807355.013,128.418,-99.121,93.750,154.297,-28.320,0
1553807355.016,130.371,-101.562,94.727,167.480,29.785,0
1553807355.020,130.371,-100.586,89.844,149.902,53.711,0
1553807355.024,129.395,-90.820,118.164,178.223,58.105,0
1553807355.028,118.652,-74.219,127.441,166.992,37.109,0
1553807355.032,97.656,-76.660,95.215,125.000,26.367,0
1553807355.036,109.375,-91.797,62.988,105.469,81.055,0
1553807355.040,124.512,-62.500,71.289,101.562,18.066,0
1553807355.044,106.445,-45.410,78.613,89.844,-40.527,0
1553807355.048,101.074,-66.895,53.223,64.941,12.695,0
1553807355.052,120.605,-62.500,61.523,87.402,46.875,0
1553807355.055,91.797,-35.156,82.031,90.820,34.668,0
1553807355.059,77.637,-11.719,72.266,79.102,42.480,0
1553807355.063,92.285,-2.441,62.012,60.059,45.898,0
1553807355.067,109.863,-0.977,67.383,84.473,37.109,0
1553807355.071,92.285,-29.785,62.988,86.914,41.016,0
1553807355.075,48.828,-72.754,71.777,62.012,78.125,0
1553807355.079,46.387,-54.199,62.012,66.406,26.367,0
1553807355.083,61.035,-37.598,54.199,89.355,35.156,0
1553807355.087,83.496,-42.969,66.406,105.957,83.496,0
1553807355.091,69.824,1.465,46.387,45.410,54.199,0
1553807355.095,41.016,18.066,51.270,8.301,50.781,0
1553807355.098,44.922,9.766,85.449,24.902,45.410,0
1553807355.102,51.758,21.973,61.523,28.320,26.367,0
1553807355.106,119.141,62.500,50.293,70.801,19.531,0
1553807355.110,148.438,68.848,49.316,90.332,2.441,0
1553807355.114,44.434,7.324,15.625,-6.836,-23.438,0
1553807355.118,-22.949,-14.160,48.828,-50.293,41.992,0
1553807355.122,4.395,-46.387,49.316,-5.859,64.941,0
1553807355.126,4.395,-71.777,-40.527,-39.551,33.203,0
1553807355.130,-57.617,-8.789,-13.184,-109.375,-4.883,0
1553807355.134,22.949,113.281,4.883,13.672,-10.742,0
1553807355.138,81.543,87.402,-54.199,97.656,29.297,0
1553807355.141,-34.180,-40.527,88.379,-44.434,12.695,0
1553807355.145,-102.051,-34.668,166.016,-150.391,8.301,0
1553807355.149,-86.426,-20.508,73.242,-187.500,73.730,0
1553807355.153,-59.082,-49.316,73.242,-222.168,69.824,0
1553807355.157,-116.699,-62.012,24.902,-314.453,54.688,0
1553807355.161,-169.434,5.859,30.273,-386.719,83.008,0
1553807355.165,-163.574,65.918,163.086,-436.035,38.086,0
1553807355.169,-157.715,-18.555,34.668,-529.785,44.922,0
1553807355.173,-87.402,-45.898,-109.375,-516.113,63.965,0
1553807355.177,-69.336,62.988,20.508,-456.543,55.176,0
1553807355.180,-167.480,84.473,159.668,-561.035,15.625,0
1553807355.184,-152.832,52.734,212.891,-653.809,26.367,0
1553807355.188,-203.613,-52.734,139.648,-770.020,37.598,0
1553807355.192,-189.941,0.000,127.441,-833.496,1.465,0
1553807355.196,-100.098,130.859,194.824,-776.855,32.227,0
1553807355.200,-213.867,9.766,103.027,-888.184,28.320,0
1553807355.204,-197.266,-32.715,8.301,-924.316,31.738,0
1553807355.208,-58.105,60.059,-9.277,-830.078,8.789,0
1553807355.212,-46.387,6.836,149.414,-894.043,-26.367,0
1553807355.216,-72.754,35.156,157.715,-973.633,-4.883,0
1553807355.220,-103.027,67.871,12.207,-967.773,-31.250,0
1553807355.223,-91.797,20.020,124.512,-967.773,3.906,0
1553807355.227,-73.730,103.027,220.703,-969.727,34.668,0
1553807355.231,-117.188,149.902,202.637,-969.238,20.508,0
1553807355.235,-114.746,128.906,222.656,-969.238,39.062,0
1553807355.239,-145.020,92.773,184.082,-969.238,-2.930,0
1553807355.243,-203.613,89.844,112.793,-969.238,-10.254,0
1553807355.247,-164.551,76.660,1.465,-969.727,7.812,0
1553807355.251,-84.473,134.766,70.801,-966.797,3.418,0
1553807355.255,-138.184,100.586,208.984,-974.121,12.207,0
1553807355.259,-98.145,52.734,92.285,-955.566,0.000,0
1553807355.263,22.461,161.133,35.645,-936.035,16.113,0
1553807355.266,-46.875,174.316,224.609,-965.332,-4.883,0
1553807355.270,-120.605,144.043,283.691,-970.703,-41.992,0
1553807355.274,-141.113,101.562,160.645,-965.820,-11.230,0
1553807355.278,-116.211,119.141,64.453,-971.680,-43.945,0
1553807355.282,-77.637,158.691,13.672,-952.637,-24.902,0
1553807355.286,-52.246,201.172,134.277,-880.859,4.883,0
1553807355.290,-37.109,202.637,227.539,-886.230,-7.812,0
1553807355.294,-73.242,128.906,197.266,-957.031,1.465,0
1553807355.298,-96.680,144.531,171.875,-943.359,-29.785,0
1553807355.302,-51.270,221.191,175.781,-867.676,14.648,0
1553807355.305,-11.719,250.977,185.059,-827.637,54.688,0
1553807355.309,-67.871,194.336,126.953,-835.449,-7.812,0
1553807355.313,-110.840,172.363,136.719,-829.102,-39.551,0
1553807355.317,-102.539,191.406,130.371,-812.012,-19.043,0
1553807355.321,-137.207,158.691,72.754,-834.961,-16.602,0
1553807355.325,-211.914,109.375,103.516,-857.422,-24.902,0
1553807355.329,-190.918,137.695,165.039,-747.559,8.789,0
1553807355.333,-131.836,174.316,160.645,-608.887,60.547,0
1553807355.337,-120.117,208.984,170.898,-645.508,47.363,0
1553807355.341,12.695,360.840,160.645,-637.695,42.480,0
1553807355.345,-79.590,232.422,42.480,-719.238,52.246,0
1553807355.348,-316.895,71.777,124.023,-859.863,-2.441,0
1553807355.352,-298.340,64.941,220.703,-803.711,39.551,0
1553807355.356,-158.691,17.090,164.551,-802.246,41.504,0
1553807355.360,-58.594,131.836,157.715,-698.730,47.852,0
1553807355.364,-99.121,194.824,116.699,-587.891,63.965,0
1553807355.368,-173.828,100.586,85.938,-580.078,21.484,0
1553807355.372,-140.625,96.680,164.551,-526.855,33.203,0
1553807355.376,-98.633,109.863,124.023,-529.785,49.805,0
1553807355.380,95.703,188.477,100.586,-397.461,52.246,0
1553807355.384,177.246,218.262,237.305,-318.359,23.438,0
1553807355.388,-73.242,45.410,166.504,-557.129,75.195,0
1553807355.391,-22.949,78.125,133.789,-448.242,71.289,0
1553807355.395,62.500,135.742,211.914,-332.520,3.906,0
1553807355.399,-4.883,69.336,150.879,-446.777,39.062,0
1553807355.403,2.930,47.363,119.629,-476.074,93.262,0
1553807355.407,100.098,86.914,114.258,-418.457,47.363,0
1553807355.411,154.785,132.324,165.527,-295.898,17.578,0
1553807355.415,57.617,59.570,177.734,-316.406,41.504,0
1553807355.419,66.895,33.203,177.246,-317.871,37.109,0
1553807355.423,93.262,32.715,194.824,-275.391,32.227,0
1553807355.427,128.418,33.691,176.758,-236.816,34.180,0
1553807355.430,152.832,32.227,134.277,-283.691,8.301,0
1553807355.434,99.609,0.488,99.609,-298.828,-12.207,0
1553807355.438,199.219,68.848,194.824,-30.762,45.410,0
1553807355.442,329.590,122.559,272.949,45.410,60.547,0
1553807355.446,175.293,9.277,184.082,-297.852,13.184,0
1553807355.450,96.191,-39.551,135.254,-443.848,11.230,0
1553807355.454,178.223,10.254,125.977,-295.898,31.250,0
1553807355.458,216.309,34.180,128.906,-176.758,-8.789,0
1553807355.462,239.258,15.137,215.332,-152.344,-43.457,0
1553807355.466,230.957,15.137,240.723,-155.273,-4.883,0
1553807355.470,174.805,-13.672,188.965,-219.238,4.395,0
1553807355.473,244.141,9.766,126.953,-128.906,22.461,0
1553807355.477,391.113,107.422,165.039,-20.996,53.223,0
1553807355.481,353.516,79.102,193.359,-152.832,78.613,0
1553807355.485,211.426,-38.086,150.879,-290.039,40.039,0
1553807355.489,160.156,-34.180,201.172,-288.086,-10.742,0
1553807355.493,199.219,21.484,196.289,-219.727,67.871,0
1553807355.497,218.262,31.250,159.668,-80.566,124.512,0
1553807355.501,214.355,-10.254,124.512,-37.109,56.641,0
1553807355.505,286.621,13.184,158.691,-159.668,24.414,0
1553807355.509,390.625,148.438,331.055,-124.512,0.488,0
1553807355.513,251.953,72.266,234.375,-111.328,83.984,0
1553807355.516,163.086,4.883,26.855,-80.078,101.074,0
1553807355.520,193.359,6.836,77.637,-139.160,22.461,0
1553807355.524,90.332,-44.434,126.465,-333.984,68.359,0
1553807355.528,111.816,7.812,133.301,-250.977,66.406,0
1553807355.532,158.691,34.668,120.605,-139.648,30.762,0
1553807355.536,209.961,30.273,75.684,68.848,46.875,0
1553807355.540,237.305,39.551,61.035,91.797,46.875,0
1553807355.544,169.922,54.199,116.211,-150.879,-2.930,0
1553807355.548,129.883,59.082,149.414,-176.270,-1.953,0
1553807355.552,125.977,91.797,75.195,-105.957,19.531,0
1553807355.555,52.734,95.215,58.105,-86.914,42.480,0
1553807355.559,-40.039,40.527,144.043,-86.914,16.113,0
1553807355.563,1.953,85.938,208.984,-62.012,-0.977,0
1553807355.567,-12.207,83.984,134.766,-174.316,51.758,0
1553807355.571,-106.445,34.180,42.480,-273.926,86.426,0
1553807355.575,-155.762,38.086,56.152,-219.238,59.082,0
1553807355.579,-150.879,37.109,27.344,-152.832,46.875,0
1553807355.583,-83.984,41.504,35.156,-93.262,22.461,0
1553807355.587,-25.391,30.273,38.574,-35.156,-12.207,0
1553807355.591,36.621,101.562,87.402,22.461,55.176,0
1553807355.595,3.418,146.973,116.699,-0.977,83.496,0
1553807355.598,-117.188,7.812,-1.953,-122.070,56.641,0
1553807355.602,-116.211,-13.672,44.434,-132.324,15.625,0
1553807355.606,-90.820,62.988,129.395,-105.469,46.387,0
1553807355.610,-64.941,77.148,115.723,-97.168,87.891,0
1553807355.614,-52.734,83.984,93.262,-89.355,84.473,0
1553807355.618,-52.246,89.355,82.031,-75.684,66.406,0
1553807355.622,-11.719,80.078,67.383,-51.758,26.367,0
1553807355.626,52.246,98.145,70.312,52.734,66.895,0
1553807355.630,26.855,100.586,92.773,10.254,27.832,0
1553807355.634,-80.566,34.180,69.336,-202.148,-66.895,0
1553807355.638,-120.605,19.043,22.461,-206.055,20.508,0
1553807355.641,-29.297,81.055,6.348,-62.012,26.367,0
1553807355.645,98.633,138.672,83.008,107.422,-2.930,0
1553807355.649,50.293,87.891,99.121,36.621,60.059,0
1553807355.653,-48.828,-22.461,64.453,-161.133,52.246,0
1553807355.657,-79.102,-55.664,94.727,-184.570,60.059,0
1553807355.661,-102.051,-16.113,82.031,-140.137,100.586,0
1553807355.665,-70.801,23.438,65.430,-117.188,44.434,0
1553807355.669,-20.020,41.504,83.496,-91.797,40.039,0
1553807355.673,20.020,46.387,69.824,-48.828,92.285,0
1553807355.677,125.977,104.492,79.102,10.742,12.207,0
1553807355.680,75.195,94.238,68.359,-41.016,-23.438,0
1553807355.684,20.508,45.898,100.586,-63.477,14.648,0
1553807355.688,83.008,73.730,139.648,-5.371,19.043,0
1553807355.692,45.410,28.809,86.426,-41.992,-4.395,0
1553807355.696,1.465,-30.273,66.895,-87.891,3.906,0
1553807355.700,24.414,14.160,56.152,-77.148,33.203,0
1553807355.704,53.711,49.805,53.223,-47.363,15.137,0
1553807355.708,30.273,15.625,52.734,-65.918,25.879,0
1553807355.712,64.941,23.926,47.852,-17.090,6.348,0
1553807355.716,196.289,104.492,83.008,144.531,25.391,0
1553807355.720,154.785,90.332,91.309,35.156,38.574,0
1553807355.723,-3.906,-7.812,18.066,-191.406,29.785,0
1553807355.727,-4.395,-0.488,3.418,-160.645,24.902,0
1553807355.731,118.164,55.664,76.660,-25.879,-1.953,0
1553807355.735,180.664,89.355,107.422,32.227,29.297,0
1553807355.739,142.090,63.965,118.652,-15.137,90.820,0
1553807355.743,87.402,-0.488,111.328,-57.129,108.887,0
1553807355.747,13.672,-28.320,54.688,-102.539,41.504,0
1553807355.751,9.277,-10.254,46.875,-89.355,30.762,0
1553807355.755,114.746,17.090,72.754,15.137,86.426,0
1553807355.759,181.152,39.062,74.707,70.801,57.617,0
1553807355.763,186.523,87.402,95.703,59.082,79.102,0
1553807355.766,127.930,78.613,78.125,-14.648,60.059,0
1553807355.770,79.590,29.297,-11.230,-67.383,-12.695,0
1553807355.774,124.023,45.898,-26.367,-20.508,21.973,0
1553807355.778,105.469,38.574,28.320,-26.367,84.961,0
1553807355.782,74.219,38.574,37.598,-49.316,118.164,0
1553807355.786,81.543,36.621,-19.531,-37.109,77.148,0
1553807355.790,108.887,46.387,-8.301,-11.230,27.832,0
1553807355.794,114.258,48.340,22.949,-5.859,27.344,0
1553807355.798,128.418,49.316,3.906,-0.488,-11.719,0
1553807355.802,161.621,57.617,6.348,16.602,-31.738,0
1553807355.805,158.203,65.918,14.160,36.133,-5.371,0
1553807355.809,127.930,81.055,6.836,17.090,16.602,0
1553807355.813,133.301,90.820,28.809,33.691,45.898,0
1553807355.817,217.285,122.070,33.691,145.508,66.895,0
1553807355.821,196.289,115.234,-23.438,144.043,82.520,0
1553807355.825,117.676,73.242,-19.531,-15.137,64.941,0
1553807355.829,84.961,31.738,0.488,-75.684,56.641,0
1553807355.833,63.477,34.180,4.395,-29.785,9.277,0
1553807355.837,75.195,56.152,10.742,-10.742,33.691,0
1553807355.841,109.863,71.289,21.484,24.902,72.754,0
1553807355.845,146.973,71.777,20.508,66.406,76.172,0
1553807355.848,142.578,75.684,11.719,71.777,56.641,0
1553807355.852,122.070,85.449,13.184,66.406,41.016,0
1553807355.856,103.516,72.754,3.906,44.922,66.895,0
1553807355.860,126.465,66.406,3.906,49.805,77.637,0
1553807355.864,129.395,69.824,8.301,53.223,60.547,0
1553807355.868,74.707,68.359,10.742,18.066,40.039,0
1553807355.872,62.500,75.195,9.766,34.668,56.152,0
1553807355.876,70.801,78.613,-9.277,49.805,54.199,0
1553807355.880,102.051,95.703,-2.441,64.941,46.387,0
1553807355.884,130.371,105.957,37.109,83.008,30.273,0
1553807355.888,82.520,77.148,20.996,52.734,34.180,0
1553807355.891,38.086,40.527,-24.902,25.391,10.254,0
1553807355.895,20.020,3.906,-44.434,22.949,38.574,0
1553807355.899,42.969,58.594,-35.156,38.574,74.219,0
1553807355.903,38.574,108.887,-29.297,32.227,72.754,0
1553807355.907,-14.648,68.848,-14.160,1.465,27.344,0
1553807355.911,-28.320,41.504,25.391,-5.859,20.020,0
1553807355.915,-5.371,50.293,38.574,27.832,78.125,0
1553807355.919,8.789,52.734,33.203,48.340,52.734,0
1553807355.923,17.090,49.805,26.367,51.270,63.477,0
1553807355.927,20.508,49.805,25.391,60.059,138.672,0
1553807355.930,-9.766,43.457,29.297,44.434,80.566,0
1553807355.934,-28.809,33.203,20.996,21.484,-15.625,0
1553807355.938,-9.766,35.156,10.742,18.555,51.758,0
1553807355.942,-5.371,58.594,24.414,30.273,80.566,0
1553807355.946,-25.391,55.176,32.715,32.715,53.223,0
1553807355.950,3.906,20.020,37.598,50.781,51.270,0
1553807355.954,24.902,45.898,45.410,57.129,44.922,0
1553807355.958,-20.508,83.496,44.434,0.488,71.777,0
1553807355.962,-42.480,85.938,34.180,-23.438,55.176,0
1553807355.966,-100.098,62.988,4.395,-77.148,47.363,0
1553807355.970,-145.996,41.504,-7.324,-94.727,33.691,0
1553807355.973,-128.418,59.082,1.953,-77.637,21.973,0
1553807355.977,-127.441,69.824,6.836,-71.289,104.980,0
1553807355.981,-108.398,72.754,22.949,-18.555,115.234,0
1553807355.985,-71.289,69.824,49.316,20.996,19.531,0
1553807355.989,-57.129,45.410,32.715,17.578,-11.719,0
1553807355.993,-40.039,64.941,7.324,20.996,49.316,0
1553807355.997,-19.043,98.145,-6.836,44.434,83.984,0
1553807356.001,-21.484,102.539,-9.766,59.082,64.453,0
1553807356.005,-5.859,101.074,-15.625,74.219,83.496,0
1553807356.009,25.391,92.285,-21.484,110.840,89.844,0
1553807356.013,70.312,76.172,-1.953,149.414,56.152,0
1553807356.016,83.496,61.523,0.488,176.758,71.289,0
1553807356.020,68.848,59.570,0.000,215.820,121.094,0
1553807356.024,125.977,71.289,-3.418,254.395,83.008,0
1553807356.028,150.879,73.730,-8.789,282.715,94.727,0
1553807356.032,162.109,60.547,-5.371,289.062,115.234,0
1553807356.036,192.871,54.199,5.371,310.547,113.281,0
1553807356.040,187.500,47.852,5.371,293.945,105.957,0
1553807356.044,193.359,42.969,5.859,285.645,109.863,0
1553807356.048,215.820,41.992,20.020,320.801,75.684,0
1553807356.052,209.961,35.645,13.184,317.871,52.734,0
1553807356.055,200.684,34.668,-0.977,310.547,21.484,0
1553807356.059,193.848,31.738,-3.418,315.918,77.148,0
1553807356.063,184.570,31.738,-4.395,305.664,120.605,0
1553807356.067,180.176,32.227,-3.906,308.594,91.309,0
1553807356.071,173.340,30.762,-2.441,309.082,89.355,0
1553807356.075,169.434,28.809,5.371,311.035,51.758,0
1553807356.079,166.016,29.785,10.742,315.430,122.559,0
1553807356.083,142.090,22.949,12.695,304.688,131.348,0
1553807356.087,144.043,25.391,26.855,299.805,44.434,0
1553807356.091,134.766,24.902,24.902,294.434,63.965,0
1553807356.095,93.750,20.996,16.602,266.602,85.938,0
1553807356.098,71.289,31.250,23.438,255.371,60.547,0
1553807356.102,51.758,22.461,27.832,250.488,44.922,0
1553807356.106,42.480,13.184,33.691,242.676,91.309,0
1553807356.110,14.648,6.348,19.043,214.844,102.539,0
1553807356.114,0.977,-2.441,10.254,193.848,32.227,0
1553807356.118,-14.160,-1.953,15.625,203.613,75.684,0
1553807356.122,-49.805,8.789,16.113,209.961,132.324,0
1553807356.126,-59.082,7.324,13.672,208.496,122.559,0
1553807356.130,-70.801,18.066,22.949,209.473,90.820,0
1553807356.134,-74.707,27.344,35.156,218.750,71.777,0
1553807356.138,-93.750,-5.371,21.484,203.125,110.352,0
1553807356.141,-93.750,-6.348,27.344,206.055,132.812,0
1553807356.145,-93.262,9.766,29.297,200.684,182.129,0
1553807356.149,-121.582,2.441,10.254,173.828,174.805,0
1553807356.153,-133.789,12.207,6.836,177.246,167.969,0
1553807356.157,-123.047,29.297,23.926,201.172,165.527,0
1553807356.161,-126.465,18.555,23.926,206.543,147.949,0
1553807356.165,-148.438,5.371,6.348,188.965,173.828,0
1553807356.169,-193.359,-1.465,-9.766,158.691,194.336,0
1553807356.173,-231.934,-11.719,-16.602,146.484,242.676,0
1553807356.177,-238.770,-6.348,-8.301,161.621,262.695,0
1553807356.180,-228.027,2.441,3.906,176.270,185.547,0
1553807356.184,-214.355,-11.719,17.090,175.781,159.668,0
1553807356.188,-202.637,-16.602,20.508,159.668,170.410,0
1553807356.192,-217.285,9.766,13.184,139.648,188.477,0
1553807356.196,-236.328,38.574,11.230,142.090,187.988,0
1553807356.200,-238.770,44.434,2.930,145.996,193.359,0
1553807356.204,-219.727,37.109,-12.695,125.977,168.945,0
1553807356.208,-214.844,29.297,5.859,130.859,146.973,0
1553807356.212,-236.328,22.949,26.855,141.113,179.688,0
1553807356.216,-189.941,16.113,25.391,160.156,152.832,0
1553807356.220,-190.918,30.762,16.602,152.344,133.301,0
1553807356.223,-241.211,48.340,-0.977,99.121,194.824,0
1553807356.227,-233.398,47.852,-3.906,97.168,167.480,0
1553807356.231,-216.797,53.223,-9.277,82.520,113.281,0
1553807356.235,-212.402,53.711,-18.066,75.195,77.148,0
1553807356.239,-193.848,57.129,-25.879,81.543,109.863,0
1553807356.243,-181.641,63.965,-34.668,96.680,153.320,0
1553807356.247,-185.547,68.848,-37.109,94.727,105.469,0
1553807356.251,-177.734,70.312,-37.109,77.637,105.957,0
1553807356.255,-153.809,70.312,-37.598,92.285,156.250,0
1553807356.259,-134.766,76.660,-30.762,109.375,157.715,0
1553807356.263,-123.047,76.172,-19.531,108.887,134.766,0
1553807356.266,-135.254,68.848,-18.066,106.445,133.789,0
1553807356.270,-138.184,65.430,-21.973,100.098,133.301,0
1553807356.274,-104.980,60.547,-14.160,98.633,104.492,0
1553807356.278,-97.656,58.594,-12.207,88.379,158.203,0
1553807356.282,-106.934,67.383,-9.766,80.566,156.738,0
1553807356.286,-90.820,62.500,-4.883,87.891,154.297,0
1553807356.290,-82.520,49.805,-10.742,84.473,177.246,0
1553807356.294,-92.285,49.805,-6.348,91.797,146.484,0
1553807356.298,-98.633,59.570,-2.930,89.355,201.172,0
1553807356.302,-105.957,67.383,-6.348,62.012,188.965,0
1553807356.305,-110.352,73.730,-5.371,53.223,166.504,0
1553807356.309,-102.539,66.406,-4.883,54.688,199.219,0
1553807356.313,-100.098,60.059,-1.465,57.617,158.691,0
1553807356.317,-84.961,68.359,1.953,66.895,127.441,0
1553807356.321,-114.258,73.730,0.488,41.016,193.359,0
1553807356.325,-157.227,73.242,-2.441,7.812,194.336,0
1553807356.329,-153.809,68.848,6.348,0.977,145.020,0
1553807356.333,-161.133,64.941,38.086,22.461,165.527,0
1553807356.337,-178.711,57.129,36.133,-14.160,176.758,0
1553807356.341,-225.098,52.734,11.719,-80.078,185.059,0
1553807356.345,-243.164,61.523,19.043,-68.359,175.293,0
1553807356.348,-252.930,74.219,19.531,-89.355,131.836,0
1553807356.352,-267.090,82.031,12.207,-142.090,148.438,0
1553807356.356,-293.457,95.215,4.395,-172.363,174.805,0
1553807356.360,-279.785,105.957,-5.371,-164.062,173.340,0
1553807356.364,-250.488,104.980,-8.789,-148.926,146.484,0
1553807356.368,-271.484,100.586,-12.695,-149.414,131.836,0
1553807356.372,-214.355,104.004,-5.859,-83.008,77.637,0
1553807356.376,-166.992,107.910,-15.625,-95.703,41.016,0
1553807356.380,-161.133,92.773,-28.320,-91.309,26.367,0
1553807356.384,-144.531,98.145,-27.344,-47.363,31.738,0
1553807356.388,-102.051,106.445,-32.227,-13.672,84.473,0
1553807356.391,-60.547,103.516,-40.527,55.664,91.309,0
1553807356.395,-61.523,104.492,-47.363,54.199,93.750,0
1553807356.399,20.508,94.727,-44.434,116.699,75.684,0
1553807356.403,41.992,92.773,-44.434,168.945,29.297,0
1553807356.407,43.945,93.262,-38.574,187.012,-6.836,0
1553807356.411,92.773,87.891,-41.504,217.285,-27.832,0
1553807356.415,147.949,76.172,-43.457,236.328,-2.930,0
1553807356.419,204.590,71.777,-38.574,283.203,6.348,0
1553807356.423,186.523,76.660,-42.480,269.531,4.395,0
1553807356.427,220.215,81.055,-41.504,290.527,-53.711,0
1553807356.430,240.723,79.590,-44.922,315.430,-67.871,0
1553807356.434,249.512,67.383,-37.109,329.590,-56.641,0
1553807356.438,275.879,64.941,-29.297,360.840,-99.121,0
1553807356.442,250.000,56.641,-19.043,349.121,-136.719,0
1553807356.446,254.883,48.340,-15.137,367.676,-146.973,0
1553807356.450,228.027,53.223,-22.949,334.961,-148.926,0
1553807356.454,234.375,55.664,-23.438,313.965,-140.625,0
1553807356.458,253.418,57.129,-20.996,333.496,-170.898,0
1553807356.462,241.211,57.129,-20.996,302.734,-160.156,0
1553807356.466,238.770,59.082,-23.438,306.152,-104.980,0
1553807356.470,211.914,50.293,-18.066,305.176,-76.172,0
1553807356.473,213.867,48.828,-15.137,301.270,-89.355,0
1553807356.477,236.328,46.387,-13.672,305.176,-144.531,0
1553807356.481,221.191,37.109,-4.395,288.086,-171.387,0
1553807356.485,192.383,39.551,-5.859,272.461,-204.590,0
1553807356.489,176.758,36.133,-3.418,266.602,-174.805,0
1553807356.493,165.039,28.809,3.418,260.254,-175.781,0
1553807356.497,166.016,26.855,4.395,258.301,-252.930,0
1553807356.501,152.344,24.902,8.789,238.770,-213.379,0
1553807356.505,131.836,24.902,11.230,216.309,-179.199,0
1553807356.509,126.465,23.438,8.789,214.844,-226.074,0
1553807356.513,104.492,17.090,10.742,211.914,-215.820,0
1553807356.516,79.102,11.230,15.137,207.031,-181.641,0
1553807356.520,78.125,6.836,16.113,191.406,-170.898,0
1553807356.524,70.312,7.324,11.719,150.391,-146.973,0
1553807356.528,63.477,6.836,10.254,138.672,-125.488,0
1553807356.532,52.734,7.324,12.207,134.277,-108.398,0
1553807356.536,41.504,5.859,13.184,142.090,-103.516,0
1553807356.540,22.461,6.348,13.184,154.297,-134.277,0
1553807356.544,5.859,7.812,13.672,122.559,-113.281,0
1553807356.548,5.371,3.906,9.277,110.352,-89.355,0
1553807356.552,20.996,17.578,16.113,125.488,-113.770,0
1553807356.555,9.766,18.555,21.484,117.188,-123.047,0
1553807356.559,-6.836,-1.953,19.531,113.281,-101.074,0
1553807356.563,-29.785,-0.977,18.555,101.562,-106.445,0
1553807356.567,-36.621,12.207,22.949,77.637,-73.730,0
1553807356.571,-33.691,14.648,28.320,77.148,-44.434,0
1553807356.575,-67.383,14.160,21.973,62.012,-73.242,0
1553807356.579,-83.008,9.277,24.902,44.922,-56.152,0
1553807356.583,-103.027,19.043,36.133,21.973,-69.336,0
1553807356.587,-144.531,37.109,27.832,-26.855,-58.105,0
1553807356.591,-171.875,46.875,19.043,-72.266,-23.926,0
1553807356.595,-190.918,39.062,12.207,-108.398,-34.668,0
1553807356.598,-235.352,29.297,6.836,-142.578,-22.461,0
1553807356.602,-265.625,36.621,20.020,-138.184,15.137,0
1553807356.606,-323.242,42.969,13.672,-189.941,24.902,0
1553807356.610,-350.586,52.246,-4.395,-228.516,17.578,0
1553807356.614,-326.172,53.711,-2.441,-221.680,35.156,0
1553807356.618,-337.891,43.457,8.789,-232.910,79.102,0
1553807356.622,-325.684,47.852,8.789,-228.516,97.656,0
1553807356.626,-312.012,49.316,2.441,-227.051,80.566,0
1553807356.630,-312.500,39.062,13.184,-218.262,82.520,0
1553807356.634,-286.621,28.809,21.484,-169.922,99.121,0
1553807356.638,-295.410,17.578,21.973,-149.902,108.398,0
1553807356.641,-289.551,18.066,26.855,-145.020,82.520,0
1553807356.645,-251.953,5.859,30.762,-118.164,71.777,0
1553807356.649,-213.379,-13.184,32.227,-68.359,46.387,0
1553807356.653,-146.484,-6.348,36.133,-12.695,21.973,0
1553807356.657,-120.605,-9.277,34.668,1.465,23.926,0
1553807356.661,-90.820,-26.855,26.855,23.926,24.414,0
1553807356.665,-55.176,-42.969,28.320,52.246,22.461,0
1553807356.669,-11.719,-41.992,38.574,85.938,41.992,0
1553807356.673,12.207,-40.039,40.039,137.695,69.336,0
1553807356.677,41.992,-55.176,42.969,183.105,33.691,0
1553807356.680,74.219,-57.617,47.363,219.238,40.039,0
1553807356.684,79.590,-53.223,45.410,231.445,38.086,0
1553807356.688,137.207,-52.734,40.527,266.113,0.000,0
1553807356.692,192.383,-56.641,42.480,320.801,21.973,0
1553807356.696,221.680,-49.805,44.434,362.305,62.988,0
1553807356.700,234.863,-59.570,37.598,374.023,41.992,0
1553807356.704,265.625,-72.266,32.715,366.699,21.973,0
1553807356.708,272.949,-50.293,27.344,351.562,-12.695,0
1553807356.712,255.371,-35.645,28.809,352.539,-43.457,0
1553807356.716,258.301,-29.785,30.762,360.352,8.301,0
1553807356.720,238.281,-24.902,25.391,335.938,30.762,0
1553807356.723,217.773,-27.344,23.926,317.871,-30.762,0
1553807356.727,208.984,-27.344,28.320,318.848,-62.012,0
1553807356.731,202.637,-28.320,31.738,325.195,-34.668,0
1553807356.735,211.426,-29.785,32.715,321.777,34.180,0
1553807356.739,200.195,-25.391,31.738,309.570,62.988,0
1553807356.743,179.199,-20.996,33.203,291.504,30.762,0
1553807356.747,168.945,-20.020,36.621,290.527,0.977,0
1553807356.751,174.805,-17.090,33.691,288.574,-60.059,0
1553807356.755,170.898,-16.113,29.785,273.926,-76.660,0
1553807356.759,162.598,-13.184,29.297,278.809,-19.043,0
1553807356.763,173.340,-10.254,26.367,278.320,-21.484,0
1553807356.766,164.062,-10.254,27.344,252.441,-15.625,0
1553807356.770,153.809,-4.395,25.391,253.906,50.293,0
1553807356.774,163.574,3.906,21.484,269.043,2.930,0
1553807356.778,151.855,-1.465,21.973,252.441,-49.805,0
1553807356.782,136.230,0.488,18.066,215.820,-34.668,0
1553807356.786,131.348,13.672,11.230,210.938,-4.395,0
1553807356.790,113.770,15.625,13.184,212.891,-21.973,0
1553807356.794,129.395,18.555,14.648,177.734,-26.855,0
1553807356.798,122.559,18.555,11.230,162.109,41.992,0
1553807356.802,90.820,18.066,13.184,166.016,16.602,0
1553807356.805,80.078,26.367,17.578,174.316,8.301,0
1553807356.809,87.891,32.715,21.973,189.941,34.668,0
1553807356.813,92.285,34.180,22.461,191.895,67.871,0
1553807356.817,90.820,31.738,24.902,191.895,26.855,0
1553807356.821,90.820,28.809,29.297,173.828,-29.785,0
1553807356.825,86.426,28.809,29.785,166.016,-22.949,0
1553807356.829,73.730,21.484,28.809,179.199,2.930,0
1553807356.833,74.219,22.461,27.344,176.758,40.039,0
1553807356.837,84.961,39.551,24.902,145.996,-5.859,0
1553807356.841,70.312,40.527,18.066,118.164,-9.766,0
1553807356.845,58.105,32.715,17.578,125.977,12.695,0
1553807356.848,78.613,43.457,17.090,130.859,-12.695,0
1553807356.852,54.688,46.387,1.953,125.977,-6.836,0
1553807356.856,22.461,36.133,-0.488,111.816,-3.418,0
1553807356.860,22.461,33.203,7.812,104.492,-20.996,0
1553807356.864,29.785,37.598,16.113,97.656,-17.578,0
1553807356.868,34.668,41.504,14.160,80.078,-13.672,0
1553807356.872,39.062,46.875,15.137,111.328,-9.766,0
1553807356.876,47.852,46.875,20.508,125.977,-31.250,0
1553807356.880,46.387,47.852,14.648,109.375,-62.012,0
1553807356.884,45.898,49.805,11.719,110.352,-20.508,0
1553807356.888,41.504,43.945,11.230,107.422,-28.320,0
1553807356.891,36.133,46.387,5.859,106.445,-10.254,0
1553807356.895,34.668,46.875,-0.977,96.680,17.578,0
1553807356.899,27.344,42.480,-2.441,65.918,-21.484,0
1553807356.903,27.344,43.457,-4.395,73.730,20.996,0
1553807356.907,35.156,44.922,-3.906,84.473,0.000,0
1553807356.911,35.156,42.480,-0.977,94.727,-17.578,0
1553807356.915,23.926,43.457,-1.465,97.168,-0.977,0
1553807356.919,26.367,43.945,0.488,94.727,35.156,0
1553807356.923,27.344,41.016,10.254,100.098,43.457,0
1553807356.927,27.344,49.805,18.066,100.586,42.480,0
1553807356.930,29.785,49.316,16.113,95.703,66.895,0
1553807356.934,19.531,34.668,12.695,91.309,6.836,0
1553807356.938,20.020,32.227,11.230,84.473,35.645,0
1553807356.942,15.625,29.785,14.648,82.031,98.145,0
1553807356.946,23.926,16.602,27.832,106.445,54.199,0
1553807356.950,28.320,18.066,33.203,124.512,10.254,0
1553807356.954,8.789,35.645,25.879,116.211,24.414,0
1553807356.958,7.324,44.434,16.113,101.562,-7.812,0
1553807356.962,19.043,42.480,15.625,97.656,-5.371,0
1553807356.966,34.180,44.922,20.020,104.980,3.906,0
1553807356.970,37.598,45.410,18.066,86.914,-2.930,0
1553807356.973,28.809,41.992,13.184,74.707,32.227,0
1553807356.977,26.367,39.551,12.207,85.938,52.246,0
1553807356.981,20.508,34.180,14.648,89.844,30.762,0
1553807356.985,4.883,31.738,19.531,100.098,60.059,0
1553807356.989,8.301,30.762,20.020,108.887,83.984,0
1553807356.993,18.066,28.809,20.996,112.305,2.930,0
1553807356.997,19.043,19.531,19.531,107.422,0.488,0
1553807357.001,4.395,17.578,16.113,77.148,37.109,0
1553807357.005,-0.488,28.809,12.695,74.707,17.090,0
1553807357.009,20.508,33.691,10.742,89.844,37.109,0
1553807357.013,24.902,35.645,18.066,96.191,-25.879,0
1553807357.016,12.695,38.574,21.484,110.840,7.812,0
1553807357.020,11.719,38.574,17.578,114.746,93.750,0
1553807357.024,5.859,34.668,14.648,92.773,5.371,0
1553807357.028,0.488,36.621,11.719,75.684,23.438,0
1553807357.032,10.254,37.598,7.812,82.031,32.227,0
1553807357.036,0.977,28.320,8.301,103.027,27.344,0
1553807357.040,17.090,28.809,12.695,103.516,9.277,0
1553807357.044,19.043,37.598,16.113,97.656,-12.695,0
1553807357.048,3.418,43.457,17.578,104.004,-10.742,0
1553807357.052,19.043,43.945,20.508,112.793,-9.766,0
1553807357.055,36.621,39.551,22.461,151.367,32.715,0
1553807357.059,49.316,40.039,28.320,151.367,25.879,0
1553807357.063,30.762,47.363,26.855,95.215,46.875,0
1553807357.067,-7.812,45.410,18.066,54.199,71.289,0
1553807357.071,9.766,44.922,11.719,76.172,13.184,0
1553807357.075,34.668,55.176,9.277,100.098,45.410,0
1553807357.079,15.625,58.594,8.301,94.238,52.734,0
1553807357.083,12.695,58.594,6.348,94.727,37.109,0
1553807357.087,18.555,57.617,6.348,78.613,-10.254,0
1553807357.091,29.785,51.270,11.230,82.520,-36.621,0
1553807357.095,44.922,51.758,14.160,88.867,8.301,0
1553807357.098,32.227,52.246,12.207,95.703,8.789,0
1553807357.102,27.344,51.758,13.184,104.980,32.715,0
1553807357.106,30.273,50.293,13.184,92.773,20.508,0
1553807357.110,1.465,39.551,10.254,84.473,23.438,0
1553807357.114,-16.602,37.598,10.742,94.727,58.594,0
1553807357.118,0.977,44.922,11.719,91.797,-8.301,0
1553807357.122,3.418,43.945,8.301,80.566,8.789,0
1553807357.126,2.930,41.992,6.348,87.891,96.680,0
1553807357.130,8.301,38.574,7.812,75.684,93.262,0
1553807357.134,7.812,33.203,8.789,64.453,52.246,0
1553807357.138,14.160,35.645,8.301,76.172,28.809,0
1553807357.141,26.367,39.062,8.301,87.402,50.781,0
1553807357.145,19.531,41.992,6.836,80.566,-10.254,0
1553807357.149,24.902,35.645,9.766,74.219,-30.273,0
1553807357.153,16.113,29.785,12.207,81.543,35.645,0
1553807357.157,-11.230,38.574,13.672,88.867,43.457,0
1553807357.161,0.000,39.551,20.020,83.496,47.852,0
1553807357.165,6.836,38.086,16.113,94.727,46.387,0
1553807357.169,7.812,42.480,12.695,107.910,-2.930,0
1553807357.173,22.461,39.551,17.090,95.215,7.324,0
1553807357.177,7.812,36.133,9.766,62.012,49.316,0
1553807357.180,-10.742,35.156,0.977,50.293,21.973,0
1553807357.184,0.977,35.645,5.371,73.730,11.230,0
1553807357.188,15.625,31.738,6.348,84.473,29.785,0
1553807357.192,7.324,25.391,6.348,82.031,49.805,0
1553807357.196,2.930,32.715,12.207,82.520,47.363,0
1553807357.200,20.020,37.598,4.395,79.102,79.102,0
1553807357.204,21.973,30.273,-5.371,67.871,56.152,0
1553807357.208,6.836,26.367,3.906,56.152,41.504,0
1553807357.212,-2.930,29.297,13.672,62.988,51.758,0
1553807357.216,4.395,29.785,17.090,80.566,59.570,0
1553807357.220,28.809,27.832,20.508,86.914,6.348,0
1553807357.223,8.789,36.133,19.531,59.082,-54.199,0
1553807357.227,-8.789,38.574,18.555,74.219,-0.977,0
1553807357.231,20.020,39.062,23.926,91.309,34.180,0
1553807357.235,22.461,39.062,22.949,77.637,8.301,0
1553807357.239,16.113,36.621,17.578,82.031,15.625,0
1553807357.243,16.602,38.086,15.625,81.055,37.109,0
1553807357.247,2.930,33.691,14.648,81.543,31.738,0
1553807357.251,5.371,31.250,15.625,95.215,43.457,0
1553807357.255,32.227,35.156,17.090,101.562,41.504,0
1553807357.259,27.832,31.738,20.020,87.402,32.227,0
1553807357.263,12.695,27.344,18.066,85.449,5.371,0
1553807357.266,21.973,30.273,17.578,97.168,7.324,0
1553807357.270,26.855,31.738,17.578,98.633,20.020,0
1553807357.274,18.066,30.273,18.066,92.285,-5.371,0
1553807357.278,4.395,29.297,21.973,94.727,33.691,0
1553807357.282,12.207,26.367,20.508,99.609,72.754,0
1553807357.286,20.508,27.832,18.555,94.727,43.457,0
1553807357.290,16.113,28.320,18.555,87.891,20.508,0
1553807357.294,27.344,28.320,17.090,99.609,58.105,0
1553807357.298,30.273,28.320,20.508,109.375,-7.324,0
1553807357.302,37.598,28.809,25.879,104.492,-56.641,0
1553807357.305,24.414,24.902,23.438,102.051,29.785,0
1553807357.309,-5.371,28.320,21.973,98.145,61.523,0
1553807357.313,-5.371,32.227,20.996,92.285,35.156,0
1553807357.317,2.441,26.367,20.996,85.938,27.344,0
1553807357.321,-0.488,25.391,17.578,85.938,17.090,0
1553807357.325,-4.883,24.902,17.090,101.074,43.945,0
1553807357.329,1.465,27.832,14.648,98.145,79.102,0
1553807357.333,6.836,27.832,11.719,90.332,72.266,0
1553807357.337,8.789,21.973,18.066,99.609,50.781,0
1553807357.341,10.742,21.973,21.484,110.840,12.207,0
1553807357.345,8.789,24.902,20.020,112.305,-14.648,0
1553807357.348,3.418,25.879,23.438,116.211,9.277,0
1553807357.352,18.066,29.785,18.066,123.047,32.227,0
1553807357.356,38.086,31.738,13.184,116.699,47.363,0
1553807357.360,24.902,29.297,22.461,97.656,46.875,0
1553807357.364,-21.484,21.484,23.438,61.035,10.742,0
1553807357.368,-13.672,12.695,20.996,51.270,-27.344,0
1553807357.372,1.953,6.836,30.762,82.031,69.824,0
1553807357.376,-17.578,-1.953,35.156,70.801,54.199,0
1553807357.380,6.836,-0.977,39.062,80.078,-12.695,0
1553807357.384,20.508,2.441,43.457,99.121,-9.766,0
1553807357.388,-2.441,-3.906,41.016,87.891,17.090,0
1553807357.391,-17.090,-1.465,34.668,77.637,26.855,0
1553807357.395,-20.996,-1.953,31.250,77.637,-49.805,0
1553807357.399,-16.113,-3.906,33.203,98.145,-11.719,0
1553807357.403,-10.742,5.371,30.273,103.516,133.789,0
1553807357.407,-1.953,9.766,29.785,84.961,132.324,0
1553807357.411,8.301,8.789,31.738,75.195,58.594,0
1553807357.415,0.977,9.766,26.855,62.500,23.926,0
1553807357.419,1.953,9.766,23.926,74.707,26.367,0
1553807357.423,-2.441,4.395,26.367,90.820,-13.184,0
1553807357.427,2.930,5.371,25.391,79.102,-32.715,0
1553807357.430,15.137,9.766,24.902,72.266,14.160,0
1553807357.434,4.395,3.906,26.367,61.035,53.711,0
1553807357.438,10.254,3.418,28.809,68.848,29.785,0
1553807357.442,14.648,14.648,27.832,73.730,28.320,0
1553807357.446,-3.906,12.207,23.438,59.082,55.176,0
1553807357.450,-15.625,9.766,24.414,70.312,0.488,0
1553807357.454,5.371,14.648,23.438,97.656,40.039,0
1553807357.458,9.277,11.719,26.855,84.473,35.645,0
1553807357.462,-15.625,9.766,27.832,61.035,26.855,0
1553807357.466,-14.160,18.066,21.484,61.523,92.285,0
1553807357.470,-12.207,19.043,21.973,66.406,57.617,0
1553807357.473,-9.277,12.695,26.367,60.547,-1.465,0
1553807357.477,-9.766,19.043,25.879,60.547,65.918,0
1553807357.481,-6.836,22.461,25.879,67.383,77.637,0
1553807357.485,13.184,22.461,26.367,81.543,15.137,0
1553807357.489,14.160,23.926,24.902,66.406,-7.324,0
1553807357.493,-9.277,20.996,24.902,68.848,14.160,0
1553807357.497,-5.859,19.531,24.902,89.355,40.039,0
1553807357.501,6.836,20.020,20.996,80.566,70.801,0
1553807357.505,9.277,16.602,16.113,57.129,110.352,0
1553807357.509,0.977,18.066,17.578,40.039,93.750,0
1553807357.513,-12.695,22.949,15.625,59.082,45.898,0
1553807357.516,8.789,20.996,16.113,68.848,5.859,0
1553807357.520,13.672,21.484,21.484,74.219,-9.766,0
1553807357.524,-5.859,24.414,20.996,101.074,-11.230,0
1553807357.528,2.930,24.902,18.066,82.031,52.734,0
1553807357.532,39.062,25.879,17.578,79.102,55.176,0
1553807357.536,24.902,27.832,17.090,78.613,-11.719,0
1553807357.540,-5.371,27.344,17.578,64.453,3.418,0
1553807357.544,-4.395,25.391,16.602,68.848,75.684,0
1553807357.548,-23.438,22.949,16.602,78.125,83.008,0
1553807357.552,-11.230,21.973,20.020,92.773,44.434,0
1553807357.555,6.836,29.297,19.531,83.984,-28.320,0
1553807357.559,17.578,31.250,22.949,78.125,-89.844,0
1553807357.563,25.391,27.344,29.297,81.055,29.297,0
1553807357.567,15.625,29.297,26.367,95.215,34.668,0
1553807357.571,8.301,30.273,25.391,84.961,35.156,0
1553807357.575,32.715,35.156,21.484,67.871,82.031,0
1553807357.579,59.082,36.133,17.090,74.219,38.574,0
1553807357.583,31.250,33.203,20.020,70.801,41.504,0
1553807357.587,14.648,33.691,24.902,72.266,60.059,0
1553807357.591,16.602,30.762,31.738,85.449,48.828,0
1553807357.595,13.184,25.391,35.156,90.332,26.367,0
1553807357.598,19.043,27.832,31.250,78.613,5.371,0
1553807357.602,20.020,27.344,23.926,76.660,30.273,0
1553807357.606,26.367,23.926,22.461,80.566,53.711,0
1553807357.610,24.414,22.949,24.414,91.309,15.625,0
1553807357.614,22.461,19.043,26.367,88.867,-9.277,0
1553807357.618,22.461,21.973,23.926,83.984,47.852,0
1553807357.622,26.367,20.020,24.902,86.914,65.918,0
1553807357.626,21.484,19.043,25.879,82.031,32.715,0
1553807357.630,30.273,21.484,24.902,81.543,-12.695,0
1553807357.634,21.484,20.996,24.902,70.312,-54.688,0
1553807357.638,5.859,21.484,25.879,66.406,-15.137,0
1553807357.641,10.254,22.949,23.438,70.801,-2.441,0
1553807357.645,1.953,25.391,20.020,54.199,23.438,0
1553807357.649,0.000,27.344,21.484,53.711,55.176,0
1553807357.653,12.207,25.879,22.949,85.449,15.137,0
1553807357.657,20.508,25.391,20.996,87.402,-5.859,0
1553807357.661,15.137,25.391,18.555,62.500,-3.418,0
1553807357.665,5.371,21.973,22.461,53.223,15.137,0
1553807357.669,1.465,19.043,23.438,64.941,53.711,0
1553807357.673,-5.371,17.578,21.973,72.266,-21.973,0
1553807357.677,-3.906,17.578,24.414,75.684,-14.648,0
1553807357.680,4.883,16.602,23.438,79.590,12.695,0
1553807357.684,17.090,17.090,22.461,78.613,-54.688,0
1553807357.688,19.043,20.996,23.438,80.078,-67.383,0
1553807357.692,16.113,17.578,21.973,86.426,-50.781,0
1553807357.696,11.719,18.066,22.461,74.707,-38.574,0
1553807357.700,4.395,22.461,26.855,64.453,6.836,0
1553807357.704,5.859,23.926,27.344,79.102,24.414,0
1553807357.708,4.395,21.973,25.391,90.820,50.781,0
1553807357.712,0.000,20.020,23.438,73.242,60.547,0
1553807357.716,12.695,22.461,24.414,60.547,54.199,0
1553807357.720,16.113,22.949,20.508,60.547,-29.297,0
1553807357.723,4.395,20.020,16.602,64.941,-53.223,0
1553807357.727,6.348,17.578,18.555,57.129,-0.977,0
1553807357.731,3.418,15.137,20.508,43.945,42.480,0
1553807357.735,11.719,21.484,20.508,68.848,97.168,0
1553807357.739,32.227,24.902,22.461,77.637,66.895,0
1553807357.743,37.598,21.484,27.344,53.711,28.809,0
1553807357.747,18.555,22.461,24.902,68.848,19.043,0
1553807357.751,-14.160,20.996,24.414,72.266,2.930,0
1553807357.755,-15.137,19.531,29.785,54.688,46.875,0
1553807357.759,0.000,19.531,25.391,47.852,40.527,0
1553807357.763,-14.160,17.090,21.973,45.410,-2.441,0
1553807357.766,-20.020,15.625,24.902,43.945,41.016,0
1553807357.770,3.906,21.484,24.414,53.223,98.145,0
1553807357.774,0.000,24.414,26.367,61.523,117.188,0
1553807357.778,-20.996,22.949,28.809,59.082,65.918,0
1553807357.782,-18.066,18.066,26.367,61.523,51.270,0
1553807357.786,13.184,10.742,30.273,100.098,50.293,0
1553807357.790,51.270,17.090,34.668,137.695,30.273,0
1553807357.794,20.020,25.391,24.902,98.145,51.758,0
1553807357.798,-22.949,27.344,15.137,47.363,64.941,0
1553807357.802,-12.695,27.344,14.648,45.898,56.152,0
1553807357.805,28.320,27.832,15.137,85.449,31.738,0
1553807357.809,25.879,31.738,12.207,84.473,34.668,0
1553807357.813,24.902,34.668,12.695,69.336,-14.160,0
1553807357.817,43.457,42.969,10.254,56.641,-41.016,0
1553807357.821,11.230,42.480,6.348,63.477,9.766,0
1553807357.825,23.926,38.574,10.254,83.496,12.695,0
1553807357.829,31.250,41.504,15.137,75.195,37.109,0
1553807357.833,-4.883,42.969,11.230,61.523,45.898,0
1553807357.837,16.113,43.945,7.812,53.711,30.273,0
1553807357.841,38.574,43.457,8.301,79.590,-19.531,0
1553807357.845,20.996,43.945,7.324,92.773,-39.551,0
1553807357.848,10.254,41.992,12.695,84.473,22.461,0
1553807357.852,20.508,40.527,16.113,76.660,97.656,0
1553807357.856,15.137,36.133,17.090,71.777,104.492,0
1553807357.860,-1.465,25.391,21.484,87.402,47.363,0
1553807357.864,-10.254,21.484,24.902,96.191,-16.113,0
1553807357.868,1.953,18.066,27.344,83.984,3.418,0
1553807357.872,18.555,17.090,23.926,67.871,24.414,0
1553807357.876,17.578,21.484,19.531,69.824,11.719,0
1553807357.880,4.883,22.949,20.020,87.402,38.086,0
1553807357.884,20.996,26.367,20.020,95.215,5.859,0
1553807357.888,43.945,26.855,20.508,71.289,19.043,0
1553807357.891,46.875,23.926,22.461,61.523,46.387,0
1553807357.895,33.691,28.320,19.043,59.570,46.387,0
1553807357.899,17.090,29.785,14.648,61.523,34.180,0
1553807357.903,28.320,26.367,18.066,82.520,40.039,0
1553807357.907,23.438,29.297,19.043,100.098,73.730,0
1553807357.911,1.953,30.762,19.531,88.867,28.320,0
1553807357.915,17.090,30.273,20.020,71.777,29.297,0
1553807357.919,20.996,25.391,20.020,79.590,56.641,0
1553807357.923,8.301,20.020,19.531,88.379,45.898,0
1553807357.927,19.531,24.902,13.184,88.867,62.988,0
1553807357.930,23.926,27.832,8.301,83.008,42.480,0
1553807357.934,27.832,28.320,9.277,72.754,26.367,0
1553807357.938,36.621,28.809,12.695,69.824,2.441,0
1553807357.942,13.184,27.832,14.648,79.102,7.324,0
1553807357.946,-13.184,20.508,19.531,88.867,55.176,0
1553807357.950,0.977,15.625,22.949,73.242,44.922,0
1553807357.954,-1.465,16.113,27.832,59.082,-24.414,0
1553807357.958,-4.883,17.578,31.250,73.730,47.363,0
1553807357.962,21.484,17.578,28.809,73.242,65.918,0
1553807357.966,3.906,16.602,27.832,66.895,28.809,0
1553807357.970,-32.227,15.625,30.762,69.824,70.312,0
1553807357.973,4.883,17.578,32.227,90.820,74.219,0
1553807357.977,17.578,16.113,31.250,109.375,30.273,0
1553807357.981,0.000,16.113,26.367,85.449,13.184,0
1553807357.985,-9.766,16.113,20.020,56.641,22.949,0
1553807357.989,-11.230,18.066,20.508,42.969,96.680,0
1553807357.993,0.000,22.949,21.484,31.250,52.734,0
1553807357.997,7.324,21.484,16.602,33.691,-19.043,0
1553807358.001,10.254,20.020,15.625,48.340,30.762,0
1553807358.005,6.836,18.066,15.625,37.109,79.590,0
1553807358.009,21.484,20.996,14.160,38.086,73.730,0
1553807358.013,20.996,21.484,19.531,65.918,52.734,0
1553807358.016,6.836,20.508,22.461,59.570,69.336,0
1553807358.020,24.902,21.973,23.926,49.805,77.148,0
1553807358.024,47.852,22.461,25.391,49.316,19.531,0
1553807358.028,44.434,24.414,22.461,48.340,19.531,0
1553807358.032,14.160,18.555,26.855,83.496,45.898,0
1553807358.036,3.906,10.742,35.645,99.121,3.418,0
1553807358.040,19.043,11.719,36.133,84.473,20.996,0
1553807358.044,17.578,13.184,37.109,88.867,89.355,0
1553807358.048,9.766,12.695,36.133,94.238,86.426,0
1553807358.052,24.902,11.719,36.621,77.148,35.645,0
1553807358.055,11.719,7.812,41.992,77.637,0.488,0
1553807358.059,10.254,11.719,37.109,65.430,0.488,0
1553807358.063,22.461,13.672,28.809,51.758,43.457,0
1553807358.067,16.602,12.207,31.738,87.402,7.324,0
1553807358.071,37.598,14.648,37.598,81.055,19.043,0
1553807358.075,36.621,8.789,37.598,63.965,88.379,0
1553807358.079,3.418,6.836,32.227,78.613,65.918,0
1553807358.083,-12.695,10.742,30.273,83.008,-10.742,0
1553807358.087,0.977,10.742,31.250,85.449,-20.020,0
1553807358.091,9.766,5.859,28.809,68.848,0.488,0
1553807358.095,0.488,8.301,23.926,58.105,22.461,0
1553807358.098,-7.324,9.766,26.855,64.453,34.668,0
1553807358.102,-6.348,8.301,29.785,60.059,59.570,0
1553807358.106,-1.953,9.766,28.809,56.641,41.504,0
1553807358.110,-1.953,10.254,31.250,65.430,-1.465,0
1553807358.114,9.766,7.324,34.668,89.844,36.621,0
1553807358.118,42.480,5.859,37.109,85.449,11.230,0
1553807358.122,39.551,5.371,34.668,69.336,-48.828,0
1553807358.126,4.883,2.441,35.645,85.449,-42.480,0
1553807358.130,-9.277,-0.977,37.598,90.332,-12.695,0
1553807358.134,-4.883,-1.465,34.668,71.777,43.457,0
1553807358.138,-6.348,2.930,39.551,71.777,19.531,0
1553807358.141,-15.137,10.254,40.039,79.102,-5.371,0
1553807358.145,-3.906,15.625,37.109,80.078,38.574,0
1553807358.149,-15.137,16.602,40.039,88.379,-14.160,0
1553807358.153,-23.438,14.648,39.062,82.031,35.645,0
1553807358.157,23.438,19.043,33.691,79.590,50.293,0
1553807358.161,15.625,22.949,32.715,64.941,9.277,0
1553807358.165,-25.391,20.020,33.203,28.320,59.082,0
1553807358.169,2.930,18.555,28.809,20.508,48.828,0
1553807358.173,32.227,18.555,29.297,51.270,87.891,0
1553807358.177,5.371,16.602,29.297,55.176,83.496,0
1553807358.180,-19.043,10.254,28.809,43.945,2.441,0
1553807358.184,-17.090,9.766,33.691,57.129,16.602,0
1553807358.188,0.977,14.160,32.227,63.965,53.223,0
1553807358.192,5.371,7.324,33.691,69.336,-12.207,0
1553807358.196,2.930,6.348,41.016,75.195,-48.828,0
1553807358.200,20.020,12.207,41.504,78.613,-3.418,0
1553807358.204,21.484,10.742,41.016,77.148,51.758,0
1553807358.208,3.906,9.277,42.969,87.891,50.293,0
1553807358.212,0.977,11.719,39.062,82.031,49.316,0
1553807358.216,17.090,13.184,32.227,66.406,21.973,0
1553807358.220,9.766,10.742,32.227,89.844,-1.465,0
1553807358.223,13.184,4.395,37.598,98.145,89.844,0
1553807358.227,21.484,6.348,34.180,87.402,91.309,0
1553807358.231,3.418,13.184,27.832,90.820,76.172,0
1553807358.235,8.301,14.160,27.344,85.449,86.914,0
1553807358.239,17.090,16.602,24.902,76.172,42.969,0
1553807358.243,8.789,11.719,24.414,71.289,-28.809,0
1553807358.247,27.344,6.836,27.832,75.684,15.625,0
1553807358.251,35.156,13.672,29.785,88.379,54.199,0
1553807358.255,29.785,15.625,29.785,84.473,33.691,0
1553807358.259,30.273,12.207,27.832,61.523,34.668,0
1553807358.263,29.785,14.160,25.391,65.918,-11.230,0
1553807358.266,38.574,13.184,29.297,88.379,-12.695,0
1553807358.270,38.086,10.254,34.180,98.145,65.918,0
1553807358.274,22.461,13.672,34.668,79.590,57.129,0
1553807358.278,6.348,10.742,37.109,57.617,43.945,0
1553807358.282,3.906,7.812,32.715,62.012,70.312,0
1553807358.286,21.973,12.695,26.367,69.824,13.672,0
1553807358.290,32.715,10.254,34.180,81.543,43.945,0
1553807358.294,17.090,6.348,41.504,97.168,89.355,0
1553807358.298,15.625,8.789,36.133,97.168,71.777,0
1553807358.302,18.555,10.742,26.367,82.031,51.758,0
1553807358.305,-1.953,15.625,21.484,61.523,16.113,0
1553807358.309,0.977,16.113,21.973,48.828,33.203,0
1553807358.313,-0.488,15.137,21.973,45.410,0.488,0
1553807358.317,-20.020,11.719,28.320,60.059,7.324,0
1553807358.321,-21.973,12.207,30.762,69.824,39.062,0
1553807358.325,-7.812,16.113,29.785,60.547,-14.160,0
1553807358.329,-4.883,13.184,33.691,70.801,-67.383,0
1553807358.333,-13.672,12.207,36.133,76.660,-2.930,0
1553807358.337,-8.789,14.648,32.715,55.176,60.547,0
1553807358.341,-17.578,17.090,29.785,50.293,-19.043,0
1553807358.345,-21.973,18.066,30.273,37.109,-9.766,0
1553807358.348,4.395,17.090,30.762,33.203,94.238,0
1553807358.352,12.695,17.578,30.273,33.691,96.680,0
1553807358.356,-25.391,18.555,27.344,28.320,18.555,0
1553807358.360,-18.066,16.113,27.344,58.105,22.461,0
1553807358.364,-1.465,11.719,29.297,60.547,44.922,0
1553807358.368,-28.320,13.184,28.320,56.152,31.250,0
1553807358.372,-35.645,18.066,27.344,65.918,80.078,0
1553807358.376,-14.160,17.578,24.902,49.805,73.730,0
1553807358.380,-9.277,18.066,25.391,38.086,73.242,0
1553807358.384,-20.996,18.066,31.738,41.016,69.336,0
1553807358.388,-12.207,17.090,34.668,53.223,19.531,0
1553807358.391,-20.020,18.555,28.809,46.875,42.969,0
1553807358.395,-19.531,16.113,21.484,30.273,73.730,0
1553807358.399,-23.438,9.766,23.926,30.273,20.020,0
1553807358.403,-22.461,6.348,25.391,20.020,2.930,0
1553807358.407,-14.160,9.277,20.508,28.320,6.836,0
1553807358.411,-14.160,10.254,26.855,56.641,-20.508,0
1553807358.415,-18.555,9.277,30.762,55.176,38.574,0
1553807358.419,-18.555,13.672,23.926,48.340,57.129,0
1553807358.423,-5.859,14.648,23.926,42.969,67.871,0
1553807358.427,6.348,14.648,26.367,44.922,40.527,0
1553807358.430,7.324,20.996,29.297,56.641,-19.043,0
1553807358.434,17.578,23.926,29.297,50.781,22.949,0
1553807358.438,12.207,19.531,26.855,59.570,34.180,0
1553807358.442,2.930,19.531,29.297,83.984,14.648,0
1553807358.446,3.906,24.902,22.461,92.773,27.832,0
1553807358.450,16.113,25.879,17.578,83.496,17.090,0
1553807358.454,27.344,20.508,27.832,67.383,0.000,0
1553807358.458,26.367,12.207,29.785,66.406,44.922,0
1553807358.462,30.762,9.766,23.926,69.336,90.332,0
1553807358.466,30.762,11.719,23.438,82.031,82.520,0
1553807358.470,40.527,14.160,19.531,83.496,48.828,0
1553807358.473,37.109,11.230,27.344,90.332,5.859,0
1553807358.477,12.695,5.859,33.691,95.215,18.555,0
1553807358.481,14.648,9.277,27.344,91.797,19.531,0
1553807358.485,24.902,13.672,23.926,86.914,53.223,0
1553807358.489,20.020,13.672,24.902,79.102,53.223,0
1553807358.493,-2.930,8.789,34.668,77.148,24.414,0
1553807358.497,13.184,6.348,34.180,87.402,53.223,0
1553807358.501,47.363,9.766,26.367,77.148,26.855,0
1553807358.505,36.621,10.742,29.785,69.336,59.082,0
1553807358.509,26.367,9.766,32.227,82.031,70.312,0
1553807358.513,37.109,12.695,26.367,89.844,50.781,0
1553807358.516,28.809,13.184,20.020,99.609,27.832,0
1553807358.520,33.203,16.113,27.344,112.305,57.129,0
1553807358.524,54.199,20.508,33.691,120.605,14.648,0
1553807358.528,38.574,14.160,31.250,107.910,24.902,0
1553807358.532,34.180,13.672,27.344,92.285,0.000,0
1553807358.536,28.320,15.625,27.832,89.844,-19.043,0
1553807358.540,5.859,9.277,31.250,82.520,12.695,0
1553807358.544,2.930,4.883,30.273,81.055,12.207,0
1553807358.548,9.277,10.742,25.391,84.473,17.578,0
1553807358.552,32.227,19.043,20.996,90.820,-11.230,0
1553807358.555,39.551,19.043,25.391,100.586,35.156,0
1553807358.559,20.508,18.066,26.855,97.168,41.016,0
1553807358.563,-0.488,15.625,26.367,82.031,48.828,0
1553807358.567,29.297,14.160,25.391,104.980,89.355,0
1553807358.571,58.594,18.555,23.438,83.984,90.332,0
1553807358.575,18.555,19.043,29.297,34.180,41.992,0
1553807358.579,1.465,18.066,28.809,43.945,24.902,0
1553807358.583,9.277,17.578,31.250,60.059,8.301,0
1553807358.587,5.859,13.184,39.062,69.824,-5.859,0
1553807358.591,18.555,15.625,34.668,83.008,42.969,0
1553807358.595,29.785,19.043,28.809,86.426,70.801,0
1553807358.598,30.273,16.113,35.156,93.750,76.660,0
1553807358.602,23.926,18.555,36.133,107.910,69.824,0
1553807358.606,17.090,23.926,24.902,92.285,56.641,0
1553807358.610,4.395,21.484,20.508,68.359,54.199,0
1553807358.614,-11.230,18.066,24.902,50.293,82.031,0
1553807358.618,-2.441,14.648,30.762,71.289,20.996,0
1553807358.622,11.230,9.766,32.715,78.613,23.438,0
1553807358.626,15.137,23.438,17.578,83.984,87.891,0
1553807358.630,5.371,24.902,21.973,68.359,96.191,0
1553807358.634,12.695,21.484,37.109,39.551,96.191,0
1553807358.638,-3.418,31.250,33.203,43.457,60.059,0
1553807358.641,-7.812,25.879,31.250,47.363,44.922,0
1553807358.645,7.812,16.113,31.250,59.570,59.082,0
1553807358.649,-2.930,22.461,25.879,45.410,67.871,0
1553807358.653,-7.324,27.832,23.438,49.316,70.801,0
1553807358.657,0.977,18.555,41.504,92.285,49.805,0
1553807358.661,13.672,20.508,41.992,79.590,10.742,0
1553807358.665,5.371,27.344,27.344,45.898,15.625,0
1553807358.669,15.137,15.625,32.715,57.617,16.602,0
1553807358.673,10.742,14.160,40.527,58.105,34.180,0
1553807358.677,-3.906,23.438,29.297,47.363,36.133,0
1553807358.680,10.742,22.461,20.996,70.801,10.742,0
1553807358.684,10.254,23.926,29.297,65.430,53.223,0
1553807358.688,24.414,20.996,27.344,64.453,83.008,0
1553807358.692,33.691,19.531,24.902,83.984,49.316,0
1553807358.696,-8.789,23.926,28.809,61.523,6.348,0
1553807358.700,-34.180,12.207,30.762,62.988,8.301,0
1553807358.704,-12.695,6.348,30.273,72.754,44.434,0
1553807358.708,-16.113,11.230,40.039,64.453,23.438,0
1553807358.712,-17.578,33.691,34.668,43.457,-9.766,0
1553807358.716,20.996,27.344,17.090,44.922,11.719,0
1553807358.720,12.695,8.301,18.066,44.434,23.926,0
1553807358.723,-34.180,16.602,20.508,7.812,2.441,0
1553807358.727,-41.992,-11.230,51.758,-1.465,0.488,0
1553807358.731,-10.254,-9.277,42.480,25.391,25.879,0
1553807358.735,-7.812,27.832,28.809,29.297,2.441,0
1553807358.739,17.090,27.832,29.785,47.852,54.688,0
1553807358.743,41.504,12.207,17.090,66.406,60.059,0
1553807358.747,-10.742,15.137,32.227,60.059,1.953,0
1553807358.751,-17.090,15.137,26.855,67.383,52.246,0
1553807358.755,-15.625,12.207,25.879,71.289,98.145,0
1553807358.759,-6.836,24.902,25.391,68.848,66.895,0
1553807358.763,9.277,16.113,36.133,74.219,36.621,0
1553807358.766,-7.812,14.648,40.039,56.152,19.043,0
1553807358.770,-4.395,31.738,10.742,23.926,25.391,0
1553807358.774,6.348,29.785,5.371,48.340,52.246,0
1553807358.778,9.277,28.320,16.602,51.270,7.812,0
1553807358.782,43.457,37.109,5.371,65.918,12.695,0
1553807358.786,55.664,34.180,11.230,75.684,85.938,0
1553807358.790,-6.836,11.719,33.203,36.133,46.387,0
1553807358.794,-34.180,9.766,44.434,9.766,-11.230,0
1553807358.798,-10.742,23.438,46.875,21.973,29.785,0
1553807358.802,-10.742,8.301,26.367,40.039,61.523,0
1553807358.805,-26.367,2.441,26.367,22.461,58.594,0
1553807358.809,-10.254,5.371,34.180,27.832,99.121,0
1553807358.813,-1.465,-4.883,37.109,33.691,79.102,0
1553807358.817,-1.465,3.906,29.785,31.738,63.965,0
1553807358.821,-19.043,2.441,33.691,48.340,48.340,0
1553807358.825,-27.832,-0.977,43.457,42.969,11.719,0
1553807358.829,1.465,9.277,33.203,30.273,37.109,0
1553807358.833,6.348,6.348,36.621,60.059,5.859,0
1553807358.837,-0.488,7.324,40.527,86.914,-14.648,0
1553807358.841,13.672,9.766,35.156,69.824,87.402,0
1553807358.845,34.180,12.207,40.527,52.734,66.406,0
1553807358.848,30.273,12.695,46.387,51.758,6.836,0
1553807358.852,16.113,13.672,26.855,47.363,39.062,0
1553807358.856,7.812,27.344,15.625,37.109,61.035,0
1553807358.860,14.160,17.578,34.180,52.734,70.801,0
1553807358.864,26.367,3.906,29.297,63.477,37.109,0
1553807358.868,1.465,13.672,23.438,22.461,4.883,0
1553807358.872,-13.672,17.090,29.785,-6.836,15.625,0
1553807358.876,5.859,14.160,25.391,30.762,18.555,0
1553807358.880,11.719,14.160,24.902,44.922,-2.441,0
1553807358.884,-11.719,23.438,25.391,33.203,17.578,0
1553807358.888,-26.855,22.949,22.949,28.320,79.102,0
1553807358.891,-13.184,18.066,30.762,48.828,42.969,0
1553807358.895,-7.324,14.160,36.621,63.965,-18.555,0
1553807358.899,0.977,14.160,39.551,54.688,-0.977,0
1553807358.903,11.230,10.742,45.898,49.316,8.789,0
1553807358.907,18.066,13.672,30.762,44.922,20.020,0
1553807358.911,14.648,30.273,21.973,36.133,-5.859,0
1553807358.915,-6.348,22.461,34.180,39.062,-30.273,0
1553807358.919,-5.371,13.184,32.227,47.363,14.160,0
1553807358.923,9.766,30.762,24.902,38.086,31.738,0
1553807358.927,21.484,26.855,29.785,67.871,-33.691,0
1553807358.930,-4.883,19.531,41.016,48.828,-22.461,0
1553807358.934,-24.902,8.301,38.574,30.762,32.227,0
1553807358.938,7.324,12.695,25.391,43.945,25.879,0
1553807358.942,25.879,33.691,25.391,19.043,12.207,0
1553807358.946,11.230,35.156,21.484,17.090,-20.020,0
1553807358.950,4.883,26.367,13.672,20.996,6.348,0
1553807358.954,9.766,17.090,20.508,31.250,41.016,0
1553807358.958,-10.742,21.973,30.762,47.363,-14.648,0
1553807358.962,-0.977,22.461,25.879,33.691,32.715,0
1553807358.966,31.250,15.625,14.160,42.969,67.871,0
1553807358.970,14.648,20.020,16.602,48.340,6.348,0
1553807358.973,-22.949,28.320,28.320,27.344,61.035,0
1553807358.977,-18.066,32.227,31.738,20.508,104.004,0
1553807358.981,23.438,16.602,31.250,44.922,49.805,0
1553807358.985,22.949,11.719,33.691,69.824,16.113,0
1553807358.989,6.836,14.160,35.156,61.035,8.789,0
1553807358.993,10.254,20.996,24.902,52.246,-29.297,0
1553807358.997,1.953,19.531,31.250,59.082,-14.160,0
1553807359.001,3.906,12.207,42.480,63.965,48.340,0
1553807359.005,11.230,14.160,37.109,67.383,50.293,0
1553807359.009,27.832,25.879,26.367,41.504,24.414,0
1553807359.013,25.879,29.785,23.926,23.926,63.477,0
1553807359.016,6.836,21.973,28.809,36.621,34.180,0
1553807359.020,-0.488,13.672,34.668,54.688,16.602,0
1553807359.024,-9.277,14.160,36.133,47.363,86.914,0
1553807359.028,-5.371,22.461,29.785,38.574,67.871,0
1553807359.032,21.484,29.297,19.531,45.898,6.348,0
1553807359.036,28.320,34.180,13.672,31.738,20.020,0
1553807359.040,-1.465,22.949,25.391,30.273,77.637,0
1553807359.044,-2.441,18.066,28.320,35.156,22.949,0
1553807359.048,1.953,17.578,28.320,22.461,-32.227,0
1553807359.052,-20.996,18.066,34.668,22.949,33.203,0
1553807359.055,-13.184,25.391,20.020,25.391,107.422,0
1553807359.059,6.348,31.250,23.438,29.297,-5.371,0
1553807359.063,6.836,26.367,34.180,48.828,-68.848,0
1553807359.067,31.738,24.414,31.250,61.035,-23.438,0
1553807359.071,50.293,28.809,30.273,66.406,-20.020,0
1553807359.075,20.508,20.020,27.832,74.219,63.965,0
1553807359.079,-5.371,19.531,30.762,46.387,50.293,0
1553807359.083,-21.484,19.531,35.156,20.508,4.883,0
1553807359.087,-33.203,17.090,33.203,30.273,34.668,0
1553807359.091,-19.531,21.973,33.203,33.203,26.855,0
1553807359.095,4.883,20.020,30.762,29.785,34.180,0
1553807359.098,-2.930,24.414,23.926,39.062,35.156,0
1553807359.102,-4.883,27.344,17.090,29.785,41.992,0
1553807359.106,-9.277,21.484,24.414,15.137,83.984,0
1553807359.110,-35.645,15.625,31.738,10.254,45.410,0
1553807359.114,-30.273,11.719,28.320,23.926,5.859,0
1553807359.118,-9.277,12.695,28.809,38.574,7.324,0
1553807359.122,8.789,21.484,27.832,36.133,-5.371,0
1553807359.126,11.719,25.391,28.320,49.316,28.320,0
1553807359.130,0.488,27.344,27.832,28.809,61.035,0
1553807359.134,12.207,27.344,21.973,34.668,84.961,0
1553807359.138,1.465,26.855,17.578,45.410,36.621,0
1553807359.141,-17.090,18.066,23.438,40.039,11.719,0
1553807359.145,4.395,12.695,29.785,62.988,47.363,0
1553807359.149,8.301,31.738,22.461,58.105,70.801,0
1553807359.153,2.930,43.457,10.254,40.039,80.566,0
1553807359.157,4.883,12.207,24.902,63.965,17.578,0
1553807359.161,14.648,8.789,32.227,62.500,5.371,0
1553807359.165,21.484,21.484,22.461,28.809,41.016,0
1553807359.169,4.395,19.043,19.531,27.832,47.363,0
1553807359.173,11.719,19.043,30.273,71.289,54.199,0
1553807359.177,70.801,10.742,46.875,124.023,51.758,0
1553807359.180,67.383,15.625,43.945,116.211,31.250,0
1553807359.184,-0.977,28.809,27.344,47.852,59.570,0
1553807359.188,-28.320,32.227,20.508,7.324,56.152,0
1553807359.192,-33.691,28.320,16.602,13.184,54.688,0
1553807359.196,13.184,26.367,7.324,39.551,80.078,0
1553807359.200,48.340,33.203,2.930,40.039,90.332,0
1553807359.204,25.391,31.738,19.043,41.992,120.605,0
1553807359.208,-8.301,30.273,27.344,63.477,130.371,0
1553807359.212,7.324,30.273,16.602,59.570,60.059,0
1553807359.216,15.137,38.086,13.184,57.129,45.410,0
1553807359.220,1.465,52.734,10.742,41.504,63.965,0
1553807359.223,11.230,53.223,12.695,36.133,1.465,0
1553807359.227,25.879,37.109,19.531,57.129,2.930,0
1553807359.231,14.648,33.691,17.578,44.434,22.949,0
1553807359.235,10.254,32.715,17.090,49.316,10.742,0
1553807359.239,21.973,24.902,23.926,51.270,77.148,0
1553807359.243,6.348,29.297,27.344,29.785,29.297,0
1553807359.247,10.742,33.203,23.926,27.832,28.809,0
1553807359.251,22.949,36.133,21.973,44.434,44.434,0
1553807359.255,33.691,32.227,20.996,87.402,-4.395,0
1553807359.259,21.484,27.344,29.297,80.566,10.742,0
1553807359.263,-11.230,32.715,25.391,37.598,8.301,0
1553807359.266,-1.465,30.273,13.672,33.203,85.449,0
1553807359.270,7.324,34.668,18.555,47.852,74.707,0
1553807359.274,-7.324,33.203,24.902,45.410,25.391,0
1553807359.278,13.672,27.832,34.180,23.926,30.273,0
1553807359.282,31.738,33.203,29.297,43.945,63.477,0
1553807359.286,29.785,39.551,21.484,72.266,69.336,0
1553807359.290,24.902,34.668,35.156,63.477,4.395,0
1553807359.294,11.230,25.879,35.156,59.082,-2.930,0
1553807359.298,20.020,39.551,20.996,66.895,81.543,0
1553807359.302,35.156,41.016,22.461,56.152,72.266,0
1553807359.305,44.434,33.691,27.832,38.086,20.020,0
1553807359.309,13.672,37.109,27.832,40.527,58.105,0
1553807359.313,-6.836,37.598,25.391,68.848,56.152,0
1553807359.317,1.465,27.344,36.133,97.168,8.301,0
1553807359.321,37.109,23.438,37.109,77.148,11.230,0
1553807359.325,43.945,24.902,36.133,35.645,5.859,0
1553807359.329,22.461,28.809,36.621,57.617,59.570,0
1553807359.333,45.410,35.645,29.297,67.383,0.000,0
1553807359.337,33.691,26.855,35.645,70.801,-34.668,0
1553807359.341,5.859,20.996,41.992,92.773,63.477,0
1553807359.345,22.949,18.555,41.504,57.617,21.973,0
1553807359.348,20.508,24.902,36.133,47.363,-7.324,0
1553807359.352,15.137,31.738,34.180,60.059,59.570,0
1553807359.356,17.578,28.320,41.016,41.504,83.984,0
1553807359.360,25.391,26.367,38.574,59.082,46.387,0
1553807359.364,17.090,27.832,37.109,70.801,43.945,0
1553807359.368,1.953,25.391,39.062,71.777,70.312,0
1553807359.372,28.320,29.297,34.180,54.199,51.758,0
1553807359.376,39.062,34.180,28.809,47.363,43.457,0
1553807359.380,11.719,23.926,36.133,48.828,6.836,0
1553807359.384,-5.371,35.156,36.621,36.621,6.348,0
1553807359.388,54.199,45.410,20.020,76.660,89.844,0
1553807359.391,101.074,29.785,25.391,96.680,75.195,0
1553807359.395,-7.324,21.973,38.086,43.945,34.668,0
1553807359.399,-48.340,10.254,40.039,26.367,56.641,0
1553807359.403,20.020,9.277,37.109,54.199,24.902,0
1553807359.407,6.836,11.230,39.062,67.871,-20.020,0
1553807359.411,-13.672,7.324,45.898,48.340,-8.789,0
1553807359.415,-12.207,0.488,51.270,33.203,22.949,0
1553807359.419,-14.648,16.113,44.434,41.504,-4.395,0
1553807359.423,14.160,15.625,34.180,41.992,-15.625,0
1553807359.427,21.973,-0.488,40.527,44.434,47.852,0
1553807359.430,-1.953,-0.977,49.805,41.504,63.965,0
1553807359.434,13.672,-0.977,43.457,62.500,44.434,0
1553807359.438,24.902,6.348,34.668,67.871,78.125,0
1553807359.442,8.301,1.953,50.781,41.992,63.477,0
1553807359.446,7.324,0.000,52.246,46.875,-12.207,0
1553807359.450,11.719,3.906,43.945,41.016,14.648,0
1553807359.454,0.977,13.672,41.504,35.156,41.016,0
1553807359.458,4.395,13.184,41.504,43.945,21.973,0
1553807359.462,16.113,7.324,39.062,46.387,65.918,0
1553807359.466,5.859,13.184,34.668,67.871,51.270,0
1553807359.470,-15.137,13.672,31.738,81.543,27.344,0
1553807359.473,-28.320,7.324,40.039,38.574,34.180,0
1553807359.477,-23.438,13.184,34.668,20.508,46.387,0
1553807359.481,-13.184,12.207,23.926,36.621,54.199,0
1553807359.485,-6.348,18.066,35.645,52.246,34.668,0
1553807359.489,-3.418,16.113,33.203,48.340,8.789,0
1553807359.493,11.230,2.441,35.156,34.180,53.223,0
1553807359.497,16.113,9.766,38.574,42.480,63.477,0
1553807359.501,4.395,17.578,33.203,61.523,94.727,0
1553807359.505,24.414,25.391,35.156,68.359,140.137,0
1553807359.509,31.738,23.438,25.879,45.898,60.059,0
1553807359.513,14.160,20.020,26.855,43.457,11.719,0
1553807359.516,15.625,43.457,25.879,41.504,30.762,0
1553807359.520,12.695,28.809,29.297,57.617,28.320,0
1553807359.524,11.230,5.371,40.039,70.801,24.414,0
1553807359.528,5.371,15.625,35.156,48.828,-12.695,0
1553807359.532,10.742,20.996,20.996,35.156,30.762,0
1553807359.536,18.555,23.926,19.043,31.250,62.012,0
1553807359.540,13.672,27.832,21.484,39.551,4.395,0
1553807359.544,4.395,38.086,19.043,41.504,32.227,0
1553807359.548,13.672,35.156,23.438,49.805,58.105,0
1553807359.552,35.156,35.645,29.297,54.199,48.340,0
1553807359.555,30.762,36.133,28.320,51.270,62.500,0
1553807359.559,7.812,34.180,21.484,51.270,52.246,0
1553807359.563,5.859,40.527,24.414,38.086,75.195,0
1553807359.567,3.906,31.738,52.734,29.785,22.949,0
1553807359.571,12.695,26.855,45.898,25.879,-7.324,0
1553807359.575,13.184,45.410,26.367,7.812,73.730,0
1553807359.579,10.254,32.715,32.227,23.926,43.945,0
1553807359.583,17.578,18.066,31.250,50.293,29.785,0
1553807359.587,10.742,35.645,30.762,32.227,38.574,0
1553807359.591,10.742,35.156,29.785,28.320,65.430,0
1553807359.595,14.160,31.738,33.691,44.922,10.254,0
1553807359.598,-1.465,24.902,36.133,43.945,30.762,0
1553807359.602,-15.137,29.785,48.828,25.391,63.477,0
1553807359.606,-2.930,45.410,52.246,8.789,14.160,0
1553807359.610,-11.719,27.832,63.477,11.230,21.973,0
1553807359.614,-0.977,28.809,64.453,45.898,37.109,0
1553807359.618,0.488,46.875,44.434,45.898,39.062,0
1553807359.622,-20.996,46.875,31.738,3.418,33.691,0
1553807359.626,-35.156,60.059,40.039,-33.203,82.520,0
1553807359.630,-57.617,72.266,57.617,-65.430,85.938,0
1553807359.634,-81.055,71.777,58.594,-74.707,31.250,0
1553807359.638,-97.168,75.684,52.734,-86.914,6.836,0
1553807359.641,-115.234,80.078,34.668,-125.977,8.789,0
1553807359.645,-146.973,80.566,28.809,-149.414,22.949,0
1553807359.649,-163.574,85.938,44.434,-156.250,63.965,0
1553807359.653,-183.105,90.332,38.086,-209.473,70.801,0
1553807359.657,-234.375,91.797,29.297,-290.527,52.734,0
1553807359.661,-270.020,91.309,21.973,-312.500,19.043,0
1553807359.665,-257.812,116.211,-2.441,-290.039,45.410,0
1553807359.669,-282.227,96.191,-16.113,-333.008,57.617,0
1553807359.673,-286.621,38.574,-6.836,-345.215,41.504,0
1553807359.677,-239.258,83.496,-9.277,-284.668,53.711,0
1553807359.680,-229.004,150.391,-9.766,-259.277,32.227,0
1553807359.684,-220.703,166.992,3.906,-270.996,57.129,0
1553807359.688,-135.742,212.891,73.730,-204.590,31.250,0
1553807359.692,-121.582,143.066,49.316,-165.039,43.945,0
1553807359.696,-233.398,42.480,-68.359,-293.945,92.285,0
1553807359.700,-253.418,95.215,-94.727,-307.617,17.090,0
1553807359.704,-176.758,148.438,-79.590,-189.941,43.945,0
1553807359.708,-105.469,147.949,-60.059,-143.066,44.922,0
1553807359.712,-92.285,108.887,-39.062,-135.742,-42.969,0
1553807359.716,-88.867,77.148,-33.691,-91.797,23.926,0
1553807359.720,10.254,62.988,-25.879,-9.277,24.902,0
1553807359.723,66.406,49.316,-18.555,50.781,-0.977,0
1553807359.727,53.711,65.918,-23.926,54.688,24.414,0
1553807359.731,76.660,85.449,-21.484,66.895,-10.742,0
1553807359.735,107.422,44.922,-18.066,101.074,3.418,0
1553807359.739,116.699,24.414,-2.930,127.930,-3.418,0
1553807359.743,154.785,32.227,-0.977,173.340,-62.988,0
1553807359.747,197.754,21.484,4.395,213.867,-48.340,0
1553807359.751,199.707,19.531,2.441,201.172,-9.766,0
1553807359.755,199.707,20.020,3.418,193.359,-12.695,0
1553807359.759,229.004,7.812,16.113,222.656,24.902,0
1553807359.763,222.168,0.977,27.344,219.727,36.133,0
1553807359.766,208.984,-2.441,34.668,225.586,65.430,0
1553807359.770,213.379,-3.906,44.434,221.191,50.293,0
1553807359.774,228.516,-0.488,37.598,225.586,5.371,0
1553807359.778,227.539,0.488,37.598,244.629,53.223,0
1553807359.782,207.520,-0.977,41.504,233.398,70.801,0
1553807359.786,197.754,-1.465,42.969,204.590,46.875,0
1553807359.790,186.523,-4.395,52.734,195.801,41.016,0
1553807359.794,182.617,0.977,43.945,193.848,21.484,0
1553807359.798,176.270,12.695,35.156,188.965,38.574,0
1553807359.802,169.922,13.184,36.621,173.340,62.012,0
1553807359.805,151.855,12.695,40.527,162.109,5.859,0
1553807359.809,128.906,18.555,35.645,164.062,1.953,0
1553807359.813,124.023,15.137,27.832,153.320,51.270,0
1553807359.817,117.676,14.648,35.156,139.648,33.203,0
1553807359.821,115.234,17.578,40.039,135.254,17.578,0
1553807359.825,120.117,18.555,41.992,158.691,19.531,0
1553807359.829,133.789,28.320,45.898,147.949,6.348,0
1553807359.833,145.020,27.344,42.969,135.742,37.109,0
1553807359.837,107.422,19.531,48.340,141.602,39.062,0
1553807359.841,77.637,19.531,48.828,125.977,37.598,0
1553807359.845,98.145,19.531,38.574,121.094,12.695,0
1553807359.848,89.355,21.973,43.457,106.445,-11.230,0
1553807359.852,85.938,28.809,62.988,80.566,24.902,0
1553807359.856,89.355,29.297,49.805,103.027,17.090,0
1553807359.860,67.383,15.137,24.414,116.211,22.949,0
1553807359.864,56.152,6.836,20.020,93.750,11.719,0
1553807359.868,57.617,27.344,26.367,101.562,0.000,0
1553807359.872,77.148,43.945,30.273,109.863,-19.043,0
1553807359.876,63.965,28.809,19.531,91.309,-27.344,0
1553807359.880,25.879,13.672,23.926,79.590,-15.137,0
1553807359.884,13.184,11.230,24.414,77.637,-35.645,0
1553807359.888,31.250,14.648,28.809,79.102,37.598,0
1553807359.891,70.312,27.832,43.945,104.980,46.387,0
1553807359.895,95.703,39.062,53.711,142.090,33.203,0
1553807359.899,56.152,29.297,48.340,99.121,48.828,0
1553807359.903,-11.719,14.648,22.949,22.461,5.371,0
1553807359.907,-17.090,17.090,10.742,21.484,-25.879,0
1553807359.911,14.648,13.672,18.555,57.129,-34.668,0
1553807359.915,19.043,27.832,31.250,49.316,20.020,0
1553807359.919,-22.949,34.668,15.625,5.859,20.996,0
1553807359.923,-68.359,22.949,-5.859,-39.551,-18.555,0
1553807359.927,-28.320,41.992,11.230,-9.766,43.945,0
1553807359.930,-0.977,56.641,23.438,22.461,30.762,0
1553807359.934,-41.504,22.949,-12.207,-21.484,-26.367,0
1553807359.938,-73.242,-1.465,-31.250,-48.828,11.719,0
1553807359.942,-94.238,-8.301,-24.902,-56.152,49.316,0
1553807359.946,-48.828,-3.906,-3.906,-7.324,22.949,0
1553807359.950,-31.738,13.184,-2.441,6.836,17.090,0
1553807359.954,-33.203,23.926,0.977,7.324,76.172,0
1553807359.958,-38.574,16.602,17.578,11.719,11.230,0
1553807359.962,-32.715,9.277,13.672,-8.789,-61.523,0
1553807359.966,-18.066,17.578,12.207,-4.883,16.113,0
1553807359.970,-3.906,34.180,22.461,24.902,20.508,0
1553807359.973,16.602,45.898,26.367,31.250,12.207,0
1553807359.977,22.461,40.039,16.602,30.762,41.992,0
1553807359.981,37.598,37.109,15.137,40.527,-61.523,0
1553807359.985,34.668,47.852,15.625,37.598,-44.922,0
1553807359.989,20.020,56.152,21.973,57.129,45.898,0
1553807359.993,6.348,50.781,27.832,64.453,30.273,0
1553807359.997,11.230,40.039,28.809,48.340,46.875,0
1553807360.001,33.691,40.039,37.109,72.266,69.336,0
1553807360.005,14.160,35.156,37.109,70.312,60.547,0
1553807360.009,11.230,31.250,29.785,27.344,26.855,0
1553807360.013,15.625,29.785,27.344,25.879,-16.602,0
1553807360.016,0.488,26.855,26.367,38.574,-16.113,0
1553807360.020,9.277,32.227,20.508,39.551,29.785,0
1553807360.024,-8.301,33.691,25.391,37.109,26.855,0
1553807360.028,-13.672,26.855,33.203,40.039,33.691,0
1553807360.032,0.977,18.066,30.273,61.523,121.094,0
1553807360.036,-1.465,20.508,28.320,52.246,64.941,0
1553807360.040,11.719,33.203,28.320,41.016,53.223,0
1553807360.044,34.180,33.203,23.926,41.016,95.215,0
1553807360.048,37.109,27.344,21.973,36.621,18.555,0
1553807360.052,28.809,28.809,24.414,44.922,-39.062,0
1553807360.055,32.227,31.738,19.043,40.039,34.668,0
1553807360.059,14.160,35.156,21.484,38.086,29.297,0
1553807360.063,4.395,35.156,24.902,52.246,0.488,0
1553807360.067,13.184,28.809,23.438,39.062,69.336,0
1553807360.071,13.672,22.949,30.273,28.320,73.242,0
1553807360.075,7.324,25.391,32.715,38.574,77.637,0
1553807360.079,-5.371,27.832,27.344,36.621,12.695,0
1553807360.083,-20.020,21.484,26.855,27.832,30.273,0
1553807360.087,-15.625,16.602,30.762,13.184,95.215,0
1553807360.091,-9.277,22.949,26.367,-1.953,50.293,0
1553807360.095,-21.973,25.391,30.273,25.391,-34.668,0
1553807360.098,-33.691,23.926,39.062,36.621,-41.504,0
1553807360.102,-42.480,26.855,33.203,-4.395,10.742,0
1553807360.106,-45.410,32.227,22.461,-17.578,61.523,0
1553807360.110,-29.785,43.457,15.137,-2.930,81.055,0
1553807360.114,-60.059,46.387,28.320,-52.734,41.992,0
1553807360.118,-115.234,39.551,36.133,-79.590,79.102,0
1553807360.122,-99.609,38.574,32.715,-52.734,51.270,0
1553807360.126,-110.352,39.551,25.391,-77.148,35.645,0
1553807360.130,-107.910,40.039,30.273,-83.496,19.043,0
1553807360.134,-103.027,29.297,39.551,-86.426,12.695,0
1553807360.138,-150.391,41.016,45.898,-121.582,23.926,0
1553807360.141,-162.598,48.340,47.852,-138.184,16.113,0
1553807360.145,-158.691,25.879,46.875,-133.789,70.312,0
1553807360.149,-140.137,40.527,61.035,-134.766,67.383,0
1553807360.153,-144.531,36.133,60.059,-149.902,19.043,0
1553807360.157,-185.547,8.301,69.824,-149.414,3.906,0
1553807360.161,-226.562,18.066,83.984,-182.129,-6.348,0
1553807360.165,-232.910,25.391,76.660,-189.453,-7.324,0
1553807360.169,-232.422,14.160,69.824,-179.688,42.969,0
1553807360.173,-218.262,9.766,66.406,-189.941,56.152,0
1553807360.177,-225.098,26.367,66.406,-217.773,16.113,0
1553807360.180,-248.535,27.344,71.289,-232.910,51.758,0
1553807360.184,-219.727,18.555,74.219,-196.777,52.734,0
1553807360.188,-222.168,36.133,60.547,-197.266,51.758,0
1553807360.192,-227.051,40.527,54.688,-223.633,67.871,0
1553807360.196,-233.887,26.367,64.941,-197.754,85.449,0
1553807360.200,-198.242,37.598,56.152,-176.270,94.238,0
1553807360.204,-174.316,39.062,52.734,-162.109,87.891,0
1553807360.208,-195.801,23.926,58.105,-148.926,41.504,0
1553807360.212,-188.965,25.879,52.246,-148.926,-9.766,0
1553807360.216,-192.871,24.414,49.805,-125.488,-40.527,0
1553807360.220,-162.598,22.461,51.758,-88.379,-57.129,0
1553807360.223,-129.395,25.879,51.270,-57.129,-28.809,0
1553807360.227,-95.215,22.949,49.805,-36.133,42.969,0
1553807360.231,-18.555,12.207,52.734,27.344,48.340,0
1553807360.235,16.113,1.465,54.199,76.172,-8.789,0
1553807360.239,20.996,4.395,48.340,65.918,28.809,0
1553807360.243,53.711,10.254,45.898,116.699,30.273,0
1553807360.247,123.535,8.301,45.898,180.664,-10.742,0
1553807360.251,148.926,5.371,41.016,182.617,18.066,0
1553807360.255,139.160,-12.207,37.109,204.102,58.594,0
1553807360.259,166.016,-16.113,37.598,232.910,55.176,0
1553807360.263,179.199,-13.184,35.645,249.023,38.574,0
1553807360.266,207.520,-32.227,40.039,257.324,52.246,0
1553807360.270,226.562,-36.133,41.992,261.719,24.902,0
1553807360.274,221.680,-27.344,39.062,297.363,20.996,0
1553807360.278,236.328,-23.438,44.434,313.965,59.570,0
1553807360.282,273.926,-21.973,47.852,317.383,20.020,0
1553807360.286,258.789,-20.508,48.828,308.105,5.859,0
1553807360.290,216.797,-25.391,51.758,299.316,7.324,0
1553807360.294,219.727,-27.832,56.641,303.711,-0.488,0
1553807360.298,223.633,-24.414,55.176,292.480,-0.977,0
1553807360.302,207.031,-25.391,51.758,266.602,-0.488,0
1553807360.305,204.590,-24.902,54.199,266.113,33.691,0
1553807360.309,209.961,-21.484,53.711,282.227,56.641,0
1553807360.313,188.477,-20.996,51.270,273.438,41.992,0
1553807360.317,165.527,-24.414,49.805,256.836,84.473,0
1553807360.321,156.738,-27.344,47.363,248.047,104.492,0
1553807360.325,145.020,-25.879,48.828,238.770,20.996,0
1553807360.329,157.715,-21.484,48.340,222.168,51.758,0
1553807360.333,153.320,-16.113,42.969,203.613,67.871,0
1553807360.337,124.512,-12.695,40.039,190.918,20.508,0
1553807360.341,108.887,-12.695,43.457,197.266,56.641,0
1553807360.345,109.375,-12.207,44.922,196.289,63.477,0
1553807360.348,115.234,-8.301,42.969,184.570,44.434,0
1553807360.352,92.285,1.953,38.086,160.156,87.402,0
1553807360.356,87.402,7.324,36.621,146.484,55.176,0
1553807360.360,96.191,5.371,38.574,153.809,38.574,0
1553807360.364,84.961,5.859,36.621,152.832,16.113,0
1553807360.368,86.426,9.277,35.156,135.254,-12.207,0
1553807360.372,88.379,9.277,37.598,117.676,-27.832,0
1553807360.376,75.195,9.766,37.598,118.164,-8.789,0
1553807360.380,57.129,8.789,37.598,127.441,-28.809,0
1553807360.384,43.945,7.324,40.527,130.859,-59.082,0
1553807360.388,58.105,11.230,38.086,112.793,-41.992,0
1553807360.391,75.684,10.742,38.574,109.863,1.465,0
1553807360.395,67.383,10.742,41.992,109.375,63.965,0
1553807360.399,57.129,10.742,38.574,110.352,37.598,0
1553807360.403,48.828,13.672,36.621,113.770,80.078,0
1553807360.407,30.273,13.672,35.156,76.172,117.676,0
1553807360.411,25.879,12.207,33.203,61.035,41.504,0
1553807360.415,31.738,13.184,32.715,55.664,2.930,0
1553807360.419,30.273,12.695,33.203,91.797,37.109,0
1553807360.423,34.180,11.719,31.250,97.656,52.734,0
1553807360.427,39.551,11.719,28.320,55.176,26.855,0
1553807360.430,9.766,11.230,27.832,48.828,37.598,0
1553807360.434,20.508,12.695,21.973,63.477,83.008,0
1553807360.438,46.387,14.648,25.879,92.285,16.113,0
1553807360.442,19.531,18.066,32.715,65.918,-21.973,0
1553807360.446,15.625,24.414,24.414,31.250,41.016,0
1553807360.450,12.695,29.785,22.461,39.551,54.199,0
1553807360.454,5.371,22.949,29.785,39.062,-9.766,0
1553807360.458,14.648,11.719,36.621,49.316,-9.766,0
1553807360.462,-0.488,14.648,35.645,41.504,59.570,0
1553807360.466,0.977,17.090,33.691,56.641,44.434,0
1553807360.470,19.531,16.113,31.738,72.266,35.156,0
1553807360.473,24.902,20.020,29.297,61.523,-6.348,0
1553807360.477,35.645,22.949,27.832,44.922,-10.254,0
1553807360.481,18.555,22.949,25.391,31.738,29.297,0
1553807360.485,10.254,20.996,27.832,33.691,9.277,0
1553807360.489,6.836,16.602,29.785,42.969,-25.879,0
1553807360.493,-6.836,17.578,30.762,46.875,2.930,0
1553807360.497,0.977,17.090,34.180,41.992,38.086,0
1553807360.501,3.906,14.160,31.250,43.457,69.336,0
1553807360.505,24.902,17.090,26.855,45.410,90.332,0
1553807360.509,22.461,21.973,22.949,34.180,-13.672,0
1553807360.513,3.906,23.926,23.438,47.852,6.348,0
1553807360.516,3.906,21.973,25.879,41.016,86.426,0
1553807360.520,-6.836,24.414,26.367,7.812,62.012,0
1553807360.524,-11.719,26.367,30.273,14.648,21.484,0
1553807360.528,5.371,29.297,28.809,20.020,38.574,0
1553807360.532,16.602,29.297,27.832,19.043,59.082,0
1553807360.536,-2.930,22.461,37.109,31.738,30.273,0
1553807360.540,-11.230,20.020,41.504,49.805,24.414,0
1553807360.544,-18.066,19.043,41.016,59.570,-6.348,0
1553807360.548,-11.719,17.578,38.086,49.805,4.883,0
1553807360.552,5.859,18.555,34.668,25.879,0.000,0
1553807360.555,4.395,17.578,38.574,32.227,9.766,0
1553807360.559,19.043,15.625,41.504,42.969,-19.531,0
1553807360.563,30.762,16.602,38.086,37.109,-15.137,0
1553807360.567,-9.277,16.602,37.109,47.852,52.246,0
1553807360.571,-12.695,16.602,37.598,60.547,53.223,0
1553807360.575,16.113,15.625,33.203,64.941,45.898,0
1553807360.579,-6.348,16.113,32.715,45.898,41.016,0
1553807360.583,-6.836,20.996,28.809,19.531,28.320,0
1553807360.587,-0.977,20.020,23.926,9.766,50.293,0
1553807360.591,3.906,19.043,31.250,30.273,15.137,0
1553807360.595,20.996,28.320,31.738,48.340,33.203,0
1553807360.598,10.254,31.250,24.902,50.781,94.238,0
1553807360.602,-7.812,28.320,26.855,29.297,41.016,0
1553807360.606,-2.930,27.344,30.273,51.758,45.410,0
1553807360.610,6.348,28.809,26.855,49.805,43.457,0
1553807360.614,14.160,31.250,26.855,34.180,-24.902,0
1553807360.618,9.766,25.879,33.203,46.387,20.020,0
1553807360.622,17.090,22.461,32.715,37.109,28.320,0
1553807360.626,25.391,26.855,32.227,43.945,29.785,0
1553807360.630,0.488,22.461,40.039,63.965,51.758,0
1553807360.634,-0.977,16.602,41.504,66.406,-16.113,0
1553807360.638,13.184,18.555,40.039,74.219,19.531,0
1553807360.641,37.598,22.461,35.156,44.922,79.102,0
1553807360.645,31.250,22.949,27.832,23.438,76.172,0
1553807360.649,-4.395,19.531,28.809,37.598,57.617,0
1553807360.653,-2.441,13.672,31.738,43.457,67.383,0
1553807360.657,-6.348,13.672,33.691,62.012,37.598,0
1553807360.661,-3.906,20.020,29.785,56.641,18.066,0
1553807360.665,1.953,19.043,26.367,33.203,20.508,0
1553807360.669,17.578,23.926,22.461,28.809,0.977,0
1553807360.673,43.457,31.738,19.531,26.367,24.902,0
1553807360.677,28.320,30.273,21.484,38.086,52.246,0
1553807360.680,12.207,30.762,21.973,49.805,47.363,0
1553807360.684,31.250,35.645,19.531,44.922,14.160,0
1553807360.688,57.617,39.551,17.578,46.875,37.598,0
1553807360.692,51.270,40.039,23.926,44.922,34.180,0
1553807360.696,16.602,31.250,34.180,48.828,15.625,0
1553807360.700,13.672,30.273,32.715,58.594,80.566,0
1553807360.704,12.207,35.156,27.832,54.199,85.449,0
1553807360.708,8.789,27.832,31.738,57.617,68.848,0
1553807360.712,21.484,20.996,35.156,58.105,48.340,0
1553807360.716,4.883,21.973,32.715,59.570,40.527,0
1553807360.720,7.324,24.414,28.809,58.105,52.246,0
1553807360.723,23.926,22.949,33.203,54.199,67.383,0
1553807360.727,19.531,24.414,34.668,54.688,62.012,0
1553807360.731,15.625,25.879,32.227,51.270,68.359,0
1553807360.735,11.719,22.461,32.227,68.848,68.359,0
1553807360.739,19.531,24.902,29.785,80.078,11.230,0
1553807360.743,1.953,22.461,26.367,47.363,40.039,0
1553807360.747,-8.789,20.020,26.367,41.992,72.754,0
1553807360.751,23.438,26.855,25.879,28.320,64.941,0
1553807360.755,30.273,27.344,29.297,16.602,11.230,0
1553807360.759,11.230,23.926,28.809,14.648,56.641,0
1553807360.763,19.531,30.273,24.902,15.137,80.566,0
1553807360.766,38.086,34.180,28.809,33.203,22.949,0
1553807360.770,34.668,35.645,26.855,48.340,30.273,0
1553807360.774,16.602,37.109,24.902,59.570,25.391,0
1553807360.778,13.184,35.645,23.438,40.039,20.020,0
1553807360.782,29.297,37.109,18.555,13.672,24.902,0
1553807360.786,27.344,34.668,20.996,32.227,41.504,0
1553807360.790,25.391,31.738,23.926,46.875,48.828,0
1553807360.794,35.156,35.645,23.438,36.133,24.414,0
1553807360.798,10.742,34.180,26.855,25.879,24.902,0
1553807360.802,-14.160,31.250,26.367,26.367,74.219,0
1553807360.805,10.254,31.738,19.531,26.367,29.297,0
1553807360.809,13.184,27.832,21.973,30.273,6.836,0
1553807360.813,-5.371,25.879,26.855,29.297,62.012,0
1553807360.817,-10.742,24.414,22.949,15.137,80.566,0
1553807360.821,-20.996,23.438,21.973,25.391,28.809,0
1553807360.825,-10.254,23.926,23.926,40.527,20.996,0
1553807360.829,2.441,21.973,24.902,42.480,44.922,0
1553807360.833,3.418,22.949,24.902,36.621,34.180,0
1553807360.837,5.859,24.414,27.344,23.438,43.945,0
1553807360.841,10.742,26.855,27.832,26.855,64.453,0
1553807360.845,10.742,28.809,25.879,32.715,31.738,0
1553807360.848,5.371,27.832,30.273,53.223,43.457,0
1553807360.852,-5.371,27.832,31.738,77.637,57.129,0
1553807360.856,-2.930,24.414,28.320,54.688,28.320,0
1553807360.860,16.602,21.973,28.320,33.203,34.180,0
1553807360.864,-5.859,22.949,30.273,24.414,50.781,0
1553807360.868,-17.578,21.973,31.250,8.789,53.711,0
1553807360.872,-8.301,20.996,27.832,15.137,58.105,0
1553807360.876,-18.066,20.996,31.250,33.203,13.184,0
1553807360.880,-5.371,27.832,32.227,29.297,0.488,0
1553807360.884,-1.953,33.691,25.391,14.648,31.250,0
1553807360.888,2.441,27.832,24.902,25.391,11.230,0
1553807360.891,5.859,26.367,29.297,42.969,25.879,0
1553807360.895,-16.602,27.832,31.250,41.992,42.969,0
1553807360.899,-7.324,26.367,33.203,26.367,36.133,0
1553807360.903,3.418,24.414,37.109,31.738,29.785,0
1553807360.907,-5.371,27.344,37.109,31.738,28.320,0
1553807360.911,5.859,30.273,32.715,39.062,26.367,0
1553807360.915,6.348,29.785,30.762,51.270,82.031,0
1553807360.919,5.371,30.273,34.668,62.012,58.105,0
1553807360.923,13.184,28.809,39.551,57.129,-8.789,0
1553807360.927,35.156,26.367,39.062,19.531,23.438,0
1553807360.930,35.156,27.344,38.086,26.855,57.617,0
1553807360.934,6.348,28.809,40.039,57.129,67.383,0
1553807360.938,12.695,25.879,40.527,36.621,19.043,0
1553807360.942,20.508,25.391,33.691,22.461,0.977,0
1553807360.946,4.395,26.367,30.762,23.438,-7.812,0
1553807360.950,14.648,30.273,28.809,25.879,-2.930,0
1553807360.954,25.391,35.156,28.809,33.691,1.953,0
1553807360.958,11.719,35.156,29.785,26.367,-2.930,0
1553807360.962,7.324,36.133,26.367,19.043,10.254,0
1553807360.966,20.508,36.133,27.344,33.203,18.555,0
1553807360.970,16.113,30.273,31.738,33.203,68.848,0
1553807360.973,-2.930,26.855,31.738,25.879,35.156,0
1553807360.977,-2.441,27.832,28.809,21.484,-35.156,0
1553807360.981,13.184,26.367,28.320,15.625,8.301,0
1553807360.985,11.719,26.855,31.738,39.551,40.039,0
1553807360.989,-3.418,28.320,30.273,46.387,63.965,0
1553807360.993,-5.371,26.367,26.367,31.250,103.516,0
1553807360.997,-0.488,25.879,30.273,25.879,73.242,0
1553807361.001,1.953,28.320,26.855,16.113,62.500,0
1553807361.005,-5.859,30.762,23.438,17.090,78.613,0
1553807361.009,3.906,32.227,29.297,25.879,45.410,0
1553807361.013,33.203,30.273,31.250,32.715,13.672,0
1553807361.016,22.949,31.250,30.762,33.203,-35.645,0
1553807361.020,10.742,33.691,29.297,32.227,-3.906,0
1553807361.024,15.137,36.133,30.273,34.180,49.316,0
1553807361.028,21.484,41.016,36.133,32.715,54.199,0
1553807361.032,29.785,41.016,36.133,38.574,49.316,0
1553807361.036,13.672,36.133,34.180,34.180,0.000,0
1553807361.040,-2.441,34.668,32.227,28.809,87.402,0
1553807361.044,0.977,33.691,31.250,30.762,87.402,0
1553807361.048,-5.371,33.203,31.738,31.250,32.227,0
1553807361.052,-1.953,32.227,33.691,27.344,49.316,0
1553807361.055,15.625,32.715,36.621,21.973,-5.859,0
1553807361.059,23.926,36.621,38.574,22.461,-47.852,0
1553807361.063,10.254,34.180,40.527,6.836,16.602,0
1553807361.067,-4.395,31.250,40.039,7.812,71.289,0
1553807361.071,6.836,36.133,35.156,10.254,12.207,0
1553807361.075,3.418,36.621,36.133,11.719,24.902,0
1553807361.079,-5.371,33.203,39.062,15.625,43.945,0
1553807361.083,-15.625,29.785,38.574,18.066,45.898,0
1553807361.087,-20.508,24.414,35.645,16.602,50.293,0
1553807361.091,5.859,23.926,31.738,16.113,9.766,0
1553807361.095,14.648,26.855,23.926,32.227,73.242,0
1553807361.098,19.531,31.250,17.578,20.020,49.316,0
1553807361.102,15.137,33.203,22.461,9.766,21.973,0
1553807361.106,-6.348,29.785,25.391,11.719,55.664,0
1553807361.110,-1.953,37.109,21.973,4.883,34.180,0
1553807361.114,3.418,31.250,28.809,15.625,52.734,0
1553807361.118,-4.883,21.484,38.086,22.949,27.344,0
1553807361.122,-5.859,28.320,40.527,17.090,52.734,0
1553807361.126,-12.207,27.832,41.504,18.066,29.785,0
1553807361.130,-9.277,26.367,36.621,18.555,9.277,0
1553807361.134,2.930,30.273,34.180,14.648,62.012,0
1553807361.138,0.000,31.738,35.156,24.902,23.926,0
1553807361.141,-0.488,31.738,31.738,32.227,73.730,0
1553807361.145,9.277,30.762,27.344,23.926,61.523,0
1553807361.149,24.902,29.785,26.367,12.695,-16.113,0
1553807361.153,35.156,29.785,29.785,12.207,15.137,0
1553807361.157,30.762,31.250,32.715,24.414,15.137,0
1553807361.161,26.367,34.180,32.715,33.691,-23.438,0
1553807361.165,32.227,37.598,30.273,23.438,64.941,0
1553807361.169,33.691,38.086,30.762,29.297,76.660,0
1553807361.173,31.738,35.156,31.738,27.832,20.996,0
1553807361.177,26.367,33.203,33.691,23.438,-43.457,0
1553807361.180,28.320,35.156,36.133,41.016,-45.898,0
1553807361.184,37.109,40.527,30.762,54.688,13.672,0
1553807361.188,22.949,41.016,33.203,46.387,62.500,0
1553807361.192,18.555,36.621,36.621,31.738,43.945,0
1553807361.196,18.066,29.297,32.227,20.508,9.766,0
1553807361.200,6.348,29.297,27.832,11.230,20.020,0
1553807361.204,-1.953,34.668,24.414,14.648,17.090,0
1553807361.208,-2.441,29.785,25.879,22.461,49.316,0
1553807361.212,1.953,23.926,27.344,20.020,62.012,0
1553807361.216,16.602,27.344,25.879,21.484,59.570,0
1553807361.220,20.508,28.320,26.367,20.508,45.410,0
1553807361.223,17.090,26.855,27.832,23.926,20.996,0
1553807361.227,19.531,30.273,28.809,36.621,0.000,0
1553807361.231,17.090,27.344,33.203,33.691,35.645,0
1553807361.235,16.602,27.832,34.180,29.297,138.672,0
1553807361.239,20.996,30.762,29.785,26.367,47.852,0
1553807361.243,29.785,30.273,26.855,33.203,-39.062,0
1553807361.247,32.227,31.738,29.297,41.992,7.812,0
1553807361.251,20.996,30.273,33.203,27.344,29.297,0
1553807361.255,-1.465,27.832,29.785,12.695,85.449,0
1553807361.259,-11.719,31.250,26.367,2.930,86.426,0
1553807361.263,-4.883,34.180,27.344,10.254,55.176,0
1553807361.266,9.277,30.762,28.809,23.926,71.289,0
1553807361.270,13.672,30.273,34.180,29.297,62.500,0
1553807361.274,4.395,29.297,33.691,31.738,46.875,0
1553807361.278,-3.418,27.832,31.738,27.832,35.156,0
1553807361.282,-7.812,25.391,29.297,33.203,-13.184,0
1553807361.286,0.488,27.832,24.414,32.227,56.641,0
1553807361.290,3.418,30.273,23.438,12.207,85.938,0
1553807361.294,8.789,35.156,21.973,13.184,15.137,0
1553807361.298,10.254,35.156,21.973,19.531,13.672,0
1553807361.302,-3.418,28.320,24.902,5.859,15.625,0
1553807361.305,11.230,29.785,24.902,9.766,10.742,0
1553807361.309,21.484,28.809,27.344,29.785,38.086,0
1553807361.313,10.254,29.297,26.367,17.090,79.102,0
1553807361.317,-15.137,30.273,21.484,7.324,53.223,0
1553807361.321,-4.395,31.738,24.902,13.672,46.387,0
1553807361.325,3.906,36.621,26.855,17.578,48.340,0
1553807361.329,-7.324,30.273,23.926,21.973,25.391,0
1553807361.333,1.953,27.832,24.902,21.973,26.855,0
1553807361.337,-1.953,32.227,29.785,21.484,77.637,0
1553807361.341,-4.395,27.344,28.809,29.297,54.199,0
1553807361.345,14.160,28.809,26.367,29.785,31.738,0
1553807361.348,13.184,30.273,21.973,10.742,23.438,0
1553807361.352,3.906,35.645,21.484,21.484,62.500,0
1553807361.356,16.602,41.016,26.855,42.969,25.391,0
1553807361.360,22.949,36.133,27.344,40.039,16.113,0
1553807361.364,26.367,36.133,30.273,40.039,82.520,0
1553807361.368,29.297,34.180,31.738,46.875,59.570,0
1553807361.372,16.602,30.762,30.762,43.945,55.664,0
1553807361.376,15.137,30.762,35.156,39.062,64.941,0
1553807361.380,14.648,30.762,36.133,42.969,-14.648,0
1553807361.384,1.953,28.809,30.273,20.020,-31.250,0
1553807361.388,11.719,26.855,30.273,15.625,19.043,0
1553807361.391,8.301,24.414,31.250,16.113,-15.137,0
1553807361.395,-3.906,25.879,28.809,19.531,12.207,0
1553807361.399,4.883,29.297,27.344,36.621,37.598,0
1553807361.403,14.160,34.668,36.133,39.551,10.742,0
1553807361.407,10.742,39.062,39.062,38.574,17.578,0
1553807361.411,6.836,33.203,35.156,37.598,-9.277,0
1553807361.415,5.859,29.785,31.250,36.133,-3.906,0
1553807361.419,12.695,34.180,26.855,28.320,5.859,0
1553807361.423,20.508,31.250,35.645,36.621,37.598,0
1553807361.427,12.207,26.855,31.738,35.645,71.289,0
1553807361.430,7.812,40.039,27.344,27.832,64.453,0
1553807361.434,26.367,44.434,37.598,41.016,41.992,0
1553807361.438,30.762,36.133,38.574,47.363,44.922,0
1553807361.442,24.902,36.133,34.668,37.109,27.344,0
1553807361.446,13.672,29.785,24.414,32.715,-0.977,0
1553807361.450,4.883,22.949,15.625,29.785,46.387,0
1553807361.454,18.066,30.762,20.508,35.645,52.246,0
1553807361.458,9.277,28.809,25.879,34.668,42.969,0
1553807361.462,14.648,28.320,29.785,34.668,40.039,0
1553807361.466,20.508,30.273,31.738,34.180,11.230,0
1553807361.470,0.488,31.738,32.227,37.109,56.641,0
1553807361.473,14.648,37.598,35.645,46.387,43.457,0
1553807361.477,30.273,37.598,34.668,38.574,4.883,0
1553807361.481,23.438,36.133,32.715,45.410,82.031,0
1553807361.485,29.297,32.715,27.344,37.598,43.457,0
1553807361.489,46.387,32.227,24.414,48.828,52.246,0
1553807361.493,49.316,40.039,31.250,70.801,52.734,0
1553807361.497,24.414,35.645,31.738,34.668,3.906,0
1553807361.501,-6.836,24.414,32.715,8.301,42.969,0
1553807361.505,-4.883,32.227,50.781,28.809,44.922,0
1553807361.509,12.695,27.832,49.316,45.410,-23.438,0
1553807361.513,-3.906,12.207,34.668,26.855,-43.945,0
1553807361.516,2.930,10.742,34.668,29.297,20.020,0
1553807361.520,11.230,11.230,41.016,43.457,44.922,0
1553807361.524,5.859,14.160,41.016,31.738,72.266,0
1553807361.528,16.113,20.996,37.109,20.996,29.297,0
1553807361.532,24.414,20.508,39.551,26.855,-20.996,0
1553807361.536,25.391,23.438,44.434,45.410,33.691,0
1553807361.540,13.184,19.043,37.109,42.480,104.004,0
1553807361.544,7.324,10.742,32.227,33.691,79.590,0
1553807361.548,17.578,18.555,37.109,52.734,5.859,0
1553807361.552,15.137,24.414,41.992,58.594,-23.926,0
1553807361.555,13.672,26.367,41.016,46.875,-28.320,0
1553807361.559,23.438,25.391,34.668,32.715,-20.020,0
1553807361.563,7.324,19.043,34.668,29.297,4.883,0
1553807361.567,8.301,18.555,35.156,28.320,28.809,0
1553807361.571,10.254,24.414,32.227,24.414,-1.465,0
1553807361.575,0.488,30.762,37.109,27.832,43.457,0
1553807361.579,11.230,26.367,36.133,29.297,66.895,0
1553807361.583,13.184,27.832,36.133,36.621,2.441,0
1553807361.587,16.602,34.180,42.969,33.691,36.621,0
1553807361.591,21.484,28.320,39.062,21.484,75.684,0
1553807361.595,15.137,28.320,29.785,18.555,65.918,0
1553807361.598,13.672,30.273,28.809,23.926,-3.418,0
1553807361.602,16.602,29.785,33.691,35.156,26.855,0
1553807361.606,14.648,22.949,31.250,36.133,55.176,0
1553807361.610,20.020,22.461,34.668,43.945,18.066,0
1553807361.614,29.785,32.227,37.109,53.223,44.434,0
1553807361.618,27.344,33.203,30.762,45.898,58.594,0
1553807361.622,36.133,41.992,34.668,54.199,34.668,0
1553807361.626,39.062,37.109,30.273,45.898,47.852,0
1553807361.630,21.484,20.508,25.879,19.043,35.645,0
1553807361.634,14.648,23.926,25.391,20.020,29.297,0
1553807361.638,11.230,29.785,20.020,10.742,36.621,0
1553807361.641,14.648,33.203,24.414,14.160,-82.031,0
1553807361.645,13.672,31.250,30.762,31.250,-74.707,0
1553807361.649,16.602,35.156,27.344,27.832,26.367,0
1553807361.653,22.461,37.598,17.578,22.461,20.508,0
1553807361.657,17.090,33.691,20.996,29.785,19.531,0
1553807361.661,25.391,28.320,25.879,32.715,29.785,0
1553807361.665,40.527,31.738,27.832,39.551,15.625,0
1553807361.669,41.992,36.621,31.738,44.922,-18.066,0
1553807361.673,34.668,36.621,31.738,38.086,-5.859,0
1553807361.677,32.227,38.574,35.645,29.785,22.461,0
1553807361.680,12.207,28.320,31.250,12.207,58.594,0
1553807361.684,18.555,26.367,25.879,26.367,56.152,0
1553807361.688,28.320,35.156,26.855,35.156,62.988,0
1553807361.692,10.254,27.832,21.973,18.066,58.594,0
1553807361.696,13.672,25.879,21.973,25.879,68.359,0
1553807361.700,23.438,32.715,23.926,42.480,69.824,0
1553807361.704,30.762,36.133,23.926,41.016,57.617,0
1553807361.708,23.438,32.227,22.949,22.461,27.832,0
1553807361.712,18.066,36.133,26.367,8.301,27.832,0
1553807361.716,20.996,40.039,35.645,10.254,88.379,0
1553807361.720,18.066,39.062,35.645,2.930,51.758,0
1553807361.723,21.484,44.434,36.621,0.977,30.762,0
1553807361.727,21.484,40.527,37.109,24.414,47.852,0
1553807361.731,13.184,36.133,28.320,27.832,84.961,0
1553807361.735,12.695,36.621,25.391,13.184,114.258,0
1553807361.739,16.602,37.109,28.809,17.090,62.500,0
1553807361.743,15.625,38.574,27.832,23.438,-9.277,0
1553807361.747,10.254,36.133,23.926,24.414,8.301,0
1553807361.751,19.043,35.156,23.926,35.156,41.504,0
1553807361.755,32.715,38.574,21.973,31.738,20.020,0
1553807361.759,33.691,39.062,21.973,26.855,15.137,0
1553807361.763,38.086,38.574,25.879,30.273,-32.227,0
1553807361.766,39.062,39.551,24.902,20.996,-6.836,0
1553807361.770,24.414,36.621,25.879,19.531,9.766,0
1553807361.774,7.324,31.738,26.855,30.273,-9.766,0
1553807361.778,15.625,36.621,29.785,35.645,-21.484,0
1553807361.782,32.227,41.992,28.809,32.227,24.902,0
1553807361.786,17.090,34.668,17.578,27.344,83.496,0
1553807361.790,-8.789,33.691,15.625,23.926,80.566,0
1553807361.794,-9.277,32.715,24.414,14.160,10.254,0
1553807361.798,-2.441,31.738,31.738,7.324,1.465,0
1553807361.802,-5.371,30.762,29.785,5.371,43.457,0
1553807361.805,-0.977,29.297,27.832,10.742,71.777,0
1553807361.809,-0.977,28.809,27.832,12.695,66.406,0
1553807361.813,8.789,29.297,26.855,12.695,12.207,0
1553807361.817,23.438,34.668,28.809,20.996,8.301,0
1553807361.821,20.020,30.273,28.809,31.250,28.320,0
1553807361.825,32.715,36.133,35.645,52.734,44.922,0
1553807361.829,43.945,53.223,43.945,67.383,19.043,0
1553807361.833,25.391,45.410,27.832,47.852,33.203,0
1553807361.837,24.902,38.574,22.949,39.062,50.293,0
1553807361.841,23.926,39.062,26.855,39.062,38.574,0
1553807361.845,11.719,33.691,19.531,20.996,35.645,0
1553807361.848,16.602,35.645,20.996,15.625,50.781,0
1553807361.852,21.973,34.668,28.320,27.344,7.324,0
1553807361.856,20.020,35.645,30.762,29.785,-21.484,0
1553807361.860,19.531,39.551,29.785,33.203,16.602,0
1553807361.864,18.066,39.551,29.785,38.086,71.777,0
1553807361.868,20.508,39.551,30.273,36.133,89.844,0
1553807361.872,19.043,39.062,27.344,36.621,75.195,0
1553807361.876,17.578,38.086,28.320,38.086,82.520,0
1553807361.880,21.484,40.527,33.203,46.875,71.289,0
1553807361.884,25.879,40.527,34.180,43.945,20.508,0
1553807361.888,24.902,39.551,28.809,32.227,15.625,0
1553807361.891,31.250,44.922,33.203,39.551,31.250,0
1553807361.895,35.156,42.480,29.297,35.645,23.926,0
1553807361.899,23.438,35.645,17.090,22.461,48.828,0
1553807361.903,9.277,36.133,22.949,21.973,66.406,0
1553807361.907,22.461,35.645,24.902,14.160,38.086,0
1553807361.911,35.645,35.645,26.855,20.508,6.836,0
1553807361.915,27.832,37.598,35.156,28.809,22.949,0
1553807361.919,18.555,38.574,34.180,27.832,-20.996,0
1553807361.923,8.789,32.715,33.203,25.391,-22.461,0
1553807361.927,6.348,27.832,35.156,23.438,38.086,0
1553807361.930,9.766,31.250,37.109,32.227,64.453,0
1553807361.934,15.137,30.273,32.227,38.086,46.875,0
1553807361.938,25.879,35.156,32.227,43.457,64.941,0
1553807361.942,36.133,53.223,50.293,64.453,23.438,0
1553807361.946,20.508,43.945,43.945,40.039,-8.789,0
1553807361.950,6.348,19.043,16.113,0.000,34.180,0
1553807361.954,12.695,21.973,12.207,2.930,-7.812,0
1553807361.958,18.555,30.273,21.973,13.672,-8.789,0
1553807361.962,20.996,33.691,30.762,13.672,22.949,0
1553807361.966,22.949,32.227,30.762,14.160,45.410,0
1553807361.970,37.598,27.832,24.414,20.020,36.621,0
