timestamps,TP9,AF7,AF8,TP10,Right AUX,Marker0
1542908066.479,-43.945,53.223,47.852,-33.203,27.344,0
1542908066.483,-77.148,51.758,48.828,-78.613,24.902,0
1542908066.487,-95.703,62.500,45.898,-97.168,25.391,0
1542908066.491,-106.934,70.801,52.246,-102.051,33.691,0
1542908066.494,-138.672,76.660,59.570,-125.488,8.301,0
1542908066.498,-165.039,75.195,61.035,-148.438,37.109,0
1542908066.502,-178.711,76.172,62.500,-166.992,37.598,0
1542908066.506,-182.617,81.055,64.941,-169.922,19.531,0
1542908066.510,-178.711,78.125,65.430,-176.270,41.016,0
1542908066.514,-174.316,79.102,59.570,-185.547,74.219,0
1542908066.518,-171.875,77.637,50.781,-182.129,98.633,0
1542908066.522,-171.387,69.824,37.598,-171.387,39.551,0
1542908066.526,-145.020,72.754,38.574,-152.344,3.418,0
1542908066.530,-132.812,68.359,46.875,-126.465,12.207,0
1542908066.534,-124.023,62.012,40.039,-106.934,46.387,0
1542908066.537,-97.656,66.406,32.715,-93.262,47.363,0
1542908066.541,-83.008,63.965,31.738,-75.195,37.109,0
1542908066.545,-67.871,48.340,25.879,-60.547,27.344,0
1542908066.549,-44.922,44.922,19.531,-31.738,59.570,0
1542908066.553,-19.043,55.664,26.367,-8.789,115.234,0
1542908066.557,-7.812,46.387,19.531,-7.812,65.430,0
1542908066.561,-2.930,37.598,12.695,11.719,5.859,0
1542908066.565,17.090,33.691,25.879,28.320,-1.465,0
1542908066.569,23.926,20.020,26.367,28.809,9.277,0
1542908066.573,33.203,19.043,14.160,41.504,-6.836,0
1542908066.577,56.641,25.391,7.324,46.387,-3.418,0
1542908066.580,57.617,26.855,6.348,54.688,39.062,0
1542908066.584,54.199,26.367,7.812,65.430,17.578,0
1542908066.588,62.500,27.344,8.789,63.477,52.734,0
1542908066.592,71.289,22.461,16.113,68.359,105.957,0
1542908066.596,74.219,19.531,13.672,75.684,58.594,0
1542908066.600,70.312,20.508,10.254,78.613,2.441,0
1542908066.604,74.219,20.020,18.555,76.660,25.391,0
1542908066.608,83.984,21.484,16.602,80.078,87.891,0
1542908066.612,83.008,25.391,18.555,82.031,85.449,0
1542908066.616,71.289,29.297,15.625,75.195,8.789,0
1542908066.619,71.777,18.555,10.742,76.660,-57.617,0
1542908066.623,66.895,12.695,10.254,68.359,8.301,0
1542908066.627,60.547,23.926,9.277,58.594,46.875,0
1542908066.631,71.777,28.809,12.695,72.754,11.230,0
1542908066.635,74.707,32.227,22.461,88.379,11.719,0
1542908066.639,64.941,27.344,19.531,83.496,28.809,0
1542908066.643,62.012,18.555,17.578,75.195,26.855,0
1542908066.647,68.359,29.785,23.438,76.660,6.836,0
1542908066.651,72.754,33.691,16.602,76.172,17.578,0
1542908066.655,65.430,20.020,14.648,65.430,10.254,0
1542908066.659,58.105,16.113,14.648,64.941,-14.160,0
1542908066.662,62.012,25.391,18.555,66.406,-11.719,0
1542908066.666,64.453,27.832,16.113,51.270,12.695,0
1542908066.670,51.758,20.020,10.254,53.223,23.926,0
1542908066.674,55.664,18.555,12.207,66.895,36.133,0
1542908066.678,64.941,24.414,25.391,72.754,85.938,0
1542908066.682,66.895,27.344,37.109,73.242,-1.953,0
1542908066.686,72.754,26.367,27.832,65.918,-23.926,0
1542908066.690,67.383,26.367,18.066,67.383,25.391,0
1542908066.694,65.918,27.832,22.461,75.684,-3.418,0
1542908066.698,67.871,24.414,30.273,71.777,39.551,0
1542908066.702,64.453,22.949,35.645,72.754,63.965,0
1542908066.705,61.035,24.414,40.527,64.453,38.574,0
1542908066.709,58.594,22.949,40.039,66.406,42.480,0
1542908066.713,54.199,30.762,28.809,68.848,-1.953,0
1542908066.717,56.641,39.551,27.344,55.176,-14.160,0
1542908066.721,58.594,34.180,30.762,52.246,-2.930,0
1542908066.725,52.246,23.438,27.344,50.293,18.555,0
1542908066.729,50.293,23.926,27.344,49.316,-5.859,0
1542908066.733,48.340,20.996,26.367,56.641,-8.301,0
1542908066.737,50.781,20.996,24.902,63.477,65.918,0
1542908066.741,49.805,39.551,27.832,55.664,44.922,0
1542908066.744,38.086,41.016,24.902,50.293,-19.043,0
1542908066.748,29.297,27.832,26.855,45.410,-5.859,0
1542908066.752,27.344,22.461,26.855,34.668,2.441,0
1542908066.756,39.551,30.273,26.855,37.598,26.367,0
1542908066.760,49.805,37.598,36.621,50.781,38.574,0
1542908066.764,49.316,31.250,35.156,52.246,69.824,0
1542908066.768,47.852,28.320,32.227,50.293,87.402,0
1542908066.772,49.805,29.297,36.133,52.246,55.664,0
1542908066.776,44.922,21.973,26.855,53.711,-2.930,0
1542908066.780,44.434,24.902,21.973,41.504,1.953,0
1542908066.784,53.223,34.668,27.344,38.086,35.156,0
1542908066.787,51.270,32.715,32.715,58.105,12.695,0
1542908066.791,41.992,34.180,37.598,61.523,28.320,0
1542908066.795,43.945,41.992,40.039,47.852,28.320,0
1542908066.799,49.316,35.156,31.250,36.621,48.828,0
1542908066.803,45.410,27.344,23.438,39.551,63.965,0
1542908066.807,41.992,24.902,26.367,49.805,56.641,0
1542908066.811,40.039,25.879,24.414,50.293,24.414,0
1542908066.815,40.039,30.273,25.879,45.410,9.766,0
1542908066.819,36.133,29.785,37.109,37.598,31.738,0
1542908066.823,40.527,32.227,42.480,36.133,47.363,0
1542908066.827,44.922,33.203,34.180,44.922,56.641,0
1542908066.830,34.668,28.809,30.762,46.875,26.855,0
1542908066.834,38.574,27.344,32.715,41.992,75.195,0
1542908066.838,50.293,32.227,32.227,44.434,41.016,0
1542908066.842,44.434,36.133,31.250,45.410,23.438,0
1542908066.846,36.133,39.062,36.621,51.758,41.504,0
1542908066.850,33.203,34.180,40.039,53.711,12.207,0
1542908066.854,29.297,24.902,32.715,46.387,19.531,0
1542908066.858,32.715,30.762,27.832,47.363,55.176,0
1542908066.862,29.297,28.320,32.227,47.363,47.852,0
1542908066.866,33.691,23.926,35.156,44.922,5.371,0
1542908066.869,41.016,34.180,36.133,30.273,52.246,0
1542908066.873,27.344,34.180,34.180,25.391,33.203,0
1542908066.877,32.715,34.180,36.133,40.527,35.645,0
1542908066.881,44.434,34.668,39.551,46.875,99.121,0
1542908066.885,34.668,30.273,39.551,31.738,61.523,0
1542908066.889,31.250,31.250,41.992,28.320,38.086,0
1542908066.893,36.621,31.738,31.738,38.086,32.227,0
1542908066.897,41.016,28.320,23.926,37.598,31.250,0
1542908066.901,28.809,26.855,27.832,33.203,32.227,0
1542908066.905,20.996,26.367,28.809,25.391,0.977,0
1542908066.909,36.133,20.508,33.203,36.621,-38.574,0
1542908066.912,41.016,21.973,38.574,54.199,-4.395,0
1542908066.916,25.879,41.504,30.762,33.203,53.223,0
1542908066.920,13.184,53.223,37.109,7.812,34.180,0
1542908066.924,17.090,47.852,38.086,3.418,-5.859,0
1542908066.928,23.926,48.828,14.160,0.488,41.016,0
1542908066.932,20.020,44.922,11.230,11.230,39.551,0
1542908066.936,24.902,37.109,20.020,16.113,23.438,0
1542908066.940,27.344,38.574,13.672,12.207,54.688,0
1542908066.944,34.180,41.992,12.695,31.738,44.922,0
1542908066.948,42.480,41.504,27.344,48.828,42.969,0
1542908066.952,32.715,37.598,29.297,38.574,67.871,0
1542908066.955,32.227,43.457,31.738,29.297,62.988,0
1542908066.959,42.480,52.246,43.945,33.691,-0.488,0
1542908066.963,39.551,41.992,29.785,22.461,1.953,0
1542908066.967,41.992,38.086,12.207,30.273,8.301,0
1542908066.971,42.969,41.992,15.137,33.203,24.902,0
1542908066.975,44.922,41.016,19.043,20.020,41.992,0
1542908066.979,54.688,39.062,21.973,32.715,-3.906,0
1542908066.983,50.781,34.668,28.320,41.504,9.277,0
1542908066.987,37.109,36.133,32.715,36.133,8.789,0
1542908066.991,34.668,38.574,37.598,35.645,-8.301,0
1542908066.994,39.551,39.551,46.875,57.617,88.379,0
1542908066.998,42.969,45.898,43.457,49.805,102.051,0
1542908067.002,40.527,44.434,23.438,36.133,45.410,0
1542908067.006,24.414,33.203,20.020,38.086,15.137,0
1542908067.010,23.926,28.809,21.484,21.484,18.555,0
1542908067.014,28.809,33.203,21.973,29.297,-6.836,0
1542908067.018,25.879,36.133,34.180,43.457,7.812,0
1542908067.022,29.785,33.203,41.992,27.344,39.551,0
1542908067.026,32.715,33.691,33.691,38.086,33.203,0
1542908067.030,25.879,37.598,23.438,49.316,46.387,0
1542908067.034,32.227,39.551,24.414,26.367,67.383,0
1542908067.037,39.062,40.039,24.902,24.902,59.570,0
1542908067.041,22.461,35.645,23.926,33.203,2.930,0
1542908067.045,26.367,29.297,27.832,32.715,-11.230,0
1542908067.049,38.574,31.738,25.879,26.367,-0.977,0
1542908067.053,27.832,41.016,32.227,24.414,7.324,0
1542908067.057,20.508,38.086,34.180,25.391,-0.977,0
1542908067.061,24.902,34.668,35.156,27.832,26.855,0
1542908067.065,34.668,43.945,40.039,33.691,1.465,0
1542908067.069,34.668,48.340,38.086,36.133,20.020,0
1542908067.073,27.832,30.762,26.855,26.367,43.457,0
1542908067.077,34.668,34.180,23.438,32.715,3.906,0
1542908067.080,47.852,48.340,29.297,46.387,46.875,0
1542908067.084,42.480,40.039,35.645,36.133,55.664,0
1542908067.088,29.785,35.156,37.598,28.320,31.738,0
1542908067.092,25.879,33.203,28.320,29.297,44.922,0
1542908067.096,34.180,38.086,24.414,29.785,23.926,0
1542908067.100,36.621,46.387,32.715,31.250,4.395,0
1542908067.104,32.227,40.039,33.203,30.762,80.566,0
1542908067.108,37.598,34.668,32.715,23.438,136.719,0
1542908067.112,28.809,36.621,36.133,30.762,70.801,0
1542908067.116,21.484,29.785,24.902,33.691,6.348,0
1542908067.119,36.621,35.156,30.762,26.367,26.855,0
1542908067.123,41.992,44.922,40.039,32.715,37.598,0
1542908067.127,34.668,36.621,32.715,31.250,26.367,0
1542908067.131,28.809,28.809,34.668,26.855,54.688,0
1542908067.135,29.785,30.273,28.320,34.180,31.250,0
1542908067.139,24.902,30.762,27.344,32.227,13.672,0
1542908067.143,18.555,30.762,31.738,21.484,31.738,0
1542908067.147,24.414,32.227,31.738,24.902,21.973,0
1542908067.151,26.855,34.668,33.691,21.484,42.480,0
1542908067.155,28.809,39.062,23.438,22.949,73.730,0
1542908067.159,43.945,42.480,27.344,35.645,54.688,0
1542908067.162,32.227,34.180,32.227,29.785,57.129,0
1542908067.166,18.555,32.227,31.738,23.926,46.387,0
1542908067.170,29.297,41.016,41.504,31.738,32.715,0
1542908067.174,23.438,30.273,49.316,28.320,67.871,0
1542908067.178,25.391,35.156,37.109,27.344,13.672,0
1542908067.182,39.551,43.457,23.926,27.344,-8.789,0
1542908067.186,41.016,35.645,26.855,34.180,41.016,0
1542908067.190,36.621,33.203,28.320,43.457,24.902,0
1542908067.194,28.809,27.832,27.344,39.551,18.555,0
1542908067.198,30.762,28.320,37.598,40.039,4.883,0
1542908067.202,41.016,41.504,38.574,45.410,-3.418,0
1542908067.205,32.715,42.969,35.645,47.363,45.898,0
1542908067.209,23.926,35.645,30.762,22.461,95.703,0
1542908067.213,32.715,37.598,32.227,15.625,24.414,0
1542908067.217,36.621,37.598,42.969,28.320,-27.344,0
1542908067.221,31.250,29.297,35.156,20.508,50.781,0
1542908067.225,25.391,32.227,27.344,24.414,64.941,0
1542908067.229,25.391,34.668,27.344,35.156,14.648,0
1542908067.233,33.203,40.039,34.668,31.738,37.109,0
1542908067.237,20.508,43.457,35.156,23.438,2.441,0
1542908067.241,18.066,38.086,39.062,22.949,-41.016,0
1542908067.244,26.367,39.551,40.527,34.180,14.160,0
1542908067.248,32.227,39.062,24.414,24.902,45.410,0
1542908067.252,40.527,32.227,21.973,28.320,22.461,0
1542908067.256,30.762,32.715,33.203,31.250,7.324,0
1542908067.260,23.926,33.691,36.621,16.602,25.391,0
1542908067.264,23.438,43.945,35.156,30.273,21.484,0
1542908067.268,20.996,42.480,29.297,45.410,-25.391,0
1542908067.272,33.691,30.273,20.020,38.574,-65.918,0
1542908067.276,31.738,29.785,26.855,30.273,21.973,0
1542908067.280,22.949,39.551,41.992,34.668,72.754,0
1542908067.284,29.785,42.969,51.270,42.480,29.785,0
1542908067.287,30.273,33.203,37.598,33.691,65.430,0
1542908067.291,34.180,41.016,26.367,30.273,45.898,0
1542908067.295,35.156,44.434,32.227,34.668,24.902,0
1542908067.299,33.203,41.016,34.180,30.762,21.484,0
1542908067.303,33.691,40.039,34.180,29.297,-28.809,0
1542908067.307,36.621,39.062,38.574,28.809,-47.852,0
1542908067.311,43.457,42.480,36.621,28.320,-4.883,0
1542908067.315,40.527,40.039,34.180,33.203,37.598,0
1542908067.319,35.156,42.969,37.109,37.598,5.859,0
1542908067.323,44.922,44.922,36.133,35.156,39.062,0
1542908067.327,40.527,47.852,39.551,36.621,42.969,0
1542908067.330,28.320,48.340,38.574,39.551,-39.062,0
1542908067.334,23.438,41.016,30.762,31.738,5.371,0
1542908067.338,24.414,33.203,29.297,25.879,89.844,0
1542908067.342,29.297,35.156,30.762,9.766,37.109,0
1542908067.346,24.902,36.133,29.785,11.719,63.477,0
1542908067.350,26.855,39.062,30.762,21.484,68.359,0
1542908067.354,31.250,44.922,35.645,23.438,39.551,0
1542908067.358,33.203,47.363,38.574,26.367,82.031,0
1542908067.362,47.363,40.527,34.668,29.785,54.199,0
1542908067.366,38.086,33.203,29.297,34.180,14.648,0
1542908067.369,16.113,38.574,38.574,36.133,-0.488,0
1542908067.373,21.973,36.133,33.203,31.250,19.043,0
1542908067.377,19.531,41.016,24.902,20.996,60.059,0
1542908067.381,15.625,43.945,30.762,21.973,57.617,0
1542908067.385,23.926,33.691,32.227,25.879,44.434,0
1542908067.389,29.297,31.738,29.785,32.715,77.637,0
1542908067.393,29.297,32.715,33.203,24.902,97.656,0
1542908067.397,27.832,37.109,36.133,13.672,66.895,0
1542908067.401,20.996,35.645,36.133,24.902,56.641,0
1542908067.405,20.020,32.715,35.645,27.344,46.875,0
1542908067.409,18.555,33.203,34.180,36.133,33.691,0
1542908067.412,16.602,31.738,34.180,34.668,47.363,0
1542908067.416,27.344,36.621,38.086,23.926,58.594,0
1542908067.420,25.879,39.062,48.340,34.668,-12.695,0
1542908067.424,23.926,37.598,38.574,29.785,-24.414,0
1542908067.428,33.203,38.574,34.668,23.438,8.301,0
1542908067.432,28.809,39.062,42.480,34.668,39.551,0
1542908067.436,22.949,37.109,31.738,39.062,67.871,0
1542908067.440,25.391,34.668,31.250,42.969,15.137,0
1542908067.444,26.855,30.762,38.086,40.039,11.230,0
1542908067.448,44.434,21.484,39.062,43.945,32.715,0
1542908067.452,45.410,22.949,32.227,51.270,24.902,0
1542908067.455,9.277,31.738,35.645,15.625,44.922,0
1542908067.459,-1.465,34.668,50.293,-8.789,56.641,0
1542908067.463,0.488,36.133,42.480,4.883,42.480,0
1542908067.467,-11.230,40.527,30.273,2.441,17.578,0
1542908067.471,-10.742,41.016,36.621,-4.883,69.824,0
1542908067.475,-11.230,31.738,40.039,-6.348,20.996,0
1542908067.479,-11.719,26.367,39.062,-10.742,-8.301,0
1542908067.483,-13.184,28.809,49.805,-10.254,14.648,0
1542908067.487,-6.348,21.973,46.875,-5.371,46.387,0
1542908067.491,8.789,21.484,32.715,1.953,62.988,0
1542908067.494,10.742,31.250,20.020,2.441,48.828,0
1542908067.498,10.254,34.668,17.090,7.324,53.223,0
1542908067.502,19.531,34.668,28.809,16.113,24.414,0
1542908067.506,23.438,34.180,35.156,30.273,45.898,0
1542908067.510,17.090,32.715,46.875,38.086,71.289,0
1542908067.514,21.484,33.203,47.852,30.273,13.672,0
1542908067.518,26.367,35.156,33.691,21.484,-44.434,0
1542908067.522,21.973,34.180,25.879,21.484,21.484,0
1542908067.526,20.020,30.273,21.484,34.180,76.172,0
1542908067.530,27.832,32.715,26.367,30.762,44.922,0
1542908067.534,30.273,41.504,35.645,22.461,-9.277,0
1542908067.537,28.320,36.621,39.551,23.926,-34.668,0
1542908067.541,31.738,33.203,37.598,31.738,38.086,0
1542908067.545,34.180,36.621,32.715,42.969,61.523,0
1542908067.549,28.320,37.109,34.668,25.391,1.953,0
1542908067.553,19.043,37.109,30.273,14.648,-2.441,0
1542908067.557,22.461,36.133,28.320,21.484,55.176,0
1542908067.561,35.645,39.551,43.457,24.414,27.832,0
1542908067.565,35.645,39.062,41.016,22.461,5.859,0
1542908067.569,28.809,35.156,36.621,27.344,33.203,0
1542908067.573,37.598,35.156,40.039,43.945,48.828,0
1542908067.577,23.438,36.621,39.551,32.227,61.523,0
1542908067.580,12.695,27.832,37.598,14.648,59.570,0
1542908067.584,26.367,24.414,36.621,21.973,36.621,0
1542908067.588,22.461,32.227,35.645,26.855,39.551,0
1542908067.592,19.531,30.762,36.133,25.391,18.066,0
1542908067.596,14.648,29.297,33.203,27.832,-17.578,0
1542908067.600,13.184,32.227,23.926,26.855,-1.465,0
1542908067.604,21.973,27.832,31.250,20.996,14.160,0
1542908067.608,25.879,34.668,36.133,20.996,63.965,0
1542908067.612,12.695,35.645,29.297,23.926,89.844,0
1542908067.616,4.395,30.273,31.738,24.902,52.734,0
1542908067.619,14.648,27.832,36.133,25.391,16.113,0
1542908067.623,18.555,29.785,33.203,36.621,62.012,0
1542908067.627,28.809,37.598,35.645,32.715,41.504,0
1542908067.631,27.832,36.133,41.016,28.320,28.320,0
1542908067.635,7.812,29.785,42.480,25.391,34.180,0
1542908067.639,23.926,26.855,49.316,29.297,-20.996,0
1542908067.643,37.598,34.668,39.062,41.992,42.969,0
1542908067.647,25.879,36.621,20.508,33.691,62.500,0
1542908067.651,17.090,31.738,33.203,28.320,37.109,0
1542908067.655,15.137,27.344,39.551,28.320,35.156,0
1542908067.659,19.043,27.344,38.574,24.414,-5.859,0
1542908067.662,24.902,32.715,41.504,29.785,3.418,0
1542908067.666,29.785,27.344,45.898,42.969,49.805,0
1542908067.670,32.715,26.855,51.758,44.922,8.789,0
1542908067.674,33.203,31.738,43.945,37.109,14.648,0
1542908067.678,25.391,27.344,31.738,31.250,42.480,0
1542908067.682,30.273,21.484,26.367,31.738,56.641,0
1542908067.686,42.969,35.156,34.180,52.734,93.262,0
1542908067.690,41.504,34.668,39.551,52.246,45.410,0
1542908067.694,34.668,24.902,28.809,33.203,23.438,0
1542908067.698,34.668,33.691,29.297,29.785,23.438,0
1542908067.702,36.621,42.969,33.691,38.574,3.906,0
1542908067.705,31.738,38.574,33.691,49.316,-13.184,0
1542908067.709,28.809,22.949,33.691,40.527,-4.883,0
1542908067.713,31.250,24.414,31.250,32.715,45.898,0
1542908067.717,38.574,28.320,35.156,41.992,58.594,0
1542908067.721,36.621,33.691,38.086,39.062,54.199,0
1542908067.725,32.227,41.992,41.016,34.180,-0.488,0
1542908067.729,34.180,36.133,41.016,41.504,-6.348,0
1542908067.733,34.180,30.762,35.156,35.156,78.125,0
1542908067.737,34.668,30.762,32.227,35.645,42.969,0
1542908067.741,35.645,31.250,20.508,38.086,19.043,0
1542908067.744,37.109,29.785,20.020,34.668,93.262,0
1542908067.748,41.992,27.344,37.598,41.504,86.914,0
1542908067.752,41.504,29.297,41.992,38.086,59.570,0
1542908067.756,33.203,32.227,30.762,31.250,78.613,0
1542908067.760,47.363,35.645,39.062,42.969,90.332,0
1542908067.764,42.969,32.227,41.992,41.992,44.922,0
1542908067.768,19.531,25.391,25.879,28.809,-20.996,0
1542908067.772,24.902,22.949,21.484,29.297,22.949,0
1542908067.776,39.062,33.203,30.273,38.574,42.480,0
1542908067.780,49.805,45.898,41.992,42.480,-7.324,0
1542908067.784,42.480,36.133,29.297,34.180,-32.227,0
1542908067.787,35.645,29.297,21.973,28.809,-0.488,0
1542908067.791,37.598,33.691,32.715,34.668,28.320,0
1542908067.795,33.203,32.715,30.762,33.203,61.523,0
1542908067.799,38.086,27.832,30.762,34.180,45.410,0
1542908067.803,41.504,25.879,39.062,39.062,-26.367,0
1542908067.807,41.504,34.180,39.062,36.621,-0.977,0
1542908067.811,38.086,37.598,45.898,42.969,11.719,0
1542908067.815,30.762,34.180,47.363,37.109,-0.488,0
1542908067.819,34.668,32.227,34.180,27.832,8.301,0
1542908067.823,32.715,32.227,28.320,31.250,4.883,0
1542908067.827,32.715,35.156,28.320,23.926,1.465,0
1542908067.830,44.434,36.133,23.926,34.180,65.918,0
1542908067.834,49.805,35.156,23.438,50.781,93.750,0
1542908067.838,29.297,34.180,30.273,31.738,39.551,0
1542908067.842,18.555,30.762,32.227,20.996,33.691,0
1542908067.846,30.762,38.574,51.270,29.297,53.711,0
1542908067.850,28.320,34.668,66.406,31.738,60.059,0
1542908067.854,22.461,19.531,49.805,27.344,29.785,0
1542908067.858,19.043,20.020,40.527,28.320,33.203,0
1542908067.862,19.531,30.273,37.109,22.461,53.223,0
1542908067.866,23.926,31.738,34.180,22.949,6.836,0
1542908067.869,18.066,22.949,35.645,20.020,38.086,0
1542908067.873,25.391,33.691,47.852,20.508,66.406,0
1542908067.877,36.621,43.945,42.969,25.879,24.902,0
1542908067.881,42.480,34.180,27.344,35.156,19.043,0
1542908067.885,39.551,38.086,38.086,38.086,29.297,0
1542908067.889,34.180,31.250,39.551,23.438,61.523,0
1542908067.893,26.367,18.555,31.738,20.020,83.984,0
1542908067.897,23.438,22.949,30.273,29.297,43.457,0
1542908067.901,34.668,32.715,28.809,32.227,44.922,0
1542908067.905,29.297,39.551,35.156,30.762,7.812,0
1542908067.909,21.484,37.598,34.668,25.391,-4.883,0
1542908067.912,29.297,37.598,39.062,28.320,-10.742,0
1542908067.916,34.180,33.691,47.363,29.297,-21.484,0
1542908067.920,26.367,29.785,31.738,26.855,8.789,0
1542908067.924,21.484,30.762,28.320,28.809,83.984,0
1542908067.928,22.461,33.691,38.574,24.902,102.051,0
1542908067.932,24.414,34.180,39.551,23.438,2.930,0
1542908067.936,30.762,33.691,45.410,29.297,45.410,0
1542908067.940,23.926,34.668,41.992,30.762,64.453,0
1542908067.944,16.602,36.621,38.086,30.762,49.805,0
1542908067.948,21.484,32.227,36.621,22.949,93.262,0
1542908067.952,26.367,30.762,26.855,20.508,88.867,0
1542908067.955,26.367,36.621,21.973,22.461,104.492,0
1542908067.959,22.461,39.551,29.785,24.414,83.496,0
1542908067.963,30.273,38.086,36.621,32.715,55.176,0
1542908067.967,45.410,28.809,39.062,24.902,73.730,0
1542908067.971,33.691,23.438,32.227,28.320,49.805,0
1542908067.975,28.320,27.832,29.785,35.645,65.430,0
1542908067.979,33.203,32.715,41.016,29.297,112.793,0
1542908067.983,30.273,37.109,32.715,31.738,67.383,0
1542908067.987,32.715,38.086,23.438,29.785,53.711,0
1542908067.991,34.668,37.109,29.297,26.855,50.293,0
1542908067.994,27.344,33.203,39.062,39.551,-16.113,0
1542908067.998,21.973,33.691,48.340,42.480,-45.410,0
1542908068.002,31.250,38.574,44.922,33.691,-18.555,0
1542908068.006,31.738,35.645,30.273,40.039,20.996,0
1542908068.010,33.691,39.062,33.691,40.527,34.180,0
1542908068.014,43.945,43.457,33.691,23.926,1.465,0
1542908068.018,38.574,34.668,26.367,23.926,50.781,0
1542908068.022,30.273,18.555,41.016,43.945,83.008,0
1542908068.026,36.621,15.137,40.527,37.109,61.523,0
1542908068.030,33.203,34.180,20.996,14.160,9.277,0
1542908068.034,17.578,45.410,21.973,3.906,8.301,0
1542908068.037,23.926,42.969,26.367,11.719,27.832,0
1542908068.041,34.180,44.434,20.996,17.090,8.301,0
1542908068.045,29.785,51.758,16.113,12.207,35.156,0
1542908068.049,31.738,52.246,27.344,16.113,4.395,0
1542908068.053,26.367,43.945,27.832,14.160,19.043,0
1542908068.057,23.438,42.480,20.508,12.695,51.270,0
1542908068.061,25.879,36.621,26.855,21.484,24.414,0
1542908068.065,34.180,32.715,24.902,20.508,47.852,0
1542908068.069,42.480,33.691,22.949,25.879,110.352,0
1542908068.073,36.133,39.551,28.320,30.273,92.285,0
1542908068.077,39.062,51.270,29.785,20.996,-0.977,0
1542908068.080,37.109,42.480,34.180,20.508,-3.906,0
1542908068.084,32.715,24.902,28.809,19.531,48.828,0
1542908068.088,34.668,28.320,20.996,29.297,38.086,0
1542908068.092,34.668,35.156,29.297,35.156,19.043,0
1542908068.096,33.203,35.645,33.691,26.855,3.906,0
1542908068.100,41.504,41.504,30.273,30.273,17.578,0
1542908068.104,38.086,46.875,22.949,41.016,62.500,0
1542908068.108,28.809,39.551,23.926,34.180,69.336,0
1542908068.112,37.109,37.598,31.250,29.297,87.402,0
1542908068.116,40.039,36.133,33.203,33.203,83.984,0
1542908068.119,41.504,33.691,31.738,33.691,63.965,0
1542908068.123,43.945,41.992,25.879,30.762,28.320,0
1542908068.127,43.945,39.551,29.297,26.855,-13.672,0
1542908068.131,41.992,35.156,37.598,32.227,-17.578,0
1542908068.135,36.133,37.109,34.668,31.738,-3.906,0
1542908068.139,34.668,38.574,35.156,28.320,-42.480,0
1542908068.143,33.203,43.457,44.434,24.902,-6.836,0
1542908068.147,28.809,37.598,40.527,31.738,83.008,0
1542908068.151,36.621,37.109,34.180,36.621,30.273,0
1542908068.155,42.480,37.109,29.785,29.297,-13.672,0
1542908068.159,37.109,39.062,28.809,23.438,67.871,0
1542908068.162,28.320,44.434,34.180,16.113,37.598,0
1542908068.166,25.391,45.898,35.156,17.578,-0.977,0
1542908068.170,12.695,43.945,33.203,9.277,85.449,0
1542908068.174,3.418,59.082,39.551,3.418,48.340,0
1542908068.178,7.324,62.500,49.805,5.859,5.859,0
1542908068.182,-2.441,55.664,45.410,0.000,14.160,0
1542908068.186,-20.996,60.059,43.945,-20.996,-4.883,0
1542908068.190,-26.855,65.918,51.270,-43.457,-21.484,0
1542908068.194,-34.180,75.684,56.641,-41.992,30.273,0
1542908068.198,-50.781,80.566,48.828,-52.246,94.727,0
1542908068.202,-61.035,83.984,45.898,-72.754,90.332,0
1542908068.205,-75.684,85.449,45.898,-81.543,7.812,0
1542908068.209,-90.820,78.125,46.875,-92.285,0.000,0
1542908068.213,-94.727,77.637,52.246,-103.516,-6.836,0
1542908068.217,-105.469,80.566,52.734,-121.582,-1.953,0
1542908068.221,-110.352,87.402,52.246,-127.930,56.641,0
1542908068.225,-102.051,93.750,56.641,-116.211,56.152,0
1542908068.229,-103.516,92.773,55.176,-102.539,48.828,0
1542908068.233,-99.121,89.844,46.387,-105.957,58.105,0
1542908068.237,-83.984,88.379,40.527,-114.258,22.461,0
1542908068.241,-80.078,84.473,33.691,-105.469,-12.695,0
1542908068.244,-63.965,80.566,40.527,-79.102,-36.133,0
1542908068.248,-58.594,70.312,39.062,-64.453,-15.137,0
1542908068.252,-59.082,61.035,23.438,-44.922,24.414,0
1542908068.256,-44.434,58.105,20.996,-45.410,-7.324,0
1542908068.260,-31.738,51.270,20.020,-42.969,-34.668,0
1542908068.264,-9.277,48.828,29.297,-19.043,5.859,0
1542908068.268,7.324,47.363,24.902,-9.277,24.414,0
1542908068.272,13.184,43.457,14.160,2.441,104.004,0
1542908068.276,19.531,35.645,14.648,19.531,90.820,0
1542908068.280,27.344,33.203,8.301,32.715,45.410,0
1542908068.284,37.598,43.945,13.184,37.598,33.691,0
1542908068.287,50.781,40.039,27.832,41.504,-8.301,0
1542908068.291,54.688,27.832,26.367,46.387,-39.551,0
1542908068.295,50.781,21.973,16.113,46.387,15.137,0
1542908068.299,53.711,18.066,15.625,55.664,72.266,0
1542908068.303,64.941,20.508,15.625,62.500,29.297,0
1542908068.307,68.359,21.973,14.160,58.594,43.945,0
1542908068.311,63.965,17.090,18.066,63.477,35.156,0
1542908068.315,67.383,12.207,20.996,74.219,49.805,0
1542908068.319,76.660,18.555,22.461,88.867,111.816,0
1542908068.323,80.566,20.996,18.555,84.473,68.359,0
1542908068.327,79.590,16.113,15.137,72.266,28.320,0
1542908068.330,78.613,15.625,13.184,77.637,74.219,0
1542908068.334,80.078,14.648,10.742,77.148,32.715,0
1542908068.338,74.707,13.184,27.832,78.613,-46.875,0
1542908068.342,74.707,15.137,39.062,88.379,-3.906,0
1542908068.346,77.637,20.508,30.273,96.191,19.043,0
1542908068.350,75.684,18.555,25.879,84.473,21.484,0
1542908068.354,73.730,13.184,17.090,77.148,64.941,0
1542908068.358,72.754,10.742,15.137,76.660,41.992,0
1542908068.362,71.289,12.207,20.508,66.895,45.410,0
1542908068.366,64.453,9.766,21.484,63.477,52.734,0
1542908068.369,64.941,9.766,24.414,80.078,20.020,0
1542908068.373,69.336,18.066,19.531,79.102,25.879,0
1542908068.377,69.336,19.043,14.648,71.777,10.254,0
1542908068.381,67.383,16.113,11.719,71.289,-34.180,0
1542908068.385,65.918,9.766,19.531,63.477,6.348,0
1542908068.389,62.500,6.836,27.832,62.500,58.594,0
1542908068.393,67.383,19.043,12.207,66.406,36.621,0
1542908068.397,73.242,20.996,9.766,68.848,38.086,0
1542908068.401,75.684,20.508,27.344,70.312,70.801,0
1542908068.405,72.266,23.438,44.434,71.777,40.039,0
1542908068.409,62.012,17.578,31.250,67.383,64.941,0
1542908068.412,56.152,13.672,9.766,66.406,78.125,0
1542908068.416,61.523,17.578,15.625,65.430,20.508,0
1542908068.420,53.711,15.137,26.855,51.270,11.719,0
1542908068.424,55.176,14.160,30.273,52.734,2.441,0
1542908068.428,64.453,13.672,31.250,49.805,31.250,0
1542908068.432,57.129,15.625,29.785,45.410,46.875,0
1542908068.436,57.617,25.391,40.039,60.547,-2.930,0
1542908068.440,57.129,25.879,42.969,62.012,-4.883,0
1542908068.444,57.129,20.508,24.414,63.477,27.832,0
1542908068.448,54.688,19.043,18.066,58.594,89.355,0
1542908068.452,45.898,20.996,20.996,46.387,105.957,0
1542908068.455,44.434,25.391,25.391,50.781,79.102,0
1542908068.459,44.434,20.508,32.227,50.781,71.777,0
1542908068.463,44.922,19.043,36.133,49.805,74.219,0
1542908068.467,46.875,21.484,32.227,47.852,47.852,0
1542908068.471,44.434,20.020,34.668,38.574,83.496,0
1542908068.475,43.945,19.531,34.180,36.621,53.711,0
1542908068.479,49.805,25.879,20.996,51.270,3.906,0
1542908068.483,51.758,28.320,25.391,61.035,42.480,0
1542908068.487,41.992,20.996,30.762,44.434,28.809,0
1542908068.491,33.691,17.090,33.691,33.203,57.129,0
1542908068.494,44.434,18.555,36.621,42.969,43.457,0
1542908068.498,51.758,18.555,35.645,55.664,-36.133,0
1542908068.502,45.410,21.484,36.621,54.688,23.926,0
1542908068.506,54.199,28.320,40.527,42.480,20.508,0
1542908068.510,51.758,25.391,31.738,39.551,-2.930,0
1542908068.514,47.363,33.691,18.555,51.758,32.715,0
1542908068.518,48.828,38.574,21.484,57.617,46.387,0
1542908068.522,50.781,25.391,29.785,37.598,27.344,0
1542908068.526,50.781,21.484,29.785,31.738,-4.883,0
1542908068.530,52.734,31.738,29.785,44.434,7.812,0
1542908068.534,57.617,39.551,41.016,51.270,15.137,0
1542908068.537,52.734,38.574,39.551,43.945,19.531,0
1542908068.541,37.109,36.133,32.227,31.738,58.594,0
1542908068.545,28.809,28.320,22.949,25.391,0.000,0
1542908068.549,33.203,21.484,17.578,26.855,-40.527,0
1542908068.553,32.227,24.414,21.484,24.414,14.648,0
1542908068.557,32.227,32.227,22.949,24.414,43.457,0
1542908068.561,32.227,27.832,22.949,28.809,62.500,0
1542908068.565,40.039,28.809,30.273,35.645,32.227,0
1542908068.569,49.805,31.250,30.762,44.434,13.184,0
1542908068.573,44.922,33.203,27.344,45.898,44.434,0
1542908068.577,34.180,35.156,33.691,37.598,46.875,0
1542908068.580,28.809,21.484,38.574,41.016,96.680,0
1542908068.584,35.645,16.602,32.227,50.293,53.711,0
1542908068.588,41.992,22.461,27.344,41.992,28.809,0
1542908068.592,44.922,27.344,37.598,44.434,130.371,0
1542908068.596,51.270,32.715,38.086,62.988,75.195,0
1542908068.600,50.781,35.645,30.762,52.734,64.941,0
1542908068.604,56.641,39.062,36.621,51.270,65.430,0
1542908068.608,58.105,44.922,43.945,57.617,34.668,0
1542908068.612,41.504,35.156,33.691,41.504,39.551,0
1542908068.616,38.574,25.879,26.367,36.133,69.336,0
1542908068.619,42.480,34.180,28.809,34.668,49.805,0
1542908068.623,36.133,32.227,23.926,27.832,55.176,0
1542908068.627,29.785,31.738,23.926,28.320,47.852,0
1542908068.631,26.855,27.344,31.250,28.809,58.594,0
1542908068.635,31.738,22.461,28.809,34.180,55.176,0
1542908068.639,30.273,21.484,22.949,33.203,17.578,0
1542908068.643,29.297,27.344,30.762,34.668,33.691,0
1542908068.647,26.367,36.133,34.668,35.645,53.223,0
1542908068.651,32.227,38.086,28.320,38.086,5.859,0
1542908068.655,36.133,34.180,30.762,40.527,6.836,0
1542908068.659,27.344,29.297,31.250,43.945,39.551,0
1542908068.662,30.273,27.832,29.785,39.551,-13.184,0
1542908068.666,47.363,29.297,34.668,39.551,-17.090,0
1542908068.670,51.758,37.598,34.668,25.879,18.066,0
1542908068.674,30.273,33.691,37.109,26.367,20.020,0
1542908068.678,31.250,33.691,40.039,42.480,20.020,0
1542908068.682,32.715,34.668,34.180,26.367,23.438,0
1542908068.686,25.879,32.227,36.621,21.484,-14.160,0
1542908068.690,38.086,37.109,37.109,34.668,-24.414,0
1542908068.694,39.062,39.551,35.156,41.016,51.270,0
1542908068.698,24.414,34.180,36.133,30.273,41.992,0
1542908068.702,26.367,31.738,36.621,20.020,1.465,0
1542908068.705,22.949,28.320,30.762,21.484,31.738,0
1542908068.709,14.648,21.484,27.344,26.855,45.410,0
1542908068.713,28.809,29.297,30.762,26.855,5.371,0
1542908068.717,40.039,36.621,35.645,27.344,-2.441,0
1542908068.721,31.250,29.297,36.621,31.250,30.762,0
1542908068.725,22.949,33.203,34.180,24.902,52.246,0
1542908068.729,10.742,38.086,43.945,21.973,64.453,0
1542908068.733,8.789,26.855,35.156,13.184,46.387,0
1542908068.737,15.137,23.438,26.855,10.254,33.691,0
1542908068.741,20.508,28.320,33.691,18.066,58.105,0
1542908068.744,18.066,26.367,29.785,24.414,64.453,0
1542908068.748,22.461,30.762,25.879,31.738,39.551,0
1542908068.752,38.086,36.621,33.691,31.738,73.242,0
1542908068.756,27.344,34.180,40.527,24.902,67.383,0
1542908068.760,20.020,31.250,34.180,25.879,-0.488,0
1542908068.764,22.461,29.785,32.227,20.508,-18.066,0
1542908068.768,13.184,27.344,24.902,17.090,12.207,0
1542908068.772,16.113,34.668,23.926,24.414,64.941,0
1542908068.776,21.973,33.691,32.227,24.414,61.523,0
1542908068.780,24.902,28.320,25.879,19.531,27.832,0
1542908068.784,12.207,32.227,29.297,24.902,30.273,0
1542908068.787,8.301,25.879,35.645,22.949,37.109,0
1542908068.791,14.648,26.367,32.715,7.812,19.043,0
1542908068.795,12.207,27.832,34.180,9.766,17.578,0
1542908068.799,13.672,19.531,28.809,11.719,-26.367,0
1542908068.803,7.324,17.090,28.320,10.742,-5.371,0
1542908068.807,9.277,24.414,33.691,26.855,55.176,0
1542908068.811,18.555,40.039,33.691,29.785,51.758,0
1542908068.815,18.555,35.645,33.691,20.996,95.703,0
1542908068.819,22.461,27.832,34.180,23.438,109.863,0
1542908068.823,22.949,22.461,35.156,23.438,32.715,0
1542908068.827,27.344,20.996,29.297,28.320,-7.812,0
1542908068.830,29.785,35.645,28.320,40.527,36.621,0
1542908068.834,21.484,35.156,34.180,49.805,25.391,0
1542908068.838,32.227,30.762,35.156,19.531,-14.648,0
1542908068.842,41.504,37.109,37.598,7.324,-46.387,0
1542908068.846,29.785,36.621,31.738,10.742,-30.762,0
1542908068.850,26.367,39.551,32.227,11.719,22.949,0
1542908068.854,29.785,38.574,38.086,19.043,-8.301,0
1542908068.858,23.438,29.297,29.785,21.484,-5.371,0
1542908068.862,19.531,31.738,24.902,27.344,41.016,0
1542908068.866,28.320,36.621,33.203,28.809,-10.254,0
1542908068.869,32.715,37.109,40.527,35.156,-15.137,0
1542908068.873,17.090,35.156,41.992,25.391,20.020,0
1542908068.877,6.348,34.668,42.969,8.301,5.859,0
1542908068.881,13.672,38.086,42.480,12.695,5.859,0
1542908068.885,10.742,36.621,40.039,15.625,74.219,0
1542908068.889,-2.441,38.086,39.062,9.277,105.469,0
1542908068.893,0.488,45.410,32.227,-4.395,90.820,0
1542908068.897,-2.441,46.875,31.738,-12.695,62.988,0
1542908068.901,-5.859,42.969,27.832,-10.254,-15.137,0
1542908068.905,-14.648,51.270,33.203,-9.277,-26.367,0
1542908068.909,-32.227,62.988,48.828,-22.461,20.996,0
1542908068.912,-42.480,66.406,49.316,-41.992,23.926,0
1542908068.916,-49.805,67.871,50.781,-47.363,-11.719,0
1542908068.920,-64.453,67.871,57.129,-55.664,25.879,0
1542908068.924,-86.426,65.430,52.734,-81.543,63.965,0
1542908068.928,-102.539,65.430,52.734,-101.074,16.113,0
1542908068.932,-98.145,68.359,58.594,-104.004,18.555,0
1542908068.936,-103.027,69.336,60.059,-105.957,29.785,0
1542908068.940,-124.512,83.008,64.941,-129.883,12.695,0
1542908068.944,-141.113,96.680,64.941,-151.367,32.715,0
1542908068.948,-142.090,100.586,56.152,-146.484,35.156,0
1542908068.952,-126.465,96.680,54.688,-145.996,21.484,0
1542908068.955,-121.582,84.961,57.617,-144.531,57.129,0
1542908068.959,-119.141,83.008,51.270,-132.812,49.316,0
1542908068.963,-106.934,82.031,40.527,-112.305,-0.488,0
1542908068.967,-92.285,76.172,34.180,-99.609,26.855,0
1542908068.971,-80.078,69.824,30.273,-90.332,-17.090,0
1542908068.975,-69.336,66.895,33.691,-68.359,-22.949,0
1542908068.979,-49.805,66.895,43.457,-33.203,9.766,0
1542908068.983,-25.879,56.641,41.504,-18.066,59.082,0
1542908068.987,-21.484,47.852,31.250,-13.184,57.617,0
1542908068.991,-20.996,40.039,31.738,-5.371,8.301,0
1542908068.994,-3.906,38.574,28.320,-7.324,28.320,0
1542908068.998,21.484,43.945,12.207,5.859,26.855,0
1542908069.002,35.645,42.969,7.812,22.461,20.996,0
1542908069.006,34.668,36.621,11.719,35.156,29.785,0
1542908069.010,36.621,32.227,12.695,41.504,3.906,0
1542908069.014,52.734,32.227,18.555,51.270,-27.832,0
1542908069.018,66.406,25.391,20.508,68.848,25.879,0
1542908069.022,65.918,26.367,16.113,72.754,33.691,0
1542908069.026,58.594,27.344,23.926,62.012,-34.668,0
1542908069.030,55.176,27.344,19.531,68.359,12.695,0
1542908069.034,62.500,24.414,8.789,75.684,56.152,0
1542908069.037,72.266,14.648,12.207,72.754,24.414,0
1542908069.041,71.777,21.484,15.137,74.219,104.492,0
1542908069.045,69.336,23.438,16.602,71.289,98.145,0
1542908069.049,77.637,17.578,16.113,73.242,47.363,0
1542908069.053,76.660,15.625,16.602,75.684,11.230,0
1542908069.057,67.383,14.648,18.555,69.824,7.324,0
1542908069.061,67.383,18.066,27.832,71.777,45.410,0
1542908069.065,84.961,18.555,32.227,81.055,27.344,0
1542908069.069,89.844,16.602,17.578,81.543,20.508,0
1542908069.073,78.613,20.996,16.113,82.031,29.297,0
1542908069.077,81.543,25.879,28.320,89.844,76.660,0
1542908069.080,82.520,21.973,23.926,92.285,41.016,0
1542908069.084,80.078,13.184,20.508,82.520,35.156,0
1542908069.088,81.543,11.719,23.438,67.383,46.387,0
1542908069.092,75.684,17.090,12.207,69.824,14.648,0
1542908069.096,69.824,12.207,20.508,83.984,43.945,0
1542908069.100,67.383,9.766,35.156,77.637,63.965,0
1542908069.104,62.988,14.648,28.809,63.965,37.109,0
1542908069.108,67.871,16.602,26.855,56.152,62.012,0
1542908069.112,73.730,23.438,29.297,65.918,27.344,0
1542908069.116,75.195,26.367,22.461,75.684,-31.738,0
1542908069.119,78.613,20.508,17.578,69.824,44.434,0
1542908069.123,80.078,20.996,26.855,75.684,40.039,0
1542908069.127,76.660,25.879,30.273,81.543,3.418,0
1542908069.131,71.289,24.902,24.414,72.754,27.832,0
1542908069.135,64.453,20.020,18.555,65.918,32.227,0
1542908069.139,74.219,27.832,21.484,73.730,66.895,0
1542908069.143,81.055,32.227,32.227,75.684,20.020,0
1542908069.147,71.777,30.273,36.133,62.988,20.508,0
1542908069.151,68.848,26.367,34.180,69.336,55.176,0
1542908069.155,65.918,23.926,28.809,69.336,24.902,0
1542908069.159,68.359,26.855,30.273,58.594,12.695,0
1542908069.162,74.707,28.809,28.320,69.824,3.418,0
1542908069.166,72.754,29.785,27.344,71.777,-4.395,0
1542908069.170,72.266,29.297,29.785,63.477,37.598,0
1542908069.174,67.383,24.902,27.344,64.941,28.320,0
1542908069.178,55.176,22.949,20.996,51.270,-37.109,0
1542908069.182,55.664,31.250,24.902,49.316,-1.953,0
1542908069.186,57.617,41.504,36.621,62.500,21.484,0
1542908069.190,51.758,34.180,30.762,56.152,-19.043,0
1542908069.194,51.270,26.367,27.344,62.500,-15.625,0
1542908069.198,49.316,22.949,36.133,58.105,11.719,0
1542908069.202,41.016,19.531,32.715,47.363,9.766,0
1542908069.205,45.410,29.785,29.297,50.293,19.531,0
1542908069.209,46.387,33.203,41.504,45.410,30.273,0
1542908069.213,39.551,29.785,36.621,47.363,56.641,0
1542908069.217,43.945,27.832,27.344,55.176,71.289,0
1542908069.221,48.340,31.250,29.297,52.246,56.152,0
1542908069.225,52.734,34.180,28.320,43.457,33.691,0
1542908069.229,52.734,30.762,27.344,44.434,23.926,0
1542908069.233,45.410,31.250,30.273,45.410,74.707,0
1542908069.237,51.758,34.180,29.785,42.480,82.520,0
1542908069.241,56.152,32.715,26.367,42.969,10.254,0
1542908069.244,41.992,26.367,26.367,39.062,2.441,0
1542908069.248,24.414,23.438,33.691,29.297,48.828,0
1542908069.252,28.320,29.785,40.527,33.203,45.898,0
1542908069.256,43.945,29.785,41.016,34.668,26.855,0
1542908069.260,37.598,19.531,37.109,27.832,23.926,0
1542908069.264,22.949,20.508,39.551,31.738,53.711,0
1542908069.268,21.484,23.438,40.527,37.109,104.980,0
1542908069.272,27.832,21.973,41.016,45.410,98.633,0
1542908069.276,39.062,22.949,46.387,47.852,77.637,0
1542908069.280,47.852,28.320,39.551,45.410,77.148,0
1542908069.284,42.969,27.832,37.109,40.527,42.969,0
1542908069.287,38.574,32.227,39.062,36.621,-7.812,0
1542908069.291,43.945,30.762,32.227,42.969,-1.465,0
1542908069.295,39.551,23.926,29.785,41.016,-38.086,0
1542908069.299,38.086,25.391,23.926,33.691,-0.488,0
1542908069.303,42.969,22.461,30.273,37.598,33.203,0
1542908069.307,34.668,23.926,34.180,36.621,104.980,0
1542908069.311,31.250,29.785,27.832,42.480,145.020,0
1542908069.315,36.621,32.715,35.156,41.992,50.293,0
1542908069.319,33.691,30.762,36.133,33.691,-0.488,0
1542908069.323,27.832,32.227,36.621,39.062,24.414,0
1542908069.327,27.832,35.645,34.180,38.574,71.289,0
1542908069.330,30.762,33.203,30.762,44.434,52.734,0
1542908069.334,29.297,27.344,34.668,41.992,52.246,0
1542908069.338,30.762,29.785,37.109,32.227,61.035,0
1542908069.342,38.086,39.062,38.574,30.762,11.719,0
1542908069.346,33.203,37.598,36.621,34.668,21.484,0
1542908069.350,23.438,26.855,34.668,40.527,62.500,0
1542908069.354,29.297,30.762,32.227,48.828,91.797,0
1542908069.358,33.203,37.598,36.133,42.969,83.008,0
1542908069.362,31.250,37.598,35.645,28.809,71.289,0
1542908069.366,38.086,43.945,28.320,38.086,31.250,0
1542908069.369,38.574,35.156,30.273,40.527,21.484,0
1542908069.373,21.973,25.391,24.414,26.367,34.180,0
1542908069.377,18.555,26.367,20.996,35.156,-15.137,0
1542908069.381,24.902,23.438,32.715,41.016,24.902,0
1542908069.385,24.902,25.391,41.016,28.809,36.621,0
1542908069.389,33.691,29.785,42.969,27.344,-20.508,0
1542908069.393,34.180,28.809,32.227,29.297,-6.348,0
1542908069.397,23.926,32.715,23.438,39.062,70.801,0
1542908069.401,28.320,32.227,27.832,42.480,90.820,0
1542908069.405,34.668,36.621,38.086,39.551,12.207,0
1542908069.409,33.691,42.480,40.527,36.621,32.227,0
1542908069.412,27.344,32.227,41.016,39.551,74.219,0
1542908069.416,22.461,28.320,38.086,34.668,62.988,0
1542908069.420,24.902,29.785,25.391,20.508,83.008,0
1542908069.424,34.180,40.527,19.531,32.227,108.887,0
1542908069.428,32.227,42.969,21.484,42.480,83.496,0
1542908069.432,13.184,29.297,32.227,38.574,30.273,0
1542908069.436,8.789,21.484,37.598,32.715,34.180,0
1542908069.440,18.066,19.043,30.273,31.250,59.570,0
1542908069.444,25.391,24.902,32.715,42.480,12.207,0
1542908069.448,28.809,25.879,38.574,47.852,-36.621,0
1542908069.452,26.855,25.391,43.457,45.898,1.465,0
1542908069.455,20.996,24.902,42.969,38.086,-14.648,0
1542908069.459,22.461,26.367,34.668,37.598,-2.930,0
1542908069.463,23.926,30.762,31.738,30.762,52.246,0
1542908069.467,25.879,38.574,38.574,27.832,49.805,0
1542908069.471,27.832,37.598,37.109,34.668,37.598,0
1542908069.475,39.551,38.574,32.715,40.527,35.645,0
1542908069.479,44.434,39.062,41.016,49.805,8.301,0
1542908069.483,29.785,25.391,28.320,42.480,2.441,0
1542908069.487,34.180,26.855,20.508,37.598,32.227,0
1542908069.491,38.574,32.227,34.668,36.133,40.039,0
1542908069.494,36.621,32.715,35.645,35.645,-20.996,0
1542908069.498,45.410,37.598,33.203,45.410,-64.941,0
1542908069.502,38.086,36.621,31.250,51.270,-39.551,0
1542908069.506,23.438,34.668,29.297,40.527,-1.465,0
1542908069.510,30.273,35.645,30.762,35.645,6.836,0
1542908069.514,34.668,33.203,34.668,40.039,2.930,0
1542908069.518,35.645,34.668,33.691,41.016,31.738,0
1542908069.522,41.504,35.645,35.156,46.387,90.820,0
1542908069.526,37.109,28.809,33.691,38.086,65.430,0
1542908069.530,24.902,31.738,28.320,31.738,0.000,0
1542908069.534,23.438,39.062,39.062,30.273,61.035,0
1542908069.537,28.809,37.109,42.969,21.484,91.797,0
1542908069.541,26.855,31.250,32.227,28.320,31.738,0
1542908069.545,28.809,28.320,25.879,28.809,-25.879,0
1542908069.549,33.203,39.062,29.297,29.785,-39.551,0
1542908069.553,28.809,41.992,35.645,33.203,-7.812,0
1542908069.557,22.949,36.133,29.297,26.367,56.641,0
1542908069.561,18.555,32.715,23.438,28.809,89.355,0
1542908069.565,20.996,34.668,26.367,33.203,58.105,0
1542908069.569,28.809,36.133,33.203,36.621,45.410,0
1542908069.573,27.344,37.598,36.621,35.156,62.012,0
1542908069.577,29.785,43.945,29.785,37.598,54.688,0
1542908069.580,34.668,42.969,30.762,41.992,16.113,0
1542908069.584,32.227,35.156,38.574,37.598,29.785,0
1542908069.588,32.227,40.527,31.738,35.645,59.082,0
1542908069.592,28.320,45.898,28.809,41.016,49.316,0
1542908069.596,26.855,39.551,33.203,33.203,33.691,0
1542908069.600,22.461,35.156,30.273,19.043,20.020,0
1542908069.604,18.066,27.344,26.855,23.438,56.152,0
1542908069.608,23.438,29.297,29.785,38.574,25.879,0
1542908069.612,29.297,38.086,34.180,33.691,1.465,0
1542908069.616,29.297,39.062,26.855,23.438,39.062,0
1542908069.619,29.297,44.434,22.949,37.598,46.875,0
1542908069.623,22.461,39.551,24.902,26.855,63.477,0
1542908069.627,15.137,27.832,23.438,30.762,58.594,0
1542908069.631,22.949,29.785,28.320,42.969,79.102,0
1542908069.635,33.203,35.156,34.180,27.344,89.844,0
1542908069.639,34.180,41.504,43.457,32.715,83.496,0
1542908069.643,29.785,43.457,43.945,38.574,62.988,0
1542908069.647,31.738,39.062,25.391,37.598,21.973,0
1542908069.651,31.250,39.551,21.484,33.691,9.277,0
1542908069.655,38.574,39.551,26.367,26.367,0.977,0
1542908069.659,43.457,35.645,25.391,23.926,0.488,0
1542908069.662,25.879,32.227,29.785,22.949,30.273,0
1542908069.666,22.949,25.879,31.738,27.832,72.266,0
1542908069.670,39.062,24.414,35.645,48.828,45.898,0
1542908069.674,51.270,23.438,44.434,66.406,-36.621,0
1542908069.678,49.316,36.133,41.016,50.293,-20.996,0
1542908069.682,32.715,54.688,42.480,23.438,43.457,0
1542908069.686,30.273,55.664,31.738,20.508,18.555,0
1542908069.690,32.715,50.781,10.254,22.949,-34.668,0
1542908069.694,28.809,42.969,14.160,29.297,-35.156,0
1542908069.698,33.691,43.457,19.531,32.227,-11.230,0
1542908069.702,38.574,43.457,22.949,22.949,-9.277,0
1542908069.705,35.156,44.434,27.344,17.578,13.184,0
1542908069.709,43.945,48.828,24.414,24.414,-28.809,0
1542908069.713,46.387,42.969,23.926,30.762,-45.410,0
1542908069.717,34.180,38.574,32.715,28.809,33.203,0
1542908069.721,35.645,43.945,34.180,31.738,49.805,0
1542908069.725,33.203,41.504,23.926,36.621,38.574,0
1542908069.729,31.250,35.645,25.391,34.668,64.941,0
1542908069.733,33.203,33.203,31.250,32.715,64.453,0
1542908069.737,35.156,32.715,25.879,38.086,-3.418,0
1542908069.741,37.598,33.203,20.996,38.574,-49.805,0
1542908069.744,30.762,33.691,24.902,38.574,-1.465,0
1542908069.748,26.367,38.086,28.320,36.621,46.387,0
1542908069.752,34.668,36.621,25.879,26.855,72.266,0
1542908069.756,45.898,35.156,26.367,31.738,53.223,0
1542908069.760,31.738,36.621,26.367,24.902,41.504,0
1542908069.764,28.809,35.645,27.832,16.113,27.344,0
1542908069.768,26.855,35.156,29.785,22.461,22.461,0
1542908069.772,18.066,29.297,25.391,23.926,15.625,0
1542908069.776,25.391,29.785,27.344,26.367,-20.020,0
1542908069.780,25.391,31.738,29.785,24.414,-5.859,0
1542908069.784,27.832,35.645,35.645,35.645,9.766,0
1542908069.787,26.367,36.133,32.715,36.133,54.688,0
1542908069.791,25.879,39.062,25.879,24.902,46.875,0
1542908069.795,26.367,44.434,23.438,22.461,25.879,0
1542908069.799,27.344,44.922,23.926,26.367,55.664,0
1542908069.803,24.414,36.621,27.344,38.574,54.199,0
1542908069.807,31.250,31.738,24.902,36.133,36.621,0
1542908069.811,36.133,33.691,22.949,28.320,33.203,0
1542908069.815,28.809,36.621,34.668,34.668,37.109,0
1542908069.819,33.203,43.457,43.457,37.109,5.371,0
1542908069.823,36.621,37.598,36.133,41.016,17.578,0
1542908069.827,30.762,33.691,32.715,41.992,73.242,0
1542908069.830,31.738,36.621,32.715,32.227,69.336,0
1542908069.834,42.969,37.598,32.715,25.391,37.109,0
1542908069.838,39.551,35.645,36.621,26.855,44.922,0
1542908069.842,26.367,28.320,31.738,26.367,89.355,0
1542908069.846,24.414,30.762,28.809,31.250,38.574,0
1542908069.850,29.297,35.645,42.480,45.410,18.066,0
1542908069.854,33.691,39.551,45.410,40.527,29.297,0
1542908069.858,37.598,46.875,36.133,35.645,-20.996,0
1542908069.862,30.762,36.133,25.879,37.109,-16.113,0
1542908069.866,31.738,32.227,26.367,38.574,25.391,0
1542908069.869,35.645,36.133,32.227,35.156,24.902,0
1542908069.873,31.738,34.668,35.156,28.809,-2.441,0
1542908069.877,36.133,37.598,31.250,26.367,57.617,0
1542908069.881,43.945,34.180,24.414,34.668,53.223,0
1542908069.885,36.621,29.785,35.156,40.039,-0.488,0
1542908069.889,25.879,27.832,42.480,33.203,10.742,0
1542908069.893,28.809,29.785,44.434,35.156,70.801,0
1542908069.897,26.367,34.668,50.293,32.227,26.855,0
1542908069.901,23.438,38.086,47.852,27.832,11.719,0
1542908069.905,24.902,34.668,42.480,29.297,38.574,0
1542908069.909,21.973,27.832,37.598,27.832,4.883,0
1542908069.912,21.484,26.855,35.645,29.297,5.371,0
1542908069.916,36.133,34.668,40.527,30.273,3.906,0
1542908069.920,37.109,34.668,40.039,28.809,15.137,0
1542908069.924,26.855,26.367,36.133,23.926,53.711,0
1542908069.928,34.180,29.297,37.598,30.273,56.152,0
1542908069.932,40.039,32.715,39.062,35.156,34.180,0
1542908069.936,34.668,31.250,36.621,36.621,46.875,0
1542908069.940,42.969,37.598,40.039,45.410,45.898,0
1542908069.944,43.457,42.480,51.758,36.621,15.137,0
1542908069.948,29.297,30.762,42.480,28.320,13.184,0
1542908069.952,36.133,24.414,28.320,35.645,29.785,0
1542908069.955,29.785,28.809,27.344,28.809,83.984,0
1542908069.959,17.090,28.809,34.180,29.297,56.641,0
1542908069.963,18.066,21.484,40.527,33.203,53.223,0
1542908069.967,21.973,24.902,35.156,23.926,99.609,0
1542908069.971,22.949,26.367,31.250,24.902,30.273,0
1542908069.975,20.020,28.809,31.738,31.738,8.789,0
1542908069.979,26.367,42.969,39.551,40.039,47.363,0
1542908069.983,32.715,46.387,40.039,48.340,1.465,0
1542908069.987,21.484,36.621,34.668,38.086,-50.781,0
1542908069.991,15.625,31.250,35.156,31.250,9.766,0
1542908069.994,26.367,29.785,35.156,32.715,39.062,0
1542908069.998,29.785,25.879,39.062,30.273,-13.672,0
1542908070.002,24.414,28.320,37.598,33.691,-2.930,0
1542908070.006,17.090,31.250,32.715,35.645,14.648,0
1542908070.010,21.484,33.203,32.227,25.879,-2.930,0
1542908070.014,32.227,32.715,37.109,36.621,12.207,0
1542908070.018,31.250,28.320,42.969,37.109,-17.090,0
1542908070.022,30.273,40.527,36.133,23.926,18.066,0
1542908070.026,37.109,48.828,35.156,34.180,81.055,0
1542908070.030,29.785,39.551,42.969,38.086,41.016,0
1542908070.034,28.809,35.156,35.645,32.715,21.484,0
1542908070.037,35.156,40.527,31.250,42.480,60.547,0
1542908070.041,29.297,39.062,29.297,41.992,48.828,0
1542908070.045,26.367,38.574,27.832,36.621,13.184,0
1542908070.049,34.668,41.992,36.133,32.715,37.598,0
1542908070.053,37.598,38.574,36.133,21.973,43.945,0
1542908070.057,25.391,37.109,26.367,28.320,28.809,0
1542908070.061,19.531,32.227,24.414,29.297,59.570,0
1542908070.065,29.297,31.250,26.855,21.973,67.871,0
1542908070.069,39.062,35.156,21.973,32.227,27.832,0
1542908070.073,32.715,41.504,35.156,35.645,35.156,0
1542908070.077,24.414,50.293,52.734,36.133,50.781,0
1542908070.080,24.902,36.621,40.527,33.203,36.133,0
1542908070.084,17.578,28.809,28.809,27.832,0.977,0
1542908070.088,19.043,29.785,32.715,29.297,23.438,0
1542908070.092,28.809,23.438,34.180,34.180,53.711,0
1542908070.096,30.273,30.273,38.086,36.621,43.945,0
1542908070.100,32.227,40.039,34.668,26.855,98.145,0
1542908070.104,36.621,38.574,28.320,20.020,78.613,0
1542908070.108,30.762,38.086,27.344,22.949,16.113,0
1542908070.112,33.203,46.875,32.715,22.949,19.043,0
1542908070.116,31.738,48.828,32.227,15.625,1.465,0
1542908070.119,29.297,41.016,24.902,16.602,10.254,0
1542908070.123,32.715,32.715,24.902,23.438,39.062,0
1542908070.127,30.273,27.344,22.461,23.438,64.941,0
1542908070.131,28.809,33.691,21.973,22.949,69.824,0
1542908070.135,34.180,39.551,26.855,32.715,-0.977,0
1542908070.139,28.809,33.203,27.344,30.762,12.695,0
1542908070.143,25.391,30.762,30.273,26.855,13.672,0
1542908070.147,35.645,40.039,35.645,41.504,12.695,0
1542908070.151,36.621,45.898,33.691,35.156,53.711,0
1542908070.155,26.367,35.156,27.832,22.461,54.199,0
1542908070.159,24.902,30.273,28.809,23.926,72.266,0
1542908070.162,26.855,36.133,24.414,30.273,89.355,0
1542908070.166,31.250,38.086,26.855,34.180,73.730,0
1542908070.170,33.203,35.156,37.598,26.367,65.918,0
1542908070.174,32.227,28.809,39.062,26.367,36.621,0
1542908070.178,32.715,29.785,32.715,40.527,31.738,0
1542908070.182,34.668,37.598,28.809,41.016,3.906,0
1542908070.186,35.156,40.527,39.062,38.086,8.789,0
1542908070.190,32.227,39.551,43.945,42.480,64.453,0
1542908070.194,36.621,48.828,41.504,37.109,0.000,0
1542908070.198,39.551,56.641,44.434,38.574,-43.945,0
1542908070.202,32.227,49.805,37.598,34.180,12.695,0
1542908070.205,29.297,39.551,26.367,30.762,18.066,0
1542908070.209,30.762,28.320,25.879,38.574,55.664,0
1542908070.213,40.527,28.809,30.762,39.551,80.566,0
1542908070.217,41.992,38.574,31.738,35.645,28.809,0
1542908070.221,41.992,43.945,31.250,34.668,3.418,0
1542908070.225,46.387,43.457,30.762,34.668,20.508,0
1542908070.229,45.410,46.387,41.992,39.062,-5.371,0
1542908070.233,44.922,48.828,52.734,41.992,-8.789,0
1542908070.237,34.668,44.434,41.504,44.922,52.734,0
1542908070.241,28.320,36.133,38.574,34.668,5.371,0
1542908070.244,38.086,36.621,37.109,32.715,8.301,0
1542908070.248,40.527,40.527,31.250,43.457,21.484,0
1542908070.252,35.645,36.133,30.762,39.062,24.902,0
1542908070.256,37.109,37.598,39.551,42.480,38.086,0
1542908070.260,34.180,39.551,43.457,35.645,-23.926,0
1542908070.264,26.855,33.203,37.598,27.832,11.719,0
1542908070.268,28.809,35.156,33.691,30.762,77.637,0
1542908070.272,31.250,40.039,34.668,33.691,50.781,0
1542908070.276,24.902,33.691,35.156,31.250,-18.555,0
1542908070.280,20.508,27.344,33.203,31.738,8.301,0
1542908070.284,21.973,31.738,31.738,36.133,61.035,0
1542908070.287,27.344,35.645,32.715,34.180,57.617,0
1542908070.291,39.062,37.109,31.250,38.574,3.418,0
1542908070.295,42.969,47.363,34.668,41.504,24.414,0
1542908070.299,40.039,51.758,41.016,48.340,13.184,0
1542908070.303,40.039,38.574,41.992,45.410,-17.578,0
1542908070.307,31.250,31.738,26.367,36.133,34.668,0
1542908070.311,20.996,34.668,16.602,33.691,35.645,0
1542908070.315,24.414,34.180,25.879,30.762,42.969,0
1542908070.319,22.949,30.273,34.180,40.039,47.852,0
1542908070.323,19.043,32.227,40.527,39.551,38.086,0
1542908070.327,20.508,32.227,41.504,26.367,71.777,0
1542908070.330,20.996,36.621,30.762,24.902,37.109,0
1542908070.334,21.973,37.598,29.785,22.949,19.043,0
1542908070.338,20.020,33.691,32.715,24.902,68.359,0
1542908070.342,22.461,35.645,32.227,30.762,74.707,0
1542908070.346,20.996,31.738,31.250,26.367,8.301,0
1542908070.350,29.297,31.738,31.250,17.090,16.602,0
1542908070.354,38.086,36.133,40.039,22.949,27.832,0
1542908070.358,26.855,36.133,39.551,26.367,41.992,0
1542908070.362,15.625,39.551,33.203,20.508,30.762,0
1542908070.366,23.926,40.039,43.457,38.086,-17.090,0
1542908070.369,40.039,27.832,41.504,55.664,9.277,0
1542908070.373,30.762,32.715,37.109,30.273,11.719,0
1542908070.377,6.836,40.039,39.062,-5.859,62.012,0
1542908070.381,3.906,40.039,20.996,-9.766,109.863,0
1542908070.385,7.812,45.898,15.625,1.953,51.270,0
1542908070.389,1.953,47.363,22.949,11.719,22.461,0
1542908070.393,4.395,44.434,21.484,2.930,16.113,0
1542908070.397,18.555,44.434,26.855,3.906,5.859,0
1542908070.401,22.461,45.898,41.992,12.207,50.293,0
1542908070.405,19.043,42.969,40.527,13.184,30.273,0
1542908070.409,22.949,37.109,25.879,19.043,48.828,0
1542908070.412,25.879,34.180,27.344,22.949,45.410,0
1542908070.416,26.367,38.574,29.297,20.508,14.160,0
1542908070.420,18.555,34.668,31.738,18.555,-10.254,0
1542908070.424,19.531,31.738,32.715,26.367,11.230,0
1542908070.428,25.391,40.039,24.902,24.414,29.297,0
1542908070.432,24.902,37.109,23.926,20.996,5.371,0
1542908070.436,26.855,38.574,26.367,27.344,72.266,0
1542908070.440,32.227,45.898,33.691,31.738,42.480,0
1542908070.444,29.297,41.016,30.273,33.203,31.738,0
1542908070.448,26.855,37.109,23.926,28.809,53.711,0
1542908070.452,30.273,39.551,34.668,25.391,37.109,0
1542908070.455,22.461,36.133,42.480,18.066,13.184,0
1542908070.459,11.719,29.297,36.621,19.531,42.969,0
1542908070.463,23.926,31.738,26.367,28.320,49.805,0
1542908070.467,34.668,37.109,23.438,21.484,1.953,0
1542908070.471,35.156,39.551,37.598,26.855,13.672,0
1542908070.475,36.621,50.293,44.434,30.762,0.488,0
1542908070.479,26.367,46.875,33.691,19.043,1.953,0
1542908070.483,14.648,34.668,35.156,18.066,41.016,0
1542908070.487,26.367,31.738,40.039,19.043,25.391,0
1542908070.491,39.551,34.180,36.133,25.879,28.809,0
1542908070.494,32.227,35.156,37.109,38.086,33.691,0
1542908070.498,30.273,37.598,44.434,42.969,-26.855,0
1542908070.502,27.832,41.504,49.316,40.527,2.930,0
1542908070.506,20.020,40.039,41.504,41.992,28.320,0
1542908070.510,26.855,36.621,26.855,41.504,-6.348,0
1542908070.514,33.203,32.715,25.879,35.645,-47.852,0
1542908070.518,32.227,32.715,36.133,44.922,-70.801,0
1542908070.522,35.645,37.109,42.969,46.387,-18.555,0
1542908070.526,45.410,41.504,38.574,45.898,-30.762,0
1542908070.530,41.504,41.504,33.691,51.758,-4.395,0
1542908070.534,26.367,35.645,34.180,33.203,59.082,0
1542908070.537,22.461,34.668,29.785,15.625,35.645,0
1542908070.541,24.902,38.574,37.109,28.320,39.551,0
1542908070.545,24.902,39.062,49.805,30.762,67.383,0
1542908070.549,31.738,41.016,50.293,31.738,75.684,0
1542908070.553,36.133,42.480,44.922,45.898,58.594,0
1542908070.557,37.109,42.969,43.945,47.852,28.809,0
1542908070.561,38.086,34.180,39.551,41.016,35.645,0
1542908070.565,23.438,26.367,33.203,28.809,85.449,0
1542908070.569,28.809,32.715,32.227,32.227,51.758,0
1542908070.573,30.273,38.086,30.273,44.434,21.973,0
1542908070.577,20.508,40.527,34.180,34.668,42.480,0
1542908070.580,27.344,36.133,39.062,23.438,55.176,0
1542908070.584,31.738,34.180,39.062,32.715,106.445,0
1542908070.588,33.203,41.016,44.922,35.156,66.406,0
1542908070.592,39.551,43.945,44.922,35.156,23.926,0
1542908070.596,38.086,37.109,39.062,35.645,72.754,0
1542908070.600,31.250,35.645,36.621,30.273,71.289,0
1542908070.604,21.973,35.156,41.504,33.203,22.949,0
1542908070.608,33.203,35.645,44.434,41.016,22.949,0
1542908070.612,42.969,40.039,43.945,43.945,34.668,0
1542908070.616,40.039,41.016,37.109,39.551,3.418,0
1542908070.619,37.598,39.062,33.203,37.109,0.000,0
1542908070.623,36.621,42.480,37.109,40.039,44.434,0
1542908070.627,39.551,43.945,39.062,38.574,76.660,0
1542908070.631,41.504,36.621,37.109,28.809,80.078,0
1542908070.635,43.945,38.086,40.039,27.344,107.910,0
1542908070.639,32.715,39.062,41.504,29.297,65.918,0
1542908070.643,30.273,31.738,36.133,31.250,-9.766,0
1542908070.647,42.480,31.250,32.227,37.109,17.578,0
1542908070.651,51.758,34.668,26.855,39.551,47.363,0
1542908070.655,32.715,33.203,31.738,34.180,3.906,0
1542908070.659,14.648,36.621,42.969,28.320,62.012,0
1542908070.662,21.484,34.180,44.434,26.367,101.562,0
1542908070.666,16.602,24.414,48.340,21.484,49.316,0
1542908070.670,19.043,28.320,54.199,25.879,57.617,0
1542908070.674,21.973,30.762,50.781,28.809,66.406,0
1542908070.678,18.555,21.973,41.992,20.996,44.434,0
1542908070.682,18.555,19.043,41.504,17.578,57.129,0
1542908070.686,15.137,25.879,45.898,22.461,41.992,0
1542908070.690,13.672,33.691,30.762,26.367,6.348,0
1542908070.694,24.414,39.062,23.926,19.531,25.879,0
1542908070.698,32.715,39.062,30.273,20.508,31.738,0
1542908070.702,35.645,33.203,34.668,40.527,4.395,0
1542908070.705,31.738,25.391,38.574,38.086,-4.395,0
1542908070.709,23.438,25.879,41.016,32.227,14.648,0
1542908070.713,22.949,33.203,40.039,26.855,59.082,0
1542908070.717,30.273,35.645,44.434,30.762,64.941,0
1542908070.721,33.203,34.180,46.387,37.109,12.695,0
1542908070.725,20.996,35.156,40.039,27.344,26.367,0
1542908070.729,14.160,34.180,42.969,27.344,20.020,0
1542908070.733,17.578,33.691,40.527,27.832,16.113,0
1542908070.737,33.203,36.621,35.645,22.949,73.242,0
1542908070.741,36.133,38.086,42.969,30.762,61.035,0
1542908070.744,28.320,39.062,37.109,35.645,47.852,0
1542908070.748,32.227,35.156,30.273,36.133,40.527,0
1542908070.752,34.180,33.691,32.227,30.273,-39.551,0
1542908070.756,36.621,42.480,27.344,27.344,23.438,0
1542908070.760,42.480,46.387,29.785,34.668,31.738,0
1542908070.764,30.762,43.945,43.945,30.273,-9.277,0
1542908070.768,24.414,42.480,43.457,24.902,-1.465,0
1542908070.772,32.715,43.457,33.203,31.738,-1.465,0
1542908070.776,27.344,43.457,34.668,27.832,36.621,0
1542908070.780,22.461,41.016,41.504,22.949,32.227,0
1542908070.784,33.203,37.109,35.156,33.203,14.648,0
1542908070.787,34.180,40.527,25.879,27.832,31.250,0
1542908070.791,28.320,44.922,37.109,30.762,21.973,0
1542908070.795,30.273,47.363,41.992,33.691,71.289,0
1542908070.799,34.180,41.504,39.062,31.250,57.617,0
1542908070.803,38.086,27.344,39.062,47.852,23.926,0
1542908070.807,40.527,27.832,37.109,46.387,34.668,0
1542908070.811,24.902,39.062,37.598,12.207,40.039,0
1542908070.815,16.113,46.875,32.227,5.371,71.289,0
1542908070.819,26.367,47.852,23.926,28.809,59.570,0
1542908070.823,36.621,39.551,28.809,38.574,32.715,0
1542908070.827,38.086,38.574,35.645,34.180,-7.324,0
1542908070.830,37.109,43.945,33.691,37.598,28.809,0
1542908070.834,33.691,43.945,29.297,38.086,33.691,0
1542908070.838,29.785,42.480,29.297,40.527,-9.766,0
1542908070.842,37.109,43.457,39.062,52.246,44.434,0
1542908070.846,23.438,32.227,31.738,35.645,48.340,0
1542908070.850,18.066,29.297,24.902,20.508,23.438,0
1542908070.854,21.484,33.203,35.156,21.973,56.152,0
1542908070.858,19.531,34.180,30.273,18.555,55.176,0
1542908070.862,32.227,38.574,23.926,22.461,17.578,0
1542908070.866,35.156,38.086,27.832,31.250,12.207,0
1542908070.869,29.297,34.180,21.484,33.203,22.461,0
1542908070.873,33.691,38.574,22.461,28.809,16.113,0
1542908070.877,34.180,43.457,35.645,39.551,32.227,0
1542908070.881,26.855,42.969,36.133,38.086,42.480,0
1542908070.885,19.531,37.598,30.273,21.484,56.152,0
1542908070.889,18.066,36.133,31.738,20.020,67.383,0
1542908070.893,28.809,35.645,39.062,27.832,19.531,0
1542908070.897,34.668,35.645,36.133,28.809,16.602,0
1542908070.901,23.438,38.086,28.809,26.367,16.602,0
1542908070.905,18.555,38.574,29.785,26.367,8.301,0
1542908070.909,28.320,41.016,34.180,35.645,44.434,0
1542908070.912,32.715,41.016,33.203,40.039,58.594,0
1542908070.916,29.785,33.691,27.344,36.621,63.965,0
1542908070.920,35.645,34.180,18.066,27.832,6.836,0
1542908070.924,47.852,35.645,28.809,30.762,10.742,0
1542908070.928,52.246,35.645,40.527,41.016,15.137,0
1542908070.932,41.992,40.039,31.250,35.156,-28.809,0
1542908070.936,41.992,44.434,29.785,36.133,-3.906,0
1542908070.940,33.203,41.016,33.203,41.992,10.742,0
1542908070.944,21.973,38.086,32.227,43.945,-22.461,0
1542908070.948,21.484,36.133,26.367,31.738,45.410,0
1542908070.952,17.090,31.250,30.762,22.461,81.543,0
1542908070.955,14.160,31.250,40.039,25.879,44.922,0
1542908070.959,20.508,29.785,33.691,32.715,50.293,0
1542908070.963,25.391,28.320,34.180,26.367,-6.348,0
1542908070.967,35.156,38.086,32.227,16.113,27.832,0
1542908070.971,37.598,33.691,26.855,25.879,66.895,0
1542908070.975,29.785,33.203,35.156,39.062,56.641,0
1542908070.979,33.203,43.457,47.852,41.504,36.621,0
1542908070.983,27.344,30.273,39.551,36.621,-13.672,0
1542908070.987,26.855,21.973,24.414,25.391,17.578,0
1542908070.991,35.156,28.320,28.320,25.879,33.691,0
1542908070.994,22.461,26.367,37.109,31.250,11.230,0
1542908070.998,22.461,32.715,39.062,39.551,5.859,0
1542908071.002,21.973,40.527,37.109,41.504,-21.484,0
1542908071.006,23.926,39.062,40.039,37.598,-20.020,0
1542908071.010,34.180,40.039,37.598,33.203,38.574,0
1542908071.014,37.598,39.062,39.062,29.297,56.152,0
1542908071.018,28.320,35.156,43.945,31.250,-11.230,0
1542908071.022,31.250,30.273,44.434,37.598,43.457,0
1542908071.026,35.645,33.203,39.551,32.715,67.871,0
1542908071.030,20.020,35.156,30.762,16.602,-11.719,0
1542908071.034,21.484,41.016,28.809,16.602,-5.371,0
1542908071.037,22.461,42.480,26.367,22.949,43.457,0
1542908071.041,26.367,38.574,28.320,30.273,32.227,0
1542908071.045,33.691,46.387,34.180,29.785,26.855,0
1542908071.049,31.738,45.898,28.809,23.926,56.152,0
1542908071.053,37.598,41.992,37.598,21.484,71.289,0
1542908071.057,44.434,43.945,42.969,26.367,76.660,0
1542908071.061,38.574,39.551,32.715,26.855,11.230,0
1542908071.065,25.879,39.062,31.738,25.879,14.160,0
1542908071.069,27.832,41.016,27.344,26.367,51.758,0
1542908071.073,30.273,37.109,24.902,25.391,10.254,0
1542908071.077,31.250,40.527,31.250,26.367,21.484,0
1542908071.080,33.203,41.016,29.785,30.762,26.367,0
1542908071.084,33.203,40.039,27.832,39.551,0.000,0
1542908071.088,37.598,37.598,34.180,40.039,39.062,0
1542908071.092,38.086,36.133,35.645,28.809,81.055,0
1542908071.096,23.926,40.527,36.621,17.090,51.758,0
1542908071.100,13.184,41.016,34.668,12.207,48.340,0
1542908071.104,19.043,39.062,28.320,14.160,-0.488,0
1542908071.108,31.738,43.457,34.180,31.250,20.996,0
1542908071.112,30.762,43.945,36.133,28.809,81.055,0
1542908071.116,26.855,35.156,23.926,21.484,36.621,0
1542908071.119,25.879,35.156,20.996,29.297,-3.418,0
1542908071.123,18.066,35.156,34.180,22.949,42.969,0
1542908071.127,18.066,38.086,39.551,22.461,76.660,0
1542908071.131,29.785,42.480,35.156,31.738,8.789,0
1542908071.135,29.297,43.945,28.809,33.203,-3.906,0
1542908071.139,30.762,52.734,36.621,31.250,29.785,0
1542908071.143,26.367,50.293,48.828,24.902,58.594,0
1542908071.147,17.578,48.340,43.945,18.555,40.527,0
1542908071.151,17.090,52.734,34.180,11.230,51.270,0
1542908071.155,6.836,49.316,34.668,4.883,99.609,0
1542908071.159,-6.836,51.270,40.039,-4.395,66.895,0
1542908071.162,-20.020,57.129,46.875,-14.648,50.781,0
1542908071.166,-24.902,67.383,48.828,-21.973,42.969,0
1542908071.170,-30.762,76.660,49.316,-36.133,-4.395,0
1542908071.174,-49.805,71.777,51.270,-61.035,-7.812,0
1542908071.178,-64.453,78.125,55.176,-62.500,17.090,0
1542908071.182,-79.590,80.078,59.082,-70.801,22.949,0
1542908071.186,-98.145,90.820,58.105,-97.168,75.195,0
1542908071.190,-117.676,103.516,54.199,-114.746,87.402,0
1542908071.194,-124.512,99.609,60.059,-126.953,7.812,0
1542908071.198,-125.000,98.145,61.523,-135.254,-15.137,0
1542908071.202,-129.883,107.422,62.988,-145.020,14.160,0
1542908071.205,-128.906,107.422,60.547,-137.207,65.430,0
1542908071.209,-114.746,93.262,56.152,-123.535,35.645,0
1542908071.213,-110.840,80.566,58.105,-118.164,7.324,0
1542908071.217,-104.980,69.824,55.176,-99.121,43.945,0
1542908071.221,-84.961,66.895,57.129,-88.867,13.672,0
1542908071.225,-85.938,59.570,52.734,-88.867,30.273,0
1542908071.229,-86.914,49.805,46.387,-67.383,58.105,0
1542908071.233,-75.195,47.852,43.457,-48.340,56.641,0
1542908071.237,-55.664,43.457,39.551,-45.898,46.875,0
1542908071.241,-42.969,43.945,44.434,-30.273,-3.418,0
1542908071.244,-25.879,46.387,53.223,-7.812,8.301,0
1542908071.248,0.977,39.062,53.711,7.324,-16.602,0
1542908071.252,8.789,29.785,50.293,18.066,-26.367,0
1542908071.256,10.254,22.461,41.504,27.344,-14.160,0
1542908071.260,19.043,20.508,36.621,42.969,-12.695,0
1542908071.264,23.926,18.066,35.645,52.246,55.664,0
1542908071.268,28.320,12.207,27.344,48.828,74.707,0
1542908071.272,43.945,14.160,20.996,55.664,27.832,0
1542908071.276,53.223,15.625,33.203,67.383,29.297,0
1542908071.280,57.129,11.719,39.062,77.637,48.828,0
1542908071.284,56.152,9.277,23.438,77.148,0.000,0
1542908071.287,57.617,8.301,23.438,76.660,-41.992,0
1542908071.291,67.871,13.672,26.855,75.684,42.480,0
1542908071.295,69.824,18.555,24.902,69.336,94.727,0
1542908071.299,72.266,17.578,14.648,72.754,26.367,0
1542908071.303,79.590,16.113,12.207,85.449,21.973,0
1542908071.307,82.031,11.719,22.949,93.262,55.664,0
1542908071.311,77.148,8.301,20.508,84.473,32.227,0
1542908071.315,80.566,11.719,20.020,82.031,20.996,0
1542908071.319,86.426,23.438,31.738,89.844,9.766,0
1542908071.323,77.148,17.090,29.785,86.914,26.367,0
1542908071.327,75.195,10.254,15.137,91.309,56.152,0
1542908071.330,86.426,15.625,17.090,94.727,47.852,0
1542908071.334,85.938,18.066,28.320,84.961,95.215,0
1542908071.338,88.867,22.949,27.344,80.566,80.566,0
1542908071.342,91.309,18.066,16.602,83.496,21.484,0
1542908071.346,85.449,12.695,20.020,90.332,31.250,0
1542908071.350,83.496,18.066,29.297,87.402,35.156,0
1542908071.354,87.891,21.484,29.785,83.008,52.246,0
1542908071.358,85.449,19.531,14.648,82.520,103.516,0
1542908071.362,81.055,21.973,11.230,81.055,53.223,0
1542908071.366,83.496,26.367,24.902,84.473,-10.254,0
1542908071.369,83.496,19.531,35.645,87.891,10.742,0
1542908071.373,79.590,14.160,29.297,76.660,68.848,0
1542908071.377,83.008,21.484,30.273,76.660,93.750,0
1542908071.381,85.938,25.879,46.387,82.031,53.711,0
1542908071.385,82.031,24.414,29.297,72.266,1.465,0
1542908071.389,80.078,18.555,15.625,74.219,15.137,0
1542908071.393,82.520,12.695,20.508,75.195,41.504,0
1542908071.397,77.148,17.578,23.438,67.871,27.832,0
1542908071.401,64.941,20.508,23.438,67.871,22.949,0
1542908071.405,65.430,20.508,31.250,68.359,25.391,0
1542908071.409,62.500,21.973,40.527,67.383,35.645,0
1542908071.412,55.664,20.508,29.297,59.082,31.738,0
1542908071.416,56.641,17.090,28.809,52.734,51.270,0
1542908071.420,51.270,20.996,30.273,54.199,66.895,0
1542908071.424,43.457,29.785,21.973,58.594,46.875,0
1542908071.428,45.898,24.902,21.973,58.594,40.527,0
1542908071.432,56.641,18.555,24.414,59.082,49.316,0
1542908071.436,57.617,23.438,21.973,68.359,43.945,0
1542908071.440,53.711,20.508,28.809,59.082,48.828,0
1542908071.444,47.363,20.996,36.621,54.199,39.551,0
1542908071.448,46.875,26.855,26.367,58.105,-23.926,0
1542908071.452,56.152,31.738,23.926,61.035,-24.414,0
1542908071.455,59.082,26.367,42.480,72.754,-16.113,0
1542908071.459,73.242,19.043,35.645,86.914,24.414,0
1542908071.463,69.824,34.668,16.113,63.965,54.199,0
1542908071.467,42.480,55.664,12.207,33.203,51.758,0
1542908071.471,21.973,47.852,7.812,24.902,47.363,0
1542908071.475,19.043,33.203,10.742,12.695,45.410,0
1542908071.479,19.043,35.645,26.367,12.695,33.203,0
1542908071.483,9.766,33.691,31.738,16.113,-3.418,0
1542908071.487,10.254,21.973,25.391,11.719,9.766,0
1542908071.491,19.043,19.531,16.602,17.090,50.293,0
1542908071.494,36.621,34.668,-5.371,32.715,26.855,0
1542908071.498,41.504,38.574,4.395,39.551,68.359,0
1542908071.502,35.645,29.297,32.227,34.668,95.215,0
1542908071.506,41.992,29.297,31.250,24.902,66.406,0
1542908071.510,51.270,34.180,26.367,33.203,47.363,0
1542908071.514,53.711,38.086,44.434,41.504,-3.906,0
1542908071.518,44.922,34.180,48.340,32.715,-12.207,0
1542908071.522,43.945,31.738,47.852,34.668,50.781,0
1542908071.526,45.898,31.738,50.293,34.180,67.871,0
1542908071.530,40.527,23.438,28.809,23.926,83.496,0
1542908071.534,41.016,15.137,12.695,32.227,57.129,0
1542908071.537,34.180,17.090,17.578,39.551,68.359,0
1542908071.541,30.273,21.484,18.066,30.273,25.879,0
1542908071.545,40.039,34.668,23.438,38.086,-2.441,0
1542908071.549,45.410,44.434,36.133,39.062,22.461,0
1542908071.553,47.363,44.922,43.457,33.203,-15.137,0
1542908071.557,42.969,35.156,28.320,31.250,14.160,0
1542908071.561,39.551,17.090,9.277,31.738,19.531,0
1542908071.565,44.922,23.926,19.531,35.645,13.184,0
1542908071.569,33.203,30.762,23.926,33.691,11.719,0
1542908071.573,33.203,28.809,22.949,37.109,-7.324,0
1542908071.577,40.039,33.691,23.438,36.621,63.965,0
1542908071.580,49.316,37.598,18.066,38.086,66.895,0
1542908071.584,60.059,28.809,23.438,47.852,-8.301,0
1542908071.588,44.434,27.832,16.113,40.039,-5.859,0
1542908071.592,45.898,38.086,14.160,46.875,36.133,0
1542908071.596,53.223,37.109,24.902,48.828,17.090,0
1542908071.600,41.504,29.785,15.625,39.062,56.152,0
1542908071.604,42.480,30.273,12.207,44.434,66.895,0
1542908071.608,46.875,34.180,20.996,39.551,37.109,0
1542908071.612,52.246,40.039,21.973,43.945,37.598,0
1542908071.616,54.688,43.457,33.691,61.523,37.598,0
1542908071.619,61.035,44.434,29.785,65.430,75.195,0
1542908071.623,70.312,47.852,11.230,46.875,39.551,0
1542908071.627,52.734,41.992,19.043,42.480,3.418,0
1542908071.631,43.457,34.180,35.645,52.734,20.020,0
1542908071.635,50.781,39.062,26.855,45.898,-0.977,0
1542908071.639,42.480,37.598,18.066,36.621,2.441,0
1542908071.643,48.340,35.645,16.602,37.598,40.527,0
1542908071.647,52.734,41.504,11.719,51.270,88.867,0
1542908071.651,50.293,41.504,18.066,60.059,82.031,0
1542908071.655,38.574,37.598,34.668,53.711,86.914,0
1542908071.659,24.902,36.133,49.805,43.457,67.383,0
1542908071.662,26.855,27.344,37.598,43.457,42.480,0
1542908071.666,22.949,25.391,23.926,45.898,49.316,0
1542908071.670,24.902,31.738,35.156,41.016,41.992,0
1542908071.674,36.621,35.645,38.574,42.969,8.301,0
1542908071.678,45.898,39.062,38.086,57.129,-1.953,0
1542908071.682,40.527,36.621,36.621,45.898,37.598,0
1542908071.686,41.992,37.598,39.062,35.645,56.152,0
1542908071.690,41.016,37.109,42.480,41.992,36.621,0
1542908071.694,33.691,30.273,37.598,40.527,31.250,0
1542908071.698,38.086,32.715,41.016,36.621,60.547,0
1542908071.702,44.434,40.527,41.504,40.039,97.656,0
1542908071.705,51.758,41.504,36.621,55.664,54.688,0
1542908071.709,56.152,44.434,36.621,60.059,41.504,0
1542908071.713,58.594,49.805,39.551,50.293,40.039,0
1542908071.717,49.316,41.504,36.133,50.293,10.742,0
1542908071.721,36.621,37.598,26.367,41.504,20.020,0
1542908071.725,39.551,38.086,26.367,42.480,55.664,0
1542908071.729,38.574,38.574,37.109,39.551,5.371,0
1542908071.733,36.621,39.551,33.203,26.855,-5.371,0
1542908071.737,37.598,31.738,27.344,28.809,25.879,0
1542908071.741,30.762,30.762,37.598,30.762,-34.180,0
1542908071.744,23.438,32.227,36.133,22.949,-16.602,0
1542908071.748,37.598,41.992,19.531,29.297,17.578,0
1542908071.752,48.828,50.781,12.695,42.969,28.809,0
1542908071.756,44.922,41.992,5.859,34.180,20.508,0
1542908071.760,46.875,33.203,20.508,32.715,3.418,0
1542908071.764,42.969,29.297,37.598,31.250,-2.930,0
1542908071.768,26.367,25.391,31.738,21.484,-11.719,0
1542908071.772,16.113,24.414,15.625,21.973,5.371,0
1542908071.776,23.926,31.738,12.207,28.320,33.691,0
1542908071.780,32.227,42.969,36.133,35.156,37.109,0
1542908071.784,40.039,49.805,45.898,38.574,53.223,0
1542908071.787,35.156,48.340,32.715,30.273,53.223,0
1542908071.791,19.043,40.039,25.879,21.484,43.457,0
1542908071.795,28.809,36.621,32.715,26.855,36.133,0
1542908071.799,32.715,41.992,34.180,27.832,-15.137,0
1542908071.803,28.809,38.086,23.926,15.137,5.371,0
1542908071.807,29.785,39.551,28.809,17.578,45.410,0
1542908071.811,27.832,44.434,33.691,30.273,19.043,0
1542908071.815,22.949,36.133,26.367,31.738,-3.906,0
1542908071.819,16.113,30.273,23.926,25.879,5.371,0
1542908071.823,13.672,35.156,19.043,26.367,-16.602,0
1542908071.827,20.508,43.945,18.555,30.273,-16.113,0
1542908071.830,21.484,43.945,30.762,25.391,-19.531,0
1542908071.834,20.996,35.156,39.062,32.227,-10.254,0
1542908071.838,23.926,25.391,34.180,30.273,8.301,0
1542908071.842,20.020,30.273,23.438,19.531,65.430,0
1542908071.846,19.043,37.109,29.785,19.531,21.973,0
1542908071.850,31.250,40.527,43.457,27.344,-46.387,0
1542908071.854,40.527,40.527,39.062,31.738,14.648,0
1542908071.858,20.996,32.227,32.227,27.344,39.062,0
1542908071.862,12.207,29.785,43.945,23.926,41.992,0
1542908071.866,24.902,31.250,53.223,26.367,34.180,0
1542908071.869,17.578,26.367,44.434,20.996,48.340,0
1542908071.873,12.695,20.508,42.480,31.250,36.133,0
1542908071.877,16.113,34.668,45.410,34.180,-11.719,0
1542908071.881,12.695,32.715,45.410,16.602,8.789,0
1542908071.885,18.066,20.996,42.969,23.926,6.348,0
1542908071.889,16.602,29.785,40.039,26.367,-29.785,0
1542908071.893,17.578,36.621,40.527,18.555,-2.930,0
1542908071.897,22.949,29.785,39.062,22.461,-13.184,0
1542908071.901,24.414,24.902,35.156,22.949,5.371,0
1542908071.905,29.785,31.738,38.574,23.438,15.625,0
1542908071.909,34.180,36.621,33.203,22.949,16.113,0
1542908071.912,19.043,36.133,25.879,20.996,79.102,0
1542908071.916,14.160,31.738,35.156,25.391,48.828,0
1542908071.920,26.367,30.762,38.574,27.344,43.457,0
1542908071.924,35.156,37.109,34.668,33.691,47.852,0
1542908071.928,36.133,43.457,35.156,36.621,20.508,0
1542908071.932,22.949,33.691,36.133,29.785,39.062,0
1542908071.936,27.832,28.809,41.992,31.250,63.965,0
1542908071.940,30.273,36.133,41.016,23.926,31.250,0
1542908071.944,30.762,36.621,26.855,19.531,18.066,0
1542908071.948,27.344,35.645,17.090,23.926,69.336,0
1542908071.952,27.832,41.016,23.926,31.250,90.332,0
1542908071.955,34.668,38.574,35.156,36.133,41.016,0
1542908071.959,31.250,33.203,37.598,36.133,37.109,0
1542908071.963,37.109,28.809,40.527,38.574,64.453,0
1542908071.967,43.945,33.691,43.457,35.156,-8.301,0
1542908071.971,37.598,39.062,44.922,34.180,7.812,0
1542908071.975,29.785,36.621,31.250,36.133,60.547,0
1542908071.979,38.086,31.250,15.625,35.156,41.504,0
1542908071.983,41.016,30.762,18.555,35.156,65.918,0
1542908071.987,34.668,34.668,37.109,33.203,106.445,0
1542908071.991,37.598,36.133,41.992,24.902,82.520,0
1542908071.994,37.598,32.227,40.039,30.273,65.430,0
1542908071.998,26.855,29.297,36.133,28.320,16.113,0
1542908072.002,28.809,31.250,22.461,22.461,15.137,0
1542908072.006,30.762,32.715,29.785,27.344,71.777,0
1542908072.010,18.555,29.785,40.527,35.645,56.152,0
1542908072.014,26.367,27.344,31.250,42.969,93.750,0
1542908072.018,28.809,36.133,34.668,41.504,74.219,0
1542908072.022,25.391,32.715,44.922,40.527,1.465,0
1542908072.026,26.367,31.738,38.574,41.016,9.277,0
1542908072.030,21.484,30.762,31.738,34.668,26.367,0
1542908072.034,26.855,26.367,32.227,30.273,35.156,0
1542908072.037,38.086,35.645,41.992,42.480,38.086,0
1542908072.041,32.227,40.039,36.621,36.133,5.859,0
1542908072.045,25.391,40.039,24.902,21.484,8.789,0
1542908072.049,22.949,39.551,22.461,22.949,79.102,0
1542908072.053,29.785,27.832,26.367,34.180,77.148,0
1542908072.057,44.922,18.066,36.133,53.711,11.230,0
1542908072.061,38.086,39.551,27.832,42.969,-26.855,0
1542908072.065,21.484,57.129,22.949,11.719,-18.066,0
1542908072.069,21.973,41.504,28.320,7.812,17.578,0
1542908072.073,29.297,39.551,23.926,14.648,44.434,0
1542908072.077,34.668,55.176,28.320,19.043,-10.254,0
1542908072.080,24.902,60.059,20.996,17.090,-10.742,0
1542908072.084,25.391,52.734,6.348,7.324,1.465,0
1542908072.088,36.621,50.293,13.672,4.883,21.484,0
1542908072.092,33.203,48.828,9.277,12.207,31.250,0
1542908072.096,30.273,41.504,5.859,25.391,61.035,0
1542908072.100,30.273,45.898,18.555,27.344,90.332,0
1542908072.104,31.738,46.875,20.996,21.484,45.898,0
1542908072.108,42.969,36.621,19.043,22.949,28.320,0
1542908072.112,52.734,44.434,21.484,28.809,26.855,0
1542908072.116,39.062,51.758,24.902,27.832,43.945,0
1542908072.119,25.391,34.668,22.461,23.926,79.102,0
1542908072.123,32.227,30.273,20.996,28.809,58.105,0
1542908072.127,38.574,41.992,6.348,31.738,20.020,0
1542908072.131,37.598,41.016,7.812,34.180,12.695,0
1542908072.135,34.668,39.062,28.320,29.785,29.297,0
1542908072.139,32.227,42.480,27.832,19.531,-1.465,0
1542908072.143,34.180,54.688,29.785,30.273,-10.742,0
1542908072.147,35.645,45.410,34.668,33.691,20.996,0
1542908072.151,49.316,33.691,37.109,25.879,27.832,0
1542908072.155,55.664,41.016,33.691,27.832,17.578,0
1542908072.159,36.133,41.504,30.273,28.809,12.207,0
1542908072.162,29.297,41.992,26.855,33.203,42.480,0
1542908072.166,33.203,42.969,22.461,31.250,37.598,0
1542908072.170,33.203,34.180,25.391,28.320,-35.156,0
1542908072.174,35.156,29.785,31.738,27.832,16.113,0
1542908072.178,34.180,36.621,27.344,19.531,51.758,0
1542908072.182,43.457,44.922,24.414,23.438,30.762,0
1542908072.186,45.898,36.621,31.250,35.156,51.270,0
1542908072.190,31.250,30.762,36.133,27.832,54.688,0
1542908072.194,32.715,36.621,31.738,19.043,62.988,0
1542908072.198,38.086,44.434,21.973,32.715,83.008,0
1542908072.202,40.527,48.828,22.461,36.621,72.266,0
1542908072.205,38.086,41.992,23.926,22.949,46.387,0
1542908072.209,36.133,44.922,38.574,30.762,33.691,0
1542908072.213,36.133,39.062,43.945,34.668,79.102,0
1542908072.217,32.227,32.715,30.273,36.133,72.266,0
1542908072.221,38.086,36.133,34.668,37.109,6.348,0
1542908072.225,52.734,41.504,46.875,27.344,25.879,0
1542908072.229,46.387,52.734,36.133,31.738,86.426,0
1542908072.233,26.855,42.480,18.555,30.762,22.461,0
1542908072.237,26.855,25.879,21.484,29.297,-14.160,0
1542908072.241,37.598,26.367,26.855,38.086,41.016,0
1542908072.244,38.574,27.832,26.367,41.016,63.477,0
1542908072.248,35.156,27.344,43.945,37.598,74.219,0
1542908072.252,28.320,29.785,56.641,41.504,82.520,0
1542908072.256,23.438,33.203,45.898,39.551,43.945,0
1542908072.260,26.855,34.180,34.668,32.715,72.266,0
1542908072.264,40.039,29.785,31.738,48.340,49.316,0
1542908072.268,41.016,26.855,28.320,40.527,24.902,0
1542908072.272,32.715,33.203,27.832,26.367,41.504,0
1542908072.276,36.133,39.062,39.551,42.969,72.754,0
1542908072.280,41.504,40.039,47.363,51.270,47.363,0
1542908072.284,36.133,35.156,36.133,38.574,33.203,0
1542908072.287,33.691,29.297,24.414,33.203,55.176,0
1542908072.291,35.156,31.738,28.320,33.691,-22.461,0
1542908072.295,38.086,37.598,37.109,38.574,5.371,0
1542908072.299,35.156,37.598,28.320,45.410,18.066,0
1542908072.303,34.180,40.527,20.508,34.180,20.996,0
1542908072.307,37.598,35.645,29.297,31.738,55.664,0
1542908072.311,36.621,37.598,42.480,44.434,22.949,0
1542908072.315,37.598,47.363,49.805,50.781,44.922,0
1542908072.319,35.156,35.156,38.574,39.062,73.730,0
1542908072.323,33.203,22.949,30.273,31.250,28.809,0
1542908072.327,29.785,30.273,35.645,29.785,-22.461,0
1542908072.330,25.879,29.297,33.203,27.832,-5.371,0
1542908072.334,34.180,31.250,35.645,34.668,34.180,0
1542908072.338,27.344,35.156,37.598,30.762,47.363,0
1542908072.342,23.438,36.133,35.156,33.691,62.500,0
1542908072.346,38.086,32.227,49.316,41.504,62.012,0
1542908072.350,39.551,24.414,51.758,44.434,26.855,0
1542908072.354,37.598,28.809,40.527,51.270,19.531,0
1542908072.358,37.109,42.480,37.109,41.504,-7.324,0
1542908072.362,33.203,41.016,32.227,37.598,21.973,0
1542908072.366,34.180,29.297,32.715,39.551,49.316,0
1542908072.369,30.762,26.855,43.457,39.551,25.391,0
1542908072.373,37.598,31.738,42.969,42.969,30.273,0
1542908072.377,43.457,31.250,37.598,38.574,25.391,0
1542908072.381,26.855,27.832,25.391,31.738,6.836,0
1542908072.385,13.672,31.250,19.043,26.855,30.273,0
1542908072.389,22.461,40.527,32.715,27.344,60.059,0
1542908072.393,33.691,35.645,41.504,27.832,38.086,0
1542908072.397,34.668,33.203,40.039,30.762,-16.602,0
1542908072.401,32.227,41.504,46.875,43.457,31.250,0
1542908072.405,35.645,39.062,32.715,43.457,54.199,0
1542908072.409,46.387,36.133,21.484,32.715,15.625,0
1542908072.412,32.715,28.320,41.504,32.227,48.828,0
1542908072.416,16.113,28.320,52.734,18.555,65.430,0
1542908072.420,18.555,34.180,54.688,14.648,22.949,0
1542908072.424,8.301,27.832,60.547,22.949,49.805,0
1542908072.428,3.906,19.531,50.293,25.879,65.430,0
1542908072.432,6.836,15.625,47.363,28.320,46.875,0
1542908072.436,0.488,14.160,56.641,22.461,26.855,0
1542908072.440,12.207,28.809,58.594,24.902,4.395,0
1542908072.444,25.391,44.922,51.758,35.645,46.387,0
1542908072.448,20.508,32.715,46.875,40.039,24.902,0
1542908072.452,23.438,24.414,51.758,33.203,20.508,0
1542908072.455,36.133,26.367,39.551,22.949,43.945,0
1542908072.459,20.508,24.902,32.715,22.461,34.668,0
1542908072.463,15.625,26.855,38.086,25.879,-22.949,0
1542908072.467,22.461,30.762,51.758,29.785,-30.273,0
1542908072.471,18.555,24.902,51.270,29.785,-1.465,0
1542908072.475,20.996,22.949,35.156,37.109,22.949,0
1542908072.479,31.250,37.598,34.668,41.504,44.922,0
1542908072.483,35.156,36.621,43.945,38.086,3.418,0
1542908072.487,28.809,26.855,47.852,32.715,33.691,0
1542908072.491,35.645,31.250,42.480,34.668,80.566,0
1542908072.494,36.133,28.320,33.203,37.109,45.898,0
1542908072.498,28.320,27.832,32.227,31.738,22.461,0
1542908072.502,32.227,31.738,36.133,32.715,39.062,0
1542908072.506,33.203,35.645,38.086,28.809,11.719,0
1542908072.510,24.414,40.039,31.738,20.996,-13.184,0
1542908072.514,18.555,35.645,27.344,26.855,10.742,0
1542908072.518,28.809,34.668,25.879,33.203,32.227,0
1542908072.522,32.227,30.273,27.832,36.621,31.738,0
1542908072.526,34.180,41.504,41.992,48.828,44.434,0
1542908072.530,29.297,46.387,43.945,38.574,27.344,0
1542908072.534,20.020,23.926,36.133,18.066,55.664,0
1542908072.537,23.438,20.508,27.344,12.695,58.594,0
1542908072.541,20.020,27.832,23.438,13.184,9.277,0
1542908072.545,22.461,27.344,27.832,24.414,50.781,0
1542908072.549,24.902,34.668,36.621,34.180,49.805,0
1542908072.553,29.297,45.410,41.504,38.086,0.488,0
1542908072.557,32.227,36.621,37.109,29.297,13.672,0
1542908072.561,35.645,32.715,37.598,30.273,5.371,0
1542908072.565,31.738,35.156,40.527,36.133,-8.301,0
1542908072.569,28.320,27.832,28.320,27.832,27.344,0
1542908072.573,31.250,29.785,20.996,32.715,14.648,0
1542908072.577,28.320,41.016,27.344,35.156,32.227,0
1542908072.580,21.973,35.645,25.879,20.020,48.828,0
1542908072.584,27.832,25.391,33.203,20.996,27.344,0
1542908072.588,26.367,28.320,38.574,23.926,60.059,0
1542908072.592,24.902,33.691,39.551,20.508,77.148,0
1542908072.596,25.879,32.715,41.016,32.227,67.871,0
1542908072.600,22.949,35.156,26.855,36.133,36.133,0
1542908072.604,31.250,37.598,24.414,33.691,11.230,0
1542908072.608,31.250,36.133,28.809,29.785,19.531,0
1542908072.612,25.879,42.480,31.738,29.785,62.500,0
1542908072.616,33.691,53.223,40.039,38.574,64.941,0
1542908072.619,31.250,41.504,39.551,29.297,-2.441,0
1542908072.623,20.020,24.414,35.156,22.461,-17.578,0
1542908072.627,30.762,33.691,31.738,25.391,34.180,0
1542908072.631,35.156,41.016,33.691,28.320,41.992,0
1542908072.635,25.879,33.691,34.180,32.715,42.969,0
1542908072.639,27.832,33.691,33.691,37.109,76.660,0
1542908072.643,33.691,41.992,35.156,38.574,44.434,0
1542908072.647,38.086,48.828,34.668,35.156,-11.230,0
1542908072.651,31.250,45.410,38.574,32.715,-5.371,0
1542908072.655,26.367,42.969,37.109,35.645,4.883,0
1542908072.659,29.785,39.062,32.715,31.250,40.527,0
1542908072.662,37.109,34.180,36.621,27.832,53.711,0
1542908072.666,38.574,34.668,33.203,27.344,51.270,0
1542908072.670,27.344,30.762,30.273,25.391,89.844,0
1542908072.674,16.602,32.227,41.504,31.738,72.754,0
1542908072.678,16.602,35.645,33.203,29.297,34.180,0
1542908072.682,19.043,36.133,27.344,24.414,35.645,0
1542908072.686,17.090,38.574,25.879,29.297,38.086,0
1542908072.690,22.461,41.504,18.066,18.066,62.500,0
1542908072.694,21.484,37.109,25.391,16.602,37.598,0
1542908072.698,19.531,30.762,32.715,26.367,56.641,0
1542908072.702,22.949,28.809,34.180,19.043,44.434,0
1542908072.705,29.297,34.668,42.969,19.531,-12.207,0
1542908072.709,33.691,41.016,43.457,24.902,19.531,0
1542908072.713,15.625,32.715,24.414,18.555,68.359,0
1542908072.717,20.996,31.250,13.672,10.742,90.820,0
1542908072.721,38.086,39.062,30.273,14.160,72.754,0
1542908072.725,25.391,36.621,36.133,20.996,20.508,0
1542908072.729,20.020,32.715,29.297,29.785,-20.020,0
1542908072.733,27.832,33.203,27.832,37.598,38.574,0
1542908072.737,25.879,35.156,33.691,23.438,29.785,0
1542908072.741,27.344,41.504,39.062,24.414,11.230,0
1542908072.744,22.949,39.551,28.320,39.551,76.660,0
1542908072.748,19.531,26.367,21.973,30.762,76.660,0
1542908072.752,36.621,22.461,30.762,27.344,51.270,0
1542908072.756,31.250,35.645,39.062,22.949,47.363,0
1542908072.760,19.043,46.387,30.762,7.812,53.711,0
1542908072.764,20.508,43.457,18.555,9.766,39.551,0
1542908072.768,30.273,44.922,30.762,20.508,59.082,0
1542908072.772,30.273,44.434,35.645,12.207,47.852,0
1542908072.776,27.344,38.574,21.973,7.812,-9.277,0
1542908072.780,20.508,31.250,20.020,17.090,-10.254,0
1542908072.784,20.996,28.320,26.367,25.879,-5.371,0
1542908072.787,28.320,36.133,33.203,26.855,-6.348,0
1542908072.791,17.578,37.598,33.691,23.438,-2.930,0
1542908072.795,15.137,34.180,29.785,19.531,24.902,0
1542908072.799,34.180,42.969,35.156,19.531,61.035,0
1542908072.803,29.785,43.457,40.527,15.137,71.289,0
1542908072.807,22.461,29.785,30.273,15.625,8.301,0
1542908072.811,29.297,28.320,21.973,31.738,49.316,0
1542908072.815,31.250,37.109,27.344,41.016,95.215,0
1542908072.819,30.762,37.598,30.762,40.527,52.246,0
1542908072.823,37.109,37.598,43.945,41.016,10.254,0
1542908072.827,39.062,44.434,52.246,34.180,-5.371,0
1542908072.830,33.691,48.340,38.086,28.809,21.973,0
1542908072.834,36.621,41.992,36.621,32.227,-1.953,0
1542908072.838,28.809,31.738,29.785,29.297,-41.504,0
1542908072.842,24.414,25.879,25.391,20.996,38.086,0
1542908072.846,27.344,26.855,36.133,27.832,43.945,0
1542908072.850,28.320,35.156,34.180,27.344,-5.371,0
1542908072.854,38.086,40.039,31.738,27.344,32.715,0
1542908072.858,32.715,33.691,38.574,33.203,8.789,0
1542908072.862,26.367,36.133,42.480,34.180,-11.719,0
1542908072.866,35.156,40.039,41.016,39.062,20.996,0
1542908072.869,34.668,35.156,33.203,28.809,-24.902,0
1542908072.873,34.668,34.180,31.738,27.344,10.742,0
1542908072.877,31.738,33.203,37.598,31.738,23.438,0
1542908072.881,20.996,29.785,37.109,24.902,-42.969,0
1542908072.885,13.184,31.738,37.598,21.484,9.766,0
1542908072.889,22.949,35.645,29.785,23.926,52.734,0
1542908072.893,33.203,35.645,35.645,26.855,17.578,0
1542908072.897,41.992,28.320,48.828,46.875,-0.977,0
1542908072.901,36.621,27.344,42.969,47.363,-1.465,0
1542908072.905,25.391,44.434,38.086,21.973,-23.438,0
1542908072.909,21.484,48.828,30.273,15.625,16.113,0
1542908072.912,12.207,44.434,19.043,10.742,49.805,0
1542908072.916,12.207,42.969,24.414,14.160,39.551,0
1542908072.920,25.391,41.504,28.320,12.207,35.645,0
1542908072.924,13.672,41.504,24.902,21.484,31.738,0
1542908072.928,1.953,41.992,31.738,22.949,25.879,0
1542908072.932,16.113,41.992,24.414,9.277,41.992,0
1542908072.936,26.367,44.922,14.648,17.578,42.480,0
1542908072.940,18.555,36.133,29.785,18.066,44.922,0
1542908072.944,16.113,26.367,42.480,20.020,39.062,0
1542908072.948,24.414,29.297,38.086,23.438,22.461,0
1542908072.952,32.227,37.109,32.715,20.996,25.391,0
1542908072.955,26.367,40.527,34.668,25.879,46.387,0
1542908072.959,34.180,46.875,38.574,32.715,61.035,0
1542908072.963,38.086,51.758,32.715,35.156,65.918,0
1542908072.967,30.273,45.410,24.414,28.320,60.059,0
1542908072.971,25.391,36.621,24.902,16.602,48.340,0
1542908072.975,13.672,33.203,24.902,15.137,81.055,0
1542908072.979,26.855,37.109,32.227,29.785,66.895,0
1542908072.983,29.785,35.645,34.180,28.320,7.812,0
1542908072.987,24.414,36.621,27.832,25.879,29.297,0
1542908072.991,30.273,39.551,25.879,27.344,32.715,0
1542908072.994,24.414,35.645,20.508,27.344,23.438,0
1542908072.998,23.438,33.691,22.949,25.391,17.578,0
1542908073.002,20.508,36.621,34.180,22.949,-13.184,0
1542908073.006,28.320,46.387,43.457,31.738,12.695,0
1542908073.010,34.668,41.992,37.109,28.809,23.926,0
1542908073.014,30.762,35.156,37.598,27.832,49.805,0
1542908073.018,33.203,36.133,36.621,24.902,101.562,0
1542908073.022,31.738,41.992,24.902,20.508,111.328,0
1542908073.026,26.855,39.551,23.926,17.578,82.031,0
1542908073.030,22.461,28.809,27.832,23.438,29.297,0
1542908073.034,33.203,35.156,31.738,24.902,14.160,0
1542908073.037,36.621,42.480,34.180,14.160,26.855,0
1542908073.041,31.738,42.969,42.969,26.367,53.711,0
1542908073.045,29.785,47.363,42.480,32.715,48.828,0
1542908073.049,22.949,38.086,43.945,24.902,12.695,0
1542908073.053,25.391,36.133,39.062,25.391,-10.742,0
1542908073.057,23.926,32.715,18.555,32.715,2.930,0
1542908073.061,24.902,27.832,18.555,31.250,16.113,0
1542908073.065,25.879,33.691,28.320,12.207,-10.742,0
1542908073.069,27.344,34.668,34.180,9.277,-12.695,0
1542908073.073,26.855,33.203,42.480,19.531,21.973,0
1542908073.077,21.973,36.621,41.504,21.484,85.938,0
1542908073.080,32.715,38.086,39.062,27.344,105.469,0
1542908073.084,39.062,37.109,44.922,41.992,52.246,0
1542908073.088,33.203,35.645,36.133,40.039,-15.625,0
1542908073.092,32.715,28.809,19.531,30.273,-4.395,0
1542908073.096,30.762,32.715,21.973,24.902,62.500,0
1542908073.100,29.785,33.691,35.645,24.414,57.617,0
1542908073.104,40.527,32.227,41.504,23.926,-2.930,0
1542908073.108,33.203,32.227,43.945,24.902,27.344,0
1542908073.112,26.367,25.391,46.875,31.250,54.199,0
1542908073.116,23.926,36.133,44.434,29.785,33.691,0
1542908073.119,12.695,44.434,39.551,18.066,37.109,0
1542908073.123,19.531,33.691,26.367,11.719,61.035,0
1542908073.127,25.879,37.598,20.020,12.695,59.082,0
1542908073.131,25.879,35.645,24.902,27.832,4.883,0
1542908073.135,26.367,32.227,33.203,28.320,31.738,0
1542908073.139,22.949,35.156,41.016,14.160,43.945,0
1542908073.143,20.996,31.738,42.480,18.066,71.289,0
1542908073.147,20.508,29.297,44.434,24.414,82.031,0
1542908073.151,22.461,30.273,34.180,23.438,33.203,0
1542908073.155,21.484,32.227,14.648,26.855,33.691,0
1542908073.159,23.926,34.180,16.602,26.855,-28.809,0
1542908073.162,31.738,42.969,27.344,22.949,-9.766,0
1542908073.166,26.855,47.852,34.180,26.855,40.527,0
1542908073.170,18.555,35.645,36.133,14.648,39.551,0
1542908073.174,25.879,26.855,37.598,16.602,25.879,0
1542908073.178,32.715,31.738,36.621,34.668,64.453,0
1542908073.182,29.785,35.156,34.668,32.227,6.836,0
1542908073.186,28.809,29.297,26.855,16.602,-23.438,0
1542908073.190,28.809,29.297,29.297,19.531,29.785,0
1542908073.194,21.973,29.785,31.250,23.438,-19.531,0
1542908073.198,22.461,30.762,29.297,27.832,18.066,0
1542908073.202,23.926,34.668,26.367,28.320,47.852,0
1542908073.205,29.297,40.039,29.785,25.879,36.133,0
1542908073.209,35.156,41.016,35.645,36.621,51.270,0
1542908073.213,41.016,31.250,23.438,31.738,36.133,0
1542908073.217,44.434,29.297,24.414,23.438,-4.395,0
1542908073.221,32.227,30.273,27.832,31.250,-41.016,0
1542908073.225,36.621,35.645,32.227,37.109,-0.977,0
1542908073.229,45.898,46.875,41.016,41.992,62.012,0
1542908073.233,37.598,44.922,39.062,43.457,84.961,0
1542908073.237,30.762,28.809,33.203,45.410,76.660,0
1542908073.241,35.645,27.832,32.227,39.551,28.809,0
1542908073.244,45.410,39.062,31.250,34.668,18.555,0
1542908073.248,53.711,41.016,32.227,37.598,45.410,0
1542908073.252,45.898,37.109,40.039,34.180,19.043,0
1542908073.256,38.086,39.551,38.086,35.156,49.316,0
1542908073.260,41.016,49.316,34.668,35.645,21.973,0
1542908073.264,44.434,49.805,41.016,37.109,-11.230,0
1542908073.268,35.156,41.992,39.062,35.645,52.734,0
1542908073.272,33.691,38.086,37.598,37.598,54.688,0
1542908073.276,41.016,34.668,41.016,45.410,11.230,0
1542908073.280,34.180,29.297,32.227,39.551,4.395,0
1542908073.284,34.668,37.598,31.738,34.180,35.645,0
1542908073.287,39.062,46.875,37.109,28.320,20.508,0
1542908073.291,31.250,41.992,36.133,24.414,13.672,0
1542908073.295,21.973,39.551,35.156,27.344,-2.441,0
1542908073.299,20.020,32.715,35.645,25.391,-17.090,0
1542908073.303,29.297,31.738,39.551,28.320,31.250,0
1542908073.307,32.227,38.086,46.387,31.250,90.820,0
1542908073.311,34.668,46.387,43.457,28.320,112.793,0
1542908073.315,48.340,56.641,34.180,37.598,62.500,0
1542908073.319,40.527,50.293,33.691,39.062,-13.672,0
1542908073.323,21.973,33.203,34.180,28.809,16.602,0
1542908073.327,22.461,29.785,47.363,36.621,58.105,0
1542908073.330,22.949,34.180,54.688,31.738,39.551,0
1542908073.334,19.531,26.367,40.039,18.066,19.531,0
1542908073.338,18.555,22.461,44.922,29.785,12.207,0
1542908073.342,16.602,23.438,56.641,29.785,26.367,0
1542908073.346,15.625,24.902,47.852,16.113,88.867,0
1542908073.350,15.625,25.391,28.809,14.160,100.098,0
1542908073.354,18.066,26.855,20.508,18.555,-13.184,0
1542908073.358,23.438,32.715,32.715,19.531,-32.227,0
1542908073.362,23.438,35.645,48.340,24.902,34.180,0
1542908073.366,15.137,27.344,33.203,37.598,39.062,0
1542908073.369,18.066,23.438,28.809,35.156,62.012,0
1542908073.373,21.484,29.785,45.898,21.484,44.922,0
1542908073.377,28.320,28.809,44.434,27.344,72.266,0
1542908073.381,32.715,29.785,43.945,33.203,44.922,0
1542908073.385,24.414,34.668,48.828,24.902,16.602,0
1542908073.389,20.020,37.109,45.410,24.414,57.617,0
1542908073.393,20.508,35.645,47.852,28.320,44.922,0
1542908073.397,14.648,29.297,46.387,22.949,62.500,0
1542908073.401,16.113,30.273,37.109,22.461,63.965,0
1542908073.405,28.809,36.133,44.922,29.785,10.254,0
1542908073.409,29.297,33.691,47.852,38.574,13.184,0
1542908073.412,24.902,27.832,42.480,39.551,7.324,0
1542908073.416,20.020,23.926,32.715,24.902,-14.648,0
1542908073.420,17.090,30.273,23.438,16.602,-1.953,0
1542908073.424,23.438,32.227,33.691,14.160,26.855,0
1542908073.428,30.273,31.250,49.316,26.367,11.230,0
1542908073.432,27.832,30.762,45.410,37.109,8.301,0
1542908073.436,29.785,34.668,44.922,33.691,36.133,0
1542908073.440,39.551,45.898,49.805,31.250,56.152,0
1542908073.444,41.016,44.434,38.574,28.809,34.180,0
1542908073.448,32.227,40.039,33.203,34.668,-9.766,0
1542908073.452,21.484,34.668,36.621,35.156,-20.996,0
1542908073.455,17.578,29.297,36.621,30.762,-12.695,0
1542908073.459,20.020,31.738,40.039,28.320,-5.859,0
1542908073.463,14.160,30.762,35.645,12.695,-4.883,0
1542908073.467,12.207,34.180,33.691,16.602,-2.441,0
1542908073.471,19.531,33.691,38.086,26.367,25.879,0
1542908073.475,22.461,35.645,37.598,21.484,-7.324,0
1542908073.479,17.090,34.668,36.133,26.855,-38.574,0
1542908073.483,24.414,29.785,36.621,40.039,55.176,0
1542908073.487,35.645,44.434,45.410,36.133,51.270,0
1542908073.491,34.668,42.969,53.711,35.645,2.441,0
1542908073.494,30.762,35.156,44.434,38.086,51.758,0
1542908073.498,31.738,44.922,32.227,34.668,54.199,0
1542908073.502,30.762,36.621,36.133,33.203,34.668,0
1542908073.506,30.762,28.320,34.180,36.133,71.289,0
1542908073.510,37.598,34.668,36.133,32.227,45.410,0
1542908073.514,30.762,34.668,38.574,27.832,15.137,0
1542908073.518,28.320,36.133,33.203,29.785,15.137,0
1542908073.522,24.902,41.016,30.762,25.391,41.016,0
1542908073.526,26.367,49.805,44.434,28.809,74.219,0
1542908073.530,26.367,43.945,45.410,31.738,84.473,0
1542908073.534,20.996,30.273,31.250,28.809,69.824,0
1542908073.537,27.344,26.367,34.180,28.320,11.719,0
1542908073.541,28.809,20.996,35.156,30.762,20.996,0
1542908073.545,31.738,32.715,41.016,22.949,38.086,0
1542908073.549,38.574,42.480,46.387,27.344,-26.855,0
1542908073.553,30.273,40.039,46.387,37.109,-14.648,0
1542908073.557,21.484,39.062,44.922,22.461,21.484,0
1542908073.561,25.879,32.227,44.922,18.066,62.500,0
1542908073.565,18.066,28.320,34.668,26.367,88.379,0
1542908073.569,17.578,31.250,21.484,21.973,66.406,0
1542908073.573,24.902,31.250,24.414,30.762,64.453,0
1542908073.577,20.508,31.738,34.668,27.344,116.211,0
1542908073.580,23.438,33.203,31.738,10.742,62.988,0
1542908073.584,29.297,32.715,39.551,23.438,34.180,0
1542908073.588,31.738,33.691,44.922,27.344,34.668,0
1542908073.592,34.180,32.227,33.203,20.020,12.695,0
1542908073.596,28.320,33.203,39.551,26.367,60.059,0
1542908073.600,23.926,36.133,40.039,26.367,54.199,0
1542908073.604,19.531,37.109,31.738,20.020,11.230,0
1542908073.608,24.902,41.992,41.992,31.738,7.812,0
1542908073.612,34.180,45.898,36.621,39.062,41.992,0
1542908073.616,41.016,36.133,31.250,40.527,73.730,0
1542908073.619,32.227,25.391,43.945,29.785,60.547,0
1542908073.623,20.020,28.320,40.039,20.020,43.457,0
1542908073.627,25.879,36.133,33.691,28.809,40.527,0
1542908073.631,26.855,41.992,41.992,29.297,-6.348,0
1542908073.635,32.227,35.156,40.527,28.320,19.531,0
1542908073.639,40.039,29.785,40.039,32.715,51.758,0
1542908073.643,39.551,37.598,54.199,36.133,5.371,0
1542908073.647,36.133,37.109,44.434,36.621,-9.766,0
1542908073.651,25.391,33.691,25.391,36.133,-1.953,0
1542908073.655,26.855,36.133,21.484,31.250,2.930,0
1542908073.659,31.738,39.062,25.879,32.715,51.270,0
1542908073.662,30.273,34.668,34.668,41.992,56.641,0
1542908073.666,38.086,37.109,43.457,43.457,51.270,0
1542908073.670,36.133,36.133,45.410,37.109,55.176,0
1542908073.674,32.715,30.762,34.180,30.273,70.312,0
1542908073.678,41.504,35.645,49.805,30.762,66.895,0
1542908073.682,37.598,35.156,66.406,30.273,47.852,0
1542908073.686,33.691,36.621,37.109,25.391,58.594,0
1542908073.690,32.227,40.527,23.438,27.832,2.441,0
1542908073.694,24.414,35.156,30.273,28.809,17.578,0
1542908073.698,22.949,26.367,24.414,28.320,34.668,0
1542908073.702,26.855,29.297,26.855,34.668,44.922,0
1542908073.705,26.855,32.715,41.992,34.668,72.754,0
1542908073.709,23.438,39.062,45.410,31.250,116.211,0
1542908073.713,21.484,35.645,40.039,29.785,111.816,0
1542908073.717,36.133,21.484,30.762,36.621,20.508,0
1542908073.721,45.898,27.832,26.367,42.480,3.418,0
1542908073.725,30.762,41.992,22.949,14.160,59.570,0
1542908073.729,18.066,39.062,22.461,-1.953,114.258,0
1542908073.733,16.602,38.574,24.414,13.672,90.332,0
1542908073.737,15.137,53.223,28.320,12.207,26.855,0
1542908073.741,13.672,50.781,34.180,14.648,9.277,0
1542908073.744,21.973,43.945,21.973,21.973,-16.113,0
1542908073.748,25.391,44.434,16.602,17.578,-20.996,0
1542908073.752,18.555,41.016,28.320,19.531,-6.348,0
1542908073.756,23.926,36.133,31.250,20.508,-8.789,0
1542908073.760,27.832,36.133,26.855,18.555,41.504,0
1542908073.764,25.879,43.457,32.715,27.832,56.641,0
1542908073.768,21.484,38.086,29.785,26.855,60.059,0
1542908073.772,25.879,38.086,24.902,20.996,58.105,0
1542908073.776,27.832,45.898,27.832,22.461,-13.184,0
1542908073.780,20.508,36.133,20.508,23.438,32.715,0
1542908073.784,21.484,25.391,14.648,20.996,63.477,0
1542908073.787,24.414,31.738,23.926,17.090,-18.555,0
1542908073.791,27.832,34.180,39.062,27.344,-11.719,0
1542908073.795,22.949,35.156,30.762,26.367,37.598,0
1542908073.799,23.438,37.109,22.949,11.719,26.855,0
1542908073.803,27.344,37.598,29.785,15.625,37.109,0
1542908073.807,22.949,43.457,29.785,17.090,43.945,0
1542908073.811,27.832,41.992,34.180,20.508,6.836,0
1542908073.815,33.203,38.574,42.480,20.508,27.832,0
1542908073.819,28.320,40.527,39.062,23.438,31.250,0
1542908073.823,33.203,39.062,27.832,30.273,26.367,0
1542908073.827,28.809,35.156,22.949,26.367,26.367,0
1542908073.830,32.715,32.227,21.973,20.508,10.742,0
1542908073.834,46.387,35.156,28.809,19.043,54.688,0
1542908073.838,47.852,41.016,33.203,26.367,36.621,0
1542908073.842,45.898,38.574,30.273,24.414,-7.324,0
1542908073.846,34.180,33.203,25.391,18.555,48.340,0
1542908073.850,34.180,32.227,20.996,21.484,54.688,0
1542908073.854,40.039,36.133,23.438,24.414,26.855,0
1542908073.858,40.039,45.898,36.133,28.320,62.500,0
1542908073.862,35.156,41.504,38.574,27.832,52.246,0
1542908073.866,32.715,32.715,31.250,23.926,34.180,0
1542908073.869,45.410,43.457,44.922,36.133,36.133,0
1542908073.873,41.504,39.551,45.410,36.133,0.000,0
1542908073.877,31.738,35.645,33.691,22.949,59.570,0
1542908073.881,33.203,40.527,37.598,28.320,71.777,0
1542908073.885,34.180,33.203,33.203,30.762,-19.043,0
1542908073.889,36.133,30.273,27.832,32.715,-24.414,0
1542908073.893,34.180,29.297,28.809,26.367,23.438,0
1542908073.897,28.320,34.668,35.156,25.391,18.066,0
1542908073.901,27.344,40.039,36.621,38.574,18.066,0
1542908073.905,29.785,40.039,41.992,36.133,22.461,0
1542908073.909,28.320,39.551,46.387,25.391,21.484,0
1542908073.912,36.133,37.598,36.133,28.809,9.277,0
1542908073.916,39.062,36.621,37.109,34.668,30.762,0
1542908073.920,34.180,36.133,33.203,33.691,70.312,0
1542908073.924,36.133,38.574,28.809,39.551,75.195,0
1542908073.928,36.133,40.527,36.621,42.480,43.945,0
1542908073.932,37.109,40.039,44.922,39.062,23.926,0
1542908073.936,35.156,34.180,40.527,35.156,44.434,0
1542908073.940,30.273,30.762,41.504,30.273,33.203,0
1542908073.944,31.738,31.250,38.086,30.273,21.484,0
1542908073.948,34.668,31.250,20.508,28.320,-2.930,0
1542908073.952,34.668,31.738,31.250,31.250,36.133,0
1542908073.955,20.508,28.320,46.875,25.391,21.973,0
1542908073.959,12.207,24.414,39.551,24.414,20.020,0
1542908073.963,15.625,26.855,36.133,26.367,45.410,0
1542908073.967,14.648,26.855,43.457,18.066,-1.465,0
1542908073.971,16.113,29.297,44.434,22.949,33.203,0
1542908073.975,18.066,28.320,37.109,29.785,41.992,0
1542908073.979,22.949,29.785,35.156,29.297,13.672,0
1542908073.983,22.461,31.738,40.527,26.855,7.324,0
1542908073.987,22.461,27.832,37.598,24.414,-31.738,0
1542908073.991,25.879,36.621,33.203,25.879,-54.688,0
1542908073.994,21.973,38.086,30.762,23.438,-13.184,0
1542908073.998,29.785,26.855,28.320,26.855,31.250,0
1542908074.002,38.086,29.785,33.691,36.133,65.918,0
1542908074.006,25.391,30.273,41.992,20.996,39.551,0
1542908074.010,19.531,32.227,43.945,15.625,2.441,0
1542908074.014,25.879,35.156,37.598,26.855,3.418,0
1542908074.018,28.809,36.621,35.645,20.508,16.602,0
1542908074.022,22.949,39.062,37.598,20.996,16.602,0
1542908074.026,31.250,45.410,36.133,30.762,20.996,0
1542908074.030,31.738,38.574,33.691,26.367,27.832,0
1542908074.034,14.160,23.926,29.785,25.879,54.688,0
1542908074.037,27.344,30.273,35.156,30.762,69.824,0
1542908074.041,39.551,33.203,40.039,31.738,35.645,0
1542908074.045,29.297,32.227,44.922,35.645,35.645,0
1542908074.049,34.180,38.086,45.898,41.504,68.848,0
1542908074.053,32.227,35.156,35.156,37.109,39.551,0
1542908074.057,24.414,30.273,32.715,27.832,52.734,0
1542908074.061,23.438,28.320,34.668,24.902,100.098,0
1542908074.065,20.020,27.832,39.551,28.809,24.902,0
1542908074.069,18.066,26.855,33.691,17.578,3.906,0
1542908074.073,17.578,22.949,29.785,16.602,82.031,0
1542908074.077,15.137,27.344,36.621,28.809,114.746,0
1542908074.080,16.602,34.668,44.434,30.762,83.496,0
1542908074.084,19.531,32.227,37.109,21.973,76.660,0
1542908074.088,23.438,30.273,28.809,20.508,28.809,0
1542908074.092,21.973,35.156,35.156,29.297,1.953,0
1542908074.096,22.949,37.109,40.527,26.367,50.781,0
1542908074.100,23.438,37.598,35.156,18.555,77.148,0
1542908074.104,32.715,39.062,29.297,28.320,92.773,0
1542908074.108,39.062,36.621,27.344,32.715,43.457,0
1542908074.112,29.785,36.621,29.297,27.832,41.504,0
1542908074.116,29.785,42.480,43.945,32.227,63.477,0
1542908074.119,37.598,52.246,54.199,40.039,13.184,0
1542908074.123,35.156,42.969,48.828,40.039,23.438,0
1542908074.127,27.832,27.344,39.062,31.738,66.895,0
1542908074.131,18.066,26.855,39.062,28.320,13.184,0
1542908074.135,22.461,31.250,38.574,27.344,23.438,0
1542908074.139,28.809,38.086,35.156,28.320,77.637,0
1542908074.143,25.879,38.086,34.668,31.250,47.852,0
1542908074.147,38.574,35.156,34.180,34.668,46.875,0
1542908074.151,36.133,45.410,39.551,40.527,48.340,0
1542908074.155,29.297,45.898,47.852,41.504,24.902,0
1542908074.159,35.645,35.156,42.480,37.598,21.484,0
1542908074.162,38.086,40.527,37.598,34.180,30.762,0
1542908074.166,42.969,36.621,35.645,36.621,31.250,0
1542908074.170,35.156,28.320,30.762,41.992,54.688,0
1542908074.174,29.297,35.156,34.180,43.945,67.383,0
1542908074.178,29.297,41.504,40.039,47.363,18.555,0
1542908074.182,20.996,35.156,34.180,34.180,11.719,0
1542908074.186,28.320,30.273,33.203,23.926,-6.836,0
1542908074.190,22.949,33.691,36.133,27.832,21.484,0
1542908074.194,26.855,40.039,32.227,25.879,102.539,0
1542908074.198,42.969,34.668,32.715,34.668,38.574,0
1542908074.202,42.969,28.320,43.457,50.293,8.789,0
1542908074.205,35.156,41.992,36.621,30.273,37.598,0
1542908074.209,20.020,46.875,26.855,11.719,50.293,0
1542908074.213,17.578,45.898,37.109,14.160,77.148,0
1542908074.217,20.508,42.969,35.156,23.438,58.105,0
1542908074.221,10.254,42.969,34.180,26.367,61.523,0
1542908074.225,7.324,40.527,33.203,11.230,22.461,0
1542908074.229,22.949,40.039,30.762,13.672,-0.488,0
1542908074.233,24.414,35.645,38.574,15.625,46.387,0
1542908074.237,19.043,30.273,34.668,9.766,21.484,0
1542908074.241,25.879,37.109,28.809,24.414,-23.438,0
1542908074.244,30.762,40.039,37.109,35.156,29.297,0
1542908074.248,27.344,39.551,35.156,33.203,68.359,0
1542908074.252,34.180,37.109,25.391,30.762,46.387,0
1542908074.256,44.434,35.645,28.320,28.809,39.062,0
1542908074.260,44.434,41.504,32.715,34.668,-6.836,0
1542908074.264,31.738,38.086,30.273,36.621,45.410,0
1542908074.268,28.809,37.109,38.574,31.738,90.820,0
1542908074.272,31.738,40.527,43.457,26.367,23.926,0
1542908074.276,16.602,26.367,27.832,17.578,35.645,0
1542908074.280,20.020,21.484,24.902,16.602,35.645,0
1542908074.284,34.668,27.832,35.156,23.438,21.973,0
1542908074.287,29.785,36.621,41.016,27.832,50.781,0
1542908074.291,29.785,36.133,35.645,24.414,15.137,0
1542908074.295,31.250,34.180,22.461,16.113,-10.742,0
1542908074.299,25.391,40.527,18.066,34.180,23.926,0
1542908074.303,29.297,34.180,27.344,39.062,60.547,0
1542908074.307,25.879,27.832,37.109,22.949,49.316,0
1542908074.311,23.926,26.367,31.738,21.484,-4.883,0
1542908074.315,30.273,33.203,28.320,21.973,-37.109,0
1542908074.319,28.809,38.086,38.574,25.391,-16.602,0
1542908074.323,32.715,36.133,38.086,28.809,33.203,0
1542908074.327,30.273,31.250,34.180,21.484,23.438,0
1542908074.330,18.555,26.855,26.367,14.160,-28.809,0
1542908074.334,19.531,28.809,26.367,15.137,-28.809,0
1542908074.338,17.578,26.855,31.738,12.695,16.602,0
1542908074.342,17.578,29.785,25.879,21.484,54.688,0
1542908074.346,19.531,38.574,18.066,24.902,0.000,0
1542908074.350,19.043,40.527,25.391,23.926,-41.016,0
1542908074.354,32.227,38.086,36.621,32.715,72.754,0
1542908074.358,39.062,32.227,33.691,38.574,67.871,0
1542908074.362,20.508,25.879,28.320,32.227,3.418,0
1542908074.366,18.555,26.855,30.762,25.391,21.973,0
1542908074.369,30.273,34.668,40.527,29.297,-15.137,0
1542908074.373,29.785,34.180,41.992,32.715,-9.277,0
1542908074.377,26.367,30.273,29.785,25.879,47.852,0
1542908074.381,30.273,36.133,23.926,33.691,4.883,0
1542908074.385,30.762,39.062,34.180,41.016,10.254,0
1542908074.389,36.133,35.156,30.762,30.762,-35.645,0
1542908074.393,45.410,35.645,23.926,37.598,-27.832,0
1542908074.397,36.621,37.598,27.832,32.715,4.883,0
1542908074.401,33.203,39.062,36.133,27.832,21.973,0
1542908074.405,32.715,41.504,37.109,30.762,44.922,0
1542908074.409,24.414,40.527,32.715,24.414,37.109,0
1542908074.412,35.156,34.180,40.039,28.809,74.219,0
1542908074.416,40.039,36.133,41.504,36.133,57.129,0
1542908074.420,36.621,36.133,25.879,34.180,58.594,0
1542908074.424,42.480,35.156,22.461,43.457,37.109,0
1542908074.428,36.621,34.180,29.785,36.133,2.441,0
1542908074.432,21.484,34.180,39.062,21.484,3.418,0
1542908074.436,21.484,38.574,47.363,15.625,51.270,0
1542908074.440,19.043,30.762,50.293,13.184,26.367,0
1542908074.444,19.531,23.438,46.387,24.902,10.254,0
1542908074.448,22.949,23.926,48.340,25.879,83.008,0
1542908074.452,21.484,21.973,45.898,19.043,80.566,0
1542908074.455,20.996,22.461,34.668,14.648,32.715,0
1542908074.459,27.344,25.391,33.691,18.555,69.336,0
1542908074.463,29.785,28.320,40.039,25.391,60.059,0
1542908074.467,25.879,36.133,40.039,26.855,20.508,0
1542908074.471,25.879,41.504,37.598,23.926,5.859,0
1542908074.475,24.902,41.992,39.062,21.973,52.246,0
1542908074.479,23.926,29.785,37.109,20.508,102.539,0
1542908074.483,23.926,25.879,23.438,18.555,8.301,0
1542908074.487,26.367,29.785,18.066,18.066,-6.348,0
1542908074.491,25.879,26.855,24.902,21.484,-9.277,0
1542908074.494,26.367,27.832,41.504,27.344,-39.062,0
1542908074.498,34.180,37.598,48.828,35.645,-2.930,0
1542908074.502,34.180,41.992,41.992,32.715,48.828,0
1542908074.506,32.227,31.250,36.621,24.902,58.594,0
1542908074.510,29.785,24.414,31.250,26.367,7.324,0
1542908074.514,26.367,35.156,38.574,36.621,19.043,0
1542908074.518,20.508,27.832,29.785,25.391,48.828,0
1542908074.522,27.832,30.273,28.320,15.625,8.789,0
1542908074.526,34.180,44.434,44.434,29.297,-16.113,0
1542908074.530,38.086,41.016,49.316,36.621,35.645,0
1542908074.534,45.410,37.598,42.480,34.668,72.266,0
1542908074.537,38.574,41.016,36.621,37.598,38.086,0
1542908074.541,30.762,44.434,38.574,39.551,50.781,0
1542908074.545,36.133,40.039,35.645,40.039,51.758,0
1542908074.549,44.434,38.574,36.621,47.852,3.906,0
1542908074.553,39.062,35.156,33.203,46.387,-15.137,0
1542908074.557,37.109,32.227,36.133,46.875,-11.719,0
1542908074.561,44.434,30.762,34.180,47.852,36.133,0
1542908074.565,47.852,35.156,26.855,39.551,42.969,0
1542908074.569,39.551,41.016,34.668,34.180,-10.254,0
1542908074.573,30.762,33.203,39.551,39.062,15.625,0
1542908074.577,28.320,25.391,32.715,46.387,22.461,0
1542908074.580,33.203,34.668,30.273,45.898,1.953,0
1542908074.584,33.691,44.434,35.645,38.086,40.039,0
1542908074.588,34.668,46.387,37.109,38.086,39.062,0
1542908074.592,45.410,49.316,41.504,41.504,26.367,0
1542908074.596,38.574,38.086,39.551,42.480,6.836,0
1542908074.600,38.574,28.809,29.297,38.574,9.277,0
1542908074.604,34.668,27.832,23.438,29.297,0.000,0
1542908074.608,29.785,33.691,27.832,31.250,16.602,0
1542908074.612,31.250,40.039,38.086,36.621,39.062,0
1542908074.616,23.926,41.016,36.621,27.344,12.695,0
1542908074.619,23.926,39.062,38.086,26.855,30.762,0
1542908074.623,32.227,39.062,36.621,25.391,24.902,0
1542908074.627,27.344,41.504,25.879,19.531,39.551,0
1542908074.631,31.738,40.039,29.785,26.367,13.184,0
1542908074.635,38.574,38.574,34.668,27.344,-17.090,0
1542908074.639,32.715,36.621,28.320,26.855,8.301,0
1542908074.643,30.273,31.738,23.926,36.621,58.594,0
1542908074.647,26.367,31.250,40.039,27.344,60.547,0
1542908074.651,18.066,34.668,50.781,21.484,37.109,0
1542908074.655,15.137,31.738,46.875,25.391,11.230,0
1542908074.659,12.207,18.555,42.480,23.438,51.270,0
1542908074.662,18.066,18.555,39.551,37.598,55.176,0
1542908074.666,25.879,26.367,40.527,33.203,14.648,0
1542908074.670,22.949,29.297,37.598,24.414,20.508,0
1542908074.674,30.273,40.527,40.527,28.320,40.039,0
1542908074.678,32.227,42.969,45.898,31.738,46.387,0
1542908074.682,26.367,34.180,43.457,31.738,4.883,0
1542908074.686,36.621,34.180,50.293,43.945,31.250,0
1542908074.690,32.715,28.320,45.410,37.109,69.336,0
1542908074.694,31.250,21.973,39.551,29.785,64.941,0
1542908074.698,29.785,31.738,38.574,41.016,58.105,0
1542908074.702,31.738,38.086,33.203,34.668,16.113,0
1542908074.705,30.762,30.273,32.715,36.621,23.438,0
1542908074.709,35.156,30.762,38.574,40.039,54.688,0
1542908074.713,44.434,41.992,51.270,37.109,48.828,0
1542908074.717,38.574,41.504,53.711,34.180,67.383,0
1542908074.721,29.297,33.691,41.016,34.180,68.359,0
1542908074.725,36.621,32.715,30.762,34.180,14.648,0
1542908074.729,43.945,38.086,28.320,39.551,36.133,0
1542908074.733,34.668,37.109,30.273,41.992,37.109,0
1542908074.737,35.645,36.133,39.551,41.504,-0.977,0
1542908074.741,22.949,32.715,42.480,29.297,20.996,0
1542908074.744,15.625,28.809,35.645,27.344,64.453,0
1542908074.748,25.879,31.738,37.109,34.180,8.789,0
1542908074.752,25.391,33.203,35.156,35.645,-27.832,0
1542908074.756,33.203,37.598,31.250,36.133,2.930,0
1542908074.760,45.898,42.969,34.668,28.809,17.090,0
1542908074.764,38.086,35.645,32.715,35.645,32.715,0
1542908074.768,25.879,30.273,28.320,32.227,15.137,0
1542908074.772,27.832,40.527,37.598,27.832,2.441,0
1542908074.776,24.902,41.016,46.387,25.879,48.340,0
1542908074.780,24.902,36.621,33.203,26.855,48.340,0
1542908074.784,24.414,34.180,31.250,26.855,34.180,0
1542908074.787,11.230,38.574,35.156,23.926,24.902,0
1542908074.791,11.719,36.621,29.785,22.949,-20.996,0
1542908074.795,21.484,46.387,36.133,17.090,39.551,0
1542908074.799,9.277,51.270,49.316,13.184,88.379,0
1542908074.803,-11.719,33.203,45.898,-0.488,30.762,0
1542908074.807,-8.301,49.316,41.992,-8.789,21.484,0
1542908074.811,-17.578,58.594,41.016,-17.578,13.672,0
1542908074.815,-42.480,45.898,32.227,-38.574,13.672,0
1542908074.819,-46.875,52.246,38.086,-45.410,86.426,0
1542908074.823,-52.734,65.918,50.781,-62.500,20.508,0
1542908074.827,-61.523,77.637,55.664,-69.824,-9.277,0
1542908074.830,-79.590,85.938,54.199,-88.379,31.250,0
1542908074.834,-94.727,84.961,61.035,-117.188,0.000,0
1542908074.838,-101.074,92.773,68.359,-115.723,60.547,0
1542908074.842,-118.652,90.820,62.988,-117.676,81.055,0
1542908074.846,-114.746,76.660,53.223,-126.465,0.000,0
1542908074.850,-95.215,97.168,43.457,-134.277,7.324,0
1542908074.854,-89.355,103.027,37.109,-121.582,47.363,0
1542908074.858,-82.031,83.984,41.016,-86.426,60.059,0
1542908074.862,-89.355,88.867,43.457,-88.867,96.680,0
1542908074.866,-84.961,87.402,38.086,-98.145,43.945,0
1542908074.869,-53.711,75.195,32.227,-83.008,53.223,0
1542908074.873,-48.340,71.289,21.973,-72.754,59.570,0
1542908074.877,-39.551,73.730,15.625,-60.547,27.832,0
1542908074.881,-15.137,70.312,15.137,-36.621,97.656,0
1542908074.885,-10.742,69.824,16.113,-21.484,45.898,0
1542908074.889,7.324,70.801,27.832,1.953,0.977,0
1542908074.893,18.555,57.129,35.156,15.625,15.625,0
1542908074.897,26.367,45.898,25.391,24.902,5.859,0
1542908074.901,38.086,45.898,16.602,34.180,25.879,0
1542908074.905,46.387,46.875,19.043,41.504,26.367,0
1542908074.909,56.641,43.457,18.066,50.781,25.879,0
1542908074.912,61.035,36.133,20.996,56.152,63.477,0
1542908074.916,55.176,29.297,16.602,57.129,57.617,0
1542908074.920,61.035,24.414,31.738,65.430,37.109,0
1542908074.924,62.012,22.461,38.086,64.941,19.531,0
1542908074.928,65.430,18.066,13.672,61.523,-15.625,0
1542908074.932,70.801,19.531,21.973,79.102,13.184,0
1542908074.936,70.801,23.438,33.203,86.914,62.500,0
1542908074.940,77.148,26.367,24.902,71.289,48.828,0
1542908074.944,76.660,19.531,17.578,72.754,21.973,0
1542908074.948,82.031,12.695,21.484,83.496,2.441,0
1542908074.952,85.449,15.625,21.484,80.078,18.555,0
1542908074.955,81.055,11.719,14.648,71.289,62.012,0
1542908074.959,77.637,13.672,21.973,72.266,41.016,0
1542908074.963,76.660,25.391,26.855,74.219,65.918,0
1542908074.967,73.730,33.203,19.531,74.707,58.105,0
1542908074.971,81.055,25.391,19.531,76.660,93.262,0
1542908074.975,70.801,4.883,20.020,67.383,124.023,0
1542908074.979,50.781,2.930,29.785,66.895,80.566,0
1542908074.983,61.523,14.648,35.156,64.941,55.176,0
1542908074.987,62.012,13.672,24.902,54.688,61.523,0
1542908074.991,70.801,13.184,23.926,69.336,42.969,0
1542908074.994,73.242,12.695,22.949,83.008,82.031,0
1542908074.998,67.871,13.184,14.648,74.707,65.918,0
1542908075.002,73.242,20.020,18.066,68.848,-5.371,0
1542908075.006,75.195,20.020,24.902,74.219,-20.020,0
1542908075.010,74.707,20.508,25.879,68.848,0.000,0
1542908075.014,64.453,21.973,24.414,65.918,0.977,0
1542908075.018,63.477,19.043,28.809,64.941,-4.395,0
1542908075.022,65.918,17.090,26.367,69.824,30.762,0
1542908075.026,62.500,17.090,25.391,70.312,25.391,0
1542908075.030,64.941,18.555,36.621,64.453,36.133,0
1542908075.034,56.152,16.113,26.855,60.547,20.996,0
1542908075.037,51.758,16.602,19.531,53.711,-8.301,0
1542908075.041,59.570,23.926,30.762,59.570,12.695,0
1542908075.045,55.664,29.785,32.715,60.059,35.645,0
1542908075.049,61.523,25.879,29.785,57.617,69.336,0
1542908075.053,63.477,23.926,41.016,60.547,20.020,0
1542908075.057,52.246,25.391,51.270,60.059,-26.855,0
1542908075.061,50.781,24.414,36.133,62.012,19.531,0
1542908075.065,55.176,25.879,23.926,68.359,3.418,0
1542908075.069,56.152,27.832,34.668,68.848,-26.367,0
1542908075.073,59.082,29.785,39.551,69.336,-0.488,0
1542908075.077,60.547,29.785,37.109,65.918,3.418,0
1542908075.080,59.082,24.902,31.250,56.641,12.207,0
1542908075.084,60.547,24.414,31.250,55.176,13.184,0
1542908075.088,55.176,23.926,35.156,37.109,35.156,0
1542908075.092,54.688,26.367,33.691,29.297,30.762,0
1542908075.096,49.316,33.203,37.109,45.410,22.949,0
1542908075.100,43.457,33.691,40.527,48.340,55.176,0
1542908075.104,47.363,29.297,36.621,45.410,65.430,0
1542908075.108,44.434,26.855,25.879,45.898,0.977,0
1542908075.112,43.945,33.691,28.320,45.898,11.719,0
1542908075.116,43.457,30.273,37.598,59.082,29.297,0
1542908075.119,41.016,20.020,32.227,56.641,-1.953,0
1542908075.123,49.316,26.855,37.598,37.598,42.480,0
1542908075.127,38.574,32.227,30.762,29.297,12.695,0
1542908075.131,32.227,32.715,19.043,28.320,4.395,0
1542908075.135,47.363,36.133,25.391,34.180,53.711,0
1542908075.139,50.781,38.086,40.039,36.621,60.547,0
1542908075.143,52.246,36.133,42.969,34.180,26.855,0
1542908075.147,49.805,35.645,30.762,39.551,-9.277,0
1542908075.151,36.621,37.109,28.320,38.086,42.969,0
1542908075.155,36.621,31.738,34.180,39.062,54.688,0
1542908075.159,41.504,25.879,35.645,55.176,24.414,0
1542908075.162,39.062,32.715,38.574,55.176,0.977,0
1542908075.166,45.898,41.992,39.551,34.668,27.344,0
1542908075.170,54.688,48.340,41.992,35.156,75.195,0
1542908075.174,53.711,49.805,41.992,49.316,55.664,0
1542908075.178,58.594,42.480,35.156,42.969,35.156,0
1542908075.182,52.246,37.598,26.855,28.809,33.691,0
1542908075.186,34.668,33.691,33.691,31.738,2.441,0
1542908075.190,33.203,28.809,50.293,33.203,25.879,0
1542908075.194,32.715,29.297,44.922,33.203,39.062,0
1542908075.198,36.621,31.250,32.715,39.062,-6.348,0
1542908075.202,48.340,38.574,33.203,36.133,7.812,0
1542908075.205,40.039,39.062,32.715,30.273,41.504,0
1542908075.209,26.367,33.691,27.832,21.484,18.066,0
1542908075.213,36.621,35.645,30.273,26.367,18.555,0
1542908075.217,42.480,34.668,43.457,32.227,25.879,0
1542908075.221,39.551,43.457,42.480,36.621,41.992,0
1542908075.225,44.434,50.293,38.574,35.645,83.008,0
1542908075.229,40.039,37.109,37.109,32.715,40.039,0
1542908075.233,37.598,28.320,26.855,41.992,28.809,0
1542908075.237,43.945,33.691,24.902,40.039,52.246,0
1542908075.241,48.828,38.574,26.367,35.645,73.242,0
1542908075.244,59.082,35.156,41.504,55.664,62.500,0
1542908075.248,42.480,40.527,46.875,41.504,58.105,0
1542908075.252,12.207,41.992,32.227,8.301,75.684,0
1542908075.256,15.137,45.898,33.203,16.113,61.523,0
1542908075.260,16.602,46.875,33.203,20.996,38.086,0
1542908075.264,13.672,39.551,35.156,18.555,-0.488,0
1542908075.268,21.973,33.691,41.504,18.066,1.953,0
1542908075.272,22.461,29.785,41.016,17.578,4.395,0
1542908075.276,21.484,34.668,38.086,27.344,12.207,0
1542908075.280,27.832,35.645,33.691,29.297,32.715,0
1542908075.284,36.133,34.180,34.180,22.949,5.371,0
1542908075.287,20.508,27.344,24.414,21.484,8.301,0
1542908075.291,13.184,26.367,25.879,16.602,38.086,0
1542908075.295,25.879,31.738,32.715,17.578,20.508,0
1542908075.299,29.297,25.879,37.598,28.809,39.062,0
1542908075.303,21.484,32.715,46.875,31.250,14.160,0
1542908075.307,23.438,38.086,41.016,29.785,-9.277,0
1542908075.311,25.391,26.367,33.203,31.738,36.621,0
1542908075.315,15.625,26.367,32.227,29.785,37.598,0
1542908075.319,20.020,30.273,31.738,27.344,20.020,0
1542908075.323,22.949,25.391,29.785,24.902,45.898,0
1542908075.327,19.531,22.949,28.809,23.438,63.965,0
1542908075.330,21.973,25.879,38.086,27.832,8.789,0
1542908075.334,23.926,27.832,38.086,24.902,4.395,0
1542908075.338,28.809,32.227,27.344,23.926,52.246,0
1542908075.342,33.691,40.039,30.762,29.785,30.273,0
1542908075.346,27.344,38.086,45.410,33.203,33.691,0
1542908075.350,25.879,28.320,43.457,40.527,5.859,0
1542908075.354,29.297,34.180,38.086,34.668,58.105,0
1542908075.358,28.809,31.250,51.270,27.344,91.309,0
1542908075.362,30.273,26.367,38.086,25.879,46.387,0
1542908075.366,32.227,28.320,20.508,31.738,42.969,0
1542908075.369,19.043,21.973,21.484,21.484,59.082,0
1542908075.373,13.184,27.344,27.344,8.301,41.016,0
1542908075.377,20.996,36.133,35.156,18.066,46.387,0
1542908075.381,28.809,35.645,36.621,24.902,65.918,0
1542908075.385,38.574,40.039,42.969,34.180,-5.371,0
1542908075.389,35.645,42.480,42.969,33.203,-31.250,0
1542908075.393,28.809,36.621,32.715,23.438,7.324,0
1542908075.397,33.203,28.320,29.297,22.461,17.578,0
1542908075.401,40.039,30.273,30.273,28.809,40.527,0
1542908075.405,33.203,33.691,32.227,30.762,111.816,0
1542908075.409,31.738,34.180,35.156,33.691,73.242,0
1542908075.412,34.668,36.621,40.527,30.762,34.668,0
1542908075.416,37.109,36.621,44.434,33.203,49.805,0
1542908075.420,35.156,39.551,34.668,31.738,-2.441,0
1542908075.424,31.738,27.344,24.414,24.414,-33.203,0
1542908075.428,29.785,20.996,30.762,38.574,-17.090,0
1542908075.432,35.645,36.621,36.133,41.504,-28.809,0
1542908075.436,37.109,36.621,34.668,33.691,37.109,0
1542908075.440,45.898,34.180,40.527,38.574,36.133,0
1542908075.444,67.383,35.645,42.480,44.434,2.441,0
1542908075.448,50.781,40.527,44.434,46.387,73.242,0
1542908075.452,36.621,45.410,39.551,47.852,61.523,0
1542908075.455,44.434,37.109,28.320,39.551,21.973,0
1542908075.459,35.156,30.273,30.762,33.203,-15.625,0
1542908075.463,37.109,35.156,32.227,40.039,18.066,0
1542908075.467,42.969,41.992,33.203,39.062,4.883,0
