timestamps,TP9,AF7,AF8,TP10,Right AUX,Marker0
1553634386.457,30.273,22.949,65.918,39.062,-4.395,0
1553634386.461,38.086,12.207,62.012,62.012,40.527,0
1553634386.465,28.320,20.508,60.059,58.594,59.082,0
1553634386.469,25.879,28.320,61.035,61.035,24.414,0
1553634386.472,44.922,27.832,67.383,56.152,16.602,0
1553634386.476,40.039,22.461,68.359,42.480,35.156,0
1553634386.480,38.086,20.996,67.871,47.363,69.336,0
1553634386.484,38.086,31.250,65.430,67.383,97.168,0
1553634386.488,32.715,29.785,66.406,69.824,62.500,0
1553634386.492,18.555,15.137,75.195,45.898,-12.207,0
1553634386.496,29.297,19.043,68.848,51.758,-20.508,0
1553634386.500,44.434,23.438,59.082,47.852,20.996,0
1553634386.504,37.598,21.484,67.383,44.434,62.500,0
1553634386.508,25.879,25.879,65.430,56.641,61.035,0
1553634386.511,30.273,33.203,68.359,46.387,6.836,0
1553634386.515,30.762,23.926,74.707,52.246,-32.715,0
1553634386.519,37.598,16.602,74.707,62.012,0.488,0
1553634386.523,42.969,32.715,75.684,67.871,46.875,0
1553634386.527,31.250,35.156,62.988,39.551,49.805,0
1553634386.531,36.621,29.785,59.570,16.113,10.742,0
1553634386.535,34.668,25.879,68.848,28.809,-20.020,0
1553634386.539,24.414,35.645,82.520,51.758,3.418,0
1553634386.543,37.109,40.527,86.914,51.270,-60.059,0
1553634386.547,41.504,32.227,76.660,42.480,-32.227,0
1553634386.551,28.809,19.043,76.172,59.570,8.789,0
1553634386.554,34.668,9.277,68.359,55.664,0.488,0
1553634386.558,42.480,22.461,64.453,41.504,39.062,0
1553634386.562,38.574,39.062,75.684,29.785,42.969,0
1553634386.566,16.602,31.250,86.914,29.297,58.594,0
1553634386.570,17.578,34.180,78.125,31.250,62.012,0
1553634386.574,24.414,36.133,66.406,27.344,20.020,0
1553634386.578,36.621,29.297,69.336,31.738,14.160,0
1553634386.582,35.156,32.227,64.941,41.504,77.637,0
1553634386.586,33.691,15.137,71.289,37.598,107.422,0
1553634386.590,38.086,13.672,78.125,23.926,84.473,0
1553634386.594,26.855,29.297,70.312,37.598,71.289,0
1553634386.597,50.293,24.902,63.477,63.965,55.664,0
1553634386.601,42.969,29.785,72.754,54.199,17.578,0
1553634386.605,16.602,44.434,89.844,39.551,25.879,0
1553634386.609,32.715,50.293,94.727,46.875,80.078,0
1553634386.613,45.410,43.945,75.195,38.574,33.691,0
1553634386.617,40.039,30.762,53.711,37.109,6.836,0
1553634386.621,48.340,14.160,65.918,41.504,40.039,0
1553634386.625,45.898,16.113,84.473,42.969,6.348,0
1553634386.629,37.109,38.086,67.383,41.016,4.395,0
1553634386.633,58.105,43.945,62.012,37.109,37.598,0
1553634386.636,45.898,34.668,75.195,24.902,76.172,0
1553634386.640,25.391,22.949,82.031,43.945,29.297,0
1553634386.644,27.832,19.043,77.637,58.594,-3.906,0
1553634386.648,26.367,20.508,47.852,42.969,36.621,0
1553634386.652,33.691,22.461,47.363,20.508,72.754,0
1553634386.656,39.551,41.992,59.082,24.902,73.242,0
1553634386.660,40.527,38.086,51.270,31.738,22.949,0
1553634386.664,24.414,26.367,49.805,32.715,-9.277,0
1553634386.668,39.551,43.457,60.059,30.273,-0.488,0
1553634386.672,52.734,51.758,77.148,31.250,21.484,0
1553634386.676,34.668,32.227,67.383,42.969,24.902,0
1553634386.679,37.598,14.648,54.688,32.227,83.496,0
1553634386.683,50.781,11.719,66.406,29.785,86.426,0
1553634386.687,44.922,21.973,62.988,35.645,34.180,0
1553634386.691,16.602,31.250,51.758,-7.812,66.895,0
1553634386.695,18.066,32.715,55.664,-43.945,46.387,0
1553634386.699,33.203,40.527,68.359,-26.855,31.738,0
1553634386.703,39.551,46.875,64.453,-23.926,51.758,0
1553634386.707,45.410,43.457,68.359,-36.621,35.156,0
1553634386.711,41.504,32.227,73.730,-20.020,29.297,0
1553634386.715,44.922,25.879,67.871,-15.625,91.797,0
1553634386.719,54.199,21.484,64.453,-10.254,95.703,0
1553634386.722,44.922,13.672,72.266,-8.789,49.805,0
1553634386.726,29.785,23.926,81.543,-24.414,66.406,0
1553634386.730,28.809,47.363,91.797,-9.766,85.449,0
1553634386.734,27.832,46.875,94.727,5.371,91.309,0
1553634386.738,21.484,37.598,92.285,7.324,56.641,0
1553634386.742,36.621,39.551,83.496,8.789,17.578,0
1553634386.746,40.039,30.762,60.547,10.254,-28.320,0
1553634386.750,34.668,19.043,46.387,26.367,1.465,0
1553634386.754,37.109,22.949,60.059,33.691,50.293,0
1553634386.758,28.809,30.762,89.844,28.809,55.664,0
1553634386.761,40.527,31.250,101.562,26.367,62.988,0
1553634386.765,33.203,30.273,100.586,31.738,41.992,0
1553634386.769,41.992,33.203,105.469,58.594,40.039,0
1553634386.773,62.500,38.086,110.840,54.199,60.059,0
1553634386.777,36.133,37.598,90.332,15.137,57.129,0
1553634386.781,36.621,32.715,67.871,8.301,66.895,0
1553634386.785,45.410,34.180,59.082,25.391,62.012,0
1553634386.789,34.668,36.621,72.266,41.016,68.359,0
1553634386.793,45.898,38.574,83.984,42.969,61.035,0
1553634386.797,44.434,43.457,87.891,44.922,12.207,0
1553634386.801,43.945,37.109,98.633,46.875,15.625,0
1553634386.804,38.086,38.086,90.332,43.945,25.391,0
1553634386.808,42.480,40.527,92.773,51.270,-19.043,0
1553634386.812,45.410,35.156,77.637,51.270,-21.973,0
1553634386.816,32.227,31.738,54.688,49.805,23.926,0
1553634386.820,51.758,21.484,80.078,58.594,36.133,0
1553634386.824,60.547,24.414,91.309,54.199,41.992,0
1553634386.828,58.105,36.621,90.820,54.688,47.363,0
1553634386.832,67.871,33.691,90.820,51.758,18.555,0
1553634386.836,51.758,30.762,76.172,54.199,18.066,0
1553634386.840,26.855,32.715,70.801,54.199,14.648,0
1553634386.844,29.785,33.691,75.684,49.805,-15.625,0
1553634386.847,48.340,34.180,74.707,68.359,-9.766,0
1553634386.851,37.109,24.414,66.895,60.547,2.441,0
1553634386.855,24.414,25.879,62.012,35.645,43.945,0
1553634386.859,42.969,40.039,41.016,21.973,73.730,0
1553634386.863,41.992,34.180,41.016,33.203,15.625,0
1553634386.867,42.969,26.855,72.754,35.645,9.766,0
1553634386.871,53.223,32.227,80.566,17.578,75.684,0
1553634386.875,44.922,33.691,62.988,19.531,73.730,0
1553634386.879,39.062,43.457,50.293,40.039,20.996,0
1553634386.883,57.129,42.969,41.992,41.016,15.625,0
1553634386.886,51.270,31.738,34.180,24.902,46.875,0
1553634386.890,33.203,33.691,35.645,31.250,73.242,0
1553634386.894,42.969,34.668,41.016,36.621,50.293,0
1553634386.898,45.898,41.992,55.664,39.062,-10.254,0
1553634386.902,36.133,45.898,58.105,41.992,-26.367,0
1553634386.906,37.598,40.527,53.223,32.715,-2.930,0
1553634386.910,38.086,29.297,54.199,11.719,2.441,0
1553634386.914,32.227,24.414,42.480,12.207,23.926,0
1553634386.918,39.062,31.738,32.715,30.273,41.504,0
1553634386.922,46.387,30.762,36.133,29.785,-11.719,0
1553634386.926,40.039,35.645,28.809,23.438,12.207,0
1553634386.929,41.992,46.387,18.066,52.246,72.266,0
1553634386.933,29.297,37.109,33.203,53.223,72.754,0
1553634386.937,27.344,24.902,47.363,26.367,38.574,0
1553634386.941,47.363,37.109,48.828,47.852,41.016,0
1553634386.945,52.734,43.457,45.410,66.406,23.438,0
1553634386.949,61.035,36.133,40.039,57.129,28.320,0
1553634386.953,53.223,42.969,42.969,33.691,68.848,0
1553634386.957,20.508,45.410,35.156,29.297,50.781,0
1553634386.961,25.391,34.668,32.715,35.156,25.391,0
1553634386.965,28.809,31.738,50.293,24.414,46.387,0
1553634386.969,20.020,26.855,61.523,28.809,83.984,0
1553634386.972,32.715,21.973,49.805,49.805,34.180,0
1553634386.976,40.039,34.668,43.457,50.781,-6.836,0
1553634386.980,39.551,47.852,43.945,37.598,18.066,0
1553634386.984,37.598,42.969,44.434,36.621,24.414,0
1553634386.988,35.156,34.668,56.152,45.898,13.672,0
1553634386.992,28.809,29.297,43.457,37.598,-8.301,0
1553634386.996,27.344,32.715,38.086,29.785,-12.695,0
1553634387.000,41.992,44.922,54.199,58.105,27.832,0
1553634387.004,41.992,41.504,62.012,56.152,27.344,0
1553634387.008,56.152,36.621,62.012,40.039,44.922,0
1553634387.011,50.781,49.805,52.246,40.039,0.977,0
1553634387.015,18.066,47.363,58.594,39.062,28.320,0
1553634387.019,7.812,36.621,63.477,39.551,92.285,0
1553634387.023,8.789,27.344,57.129,33.691,38.574,0
1553634387.027,11.230,24.414,60.059,30.273,21.484,0
1553634387.031,23.438,27.832,63.965,41.016,-10.254,0
1553634387.035,32.715,31.738,43.457,42.480,-16.602,0
1553634387.039,34.180,36.133,31.250,31.738,1.953,0
1553634387.043,30.762,31.250,48.340,23.926,8.789,0
1553634387.047,30.762,36.133,55.664,22.461,10.254,0
1553634387.051,31.250,50.781,55.664,22.949,36.621,0
1553634387.054,25.879,47.363,56.152,13.184,54.688,0
1553634387.058,33.691,45.898,64.941,33.203,34.668,0
1553634387.062,16.113,37.598,61.035,32.227,51.270,0
1553634387.066,4.883,28.320,44.434,16.113,13.184,0
1553634387.070,8.301,40.527,51.270,12.207,-24.902,0
1553634387.074,0.000,46.875,75.195,10.742,7.812,0
1553634387.078,18.555,61.523,84.961,16.113,29.297,0
1553634387.082,4.883,72.754,82.520,-9.766,-0.488,0
1553634387.086,-12.207,56.641,79.102,-25.391,10.254,0
1553634387.090,-16.113,61.035,79.590,-38.574,47.363,0
1553634387.094,-65.918,73.730,92.285,-81.543,41.016,0
1553634387.097,-93.750,72.754,99.121,-93.262,54.199,0
1553634387.101,-99.121,79.102,114.746,-98.633,50.781,0
1553634387.105,-123.535,90.820,125.488,-104.004,6.836,0
1553634387.109,-138.184,85.449,125.000,-128.418,6.836,0
1553634387.113,-136.230,82.520,128.418,-149.414,39.551,0
1553634387.117,-141.602,84.961,129.395,-142.578,27.344,0
1553634387.121,-123.047,86.914,136.230,-142.090,-24.902,0
1553634387.125,-125.488,98.633,141.113,-139.648,30.762,0
1553634387.129,-167.969,97.168,130.859,-151.855,67.871,0
1553634387.133,-165.527,93.750,126.953,-160.645,29.785,0
1553634387.136,-158.203,104.492,132.812,-170.898,5.371,0
1553634387.140,-170.410,102.539,132.812,-173.828,30.762,0
1553634387.144,-155.762,109.375,131.348,-177.246,43.457,0
1553634387.148,-153.320,110.352,127.930,-167.480,-18.066,0
1553634387.152,-149.902,102.051,120.605,-169.922,-50.781,0
1553634387.156,-145.508,94.727,113.281,-187.988,-12.207,0
1553634387.160,-123.535,93.262,99.121,-172.852,67.871,0
1553634387.164,-107.910,100.098,94.238,-127.930,41.992,0
1553634387.168,-110.840,94.238,78.125,-108.398,39.551,0
1553634387.172,-102.539,86.914,59.082,-106.445,99.609,0
1553634387.176,-81.055,77.148,71.777,-87.891,69.336,0
1553634387.179,-47.363,64.941,84.961,-74.219,70.801,0
1553634387.183,-26.367,61.523,83.008,-55.176,67.383,0
1553634387.187,0.000,51.270,69.336,-32.227,91.309,0
1553634387.191,-1.465,52.246,66.406,-9.766,91.309,0
1553634387.195,-11.719,44.922,75.684,5.371,-0.488,0
1553634387.199,20.020,36.621,54.199,35.156,32.227,0
1553634387.203,56.641,33.203,38.574,63.965,26.855,0
1553634387.207,64.941,21.973,41.992,72.266,3.418,0
1553634387.211,70.801,14.160,38.574,91.797,74.707,0
1553634387.215,85.938,7.812,41.016,96.680,52.734,0
1553634387.219,93.750,-6.836,43.945,102.539,35.645,0
1553634387.222,120.117,-4.395,47.363,131.348,23.438,0
1553634387.226,121.094,-1.953,51.758,107.422,-18.555,0
1553634387.230,124.512,-0.977,51.758,110.840,3.906,0
1553634387.234,145.020,-3.906,46.875,132.812,16.602,0
1553634387.238,139.160,-18.555,40.039,123.535,49.316,0
1553634387.242,120.117,-20.508,28.809,124.023,69.824,0
1553634387.246,121.582,-16.602,23.926,132.812,18.555,0
1553634387.250,135.254,-6.348,41.016,135.742,6.348,0
1553634387.254,132.324,-6.836,54.688,134.277,4.883,0
1553634387.258,140.625,-20.996,45.410,140.137,54.688,0
1553634387.261,135.742,-19.043,36.133,146.973,40.039,0
1553634387.265,136.230,-1.465,36.133,146.973,-39.551,0
1553634387.269,148.438,1.465,47.363,145.020,-1.953,0
1553634387.273,127.441,-11.230,54.688,143.555,39.551,0
1553634387.277,131.836,-18.555,48.340,133.789,15.625,0
1553634387.281,142.090,-14.648,51.270,125.488,8.301,0
1553634387.285,129.395,-8.301,66.406,117.676,59.082,0
1553634387.289,127.441,-9.766,75.684,108.887,72.266,0
1553634387.293,124.512,-12.695,70.312,131.836,41.504,0
1553634387.297,114.746,-0.488,68.359,131.348,0.000,0
1553634387.301,141.113,9.277,71.777,110.352,-18.066,0
1553634387.304,129.883,4.395,67.383,101.562,-1.465,0
1553634387.308,89.355,1.465,66.406,95.703,23.926,0
1553634387.312,106.445,3.418,61.035,104.004,3.906,0
1553634387.316,106.934,0.000,53.711,100.586,-32.227,0
1553634387.320,97.168,-0.977,46.875,98.145,10.254,0
1553634387.324,111.328,8.301,29.297,105.469,42.969,0
1553634387.328,125.000,-0.488,36.621,110.352,50.781,0
1553634387.332,98.145,-3.906,59.082,98.145,55.176,0
1553634387.336,102.539,9.766,69.824,95.215,16.602,0
1553634387.340,114.746,25.879,73.730,97.656,7.812,0
1553634387.344,92.773,31.250,74.707,87.402,24.902,0
1553634387.347,77.637,14.160,72.266,93.750,41.504,0
1553634387.351,82.031,3.906,67.383,83.008,76.660,0
1553634387.355,80.078,16.113,61.035,84.961,66.406,0
1553634387.359,67.871,18.555,70.312,101.562,52.246,0
1553634387.363,77.148,9.277,90.332,72.266,-10.254,0
1553634387.367,79.102,3.418,103.027,57.129,-50.781,0
1553634387.371,71.777,14.648,111.816,76.660,-3.418,0
1553634387.375,82.031,26.367,119.141,63.477,26.367,0
1553634387.379,81.055,25.879,111.816,56.152,3.906,0
1553634387.383,65.430,34.668,113.281,69.824,26.367,0
1553634387.386,50.293,21.973,123.047,72.266,101.074,0
1553634387.390,44.922,2.441,107.910,63.477,61.035,0
1553634387.394,58.594,3.418,101.562,64.453,1.465,0
1553634387.398,63.477,5.859,95.215,62.012,17.090,0
1553634387.402,66.895,22.461,89.844,55.176,42.480,0
1553634387.406,56.641,28.809,97.656,58.105,70.801,0
1553634387.410,54.688,24.414,99.609,59.570,101.074,0
1553634387.414,79.590,31.250,93.262,63.965,69.824,0
1553634387.418,57.617,32.715,85.938,63.965,26.855,0
1553634387.422,60.547,21.973,81.055,73.730,-15.625,0
1553634387.426,51.270,14.160,82.031,62.988,-4.395,0
1553634387.429,41.504,17.090,88.867,34.668,22.461,0
1553634387.433,56.152,25.391,85.938,46.875,50.293,0
1553634387.437,55.176,33.691,74.219,53.223,41.504,0
1553634387.441,67.383,38.086,71.289,40.527,-12.695,0
1553634387.445,62.988,41.504,68.359,61.035,-3.418,0
1553634387.449,47.852,44.922,70.801,63.477,57.129,0
1553634387.453,53.711,30.762,71.289,42.480,47.363,0
1553634387.457,52.246,14.160,54.199,38.574,18.555,0
1553634387.461,40.039,17.578,45.410,48.340,65.918,0
1553634387.465,55.664,24.902,62.012,44.434,70.801,0
1553634387.469,43.945,29.297,71.777,49.316,77.148,0
1553634387.472,42.969,23.438,58.594,52.246,87.891,0
1553634387.476,61.035,22.461,44.434,39.062,33.203,0
1553634387.480,45.410,39.551,39.551,40.527,1.465,0
1553634387.484,46.387,46.387,47.852,35.645,51.270,0
1553634387.488,40.039,36.133,44.434,34.180,33.203,0
1553634387.492,41.016,26.367,63.965,55.664,35.645,0
1553634387.496,52.734,23.926,88.867,58.594,120.117,0
1553634387.500,51.758,20.996,78.613,48.340,110.840,0
1553634387.504,48.340,29.785,68.359,40.039,74.707,0
1553634387.508,45.410,31.738,69.824,23.926,37.598,0
1553634387.511,45.898,16.113,75.684,37.109,49.805,0
1553634387.515,51.270,24.902,77.637,48.340,72.754,0
1553634387.519,37.109,48.340,88.867,43.945,54.688,0
1553634387.523,52.246,51.270,105.469,52.734,18.066,0
1553634387.527,64.453,38.574,105.469,53.711,-22.461,0
1553634387.531,48.828,18.066,107.910,68.848,3.906,0
1553634387.535,36.621,15.137,115.723,48.828,21.973,0
1553634387.539,20.996,26.855,111.328,14.648,22.461,0
1553634387.543,21.973,25.879,103.027,26.367,56.152,0
1553634387.547,19.531,27.832,104.980,27.344,11.719,0
1553634387.551,18.555,20.508,125.488,40.527,35.156,0
1553634387.554,31.738,19.531,149.414,53.223,28.809,0
1553634387.558,43.945,30.273,142.090,26.855,-20.020,0
1553634387.562,46.875,29.785,120.117,21.484,13.184,0
1553634387.566,37.598,32.227,115.723,35.645,-5.371,0
1553634387.570,37.598,29.297,121.094,36.133,5.371,0
1553634387.574,57.129,20.996,97.168,34.668,53.711,0
1553634387.578,62.500,21.484,76.660,38.086,75.684,0
1553634387.582,41.016,19.531,89.355,49.316,10.742,0
1553634387.586,30.273,14.160,90.332,48.828,-12.207,0
1553634387.590,30.273,25.391,87.402,35.156,29.785,0
1553634387.594,30.273,41.504,98.633,41.504,-4.883,0
1553634387.597,50.293,38.574,102.539,54.688,-8.301,0
1553634387.601,68.848,33.691,107.422,48.340,38.086,0
1553634387.605,38.086,27.344,98.145,29.785,2.441,0
1553634387.609,24.902,19.043,87.891,23.926,-21.484,0
1553634387.613,28.320,13.672,89.355,31.738,1.465,0
1553634387.617,22.461,15.625,84.961,33.203,15.625,0
1553634387.621,30.273,21.484,82.520,37.109,21.973,0
1553634387.625,24.414,35.156,92.773,36.133,48.340,0
1553634387.629,23.926,44.922,94.727,26.367,23.926,0
1553634387.633,27.832,37.109,91.797,33.203,-25.879,0
1553634387.636,34.180,24.902,92.773,28.320,-2.930,0
1553634387.640,28.320,23.438,96.191,29.297,41.504,0
1553634387.644,39.062,32.715,104.004,28.320,56.152,0
1553634387.648,41.504,35.645,98.633,20.020,19.531,0
1553634387.652,28.809,31.250,86.914,39.551,12.207,0
1553634387.656,32.227,25.391,84.961,40.527,45.410,0
1553634387.660,29.297,33.203,84.961,36.621,85.938,0
1553634387.664,45.898,31.250,81.543,36.621,43.945,0
1553634387.668,42.969,25.391,76.660,22.949,12.695,0
1553634387.672,17.578,36.133,63.477,28.320,13.672,0
1553634387.676,25.391,40.039,70.801,37.109,2.930,0
1553634387.679,38.086,32.227,85.938,33.691,21.484,0
1553634387.683,40.039,28.320,84.473,40.527,4.883,0
1553634387.687,44.434,35.156,68.359,27.832,-43.945,0
1553634387.691,38.086,28.809,66.406,13.184,-18.555,0
1553634387.695,25.391,21.973,84.473,25.391,52.734,0
1553634387.699,28.809,26.855,87.402,25.879,75.195,0
1553634387.703,47.852,32.715,85.938,22.461,61.035,0
1553634387.707,45.410,37.109,76.660,37.598,45.898,0
1553634387.711,38.086,40.039,82.031,43.945,20.996,0
1553634387.715,40.039,41.992,88.867,39.551,78.613,0
1553634387.719,48.340,40.527,83.984,32.227,103.027,0
1553634387.722,47.363,25.391,81.055,20.996,34.180,0
1553634387.726,33.203,24.902,77.637,7.812,44.434,0
1553634387.730,28.809,38.574,87.402,16.602,29.785,0
1553634387.734,27.344,41.016,103.516,33.691,19.531,0
1553634387.738,17.090,38.086,104.004,27.832,24.414,0
1553634387.742,18.555,39.062,81.543,15.137,16.113,0
1553634387.746,23.926,41.016,71.777,14.648,13.672,0
1553634387.750,39.062,35.645,82.031,23.438,65.918,0
1553634387.754,41.504,28.320,77.637,35.645,110.352,0
1553634387.758,39.062,22.461,67.871,34.180,23.438,0
1553634387.761,41.992,19.043,70.312,28.809,-0.977,0
1553634387.765,36.621,14.160,72.266,30.762,63.965,0
1553634387.769,31.738,20.996,66.406,29.297,57.129,0
1553634387.773,40.039,36.621,67.871,29.785,49.316,0
1553634387.777,40.527,38.086,70.801,21.484,12.207,0
1553634387.781,20.996,42.480,74.707,32.227,11.719,0
1553634387.785,6.348,42.480,91.309,25.391,28.320,0
1553634387.789,17.090,28.320,104.004,13.672,79.102,0
1553634387.793,13.672,31.738,101.562,30.762,91.797,0
1553634387.797,19.531,32.715,91.309,43.457,46.387,0
1553634387.801,42.969,34.180,82.520,42.480,27.344,0
1553634387.804,41.016,33.691,83.496,17.090,19.531,0
1553634387.808,45.410,33.203,90.332,27.832,37.598,0
1553634387.812,34.180,34.180,86.914,36.621,33.203,0
1553634387.816,17.090,22.949,83.984,23.926,4.395,0
1553634387.820,27.832,28.809,100.586,12.207,5.859,0
1553634387.824,33.203,36.621,117.676,8.301,8.301,0
1553634387.828,27.832,39.062,117.188,21.973,63.477,0
1553634387.832,43.457,40.527,97.656,23.926,30.273,0
1553634387.836,40.527,26.855,79.590,20.020,-3.418,0
1553634387.840,28.320,17.578,77.148,14.160,37.109,0
1553634387.844,27.832,20.996,74.707,21.973,44.922,0
1553634387.847,39.551,36.133,82.031,33.691,63.965,0
1553634387.851,58.105,46.387,99.121,30.273,64.941,0
1553634387.855,30.762,46.875,96.680,29.785,7.812,0
1553634387.859,19.043,41.504,89.355,28.809,-46.875,0
1553634387.863,32.227,39.551,102.539,25.391,10.254,0
1553634387.867,35.156,27.832,93.750,34.668,72.266,0
1553634387.871,25.879,10.742,89.844,44.922,42.969,0
1553634387.875,29.785,18.066,98.633,26.855,-14.648,0
1553634387.879,66.406,24.902,83.496,39.062,-37.109,0
1553634387.883,43.457,25.879,92.773,29.785,-13.184,0
1553634387.886,18.555,46.875,108.887,3.906,24.414,0
1553634387.890,38.574,53.223,97.168,15.625,60.547,0
1553634387.894,53.711,38.086,79.102,9.766,43.457,0
1553634387.898,64.453,36.133,64.453,5.371,16.602,0
1553634387.902,43.457,45.410,69.824,14.160,47.852,0
1553634387.906,31.250,43.457,76.660,13.184,18.555,0
1553634387.910,26.855,33.203,85.449,3.418,49.316,0
1553634387.914,12.695,35.156,74.219,12.207,70.801,0
1553634387.918,27.344,48.340,61.523,32.715,32.715,0
1553634387.922,52.246,40.039,70.801,26.367,83.008,0
1553634387.926,39.062,33.203,62.012,32.715,19.531,0
1553634387.929,32.715,41.016,64.453,40.039,15.137,0
1553634387.933,54.199,34.668,78.125,42.480,55.176,0
1553634387.937,56.152,40.039,72.266,44.922,-7.324,0
1553634387.941,41.016,43.945,64.453,42.969,35.645,0
1553634387.945,42.969,33.203,56.641,41.016,85.449,0
1553634387.949,44.434,32.227,54.199,24.414,18.066,0
1553634387.953,30.762,41.016,57.129,14.160,-5.859,0
1553634387.957,37.598,52.734,56.152,13.184,-12.695,0
1553634387.961,21.973,52.246,66.895,12.207,-13.184,0
1553634387.965,29.785,44.434,82.520,24.902,51.270,0
1553634387.969,45.898,26.367,85.938,35.156,24.414,0
1553634387.972,29.785,26.855,79.590,22.461,18.555,0
1553634387.976,40.039,53.711,75.684,13.672,80.566,0
1553634387.980,40.039,54.199,78.125,26.855,57.129,0
1553634387.984,22.949,42.969,68.848,26.367,62.988,0
1553634387.988,26.367,44.434,59.082,31.738,53.223,0
1553634387.992,44.922,35.156,65.918,41.504,-7.812,0
1553634387.996,55.664,30.273,71.777,41.504,28.320,0
1553634388.000,48.340,34.180,64.941,46.875,39.062,0
1553634388.004,33.691,33.203,60.547,32.715,-2.930,0
1553634388.008,26.855,33.691,68.359,20.508,-5.371,0
1553634388.011,34.668,39.551,65.430,30.273,12.695,0
1553634388.015,42.480,45.410,45.898,36.133,86.426,0
1553634388.019,44.922,47.852,48.340,27.344,86.426,0
1553634388.023,38.086,43.945,58.105,22.949,15.625,0
1553634388.027,30.273,32.227,47.363,20.996,9.766,0
1553634388.031,37.109,25.879,49.805,28.320,16.602,0
1553634388.035,46.875,24.902,56.152,31.250,35.156,0
1553634388.039,37.109,29.785,44.434,28.809,55.176,0
1553634388.043,36.621,37.598,51.758,33.203,49.805,0
1553634388.047,36.621,37.598,64.941,33.203,19.531,0
1553634388.051,29.785,37.109,55.176,39.062,6.348,0
1553634388.054,37.598,43.457,51.758,41.992,6.348,0
1553634388.058,33.691,34.668,63.477,21.484,44.922,0
1553634388.062,23.926,33.203,52.246,16.113,62.500,0
1553634388.066,33.691,39.062,34.180,33.691,37.598,0
1553634388.070,45.410,31.250,31.738,46.875,7.812,0
1553634388.074,46.875,36.133,36.621,24.414,37.598,0
1553634388.078,44.922,41.016,47.852,16.602,52.246,0
1553634388.082,36.621,31.250,44.434,26.367,20.020,0
1553634388.086,34.668,15.625,39.551,23.926,36.133,0
1553634388.090,39.551,24.902,42.480,20.996,72.754,0
1553634388.094,34.180,48.828,51.270,27.344,77.637,0
1553634388.097,29.785,49.316,47.363,29.297,23.438,0
1553634388.101,33.691,37.109,41.016,16.113,-36.621,0
1553634388.105,32.715,41.016,60.059,21.484,12.695,0
1553634388.109,35.156,50.781,80.566,34.180,59.082,0
1553634388.113,33.203,40.527,79.590,36.133,44.434,0
1553634388.117,35.645,30.273,63.965,32.715,34.180,0
1553634388.121,50.781,36.133,56.641,29.297,27.344,0
1553634388.125,48.828,35.156,70.801,25.879,16.602,0
1553634388.129,34.668,26.855,82.520,26.367,29.785,0
1553634388.133,40.527,27.344,77.148,28.809,42.480,0
1553634388.136,45.898,31.250,73.730,28.809,33.691,0
1553634388.140,17.090,20.020,71.777,28.809,31.250,0
1553634388.144,18.555,27.344,69.824,33.203,11.719,0
1553634388.148,22.949,43.945,76.172,39.551,-12.695,0
1553634388.152,28.809,36.133,87.402,39.062,-18.555,0
1553634388.156,50.781,33.691,92.285,37.598,-7.812,0
1553634388.160,54.199,36.621,76.660,55.176,-11.230,0
1553634388.164,60.547,26.855,65.918,72.754,-9.766,0
1553634388.168,44.434,33.203,86.426,50.293,41.992,0
1553634388.172,10.742,48.340,96.191,20.508,72.266,0
1553634388.176,10.254,40.039,79.590,18.555,53.223,0
1553634388.179,28.809,25.879,76.660,8.789,23.438,0
1553634388.183,52.246,20.508,88.379,19.043,34.668,0
1553634388.187,37.109,23.926,80.566,12.207,43.457,0
1553634388.191,20.508,29.785,73.242,16.602,44.922,0
1553634388.195,21.484,34.180,63.477,39.062,55.664,0
1553634388.199,6.836,26.367,56.152,25.391,61.035,0
1553634388.203,27.344,17.090,73.730,35.156,83.008,0
1553634388.207,22.949,20.996,79.590,30.273,25.391,0
1553634388.211,26.367,20.020,64.941,16.602,3.418,0
1553634388.215,39.551,21.484,46.387,23.438,90.820,0
1553634388.219,32.715,22.461,43.457,32.227,38.086,0
1553634388.222,35.645,12.207,65.430,30.273,-32.715,0
1553634388.226,34.668,9.766,76.660,20.020,32.227,0
1553634388.230,32.715,26.367,74.707,31.738,41.992,0
1553634388.234,36.133,36.133,74.707,32.715,31.250,0
1553634388.238,27.832,32.227,72.754,25.879,41.992,0
1553634388.242,29.785,34.180,78.613,30.273,50.781,0
1553634388.246,48.828,32.227,72.266,48.340,63.965,0
1553634388.250,58.105,19.531,64.941,50.293,57.129,0
1553634388.254,42.969,18.066,77.148,40.527,72.754,0
1553634388.258,38.086,29.297,95.703,34.668,30.273,0
1553634388.261,46.387,35.645,94.727,21.973,-17.090,0
1553634388.265,39.551,43.457,83.496,20.996,7.812,0
1553634388.269,40.527,47.852,97.168,14.160,26.855,0
1553634388.273,46.875,43.945,112.793,12.207,31.250,0
1553634388.277,37.109,33.691,103.027,40.527,32.715,0
1553634388.281,28.320,25.391,94.238,49.316,24.414,0
1553634388.285,24.414,24.414,89.355,39.062,23.926,0
1553634388.289,17.578,18.555,90.332,24.414,32.227,0
1553634388.293,20.996,20.508,89.844,22.949,57.617,0
1553634388.297,38.574,34.180,78.613,22.949,65.430,0
1553634388.301,45.410,43.945,85.449,28.320,-12.207,0
1553634388.304,30.762,38.086,80.566,33.203,-72.754,0
1553634388.308,24.414,29.785,60.547,23.926,1.465,0
1553634388.312,29.785,30.762,51.270,35.645,32.227,0
1553634388.316,40.039,32.715,64.453,54.199,13.184,0
1553634388.320,43.457,25.391,79.102,36.621,62.988,0
1553634388.324,40.527,19.043,75.684,32.227,32.715,0
1553634388.328,44.434,35.156,68.359,35.645,28.809,0
1553634388.332,40.039,45.410,57.129,6.348,77.148,0
1553634388.336,29.785,31.738,61.523,11.230,58.105,0
1553634388.340,38.574,24.414,62.012,22.461,48.828,0
1553634388.344,34.668,27.344,41.016,11.230,15.625,0
1553634388.347,34.668,27.344,52.734,12.695,-17.578,0
1553634388.351,27.344,28.320,69.824,27.344,-6.836,0
1553634388.355,39.551,25.879,60.547,31.738,58.105,0
1553634388.359,48.828,24.902,60.547,32.227,34.180,0
1553634388.363,31.738,23.926,60.059,37.109,29.785,0
1553634388.367,28.320,28.809,59.082,33.203,58.594,0
1553634388.371,34.180,29.785,62.012,39.062,15.625,0
1553634388.375,34.180,23.438,74.707,32.715,29.297,0
1553634388.379,35.645,33.691,97.656,34.668,74.219,0
1553634388.383,37.109,46.387,104.004,32.715,92.285,0
1553634388.386,36.133,35.156,96.191,18.555,52.734,0
1553634388.390,43.457,28.320,98.145,27.832,-11.719,0
1553634388.394,38.574,25.879,98.633,36.621,60.059,0
1553634388.398,41.016,22.949,87.402,32.715,85.938,0
1553634388.402,47.852,26.367,88.867,34.180,42.969,0
1553634388.406,50.781,38.086,91.309,28.320,88.867,0
1553634388.410,38.086,48.340,84.961,30.762,65.430,0
1553634388.414,23.438,41.992,83.984,29.297,20.996,0
1553634388.418,22.949,35.156,80.566,33.203,24.902,0
1553634388.422,22.949,33.203,78.613,38.086,-1.953,0
1553634388.426,34.668,31.250,84.961,35.156,-12.695,0
1553634388.429,31.250,28.320,94.238,33.691,-12.695,0
1553634388.433,31.250,30.762,101.074,33.203,6.836,0
1553634388.437,42.480,32.227,91.797,31.250,20.508,0
1553634388.441,38.574,32.227,85.938,20.508,14.160,0
1553634388.445,35.156,42.969,65.430,26.855,11.719,0
1553634388.449,29.785,47.852,42.480,34.668,26.367,0
1553634388.453,18.066,41.016,88.379,27.344,31.738,0
1553634388.457,26.855,31.738,120.605,29.785,4.395,0
1553634388.461,41.016,25.391,102.539,37.109,20.020,0
1553634388.465,36.133,26.367,94.238,42.969,50.781,0
1553634388.469,39.551,39.551,100.098,37.598,34.180,0
1553634388.472,44.434,41.016,105.957,26.855,-0.488,0
1553634388.476,38.574,26.367,106.934,39.062,25.879,0
1553634388.480,67.383,25.879,98.633,58.105,48.828,0
1553634388.484,53.711,27.344,109.375,27.832,-26.367,0
1553634388.488,13.672,33.203,112.305,-5.371,-48.340,0
1553634388.492,30.762,38.574,83.008,12.207,5.371,0
1553634388.496,25.391,33.691,85.449,13.672,31.738,0
1553634388.500,17.090,28.809,92.285,19.043,37.109,0
1553634388.504,25.391,30.762,88.379,30.762,57.617,0
1553634388.508,5.371,25.391,95.215,14.648,62.988,0
1553634388.511,13.672,16.113,90.332,18.066,39.551,0
1553634388.515,40.527,23.926,70.312,31.250,27.832,0
1553634388.519,34.668,27.344,57.617,41.016,11.230,0
1553634388.523,34.180,18.066,48.828,44.434,62.988,0
1553634388.527,27.832,24.414,38.574,26.367,70.312,0
1553634388.531,26.367,27.344,45.898,20.508,26.855,0
1553634388.535,32.715,20.996,55.176,29.785,66.895,0
1553634388.539,33.203,23.926,47.852,30.762,75.684,0
1553634388.543,32.715,20.020,26.855,24.414,76.660,0
1553634388.547,25.391,16.113,10.742,31.738,82.520,0
1553634388.551,16.602,11.719,13.672,53.711,38.086,0
1553634388.554,30.273,23.438,22.461,31.738,39.062,0
1553634388.558,35.645,40.527,14.648,7.324,-7.324,0
1553634388.562,26.855,38.086,13.672,14.648,-27.344,0
1553634388.566,41.992,31.738,30.273,22.949,22.461,0
1553634388.570,51.270,21.973,30.273,28.320,62.012,0
1553634388.574,58.105,18.066,31.250,26.855,17.578,0
1553634388.578,54.688,21.973,43.945,29.785,1.953,0
1553634388.582,36.133,36.621,46.875,20.508,34.668,0
1553634388.586,18.066,51.758,33.203,20.508,-34.180,0
1553634388.590,32.715,52.734,31.738,35.645,-51.270,0
1553634388.594,38.574,36.133,41.992,34.668,23.438,0
1553634388.597,22.949,22.949,37.109,26.367,38.574,0
1553634388.601,15.625,22.949,37.109,34.668,67.383,0
1553634388.605,21.973,21.484,56.152,45.410,21.484,0
1553634388.609,30.762,25.879,65.430,36.621,1.465,0
1553634388.613,45.410,33.203,76.172,32.227,86.914,0
1553634388.617,45.410,41.992,81.543,38.574,2.441,0
1553634388.621,41.016,33.691,70.312,34.668,-28.809,0
1553634388.625,32.227,29.785,73.730,35.156,67.871,0
1553634388.629,19.043,34.180,82.520,40.039,37.109,0
1553634388.633,31.738,23.438,92.285,31.738,26.367,0
1553634388.636,43.945,20.996,88.867,15.625,24.902,0
1553634388.640,30.273,40.039,82.520,8.301,37.109,0
1553634388.644,25.879,49.316,91.797,8.789,-6.348,0
1553634388.648,39.551,34.668,73.242,25.391,28.320,0
1553634388.652,38.086,24.414,48.340,31.250,94.727,0
1553634388.656,33.203,34.668,63.477,22.461,45.410,0
1553634388.660,28.320,40.039,63.477,17.090,31.738,0
1553634388.664,39.551,37.598,56.641,14.160,49.316,0
1553634388.668,48.340,39.062,78.125,18.555,83.984,0
1553634388.672,25.391,34.668,74.219,21.973,86.914,0
1553634388.676,23.926,26.367,49.805,20.020,58.594,0
1553634388.679,22.461,28.320,52.734,28.320,41.016,0
1553634388.683,25.879,33.691,59.082,41.504,38.086,0
1553634388.687,31.738,26.367,46.875,25.391,33.691,0
1553634388.691,29.785,21.484,60.059,8.789,41.992,0
1553634388.695,41.992,27.344,72.754,15.137,6.348,0
1553634388.699,27.344,30.273,50.781,32.715,-41.504,0
1553634388.703,19.531,37.109,66.895,27.832,-16.113,0
1553634388.707,31.250,41.504,73.242,31.250,74.219,0
1553634388.711,38.086,31.738,61.523,30.273,96.191,0
1553634388.715,56.641,17.578,64.941,36.133,38.086,0
1553634388.719,56.152,21.973,51.758,52.734,-22.949,0
1553634388.722,39.062,36.133,58.594,46.875,0.488,0
1553634388.726,34.668,31.250,52.734,42.969,36.621,0
1553634388.730,32.227,30.273,25.879,44.922,24.902,0
1553634388.734,26.367,35.156,24.414,32.715,16.113,0
1553634388.738,32.227,35.156,31.738,24.902,56.152,0
1553634388.742,28.809,39.551,35.156,41.504,62.012,0
1553634388.746,27.344,24.414,22.949,31.738,20.020,0
1553634388.750,42.969,12.695,13.184,18.066,11.230,0
1553634388.754,38.574,23.926,33.691,18.555,64.941,0
1553634388.758,43.457,26.855,50.293,34.668,87.402,0
1553634388.761,75.684,29.297,28.809,55.176,36.133,0
1553634388.765,74.219,32.715,2.441,54.199,39.551,0
1553634388.769,30.762,43.457,6.836,35.645,16.602,0
1553634388.773,10.742,46.875,6.348,29.785,-3.418,0
1553634388.777,23.926,36.621,-9.277,38.574,25.879,0
1553634388.781,39.062,32.715,-10.742,38.086,35.156,0
1553634388.785,38.574,43.945,-7.812,44.922,17.090,0
1553634388.789,34.668,46.387,-5.371,37.598,0.488,0
1553634388.793,38.086,32.715,-3.418,33.691,0.000,0
1553634388.797,41.992,30.762,1.465,50.781,66.406,0
1553634388.801,50.293,33.691,4.883,37.109,42.969,0
1553634388.804,60.547,29.297,6.836,20.508,49.805,0
1553634388.808,75.684,28.320,7.812,34.180,69.336,0
1553634388.812,69.824,33.691,15.137,42.969,3.418,0
1553634388.816,37.109,44.434,33.203,47.852,21.484,0
1553634388.820,31.250,46.387,29.785,47.363,53.223,0
1553634388.824,47.363,39.551,25.391,40.039,83.984,0
1553634388.828,52.734,40.039,38.086,23.438,79.102,0
1553634388.832,49.805,30.273,47.363,25.391,4.883,0
1553634388.836,42.480,29.297,44.434,33.691,17.090,0
1553634388.840,41.504,42.480,24.902,38.574,11.719,0
1553634388.844,55.176,39.551,10.742,39.062,-15.625,0
1553634388.847,48.828,24.902,13.184,34.180,36.621,0
1553634388.851,29.297,26.855,26.367,39.551,76.172,0
1553634388.855,37.109,28.320,32.715,37.109,30.273,0
1553634388.859,41.992,25.391,35.645,30.762,51.758,0
1553634388.863,38.574,32.715,42.480,22.949,100.098,0
1553634388.867,37.598,37.109,45.898,35.645,2.441,0
1553634388.871,31.250,46.875,50.781,38.574,-21.973,0
1553634388.875,33.691,45.410,54.199,21.484,86.426,0
1553634388.879,33.203,31.738,44.922,25.879,51.270,0
1553634388.883,39.551,24.414,42.969,32.715,0.488,0
1553634388.886,54.688,22.949,48.828,27.344,9.766,0
1553634388.890,60.059,33.203,47.363,36.133,39.551,0
1553634388.894,38.574,41.992,40.527,42.480,38.574,0
1553634388.898,29.297,43.457,39.062,32.715,79.102,0
1553634388.902,53.223,42.480,39.062,22.461,98.633,0
1553634388.906,41.992,28.320,44.922,10.254,38.086,0
1553634388.910,24.414,21.973,49.805,23.438,-29.297,0
1553634388.914,33.691,29.297,38.086,36.621,-7.324,0
1553634388.918,42.969,35.645,31.250,40.527,44.434,0
1553634388.922,35.645,35.645,45.898,35.645,25.391,0
1553634388.926,33.691,38.574,53.711,25.879,44.434,0
1553634388.929,41.016,46.875,49.805,31.738,4.883,0
1553634388.933,36.133,38.574,47.363,21.973,-2.930,0
1553634388.937,31.250,24.902,42.480,21.484,41.992,0
1553634388.941,26.367,19.531,55.176,21.484,-28.320,0
1553634388.945,30.273,25.391,47.852,18.066,-46.875,0
1553634388.949,42.480,39.062,35.645,16.602,5.371,0
1553634388.953,32.227,36.133,40.527,17.578,81.055,0
1553634388.957,24.902,37.109,48.828,23.926,70.312,0
1553634388.961,28.809,36.621,52.246,21.484,34.180,0
1553634388.965,30.273,27.832,57.129,21.973,21.973,0
1553634388.969,36.133,41.504,66.895,15.625,-20.508,0
1553634388.972,14.648,43.457,56.152,-6.836,10.254,0
1553634388.976,5.859,38.086,50.781,-16.602,73.730,0
1553634388.980,2.441,36.621,58.105,10.254,90.820,0
1553634388.984,17.090,44.434,66.895,26.367,79.102,0
1553634388.988,-3.906,68.848,73.730,-8.301,40.527,0
1553634388.992,-49.805,76.660,65.918,-47.852,40.527,0
1553634388.996,-46.875,71.289,59.570,-45.898,26.367,0
1553634389.000,-55.176,78.613,56.641,-53.223,14.160,0
1553634389.004,-48.828,94.238,56.641,-82.520,19.531,0
1553634389.008,-52.734,101.562,60.547,-97.656,12.207,0
1553634389.011,-81.055,111.816,78.125,-109.375,35.645,0
1553634389.015,-92.773,125.000,92.773,-118.652,66.406,0
1553634389.019,-104.980,126.953,87.402,-134.766,17.090,0
1553634389.023,-93.750,128.418,84.473,-135.742,12.695,0
1553634389.027,-92.773,120.117,77.148,-136.230,26.367,0
1553634389.031,-106.445,120.605,70.312,-141.602,37.109,0
1553634389.035,-111.328,129.883,82.520,-133.301,39.551,0
1553634389.039,-116.211,115.723,96.191,-138.672,49.316,0
1553634389.043,-132.324,113.281,99.609,-155.762,52.246,0
1553634389.047,-117.188,121.094,100.098,-145.996,59.082,0
1553634389.051,-94.727,106.934,90.332,-130.371,69.336,0
1553634389.054,-110.840,93.750,95.703,-119.629,106.934,0
1553634389.058,-101.074,90.820,119.141,-104.004,103.516,0
1553634389.062,-91.309,76.660,112.305,-106.445,30.762,0
1553634389.066,-82.031,62.012,99.121,-102.051,35.156,0
1553634389.070,-63.477,60.059,93.750,-70.312,73.242,0
1553634389.074,-45.898,55.664,83.008,-52.246,24.902,0
1553634389.078,-24.414,46.875,76.172,-44.922,-3.906,0
1553634389.082,0.488,42.480,74.707,-24.414,64.941,0
1553634389.086,21.973,41.016,76.660,3.418,73.730,0
1553634389.090,31.738,37.598,75.684,26.367,42.969,0
1553634389.094,41.016,18.555,58.594,49.805,59.082,0
1553634389.097,60.547,-1.953,29.297,53.711,8.789,0
1553634389.101,82.031,9.277,39.551,58.105,-10.742,0
1553634389.105,77.637,22.461,56.641,78.125,31.738,0
1553634389.109,76.172,16.113,43.457,72.754,-12.207,0
1553634389.113,97.656,9.766,45.898,76.660,-4.395,0
1553634389.117,106.445,1.953,57.129,99.609,27.344,0
1553634389.121,101.562,0.977,66.406,112.305,0.977,0
1553634389.125,96.191,4.883,66.406,102.051,6.836,0
1553634389.129,108.887,7.324,51.270,112.305,44.922,0
1553634389.133,121.094,-1.953,48.828,126.465,8.301,0
1553634389.136,106.934,-8.301,61.035,112.305,16.602,0
1553634389.140,95.703,-11.230,62.988,108.398,37.598,0
1553634389.144,117.188,-5.371,62.012,108.398,71.777,0
1553634389.148,124.512,8.301,41.992,110.352,114.746,0
1553634389.152,105.469,7.324,14.648,97.168,35.645,0
1553634389.156,110.840,-0.488,35.645,82.031,22.461,0
1553634389.160,102.539,-4.883,70.801,101.562,81.055,0
1553634389.164,93.262,-8.301,72.754,104.492,68.359,0
1553634389.168,99.121,-16.113,55.176,90.332,20.020,0
1553634389.172,103.516,-8.789,57.617,92.773,-39.062,0
1553634389.176,101.074,10.254,64.453,102.539,-20.020,0
1553634389.179,96.191,17.090,64.453,108.398,63.965,0
1553634389.183,98.633,10.742,53.223,110.840,61.035,0
1553634389.187,104.004,11.230,35.645,95.215,83.008,0
1553634389.191,113.281,16.113,23.438,83.984,119.141,0
1553634389.195,122.559,2.930,23.438,90.820,32.227,0
1553634389.199,96.191,-6.348,29.297,96.680,13.184,0
1553634389.203,88.379,6.348,27.344,88.867,27.344,0
1553634389.207,100.586,18.066,33.203,77.637,-26.855,0
1553634389.211,98.145,19.531,30.273,76.660,-43.457,0
1553634389.215,83.984,7.324,26.367,87.402,-32.227,0
1553634389.219,78.125,5.371,37.109,76.660,18.555,0
1553634389.222,87.402,14.160,48.828,67.871,80.078,0
1553634389.226,83.984,14.160,53.223,67.871,77.148,0
1553634389.230,95.215,23.926,57.129,64.941,41.992,0
1553634389.234,84.473,15.625,67.383,81.543,0.977,0
1553634389.238,57.129,2.441,48.828,78.613,27.832,0
1553634389.242,62.500,20.996,10.254,55.176,63.477,0
1553634389.246,67.383,21.973,11.230,53.223,76.660,0
1553634389.250,65.918,12.207,29.785,67.871,26.855,0
1553634389.254,73.242,16.113,41.504,74.219,-27.832,0
1553634389.258,74.219,27.832,53.223,71.289,-5.371,0
1553634389.261,64.453,25.391,62.988,61.035,16.113,0
1553634389.265,63.965,13.672,60.547,53.223,1.465,0
1553634389.269,69.336,10.742,48.340,59.082,65.918,0
1553634389.273,74.219,16.602,32.227,60.059,60.547,0
1553634389.277,62.012,29.297,37.598,51.758,13.672,0
1553634389.281,53.711,30.273,55.664,54.688,24.414,0
1553634389.285,67.383,19.531,62.988,69.336,67.871,0
1553634389.289,86.426,17.090,72.754,58.594,72.266,0
1553634389.293,52.246,21.973,75.195,26.855,-25.879,0
1553634389.297,34.180,21.484,78.613,48.340,-30.273,0
1553634389.301,40.039,28.320,72.266,48.828,1.953,0
1553634389.304,44.434,41.992,58.105,22.461,19.043,0
1553634389.308,62.500,31.738,67.383,33.691,39.551,0
1553634389.312,59.570,23.926,66.895,45.410,27.344,0
1553634389.316,51.270,30.273,58.594,45.410,25.879,0
1553634389.320,54.199,24.414,68.359,35.156,73.242,0
1553634389.324,47.363,19.043,83.984,45.898,89.844,0
1553634389.328,40.039,21.484,86.426,57.617,58.594,0
1553634389.332,45.410,16.113,75.684,52.734,70.312,0
1553634389.336,54.199,23.438,83.984,50.293,30.762,0
1553634389.340,60.547,36.133,77.148,41.992,-3.906,0
1553634389.344,52.734,35.156,78.125,42.480,51.270,0
1553634389.347,34.668,35.156,80.078,33.203,43.457,0
1553634389.351,34.668,31.250,65.918,20.508,9.277,0
1553634389.355,58.594,26.855,58.105,28.809,6.836,0
1553634389.359,60.059,24.414,44.434,36.621,1.465,0
1553634389.363,48.828,32.227,55.176,41.016,13.184,0
1553634389.367,52.246,37.109,87.402,52.734,12.207,0
1553634389.371,52.734,36.133,103.516,54.688,47.852,0
1553634389.375,42.969,27.832,102.539,34.668,76.660,0
1553634389.379,38.086,22.461,98.633,22.949,19.043,0
1553634389.383,48.828,29.785,106.934,32.715,31.738,0
1553634389.386,44.922,35.645,111.328,34.180,39.551,0
1553634389.390,34.668,38.574,92.285,45.898,-8.789,0
1553634389.394,44.434,31.250,94.727,43.457,4.883,0
1553634389.398,44.922,27.832,118.652,19.531,9.277,0
1553634389.402,34.180,28.320,110.840,30.762,-40.039,0
1553634389.406,34.668,24.902,98.633,48.828,-0.488,0
1553634389.410,55.664,27.344,96.680,42.480,76.660,0
1553634389.414,46.387,32.227,83.984,24.902,64.941,0
1553634389.418,21.484,40.527,75.195,28.320,24.414,0
1553634389.422,32.227,31.738,87.402,23.926,17.578,0
1553634389.426,49.805,26.855,80.078,12.695,12.695,0
1553634389.429,47.363,31.738,71.289,18.555,-41.016,0
1553634389.433,32.227,33.203,99.121,35.156,-13.184,0
1553634389.437,33.203,33.203,110.352,22.461,52.246,0
1553634389.441,40.039,26.855,107.422,9.766,31.738,0
1553634389.445,41.504,27.344,104.980,32.227,26.855,0
1553634389.449,37.109,18.555,96.680,27.832,61.035,0
1553634389.453,36.621,12.695,93.750,24.902,53.223,0
1553634389.457,43.457,28.809,90.332,34.668,69.336,0
1553634389.461,39.062,41.504,85.938,38.086,71.289,0
1553634389.465,34.180,36.133,74.707,33.203,15.625,0
1553634389.469,36.621,29.785,71.777,29.785,15.137,0
1553634389.472,44.922,34.668,76.172,26.367,80.566,0
1553634389.476,47.852,35.645,67.871,35.645,61.035,0
1553634389.480,41.504,43.457,77.637,27.832,69.336,0
1553634389.484,46.875,34.180,70.801,16.602,95.703,0
1553634389.488,62.012,26.367,56.641,48.828,99.609,0
1553634389.492,56.152,34.668,71.777,46.387,120.117,0
1553634389.496,31.250,30.273,74.707,19.043,82.520,0
1553634389.500,27.832,26.855,73.242,25.391,19.531,0
1553634389.504,39.062,27.344,81.055,31.738,-20.508,0
1553634389.508,37.598,22.949,82.520,31.738,10.742,0
1553634389.511,14.160,17.090,88.867,24.902,72.754,0
1553634389.515,23.438,19.043,94.727,30.273,23.438,0
1553634389.519,35.645,22.461,96.680,41.504,-44.434,0
1553634389.523,10.254,23.438,95.215,33.203,0.000,0
1553634389.527,23.438,17.090,99.609,15.625,70.801,0
1553634389.531,25.391,7.812,97.168,1.465,54.199,0
1553634389.535,12.695,21.973,85.938,8.301,36.133,0
1553634389.539,23.438,25.879,77.148,23.926,-2.930,0
1553634389.543,32.227,10.254,94.238,31.738,-22.461,0
1553634389.547,32.715,8.301,109.863,34.668,21.973,0
1553634389.551,18.066,19.043,100.586,27.832,20.020,0
1553634389.554,27.344,28.809,95.215,19.043,16.602,0
1553634389.558,38.086,24.414,92.285,10.742,34.180,0
1553634389.562,26.367,24.902,97.656,22.949,24.902,0
1553634389.566,31.250,24.902,101.562,32.715,10.742,0
1553634389.570,41.016,19.043,111.328,24.902,46.387,0
1553634389.574,42.969,25.391,107.910,28.809,54.688,0
1553634389.578,45.410,31.738,97.168,28.320,19.043,0
1553634389.582,32.715,34.668,93.262,27.832,53.711,0
1553634389.586,31.738,31.738,83.496,27.344,21.484,0
1553634389.590,27.832,24.902,83.008,17.090,33.691,0
1553634389.594,30.273,16.113,80.566,4.883,90.820,0
1553634389.597,35.645,14.648,79.590,9.766,66.406,0
1553634389.601,19.043,21.973,85.938,18.066,23.438,0
1553634389.605,20.020,20.996,87.891,19.043,48.828,0
1553634389.609,32.227,32.715,83.008,10.254,65.430,0
1553634389.613,40.527,41.504,69.824,12.207,38.574,0
1553634389.617,45.410,36.133,61.035,18.555,106.445,0
1553634389.621,32.715,31.738,76.172,17.090,98.145,0
1553634389.625,24.902,29.785,80.078,16.602,25.391,0
1553634389.629,36.133,26.855,68.359,23.926,21.973,0
1553634389.633,47.363,16.113,77.148,30.273,16.113,0
1553634389.636,49.316,19.531,79.102,25.391,9.277,0
1553634389.640,32.227,27.832,61.523,22.949,-2.930,0
1553634389.644,21.484,32.715,42.969,30.762,-16.113,0
1553634389.648,35.645,31.738,20.020,29.785,21.484,0
1553634389.652,29.297,30.273,14.648,18.066,27.832,0
1553634389.656,27.344,27.344,40.039,17.090,1.953,0
1553634389.660,41.016,19.531,47.363,27.344,38.086,0
1553634389.664,33.203,39.062,37.598,30.762,62.500,0
1553634389.668,42.480,45.410,30.273,24.902,61.523,0
1553634389.672,49.805,34.180,21.973,24.414,36.133,0
1553634389.676,40.039,35.156,20.996,29.297,40.527,0
1553634389.679,35.645,39.062,34.180,46.387,51.270,0
1553634389.683,31.738,35.156,49.805,30.273,38.574,0
1553634389.687,51.758,22.949,44.434,24.902,37.598,0
1553634389.691,40.527,32.715,44.434,33.691,54.199,0
1553634389.695,20.996,40.527,43.945,33.203,-0.488,0
1553634389.699,22.461,36.133,39.062,38.574,-23.926,0
1553634389.703,20.508,35.156,56.152,32.715,48.340,0
1553634389.707,33.203,40.527,76.172,32.227,17.090,0
1553634389.711,32.227,30.273,78.125,15.625,-35.156,0
1553634389.715,18.555,5.371,75.684,7.812,14.648,0
1553634389.719,28.809,18.555,77.148,12.207,53.711,0
1553634389.722,27.832,41.504,84.961,8.789,49.316,0
1553634389.726,34.180,42.480,89.844,14.648,20.996,0
1553634389.730,53.711,36.621,83.008,19.043,20.996,0
1553634389.734,38.086,35.156,73.242,40.527,0.000,0
1553634389.738,29.297,31.250,76.660,46.875,-36.133,0
1553634389.742,15.625,27.344,66.406,38.574,9.766,0
1553634389.746,-8.789,15.137,56.641,42.480,36.621,0
1553634389.750,9.766,18.555,61.523,32.715,6.348,0
1553634389.754,14.160,34.180,62.988,35.156,68.359,0
1553634389.758,15.137,32.227,69.336,31.250,56.152,0
1553634389.761,40.039,35.156,78.125,43.945,20.996,0
1553634389.765,49.805,38.574,67.383,53.223,54.199,0
1553634389.769,42.969,35.156,63.965,23.438,67.383,0
1553634389.773,37.598,27.344,70.801,24.414,27.344,0
1553634389.777,36.621,24.414,43.945,33.203,26.367,0
1553634389.781,41.504,33.203,34.668,31.738,20.020,0
1553634389.785,51.758,41.992,68.359,36.133,-22.461,0
1553634389.789,41.992,44.922,88.867,29.785,16.113,0
1553634389.793,29.785,39.062,75.195,11.230,49.805,0
1553634389.797,51.270,34.180,55.176,18.555,3.418,0
1553634389.801,46.875,28.320,75.684,32.227,46.875,0
1553634389.804,21.973,19.531,86.914,32.715,110.352,0
1553634389.808,15.625,14.160,85.449,36.621,48.828,0
1553634389.812,11.230,13.672,74.707,28.809,-17.090,0
1553634389.816,10.254,23.926,60.059,24.414,2.441,0
1553634389.820,4.395,31.738,72.754,40.039,60.547,0
1553634389.824,-5.371,41.504,76.172,46.875,20.020,0
1553634389.828,0.977,38.086,78.125,45.410,-35.645,0
1553634389.832,4.883,12.207,77.637,42.480,-19.043,0
1553634389.836,28.809,7.812,72.266,54.199,72.266,0
1553634389.840,48.828,23.438,72.266,56.641,68.848,0
1553634389.844,41.992,36.133,84.961,26.855,38.574,0
1553634389.847,62.500,44.434,86.914,22.461,89.355,0
1553634389.851,61.035,41.016,75.684,33.691,48.340,0
1553634389.855,41.992,35.645,58.594,31.738,-14.160,0
1553634389.859,40.527,33.203,54.688,12.695,-15.137,0
1553634389.863,37.598,34.180,68.848,-4.395,-26.367,0
1553634389.867,45.410,36.621,70.801,0.977,36.621,0
1553634389.871,33.691,29.785,62.500,15.625,43.945,0
1553634389.875,34.668,32.227,62.988,26.855,19.043,0
1553634389.879,46.387,49.316,62.500,25.879,12.207,0
1553634389.883,40.527,58.105,62.012,39.062,-46.875,0
1553634389.886,28.809,42.480,66.895,48.340,28.809,0
1553634389.890,39.062,33.691,42.480,41.504,52.246,0
1553634389.894,38.086,37.109,37.109,36.621,-7.812,0
1553634389.898,27.832,29.297,76.172,49.805,64.941,0
1553634389.902,31.738,25.879,83.984,48.340,90.332,0
1553634389.906,23.438,36.133,85.938,20.996,84.961,0
1553634389.910,15.137,34.668,84.473,24.902,119.141,0
1553634389.914,44.434,27.344,71.777,41.016,114.258,0
1553634389.918,44.434,24.414,56.152,41.504,59.570,0
1553634389.922,35.156,22.461,44.434,51.758,32.227,0
1553634389.926,53.223,38.574,62.500,56.152,79.590,0
1553634389.929,45.410,46.875,69.824,39.551,58.105,0
1553634389.933,55.176,39.551,74.707,41.504,49.805,0
1553634389.937,72.754,36.621,79.590,57.129,21.973,0
1553634389.941,54.688,37.109,75.684,62.012,-23.438,0
1553634389.945,43.945,33.203,71.289,42.480,-2.930,0
1553634389.949,56.152,27.832,73.730,27.344,-13.672,0
1553634389.953,58.105,30.762,79.102,35.645,-27.832,0
1553634389.957,49.316,26.367,75.684,36.133,-8.301,0
1553634389.961,52.734,25.879,78.125,39.062,34.668,0
1553634389.965,39.551,42.969,90.820,60.547,75.195,0
1553634389.969,24.414,39.551,85.938,52.734,56.641,0
1553634389.972,34.668,28.809,71.289,31.738,41.016,0
1553634389.976,50.293,29.297,71.289,34.668,61.035,0
1553634389.980,37.109,30.273,71.289,43.457,42.480,0
1553634389.984,15.137,27.832,66.895,64.941,13.672,0
1553634389.988,10.742,26.367,79.590,48.828,32.227,0
1553634389.992,21.484,29.297,83.984,21.484,9.766,0
1553634389.996,21.484,29.785,79.102,33.203,1.953,0
1553634390.000,32.715,18.555,92.285,45.898,1.465,0
1553634390.004,46.387,22.461,97.168,39.551,-10.742,0
1553634390.008,40.527,29.297,78.613,28.809,58.594,0
1553634390.011,31.250,21.484,75.684,35.156,44.922,0
1553634390.015,45.898,33.203,80.566,45.410,-12.695,0
1553634390.019,62.988,41.016,77.637,44.922,18.555,0
1553634390.023,48.828,42.969,77.148,39.062,82.520,0
1553634390.027,23.438,47.363,68.359,30.273,39.551,0
1553634390.031,30.273,51.270,57.617,34.668,-9.766,0
1553634390.035,43.457,44.434,62.988,53.711,30.762,0
1553634390.039,37.598,27.344,79.102,45.410,-7.324,0
1553634390.043,36.133,24.902,83.496,37.598,-2.441,0
1553634390.047,40.527,37.109,78.613,43.945,35.645,0
1553634390.051,37.598,22.949,61.035,34.668,51.270,0
1553634390.054,34.180,12.695,52.734,31.250,36.133,0
1553634390.058,29.785,29.297,56.152,21.973,-6.836,0
1553634390.062,34.668,36.133,64.453,26.855,-40.039,0
1553634390.066,59.082,35.645,76.660,45.410,17.090,0
1553634390.070,51.758,47.852,70.312,21.973,51.270,0
1553634390.074,24.414,56.641,72.754,17.090,27.344,0
1553634390.078,22.949,36.133,75.195,28.809,47.363,0
1553634390.082,25.879,24.902,69.336,23.926,29.785,0
1553634390.086,61.035,21.973,74.219,48.340,66.406,0
1553634390.090,59.082,19.531,76.172,52.246,46.387,0
1553634390.094,22.461,34.668,79.590,37.598,-17.090,0
1553634390.097,44.434,48.340,67.871,36.133,13.184,0
1553634390.101,38.086,49.316,54.199,20.020,40.039,0
1553634390.105,33.203,37.598,60.059,27.832,81.543,0
1553634390.109,26.855,34.180,65.430,28.809,40.527,0
1553634390.113,26.367,34.668,47.852,34.668,72.754,0
1553634390.117,29.297,28.320,32.227,39.551,98.633,0
1553634390.121,27.832,23.926,43.457,40.039,37.109,0
1553634390.125,52.734,21.973,40.527,49.805,35.156,0
1553634390.129,40.039,13.672,28.809,47.852,-22.461,0
1553634390.133,39.551,15.137,39.062,34.668,-15.137,0
1553634390.136,47.852,33.203,47.363,21.973,65.918,0
1553634390.140,36.621,32.227,52.246,50.781,22.949,0
1553634390.144,26.855,20.508,39.551,39.062,-18.555,0
1553634390.148,24.902,27.832,41.992,17.578,-44.434,0
1553634390.152,38.086,50.293,63.477,47.363,11.230,0
1553634390.156,42.480,49.316,65.430,40.527,69.824,0
1553634390.160,37.109,32.715,56.152,26.367,50.781,0
1553634390.164,39.551,34.668,54.688,35.156,100.098,0
1553634390.168,44.434,31.738,50.781,32.227,66.406,0
1553634390.172,48.828,25.879,45.410,34.180,-4.395,0
1553634390.176,55.176,30.762,40.527,30.273,-15.625,0
1553634390.179,53.223,40.039,39.551,43.945,42.969,0
1553634390.183,48.828,45.410,45.410,66.895,61.523,0
1553634390.187,37.109,37.109,22.949,54.688,76.660,0
1553634390.191,24.414,29.785,26.367,33.691,103.027,0
1553634390.195,25.391,22.461,61.523,23.438,84.961,0
1553634390.199,25.879,26.855,68.359,39.551,-8.789,0
1553634390.203,28.809,45.410,57.129,31.738,-11.719,0
1553634390.207,33.691,39.551,51.758,20.508,-9.766,0
1553634390.211,43.457,27.832,69.336,33.203,8.301,0
1553634390.215,41.504,27.344,69.824,39.062,62.012,0
1553634390.219,18.555,29.785,43.945,26.367,38.574,0
1553634390.222,13.672,30.762,25.879,12.695,24.902,0
1553634390.226,34.668,30.762,28.809,15.137,9.766,0
1553634390.230,37.109,36.133,41.504,25.391,39.551,0
1553634390.234,22.461,41.992,44.434,24.902,44.434,0
1553634390.238,23.438,44.434,32.227,29.297,7.324,0
1553634390.242,29.785,38.574,21.973,42.480,0.488,0
1553634390.246,31.250,29.297,35.156,42.480,-11.230,0
1553634390.250,33.203,33.691,56.641,44.434,-40.527,0
1553634390.254,35.645,30.273,62.988,49.316,-45.898,0
1553634390.258,30.762,26.855,54.688,42.969,18.555,0
1553634390.261,23.438,43.457,39.062,28.320,47.363,0
1553634390.265,40.039,38.086,53.223,34.180,47.363,0
1553634390.269,45.898,20.996,66.895,43.457,92.773,0
1553634390.273,33.691,27.344,56.152,33.203,52.734,0
1553634390.277,27.832,32.715,47.852,24.414,36.621,0
1553634390.281,24.902,29.297,50.781,16.602,69.336,0
1553634390.285,14.160,28.320,62.988,20.020,35.156,0
1553634390.289,6.348,22.461,69.336,33.203,64.453,0
1553634390.293,20.508,13.672,63.965,28.320,88.379,0
1553634390.297,25.391,21.973,59.570,14.160,47.852,0
1553634390.301,21.973,38.086,72.266,32.715,7.812,0
1553634390.304,21.484,43.457,65.430,45.410,24.414,0
1553634390.308,17.578,25.879,39.062,19.531,70.801,0
1553634390.312,32.227,15.137,20.996,1.953,113.281,0
1553634390.316,49.805,24.414,20.020,26.367,87.891,0
1553634390.320,38.574,29.297,44.434,40.527,32.715,0
1553634390.324,36.621,32.227,60.547,31.738,11.719,0
1553634390.328,26.855,28.320,54.688,30.273,28.809,0
1553634390.332,30.273,27.832,62.988,41.016,37.598,0
1553634390.336,36.621,30.762,64.453,23.926,65.430,0
1553634390.340,33.203,28.320,58.105,35.156,14.160,0
1553634390.344,43.945,25.879,62.500,53.711,-7.324,0
1553634390.347,16.113,34.668,55.664,23.926,54.688,0
1553634390.351,13.184,39.551,42.480,25.879,69.336,0
1553634390.355,54.199,41.992,36.133,44.922,12.207,0
1553634390.359,29.785,47.852,39.551,19.531,5.371,0
1553634390.363,-1.465,56.641,25.879,-5.859,30.273,0
1553634390.367,34.668,73.730,1.465,12.207,6.348,0
1553634390.371,50.781,70.801,-1.953,37.109,-18.555,0
1553634390.375,43.457,60.059,-3.418,22.949,-20.996,0
1553634390.379,63.477,60.547,-16.602,34.180,27.344,0
1553634390.383,59.082,53.711,-9.277,39.551,81.543,0
1553634390.386,43.457,48.828,-0.977,19.531,100.586,0
1553634390.390,50.781,46.875,6.348,24.902,69.824,0
1553634390.394,39.551,23.926,15.625,22.461,54.199,0
1553634390.398,36.621,23.926,19.531,9.766,74.707,0
1553634390.402,58.594,59.570,23.926,23.926,57.617,0
1553634390.406,53.223,73.242,16.113,37.109,21.973,0
1553634390.410,60.547,67.383,2.441,26.855,0.000,0
1553634390.414,56.641,60.059,10.742,18.066,32.227,0
1553634390.418,38.574,48.828,23.438,25.879,39.062,0
1553634390.422,50.781,38.086,34.180,25.391,-31.738,0
1553634390.426,46.875,30.273,46.875,30.273,-32.715,0
1553634390.429,38.086,37.109,48.828,41.992,1.465,0
1553634390.433,36.133,52.246,67.383,25.391,31.738,0
1553634390.437,37.598,55.176,72.754,14.160,4.395,0
1553634390.441,43.945,53.223,62.012,30.762,17.090,0
1553634390.445,41.016,40.527,51.758,29.297,41.016,0
1553634390.449,39.551,41.992,36.621,20.020,14.648,0
1553634390.453,30.273,49.316,22.949,17.578,9.766,0
1553634390.457,35.645,45.410,20.996,24.414,23.926,0
1553634390.461,49.316,40.039,41.504,48.340,0.977,0
1553634390.465,58.594,36.621,42.480,42.969,27.832,0
1553634390.469,47.852,32.715,29.785,23.926,77.148,0
1553634390.472,44.434,40.039,46.875,19.531,67.383,0
1553634390.476,58.105,47.852,57.617,21.973,36.133,0
1553634390.480,40.527,37.598,50.781,26.855,72.754,0
1553634390.484,32.715,32.227,21.484,15.137,78.613,0
1553634390.488,41.504,47.363,20.996,36.621,-29.785,0
1553634390.492,48.340,49.316,44.434,31.738,-19.531,0
1553634390.496,32.227,41.504,41.016,-3.906,82.031,0
1553634390.500,31.738,43.457,50.781,8.789,44.922,0
1553634390.504,39.062,42.480,63.477,39.062,74.219,0
1553634390.508,35.156,45.898,43.457,28.320,92.285,0
1553634390.511,33.691,44.434,44.434,14.160,43.457,0
1553634390.515,27.832,34.180,57.129,7.812,15.625,0
1553634390.519,29.785,38.086,49.805,-7.812,16.113,0
1553634390.523,31.250,42.969,46.387,-0.488,64.453,0
1553634390.527,22.949,39.062,46.875,9.277,52.246,0
1553634390.531,27.344,32.227,63.477,10.742,-8.301,0
1553634390.535,23.926,26.855,62.012,24.902,-68.359,0
1553634390.539,14.648,36.621,50.293,28.320,-31.738,0
1553634390.543,21.484,46.875,50.781,12.207,13.672,0
1553634390.547,8.789,47.363,46.387,0.488,9.766,0
1553634390.551,16.602,46.387,52.246,-11.230,67.383,0
1553634390.554,23.926,49.316,55.176,4.395,36.621,0
1553634390.558,1.953,53.711,58.105,10.254,25.391,0
1553634390.562,-18.066,42.969,50.293,-17.578,50.293,0
1553634390.566,-0.977,35.156,43.945,-14.160,29.297,0
1553634390.570,11.230,51.270,45.410,-3.418,7.324,0
1553634390.574,10.254,50.293,49.805,-14.648,-0.977,0
1553634390.578,0.000,34.180,79.590,-18.066,51.270,0
1553634390.582,-8.301,37.598,85.938,-16.602,56.641,0
1553634390.586,13.184,38.086,62.988,-1.953,45.410,0
1553634390.590,24.902,27.344,66.895,27.832,62.500,0
1553634390.594,42.480,20.996,74.707,47.852,42.480,0
1553634390.597,45.898,13.184,81.543,35.645,5.859,0
1553634390.601,56.641,18.555,91.309,32.715,-36.133,0
1553634390.605,73.242,21.973,88.867,61.035,29.785,0
1553634390.609,84.473,17.090,85.449,87.402,73.242,0
1553634390.613,88.379,10.254,96.680,103.027,23.926,0
1553634390.617,100.586,-7.812,105.957,103.516,30.762,0
1553634390.621,111.328,-13.672,98.145,99.121,67.871,0
1553634390.625,112.305,-9.766,95.703,99.609,32.715,0
1553634390.629,123.535,-5.859,98.145,107.422,15.137,0
1553634390.633,110.352,-5.371,96.680,133.789,24.902,0
1553634390.636,101.562,-5.859,93.262,127.930,12.207,0
1553634390.640,112.793,2.441,92.773,97.656,45.410,0
1553634390.644,130.371,0.977,88.379,110.840,41.992,0
1553634390.648,128.418,-5.371,83.984,133.301,54.199,0
1553634390.652,125.977,-5.371,78.125,121.582,60.059,0
1553634390.656,121.582,3.906,79.590,99.609,30.273,0
1553634390.660,120.117,12.207,78.613,101.074,53.711,0
1553634390.664,121.582,3.906,60.547,105.469,55.664,0
1553634390.668,107.422,3.906,48.828,97.168,13.672,0
1553634390.672,92.773,12.207,57.617,72.266,35.645,0
1553634390.676,80.078,16.602,62.012,79.590,94.238,0
1553634390.679,83.984,16.602,67.871,91.309,30.273,0
1553634390.683,83.496,9.766,88.379,94.727,22.949,0
1553634390.687,80.566,7.812,84.961,95.215,34.668,0
1553634390.691,95.703,6.348,73.242,92.285,17.578,0
1553634390.695,99.121,6.836,62.500,78.613,25.391,0
1553634390.699,88.379,13.672,50.293,71.289,65.430,0
1553634390.703,70.312,17.578,62.012,77.637,50.293,0
1553634390.707,72.266,21.973,66.895,80.566,4.883,0
1553634390.711,68.848,20.508,49.316,66.895,5.859,0
1553634390.715,52.246,19.531,45.410,61.035,41.016,0
1553634390.719,63.477,26.855,60.059,68.848,32.715,0
1553634390.722,77.148,27.832,73.730,61.523,-10.254,0
1553634390.726,60.547,23.926,76.660,62.500,17.090,0
1553634390.730,59.082,18.066,85.449,65.430,27.832,0
1553634390.734,60.547,10.254,84.961,69.824,13.672,0
1553634390.738,59.082,10.742,79.590,85.938,32.227,0
1553634390.742,69.336,20.508,74.707,72.754,68.848,0
1553634390.746,81.543,32.227,72.266,50.781,45.898,0
1553634390.750,77.637,40.527,80.078,62.012,7.324,0
1553634390.754,64.453,33.691,81.055,58.105,34.180,0
1553634390.758,47.852,23.438,76.172,60.059,71.289,0
1553634390.761,41.504,23.926,79.102,46.387,51.270,0
1553634390.765,52.734,23.438,80.078,38.574,56.152,0
1553634390.769,57.617,22.949,77.148,57.129,34.668,0
1553634390.773,75.684,21.973,74.219,49.805,-4.883,0
1553634390.777,68.848,28.809,65.430,45.410,31.250,0
1553634390.781,49.805,35.156,51.758,48.828,-12.695,0
1553634390.785,58.594,33.691,53.223,54.688,-21.484,0
1553634390.789,51.758,27.344,70.801,62.988,24.902,0
1553634390.793,49.805,30.273,70.312,35.156,16.113,0
1553634390.797,43.945,32.715,59.082,28.809,6.836,0
1553634390.801,46.875,21.973,52.246,44.434,6.836,0
1553634390.804,47.363,25.879,54.199,32.715,5.859,0
1553634390.808,41.016,35.645,70.312,31.738,24.414,0
1553634390.812,48.828,36.133,72.754,53.223,36.133,0
1553634390.816,68.848,40.039,71.777,54.199,30.273,0
1553634390.820,82.031,37.598,76.660,41.992,24.902,0
1553634390.824,75.684,29.785,82.031,31.738,41.504,0
1553634390.828,61.035,29.297,75.684,26.855,26.367,0
1553634390.832,48.828,24.414,51.758,35.645,29.785,0
1553634390.836,52.734,22.461,55.176,43.457,10.254,0
1553634390.840,46.387,35.156,77.637,33.691,21.973,0
1553634390.844,42.969,40.527,78.125,19.043,20.020,0
1553634390.847,39.062,36.621,58.594,24.414,43.457,0
1553634390.851,51.758,37.598,62.012,26.855,74.219,0
1553634390.855,59.570,34.180,66.406,16.113,33.203,0
1553634390.859,45.410,21.973,55.176,21.973,23.926,0
1553634390.863,83.984,24.414,64.453,64.941,-7.812,0
1553634390.867,85.938,41.504,73.242,48.828,10.742,0
1553634390.871,4.883,51.758,78.613,-18.066,47.852,0
1553634390.875,-19.531,52.734,80.078,-15.625,41.504,0
1553634390.879,-9.766,57.129,81.055,-26.367,16.113,0
1553634390.883,-42.480,54.199,83.008,-51.270,16.113,0
1553634390.886,-48.340,49.805,77.148,-52.246,34.668,0
1553634390.890,-44.434,60.059,77.637,-73.730,36.621,0
1553634390.894,-69.336,78.613,96.680,-103.516,-18.066,0
1553634390.898,-62.012,79.102,120.117,-123.047,8.301,0
1553634390.902,-85.938,81.543,126.953,-123.047,43.457,0
1553634390.906,-131.836,83.984,120.117,-133.301,41.992,0
1553634390.910,-137.207,81.055,124.023,-157.227,78.125,0
1553634390.914,-146.484,91.797,128.418,-170.410,38.574,0
1553634390.918,-156.250,96.680,121.094,-176.758,25.391,0
1553634390.922,-155.762,104.004,128.418,-172.363,51.270,0
1553634390.926,-177.246,104.492,136.230,-192.383,19.531,0
1553634390.929,-187.988,93.262,141.113,-211.914,29.785,0
1553634390.933,-193.359,98.145,151.855,-228.516,83.984,0
1553634390.937,-213.379,109.375,151.367,-231.445,105.957,0
1553634390.941,-213.867,108.887,142.578,-231.445,97.656,0
1553634390.945,-209.473,112.793,145.996,-249.512,49.316,0
1553634390.949,-183.105,118.652,162.598,-239.258,31.738,0
1553634390.953,-185.059,122.559,163.574,-215.820,14.648,0
1553634390.957,-201.660,120.605,164.062,-221.191,15.137,0
1553634390.961,-193.848,124.023,165.527,-238.770,30.762,0
1553634390.965,-200.684,126.953,137.207,-231.445,3.418,0
1553634390.969,-186.523,126.465,118.652,-204.590,25.391,0
1553634390.972,-157.715,131.348,113.281,-194.336,61.035,0
1553634390.976,-161.621,123.535,117.676,-205.566,53.711,0
1553634390.980,-144.531,115.234,112.793,-186.523,44.922,0
1553634390.984,-147.461,123.047,109.863,-171.875,33.691,0
1553634390.988,-161.133,124.512,112.793,-184.082,32.227,0
1553634390.992,-126.465,111.816,99.121,-160.645,6.348,0
1553634390.996,-105.957,93.262,84.961,-137.207,-20.508,0
1553634391.000,-83.008,79.102,85.938,-123.047,-16.113,0
1553634391.004,-70.801,69.336,87.891,-104.492,24.902,0
1553634391.008,-52.246,63.965,87.402,-87.891,38.574,0
1553634391.011,-27.832,63.477,84.961,-68.359,5.859,0
1553634391.015,-12.695,66.895,73.242,-40.039,3.418,0
1553634391.019,15.625,56.641,65.918,-25.879,75.195,0
1553634391.023,40.039,33.203,58.594,-13.184,86.914,0
1553634391.027,59.570,21.484,39.062,9.766,35.645,0
1553634391.031,81.055,10.254,26.855,44.922,39.551,0
1553634391.035,89.844,4.883,20.020,58.594,47.852,0
1553634391.039,92.773,9.766,15.137,65.430,20.996,0
1553634391.043,104.492,3.418,12.207,80.566,16.602,0
1553634391.047,127.930,-9.277,16.113,103.516,1.953,0
1553634391.051,116.699,-8.789,18.066,115.723,7.812,0
1553634391.054,114.746,-16.113,11.230,117.676,62.500,0
1553634391.058,138.184,-20.508,15.625,119.141,33.203,0
1553634391.062,151.367,-5.859,17.578,112.793,-19.531,0
1553634391.066,145.508,-8.301,20.508,119.141,-1.953,0
1553634391.070,154.297,-18.066,29.785,129.883,29.785,0
1553634391.074,184.570,-19.043,16.602,136.719,48.340,0
1553634391.078,168.457,-25.879,19.531,122.559,50.293,0
1553634391.082,133.301,-25.879,27.832,114.258,27.832,0
1553634391.086,122.070,-14.160,14.648,104.492,7.812,0
1553634391.090,136.230,-13.672,20.996,104.980,-3.418,0
1553634391.094,139.160,-23.438,35.156,108.398,-4.395,0
1553634391.097,128.906,-15.625,36.133,100.098,41.016,0
1553634391.101,152.832,-8.301,34.180,113.281,42.480,0
1553634391.105,154.785,-8.301,37.598,130.859,-18.555,0
1553634391.109,138.672,-15.625,33.691,119.141,22.461,0
1553634391.113,130.859,-11.719,25.391,102.539,58.594,0
1553634391.117,126.953,-13.184,9.766,111.328,29.785,0
1553634391.121,139.160,-18.066,22.461,100.098,-5.371,0
1553634391.125,140.625,-5.859,52.734,95.215,24.414,0
1553634391.129,124.023,-7.812,54.199,101.562,50.781,0
1553634391.133,111.816,-6.348,41.992,85.938,28.320,0
1553634391.136,114.746,-1.465,44.922,79.102,53.711,0
1553634391.140,109.375,-0.977,57.617,82.520,56.641,0
1553634391.144,103.516,2.441,51.270,82.520,21.973,0
1553634391.148,107.422,13.672,46.387,83.984,41.504,0
1553634391.152,116.699,18.555,47.852,89.844,56.152,0
1553634391.156,111.816,10.254,54.688,94.238,4.395,0
1553634391.160,106.445,4.395,67.871,90.332,4.883,0
1553634391.164,93.262,3.418,66.406,95.215,30.273,0
1553634391.168,87.402,9.277,63.477,81.055,25.879,0
1553634391.172,102.539,13.184,67.871,62.500,16.602,0
1553634391.176,89.355,9.766,66.895,65.918,25.879,0
1553634391.179,82.031,6.348,58.594,57.617,61.523,0
1553634391.183,91.309,5.371,63.477,59.082,57.129,0
1553634391.187,76.660,7.324,64.941,57.617,12.207,0
1553634391.191,74.707,14.648,61.523,45.410,51.758,0
1553634391.195,78.613,17.578,56.641,56.152,97.168,0
1553634391.199,61.035,22.461,49.316,54.688,71.777,0
1553634391.203,67.383,21.973,49.316,56.641,18.066,0
1553634391.207,81.055,20.020,60.547,57.129,9.277,0
1553634391.211,73.242,14.160,70.312,56.641,11.230,0
1553634391.215,60.547,10.742,78.125,62.012,57.129,0
1553634391.219,62.012,10.254,89.355,65.430,61.523,0
1553634391.222,70.312,14.160,82.031,56.152,23.926,0
1553634391.226,67.383,19.531,62.012,32.715,-0.488,0
1553634391.230,55.664,18.066,59.082,37.598,-15.625,0
1553634391.234,62.012,29.785,61.035,48.340,37.598,0
1553634391.238,52.246,35.156,48.340,56.152,21.484,0
1553634391.242,41.016,33.203,54.199,40.527,45.898,0
1553634391.246,45.410,33.691,68.848,28.320,121.582,0
1553634391.250,34.180,28.809,70.312,53.711,90.332,0
1553634391.254,40.039,25.879,78.613,55.664,38.574,0
1553634391.258,62.988,21.973,77.148,30.273,6.348,0
1553634391.261,61.035,27.344,62.500,37.598,21.973,0
1553634391.265,53.223,37.598,53.711,45.410,25.391,0
1553634391.269,52.734,30.762,64.453,36.621,37.598,0
1553634391.273,48.828,19.531,68.359,28.809,54.688,0
1553634391.277,41.504,21.973,66.895,34.668,41.016,0
1553634391.281,40.039,25.879,82.031,36.621,48.828,0
1553634391.285,40.039,28.320,93.750,30.273,49.805,0
1553634391.289,46.875,32.715,92.773,36.133,35.156,0
1553634391.293,52.246,29.297,72.266,44.922,79.590,0
1553634391.297,38.574,25.879,64.941,42.480,62.988,0
1553634391.301,33.203,21.973,73.242,26.367,9.277,0
1553634391.304,40.039,23.438,80.566,36.133,40.039,0
1553634391.308,36.621,28.320,90.820,34.180,78.125,0
1553634391.312,41.016,28.809,96.680,29.297,83.496,0
1553634391.316,44.434,35.156,88.867,29.785,62.500,0
1553634391.320,74.219,42.480,73.242,33.203,50.781,0
1553634391.324,81.055,37.109,80.078,47.363,-18.066,0
1553634391.328,42.969,29.297,107.910,39.062,-57.129,0
1553634391.332,26.855,25.391,119.141,32.227,-6.348,0
1553634391.336,21.484,20.508,103.027,27.832,17.090,0
1553634391.340,21.484,10.254,100.586,40.527,15.625,0
1553634391.344,21.973,6.836,118.652,41.016,36.133,0
1553634391.347,21.484,11.719,131.836,19.531,14.160,0
1553634391.351,22.949,6.348,136.719,29.785,5.371,0
1553634391.355,23.926,2.441,130.371,38.574,27.832,0
1553634391.359,34.180,12.695,125.000,45.898,64.453,0
1553634391.363,32.227,12.207,125.000,44.434,65.430,0
1553634391.367,31.738,4.395,112.305,37.109,21.973,0
1553634391.371,34.668,19.531,97.656,35.645,41.016,0
1553634391.375,38.086,18.066,93.262,24.902,40.527,0
1553634391.379,40.039,3.418,88.867,28.320,9.766,0
1553634391.383,42.480,7.324,92.285,46.875,25.879,0
1553634391.386,42.969,11.230,87.891,38.574,41.016,0
1553634391.390,28.809,10.254,83.984,32.227,72.754,0
1553634391.394,14.160,15.625,95.215,39.551,88.867,0
1553634391.398,20.020,21.484,99.121,62.988,40.527,0
1553634391.402,43.457,28.809,84.473,54.688,13.184,0
1553634391.406,51.270,27.344,82.031,22.949,32.227,0
1553634391.410,36.133,12.207,93.262,38.574,31.738,0
1553634391.414,36.621,15.137,90.332,52.734,8.789,0
1553634391.418,42.969,26.367,89.355,41.504,5.371,0
1553634391.422,36.133,26.367,85.938,41.016,-6.348,0
1553634391.426,43.945,25.879,67.383,38.086,13.672,0
1553634391.429,49.316,23.926,61.035,36.621,36.133,0
1553634391.433,41.016,12.207,67.383,30.273,12.207,0
1553634391.437,37.109,19.531,70.312,43.457,20.508,0
1553634391.441,44.922,28.320,68.848,51.270,15.137,0
1553634391.445,58.105,25.879,70.312,44.434,15.625,0
1553634391.449,30.273,22.949,64.941,40.039,59.570,0
1553634391.453,25.879,24.414,45.410,31.250,45.898,0
1553634391.457,38.086,25.391,39.551,34.180,8.789,0
1553634391.461,27.344,18.066,46.387,28.320,15.137,0
1553634391.465,38.086,28.809,45.898,29.785,71.777,0
1553634391.469,46.875,36.621,38.574,41.504,75.684,0
1553634391.472,38.086,33.691,43.457,38.574,114.258,0
1553634391.476,44.434,33.691,30.273,32.227,96.680,0
1553634391.480,43.457,32.227,11.230,44.434,51.758,0
1553634391.484,43.457,24.414,21.973,44.922,51.270,0
1553634391.488,40.527,29.297,12.695,25.391,15.625,0
1553634391.492,26.855,36.621,10.742,23.926,17.578,0
1553634391.496,37.598,30.273,35.645,20.020,24.902,0
1553634391.500,43.945,33.203,38.086,34.668,22.949,0
1553634391.504,37.109,42.480,40.039,37.598,30.273,0
1553634391.508,41.992,34.668,40.039,26.855,31.738,0
1553634391.511,37.109,15.137,40.527,28.809,9.277,0
1553634391.515,27.832,18.555,40.039,27.832,1.953,0
1553634391.519,35.156,30.273,32.227,22.949,41.992,0
1553634391.523,28.320,37.598,39.062,17.090,44.922,0
1553634391.527,23.926,43.457,47.852,31.738,0.977,0
1553634391.531,43.945,44.922,45.410,41.016,9.277,0
1553634391.535,32.715,35.645,40.039,19.043,57.617,0
1553634391.539,32.715,25.391,20.996,24.902,14.160,0
1553634391.543,43.945,29.297,11.719,28.320,6.348,0
1553634391.547,27.344,36.621,35.645,34.668,28.809,0
1553634391.551,16.113,31.250,43.457,35.156,-22.461,0
1553634391.554,31.250,24.414,42.969,34.180,-16.602,0
1553634391.558,43.945,21.973,56.152,61.035,16.602,0
1553634391.562,30.762,30.762,48.828,38.574,37.598,0
1553634391.566,39.062,43.457,40.527,30.273,13.184,0
1553634391.570,34.668,45.898,58.105,34.180,-7.324,0
1553634391.574,28.809,38.086,63.477,34.180,17.090,0
1553634391.578,33.203,35.156,51.758,22.461,58.594,0
1553634391.582,24.902,41.504,42.480,8.789,74.219,0
1553634391.586,30.273,40.527,41.504,16.113,62.988,0
1553634391.590,52.246,35.645,58.105,39.551,109.375,0
1553634391.594,40.039,28.809,59.082,50.293,46.387,0
1553634391.597,26.855,30.762,49.805,37.109,-4.395,0
1553634391.601,38.574,41.504,53.711,38.086,1.465,0
1553634391.605,30.273,44.434,72.754,36.621,-8.789,0
1553634391.609,26.855,38.574,80.566,25.391,20.020,0
1553634391.613,42.480,38.086,74.707,28.809,25.879,0
1553634391.617,34.180,37.109,67.383,33.203,41.504,0
1553634391.621,35.645,33.691,43.457,46.875,-9.277,0
1553634391.625,64.453,43.945,33.691,61.523,1.953,0
1553634391.629,52.734,42.969,36.621,58.594,51.270,0
1553634391.633,40.039,35.645,31.738,48.828,57.129,0
1553634391.636,46.387,27.832,51.270,39.551,36.621,0
1553634391.640,35.645,21.973,71.777,38.086,35.645,0
1553634391.644,29.785,34.180,56.152,47.363,61.523,0
1553634391.648,45.410,44.434,58.105,42.480,51.758,0
1553634391.652,54.688,42.480,66.895,30.762,51.270,0
1553634391.656,47.363,40.527,63.477,36.621,58.594,0
1553634391.660,44.922,39.551,65.430,37.598,25.879,0
1553634391.664,47.852,35.156,61.035,42.480,22.461,0
1553634391.668,55.664,37.598,49.805,44.922,32.715,0
1553634391.672,52.246,40.527,48.340,37.109,28.809,0
1553634391.676,42.480,33.691,55.664,24.414,48.340,0
1553634391.679,38.574,24.414,63.965,48.828,72.266,0
1553634391.683,46.387,29.785,65.918,53.223,20.996,0
1553634391.687,37.598,36.621,53.223,8.789,-3.906,0
1553634391.691,30.762,30.762,47.363,12.695,-10.254,0
1553634391.695,47.363,35.156,67.383,40.527,9.766,0
1553634391.699,46.875,37.598,70.801,35.156,74.219,0
1553634391.703,40.039,32.227,65.918,27.832,40.527,0
1553634391.707,32.227,37.598,74.219,43.457,75.195,0
1553634391.711,37.598,39.551,74.707,37.109,102.539,0
1553634391.715,36.621,38.574,75.195,39.551,31.250,0
1553634391.719,34.668,40.527,76.172,55.664,12.207,0
1553634391.722,46.387,40.039,87.891,53.711,53.223,0
1553634391.726,36.133,45.898,83.984,49.805,29.297,0
1553634391.730,30.762,44.434,57.129,39.062,7.812,0
1553634391.734,39.062,30.762,47.852,41.016,33.691,0
1553634391.738,46.875,28.320,64.941,27.832,45.898,0
1553634391.742,46.387,32.715,73.730,27.344,103.027,0
1553634391.746,35.645,26.855,45.898,47.852,66.895,0
1553634391.750,31.738,26.855,43.457,42.969,4.883,0
1553634391.754,56.152,43.457,70.801,34.180,2.441,0
1553634391.758,59.082,48.828,67.871,34.180,-22.949,0
1553634391.761,28.809,44.434,61.035,34.668,35.156,0
1553634391.765,47.363,43.945,69.336,44.922,95.703,0
1553634391.769,37.109,21.484,65.918,39.551,16.113,0
1553634391.773,18.555,16.113,59.570,27.344,16.113,0
1553634391.777,22.461,37.598,57.617,26.367,4.883,0
1553634391.781,25.879,40.039,62.012,25.879,-60.059,0
1553634391.785,33.203,32.715,59.082,35.156,-1.953,0
1553634391.789,31.250,36.621,50.781,33.203,68.848,0
1553634391.793,34.668,51.758,49.805,41.504,73.730,0
1553634391.797,42.969,39.062,50.781,31.250,6.348,0
1553634391.801,53.711,22.461,55.664,15.625,-63.477,0
1553634391.804,59.082,29.297,43.457,35.645,-22.949,0
1553634391.808,63.477,34.668,41.992,59.082,22.949,0
1553634391.812,26.855,35.156,53.711,20.996,46.387,0
1553634391.816,-5.859,35.645,56.152,-17.578,40.039,0
1553634391.820,20.508,35.156,59.570,14.648,-4.883,0
1553634391.824,1.465,34.180,64.453,14.648,-8.301,0
1553634391.828,0.000,35.156,55.176,7.812,29.297,0
1553634391.832,24.414,38.086,59.082,27.832,58.594,0
1553634391.836,42.480,35.645,53.711,35.156,45.898,0
1553634391.840,57.617,29.297,37.598,37.598,18.555,0
1553634391.844,32.715,26.855,51.270,39.551,17.090,0
1553634391.847,29.297,33.203,65.918,40.039,84.961,0
1553634391.851,43.457,31.738,67.383,39.062,100.098,0
1553634391.855,26.855,32.227,64.941,33.691,26.367,0
1553634391.859,27.832,34.668,59.082,34.180,1.953,0
1553634391.863,36.133,40.527,52.246,42.480,41.016,0
1553634391.867,23.438,37.109,48.828,46.875,50.293,0
1553634391.871,44.922,32.227,59.082,50.293,69.336,0
1553634391.875,41.992,35.156,53.223,27.344,89.355,0
1553634391.879,16.602,35.645,37.109,27.344,42.969,0
1553634391.883,30.762,32.715,39.062,37.109,48.340,0
1553634391.886,43.457,30.762,42.480,19.531,33.691,0
1553634391.890,41.016,31.738,55.176,30.273,-6.836,0
1553634391.894,27.832,34.180,75.195,19.043,-54.688,0
1553634391.898,22.949,35.156,65.918,5.371,-6.836,0
1553634391.902,22.461,28.809,53.223,32.227,45.898,0
1553634391.906,33.203,37.598,48.828,32.715,48.828,0
1553634391.910,41.016,43.457,44.922,13.184,52.734,0
1553634391.914,47.363,28.809,49.316,33.203,10.254,0
1553634391.918,53.711,26.367,55.664,44.922,12.207,0
1553634391.922,37.598,34.668,63.477,39.551,40.039,0
1553634391.926,23.926,37.109,57.617,24.414,62.988,0
1553634391.929,20.996,36.621,37.598,17.578,1.953,0
1553634391.933,12.695,30.762,42.969,23.926,26.855,0
1553634391.937,14.648,32.715,54.688,26.367,106.934,0
1553634391.941,23.438,42.969,41.504,29.297,35.645,0
1553634391.945,30.273,41.504,32.227,25.879,32.227,0
1553634391.949,34.180,34.180,35.156,23.926,43.457,0
1553634391.953,39.062,33.691,49.805,37.109,13.672,0
1553634391.957,44.922,30.273,60.547,26.855,58.594,0
1553634391.961,44.434,28.320,51.270,39.551,47.363,0
1553634391.965,60.547,15.137,54.199,68.848,-36.133,0
1553634391.969,25.879,20.020,51.270,36.621,-47.852,0
1553634391.972,-24.902,39.551,23.438,-3.418,28.809,0
1553634391.976,-11.719,39.062,22.949,-19.043,75.195,0
1553634391.980,5.859,42.480,35.156,-6.836,54.688,0
1553634391.984,24.414,48.828,28.809,1.465,57.617,0
1553634391.988,11.230,58.594,32.715,-4.883,52.246,0
1553634391.992,-4.883,62.988,46.875,2.930,53.711,0
1553634391.996,20.996,53.711,46.875,-3.418,55.176,0
1553634392.000,35.645,41.992,20.996,5.371,23.926,0
1553634392.004,17.090,44.922,18.066,23.438,23.438,0
1553634392.008,13.184,50.293,35.156,16.602,31.250,0
1553634392.011,34.668,45.898,50.293,6.836,-1.953,0
1553634392.015,20.020,37.598,55.176,1.953,-0.488,0
1553634392.019,17.578,31.738,43.457,1.465,40.527,0
1553634392.023,24.902,34.180,41.016,10.742,62.988,0
1553634392.027,5.859,40.039,46.387,20.020,65.430,0
1553634392.031,36.621,36.621,45.410,26.855,64.453,0
1553634392.035,57.617,36.621,49.316,32.715,8.789,0
1553634392.039,38.574,40.039,55.664,29.785,25.391,0
1553634392.043,30.273,30.273,49.805,24.902,33.203,0
1553634392.047,23.926,34.180,53.711,36.621,5.371,0
1553634392.051,19.043,38.086,52.734,34.668,46.875,0
1553634392.054,23.926,34.668,50.293,25.391,82.031,0
1553634392.058,25.879,32.227,42.480,19.043,112.793,0
1553634392.062,29.297,20.020,34.668,8.789,89.355,0
1553634392.066,36.621,22.949,37.598,23.926,39.551,0
1553634392.070,43.945,43.945,43.457,31.250,6.836,0
1553634392.074,37.109,55.664,60.059,26.855,42.480,0
1553634392.078,31.738,55.664,49.316,18.555,17.578,0
1553634392.082,32.227,41.504,33.691,19.531,-7.812,0
1553634392.086,31.738,29.297,52.246,47.852,6.836,0
1553634392.090,21.484,22.949,46.875,54.688,-30.273,0
1553634392.094,9.766,27.344,39.551,46.875,30.762,0
1553634392.097,14.160,31.738,57.129,46.387,50.781,0
1553634392.101,25.879,19.531,57.617,48.828,24.414,0
1553634392.105,47.363,10.742,50.293,37.598,50.781,0
1553634392.109,44.434,23.926,50.781,20.508,36.621,0
1553634392.113,41.504,42.969,52.734,27.344,5.371,0
1553634392.117,48.828,40.527,35.156,26.367,-1.953,0
1553634392.121,36.621,40.527,9.766,4.883,17.090,0
1553634392.125,45.410,54.688,25.391,20.508,8.789,0
1553634392.129,81.543,51.270,51.270,56.152,21.484,0
1553634392.133,64.941,41.992,55.176,33.203,-0.488,0
1553634392.136,14.648,34.668,58.594,-14.648,-27.832,0
1553634392.140,17.090,25.391,52.246,2.441,13.672,0
1553634392.144,54.688,20.996,45.410,36.133,4.395,0
1553634392.148,55.176,20.508,55.664,53.711,6.836,0
1553634392.152,22.949,9.277,64.941,44.922,81.055,0
1553634392.156,29.297,1.465,65.430,34.668,73.242,0
1553634392.160,42.480,14.648,77.637,55.664,33.203,0
1553634392.164,31.250,19.043,84.473,60.059,28.809,0
1553634392.168,37.109,18.555,82.031,61.523,23.438,0
1553634392.172,38.086,24.414,79.102,64.453,7.812,0
1553634392.176,47.363,14.648,78.613,64.941,62.012,0
1553634392.179,62.012,9.277,76.660,71.777,76.172,0
1553634392.183,62.500,20.508,73.730,71.777,22.949,0
1553634392.187,72.266,21.484,73.242,60.547,26.367,0
1553634392.191,76.660,26.855,76.660,44.922,70.312,0
1553634392.195,69.824,26.855,76.660,44.434,87.402,0
1553634392.199,60.547,20.996,61.035,51.270,115.234,0
1553634392.203,55.176,35.156,51.270,41.504,74.707,0
1553634392.207,40.527,41.504,60.059,35.645,32.715,0
1553634392.211,37.109,40.039,74.707,34.668,60.059,0
1553634392.215,48.828,37.598,65.430,41.992,29.297,0
1553634392.219,48.828,40.527,62.500,47.852,-15.137,0
1553634392.222,33.203,36.621,78.613,41.992,40.527,0
1553634392.226,30.273,29.297,81.055,43.457,62.988,0
1553634392.230,46.875,31.738,76.172,44.922,33.691,0
1553634392.234,44.922,22.461,67.871,38.086,39.551,0
1553634392.238,39.551,21.973,62.988,41.016,25.879,0
1553634392.242,41.992,31.738,53.223,40.039,-27.832,0
1553634392.246,40.039,41.504,71.777,22.949,23.926,0
1553634392.250,45.898,40.039,88.379,29.785,76.172,0
1553634392.254,41.992,31.738,86.426,43.945,47.852,0
1553634392.258,52.734,35.645,109.375,41.016,5.859,0
1553634392.261,46.875,28.320,109.375,40.527,16.602,0
1553634392.265,33.203,22.461,104.004,46.387,42.480,0
1553634392.269,37.598,25.391,120.605,40.039,51.758,0
1553634392.273,42.969,25.391,126.465,52.734,35.645,0
1553634392.277,41.992,27.832,122.070,50.293,-12.695,0
1553634392.281,61.523,29.785,118.164,31.250,13.672,0
1553634392.285,70.312,29.785,100.098,39.551,44.922,0
1553634392.289,56.152,39.062,86.914,33.203,20.996,0
1553634392.293,48.828,43.945,91.309,19.531,40.039,0
1553634392.297,49.316,30.762,95.703,36.133,28.809,0
1553634392.301,41.016,37.598,102.539,44.922,63.477,0
1553634392.304,33.203,41.992,101.562,27.832,47.363,0
1553634392.308,32.715,37.109,87.891,20.020,8.301,0
1553634392.312,29.297,36.621,74.219,23.438,52.734,0
1553634392.316,22.461,29.785,68.848,20.020,55.176,0
1553634392.320,42.480,25.879,72.754,25.879,5.371,0
1553634392.324,68.848,28.320,81.055,36.621,31.250,0
1553634392.328,35.645,38.086,81.055,22.461,27.832,0
1553634392.332,20.996,39.062,90.332,32.227,-20.508,0
1553634392.336,38.574,25.879,76.660,48.828,16.602,0
1553634392.340,28.809,26.367,63.477,41.016,32.227,0
1553634392.344,27.344,39.062,76.172,42.969,24.902,0
1553634392.347,36.133,39.062,71.777,39.551,30.273,0
1553634392.351,40.039,34.668,72.754,44.922,37.598,0
1553634392.355,53.223,34.180,88.379,57.617,25.879,0
1553634392.359,28.809,28.809,91.309,15.625,-7.324,0
1553634392.363,19.531,26.367,86.914,3.906,6.348,0
1553634392.367,42.969,33.203,86.914,27.344,49.805,0
1553634392.371,42.480,33.691,76.172,17.090,59.082,0
1553634392.375,33.691,40.039,79.102,26.367,34.668,0
1553634392.379,20.508,34.668,98.145,27.344,12.695,0
1553634392.383,15.625,23.926,104.004,20.996,85.449,0
1553634392.386,17.578,31.738,102.539,17.578,57.617,0
1553634392.390,27.832,37.598,102.539,23.438,-16.602,0
1553634392.394,22.461,35.645,103.516,26.367,13.184,0
1553634392.398,27.344,23.926,99.121,33.691,3.906,0
1553634392.402,52.246,17.578,97.168,67.871,33.691,0
1553634392.406,27.832,41.992,99.121,25.879,70.312,0
1553634392.410,4.883,49.316,87.402,-10.254,60.059,0
1553634392.414,12.207,28.809,80.566,12.207,59.082,0
1553634392.418,1.465,33.691,87.891,30.273,24.414,0
1553634392.422,-2.930,48.340,85.938,18.066,0.488,0
1553634392.426,6.836,65.918,69.336,-10.742,-23.438,0
1553634392.429,14.648,72.266,64.941,-13.672,-46.875,0
1553634392.433,24.902,62.988,72.266,5.371,23.926,0
1553634392.437,10.742,53.711,76.172,1.465,41.992,0
1553634392.441,-7.324,43.457,87.402,-23.438,-6.348,0
1553634392.445,0.488,42.480,86.914,-4.395,41.504,0
1553634392.449,-1.953,47.363,100.098,20.020,45.898,0
1553634392.453,14.648,40.039,121.582,17.578,-13.672,0
1553634392.457,17.090,42.480,117.188,27.832,32.227,0
1553634392.461,12.695,48.828,111.816,37.109,53.711,0
1553634392.465,20.508,39.551,104.492,42.480,95.215,0
1553634392.469,23.438,35.156,101.074,54.688,65.430,0
1553634392.472,24.902,37.598,110.352,69.824,21.973,0
1553634392.476,38.574,37.109,113.770,63.477,32.227,0
1553634392.480,23.926,30.762,104.492,51.270,-10.254,0
1553634392.484,10.742,24.902,98.145,57.129,-34.180,0
1553634392.488,28.809,33.203,98.633,55.176,-4.883,0
1553634392.492,17.578,41.504,96.191,53.711,26.367,0
1553634392.496,12.207,33.203,94.238,54.688,35.156,0
1553634392.500,27.832,32.227,96.191,53.223,49.316,0
1553634392.504,25.879,35.156,108.887,61.523,9.277,0
1553634392.508,20.020,33.203,109.863,70.801,3.906,0
1553634392.511,22.461,33.691,92.773,71.289,62.500,0
1553634392.515,31.250,42.969,91.797,67.871,43.457,0
1553634392.519,43.457,48.828,103.027,66.406,2.441,0
1553634392.523,53.711,47.363,100.098,69.336,8.301,0
1553634392.527,30.762,42.480,99.121,61.523,41.992,0
1553634392.531,33.691,38.574,111.328,53.223,42.480,0
1553634392.535,38.086,37.109,104.004,53.711,16.602,0
1553634392.539,10.254,32.227,96.191,44.434,35.645,0
1553634392.543,16.113,29.785,101.074,42.969,22.461,0
1553634392.547,39.062,39.062,83.008,52.734,4.395,0
1553634392.551,31.738,38.086,69.336,61.523,13.184,0
1553634392.554,31.250,33.203,92.773,66.895,-3.418,0
1553634392.558,31.738,32.715,104.492,48.828,4.883,0
1553634392.562,41.992,37.109,102.539,49.805,27.832,0
1553634392.566,40.039,30.273,112.793,56.641,25.879,0
1553634392.570,22.461,23.438,104.492,50.293,4.395,0
1553634392.574,38.086,30.762,91.797,65.430,34.180,0
1553634392.578,24.414,40.039,104.492,44.434,53.711,0
1553634392.582,11.719,46.875,124.023,32.715,52.246,0
1553634392.586,25.879,40.039,132.812,37.109,77.148,0
1553634392.590,36.621,37.598,132.812,32.715,49.805,0
1553634392.594,55.176,43.457,133.301,44.922,76.660,0
1553634392.597,43.945,38.086,135.254,42.480,78.613,0
1553634392.601,40.527,36.133,125.977,37.109,8.301,0
1553634392.605,50.781,39.551,119.141,34.668,-8.301,0
1553634392.609,25.879,36.133,129.395,34.180,34.180,0
1553634392.613,22.461,34.668,122.070,34.180,7.324,0
1553634392.617,42.969,36.621,107.422,42.480,-27.832,0
1553634392.621,38.574,39.551,111.816,52.734,54.199,0
1553634392.625,16.113,36.133,122.070,39.551,82.031,0
1553634392.629,39.551,19.043,122.070,32.715,50.781,0
1553634392.633,40.039,21.484,113.281,29.297,31.250,0
1553634392.636,20.996,43.457,117.188,37.109,33.203,0
1553634392.640,54.688,46.875,133.301,51.758,55.664,0
1553634392.644,49.316,39.551,125.000,49.805,84.473,0
1553634392.648,30.273,33.203,112.305,40.039,62.988,0
1553634392.652,34.668,33.203,117.676,41.016,14.648,0
1553634392.656,18.555,36.621,117.676,56.152,30.762,0
1553634392.660,14.648,31.738,106.445,44.922,-6.348,0
1553634392.664,26.855,26.367,96.680,23.438,-26.855,0
1553634392.668,26.855,27.344,103.027,23.438,-16.602,0
1553634392.672,29.785,38.086,122.070,25.391,3.418,0
1553634392.676,36.621,47.852,124.512,31.738,74.707,0
1553634392.679,23.438,37.598,126.465,33.203,35.645,0
1553634392.683,32.715,15.137,145.508,40.527,26.855,0
1553634392.687,49.316,16.113,133.789,48.340,14.648,0
1553634392.691,40.527,29.785,109.375,45.898,-13.184,0
1553634392.695,21.973,35.156,108.398,44.922,13.672,0
1553634392.699,26.855,39.551,125.977,22.949,31.250,0
1553634392.703,36.133,37.598,135.742,28.809,31.738,0
1553634392.707,31.250,44.922,141.602,31.738,44.434,0
1553634392.711,23.438,44.434,142.578,19.531,40.039,0
1553634392.715,30.273,29.785,133.789,24.414,45.898,0
1553634392.719,33.203,20.996,133.301,28.809,46.387,0
1553634392.722,41.504,21.484,125.000,34.180,33.203,0
1553634392.726,27.832,24.902,123.047,20.996,88.379,0
1553634392.730,12.695,28.320,127.930,21.973,72.266,0
1553634392.734,30.273,35.156,119.629,31.738,31.738,0
1553634392.738,44.922,47.363,103.027,22.461,21.484,0
1553634392.742,60.547,43.457,100.098,41.016,-10.254,0
1553634392.746,46.387,38.574,117.188,31.250,-5.859,0
1553634392.750,21.973,39.062,137.695,9.277,50.781,0
1553634392.754,30.762,17.090,145.996,28.320,35.156,0
1553634392.758,25.879,7.324,138.672,26.367,-2.441,0
1553634392.761,30.273,2.930,148.438,36.621,51.758,0
1553634392.765,30.762,2.441,171.875,41.992,59.570,0
1553634392.769,23.926,20.508,159.180,26.855,61.035,0
1553634392.773,39.062,29.785,148.438,28.809,46.875,0
1553634392.777,41.016,25.391,141.113,25.879,-30.273,0
1553634392.781,31.250,19.043,124.512,28.320,3.418,0
1553634392.785,29.297,16.113,134.277,39.551,31.738,0
1553634392.789,40.527,20.508,137.695,42.969,75.684,0
1553634392.793,43.945,9.766,132.324,54.199,71.289,0
1553634392.797,49.805,5.859,124.023,56.641,-38.086,0
1553634392.801,42.969,14.648,121.582,40.039,-15.625,0
1553634392.804,46.387,15.137,124.512,36.133,-8.301,0
1553634392.808,68.848,21.484,111.816,51.270,10.742,0
1553634392.812,48.340,30.273,101.562,58.105,44.434,0
1553634392.816,40.039,37.109,90.332,54.688,63.477,0
1553634392.820,37.598,37.109,76.172,37.109,26.855,0
1553634392.824,23.438,30.762,77.148,21.484,-28.809,0
1553634392.828,30.273,20.508,90.820,26.855,-4.395,0
1553634392.832,30.273,16.602,98.145,34.180,22.949,0
1553634392.836,38.574,17.578,97.168,42.480,22.949,0
1553634392.840,49.805,25.879,95.703,33.203,1.465,0
1553634392.844,39.551,33.691,78.125,28.320,42.969,0
1553634392.847,47.363,32.715,73.730,43.457,6.348,0
1553634392.851,42.480,44.434,86.914,53.711,-32.227,0
1553634392.855,33.691,41.992,91.797,54.199,3.418,0
1553634392.859,41.504,24.414,97.168,38.086,29.785,0
1553634392.863,36.621,21.973,93.750,30.762,53.223,0
1553634392.867,32.227,18.555,87.402,39.062,30.273,0
1553634392.871,36.621,11.719,81.543,45.898,-2.930,0
1553634392.875,39.062,11.230,54.199,50.781,43.457,0
1553634392.879,30.273,29.297,41.992,29.297,56.152,0
1553634392.883,22.461,41.016,71.777,31.250,31.738,0
1553634392.886,42.969,40.039,78.125,55.176,21.484,0
1553634392.890,41.504,33.203,61.035,45.898,-39.551,0
1553634392.894,33.203,27.344,56.152,46.387,-46.875,0
1553634392.898,45.898,28.320,73.730,59.570,-5.859,0
1553634392.902,43.457,26.855,85.449,45.410,34.180,0
1553634392.906,46.875,25.879,82.520,43.457,76.172,0
1553634392.910,52.246,27.344,86.914,56.152,133.301,0
1553634392.914,42.969,29.297,82.031,47.852,106.445,0
1553634392.918,23.438,37.109,66.895,38.574,85.938,0
1553634392.922,33.203,41.504,52.734,43.945,89.355,0
1553634392.926,50.293,30.762,39.551,53.711,56.641,0
1553634392.929,36.133,27.832,39.551,52.246,101.562,0
1553634392.933,26.367,39.551,38.086,45.898,42.969,0
1553634392.937,38.574,39.062,49.805,44.434,-19.531,0
1553634392.941,40.527,28.809,72.266,41.992,52.734,0
1553634392.945,35.645,18.555,70.801,38.086,32.227,0
1553634392.949,27.344,20.996,44.922,30.273,-31.250,0
1553634392.953,50.781,38.086,38.086,42.480,15.137,0
1553634392.957,34.668,43.945,61.035,48.340,26.367,0
1553634392.961,22.461,36.621,53.711,29.785,-6.836,0
1553634392.965,18.555,33.203,22.949,24.414,0.488,0
1553634392.969,12.207,33.203,30.273,22.461,-29.785,0
1553634392.972,38.086,25.879,50.293,19.531,-6.348,0
1553634392.976,26.855,25.879,56.641,18.066,90.332,0
1553634392.980,20.020,23.926,66.406,37.598,18.066,0
1553634392.984,5.371,14.160,62.012,34.668,-41.504,0
1553634392.988,10.254,11.719,54.199,32.227,2.930,0
1553634392.992,38.574,11.230,57.617,35.645,26.855,0
1553634392.996,39.062,19.043,69.824,23.926,53.711,0
1553634393.000,43.945,30.762,73.730,47.363,74.219,0
1553634393.004,35.645,33.203,67.383,47.363,71.289,0
1553634393.008,29.297,26.367,63.965,26.367,60.547,0
1553634393.011,40.039,31.738,72.754,37.109,45.410,0
1553634393.015,28.809,32.715,69.824,40.039,40.039,0
1553634393.019,47.852,20.996,58.594,39.062,33.203,0
1553634393.023,58.594,22.949,63.965,35.645,6.348,0
1553634393.027,34.180,28.320,65.430,30.762,7.812,0
1553634393.031,38.086,27.832,64.941,43.457,32.227,0
1553634393.035,47.363,22.949,66.406,43.945,55.664,0
1553634393.039,32.715,23.926,58.105,30.762,22.949,0
1553634393.043,16.113,29.785,52.246,25.391,13.184,0
1553634393.047,26.367,28.809,51.270,30.273,-8.301,0
1553634393.051,31.250,28.809,60.547,44.434,45.898,0
1553634393.054,38.086,30.273,43.945,33.691,68.359,0
1553634393.058,46.875,21.973,31.250,27.344,2.930,0
1553634393.062,39.062,21.973,49.805,43.945,31.250,0
1553634393.066,28.320,31.738,62.012,40.527,85.938,0
1553634393.070,22.949,31.738,62.012,23.438,86.914,0
1553634393.074,38.574,33.691,60.059,35.156,28.320,0
1553634393.078,42.969,36.621,58.594,37.598,14.160,0
1553634393.082,47.852,32.715,55.664,21.484,56.152,0
1553634393.086,45.410,32.715,53.223,19.531,75.195,0
1553634393.090,24.902,30.762,42.480,32.715,61.035,0
1553634393.094,28.320,25.391,34.668,23.438,19.531,0
1553634393.097,36.133,28.809,45.898,8.789,14.160,0
1553634393.101,41.016,33.691,46.387,20.020,-2.441,0
1553634393.105,29.785,33.203,59.570,36.621,-3.418,0
1553634393.109,32.715,41.504,76.172,26.855,22.461,0
1553634393.113,38.086,40.039,82.031,18.066,25.879,0
1553634393.117,37.109,34.668,78.613,30.762,8.789,0
1553634393.121,34.668,38.574,78.125,34.180,-20.508,0
1553634393.125,37.598,34.180,73.242,34.180,24.414,0
1553634393.129,36.621,32.227,63.965,32.715,21.973,0
1553634393.133,41.016,32.227,67.383,37.598,38.086,0
1553634393.136,51.270,22.461,64.453,40.039,60.547,0
1553634393.140,26.855,21.484,62.012,36.133,17.090,0
1553634393.144,23.926,31.250,73.730,37.598,26.367,0
1553634393.148,40.527,34.668,90.332,30.273,20.020,0
1553634393.152,33.203,31.250,83.984,28.809,32.227,0
1553634393.156,25.879,31.738,72.754,31.738,70.312,0
1553634393.160,42.480,34.180,83.496,26.855,12.207,0
1553634393.164,38.086,25.391,91.797,28.320,6.348,0
1553634393.168,15.137,22.949,89.844,24.414,96.680,0
1553634393.172,30.273,43.457,74.219,25.879,83.008,0
1553634393.176,63.965,49.316,73.730,39.062,30.273,0
1553634393.179,69.336,30.273,72.266,54.199,46.875,0
1553634393.183,35.645,21.484,72.266,33.691,80.078,0
1553634393.187,-8.789,34.668,82.031,-3.418,72.754,0
1553634393.191,1.953,42.969,87.402,10.254,53.711,0
1553634393.195,17.090,27.832,95.215,19.531,41.992,0
1553634393.199,22.461,14.160,90.820,25.879,43.945,0
1553634393.203,23.438,16.113,83.496,27.344,56.641,0
1553634393.207,22.461,21.973,77.148,30.762,95.703,0
1553634393.211,51.270,21.484,70.801,38.086,68.848,0
1553634393.215,52.246,24.902,72.754,32.227,-10.254,0
1553634393.219,35.645,31.250,69.824,26.367,-4.883,0
1553634393.222,32.227,37.598,72.754,29.785,37.598,0
1553634393.226,23.438,30.273,82.031,31.738,81.055,0
1553634393.230,13.184,25.391,74.219,25.391,53.223,0
1553634393.234,7.812,26.367,64.453,24.902,-13.184,0
1553634393.238,27.832,29.785,77.637,14.160,1.465,0
1553634393.242,28.809,30.273,94.238,13.184,49.805,0
1553634393.246,14.648,21.484,93.750,20.020,41.992,0
1553634393.250,28.809,27.344,72.754,25.879,29.297,0
1553634393.254,36.621,29.297,81.543,15.625,49.316,0
1553634393.258,41.992,31.738,110.840,7.812,41.016,0
1553634393.261,41.016,34.180,102.051,7.324,16.113,0
1553634393.265,34.180,26.367,88.379,4.883,46.387,0
1553634393.269,19.531,26.855,95.703,-6.836,36.133,0
1553634393.273,23.926,33.691,115.234,-5.859,47.852,0
1553634393.277,41.504,39.551,110.352,3.418,56.641,0
1553634393.281,28.809,35.645,95.215,-1.953,30.762,0
1553634393.285,35.156,30.762,111.328,17.578,28.809,0
1553634393.289,36.133,37.109,121.094,8.789,12.207,0
1553634393.293,30.762,41.016,128.906,4.395,31.250,0
1553634393.297,30.273,30.762,132.812,19.531,55.664,0
1553634393.301,23.926,19.043,108.887,14.160,68.848,0
1553634393.304,28.809,25.391,83.496,11.230,16.113,0
1553634393.308,40.039,31.738,79.590,7.324,-8.789,0
1553634393.312,59.570,37.109,94.238,6.836,19.043,0
1553634393.316,41.992,33.203,111.328,11.230,49.805,0
1553634393.320,56.641,21.484,113.770,26.855,28.320,0
1553634393.324,92.773,16.602,117.676,59.570,20.020,0
1553634393.328,51.270,27.344,122.070,25.879,25.879,0
1553634393.332,8.789,41.992,105.957,0.977,-9.766,0
1553634393.336,18.555,51.758,78.125,12.207,17.090,0
1553634393.340,27.344,64.453,62.988,-8.301,54.199,0
1553634393.344,38.574,62.988,61.035,-4.395,48.828,0
1553634393.347,34.180,54.199,37.109,0.488,47.852,0
1553634393.351,45.410,61.035,14.160,17.090,62.012,0
1553634393.355,56.641,68.848,42.969,22.949,-5.371,0
1553634393.359,48.828,61.035,59.082,12.695,15.625,0
1553634393.363,47.852,54.688,53.223,19.043,87.402,0
1553634393.367,34.668,52.734,60.547,-1.465,19.531,0
1553634393.371,41.992,46.875,61.523,1.953,47.363,0
1553634393.375,46.387,46.875,54.688,18.066,61.523,0
1553634393.379,41.992,51.270,46.875,26.855,62.012,0
1553634393.383,50.293,60.059,55.176,29.785,69.336,0
1553634393.386,44.922,59.082,63.965,24.414,10.742,0
1553634393.390,50.781,55.176,58.105,24.902,62.500,0
1553634393.394,46.387,55.664,61.035,26.855,58.105,0
1553634393.398,38.574,57.129,66.406,23.438,51.758,0
1553634393.402,52.734,54.688,63.965,18.066,51.758,0
1553634393.406,30.273,41.504,73.730,25.391,16.113,0
1553634393.410,24.902,31.250,96.191,19.043,14.648,0
1553634393.414,39.551,38.086,105.469,19.531,14.160,0
1553634393.418,28.320,43.945,89.355,11.230,20.020,0
1553634393.422,29.785,52.246,82.520,0.977,23.926,0
1553634393.426,35.645,60.059,94.727,9.766,24.902,0
1553634393.429,37.598,56.641,83.008,8.301,58.594,0
1553634393.433,29.297,49.316,75.684,18.555,79.590,0
1553634393.437,39.062,40.039,91.309,26.367,39.062,0
1553634393.441,62.012,31.250,88.867,25.391,-4.883,0
1553634393.445,43.457,31.250,70.801,26.367,2.930,0
1553634393.449,32.227,41.504,74.707,18.066,20.508,0
1553634393.453,36.133,43.457,72.754,23.438,60.547,0
1553634393.457,45.898,38.574,67.871,24.902,61.523,0
1553634393.461,42.480,42.969,82.031,24.902,43.945,0
1553634393.465,44.922,56.152,93.262,18.066,39.062,0
1553634393.469,51.270,60.059,105.469,20.508,-0.977,0
1553634393.472,30.762,50.781,112.793,22.461,-11.230,0
1553634393.476,29.297,40.527,112.305,19.531,6.836,0
1553634393.480,55.664,37.598,104.492,47.852,5.859,0
1553634393.484,57.129,36.133,104.004,50.781,15.625,0
1553634393.488,37.598,40.527,94.238,23.926,37.109,0
1553634393.492,41.992,43.945,87.402,28.320,24.414,0
1553634393.496,37.598,31.250,112.305,32.715,24.414,0
1553634393.500,45.410,29.297,141.602,27.832,26.367,0
1553634393.504,47.363,47.852,158.203,31.250,35.156,0
1553634393.508,26.367,51.270,155.762,26.367,74.219,0
1553634393.511,48.828,41.016,156.738,18.066,54.688,0
1553634393.515,46.387,40.039,162.598,17.090,-18.066,0
1553634393.519,31.250,43.457,155.273,16.113,4.395,0
1553634393.523,32.227,47.363,151.855,29.297,-5.371,0
1553634393.527,33.203,35.156,144.043,35.645,-33.203,0
1553634393.531,34.668,21.973,118.652,24.414,7.812,0
1553634393.535,26.855,28.809,138.672,33.203,-23.926,0
1553634393.539,70.312,35.645,166.016,47.363,-50.293,0
1553634393.543,64.941,36.133,138.672,49.805,-2.441,0
1553634393.547,26.367,32.227,127.441,39.062,-6.348,0
1553634393.551,41.016,36.621,138.672,38.086,-51.758,0
1553634393.554,37.598,46.875,133.301,38.574,13.672,0
1553634393.558,36.133,45.898,122.559,48.828,42.969,0
1553634393.562,34.180,40.527,112.305,22.461,26.367,0
1553634393.566,31.738,29.785,116.699,11.230,95.703,0
1553634393.570,37.598,21.973,118.164,34.180,129.395,0
1553634393.574,53.711,31.738,109.375,37.109,149.902,0
1553634393.578,50.781,43.457,117.676,40.039,133.301,0
1553634393.582,34.668,39.062,113.770,39.062,67.383,0
1553634393.586,38.574,40.039,118.164,40.527,32.227,0
1553634393.590,40.527,45.898,128.906,31.738,60.547,0
1553634393.594,21.484,36.621,129.395,24.902,66.406,0
1553634393.597,17.090,23.926,131.348,38.574,49.316,0
1553634393.601,31.738,27.344,119.629,40.039,50.293,0
1553634393.605,32.227,17.090,112.793,41.016,96.680,0
1553634393.609,31.738,18.066,114.258,37.598,120.117,0
1553634393.613,38.086,47.852,118.652,23.438,47.852,0
1553634393.617,55.176,47.852,151.367,36.133,22.949,0
1553634393.621,40.039,43.457,167.480,42.969,47.852,0
1553634393.625,39.062,54.199,166.504,37.109,41.016,0
1553634393.629,48.828,41.016,172.852,38.086,46.875,0
1553634393.633,38.574,28.809,168.945,30.762,73.730,0
1553634393.636,39.551,27.344,172.363,31.250,69.824,0
1553634393.640,41.992,28.320,168.457,32.715,83.008,0
1553634393.644,42.969,36.133,167.969,32.715,45.898,0
1553634393.648,36.621,28.320,172.852,25.391,2.441,0
1553634393.652,39.551,28.320,178.711,32.715,49.316,0
1553634393.656,42.480,41.016,187.012,44.922,51.270,0
1553634393.660,49.316,48.340,179.688,47.852,64.941,0
1553634393.664,51.270,46.875,167.480,58.105,52.734,0
1553634393.668,33.203,37.598,166.504,44.434,28.809,0
1553634393.672,23.926,36.133,162.598,35.645,8.301,0
1553634393.676,32.715,33.203,159.668,44.922,-13.672,0
1553634393.679,42.969,16.602,163.086,44.922,11.719,0
1553634393.683,42.969,13.672,162.598,41.504,39.551,0
1553634393.687,31.738,13.184,158.203,23.926,49.805,0
1553634393.691,34.180,14.160,147.461,20.508,82.520,0
1553634393.695,38.574,30.762,143.555,15.625,49.316,0
1553634393.699,20.508,35.645,139.648,16.602,14.648,0
1553634393.703,18.066,29.297,138.672,34.180,15.625,0
1553634393.707,30.762,31.250,149.902,46.875,26.855,0
1553634393.711,40.527,35.645,139.160,46.875,21.973,0
1553634393.715,49.805,32.715,117.676,51.270,1.465,0
1553634393.719,49.316,32.227,122.559,61.523,-10.742,0
1553634393.722,41.504,29.785,131.348,50.293,-18.555,0
1553634393.726,44.922,22.461,117.676,37.598,4.883,0
1553634393.730,51.758,21.484,111.816,38.086,35.645,0
1553634393.734,54.199,21.484,126.465,33.203,41.504,0
1553634393.738,48.340,24.902,137.207,30.762,52.246,0
1553634393.742,25.879,17.090,133.789,31.738,33.203,0
1553634393.746,27.344,20.020,125.000,26.855,41.992,0
1553634393.750,39.551,34.668,121.094,33.203,20.508,0
1553634393.754,24.902,29.297,116.699,31.738,-24.414,0
1553634393.758,21.973,31.250,123.047,45.410,103.516,0
1553634393.761,24.414,31.250,118.652,45.410,122.559,0
1553634393.765,29.785,31.250,115.723,25.879,-10.742,0
1553634393.769,41.504,38.086,114.258,39.062,-34.180,0
1553634393.773,30.762,32.227,95.215,46.875,43.945,0
1553634393.777,27.344,13.184,71.289,36.621,89.355,0
1553634393.781,30.273,9.766,73.730,36.621,99.121,0
1553634393.785,23.926,21.484,73.730,39.551,87.891,0
1553634393.789,33.691,34.180,79.102,30.273,41.992,0
1553634393.793,42.969,40.039,92.773,31.250,18.555,0
1553634393.797,39.062,37.109,87.891,33.203,28.320,0
1553634393.801,43.945,32.227,73.730,43.457,20.508,0
1553634393.804,35.156,21.484,79.102,38.574,40.039,0
1553634393.808,31.250,25.879,73.242,22.949,54.688,0
1553634393.812,25.391,47.363,53.711,19.531,36.621,0
1553634393.816,41.504,39.062,57.129,24.414,-10.742,0
1553634393.820,51.758,23.926,60.059,21.484,51.270,0
1553634393.824,38.574,38.086,78.125,26.367,108.398,0
1553634393.828,28.809,44.922,84.961,23.438,26.855,0
1553634393.832,27.344,43.457,82.031,28.320,18.555,0
1553634393.836,47.363,39.551,98.633,40.039,47.852,0
1553634393.840,48.340,37.109,108.887,29.297,56.641,0
1553634393.844,31.250,33.203,100.098,33.203,7.812,0
1553634393.847,18.555,28.809,78.125,32.715,-12.207,0
1553634393.851,25.391,25.391,69.824,18.066,46.387,0
1553634393.855,59.082,21.973,99.121,20.020,50.293,0
1553634393.859,34.180,25.879,115.723,16.602,18.066,0
1553634393.863,7.324,36.621,107.910,17.090,45.410,0
1553634393.867,34.180,35.645,101.562,30.273,34.668,0
1553634393.871,34.180,31.738,94.727,21.484,41.992,0
1553634393.875,39.062,21.484,80.078,33.203,69.824,0
1553634393.879,41.504,13.672,74.219,48.340,39.551,0
1553634393.883,19.531,24.902,68.848,26.855,64.941,0
1553634393.886,24.414,32.715,81.055,37.598,29.297,0
1553634393.890,26.367,29.297,95.703,41.992,0.000,0
1553634393.894,22.461,15.625,84.961,20.996,45.410,0
1553634393.898,24.902,21.484,83.496,18.555,68.359,0
1553634393.902,23.926,38.086,88.379,21.973,118.164,0
1553634393.906,15.137,32.227,88.379,22.949,47.363,0
1553634393.910,43.945,31.738,69.336,23.926,-15.137,0
1553634393.914,58.105,28.809,58.105,27.832,22.949,0
1553634393.918,27.832,25.391,78.613,30.762,43.945,0
1553634393.922,22.461,24.414,82.031,35.645,28.809,0
1553634393.926,30.273,9.766,67.383,30.762,1.465,0
1553634393.929,33.203,10.742,77.148,31.738,-42.969,0
1553634393.933,27.344,38.574,95.215,46.387,3.906,0
1553634393.937,31.738,49.316,91.309,41.992,51.270,0
1553634393.941,35.645,41.016,66.895,32.715,29.297,0
1553634393.945,36.133,36.133,59.082,24.902,8.301,0
1553634393.949,19.531,31.250,75.195,25.879,21.973,0
1553634393.953,30.762,21.484,95.703,43.945,76.172,0
1553634393.957,46.387,22.461,102.051,41.504,51.758,0
1553634393.961,35.645,28.809,97.168,22.949,9.766,0
1553634393.965,33.691,30.762,88.867,26.855,-8.301,0
1553634393.969,25.391,32.715,83.984,32.715,12.207,0
1553634393.972,23.926,34.668,81.055,35.156,37.109,0
1553634393.976,34.668,48.828,85.938,43.945,57.129,0
1553634393.980,41.016,48.340,96.680,39.551,37.109,0
1553634393.984,37.598,38.086,98.145,33.691,-27.832,0
1553634393.988,36.621,26.855,108.887,30.273,13.672,0
1553634393.992,38.086,26.367,127.441,22.949,68.359,0
1553634393.996,48.340,27.832,134.766,23.438,92.773,0
1553634394.000,43.457,24.902,108.398,20.508,39.551,0
1553634394.004,26.855,41.016,93.750,28.809,43.457,0
1553634394.008,28.320,50.293,114.746,28.320,51.270,0
1553634394.011,39.551,37.109,114.258,25.391,4.395,0
1553634394.015,31.250,28.809,111.816,27.832,-21.484,0
1553634394.019,23.926,38.574,99.121,27.344,35.645,0
1553634394.023,30.762,31.738,93.262,38.574,77.637,0
1553634394.027,30.762,41.504,85.938,35.156,44.434,0
1553634394.031,37.109,35.645,77.148,13.184,92.773,0
1553634394.035,54.688,26.855,90.820,30.273,69.824,0
1553634394.039,44.922,38.574,92.773,32.227,-3.418,0
1553634394.043,29.785,34.668,118.652,28.809,28.809,0
1553634394.047,21.484,31.738,140.625,29.785,11.230,0
1553634394.051,21.484,24.414,140.625,37.109,23.438,0
1553634394.054,37.598,21.484,141.602,48.340,56.152,0
1553634394.058,35.645,35.156,145.020,32.715,45.410,0
1553634394.062,30.762,41.504,132.324,33.691,80.078,0
1553634394.066,41.992,40.039,105.957,43.945,0.977,0
1553634394.070,39.062,35.156,104.004,41.992,13.184,0
1553634394.074,33.691,29.297,106.445,28.320,43.945,0
1553634394.078,40.039,30.273,97.656,21.973,57.129,0
1553634394.082,34.180,25.879,91.309,35.156,22.949,0
1553634394.086,17.090,23.438,91.309,50.293,-15.137,0
1553634394.090,29.297,37.109,103.027,57.129,-36.133,0
1553634394.094,34.668,45.410,102.539,30.273,-42.969,0
1553634394.097,32.227,41.504,81.543,17.578,29.297,0
1553634394.101,31.738,36.133,68.848,23.438,-18.555,0
1553634394.105,24.414,35.156,79.102,28.809,-19.531,0
1553634394.109,25.391,38.574,88.379,33.691,6.348,0
1553634394.113,46.387,40.039,81.543,44.922,-14.160,0
1553634394.117,54.688,29.297,77.637,41.504,42.969,0
1553634394.121,24.414,20.996,88.867,15.137,40.039,0
1553634394.125,37.109,15.625,93.750,27.832,-5.859,0
1553634394.129,30.762,13.184,82.031,38.574,42.969,0
1553634394.133,10.254,35.645,81.543,37.109,16.113,0
1553634394.136,33.203,29.785,76.172,35.645,2.441,0
1553634394.140,24.902,23.438,70.801,28.320,68.848,0
1553634394.144,23.438,28.809,73.730,34.180,87.402,0
1553634394.148,26.855,25.879,58.105,21.973,83.008,0
1553634394.152,26.855,34.668,50.293,23.926,22.461,0
1553634394.156,41.016,27.832,55.176,33.691,-39.062,0
1553634394.160,40.039,18.555,64.941,37.109,-12.695,0
1553634394.164,21.484,19.043,67.871,34.668,23.438,0
1553634394.168,21.973,17.090,76.172,35.645,35.645,0
1553634394.172,49.316,21.973,78.125,38.574,57.617,0
1553634394.176,44.434,26.855,61.035,40.527,17.090,0
1553634394.179,32.715,29.785,61.523,42.480,-0.977,0
1553634394.183,45.898,34.668,69.336,37.598,25.879,0
1553634394.187,55.664,32.227,53.223,47.852,3.418,0
1553634394.191,45.410,21.484,42.969,39.551,22.461,0
1553634394.195,21.484,21.484,66.406,30.273,31.738,0
1553634394.199,24.902,33.203,72.266,30.762,-10.742,0
1553634394.203,35.645,31.250,77.148,33.691,16.113,0
1553634394.207,36.621,33.691,74.219,45.410,29.785,0
1553634394.211,31.738,34.668,67.383,45.410,26.855,0
1553634394.215,23.438,37.109,66.895,40.527,59.082,0
1553634394.219,30.762,41.016,60.059,42.480,75.684,0
1553634394.222,47.852,37.109,58.105,34.180,56.641,0
1553634394.226,39.551,30.762,61.523,22.461,32.715,0
1553634394.230,36.621,21.973,71.777,30.273,7.812,0
1553634394.234,59.082,25.391,75.195,67.383,27.344,0
1553634394.238,76.660,28.809,71.777,79.102,78.125,0
1553634394.242,51.270,43.945,73.730,43.457,99.121,0
1553634394.246,27.832,55.176,85.449,25.391,49.805,0
1553634394.250,45.410,52.246,89.844,20.020,0.000,0
1553634394.254,42.480,54.688,81.055,-0.977,50.293,0
1553634394.258,49.316,51.270,65.430,6.836,104.980,0
1553634394.261,41.016,59.082,46.387,19.531,42.969,0
1553634394.265,26.367,67.871,41.992,16.602,-18.555,0
1553634394.269,34.180,67.383,43.457,16.602,18.555,0
1553634394.273,41.504,49.316,48.340,16.602,0.000,0
1553634394.277,23.926,41.992,58.105,14.160,21.973,0
1553634394.281,31.250,63.965,60.059,20.508,61.523,0
1553634394.285,45.410,53.711,63.965,29.785,36.133,0
1553634394.289,41.504,41.992,75.195,28.320,10.742,0
1553634394.293,33.203,46.875,59.082,31.250,-4.395,0
1553634394.297,35.156,46.387,57.617,37.109,-19.043,0
1553634394.301,50.293,42.969,76.172,28.320,2.930,0
1553634394.304,49.805,44.434,74.707,15.137,50.781,0
1553634394.308,37.109,53.223,73.730,22.461,46.387,0
1553634394.312,40.039,59.082,58.594,33.691,38.574,0
1553634394.316,55.664,54.688,46.875,22.461,68.848,0
1553634394.320,39.062,51.758,70.801,17.090,73.242,0
1553634394.324,44.922,55.176,85.449,34.668,50.293,0
1553634394.328,40.039,40.039,78.125,38.086,30.273,0
1553634394.332,32.227,24.902,71.289,32.227,39.062,0
1553634394.336,36.133,39.062,71.777,33.691,34.180,0
1553634394.340,25.879,49.316,77.637,26.367,35.156,0
1553634394.344,26.855,39.062,69.824,23.438,27.344,0
1553634394.347,44.922,27.344,46.875,33.203,4.395,0
1553634394.351,45.898,32.227,34.180,34.668,21.484,0
1553634394.355,50.781,43.945,46.875,34.668,41.992,0
1553634394.359,74.219,44.434,64.941,32.715,-38.086,0
1553634394.363,57.617,45.410,76.660,40.039,-10.742,0
1553634394.367,19.043,41.992,80.078,43.457,26.367,0
1553634394.371,24.414,46.875,73.242,33.691,30.273,0
1553634394.375,25.879,39.062,69.824,29.297,50.781,0
1553634394.379,25.391,30.273,57.129,28.809,21.973,0
1553634394.383,38.574,42.969,40.527,39.062,40.039,0
1553634394.386,38.574,39.062,50.293,41.504,8.301,0
1553634394.390,36.133,38.086,54.199,35.645,25.391,0
1553634394.394,50.781,36.621,58.594,48.340,61.523,0
1553634394.398,45.410,27.832,75.195,56.152,41.504,0
1553634394.402,32.227,27.344,74.219,51.758,1.465,0
1553634394.406,25.391,41.504,62.988,38.086,-31.738,0
1553634394.410,26.367,46.387,64.453,29.297,19.043,0
1553634394.414,36.133,35.645,63.965,27.832,89.355,0
1553634394.418,41.504,27.344,58.105,40.527,82.031,0
1553634394.422,33.691,30.273,60.547,37.598,81.055,0
1553634394.426,21.484,31.738,53.711,36.133,45.410,0
1553634394.429,21.484,29.297,31.738,41.992,18.066,0
1553634394.433,34.180,35.156,18.066,38.574,55.176,0
1553634394.437,39.551,39.062,44.434,36.621,43.457,0
1553634394.441,26.367,44.434,66.895,36.621,40.039,0
1553634394.445,25.391,34.668,60.059,37.109,72.266,0
1553634394.449,41.992,21.973,49.805,36.621,134.277,0
1553634394.453,58.105,25.391,50.293,32.227,103.516,0
1553634394.457,41.016,29.297,57.617,21.484,30.762,0
1553634394.461,26.855,34.668,53.223,20.508,12.695,0
1553634394.465,39.551,32.227,55.176,34.668,61.523,0
1553634394.469,20.996,23.438,53.223,40.039,75.684,0
1553634394.472,19.531,25.879,47.852,31.738,15.137,0
1553634394.476,43.457,28.320,50.781,30.273,11.230,0
1553634394.480,46.875,27.832,66.406,33.203,-10.254,0
1553634394.484,47.363,25.391,77.637,33.203,-50.781,0
1553634394.488,48.340,26.855,62.012,40.039,9.766,0
1553634394.492,44.434,34.180,55.176,40.039,53.223,0
1553634394.496,60.547,33.691,62.012,28.320,31.250,0
1553634394.500,46.875,24.414,62.988,28.320,36.621,0
1553634394.504,21.973,23.438,53.711,32.715,8.789,0
1553634394.508,37.109,24.902,54.199,36.133,-29.297,0
1553634394.511,61.523,22.461,62.500,38.086,-21.973,0
1553634394.515,54.199,34.180,69.336,26.855,6.836,0
1553634394.519,53.711,42.969,71.289,33.203,-0.488,0
1553634394.523,62.012,41.504,56.152,45.410,-30.273,0
1553634394.527,68.848,40.039,47.363,14.648,26.367,0
1553634394.531,76.660,33.691,57.129,6.836,66.406,0
1553634394.535,46.387,35.645,60.059,47.363,25.391,0
1553634394.539,32.227,44.434,54.688,47.363,53.223,0
1553634394.543,41.016,40.039,63.477,34.668,36.133,0
1553634394.547,42.480,31.250,76.660,30.762,21.973,0
1553634394.551,19.531,24.902,82.520,28.320,13.184,0
1553634394.554,27.344,23.926,75.684,21.973,-18.066,0
1553634394.558,36.133,27.344,75.195,12.207,22.461,0
1553634394.562,26.367,38.574,82.520,26.367,6.348,0
1553634394.566,29.785,46.387,73.242,24.902,19.043,0
1553634394.570,38.086,44.922,64.453,24.414,-2.930,0
1553634394.574,42.969,33.203,75.195,26.855,8.301,0
1553634394.578,38.086,25.391,83.496,21.484,50.781,0
1553634394.582,34.668,33.691,84.961,23.438,-0.488,0
1553634394.586,42.480,33.203,88.379,28.809,33.203,0
1553634394.590,26.367,32.715,91.309,33.691,69.336,0
1553634394.594,30.762,39.062,101.074,35.156,63.965,0
1553634394.597,44.434,36.621,104.492,27.344,52.734,0
1553634394.601,33.691,26.367,102.539,12.695,42.969,0
1553634394.605,31.738,28.320,94.727,33.203,54.688,0
1553634394.609,44.434,35.156,80.078,49.316,46.387,0
1553634394.613,33.691,40.039,87.891,26.367,25.879,0
1553634394.617,8.789,36.621,101.074,15.625,83.008,0
1553634394.621,29.785,30.273,102.539,29.297,81.055,0
1553634394.625,49.316,32.227,93.262,34.668,37.109,0
1553634394.629,13.184,25.391,86.426,35.645,36.133,0
1553634394.633,8.789,18.066,96.680,34.668,35.645,0
1553634394.636,30.273,24.414,97.656,37.598,37.109,0
1553634394.640,26.855,14.160,101.562,24.902,7.812,0
1553634394.644,28.320,11.230,108.398,17.090,33.203,0
1553634394.648,24.414,20.020,99.609,31.250,56.152,0
1553634394.652,25.391,21.973,75.684,37.109,14.160,0
1553634394.656,39.062,19.043,55.664,39.551,33.203,0
1553634394.660,45.410,21.484,66.895,37.598,16.602,0
1553634394.664,30.273,36.133,76.660,39.551,31.738,0
1553634394.668,26.855,29.785,75.684,42.480,70.801,0
1553634394.672,30.762,18.066,79.102,40.039,33.203,0
1553634394.676,26.855,28.809,81.055,38.086,-0.977,0
1553634394.679,42.480,46.387,69.824,40.039,-14.160,0
1553634394.683,50.781,48.340,64.941,45.410,0.488,0
1553634394.687,34.668,33.203,72.266,40.039,35.645,0
1553634394.691,42.480,18.555,66.406,27.832,80.078,0
1553634394.695,40.527,12.695,68.359,27.344,49.316,0
1553634394.699,23.438,23.438,80.078,31.738,36.621,0
1553634394.703,24.902,38.086,80.078,28.320,12.207,0
1553634394.707,25.879,39.551,62.012,25.879,-9.766,0
1553634394.711,16.602,39.551,60.547,36.621,34.668,0
1553634394.715,23.926,41.992,63.965,48.340,43.457,0
1553634394.719,39.551,38.086,64.941,37.598,47.852,0
1553634394.722,26.855,30.273,71.289,31.250,64.941,0
1553634394.726,42.969,28.809,57.617,35.156,56.641,0
1553634394.730,58.105,20.508,50.781,28.320,28.809,0
1553634394.734,35.156,19.043,51.758,28.809,13.184,0
1553634394.738,26.367,34.180,49.316,30.762,54.688,0
1553634394.742,22.461,38.574,50.781,33.203,65.918,0
1553634394.746,20.508,34.180,51.270,31.250,59.082,0
1553634394.750,29.785,38.574,50.293,18.555,17.578,0
1553634394.754,32.227,40.039,52.246,19.043,-20.996,0
1553634394.758,32.227,25.879,47.363,23.926,41.992,0
1553634394.761,31.250,23.438,32.227,24.414,53.711,0
1553634394.765,40.039,27.832,11.719,28.809,19.531,0
1553634394.769,45.898,27.832,24.414,37.109,-0.977,0
1553634394.773,48.828,28.809,47.363,39.062,33.203,0
1553634394.777,27.832,28.809,54.688,43.945,59.082,0
1553634394.781,12.207,29.785,66.406,33.203,88.867,0
1553634394.785,18.555,31.738,76.660,15.625,116.211,0
1553634394.789,22.461,41.016,80.078,22.461,16.113,0
1553634394.793,35.645,41.992,79.102,24.902,18.066,0
1553634394.797,39.551,32.227,71.289,20.020,49.805,0
1553634394.801,43.457,37.109,66.406,26.855,8.789,0
1553634394.804,56.152,38.574,69.824,38.574,7.324,0
1553634394.808,57.129,17.578,68.848,35.645,36.133,0
1553634394.812,62.988,10.254,60.059,42.480,40.527,0
1553634394.816,61.035,31.738,59.570,56.152,22.461,0
1553634394.820,27.344,48.828,58.105,32.227,69.824,0
1553634394.824,19.043,47.363,57.129,8.789,61.523,0
1553634394.828,20.996,36.133,57.129,32.227,27.832,0
1553634394.832,27.832,21.973,60.547,38.574,35.156,0
1553634394.836,30.273,20.996,69.336,37.109,24.414,0
1553634394.840,27.832,27.832,67.871,47.852,64.941,0
1553634394.844,46.875,24.414,62.500,20.508,29.785,0
1553634394.847,32.227,13.672,68.848,17.578,19.043,0
1553634394.851,18.066,22.949,82.520,35.156,93.262,0
1553634394.855,24.902,42.969,77.148,36.621,41.016,0
1553634394.859,31.738,32.227,63.477,37.598,50.293,0
1553634394.863,36.621,22.461,79.590,40.039,64.453,0
1553634394.867,46.387,28.809,91.797,48.340,25.391,0
1553634394.871,56.641,27.344,84.473,46.875,21.973,0
1553634394.875,38.574,31.738,79.590,52.246,16.113,0
1553634394.879,41.992,26.367,85.938,53.711,37.109,0
1553634394.883,42.969,21.973,86.426,49.805,32.227,0
1553634394.886,37.598,33.691,77.637,41.504,2.441,0
1553634394.890,43.457,28.320,103.516,36.133,34.180,0
1553634394.894,41.992,27.832,100.586,35.156,86.914,0
1553634394.898,48.828,40.527,83.008,35.645,31.250,0
1553634394.902,43.945,35.645,89.844,45.410,-22.949,0
1553634394.906,27.344,36.133,88.867,47.363,67.383,0
1553634394.910,41.016,48.828,79.590,42.969,56.641,0
1553634394.914,38.086,34.668,74.219,35.156,1.465,0
1553634394.918,22.949,18.066,87.402,28.320,30.273,0
1553634394.922,20.996,21.484,89.844,36.133,-31.250,0
1553634394.926,30.273,22.949,73.242,39.551,-47.852,0
1553634394.929,53.711,34.668,69.824,37.598,-4.395,0
1553634394.933,46.387,42.969,91.797,45.898,40.039,0
1553634394.937,24.902,45.410,95.215,53.711,62.500,0
1553634394.941,33.691,40.527,77.148,35.156,29.785,0
1553634394.945,31.250,37.109,77.148,13.672,49.805,0
1553634394.949,35.645,38.574,72.754,14.160,55.176,0
1553634394.953,36.133,25.879,64.453,20.020,-5.859,0
1553634394.957,37.598,31.250,60.059,13.672,7.324,0
1553634394.961,38.574,41.504,62.012,13.672,17.578,0
1553634394.965,43.945,39.551,61.523,20.508,20.020,0
1553634394.969,54.199,41.992,59.082,37.109,30.762,0
1553634394.972,35.645,39.062,70.801,40.039,15.137,0
1553634394.976,26.855,37.109,80.078,30.762,1.465,0
1553634394.980,34.180,34.180,71.289,30.762,-37.598,0
1553634394.984,35.645,37.598,58.105,39.551,3.418,0
1553634394.988,35.645,46.875,70.801,40.039,38.086,0
1553634394.992,47.852,27.832,67.871,36.133,45.898,0
1553634394.996,49.805,21.973,64.453,40.527,39.062,0
1553634395.000,56.641,36.621,84.961,37.598,24.902,0
1553634395.004,45.898,31.250,100.586,30.273,0.977,0
1553634395.008,8.789,37.598,89.355,26.855,29.297,0
1553634395.011,19.043,44.434,70.801,24.902,76.172,0
1553634395.015,40.527,41.992,64.453,44.434,64.941,0
1553634395.019,54.688,37.109,58.105,42.480,71.289,0
1553634395.023,21.973,35.645,66.406,-3.906,72.754,0
1553634395.027,15.625,37.598,63.965,-5.859,22.949,0
1553634395.031,52.734,29.297,56.641,18.555,60.059,0
1553634395.035,28.320,31.738,74.219,15.137,67.383,0
1553634395.039,24.414,36.133,85.938,26.367,23.438,0
1553634395.043,23.926,32.715,84.961,29.785,33.691,0
1553634395.047,24.414,24.902,91.309,31.250,48.828,0
1553634395.051,26.855,19.531,85.938,44.434,38.086,0
1553634395.054,8.301,19.531,72.266,46.387,13.672,0
1553634395.058,20.508,19.043,82.520,44.922,31.738,0
1553634395.062,30.762,23.926,84.473,30.273,10.254,0
1553634395.066,36.133,27.344,81.055,28.320,25.391,0
1553634395.070,26.855,28.320,77.637,30.762,6.836,0
1553634395.074,41.992,34.180,62.012,44.922,-13.184,0
1553634395.078,53.223,39.551,55.176,34.180,44.922,0
1553634395.082,48.828,37.598,66.895,25.879,40.527,0
1553634395.086,47.852,42.480,64.941,41.016,19.043,0
1553634395.090,39.551,38.086,55.664,29.297,-27.344,0
1553634395.094,35.156,30.273,69.824,33.691,-24.902,0
1553634395.097,45.410,33.203,77.637,39.062,48.340,0
1553634395.101,52.734,23.926,73.730,45.898,50.781,0
1553634395.105,45.898,16.113,72.266,54.199,5.371,0
1553634395.109,48.340,28.809,63.477,45.410,-21.973,0
1553634395.113,35.645,42.480,56.152,31.738,11.230,0
1553634395.117,34.668,44.434,59.570,39.551,46.875,0
1553634395.121,42.480,40.527,51.758,55.664,48.828,0
1553634395.125,37.598,31.250,59.570,48.828,47.363,0
1553634395.129,40.039,22.461,84.961,45.410,53.711,0
1553634395.133,39.551,29.297,88.867,39.551,93.750,0
1553634395.136,42.480,32.715,75.684,38.086,41.016,0
1553634395.140,51.270,17.578,65.918,36.133,2.930,0
1553634395.144,52.246,26.367,64.453,31.250,25.391,0
1553634395.148,45.410,41.016,70.312,38.086,-22.949,0
1553634395.152,31.250,38.574,76.172,37.598,25.391,0
1553634395.156,34.668,37.598,85.449,27.344,117.676,0
1553634395.160,29.297,33.203,77.148,32.227,64.941,0
1553634395.164,35.156,36.133,68.848,43.945,-16.113,0
1553634395.168,44.922,42.969,79.590,39.551,-19.531,0
1553634395.172,46.387,43.945,82.520,34.668,3.906,0
1553634395.176,49.316,36.621,87.891,35.645,43.457,0
1553634395.179,43.457,29.785,93.262,29.297,50.781,0
1553634395.183,37.109,27.344,92.773,39.551,77.637,0
1553634395.187,13.672,15.137,83.984,28.809,85.938,0
1553634395.191,28.320,22.461,50.781,15.625,39.062,0
1553634395.195,52.734,39.551,50.781,34.180,29.297,0
1553634395.199,51.758,44.434,71.289,32.227,25.879,0
1553634395.203,49.805,43.457,68.848,38.086,15.137,0
1553634395.207,54.688,38.086,64.453,55.664,14.648,0
1553634395.211,52.246,36.133,72.266,47.852,39.551,0
1553634395.215,44.922,41.016,75.684,30.273,35.156,0
1553634395.219,53.711,40.039,62.988,42.969,9.277,0
1553634395.222,47.363,32.227,65.430,49.805,23.438,0
1553634395.226,33.203,28.809,67.383,39.551,34.668,0
1553634395.230,51.270,30.273,58.594,41.016,-8.301,0
1553634395.234,42.480,40.527,56.641,40.039,16.602,0
1553634395.238,28.809,46.387,62.988,35.645,65.430,0
1553634395.242,29.297,41.016,64.941,31.250,43.457,0
1553634395.246,24.902,28.320,60.547,23.438,34.180,0
1553634395.250,38.086,23.438,56.641,34.668,36.133,0
1553634395.254,50.293,27.344,57.129,51.758,26.367,0
1553634395.258,44.922,27.832,52.246,35.645,-5.371,0
1553634395.261,27.832,20.020,59.082,2.441,7.812,0
1553634395.265,17.578,21.973,65.918,8.301,9.277,0
1553634395.269,22.461,26.855,55.664,30.762,26.367,0
1553634395.273,28.320,17.090,63.965,28.809,34.180,0
1553634395.277,16.113,17.578,82.031,37.598,-8.301,0
1553634395.281,12.695,29.297,92.285,52.734,-15.137,0
1553634395.285,13.672,32.227,89.844,39.062,50.781,0
1553634395.289,16.113,29.297,74.707,10.742,65.430,0
1553634395.293,41.504,24.414,67.871,12.207,35.645,0
1553634395.297,39.551,19.531,75.684,29.297,34.180,0
1553634395.301,22.949,16.602,77.148,49.805,33.691,0
1553634395.304,30.762,20.996,74.219,47.852,-1.953,0
1553634395.308,36.133,31.250,84.961,30.273,2.930,0
1553634395.312,40.527,13.184,86.426,35.645,17.090,0
1553634395.316,27.832,4.395,86.426,32.227,30.273,0
1553634395.320,30.762,30.273,71.289,29.785,72.754,0
1553634395.324,36.133,42.969,62.012,25.879,63.965,0
1553634395.328,17.578,37.109,75.684,18.555,16.602,0
1553634395.332,35.645,25.879,73.730,23.438,29.297,0
1553634395.336,42.480,22.949,66.406,41.016,39.551,0
1553634395.340,31.738,20.508,63.477,35.645,47.363,0
1553634395.344,31.250,20.020,78.125,34.180,21.484,0
1553634395.347,28.809,34.668,99.121,40.039,21.484,0
1553634395.351,34.668,37.109,101.562,39.551,31.738,0
1553634395.355,37.598,28.809,104.492,48.828,-18.555,0
1553634395.359,32.715,27.832,96.680,61.523,22.461,0
1553634395.363,32.715,24.902,88.379,40.527,48.828,0
1553634395.367,34.180,26.367,96.191,25.391,41.992,0
1553634395.371,42.969,36.133,96.680,34.180,14.160,0
1553634395.375,28.809,33.691,77.148,30.273,40.527,0
1553634395.379,23.926,23.926,69.824,37.109,74.219,0
1553634395.383,34.180,24.414,79.590,45.898,59.082,0
1553634395.386,26.855,31.738,81.543,26.855,80.078,0
1553634395.390,28.320,30.762,76.660,8.789,77.148,0
1553634395.394,28.809,22.461,60.547,15.137,51.758,0
1553634395.398,39.062,23.438,60.059,20.508,65.918,0
1553634395.402,49.805,21.484,65.918,22.949,77.148,0
1553634395.406,20.996,16.113,58.594,17.578,31.738,0
