timestamps,TP9,AF7,AF8,TP10,Right AUX,Marker0
1553634128.976,35.645,47.852,11.230,13.672,122.070,0
1553634128.980,15.137,44.434,16.602,40.527,130.859,0
1553634128.984,28.809,47.363,18.555,83.984,37.109,0
1553634128.988,21.973,48.340,17.090,49.805,-9.766,0
1553634128.992,23.438,47.852,15.625,21.484,35.156,0
1553634128.996,53.711,48.340,15.137,51.270,78.125,0
1553634128.999,35.645,47.852,15.137,48.828,47.852,0
1553634129.003,36.133,49.316,11.230,19.531,66.895,0
1553634129.007,25.391,48.340,16.113,36.621,45.898,0
1553634129.011,10.742,43.945,21.484,33.691,-10.254,0
1553634129.015,25.391,48.340,17.090,30.273,-48.828,0
1553634129.019,49.805,51.758,18.066,40.527,-35.156,0
1553634129.023,50.781,49.316,22.461,56.641,50.781,0
1553634129.027,65.430,49.316,18.555,62.012,-1.953,0
1553634129.031,66.895,51.758,16.113,23.926,48.828,0
1553634129.035,9.766,50.781,22.949,27.832,116.699,0
1553634129.039,14.160,45.410,26.367,16.113,82.031,0
1553634129.042,43.457,46.387,28.320,13.672,29.785,0
1553634129.046,41.504,49.316,25.879,27.344,29.297,0
1553634129.050,20.508,45.898,27.832,38.574,82.520,0
1553634129.054,27.832,51.270,30.273,26.367,54.688,0
1553634129.058,43.457,53.223,28.320,11.719,9.766,0
1553634129.062,63.965,49.316,26.855,59.570,36.621,0
1553634129.066,30.762,45.410,33.203,78.125,74.219,0
1553634129.070,16.602,43.945,34.180,4.395,57.129,0
1553634129.074,18.555,45.410,30.273,52.246,70.801,0
1553634129.078,-14.648,41.992,36.133,80.566,92.285,0
1553634129.082,16.602,41.016,36.133,27.344,74.707,0
1553634129.085,40.527,41.016,34.668,20.508,67.383,0
1553634129.089,26.855,40.039,36.621,18.555,93.750,0
1553634129.093,57.129,46.875,35.156,35.645,111.816,0
1553634129.097,59.082,46.875,36.621,35.645,100.586,0
1553634129.101,32.715,44.922,38.086,47.852,58.594,0
1553634129.105,65.918,54.199,32.715,54.688,-48.828,0
1553634129.109,71.289,56.152,27.344,39.062,-26.367,0
1553634129.113,18.555,47.852,27.832,0.488,57.617,0
1553634129.117,45.410,46.875,36.621,9.766,26.855,0
1553634129.121,60.547,49.805,41.504,13.672,45.898,0
1553634129.124,3.418,41.016,41.504,-12.695,96.680,0
1553634129.128,17.578,46.387,41.992,49.316,52.734,0
1553634129.132,59.570,57.617,40.039,86.914,60.059,0
1553634129.136,28.809,46.875,34.180,4.883,83.496,0
1553634129.140,-3.418,43.945,30.273,-30.273,125.977,0
1553634129.144,-1.953,42.969,33.203,2.441,137.695,0
1553634129.148,23.926,45.898,41.992,39.062,52.734,0
1553634129.152,43.945,54.199,40.527,73.242,47.852,0
1553634129.156,47.852,58.105,27.832,-7.812,72.266,0
1553634129.160,26.367,59.570,23.926,-25.391,68.848,0
1553634129.164,13.672,51.758,32.715,1.465,-6.348,0
1553634129.167,51.270,52.734,38.574,40.527,-5.859,0
1553634129.171,39.062,55.664,29.785,33.203,97.168,0
1553634129.175,10.742,51.270,19.531,1.465,108.887,0
1553634129.179,25.391,52.246,23.926,22.461,83.008,0
1553634129.183,33.691,53.223,27.344,20.020,110.840,0
1553634129.187,18.066,46.387,24.902,22.949,119.141,0
1553634129.191,2.441,49.805,20.020,2.930,125.488,0
1553634129.195,-1.953,56.152,15.137,-41.504,122.559,0
1553634129.199,-5.371,53.223,14.160,-43.457,57.617,0
1553634129.203,0.488,44.922,14.160,-12.695,2.441,0
1553634129.207,10.742,38.574,19.531,-31.738,28.320,0
1553634129.210,15.625,42.969,21.973,4.395,-0.977,0
1553634129.214,14.160,44.434,22.949,-17.090,10.742,0
1553634129.218,8.301,41.992,26.855,15.625,43.457,0
1553634129.222,40.039,47.363,25.391,27.832,12.207,0
1553634129.226,22.949,45.898,21.973,-67.383,49.805,0
1553634129.230,-35.645,42.969,20.996,-30.273,50.293,0
1553634129.234,-1.465,43.945,20.020,-21.973,55.664,0
1553634129.238,3.418,40.527,25.879,-5.859,63.477,0
1553634129.242,13.184,42.969,25.391,39.551,47.852,0
1553634129.246,20.020,48.828,20.508,30.273,55.664,0
1553634129.249,-5.371,53.711,12.207,-44.922,42.969,0
1553634129.253,8.301,51.270,9.277,-56.152,29.785,0
1553634129.257,18.066,43.945,24.902,-1.953,12.695,0
1553634129.261,11.230,45.410,24.902,4.883,-1.465,0
1553634129.265,-5.371,49.805,16.113,-43.945,22.949,0
1553634129.269,7.324,50.781,19.043,24.902,14.648,0
1553634129.273,23.438,47.363,18.066,6.348,26.367,0
1553634129.277,13.184,45.898,17.090,-41.504,67.871,0
1553634129.281,4.395,45.410,20.508,14.648,92.773,0
1553634129.285,33.203,47.852,22.949,35.645,89.844,0
1553634129.289,7.812,49.805,15.137,-19.531,74.707,0
1553634129.292,18.555,47.852,13.184,-32.715,52.246,0
1553634129.296,28.809,45.410,22.461,20.996,14.648,0
1553634129.300,-16.602,49.316,20.996,7.812,64.453,0
1553634129.304,14.160,57.129,14.648,-26.855,61.523,0
1553634129.308,31.738,56.152,14.160,-35.645,54.199,0
1553634129.312,29.785,57.129,13.184,-25.879,140.625,0
1553634129.316,9.766,54.199,11.230,-4.395,124.023,0
1553634129.320,-9.766,42.480,24.414,31.738,38.574,0
1553634129.324,3.906,43.457,27.832,18.066,36.621,0
1553634129.328,21.484,49.316,20.996,-40.527,33.203,0
1553634129.332,3.418,51.758,22.949,16.113,34.668,0
1553634129.335,-1.953,56.641,20.996,41.992,73.730,0
1553634129.339,33.203,60.059,20.020,-21.973,40.039,0
1553634129.343,30.273,57.617,22.949,-15.137,-9.766,0
1553634129.347,18.066,50.293,26.367,-8.301,15.625,0
1553634129.351,-3.418,50.781,22.461,33.203,-2.930,0
1553634129.355,-2.441,59.082,12.695,16.113,-19.531,0
1553634129.359,17.090,62.500,12.695,6.836,-13.672,0
1553634129.363,30.273,61.523,14.160,25.879,-16.602,0
1553634129.367,37.598,62.012,10.254,-10.254,-14.648,0
1553634129.371,31.738,58.594,15.625,-14.648,-29.297,0
1553634129.374,28.320,52.246,22.461,32.715,33.203,0
1553634129.378,2.441,60.547,12.695,25.879,57.129,0
1553634129.382,20.020,58.594,18.066,20.020,111.328,0
1553634129.386,26.367,41.016,29.297,33.691,153.320,0
1553634129.390,18.555,52.246,18.066,-20.508,97.656,0
1553634129.394,41.504,70.801,2.930,-39.062,40.527,0
1553634129.398,29.297,67.871,3.906,-29.785,27.832,0
1553634129.402,-2.441,57.129,15.625,0.488,28.809,0
1553634129.406,20.508,58.105,18.066,24.902,-4.883,0
1553634129.410,53.711,59.082,16.602,33.691,31.250,0
1553634129.414,14.160,47.363,20.508,-12.207,78.125,0
1553634129.417,-14.648,48.828,16.602,6.348,36.621,0
1553634129.421,-10.254,52.734,14.648,46.387,52.246,0
1553634129.425,1.465,55.664,14.160,-12.207,100.586,0
1553634129.429,-8.301,62.500,8.789,-38.086,96.680,0
1553634129.433,-11.230,60.547,9.766,-11.719,63.965,0
1553634129.437,0.977,55.664,12.695,-5.371,47.852,0
1553634129.441,-15.625,49.316,19.043,56.641,60.547,0
1553634129.445,13.184,55.176,18.066,65.918,39.062,0
1553634129.449,28.320,62.988,6.836,-33.691,35.156,0
1553634129.453,6.836,59.570,6.348,-21.973,15.137,0
1553634129.457,33.691,57.617,10.254,-2.441,27.832,0
1553634129.460,21.484,63.477,9.277,-15.137,48.828,0
1553634129.464,22.949,64.941,6.836,-3.418,16.602,0
1553634129.468,20.508,61.035,9.766,-1.465,76.172,0
1553634129.472,3.418,56.641,18.555,1.953,91.309,0
1553634129.476,19.043,55.176,25.391,-7.812,26.367,0
1553634129.480,25.391,63.477,13.672,26.367,10.254,0
1553634129.484,31.738,57.129,11.230,-2.441,65.918,0
1553634129.488,0.977,54.688,20.508,2.930,79.590,0
1553634129.492,-20.996,60.059,16.113,28.320,87.891,0
1553634129.496,18.555,54.199,12.207,16.113,80.078,0
1553634129.499,20.508,57.129,14.648,2.441,25.879,0
1553634129.503,21.973,57.129,9.277,2.441,93.750,0
1553634129.507,58.105,50.293,2.930,57.617,103.027,0
1553634129.511,43.945,52.246,20.020,34.668,32.227,0
1553634129.515,17.578,56.152,33.691,-3.906,68.359,0
1553634129.519,39.062,59.082,20.996,24.414,28.809,0
1553634129.523,35.645,54.199,21.973,8.789,18.066,0
1553634129.527,6.348,49.805,24.414,-22.461,89.844,0
1553634129.531,5.859,46.387,25.879,6.836,50.293,0
1553634129.535,-9.766,43.945,29.297,-7.812,40.039,0
1553634129.539,20.020,49.316,22.949,-13.184,47.852,0
1553634129.542,20.996,46.387,26.367,31.738,24.414,0
1553634129.546,25.391,39.062,31.738,20.996,63.965,0
1553634129.550,53.711,43.945,25.879,39.551,84.961,0
1553634129.554,5.859,49.805,23.438,20.020,99.609,0
1553634129.558,17.090,51.758,19.043,24.414,127.441,0
1553634129.562,29.785,60.059,18.066,32.227,83.984,0
1553634129.566,-1.953,50.293,29.785,-35.156,44.922,0
1553634129.570,14.160,44.434,35.156,9.277,3.418,0
1553634129.574,41.504,43.457,34.668,68.359,-2.930,0
1553634129.578,28.320,41.504,30.273,41.016,80.078,0
1553634129.582,24.902,48.828,22.461,3.418,62.500,0
1553634129.585,20.508,49.805,28.809,31.250,21.973,0
1553634129.589,16.602,45.898,39.062,66.406,68.848,0
1553634129.593,21.484,46.875,32.227,25.391,107.422,0
1553634129.597,40.527,58.105,21.484,17.578,43.457,0
1553634129.601,33.203,58.105,22.949,60.547,-7.812,0
1553634129.605,38.086,52.734,28.809,22.949,27.344,0
1553634129.609,17.578,46.875,32.227,11.230,-19.531,0
1553634129.613,-2.930,45.410,30.762,29.785,31.738,0
1553634129.617,87.402,62.012,16.113,21.973,68.359,0
1553634129.621,73.242,59.082,18.555,52.734,17.090,0
1553634129.624,-17.578,44.434,23.926,27.832,83.008,0
1553634129.628,-5.371,47.363,18.555,6.836,93.262,0
1553634129.632,-9.277,35.156,33.203,3.906,71.777,0
1553634129.636,13.184,37.109,34.180,44.434,88.379,0
1553634129.640,88.379,58.105,16.113,46.875,6.836,0
1553634129.644,34.180,49.316,15.625,-11.230,7.812,0
1553634129.648,-3.418,39.062,30.273,10.254,88.379,0
1553634129.652,42.480,41.016,35.645,60.547,69.336,0
1553634129.656,18.066,43.457,22.949,80.078,67.871,0
1553634129.660,51.758,45.898,15.137,56.152,82.520,0
1553634129.664,72.266,59.570,11.719,-19.531,75.684,0
1553634129.667,34.180,52.734,26.367,82.520,66.406,0
1553634129.671,6.836,32.227,44.922,240.234,37.598,0
1553634129.675,14.160,40.039,29.297,17.578,-26.367,0
1553634129.679,29.297,48.340,9.766,-124.512,-35.156,0
1553634129.683,44.922,47.852,13.184,-17.578,20.020,0
1553634129.687,11.230,43.945,20.508,-12.695,49.805,0
1553634129.691,-7.812,44.922,20.508,-16.602,14.160,0
1553634129.695,21.973,53.223,14.160,45.898,12.695,0
1553634129.699,36.621,56.641,14.648,14.648,57.129,0
1553634129.703,60.059,47.852,25.391,4.395,23.926,0
1553634129.707,29.297,41.504,29.785,60.059,4.883,0
1553634129.710,8.301,44.434,27.344,62.012,15.625,0
1553634129.714,26.367,43.457,35.645,53.223,-0.488,0
1553634129.718,67.383,53.711,33.691,23.438,-10.742,0
1553634129.722,33.203,54.688,33.203,-38.086,21.973,0
1553634129.726,17.090,46.875,43.457,-12.207,54.199,0
1553634129.730,55.176,41.016,54.199,73.242,52.246,0
1553634129.734,18.555,40.527,59.082,52.246,59.570,0
1553634129.738,-20.020,45.898,50.781,16.602,49.316,0
1553634129.742,14.160,47.852,45.898,35.645,18.555,0
1553634129.746,42.969,46.387,62.012,-14.160,47.363,0
1553634129.749,31.250,44.922,66.406,19.531,46.387,0
1553634129.753,46.387,37.598,63.477,43.457,34.668,0
1553634129.757,79.102,38.086,49.316,17.090,8.789,0
1553634129.761,69.824,41.016,53.223,97.656,-27.344,0
1553634129.765,18.066,25.879,81.543,54.688,22.949,0
1553634129.769,-13.184,28.809,82.031,1.465,25.391,0
1553634129.773,-13.184,29.297,70.801,40.039,77.148,0
1553634129.777,0.488,14.648,79.590,47.852,6.836,0
1553634129.781,24.414,20.020,85.938,57.617,18.555,0
1553634129.785,83.496,28.809,74.219,9.766,127.930,0
1553634129.789,96.191,15.137,79.102,65.918,102.539,0
1553634129.792,36.621,3.906,88.379,125.488,22.949,0
1553634129.796,72.266,2.441,88.379,117.676,20.020,0
1553634129.800,72.754,-5.859,103.027,112.305,115.234,0
1553634129.804,86.426,-1.465,96.191,148.438,108.398,0
1553634129.808,108.398,8.301,75.195,156.738,14.160,0
1553634129.812,114.746,25.391,57.129,91.797,13.184,0
1553634129.816,87.402,24.902,64.941,34.180,65.918,0
1553634129.820,32.227,4.883,84.961,132.324,26.855,0
1553634129.824,102.539,17.578,76.660,146.484,12.695,0
1553634129.828,111.816,26.367,72.754,64.453,27.832,0
1553634129.832,52.734,33.691,60.059,58.105,42.969,0
1553634129.835,37.109,32.715,61.035,68.848,87.891,0
1553634129.839,44.434,22.461,77.637,94.238,64.941,0
1553634129.843,85.938,31.738,74.707,101.562,27.832,0
1553634129.847,103.516,43.457,65.430,97.168,18.555,0
1553634129.851,56.152,37.109,71.289,102.051,-2.441,0
1553634129.855,56.641,34.180,68.359,59.570,11.230,0
1553634129.859,66.406,41.504,53.711,48.340,50.781,0
1553634129.863,34.180,40.039,60.547,50.781,41.016,0
1553634129.867,51.270,35.156,76.172,104.980,-12.695,0
1553634129.871,52.246,48.340,63.477,88.867,-27.832,0
1553634129.874,29.297,51.270,64.941,21.484,-7.812,0
1553634129.878,72.754,44.922,67.383,18.555,24.902,0
1553634129.882,80.566,51.758,51.758,7.812,-19.531,0
1553634129.886,38.086,44.434,66.895,61.523,5.859,0
1553634129.890,41.992,39.062,79.102,118.164,49.316,0
1553634129.894,62.012,50.781,60.059,45.410,38.086,0
1553634129.898,60.059,41.504,65.918,53.711,95.703,0
1553634129.902,44.922,39.062,74.219,63.965,65.918,0
1553634129.906,29.785,52.246,60.059,58.594,42.480,0
1553634129.910,24.414,45.410,64.453,53.223,60.547,0
1553634129.914,56.641,46.387,59.570,89.844,33.691,0
1553634129.917,43.457,48.340,56.641,77.637,68.359,0
1553634129.921,38.574,47.852,59.570,42.969,48.828,0
1553634129.925,44.922,48.340,52.246,44.922,-35.645,0
1553634129.929,60.547,46.387,63.477,33.203,-62.500,0
1553634129.933,33.691,39.551,77.148,62.500,-17.090,0
1553634129.937,33.691,48.828,57.617,78.613,47.363,0
1553634129.941,62.012,59.082,48.340,8.789,81.543,0
1553634129.945,25.391,53.711,49.805,-16.602,57.617,0
1553634129.949,-5.859,48.828,52.246,15.137,49.805,0
1553634129.953,18.555,40.527,56.641,63.477,13.184,0
1553634129.957,4.395,42.480,45.410,106.934,2.441,0
1553634129.960,-8.789,49.316,41.992,36.621,45.898,0
1553634129.964,62.500,51.270,48.828,26.855,-27.832,0
1553634129.968,14.160,45.898,48.340,45.410,20.020,0
1553634129.972,-20.996,52.246,39.062,-2.441,93.262,0
1553634129.976,22.461,55.664,37.109,13.672,51.758,0
1553634129.980,2.930,48.828,45.898,33.691,87.891,0
1553634129.984,12.207,56.641,42.480,68.848,98.633,0
1553634129.988,60.547,68.359,27.344,20.020,16.113,0
1553634129.992,40.527,56.152,35.645,7.324,40.527,0
1553634129.996,20.996,47.852,53.223,100.586,56.641,0
1553634129.999,10.742,50.781,53.711,41.504,90.332,0
1553634130.003,22.461,48.828,54.199,-11.719,98.145,0
1553634130.007,46.387,50.781,56.152,10.742,45.898,0
1553634130.011,33.691,51.758,50.293,58.594,47.852,0
1553634130.015,38.086,60.547,33.691,62.500,36.621,0
1553634130.019,54.199,65.918,39.062,25.879,58.594,0
1553634130.023,52.246,54.199,53.711,91.797,85.938,0
1553634130.027,34.668,50.781,54.688,94.727,78.125,0
1553634130.031,-4.395,50.293,48.340,3.906,108.398,0
1553634130.035,11.719,47.363,44.922,0.977,123.047,0
1553634130.039,48.828,54.199,41.992,19.043,76.660,0
1553634130.042,46.875,62.012,41.992,56.152,78.125,0
1553634130.046,44.922,60.059,38.086,70.801,25.391,0
1553634130.050,24.902,56.152,26.855,14.160,-53.711,0
1553634130.054,-23.926,45.898,40.527,4.883,-23.438,0
1553634130.058,12.207,38.086,45.410,56.152,82.031,0
1553634130.062,51.758,50.781,26.855,70.801,63.965,0
1553634130.066,2.441,53.711,33.691,-20.020,-1.953,0
1553634130.070,1.953,45.898,47.852,0.977,48.828,0
1553634130.074,29.297,53.711,35.645,46.875,22.461,0
1553634130.078,1.953,60.059,25.879,10.742,30.762,0
1553634130.082,21.484,63.965,22.461,20.996,24.902,0
1553634130.085,20.020,62.500,21.484,18.066,35.156,0
1553634130.089,11.230,48.828,23.438,-39.551,80.566,0
1553634130.093,8.301,41.504,30.762,13.184,38.086,0
1553634130.097,-17.578,46.387,23.926,41.504,7.324,0
1553634130.101,5.859,46.387,29.785,-8.301,45.410,0
1553634130.105,6.348,47.852,33.691,-0.488,27.344,0
1553634130.109,13.184,47.852,32.715,61.523,19.531,0
1553634130.113,31.250,40.039,38.086,55.176,49.316,0
1553634130.117,8.301,42.969,18.066,-0.977,35.156,0
1553634130.121,0.488,52.246,15.625,37.109,20.996,0
1553634130.124,21.484,51.270,30.273,11.719,23.926,0
1553634130.128,20.508,49.316,35.156,14.160,23.438,0
1553634130.132,-6.836,41.992,35.645,28.809,64.453,0
1553634130.136,2.930,47.363,23.438,-25.391,49.805,0
1553634130.140,-10.254,53.223,13.184,-7.812,44.922,0
1553634130.144,27.344,46.875,28.320,53.223,40.039,0
1553634130.148,38.574,69.336,24.902,44.922,14.160,0
1553634130.152,-17.090,79.102,11.230,-17.090,9.766,0
1553634130.156,-63.965,71.777,18.066,-15.625,-10.742,0
1553634130.160,-47.852,87.402,6.348,-38.574,12.695,0
1553634130.164,-47.852,94.238,-4.395,-54.199,58.105,0
1553634130.167,-108.398,99.121,-8.301,-37.598,77.637,0
1553634130.171,-80.078,104.492,-14.160,-88.379,93.262,0
1553634130.175,-62.012,100.586,-18.066,-116.699,75.684,0
1553634130.179,-86.426,106.445,-34.180,-102.539,102.051,0
1553634130.183,-73.730,120.117,-47.852,-144.043,66.406,0
1553634130.187,-48.340,113.770,-38.574,-150.391,36.133,0
1553634130.191,-67.871,100.098,-36.621,-65.430,103.027,0
1553634130.195,-80.566,90.820,-40.527,-26.367,92.773,0
1553634130.199,-47.363,82.520,-29.297,-39.551,71.777,0
1553634130.203,-29.297,81.543,-23.926,-71.777,18.555,0
1553634130.207,-20.996,82.520,-30.273,-73.242,45.410,0
1553634130.210,-30.273,82.031,-33.691,-36.621,73.242,0
1553634130.214,-6.836,86.914,-33.203,-44.922,91.309,0
1553634130.218,-0.977,84.961,-27.344,-22.949,83.984,0
1553634130.222,-9.277,75.684,-22.949,10.742,17.090,0
1553634130.226,-37.109,72.266,-22.461,-27.832,57.129,0
1553634130.230,-33.203,74.707,-11.719,-22.461,42.480,0
1553634130.234,20.508,78.613,-9.277,16.113,42.969,0
1553634130.238,36.621,82.031,-11.719,32.715,50.293,0
1553634130.242,27.344,86.426,-14.160,10.254,20.020,0
1553634130.246,-18.066,81.055,-20.508,-64.453,28.320,0
1553634130.249,-22.461,69.824,-13.672,-13.184,54.688,0
1553634130.253,-8.301,70.312,-7.324,29.785,65.430,0
1553634130.257,4.883,80.078,-10.254,-11.230,88.379,0
1553634130.261,13.184,84.961,-11.230,48.340,86.426,0
1553634130.265,16.602,78.125,-9.766,12.695,127.930,0
1553634130.269,42.480,76.172,-12.695,-44.922,86.914,0
1553634130.273,48.828,79.102,-19.531,17.090,46.387,0
1553634130.277,31.738,77.148,-13.672,8.301,68.359,0
1553634130.281,6.836,66.895,-7.812,24.414,41.016,0
1553634130.285,-10.742,64.453,-10.254,46.875,52.734,0
1553634130.289,11.719,71.289,-15.625,8.301,76.172,0
1553634130.292,14.160,68.848,-11.719,-2.441,12.207,0
1553634130.296,2.930,65.918,-4.395,-0.488,42.480,0
1553634130.300,36.133,66.895,-1.953,-0.488,63.965,0
1553634130.304,7.324,67.871,-1.953,-2.441,15.137,0
1553634130.308,19.043,62.012,-4.395,10.254,82.520,0
1553634130.312,62.012,57.129,0.488,56.641,92.773,0
1553634130.316,25.879,52.246,6.348,46.875,60.059,0
1553634130.320,15.137,50.293,5.859,31.738,6.836,0
1553634130.324,20.020,61.523,-8.301,51.270,47.363,0
1553634130.328,23.926,70.801,-7.812,22.949,54.199,0
1553634130.332,1.953,55.664,9.766,-38.574,27.832,0
1553634130.335,-8.789,51.758,9.277,-32.227,30.273,0
1553634130.339,39.062,60.547,1.953,-1.465,23.926,0
1553634130.343,33.203,56.641,4.395,60.547,24.414,0
1553634130.347,5.371,55.664,10.742,44.922,22.461,0
1553634130.351,-8.301,54.199,14.160,-25.879,37.109,0
1553634130.355,-39.551,57.617,7.812,-37.109,95.703,0
1553634130.359,-1.953,65.918,-3.906,-43.945,111.816,0
1553634130.363,10.742,64.941,4.883,16.602,50.781,0
1553634130.367,4.883,60.059,16.602,19.531,76.172,0
1553634130.371,50.781,63.477,12.695,-9.766,111.328,0
1553634130.374,45.898,65.430,18.066,54.688,61.035,0
1553634130.378,16.113,79.102,12.207,56.641,27.832,0
1553634130.382,20.508,69.824,12.695,11.230,67.871,0
1553634130.386,-23.926,49.805,30.273,30.273,25.391,0
1553634130.390,-20.508,57.617,23.438,-23.926,42.480,0
1553634130.394,22.461,61.523,17.578,-18.555,16.602,0
1553634130.398,5.371,54.199,21.484,44.434,-50.293,0
1553634130.402,2.930,50.293,21.484,35.156,30.762,0
1553634130.406,31.250,64.453,7.324,42.969,56.641,0
1553634130.410,28.809,71.289,0.977,-4.395,73.242,0
1553634130.414,32.227,55.664,28.320,-2.441,61.035,0
1553634130.417,24.902,43.457,39.062,11.230,78.613,0
1553634130.421,-1.953,39.062,33.203,8.301,66.895,0
1553634130.425,17.578,45.410,32.227,27.832,-29.785,0
1553634130.429,27.344,52.246,23.926,2.930,-27.832,0
1553634130.433,1.465,51.758,16.113,19.531,34.180,0
1553634130.437,6.836,60.547,12.207,56.152,30.273,0
1553634130.441,27.344,58.105,20.996,24.414,9.277,0
1553634130.445,57.129,51.758,31.250,28.809,50.781,0
1553634130.449,47.363,52.246,31.250,41.992,78.125,0
1553634130.453,20.020,47.363,31.738,72.754,50.293,0
1553634130.457,37.598,47.363,28.809,49.805,68.359,0
1553634130.460,28.320,56.641,21.484,39.062,72.266,0
1553634130.464,46.387,56.641,29.297,87.891,83.008,0
1553634130.468,53.223,48.340,38.086,55.664,101.074,0
1553634130.472,9.766,49.805,29.785,38.574,55.664,0
1553634130.476,23.438,58.105,22.949,78.613,73.730,0
1553634130.480,30.762,49.805,30.273,51.270,83.008,0
1553634130.484,32.715,49.805,29.785,37.109,35.156,0
1553634130.488,26.367,63.965,17.578,34.180,24.414,0
1553634130.492,47.852,62.988,24.902,57.617,110.352,0
1553634130.496,54.688,45.410,31.738,45.410,140.625,0
1553634130.499,13.672,44.922,21.484,-15.625,116.211,0
1553634130.503,8.789,58.594,20.020,12.695,150.391,0
1553634130.507,64.453,62.012,25.391,61.035,130.859,0
1553634130.511,52.246,55.176,32.227,89.844,54.688,0
1553634130.515,-7.324,41.016,34.180,78.125,45.898,0
1553634130.519,-14.648,34.180,30.762,2.930,70.312,0
1553634130.523,-23.438,39.062,21.973,-18.066,69.824,0
1553634130.527,13.184,46.387,20.996,7.324,51.758,0
1553634130.531,36.133,52.246,22.949,27.832,34.180,0
1553634130.535,5.371,47.852,23.438,24.902,73.242,0
1553634130.539,7.812,42.969,24.414,25.391,66.895,0
1553634130.542,52.246,51.270,20.508,28.809,80.078,0
1553634130.546,66.406,58.594,16.113,20.996,142.578,0
1553634130.550,23.926,51.270,21.484,46.875,119.629,0
1553634130.554,13.672,49.805,25.879,55.664,86.914,0
1553634130.558,26.855,49.805,28.320,59.082,71.777,0
1553634130.562,25.391,42.969,26.855,25.391,89.355,0
1553634130.566,38.574,51.758,14.160,14.160,104.492,0
1553634130.570,30.273,56.641,16.113,39.551,21.484,0
1553634130.574,-15.625,46.387,20.996,75.684,31.738,0
1553634130.578,7.324,39.551,26.367,78.125,74.707,0
1553634130.582,48.828,44.434,31.250,-0.977,83.984,0
1553634130.585,57.129,50.781,23.438,9.277,58.105,0
1553634130.589,45.898,47.852,14.648,58.105,-17.578,0
1553634130.593,5.859,42.480,20.020,60.547,22.949,0
1553634130.597,7.324,47.852,18.066,9.766,81.543,0
1553634130.601,25.391,58.105,13.672,14.648,38.086,0
1553634130.605,14.160,48.340,28.320,65.918,19.531,0
1553634130.609,-29.297,34.668,30.762,31.738,56.152,0
1553634130.613,-4.395,42.480,29.785,-2.441,116.699,0
1553634130.617,39.062,51.758,30.273,34.668,83.008,0
1553634130.621,44.922,56.641,22.949,43.457,44.922,0
1553634130.624,36.621,49.805,15.625,18.555,68.359,0
1553634130.628,26.367,38.574,15.137,20.020,63.477,0
1553634130.632,40.527,43.945,28.809,42.480,47.852,0
1553634130.636,15.625,50.781,41.016,44.922,98.633,0
1553634130.640,-13.184,41.992,42.480,6.836,146.484,0
1553634130.644,15.625,42.969,35.645,20.996,178.711,0
1553634130.648,66.406,50.293,27.832,55.176,133.789,0
1553634130.652,40.527,36.133,37.109,55.176,133.789,0
1553634130.656,28.809,36.621,46.387,38.086,169.922,0
1553634130.660,45.898,43.945,44.922,45.898,163.574,0
1553634130.664,37.109,41.504,44.434,72.266,170.898,0
1553634130.667,52.734,46.387,31.738,78.125,170.410,0
1553634130.671,47.852,49.805,25.391,47.852,158.203,0
1553634130.675,78.613,47.363,40.527,48.340,177.734,0
1553634130.679,92.285,48.340,45.410,102.051,200.195,0
1553634130.683,55.664,47.363,44.922,81.543,175.293,0
1553634130.687,29.785,41.992,48.828,58.594,113.770,0
1553634130.691,45.410,43.945,41.504,78.125,104.492,0
1553634130.695,88.867,47.363,47.852,87.402,100.586,0
1553634130.699,59.082,41.992,49.316,84.961,125.000,0
1553634130.703,51.758,42.969,36.621,69.824,100.586,0
1553634130.707,62.012,50.293,42.480,67.383,70.801,0
1553634130.710,75.195,54.688,40.039,55.664,93.750,0
1553634130.714,66.895,47.852,40.039,63.965,113.770,0
1553634130.718,41.992,42.969,43.945,93.262,81.543,0
1553634130.722,53.223,50.293,37.109,65.430,59.570,0
1553634130.726,28.809,48.828,36.133,63.477,110.840,0
1553634130.730,16.113,45.410,35.645,29.297,155.762,0
1553634130.734,60.547,55.664,35.645,54.688,185.059,0
1553634130.738,64.941,61.523,36.133,72.266,213.379,0
1553634130.742,41.504,69.336,34.180,83.008,206.543,0
1553634130.746,60.547,83.496,33.691,76.172,235.840,0
1553634130.749,52.246,86.426,33.203,77.148,263.184,0
1553634130.753,31.738,87.891,25.879,40.039,267.090,0
1553634130.757,38.574,87.402,28.809,1.953,284.668,0
1553634130.761,63.477,92.773,36.133,73.730,283.203,0
1553634130.765,34.180,85.938,35.156,63.965,322.266,0
1553634130.769,0.488,79.590,29.297,20.020,348.145,0
1553634130.773,18.555,85.938,23.926,45.898,363.770,0
1553634130.777,24.414,85.449,22.949,53.711,396.973,0
1553634130.781,23.926,85.449,27.832,29.785,428.223,0
1553634130.785,47.363,89.355,29.297,38.574,453.125,0
1553634130.789,55.176,86.914,29.785,52.246,433.105,0
1553634130.792,41.504,89.844,23.926,57.129,470.703,0
1553634130.796,32.227,81.543,22.949,53.223,506.836,0
1553634130.800,66.895,73.242,26.367,62.500,466.309,0
1553634130.804,73.242,107.422,19.043,69.824,477.539,0
1553634130.808,20.996,124.512,18.555,88.379,480.957,0
1553634130.812,23.438,110.352,17.578,57.129,404.297,0
1553634130.816,52.246,103.516,12.695,24.414,404.297,0
1553634130.820,35.156,101.074,17.090,36.133,412.598,0
1553634130.824,35.156,106.445,14.648,20.508,358.398,0
1553634130.828,47.852,107.910,11.719,58.105,331.543,0
1553634130.832,31.738,103.516,12.207,78.125,328.613,0
1553634130.835,58.105,102.051,15.137,134.766,296.875,0
1553634130.839,68.359,104.004,17.578,82.031,278.809,0
1553634130.843,53.711,100.098,13.184,11.230,290.527,0
1553634130.847,48.340,96.191,8.789,44.922,299.805,0
1553634130.851,37.598,98.633,11.719,68.848,320.312,0
1553634130.855,37.109,94.727,19.043,81.055,321.289,0
1553634130.859,40.527,89.355,24.414,54.688,265.625,0
1553634130.863,38.086,86.426,18.066,55.664,250.977,0
1553634130.867,33.203,86.426,11.230,48.828,283.691,0
1553634130.871,35.645,88.379,13.184,44.434,263.184,0
1553634130.874,43.457,89.844,15.137,48.340,265.137,0
1553634130.878,39.551,87.891,18.555,76.172,233.398,0
1553634130.882,35.645,86.426,21.973,64.453,216.797,0
1553634130.886,54.199,89.844,22.949,35.645,256.836,0
1553634130.890,82.520,92.285,25.391,114.746,256.836,0
1553634130.894,32.715,86.914,18.066,83.984,246.094,0
1553634130.898,4.395,82.031,14.160,0.977,264.648,0
1553634130.902,28.809,85.938,19.531,41.016,250.000,0
1553634130.906,35.156,84.473,22.949,84.961,251.953,0
1553634130.910,32.227,73.242,27.832,106.445,264.648,0
1553634130.914,35.645,77.148,29.785,81.543,265.137,0
1553634130.917,40.039,87.402,26.855,75.195,252.441,0
1553634130.921,31.250,80.078,24.902,104.004,288.086,0
1553634130.925,28.809,82.520,23.438,83.984,253.418,0
1553634130.929,38.574,88.867,19.043,54.199,208.008,0
1553634130.933,33.691,83.984,18.555,57.129,217.285,0
1553634130.937,38.574,83.008,20.508,67.871,182.617,0
1553634130.941,38.574,83.008,27.344,107.910,167.480,0
1553634130.945,42.480,86.914,24.902,48.828,179.199,0
1553634130.949,43.457,85.938,20.508,63.965,135.254,0
1553634130.953,50.781,82.031,24.902,92.285,118.164,0
1553634130.957,34.668,84.473,21.484,57.129,104.004,0
1553634130.960,29.297,82.520,17.090,44.434,84.473,0
1553634130.964,60.059,82.520,22.949,35.645,83.496,0
1553634130.968,29.297,84.961,22.461,41.992,61.523,0
1553634130.972,33.203,83.008,17.090,91.309,22.461,0
1553634130.976,71.289,88.867,19.043,69.336,7.324,0
1553634130.980,41.504,86.426,13.672,32.715,-1.465,0
1553634130.984,-6.836,73.730,15.137,14.648,-8.789,0
1553634130.988,50.293,82.520,20.020,55.176,20.508,0
1553634130.992,90.820,91.309,14.648,77.637,-19.043,0
1553634130.996,40.527,83.008,16.602,39.062,-77.637,0
1553634130.999,22.461,80.078,15.137,70.801,-93.750,0
1553634131.003,20.996,83.496,8.789,41.504,-118.164,0
1553634131.007,6.836,77.637,13.672,16.113,-113.281,0
1553634131.011,-5.859,74.219,16.602,27.344,-87.891,0
1553634131.015,26.367,82.520,12.695,62.012,-148.438,0
1553634131.019,68.848,86.426,13.672,62.500,-184.570,0
1553634131.023,69.824,82.520,15.625,21.484,-160.645,0
1553634131.027,31.250,76.172,17.090,43.457,-179.688,0
1553634131.031,5.859,73.730,20.996,77.637,-197.754,0
1553634131.035,20.508,74.219,19.531,95.215,-198.242,0
1553634131.039,37.109,80.566,9.766,36.621,-179.688,0
1553634131.042,31.250,80.566,15.137,5.371,-207.031,0
1553634131.046,18.066,77.148,20.996,59.082,-223.633,0
1553634131.050,50.781,76.660,17.578,34.180,-180.176,0
1553634131.054,39.551,74.707,20.508,33.203,-190.430,0
1553634131.058,13.672,71.289,26.367,75.684,-185.547,0
1553634131.062,24.414,69.336,28.320,82.031,-187.500,0
1553634131.066,40.527,75.195,29.297,79.590,-166.504,0
1553634131.070,82.031,83.008,30.762,63.965,-174.805,0
1553634131.074,15.625,76.660,16.113,59.570,-195.312,0
1553634131.078,-6.348,66.895,17.578,53.711,-168.457,0
1553634131.082,40.527,70.312,24.414,9.277,-181.152,0
1553634131.085,9.277,76.660,18.555,6.348,-164.062,0
1553634131.089,-9.277,69.824,20.996,38.086,-158.691,0
1553634131.093,3.906,72.266,24.902,77.148,-180.176,0
1553634131.097,12.207,76.660,26.367,34.668,-158.691,0
1553634131.101,13.184,78.125,20.020,25.879,-178.711,0
1553634131.105,64.453,75.195,15.137,111.328,-195.312,0
1553634131.109,99.121,62.500,37.109,116.699,-184.082,0
1553634131.113,15.137,63.477,53.711,28.320,-175.781,0
1553634131.117,19.531,67.383,45.898,60.547,-183.105,0
1553634131.121,26.367,68.359,41.016,26.855,-176.270,0
1553634131.124,-5.371,61.035,48.340,27.344,-164.062,0
1553634131.128,33.203,56.152,61.523,104.980,-176.758,0
1553634131.132,25.879,49.805,69.824,62.988,-155.762,0
1553634131.136,-30.273,42.969,63.965,25.879,-155.762,0
1553634131.140,-32.227,50.781,56.641,26.367,-153.320,0
1553634131.144,20.996,50.781,62.500,18.555,-167.480,0
1553634131.148,30.762,35.156,67.383,25.391,-179.199,0
1553634131.152,43.457,34.180,67.383,103.027,-144.043,0
1553634131.156,16.113,34.180,65.430,101.074,-149.902,0
1553634131.160,1.953,28.809,62.500,21.973,-155.762,0
1553634131.164,9.277,30.762,64.453,78.125,-125.000,0
1553634131.167,45.898,33.691,58.105,83.008,-101.562,0
1553634131.171,29.297,33.203,49.316,60.059,-84.961,0
1553634131.175,-8.301,32.227,57.129,56.152,-96.191,0
1553634131.179,14.160,34.668,57.617,32.715,-47.363,0
1553634131.183,30.762,40.039,50.781,12.695,-22.461,0
1553634131.187,31.250,45.410,50.293,22.461,-58.105,0
1553634131.191,38.574,52.246,50.293,59.082,-82.031,0
1553634131.195,55.664,55.664,49.805,61.035,-96.191,0
1553634131.199,41.992,50.293,51.270,81.055,-60.059,0
1553634131.203,50.293,49.316,54.199,118.652,-50.293,0
1553634131.207,33.691,55.176,55.664,97.656,-56.152,0
1553634131.210,48.340,63.965,53.223,32.715,-59.570,0
1553634131.214,62.012,69.824,50.293,18.555,-66.406,0
1553634131.218,46.387,67.871,50.781,66.895,-47.363,0
1553634131.222,35.156,68.848,57.129,49.316,-81.543,0
1553634131.226,26.855,73.242,54.688,56.641,-95.215,0
1553634131.230,49.805,74.707,50.781,101.074,-87.402,0
1553634131.234,82.520,69.824,62.988,63.965,-76.172,0
1553634131.238,84.473,70.801,64.941,69.336,-47.852,0
1553634131.242,0.977,73.242,46.875,77.637,-72.754,0
1553634131.246,22.461,73.242,40.527,16.113,-63.477,0
1553634131.249,61.523,63.477,48.340,40.527,-40.039,0
1553634131.253,12.695,55.176,54.199,83.008,-81.055,0
1553634131.257,36.133,68.848,58.594,75.195,-83.984,0
1553634131.261,53.711,75.684,48.340,59.570,-65.918,0
1553634131.265,41.016,70.801,33.691,21.973,-97.168,0
1553634131.269,46.875,68.359,36.621,39.062,-84.961,0
1553634131.273,22.949,64.941,42.969,116.699,-66.895,0
1553634131.277,29.785,72.266,40.039,79.590,-84.473,0
1553634131.281,44.434,75.684,36.133,41.016,-66.895,0
1553634131.285,38.574,71.289,40.039,70.801,-77.637,0
1553634131.289,27.832,68.359,40.039,31.250,-71.777,0
1553634131.292,12.695,67.871,31.738,27.344,-23.926,0
1553634131.296,48.340,55.176,37.109,75.684,-25.391,0
1553634131.300,48.828,52.734,68.359,106.934,-61.523,0
1553634131.304,-21.484,67.871,67.383,41.016,-15.625,0
1553634131.308,-7.812,69.336,52.246,0.977,24.414,0
1553634131.312,19.043,62.500,68.359,16.602,-7.812,0
1553634131.316,-39.062,56.152,72.266,-1.953,4.883,0
1553634131.320,-67.871,55.664,61.035,19.043,-1.953,0
1553634131.324,-34.668,57.617,69.336,10.254,6.348,0
1553634131.328,-34.180,63.477,67.383,-26.367,25.879,0
1553634131.332,-53.223,59.570,65.430,-14.648,15.137,0
1553634131.335,-45.898,54.199,74.707,-2.930,-12.695,0
1553634131.339,-52.246,53.711,59.082,-22.461,-0.488,0
1553634131.343,-57.129,47.363,61.035,5.859,9.277,0
1553634131.347,-56.152,31.738,76.660,-0.977,44.922,0
1553634131.351,-26.855,43.945,63.477,21.484,34.668,0
1553634131.355,-22.949,59.082,51.758,26.367,12.207,0
1553634131.359,-32.227,53.711,57.617,-11.230,77.148,0
1553634131.363,-43.457,51.758,56.152,4.883,118.652,0
1553634131.367,-16.113,48.340,53.711,24.414,67.383,0
1553634131.371,41.992,48.340,61.523,50.293,46.875,0
1553634131.374,-14.648,48.340,62.012,57.129,68.359,0
1553634131.378,-59.570,50.293,56.152,2.441,57.129,0
1553634131.382,-8.789,64.453,47.363,-12.207,17.090,0
1553634131.386,33.691,70.312,44.922,75.684,22.949,0
1553634131.390,28.320,51.758,62.012,70.312,53.223,0
1553634131.394,12.695,40.527,64.941,7.812,65.430,0
1553634131.398,13.184,53.711,55.176,82.031,65.430,0
1553634131.402,29.297,53.223,55.664,61.523,68.848,0
1553634131.406,46.875,45.410,63.477,38.086,94.727,0
1553634131.410,50.781,56.641,57.617,87.891,73.242,0
1553634131.414,42.969,62.012,56.152,110.840,68.848,0
1553634131.417,18.555,50.781,58.105,59.570,75.195,0
1553634131.421,17.090,50.781,57.617,38.086,75.195,0
1553634131.425,67.871,55.176,62.500,99.121,43.457,0
1553634131.429,84.473,49.805,56.641,118.164,41.016,0
1553634131.433,45.410,48.828,60.059,91.309,50.781,0
1553634131.437,-9.277,50.781,58.105,25.391,30.762,0
1553634131.441,4.395,52.734,56.641,26.855,44.434,0
1553634131.445,23.926,50.781,55.664,35.156,41.504,0
1553634131.449,13.672,54.688,49.805,37.109,33.691,0
1553634131.453,-0.977,54.688,50.293,68.848,70.312,0
1553634131.457,24.902,52.734,51.270,57.617,81.055,0
1553634131.460,25.391,57.129,50.781,40.039,64.453,0
1553634131.464,36.621,56.152,50.781,94.727,70.312,0
1553634131.468,37.598,53.711,59.570,147.461,49.316,0
1553634131.472,31.738,61.523,53.711,52.246,42.969,0
1553634131.476,66.406,59.570,42.969,18.066,43.945,0
1553634131.480,50.293,63.477,53.223,43.945,46.875,0
1553634131.484,-18.066,67.383,63.477,47.852,32.227,0
1553634131.488,-0.488,50.781,66.895,41.016,22.949,0
1553634131.492,35.645,56.152,62.988,15.625,54.688,0
1553634131.496,-13.672,62.012,64.453,56.641,54.199,0
1553634131.499,6.836,55.664,69.824,58.594,62.988,0
1553634131.503,-10.742,51.270,66.406,-5.371,93.262,0
1553634131.507,-42.969,51.758,59.082,68.848,70.801,0
1553634131.511,-16.602,57.617,58.594,74.219,44.922,0
1553634131.515,14.648,49.805,66.406,13.184,10.742,0
1553634131.519,54.688,49.316,65.430,31.738,-23.438,0
1553634131.523,8.301,42.969,63.965,27.832,26.367,0
1553634131.527,-21.484,38.574,64.941,83.496,95.703,0
1553634131.531,20.996,54.199,47.363,99.609,37.598,0
1553634131.535,37.109,55.664,42.969,45.898,-27.344,0
1553634131.539,22.949,45.410,57.129,38.574,52.734,0
1553634131.542,18.555,48.828,51.758,0.488,65.430,0
1553634131.546,8.789,51.758,48.828,38.086,21.973,0
1553634131.550,9.766,50.293,51.758,75.195,20.996,0
1553634131.554,22.461,53.711,52.734,75.684,7.812,0
1553634131.558,53.223,57.617,48.340,97.168,34.668,0
1553634131.562,32.715,52.246,47.852,30.273,0.977,0
1553634131.566,20.508,49.316,46.875,25.391,23.926,0
1553634131.570,29.785,52.734,44.434,55.664,40.039,0
1553634131.574,26.855,51.758,41.016,53.711,35.645,0
1553634131.578,66.406,69.336,28.809,42.969,28.320,0
1553634131.582,37.109,63.965,31.738,-16.113,-16.113,0
1553634131.585,-27.344,32.715,59.082,20.508,86.426,0
1553634131.589,-24.902,35.156,62.012,70.312,101.074,0
1553634131.593,-8.301,43.457,49.316,80.566,-0.977,0
1553634131.597,19.043,43.945,46.387,74.219,13.184,0
1553634131.601,28.809,52.734,38.086,7.324,17.090,0
1553634131.605,41.504,56.641,36.133,33.691,-14.648,0
1553634131.609,-5.859,54.199,39.062,43.457,-9.766,0
1553634131.613,3.906,58.594,40.039,6.836,2.930,0
1553634131.617,52.246,50.293,42.969,35.156,3.418,0
1553634131.621,3.418,48.828,40.039,41.016,4.883,0
1553634131.624,4.883,56.152,40.039,36.621,58.105,0
1553634131.628,18.066,51.270,41.016,-5.859,108.398,0
1553634131.632,60.059,57.617,34.180,17.090,86.914,0
1553634131.636,27.832,54.688,34.180,97.168,55.176,0
1553634131.640,3.418,43.945,41.992,58.594,23.438,0
1553634131.644,40.527,57.129,36.133,45.410,38.086,0
1553634131.648,47.363,64.453,33.691,54.688,57.617,0
1553634131.652,52.246,59.570,41.016,12.695,24.414,0
1553634131.656,39.551,52.734,44.922,-3.418,10.254,0
1553634131.660,27.344,49.316,50.293,30.762,16.602,0
1553634131.664,21.484,53.711,53.223,59.082,66.406,0
1553634131.667,20.020,53.223,49.316,34.180,64.941,0
1553634131.671,-10.254,47.363,54.199,46.387,79.590,0
1553634131.675,8.301,55.664,47.363,51.758,76.660,0
1553634131.679,62.988,64.453,47.852,78.613,55.176,0
1553634131.683,38.574,51.270,61.035,46.387,27.832,0
1553634131.687,17.090,45.410,51.758,45.410,25.391,0
1553634131.691,64.941,56.152,47.852,76.172,64.453,0
1553634131.695,49.316,57.617,55.176,35.156,72.266,0
1553634131.699,12.207,45.898,52.246,9.277,24.902,0
1553634131.703,-5.371,49.316,43.457,54.688,25.391,0
1553634131.707,55.664,62.500,43.945,94.238,30.273,0
1553634131.710,66.895,63.477,46.387,81.055,22.461,0
1553634131.714,3.418,51.270,49.316,61.035,35.156,0
1553634131.718,-13.184,44.434,50.781,51.758,55.176,0
1553634131.722,20.020,52.734,46.387,83.008,63.477,0
1553634131.726,27.344,58.105,45.410,-7.324,53.711,0
1553634131.730,1.953,52.246,53.223,-2.930,43.457,0
1553634131.734,10.254,59.570,42.480,56.152,39.062,0
1553634131.738,13.672,64.941,27.344,36.133,61.523,0
1553634131.742,47.852,55.664,35.645,45.898,45.410,0
1553634131.746,89.355,71.289,39.551,79.102,50.293,0
1553634131.749,67.383,90.820,39.551,41.992,99.121,0
1553634131.753,17.090,87.402,32.715,67.871,50.293,0
1553634131.757,-19.043,72.266,20.996,71.289,22.461,0
1553634131.761,1.465,76.660,21.973,-29.785,66.406,0
1553634131.765,31.738,89.355,10.254,-7.812,74.219,0
1553634131.769,45.410,96.191,9.766,7.324,67.871,0
1553634131.773,124.023,105.957,3.906,29.297,24.902,0
1553634131.777,104.980,92.773,-2.930,53.223,16.602,0
1553634131.781,-5.859,83.496,-9.766,26.855,57.129,0
1553634131.785,88.867,97.168,-26.855,69.824,51.270,0
1553634131.789,153.320,106.934,-38.086,106.934,29.785,0
1553634131.792,58.594,108.887,-39.551,37.598,57.129,0
1553634131.796,81.543,110.352,-34.668,39.062,69.336,0
1553634131.800,143.555,97.656,-32.715,50.781,1.953,0
1553634131.804,96.191,89.355,-35.156,97.168,3.418,0
1553634131.808,67.871,105.957,-51.270,84.473,41.504,0
1553634131.812,102.051,112.793,-44.922,-45.410,60.059,0
1553634131.816,98.633,92.285,-19.043,3.418,57.129,0
1553634131.820,49.316,88.379,-21.484,82.031,28.320,0
1553634131.824,74.707,103.027,-24.902,35.156,60.059,0
1553634131.828,103.027,95.215,-16.602,71.777,52.246,0
1553634131.832,109.375,93.262,-16.602,98.633,35.645,0
1553634131.835,112.305,98.633,-17.090,17.578,54.199,0
1553634131.839,52.734,82.031,-18.066,11.230,50.781,0
1553634131.843,43.945,80.566,-9.766,44.922,45.898,0
1553634131.847,115.723,97.168,-0.488,91.797,29.297,0
1553634131.851,103.516,92.773,-2.441,11.230,30.273,0
1553634131.855,22.949,79.590,4.395,17.090,41.016,0
1553634131.859,36.133,76.660,10.254,96.191,48.340,0
1553634131.863,119.141,84.961,2.930,66.406,74.219,0
1553634131.867,81.543,83.008,-1.953,10.254,106.934,0
1553634131.871,0.488,70.801,-4.395,5.371,72.266,0
1553634131.874,79.102,71.289,9.766,81.055,63.477,0
1553634131.878,123.047,80.566,18.066,70.312,116.699,0
1553634131.882,27.832,77.637,17.578,27.344,114.258,0
1553634131.886,37.109,67.871,18.066,58.105,120.605,0
1553634131.890,68.848,62.500,20.508,104.492,113.281,0
1553634131.894,19.531,63.965,11.230,-5.371,131.836,0
1553634131.898,54.688,77.148,10.254,27.832,137.207,0
1553634131.902,57.617,73.242,24.902,91.309,154.785,0
1553634131.906,-2.441,67.383,16.113,36.133,190.430,0
1553634131.910,-4.395,69.824,14.648,54.688,202.148,0
1553634131.914,32.715,58.594,26.855,41.992,182.617,0
1553634131.917,61.523,57.617,32.227,40.527,182.129,0
1553634131.921,49.805,62.988,29.785,60.059,233.887,0
1553634131.925,27.344,65.430,27.832,26.367,248.535,0
1553634131.929,46.875,71.777,11.719,9.766,241.699,0
1553634131.933,85.449,68.359,19.043,94.238,230.469,0
1553634131.937,86.426,82.031,39.551,117.676,234.375,0
1553634131.941,45.898,78.125,36.621,58.105,267.578,0
1553634131.945,21.973,52.734,34.180,52.246,294.922,0
1553634131.949,13.184,56.641,38.086,51.270,278.320,0
1553634131.953,6.836,81.543,30.273,-5.859,274.902,0
1553634131.957,41.016,83.008,22.949,49.316,284.180,0
1553634131.960,37.109,66.406,22.949,24.902,268.555,0
1553634131.964,4.883,66.895,22.461,64.453,295.410,0
1553634131.968,39.551,78.613,26.367,63.965,295.898,0
1553634131.972,62.012,73.730,35.156,-2.441,280.762,0
1553634131.976,17.578,62.012,35.645,59.082,262.695,0
1553634131.980,14.160,64.941,26.855,51.758,261.230,0
1553634131.984,38.574,64.941,31.250,33.691,282.715,0
1553634131.988,28.809,55.176,41.504,21.973,244.629,0
1553634131.992,23.926,61.035,36.621,34.180,218.750,0
1553634131.996,51.758,77.148,32.715,61.523,244.141,0
1553634131.999,68.848,62.988,36.133,36.133,245.117,0
1553634132.003,20.020,48.340,41.016,24.902,223.145,0
1553634132.007,-22.461,55.664,26.855,-7.324,222.656,0
1553634132.011,42.969,71.289,23.926,22.949,204.102,0
1553634132.015,70.312,62.500,41.504,88.867,166.992,0
1553634132.019,17.090,52.246,37.109,37.598,171.875,0
1553634132.023,42.480,68.359,31.250,54.199,190.430,0
1553634132.027,59.082,74.707,29.297,69.336,166.016,0
1553634132.031,31.250,72.266,21.973,1.465,138.184,0
1553634132.035,36.621,66.895,35.156,23.438,132.324,0
1553634132.039,20.996,54.199,43.457,57.617,144.531,0
1553634132.042,44.922,57.129,36.621,121.094,131.348,0
1553634132.046,51.270,55.664,45.410,61.035,107.910,0
1553634132.050,18.555,56.641,41.504,-47.363,87.891,0
1553634132.054,-7.324,65.430,34.180,7.324,92.285,0
1553634132.058,2.930,61.035,39.551,55.176,89.844,0
1553634132.062,55.176,62.988,33.691,2.930,63.477,0
1553634132.066,53.711,64.453,39.062,12.695,34.668,0
1553634132.070,-22.461,61.523,32.227,11.230,38.086,0
1553634132.074,-19.043,66.406,16.113,-14.160,53.711,0
1553634132.078,15.625,56.641,32.227,25.391,46.875,0
1553634132.082,9.766,55.664,41.016,65.918,31.738,0
1553634132.085,9.277,59.082,42.969,64.941,6.836,0
1553634132.089,9.277,62.012,36.133,36.133,-3.418,0
1553634132.093,29.297,68.848,22.461,27.832,8.789,0
1553634132.097,35.156,66.406,27.344,9.766,-31.250,0
1553634132.101,16.602,51.758,38.086,7.812,-57.617,0
1553634132.105,57.617,60.059,35.645,42.480,-59.570,0
1553634132.109,52.734,77.148,23.438,53.711,-48.828,0
1553634132.113,40.527,64.453,32.715,28.809,-43.457,0
1553634132.117,4.883,47.363,42.480,68.359,-68.848,0
1553634132.121,27.832,60.059,37.109,105.957,-87.402,0
1553634132.124,47.852,77.637,22.949,55.176,-95.215,0
1553634132.128,13.184,72.754,17.578,9.766,-88.867,0
1553634132.132,24.414,54.199,39.062,33.691,-74.219,0
1553634132.136,49.316,56.152,40.039,57.617,-55.176,0
1553634132.140,59.082,69.824,23.926,37.109,-64.453,0
1553634132.144,19.531,71.289,13.672,-6.836,-82.520,0
1553634132.148,32.227,66.406,20.996,16.602,-83.008,0
1553634132.152,36.621,60.547,37.109,57.129,-94.727,0
1553634132.156,1.953,60.547,27.344,29.785,-82.520,0
1553634132.160,41.992,60.059,31.250,28.320,-107.910,0
1553634132.164,76.660,71.777,28.320,21.973,-125.000,0
1553634132.167,74.707,70.801,6.836,52.734,-113.770,0
1553634132.171,65.430,46.875,37.109,57.617,-108.887,0
1553634132.175,31.250,49.805,59.570,36.133,-115.723,0
1553634132.179,10.742,64.941,40.527,30.762,-105.957,0
1553634132.183,36.621,57.617,44.434,33.203,-102.051,0
1553634132.187,17.090,44.922,52.734,34.668,-119.141,0
1553634132.191,29.785,57.617,40.039,-1.465,-122.070,0
1553634132.195,80.078,66.406,37.598,39.062,-156.738,0
1553634132.199,-0.488,48.828,44.922,31.738,-151.855,0
1553634132.203,-28.809,47.363,44.434,-4.883,-117.188,0
1553634132.207,52.246,54.199,45.898,21.484,-135.254,0
1553634132.210,20.508,45.898,44.434,51.758,-128.906,0
1553634132.214,-18.066,57.129,27.344,48.340,-125.000,0
1553634132.218,19.043,70.312,27.344,-4.883,-173.828,0
1553634132.222,25.879,59.570,34.180,-8.301,-162.598,0
1553634132.226,58.594,62.988,30.762,-5.859,-88.379,0
1553634132.230,35.645,61.035,32.715,39.551,-106.934,0
1553634132.234,-16.602,57.617,28.809,62.988,-142.090,0
1553634132.238,3.418,59.082,25.391,-15.137,-95.215,0
1553634132.242,53.711,61.523,30.273,-4.395,-86.914,0
1553634132.246,53.223,68.359,35.156,50.293,-93.750,0
1553634132.249,19.043,57.129,32.715,42.969,-82.520,0
1553634132.253,70.312,62.988,29.785,20.508,-65.918,0
1553634132.257,8.301,62.988,28.809,1.953,-59.570,0
1553634132.261,-21.484,57.617,30.273,-4.883,-58.105,0
1553634132.265,44.434,72.266,26.367,52.734,-104.980,0
1553634132.269,50.781,67.383,33.203,76.660,-110.352,0
1553634132.273,41.992,60.547,36.133,43.457,-11.719,0
1553634132.277,-1.953,56.641,30.273,47.363,23.438,0
1553634132.281,0.488,58.105,26.855,-22.949,-76.660,0
1553634132.285,26.367,70.312,33.203,-5.371,-11.719,0
1553634132.289,52.246,68.359,37.109,80.078,9.766,0
1553634132.292,32.715,62.500,22.461,72.754,-25.391,0
1553634132.296,15.137,59.082,27.832,9.277,-27.832,0
1553634132.300,13.184,65.430,28.809,-27.832,-77.148,0
1553634132.304,13.184,66.406,33.203,66.406,-99.121,0
1553634132.308,20.508,51.758,45.410,104.492,-69.824,0
1553634132.312,-6.348,61.035,22.461,-42.969,9.766,0
1553634132.316,-10.742,68.848,20.020,-56.641,-11.230,0
1553634132.320,25.879,62.500,32.227,7.812,-24.902,0
1553634132.324,60.547,70.801,27.832,66.895,-42.969,0
1553634132.328,34.668,78.125,20.508,50.293,-52.246,0
1553634132.332,20.020,71.289,30.273,-15.137,-22.949,0
1553634132.335,18.066,61.035,37.109,-6.348,1.465,0
1553634132.339,-40.039,52.246,42.480,2.930,53.711,0
1553634132.343,-19.043,55.176,41.992,-9.766,4.883,0
1553634132.347,35.645,66.895,28.320,12.695,-18.066,0
1553634132.351,25.391,60.059,39.551,70.801,20.996,0
1553634132.355,41.992,57.129,49.316,55.176,-24.414,0
1553634132.359,45.898,63.965,30.273,-56.641,-18.555,0
1553634132.363,-8.789,47.852,37.109,-9.766,-28.320,0
1553634132.367,-36.133,46.875,43.457,24.902,-36.133,0
1553634132.371,18.555,59.082,32.715,-10.254,9.766,0
1553634132.374,54.199,58.594,38.574,23.926,-10.254,0
1553634132.378,16.113,56.641,42.480,49.316,-10.742,0
1553634132.382,47.363,60.059,36.133,3.418,33.203,0
1553634132.386,30.762,55.664,43.945,-20.020,41.992,0
1553634132.390,6.836,57.129,41.992,19.043,10.254,0
1553634132.394,51.758,57.617,41.992,13.672,48.828,0
1553634132.398,55.176,49.805,54.199,17.578,40.527,0
1553634132.402,16.113,57.617,36.133,18.066,1.465,0
1553634132.406,5.371,62.988,27.344,1.953,34.180,0
1553634132.410,26.367,60.059,36.133,23.438,-9.277,0
1553634132.414,37.598,59.570,33.691,20.996,-8.301,0
1553634132.417,52.246,60.059,35.156,4.883,94.727,0
1553634132.421,47.852,60.059,36.621,21.484,38.086,0
1553634132.425,29.785,57.129,40.527,-3.418,-12.695,0
1553634132.429,35.645,46.875,47.852,-17.090,55.176,0
1553634132.433,38.574,48.340,46.387,-2.441,79.102,0
1553634132.437,27.344,51.270,47.363,39.551,19.043,0
1553634132.441,50.293,50.781,48.828,45.898,-8.789,0
1553634132.445,56.152,52.734,47.363,19.043,32.227,0
1553634132.449,44.434,50.293,49.805,29.785,52.734,0
1553634132.453,60.059,46.387,55.176,64.941,17.578,0
1553634132.457,69.336,49.805,47.852,73.730,32.227,0
1553634132.460,51.758,48.828,44.434,1.465,72.754,0
1553634132.464,52.246,43.945,56.152,87.402,47.363,0
1553634132.468,83.008,45.410,56.641,123.047,62.988,0
1553634132.472,68.848,48.828,54.688,13.672,139.648,0
1553634132.476,50.293,42.969,60.547,30.273,97.168,0
1553634132.480,62.500,40.527,62.988,62.988,26.367,0
1553634132.484,64.941,45.410,57.129,55.664,97.168,0
1553634132.488,91.309,46.875,57.617,43.945,53.711,0
1553634132.492,93.262,40.527,67.383,53.711,-31.738,0
1553634132.496,58.105,41.992,67.383,46.875,26.367,0
1553634132.499,68.359,46.875,61.523,57.617,76.172,0
1553634132.503,85.938,44.434,63.965,129.883,52.734,0
1553634132.507,100.586,41.016,69.824,140.137,19.043,0
1553634132.511,53.711,38.086,71.777,43.457,70.312,0
1553634132.515,20.020,37.109,77.148,-6.348,120.117,0
1553634132.519,51.758,36.133,81.055,-11.230,60.547,0
1553634132.523,72.266,34.668,79.102,86.914,45.898,0
1553634132.527,66.895,41.016,72.754,146.484,26.367,0
1553634132.531,63.965,43.945,67.383,18.066,50.781,0
1553634132.535,62.012,36.621,72.266,12.207,79.590,0
1553634132.539,44.434,30.762,72.266,16.602,42.969,0
1553634132.542,58.105,22.461,73.730,80.566,32.715,0
1553634132.546,90.820,39.062,64.453,141.602,42.480,0
1553634132.550,83.496,67.383,48.340,56.152,105.957,0
1553634132.554,37.109,55.664,55.664,2.930,92.773,0
1553634132.558,28.809,29.297,69.336,0.977,30.762,0
1553634132.562,31.738,20.508,66.895,65.430,25.391,0
1553634132.566,43.457,31.738,48.828,48.828,76.172,0
1553634132.570,77.148,45.410,31.738,-17.090,61.035,0
1553634132.574,37.598,32.227,36.133,33.203,80.566,0
1553634132.578,52.246,20.020,41.504,38.574,65.430,0
1553634132.582,79.102,41.504,35.156,19.531,0.000,0
1553634132.585,83.496,61.523,36.133,63.477,30.273,0
1553634132.589,83.008,61.035,45.898,19.531,9.277,0
1553634132.593,37.598,51.270,55.176,14.160,-5.859,0
1553634132.597,32.715,47.363,52.246,24.414,-7.324,0
1553634132.601,48.340,48.828,44.922,19.531,-35.645,0
1553634132.605,39.551,47.363,42.480,44.922,-12.207,0
1553634132.609,57.617,41.992,37.598,23.926,13.672,0
1553634132.613,76.660,37.598,36.133,35.645,56.152,0
1553634132.617,49.316,31.738,35.156,100.098,47.852,0
1553634132.621,53.711,29.785,22.461,68.848,62.012,0
1553634132.624,70.801,31.250,16.113,7.812,77.637,0
1553634132.628,49.316,20.020,32.715,43.457,34.668,0
1553634132.632,51.758,11.719,42.969,39.551,55.664,0
1553634132.636,63.965,11.719,44.922,37.598,62.988,0
1553634132.640,38.086,10.254,49.805,59.570,32.227,0
1553634132.644,35.156,15.137,46.387,55.664,48.828,0
1553634132.648,66.895,19.531,39.551,7.812,72.754,0
1553634132.652,77.148,16.602,43.457,46.875,23.438,0
1553634132.656,41.992,3.418,52.246,54.688,81.543,0
1553634132.660,31.738,-2.441,55.664,10.254,125.488,0
1553634132.664,30.273,0.000,55.176,42.480,45.410,0
1553634132.667,31.250,-1.465,57.129,72.754,7.812,0
1553634132.671,53.223,-3.906,59.082,14.648,52.734,0
1553634132.675,53.711,-10.254,63.477,54.199,37.109,0
1553634132.679,17.578,-24.414,75.195,86.914,41.504,0
1553634132.683,-3.906,-25.391,76.172,7.324,112.793,0
1553634132.687,26.855,-21.484,70.801,-17.090,96.191,0
1553634132.691,9.277,-23.438,74.219,3.906,104.004,0
1553634132.695,37.109,-21.973,70.801,44.434,77.637,0
1553634132.699,49.316,-26.367,74.219,84.473,41.992,0
1553634132.703,22.461,-16.602,67.871,49.805,80.566,0
1553634132.707,51.270,-9.277,62.988,40.039,48.340,0
1553634132.710,47.363,-19.043,69.824,59.082,70.312,0
1553634132.714,53.223,-20.508,66.895,41.016,117.188,0
1553634132.718,31.250,-33.691,75.195,46.875,47.363,0
1553634132.722,15.625,-29.297,75.195,10.254,-0.488,0
1553634132.726,30.762,-20.508,76.172,20.508,59.570,0
1553634132.730,63.477,-25.879,83.496,67.871,123.535,0
1553634132.734,62.988,-21.484,84.961,53.223,83.984,0
1553634132.738,82.520,-23.926,92.285,38.086,2.441,0
1553634132.742,69.824,-29.297,97.656,86.914,-4.883,0
1553634132.746,44.434,-21.973,98.145,66.406,68.848,0
1553634132.749,65.430,-17.578,92.773,22.461,127.930,0
1553634132.753,55.176,-20.020,93.750,82.031,68.848,0
1553634132.757,48.828,-23.438,95.215,82.520,4.395,0
1553634132.761,72.754,-20.508,91.309,17.090,32.227,0
1553634132.765,47.852,-23.926,104.980,39.551,31.738,0
1553634132.769,18.066,-28.320,108.398,-1.953,83.008,0
1553634132.773,25.879,-18.555,98.145,121.094,83.984,0
1553634132.777,47.363,-17.090,91.309,154.785,-11.719,0
1553634132.781,52.246,-17.578,91.309,6.836,31.250,0
1553634132.785,43.457,-21.973,102.051,85.449,67.871,0
1553634132.789,3.418,-35.156,112.305,65.430,59.082,0
1553634132.792,9.277,-26.367,107.910,67.383,109.863,0
1553634132.796,44.434,-21.973,100.586,75.684,77.148,0
1553634132.800,-8.301,-28.320,102.539,31.250,57.617,0
1553634132.804,-10.742,-20.508,98.145,79.590,109.375,0
1553634132.808,34.668,-20.020,91.309,32.227,67.383,0
1553634132.812,25.391,-24.902,86.426,81.055,45.410,0
1553634132.816,22.461,-24.414,84.961,102.539,99.609,0
1553634132.820,26.367,-20.508,86.426,3.418,95.215,0
1553634132.824,11.719,-24.414,91.797,80.566,38.086,0
1553634132.828,32.227,-25.391,95.215,132.812,64.941,0
1553634132.832,27.344,-17.578,70.312,82.520,98.633,0
1553634132.835,2.441,-29.297,20.508,61.523,79.102,0
1553634132.839,-14.648,-42.969,13.184,50.293,75.195,0
1553634132.843,0.488,-37.109,23.926,48.828,90.820,0
1553634132.847,35.645,-37.109,28.809,48.340,88.867,0
1553634132.851,-29.297,-44.434,34.668,82.031,97.656,0
1553634132.855,19.531,-37.598,29.297,146.973,99.121,0
1553634132.859,51.270,-31.250,22.461,102.539,64.941,0
1553634132.863,-8.301,-39.551,25.879,34.668,91.797,0
1553634132.867,-7.812,-49.805,43.457,5.859,52.734,0
1553634132.871,-24.414,-58.105,49.805,43.457,31.738,0
1553634132.874,-60.059,-61.035,44.434,153.320,81.055,0
1553634132.878,-20.996,-58.105,38.574,91.797,110.352,0
1553634132.882,-24.902,-66.406,38.574,0.488,87.891,0
1553634132.886,-43.945,-70.801,38.086,58.105,115.723,0
1553634132.890,-36.133,-74.219,35.156,84.961,158.203,0
1553634132.894,-38.086,-88.379,48.828,133.789,178.223,0
1553634132.898,-45.898,-98.633,52.734,97.656,196.289,0
1553634132.902,-71.289,-101.074,45.898,-14.648,202.637,0
1553634132.906,-107.910,-103.027,48.340,-3.418,257.812,0
1553634132.910,-117.188,-108.887,59.082,51.270,299.316,0
1553634132.914,-89.844,-107.422,60.547,72.754,288.574,0
1553634132.917,-77.148,-115.723,56.152,58.105,313.965,0
1553634132.921,-71.289,-124.023,62.012,92.285,315.430,0
1553634132.925,-76.660,-124.512,68.359,130.859,313.965,0
1553634132.929,-104.980,-127.930,66.895,73.730,347.168,0
1553634132.933,-69.824,-122.070,63.965,-10.742,296.387,0
1553634132.937,-60.059,-137.207,79.590,24.902,283.691,0
1553634132.941,-114.746,-137.207,84.473,94.727,324.219,0
1553634132.945,-114.258,-116.211,72.266,3.418,299.805,0
1553634132.949,-137.207,-133.301,87.402,42.969,267.578,0
1553634132.953,-101.074,-135.254,88.867,74.219,288.086,0
1553634132.957,-100.098,-126.465,77.637,35.156,270.508,0
1553634132.960,-144.531,-123.535,81.543,97.168,266.113,0
1553634132.964,-115.234,-120.117,78.125,57.617,267.090,0
1553634132.968,-101.562,-123.535,72.754,16.113,255.371,0
1553634132.972,-82.520,-128.418,73.730,28.320,255.371,0
1553634132.976,-116.211,-130.371,71.777,21.484,258.789,0
1553634132.980,-106.445,-123.535,71.777,69.824,277.344,0
1553634132.984,-62.012,-129.883,77.637,80.078,270.020,0
1553634132.988,-63.477,-125.488,74.219,74.219,291.504,0
1553634132.992,-77.637,-110.840,62.988,62.500,291.504,0
1553634132.996,-90.820,-121.582,66.406,70.801,248.047,0
1553634132.999,-84.473,-120.117,71.289,89.355,284.180,0
1553634133.003,-86.426,-103.516,64.941,59.082,324.219,0
1553634133.007,-34.180,-97.168,62.012,71.289,298.828,0
1553634133.011,-37.109,-108.887,73.730,147.461,283.203,0
1553634133.015,-54.199,-112.305,85.449,117.188,274.902,0
1553634133.019,10.254,-98.145,83.008,156.250,236.816,0
1553634133.023,-25.879,-89.355,72.266,174.316,204.590,0
1553634133.027,-35.645,-83.008,69.336,143.555,215.820,0
1553634133.031,-50.781,-94.727,85.449,160.645,223.145,0
1553634133.035,-79.590,-96.191,94.238,92.285,205.566,0
1553634133.039,-60.547,-90.332,94.727,118.652,147.461,0
1553634133.042,-51.758,-89.355,98.145,158.691,123.047,0
1553634133.046,-5.859,-75.195,105.469,149.902,114.746,0
1553634133.050,13.672,-69.824,107.422,171.875,118.652,0
1553634133.054,-35.645,-70.801,109.375,168.457,102.539,0
1553634133.058,-45.898,-60.547,117.188,125.977,59.570,0
1553634133.062,-48.828,-57.129,108.887,120.117,62.500,0
1553634133.066,-83.496,-69.824,125.000,190.918,65.918,0
1553634133.070,-87.402,-74.707,162.109,144.531,52.734,0
1553634133.074,-6.836,-58.105,156.250,113.770,43.945,0
1553634133.078,-14.648,-49.805,109.863,145.508,62.012,0
1553634133.082,-65.430,-49.316,82.031,127.441,59.570,0
1553634133.085,-54.688,-47.852,76.172,76.660,34.668,0
1553634133.089,6.348,-49.805,68.359,76.172,45.898,0
1553634133.093,6.348,-62.988,76.172,162.598,35.156,0
1553634133.097,-51.270,-59.570,72.266,114.258,28.320,0
1553634133.101,-20.508,-42.969,55.176,58.105,57.129,0
1553634133.105,10.254,-42.480,60.059,234.863,52.246,0
1553634133.109,-10.742,-41.504,46.875,180.176,20.996,0
1553634133.113,-26.855,-41.992,39.062,57.129,28.320,0
1553634133.117,-29.785,-47.852,39.062,103.027,27.832,0
1553634133.121,-1.953,-37.109,38.574,103.027,-9.277,0
1553634133.124,2.441,-28.809,41.016,159.668,-18.066,0
1553634133.128,2.930,-31.738,32.227,111.816,-25.879,0
1553634133.132,38.086,-43.945,51.270,65.918,-50.293,0
1553634133.136,18.555,-46.875,62.988,118.164,-17.090,0
1553634133.140,13.184,-41.504,61.523,201.172,-38.574,0
1553634133.144,16.602,-34.668,66.895,141.602,-53.223,0
1553634133.148,-61.035,-30.762,68.359,69.336,-18.555,0
1553634133.152,4.883,-30.762,76.172,98.633,-37.109,0
1553634133.156,27.344,-28.320,75.195,162.109,-26.367,0
1553634133.160,-54.199,-27.832,63.477,125.488,-9.766,0
1553634133.164,7.812,-21.973,68.848,64.453,-37.109,0
1553634133.167,63.965,-23.438,88.867,145.020,-40.039,0
1553634133.171,-9.277,-29.297,101.074,112.793,-0.488,0
1553634133.175,-15.137,-28.809,112.305,125.977,-16.602,0
1553634133.179,3.418,-20.508,97.656,176.270,-26.367,0
1553634133.183,-4.883,-15.625,75.195,95.703,-18.066,0
1553634133.187,-2.930,-21.484,86.426,74.219,-31.738,0
1553634133.191,-13.672,-9.766,95.215,148.926,-57.617,0
1553634133.195,32.715,-13.672,101.074,182.129,-101.562,0
1553634133.199,36.621,-20.996,96.680,128.906,-103.027,0
1553634133.203,10.254,-18.066,94.238,129.395,-72.754,0
1553634133.207,6.836,-18.555,107.422,195.801,-77.148,0
1553634133.210,55.176,-0.488,90.820,177.734,-98.145,0
1553634133.214,66.895,1.465,93.750,160.645,-91.797,0
1553634133.218,29.297,-17.090,120.605,162.109,-102.051,0
1553634133.222,32.227,-20.020,106.445,188.965,-109.375,0
1553634133.226,27.344,-10.254,95.703,173.828,-92.773,0
1553634133.230,23.438,-6.348,103.516,133.789,-112.305,0
1553634133.234,22.949,-5.859,103.027,191.406,-102.539,0
1553634133.238,57.129,6.836,90.820,183.594,-110.352,0
1553634133.242,70.312,6.348,96.191,185.547,-136.230,0
1553634133.246,24.414,-8.301,104.004,178.223,-101.074,0
1553634133.249,5.859,-4.395,89.844,153.809,-49.805,0
1553634133.253,85.938,8.789,92.773,172.852,-96.680,0
1553634133.257,59.082,0.488,109.863,241.699,-144.043,0
1553634133.261,11.719,-7.812,108.398,270.020,-130.371,0
1553634133.265,53.223,3.418,95.703,219.727,-117.676,0
1553634133.269,37.598,4.883,91.797,161.133,-116.699,0
1553634133.273,14.648,-2.930,93.750,201.660,-113.281,0
1553634133.277,76.172,1.953,93.750,245.605,-112.793,0
1553634133.281,68.359,3.418,88.867,170.898,-125.000,0
1553634133.285,20.508,2.441,79.590,188.965,-137.207,0
1553634133.289,7.812,1.953,80.566,180.664,-119.141,0
1553634133.292,13.672,-5.859,85.449,156.250,-97.168,0
1553634133.296,23.926,-4.395,82.520,182.129,-73.242,0
1553634133.300,16.602,-0.977,74.707,221.191,-75.195,0
1553634133.304,12.207,-7.812,69.336,198.242,-62.012,0
1553634133.308,46.387,-14.160,68.848,209.961,-54.688,0
1553634133.312,76.660,12.695,65.430,244.629,-78.613,0
1553634133.316,20.020,27.344,59.082,210.938,-62.500,0
1553634133.320,17.090,9.766,56.152,201.660,-83.496,0
1553634133.324,33.203,14.648,57.617,187.988,-107.910,0
1553634133.328,-4.395,18.555,59.570,153.809,-38.086,0
1553634133.332,2.930,10.254,67.871,173.828,-46.387,0
1553634133.335,2.441,7.324,70.801,198.730,-78.125,0
1553634133.339,6.836,20.508,59.082,198.730,-49.805,0
1553634133.343,26.367,18.555,63.477,197.754,-32.227,0
1553634133.347,58.105,12.207,73.242,256.836,-44.922,0
1553634133.351,26.367,12.695,79.590,259.277,-81.543,0
1553634133.355,-11.230,4.883,83.496,175.781,-102.539,0
1553634133.359,12.207,1.953,85.938,164.551,-42.969,0
1553634133.363,40.527,6.836,83.984,184.570,7.324,0
1553634133.367,41.504,8.789,83.984,208.008,3.906,0
1553634133.371,7.324,8.789,85.449,169.434,12.207,0
1553634133.374,17.090,2.441,87.891,206.055,1.465,0
1553634133.378,17.090,3.418,88.379,204.102,-16.113,0
1553634133.382,38.574,8.301,85.938,173.828,-20.508,0
1553634133.386,41.504,3.906,90.820,160.156,-98.145,0
1553634133.390,-10.742,-4.395,99.609,227.539,-79.590,0
1553634133.394,4.883,2.441,90.820,211.426,-22.461,0
1553634133.398,26.855,7.324,84.961,182.617,-36.621,0
1553634133.402,13.184,6.836,86.914,181.641,14.648,0
1553634133.406,37.109,4.395,79.102,168.945,42.969,0
1553634133.410,33.691,-3.418,83.008,226.562,26.367,0
1553634133.414,14.160,1.465,83.008,130.859,23.926,0
1553634133.417,46.387,10.254,77.637,104.004,59.082,0
1553634133.421,21.484,3.906,79.102,120.605,45.410,0
1553634133.425,11.230,1.953,84.961,97.656,6.836,0
1553634133.429,19.531,7.324,86.914,100.098,17.090,0
1553634133.433,2.441,2.441,90.332,104.004,18.555,0
1553634133.437,-9.277,-1.953,95.215,124.023,31.738,0
1553634133.441,18.555,7.324,86.426,76.172,35.645,0
1553634133.445,39.062,10.254,86.426,39.551,-3.906,0
1553634133.449,38.574,9.277,88.867,27.344,-45.410,0
1553634133.453,21.973,16.113,82.031,74.707,20.996,0
1553634133.457,26.367,19.531,84.473,92.285,10.254,0
1553634133.460,45.410,13.672,87.402,63.477,-12.207,0
1553634133.464,-6.836,2.441,96.680,68.848,96.191,0
1553634133.468,-8.789,11.230,98.145,53.223,50.293,0
1553634133.472,31.738,23.926,90.332,41.016,-13.184,0
1553634133.476,5.371,18.555,95.703,47.852,36.133,0
1553634133.480,-0.977,17.090,96.191,40.039,45.898,0
1553634133.484,37.109,20.020,96.191,84.961,31.250,0
1553634133.488,38.086,22.461,94.238,53.711,43.945,0
1553634133.492,27.344,19.531,101.074,92.285,71.777,0
1553634133.496,42.480,28.320,104.492,111.328,70.312,0
1553634133.499,32.715,45.898,96.680,14.648,11.719,0
1553634133.503,35.645,42.480,97.656,29.785,21.973,0
1553634133.507,19.043,32.227,91.797,29.785,78.613,0
1553634133.511,-2.930,33.691,86.914,7.812,32.715,0
1553634133.515,28.809,41.504,102.051,105.469,28.809,0
1553634133.519,42.969,45.410,111.816,137.695,118.652,0
1553634133.523,31.250,46.387,98.145,42.480,61.035,0
1553634133.527,47.363,51.270,96.191,32.715,12.695,0
1553634133.531,31.250,50.781,111.816,19.531,35.645,0
1553634133.535,0.000,61.035,105.469,28.320,1.953,0
1553634133.539,23.438,71.289,93.750,84.961,6.836,0
1553634133.542,69.336,67.871,121.094,72.754,-7.812,0
1553634133.546,27.832,71.289,135.254,15.137,26.367,0
1553634133.550,-14.160,78.613,114.746,-4.395,32.227,0
1553634133.554,-35.645,83.008,132.812,1.465,46.875,0
1553634133.558,-23.926,85.938,179.688,-22.949,51.758,0
1553634133.562,34.180,84.961,192.383,-7.324,-29.785,0
1553634133.566,4.883,75.684,202.148,76.660,-8.301,0
1553634133.570,-2.930,80.566,197.266,23.438,58.594,0
1553634133.574,20.996,80.566,181.641,0.977,51.758,0
1553634133.578,3.418,90.820,170.898,10.742,22.461,0
1553634133.582,28.320,104.492,159.180,4.395,16.602,0
1553634133.585,20.020,78.613,167.969,6.836,8.789,0
1553634133.589,-40.039,63.965,165.039,12.207,48.828,0
1553634133.593,-29.297,71.777,142.578,-6.836,65.918,0
1553634133.597,20.508,78.125,131.348,-1.465,25.391,0
1553634133.601,25.879,75.684,127.930,49.316,16.602,0
1553634133.605,8.301,66.895,115.234,-26.367,32.715,0
1553634133.609,-23.926,66.895,100.586,-24.902,25.879,0
1553634133.613,17.578,76.172,95.215,78.613,54.199,0
1553634133.617,52.246,75.195,89.355,44.434,44.922,0
1553634133.621,32.227,64.941,70.801,18.555,79.102,0
1553634133.624,8.301,63.477,59.082,56.152,89.844,0
1553634133.628,58.105,65.430,54.688,46.875,81.543,0
1553634133.632,74.707,56.641,51.758,66.406,56.641,0
1553634133.636,58.594,70.801,40.039,88.867,54.688,0
1553634133.640,47.852,79.102,20.996,19.531,108.398,0
1553634133.644,33.203,66.406,14.648,-18.066,98.145,0
1553634133.648,-15.625,58.594,15.137,72.754,53.223,0
1553634133.652,-17.090,60.547,8.789,52.246,9.766,0
1553634133.656,30.273,64.941,2.930,13.672,53.223,0
1553634133.660,27.832,55.176,0.488,88.379,60.547,0
1553634133.664,34.180,54.199,-7.812,41.992,19.043,0
1553634133.667,70.801,56.641,-6.348,27.344,33.203,0
1553634133.671,20.020,52.734,-0.488,138.672,59.082,0
1553634133.675,-3.906,60.547,-24.414,81.543,0.488,0
1553634133.679,54.199,64.941,-34.668,29.785,64.941,0
1553634133.683,37.598,61.523,-21.973,25.391,127.930,0
1553634133.687,6.348,52.246,-19.531,20.996,99.121,0
1553634133.691,45.898,49.316,-21.484,31.738,60.547,0
1553634133.695,31.250,54.199,-25.391,52.246,-13.672,0
1553634133.699,21.973,52.246,-23.926,157.227,1.953,0
1553634133.703,52.246,55.664,-31.250,126.953,-45.410,0
1553634133.707,54.199,58.594,-36.133,11.230,-32.715,0
1553634133.710,30.762,51.270,-29.297,37.598,48.828,0
1553634133.714,38.086,55.176,-28.320,74.219,-24.414,0
1553634133.718,99.609,57.617,-29.297,102.051,-48.828,0
1553634133.722,71.289,52.734,-34.668,83.496,44.922,0
1553634133.726,16.602,50.293,-38.574,101.562,72.754,0
1553634133.730,42.969,53.223,-38.086,129.395,19.531,0
1553634133.734,64.453,56.641,-39.551,61.523,68.359,0
1553634133.738,41.992,54.688,-34.180,55.664,94.238,0
1553634133.742,44.922,52.246,-23.926,64.941,9.766,0
1553634133.746,56.641,54.199,-23.438,54.688,12.695,0
1553634133.749,37.109,50.293,-23.926,42.480,94.238,0
1553634133.753,23.438,48.828,-22.949,104.492,48.340,0
1553634133.757,39.551,57.129,-24.414,138.672,8.301,0
1553634133.761,72.266,56.152,-23.438,62.500,26.367,0
1553634133.765,44.434,49.805,-20.996,-7.324,55.176,0
1553634133.769,37.109,47.363,-8.789,39.551,68.359,0
1553634133.773,85.938,56.152,-2.441,130.859,47.852,0
1553634133.777,77.637,63.477,-11.719,86.914,59.570,0
1553634133.781,67.871,62.012,-10.254,42.969,124.512,0
1553634133.785,91.797,59.082,7.324,91.309,117.188,0
1553634133.789,37.598,59.082,3.418,69.336,35.156,0
1553634133.792,-17.090,57.617,-6.348,-1.465,42.480,0
1553634133.796,2.441,58.594,-3.906,44.922,76.172,0
1553634133.800,46.387,61.523,5.371,69.824,-25.391,0
1553634133.804,83.008,62.988,11.719,86.426,-56.152,0
1553634133.808,64.453,61.523,3.906,78.613,18.066,0
1553634133.812,29.785,61.035,0.000,35.645,5.371,0
1553634133.816,22.949,62.500,5.859,46.875,5.371,0
1553634133.820,67.383,63.477,11.230,126.465,43.945,0
1553634133.824,46.387,56.641,12.207,132.324,34.668,0
1553634133.828,33.691,64.941,3.418,31.250,26.367,0
1553634133.832,33.691,71.777,-2.930,16.113,55.664,0
1553634133.835,29.785,64.453,-1.953,66.406,26.855,0
1553634133.839,69.336,63.477,3.906,86.426,27.344,0
1553634133.843,84.473,61.035,10.742,36.133,13.672,0
1553634133.847,67.383,78.125,-3.418,21.973,28.809,0
1553634133.851,36.621,76.660,-2.441,54.688,27.344,0
1553634133.855,7.324,54.688,8.789,32.715,-47.852,0
1553634133.859,-27.832,56.152,0.000,23.926,-42.480,0
1553634133.863,23.438,63.477,7.324,63.477,57.617,0
1553634133.867,38.086,60.547,8.789,69.336,58.105,0
1553634133.871,-0.488,56.152,-12.695,64.453,57.129,0
1553634133.874,28.809,57.617,-10.742,56.152,93.262,0
1553634133.878,57.617,63.477,-6.348,18.066,63.965,0
1553634133.882,21.484,59.570,-11.719,33.203,43.945,0
1553634133.886,31.250,52.246,-8.301,55.176,80.078,0
1553634133.890,51.270,54.688,-2.441,39.551,79.590,0
1553634133.894,42.480,61.035,-7.324,42.480,41.504,0
1553634133.898,61.523,61.523,-8.301,30.273,54.199,0
1553634133.902,29.297,58.105,-14.648,1.465,68.359,0
1553634133.906,-13.184,52.246,-8.789,79.102,68.359,0
1553634133.910,21.484,59.082,-0.488,57.129,78.613,0
1553634133.914,47.852,67.383,-11.230,-20.020,37.109,0
1553634133.917,15.137,58.105,-9.277,13.672,7.812,0
1553634133.921,21.484,62.012,-3.906,53.223,126.465,0
1553634133.925,67.871,67.383,-6.348,49.805,100.098,0
1553634133.929,83.008,59.082,-10.254,45.410,51.758,0
1553634133.933,37.598,61.035,-20.020,32.715,101.562,0
1553634133.937,4.395,62.500,-25.879,-20.996,59.570,0
1553634133.941,26.367,60.547,-12.695,-0.488,67.871,0
1553634133.945,35.156,59.082,-14.160,49.316,100.098,0
1553634133.949,1.953,55.664,-21.973,1.953,70.801,0
1553634133.953,-16.602,61.035,-23.926,7.812,28.320,0
1553634133.957,41.016,60.059,-22.949,50.781,33.691,0
1553634133.960,69.336,64.941,-25.391,14.160,71.777,0
1553634133.964,6.836,62.500,-32.715,-11.719,85.449,0
1553634133.968,4.395,54.688,-26.367,-16.113,36.621,0
1553634133.972,23.926,63.477,-24.414,-1.465,46.875,0
1553634133.976,35.156,65.918,-21.973,33.691,70.801,0
1553634133.980,43.457,63.965,-29.297,34.668,40.527,0
1553634133.984,23.438,57.129,-31.738,17.090,0.977,0
1553634133.988,39.551,54.199,-24.902,89.844,40.039,0
1553634133.992,29.297,75.195,-38.086,41.992,17.578,0
1553634133.996,4.395,86.914,-44.922,-56.152,39.062,0
1553634133.999,31.250,64.453,-36.133,3.418,86.426,0
1553634134.003,23.438,60.547,-31.250,-8.301,82.520,0
1553634134.007,6.836,65.918,-25.879,-29.785,39.062,0
1553634134.011,24.414,72.266,-24.414,42.969,20.996,0
1553634134.015,46.875,75.684,-24.902,78.613,39.551,0
1553634134.019,33.203,68.848,-28.809,38.574,15.137,0
1553634134.023,16.113,65.430,-30.273,8.789,61.035,0
1553634134.027,12.207,64.941,-33.691,-32.715,76.660,0
1553634134.031,1.953,62.988,-37.109,-16.113,15.137,0
1553634134.035,22.461,64.941,-28.809,24.902,57.617,0
1553634134.039,56.641,66.406,-22.949,35.645,135.742,0
1553634134.042,44.922,67.871,-26.855,16.602,42.480,0
1553634134.046,72.754,66.406,-26.367,14.160,-9.277,0
1553634134.050,59.570,59.570,-24.414,45.898,-8.301,0
1553634134.054,2.930,63.965,-33.691,48.340,-45.410,0
1553634134.058,41.504,71.289,-24.902,10.254,-7.324,0
1553634134.062,51.758,64.941,-20.508,-0.488,36.133,0
1553634134.066,4.883,56.641,-35.156,5.371,48.828,0
1553634134.070,34.668,61.523,-32.715,5.371,67.383,0
1553634134.074,52.734,64.453,-28.320,9.766,89.844,0
1553634134.078,15.625,61.035,-28.320,8.789,96.191,0
1553634134.082,27.344,63.477,-31.738,17.090,72.754,0
1553634134.085,33.203,64.453,-33.691,15.137,6.836,0
1553634134.089,40.039,62.988,-27.832,10.742,81.543,0
1553634134.093,36.621,62.500,-30.273,52.246,111.328,0
1553634134.097,26.855,62.012,-34.668,42.969,50.293,0
1553634134.101,14.160,59.570,-34.180,6.836,36.133,0
1553634134.105,13.672,62.500,-28.809,46.875,24.902,0
1553634134.109,44.434,71.289,-29.297,21.484,78.613,0
1553634134.113,49.805,65.430,-28.320,18.066,37.109,0
1553634134.117,26.855,57.617,-33.691,7.324,-0.488,0
1553634134.121,28.809,60.547,-40.039,-9.277,88.867,0
1553634134.124,23.926,59.570,-32.715,16.113,73.242,0
1553634134.128,32.715,62.012,-26.855,36.133,2.930,0
1553634134.132,48.828,60.059,-26.367,14.648,61.523,0
1553634134.136,34.180,53.711,-29.297,4.395,106.934,0
1553634134.140,45.898,59.570,-30.762,26.367,5.859,0
1553634134.144,33.203,65.430,-31.738,35.156,-56.641,0
1553634134.148,29.297,62.988,-32.715,9.766,42.480,0
1553634134.152,37.109,62.500,-32.715,31.738,26.367,0
1553634134.156,29.297,67.383,-36.621,17.578,-8.789,0
1553634134.160,56.641,69.336,-31.250,20.996,19.531,0
1553634134.164,65.918,64.453,-26.855,42.969,-27.832,0
1553634134.167,20.020,56.152,-20.020,11.230,9.277,0
1553634134.171,22.949,56.152,-19.531,-4.395,63.965,0
1553634134.175,48.828,62.988,-26.855,11.230,72.754,0
1553634134.179,44.922,63.965,-28.320,25.879,96.191,0
1553634134.183,34.180,62.012,-25.879,32.715,108.887,0
1553634134.187,37.109,61.523,-25.391,55.176,63.477,0
1553634134.191,37.598,62.500,-28.809,27.832,14.160,0
1553634134.195,36.133,65.918,-29.297,-1.953,63.477,0
1553634134.199,35.645,62.500,-25.879,33.203,41.504,0
1553634134.203,79.102,61.035,-35.156,70.801,0.000,0
1553634134.207,92.773,56.641,-26.367,56.641,61.035,0
1553634134.210,14.160,51.758,-8.301,-3.418,85.449,0
1553634134.214,-3.906,61.523,-23.926,-14.160,25.391,0
1553634134.218,26.855,61.523,-28.320,16.602,-3.418,0
1553634134.222,9.766,54.688,-16.113,38.086,30.762,0
1553634134.226,26.367,56.641,-21.484,37.598,11.719,0
1553634134.230,45.410,57.129,-25.391,24.414,-11.230,0
1553634134.234,37.598,54.688,-22.949,20.996,51.270,0
1553634134.238,35.645,55.176,-20.996,42.969,78.125,0
1553634134.242,32.227,58.105,-20.996,62.500,55.176,0
1553634134.246,31.250,59.082,-21.484,57.617,69.336,0
1553634134.249,38.574,58.105,-21.484,46.875,60.547,0
1553634134.253,29.785,57.617,-21.484,33.203,17.578,0
1553634134.257,20.508,56.641,-18.555,30.762,17.090,0
1553634134.261,34.180,59.082,-21.484,26.855,-3.906,0
1553634134.265,52.246,62.012,-22.949,23.438,1.465,0
1553634134.269,23.438,57.617,-19.043,37.598,70.801,0
1553634134.273,15.137,60.547,-21.484,42.969,39.062,0
1553634134.277,46.875,64.453,-23.438,40.039,22.461,0
1553634134.281,31.738,63.965,-22.461,49.316,64.453,0
1553634134.285,4.395,65.918,-25.391,42.480,43.945,0
1553634134.289,23.438,67.383,-25.391,42.969,12.695,0
1553634134.292,17.578,68.359,-24.902,50.781,62.012,0
1553634134.296,9.766,70.801,-23.438,52.734,41.016,0
1553634134.300,28.320,76.172,-24.414,22.949,-5.371,0
1553634134.304,57.617,70.312,-13.672,10.742,21.484,0
1553634134.308,52.246,74.707,-7.812,63.965,35.645,0
1553634134.312,-2.930,80.078,-13.184,91.309,36.621,0
1553634134.316,-21.973,77.148,-20.508,-5.859,92.285,0
1553634134.320,-24.414,81.543,-21.973,-61.523,69.336,0
1553634134.324,17.578,92.285,4.883,-1.953,23.438,0
1553634134.328,-25.391,104.492,13.184,-33.691,45.410,0
1553634134.332,-105.469,97.168,9.766,-85.938,42.480,0
1553634134.335,-116.211,99.121,22.461,-91.309,0.488,0
1553634134.339,-124.023,109.863,33.203,-94.727,24.414,0
1553634134.343,-133.301,118.652,36.133,-126.953,91.797,0
1553634134.347,-147.461,115.723,41.016,-172.363,142.090,0
1553634134.351,-196.777,110.840,44.922,-192.871,142.578,0
1553634134.355,-192.871,123.535,41.992,-196.777,129.395,0
1553634134.359,-180.176,118.164,46.387,-183.105,69.336,0
1553634134.363,-180.176,107.422,50.293,-150.879,58.105,0
1553634134.367,-170.898,111.816,50.781,-145.020,31.250,0
1553634134.371,-170.410,107.910,52.734,-183.105,47.363,0
1553634134.374,-161.133,105.469,41.016,-151.367,101.562,0
1553634134.378,-143.066,103.027,32.227,-125.000,21.484,0
1553634134.382,-143.066,97.168,29.785,-156.250,48.828,0
1553634134.386,-98.633,92.773,20.020,-141.113,120.605,0
1553634134.390,-65.918,83.984,17.578,-92.285,83.008,0
1553634134.394,-92.285,74.219,15.625,-42.969,63.477,0
1553634134.398,-67.383,67.871,4.395,-53.223,79.102,0
1553634134.402,-23.438,66.406,-4.395,-6.836,38.574,0
1553634134.406,7.324,62.500,-7.812,0.488,71.777,0
1553634134.410,34.180,55.664,-9.766,-36.621,103.027,0
1553634134.414,29.785,56.641,-16.602,18.555,81.543,0
1553634134.417,35.645,54.199,-18.555,77.148,54.688,0
1553634134.421,69.824,52.246,-22.461,72.754,40.527,0
1553634134.425,80.566,48.828,-26.855,23.438,37.109,0
1553634134.429,66.895,45.410,-30.762,70.801,7.812,0
1553634134.433,88.379,46.387,-33.691,79.102,23.438,0
1553634134.437,98.633,43.457,-33.691,83.984,57.617,0
1553634134.441,96.191,46.387,-37.109,82.031,48.828,0
1553634134.445,96.680,48.340,-35.645,65.918,57.617,0
1553634134.449,92.285,45.898,-37.109,83.008,59.082,0
1553634134.453,119.629,44.434,-35.645,128.906,50.781,0
1553634134.457,114.746,43.457,-35.645,132.324,92.773,0
1553634134.460,98.633,43.457,-38.574,79.102,44.922,0
1553634134.464,102.051,39.551,-34.668,100.586,-0.488,0
1553634134.468,99.121,37.109,-33.691,109.863,-6.836,0
1553634134.472,101.074,40.527,-35.156,84.961,23.438,0
1553634134.476,94.238,41.016,-36.133,94.727,41.504,0
1553634134.480,78.125,38.086,-33.203,119.629,17.090,0
1553634134.484,86.914,41.992,-37.109,70.801,24.902,0
1553634134.488,97.168,46.387,-40.527,49.805,-1.953,0
1553634134.492,91.309,44.434,-38.086,83.008,6.836,0
1553634134.496,89.844,44.922,-40.039,70.312,30.273,0
1553634134.499,95.703,48.340,-39.551,93.750,17.578,0
1553634134.503,93.262,48.828,-40.039,87.891,7.812,0
1553634134.507,91.797,47.852,-42.480,58.105,16.602,0
1553634134.511,91.797,42.969,-35.645,103.516,4.395,0
1553634134.515,79.102,47.363,-35.156,109.863,-7.324,0
1553634134.519,89.355,53.223,-41.016,75.684,37.109,0
1553634134.523,79.102,50.781,-40.527,74.219,47.363,0
1553634134.527,76.172,52.734,-40.527,67.871,-10.742,0
1553634134.531,83.984,55.176,-36.621,99.609,20.996,0
1553634134.535,59.570,51.758,-32.227,78.125,40.039,0
1553634134.539,62.988,49.805,-30.762,31.738,71.777,0
1553634134.542,58.105,50.293,-29.297,28.809,118.652,0
1553634134.546,64.453,51.758,-33.203,47.363,36.621,0
1553634134.550,60.059,51.270,-32.227,40.527,58.594,0
1553634134.554,41.504,51.270,-29.297,38.574,120.117,0
1553634134.558,52.734,56.641,-30.273,45.410,82.520,0
1553634134.562,83.008,53.711,-26.855,76.660,12.207,0
1553634134.566,82.031,52.246,-26.367,69.824,2.441,0
1553634134.570,52.246,57.129,-26.855,57.129,69.824,0
1553634134.574,51.270,60.059,-25.391,64.453,104.492,0
1553634134.578,63.965,61.035,-27.344,41.992,139.648,0
1553634134.582,71.289,61.523,-30.273,41.504,59.082,0
1553634134.585,51.758,63.965,-25.391,34.180,16.602,0
1553634134.589,61.523,64.453,-20.996,84.473,111.816,0
1553634134.593,70.312,57.617,-19.531,122.070,53.711,0
1553634134.597,56.641,57.617,-19.531,17.090,50.781,0
1553634134.601,59.570,62.500,-21.484,-0.977,93.750,0
1553634134.605,66.406,63.477,-26.367,51.758,12.695,0
1553634134.609,63.965,57.129,-8.301,66.406,-3.906,0
1553634134.613,28.809,56.152,5.859,68.359,37.598,0
1553634134.617,25.391,65.430,-5.859,67.871,57.129,0
1553634134.621,42.480,62.500,-8.301,20.508,83.984,0
1553634134.624,28.809,62.500,-13.672,-0.488,35.156,0
1553634134.628,34.180,65.918,-10.742,8.789,34.180,0
1553634134.632,48.340,64.941,-7.812,51.758,63.965,0
1553634134.636,48.340,62.500,-8.301,82.031,-4.395,0
1553634134.640,54.199,58.594,-7.812,37.598,33.203,0
1553634134.644,37.598,56.152,-8.789,7.324,114.746,0
1553634134.648,34.668,60.547,-9.277,66.406,125.977,0
1553634134.652,59.570,62.988,-4.395,100.586,41.016,0
1553634134.656,54.688,57.617,-2.930,40.527,28.809,0
1553634134.660,48.828,58.594,-9.277,30.273,30.273,0
1553634134.664,31.738,62.988,-8.789,31.250,20.508,0
1553634134.667,24.902,62.988,-3.418,37.109,40.527,0
1553634134.671,42.480,63.477,-5.371,52.246,52.734,0
1553634134.675,41.016,64.453,-3.906,46.387,77.637,0
1553634134.679,52.246,65.918,-4.395,54.199,29.297,0
1553634134.683,71.289,69.824,-5.859,38.086,25.879,0
1553634134.687,56.641,68.359,-0.977,66.895,50.293,0
1553634134.691,35.645,61.523,2.441,101.074,96.191,0
1553634134.695,31.738,62.988,5.859,31.250,88.379,0
1553634134.699,31.738,69.336,-0.488,29.785,53.223,0
1553634134.703,37.109,67.383,-2.441,62.988,91.309,0
1553634134.707,42.480,68.359,-0.977,21.973,37.109,0
1553634134.710,47.363,68.359,-1.953,15.625,46.387,0
1553634134.714,42.969,65.918,-3.418,38.086,113.281,0
1553634134.718,41.016,66.895,-1.465,45.410,34.180,0
1553634134.722,39.062,62.988,0.488,15.137,24.902,0
1553634134.726,47.852,58.594,1.465,80.566,68.848,0
1553634134.730,34.668,60.547,4.883,118.652,34.180,0
1553634134.734,30.273,63.477,0.000,-6.836,26.855,0
1553634134.738,64.453,68.848,-5.371,6.348,34.668,0
1553634134.742,44.922,71.777,-1.953,59.082,25.391,0
1553634134.746,18.066,71.289,-0.488,10.742,28.320,0
1553634134.749,27.832,66.406,1.953,7.812,87.402,0
1553634134.753,29.297,60.547,6.836,26.367,68.359,0
1553634134.757,38.574,66.406,5.859,54.688,29.785,0
1553634134.761,44.922,67.383,3.906,104.980,7.324,0
1553634134.765,45.898,64.941,4.395,72.266,54.199,0
1553634134.769,36.621,70.312,-0.488,0.977,63.965,0
1553634134.773,37.109,70.312,2.441,23.438,38.086,0
1553634134.777,55.664,69.336,9.277,63.477,47.852,0
1553634134.781,65.918,73.242,3.418,49.316,86.914,0
1553634134.785,74.707,75.195,0.977,56.641,75.195,0
1553634134.789,80.078,71.289,2.930,52.734,-14.160,0
1553634134.792,39.551,66.895,4.883,33.691,25.879,0
1553634134.796,27.344,67.871,2.441,59.570,70.312,0
1553634134.800,57.129,67.383,0.000,49.805,44.922,0
1553634134.804,52.246,61.523,3.418,73.730,-27.832,0
1553634134.808,41.992,68.848,-2.930,51.270,-2.441,0
1553634134.812,65.430,71.777,-6.836,41.016,100.098,0
1553634134.816,75.684,57.129,20.508,76.172,80.078,0
1553634134.820,24.414,58.594,24.902,30.273,65.918,0
1553634134.824,19.531,68.359,6.836,44.922,56.641,0
1553634134.828,41.504,66.406,13.672,72.266,5.859,0
1553634134.832,9.277,57.129,18.555,31.738,-43.945,0
1553634134.835,12.207,55.176,15.137,-1.953,-0.488,0
1553634134.839,24.414,59.570,11.230,36.621,18.555,0
1553634134.843,13.184,63.965,6.348,51.758,-15.625,0
1553634134.847,24.902,63.477,6.836,17.090,32.715,0
1553634134.851,12.695,55.664,10.254,35.156,74.707,0
1553634134.855,18.555,55.176,16.113,37.109,49.316,0
1553634134.859,30.273,60.059,12.207,14.160,84.961,0
1553634134.863,30.762,61.035,7.812,12.695,60.059,0
1553634134.867,40.039,59.570,9.766,42.969,46.875,0
1553634134.871,48.340,60.059,9.766,53.711,99.121,0
1553634134.874,53.223,62.500,10.254,56.641,82.031,0
1553634134.878,27.344,61.523,11.719,24.414,23.438,0
1553634134.882,25.879,59.570,15.137,26.367,57.129,0
1553634134.886,32.715,57.617,14.648,57.617,88.379,0
1553634134.890,-4.395,50.781,14.160,30.273,13.672,0
1553634134.894,-5.371,50.781,16.113,41.992,22.949,0
1553634134.898,20.996,55.664,13.184,34.180,131.348,0
1553634134.902,36.133,60.547,6.836,36.133,92.773,0
1553634134.906,58.594,64.453,4.395,56.641,11.230,0
1553634134.910,51.270,60.547,8.301,34.668,61.523,0
1553634134.914,22.461,58.105,8.301,45.410,83.984,0
1553634134.917,16.602,55.664,6.836,46.875,106.445,0
1553634134.921,7.812,57.129,5.371,4.395,83.984,0
1553634134.925,23.438,59.082,5.859,6.836,61.523,0
1553634134.929,29.785,55.664,8.789,18.066,78.613,0
1553634134.933,17.578,59.082,8.789,30.273,65.918,0
1553634134.937,24.414,64.941,7.324,35.156,20.020,0
1553634134.941,23.926,62.988,7.812,45.898,70.801,0
1553634134.945,28.320,56.152,11.230,74.707,50.781,0
1553634134.949,26.855,57.617,8.301,35.156,8.301,0
1553634134.953,44.922,65.918,3.418,13.184,19.531,0
1553634134.957,42.480,64.453,4.395,48.828,-16.602,0
1553634134.960,26.367,63.477,5.859,55.664,13.672,0
1553634134.964,21.973,61.523,3.418,20.020,50.781,0
1553634134.968,21.973,59.570,7.812,14.160,22.949,0
1553634134.972,28.320,61.523,11.719,20.020,9.277,0
1553634134.976,34.668,53.711,9.766,70.312,72.754,0
1553634134.980,70.312,61.035,7.324,112.305,83.008,0
1553634134.984,65.430,88.379,0.488,35.156,38.574,0
1553634134.988,12.207,82.520,2.441,-0.488,86.426,0
1553634134.992,21.484,66.895,2.441,6.836,78.613,0
1553634134.996,34.180,61.523,3.906,45.898,62.988,0
1553634134.999,18.555,66.895,9.277,55.176,115.723,0
1553634135.003,14.648,85.449,0.977,22.461,69.824,0
1553634135.007,28.320,87.891,-7.812,21.484,33.203,0
1553634135.011,53.711,78.613,-1.953,54.199,43.945,0
1553634135.015,55.664,76.172,7.812,60.059,54.199,0
1553634135.019,37.598,69.824,9.766,35.156,128.418,0
1553634135.023,31.738,67.871,9.766,31.250,92.285,0
1553634135.027,44.922,71.289,10.254,33.203,28.809,0
1553634135.031,65.918,73.242,8.301,100.586,-4.395,0
1553634135.035,57.617,73.242,8.789,80.078,16.602,0
1553634135.039,41.504,73.242,8.301,19.043,61.035,0
1553634135.042,48.340,71.289,11.719,38.574,31.738,0
1553634135.046,45.410,68.359,14.160,44.434,66.406,0
1553634135.050,47.363,67.383,14.160,60.059,61.035,0
1553634135.054,28.809,64.941,15.625,66.895,21.484,0
1553634135.058,32.227,69.336,10.254,61.523,-0.977,0
1553634135.062,52.246,69.824,13.184,56.641,-18.555,0
1553634135.066,32.227,60.547,19.531,36.133,-2.930,0
1553634135.070,42.969,61.035,19.531,25.879,43.945,0
1553634135.074,33.691,62.988,19.043,47.852,46.387,0
1553634135.078,24.414,59.082,19.043,101.562,-0.488,0
1553634135.082,40.527,62.988,18.066,62.988,-1.953,0
1553634135.085,28.809,66.406,14.648,12.695,56.152,0
1553634135.089,39.062,62.988,16.602,65.918,51.270,0
1553634135.093,43.457,65.918,15.625,52.734,18.066,0
1553634135.097,59.570,69.824,15.137,19.043,36.133,0
1553634135.101,42.480,58.594,20.508,45.898,41.992,0
1553634135.105,15.625,54.199,22.461,51.270,22.461,0
1553634135.109,24.414,62.500,20.508,54.688,31.250,0
1553634135.113,33.203,65.918,19.531,62.500,100.098,0
1553634135.117,33.691,66.406,20.508,60.059,61.523,0
1553634135.121,39.062,63.965,21.973,47.852,47.852,0
1553634135.124,47.363,65.430,22.461,79.590,97.656,0
1553634135.128,69.824,67.871,22.461,85.449,10.742,0
1553634135.132,74.219,66.406,18.066,39.551,-15.625,0
1553634135.136,56.641,62.988,19.043,49.316,40.039,0
1553634135.140,38.574,61.523,23.926,51.758,66.895,0
1553634135.144,30.762,65.430,21.973,24.414,70.801,0
1553634135.148,36.621,69.336,23.438,49.316,26.367,0
1553634135.152,33.691,68.848,25.391,54.688,8.789,0
1553634135.156,21.973,67.871,23.438,60.059,29.297,0
1553634135.160,36.621,69.824,20.996,45.898,1.465,0
1553634135.164,48.828,71.777,18.066,35.645,14.648,0
1553634135.167,37.109,69.336,21.973,66.406,92.773,0
1553634135.171,33.203,68.359,20.996,61.035,92.773,0
1553634135.175,34.180,69.336,17.578,40.039,37.598,0
1553634135.179,31.250,64.453,20.508,32.227,62.500,0
1553634135.183,13.672,58.594,25.879,27.344,147.461,0
1553634135.187,23.926,61.035,26.855,25.391,130.371,0
1553634135.191,48.828,65.918,24.414,44.434,74.219,0
1553634135.195,25.391,61.035,28.809,98.145,116.699,0
1553634135.199,11.230,59.570,28.320,78.613,57.617,0
1553634135.203,46.875,67.383,20.508,28.809,15.625,0
1553634135.207,40.039,72.754,14.648,33.691,40.527,0
1553634135.210,17.090,67.871,17.578,23.926,41.504,0
1553634135.214,26.855,64.453,21.973,25.391,34.180,0
1553634135.218,27.344,64.453,23.438,56.641,-2.930,0
1553634135.222,31.738,61.523,24.902,72.754,32.227,0
1553634135.226,44.434,64.453,23.926,66.406,107.422,0
1553634135.230,65.430,69.336,22.949,47.852,78.125,0
1553634135.234,63.965,64.941,26.855,70.312,56.641,0
1553634135.238,8.301,58.594,29.785,55.664,87.402,0
1553634135.242,20.508,61.035,27.344,5.859,43.457,0
1553634135.246,43.945,62.988,25.879,36.621,31.250,0
1553634135.249,29.297,62.500,26.855,73.730,61.035,0
1553634135.253,21.973,63.477,24.414,74.707,34.180,0
1553634135.257,35.156,66.895,22.949,53.223,23.926,0
1553634135.261,46.875,66.406,23.926,6.836,56.152,0
1553634135.265,36.133,66.895,25.391,24.902,57.617,0
1553634135.269,27.344,62.500,32.227,79.590,18.066,0
1553634135.273,19.531,58.594,32.227,79.590,28.809,0
1553634135.277,20.996,64.453,27.832,29.785,65.430,0
1553634135.281,39.551,64.453,29.785,28.320,108.887,0
1553634135.285,43.457,65.918,27.344,51.758,83.496,0
1553634135.289,44.434,69.336,27.832,48.340,67.383,0
1553634135.292,35.645,66.895,35.645,19.531,57.129,0
1553634135.296,16.113,62.012,37.109,32.715,25.391,0
1553634135.300,23.926,61.523,34.668,42.969,12.207,0
1553634135.304,27.344,63.477,33.203,46.387,-8.789,0
1553634135.308,22.461,65.430,32.227,62.012,20.508,0
1553634135.312,39.551,65.918,30.273,55.664,16.602,0
1553634135.316,60.059,68.848,26.855,30.762,20.996,0
1553634135.320,66.895,67.383,29.785,49.316,48.828,0
1553634135.324,41.504,64.941,34.668,61.523,90.332,0
1553634135.328,18.066,64.453,36.621,36.621,117.188,0
1553634135.332,37.109,52.246,36.133,74.707,61.523,0
1553634135.335,56.641,53.223,41.016,145.020,-8.789,0
1553634135.339,45.410,77.637,31.738,61.035,0.488,0
1553634135.343,28.320,78.125,22.949,-39.062,18.066,0
1553634135.347,18.555,62.012,34.668,13.184,44.434,0
1553634135.351,25.879,66.406,31.738,51.758,134.766,0
1553634135.355,22.949,70.801,30.762,36.133,74.707,0
1553634135.359,51.758,67.383,32.227,41.504,54.199,0
1553634135.363,62.500,64.941,29.785,64.941,90.820,0
1553634135.367,20.996,63.477,33.203,56.641,36.621,0
1553634135.371,30.762,62.012,34.668,55.664,48.828,0
1553634135.374,55.664,62.988,36.133,56.152,35.156,0
1553634135.378,48.828,67.383,34.180,76.172,1.465,0
1553634135.382,44.434,65.918,33.691,76.660,27.832,0
1553634135.386,61.523,63.965,33.691,40.527,70.801,0
1553634135.390,48.340,61.523,36.621,50.781,26.367,0
1553634135.394,49.805,58.105,40.039,42.969,23.926,0
1553634135.398,44.434,60.059,38.086,35.645,87.891,0
1553634135.402,55.664,61.523,38.086,72.754,23.926,0
1553634135.406,55.176,61.523,37.109,54.199,19.043,0
1553634135.410,25.879,60.059,36.621,69.336,49.805,0
1553634135.414,46.875,66.406,33.203,68.359,70.312,0
1553634135.417,54.199,71.289,31.738,48.828,18.066,0
1553634135.421,40.039,64.453,32.227,63.965,17.090,0
1553634135.425,22.949,64.941,32.715,42.480,88.379,0
1553634135.429,41.016,65.430,35.645,50.781,96.191,0
1553634135.433,53.223,60.059,35.645,41.992,66.895,0
1553634135.437,36.133,62.500,35.645,39.062,40.527,0
1553634135.441,36.133,65.918,35.156,49.805,32.715,0
1553634135.445,26.855,64.453,32.227,58.594,18.555,0
1553634135.449,11.230,62.500,30.273,53.711,109.863,0
1553634135.453,15.625,63.477,30.273,37.598,102.539,0
1553634135.457,38.574,65.918,34.180,62.988,75.195,0
1553634135.460,40.527,69.336,31.738,35.156,111.816,0
1553634135.464,34.668,67.383,30.762,28.320,69.824,0
1553634135.468,35.156,64.453,34.180,58.594,63.965,0
1553634135.472,30.762,63.477,33.691,75.195,16.602,0
1553634135.476,48.340,63.477,30.273,78.613,-4.883,0
1553634135.480,53.223,65.918,27.344,15.137,73.242,0
1553634135.484,41.016,66.895,33.203,25.879,48.340,0
1553634135.488,27.832,59.570,35.645,67.383,67.383,0
1553634135.492,39.551,57.129,34.180,43.457,63.965,0
1553634135.496,36.133,77.148,31.250,25.879,6.348,0
1553634135.499,-5.859,71.289,31.250,48.828,57.129,0
1553634135.503,40.039,59.570,37.598,68.848,104.492,0
1553634135.507,48.340,64.941,39.551,32.715,44.434,0
1553634135.511,12.695,65.430,35.156,19.531,43.945,0
1553634135.515,28.320,71.777,27.832,7.324,69.824,0
1553634135.519,29.785,69.824,29.785,18.555,67.383,0
1553634135.523,39.551,65.918,32.227,26.367,67.383,0
1553634135.527,40.039,65.918,32.715,118.652,16.602,0
1553634135.531,26.855,62.988,35.645,115.723,29.785,0
1553634135.535,41.016,64.453,31.738,-9.277,40.039,0
1553634135.539,51.758,65.918,27.344,16.113,12.695,0
1553634135.542,38.086,61.523,32.715,50.293,-15.137,0
1553634135.546,45.898,62.012,36.621,56.152,28.320,0
1553634135.550,53.223,63.965,35.645,55.176,44.922,0
1553634135.554,42.969,62.988,34.180,75.195,44.922,0
1553634135.558,54.688,60.059,39.062,87.402,70.312,0
1553634135.562,41.016,59.570,38.574,36.621,126.465,0
1553634135.566,47.852,63.477,32.715,40.527,121.582,0
1553634135.570,50.781,63.965,34.668,68.359,22.461,0
1553634135.574,34.180,64.453,36.621,82.031,15.137,0
1553634135.578,58.105,65.918,33.691,58.594,97.168,0
1553634135.582,62.500,63.965,33.203,39.551,-7.324,0
1553634135.585,48.340,64.453,32.715,50.781,-16.113,0
1553634135.589,55.176,65.918,33.203,62.012,60.547,0
1553634135.593,44.434,62.500,36.621,67.383,40.039,0
1553634135.597,61.035,61.523,33.203,50.781,48.340,0
1553634135.601,66.406,62.012,30.273,41.992,-4.395,0
1553634135.605,40.527,62.500,30.273,34.180,49.316,0
1553634135.609,28.320,63.965,30.273,37.598,138.672,0
1553634135.613,44.922,63.965,34.180,48.828,37.598,0
1553634135.617,55.176,63.477,34.668,59.570,-12.695,0
1553634135.621,48.340,61.035,38.086,81.543,56.641,0
1553634135.624,28.320,58.105,37.598,41.016,105.957,0
1553634135.628,39.551,63.965,29.785,-0.977,37.598,0
1553634135.632,54.199,64.453,29.297,42.969,53.223,0
1553634135.636,33.691,61.035,28.809,43.457,68.359,0
1553634135.640,30.762,62.988,27.832,7.324,5.371,0
1553634135.644,51.758,62.012,30.273,33.203,-3.906,0
1553634135.648,46.875,62.500,32.227,65.918,57.129,0
1553634135.652,23.438,61.035,32.227,75.684,61.035,0
1553634135.656,41.016,57.129,30.273,104.004,84.473,0
1553634135.660,46.387,63.965,27.344,59.082,99.121,0
1553634135.664,35.156,70.312,25.879,-11.719,86.914,0
1553634135.667,40.527,64.453,28.320,11.230,64.453,0
1553634135.671,52.246,62.012,31.250,16.602,30.273,0
1553634135.675,41.504,64.453,31.738,25.879,25.879,0
1553634135.679,55.664,63.965,33.691,46.875,95.703,0
1553634135.683,55.176,64.453,30.762,37.598,48.340,0
1553634135.687,59.570,62.988,31.250,113.770,-34.668,0
1553634135.691,54.688,61.035,34.668,115.723,-10.254,0
1553634135.695,24.902,64.453,29.785,-9.277,5.371,0
1553634135.699,48.340,66.895,29.785,16.602,69.336,0
1553634135.703,45.898,64.941,33.203,31.738,60.059,0
1553634135.707,32.715,64.453,32.715,28.320,63.965,0
1553634135.710,35.645,66.406,32.715,65.430,78.125,0
1553634135.714,45.898,62.988,34.668,50.293,58.594,0
1553634135.718,58.594,62.988,31.738,29.785,51.270,0
1553634135.722,42.969,63.965,34.180,35.156,48.340,0
1553634135.726,41.016,61.523,29.297,25.391,54.688,0
1553634135.730,83.984,63.477,23.926,74.219,50.781,0
1553634135.734,59.082,58.105,46.875,61.523,65.430,0
1553634135.738,32.227,62.500,44.922,40.039,51.270,0
1553634135.742,56.641,72.266,31.250,100.098,26.367,0
1553634135.746,26.367,66.895,38.574,43.457,67.871,0
1553634135.749,12.207,67.871,34.180,-26.367,46.387,0
1553634135.753,31.738,67.871,36.133,-4.395,-22.461,0
1553634135.757,19.043,60.547,42.969,-1.465,19.043,0
1553634135.761,17.090,60.547,38.086,45.898,67.383,0
1553634135.765,31.250,61.035,38.086,89.355,7.812,0
1553634135.769,25.879,59.570,34.668,4.395,9.766,0
1553634135.773,41.992,64.941,27.344,-19.043,43.457,0
1553634135.777,41.504,64.941,29.297,10.742,78.613,0
1553634135.781,40.039,59.570,30.762,11.719,50.293,0
1553634135.785,35.645,60.547,30.762,36.133,27.832,0
1553634135.789,29.297,62.988,32.227,46.875,10.254,0
1553634135.792,34.180,62.988,32.227,51.758,83.008,0
1553634135.796,49.316,66.406,25.391,46.875,127.441,0
1553634135.800,46.875,65.918,23.438,36.621,53.711,0
1553634135.804,52.734,63.477,25.879,7.812,50.293,0
1553634135.808,50.781,61.523,29.785,66.406,-23.438,0
1553634135.812,32.715,60.059,28.809,114.746,7.812,0
1553634135.816,40.039,59.570,22.949,16.602,75.195,0
1553634135.820,44.434,61.523,22.461,-15.137,85.449,0
1553634135.824,52.734,63.477,20.020,4.883,42.969,0
1553634135.828,57.129,59.082,23.926,13.672,17.578,0
1553634135.832,36.133,60.059,21.484,10.742,34.180,0
1553634135.835,25.391,67.871,15.625,18.066,24.902,0
1553634135.839,22.949,69.336,18.555,27.832,40.039,0
1553634135.843,20.020,67.871,19.531,49.805,47.363,0
1553634135.847,35.156,62.012,21.484,56.641,30.762,0
1553634135.851,24.902,59.082,21.484,7.812,12.695,0
1553634135.855,35.645,62.500,19.043,17.578,37.109,0
1553634135.859,47.363,64.941,18.066,28.320,37.109,0
1553634135.863,55.664,66.406,20.508,42.969,57.129,0
1553634135.867,63.965,66.895,22.461,83.496,70.312,0
1553634135.871,34.668,67.383,18.066,20.508,55.176,0
1553634135.874,29.297,67.871,12.695,7.324,9.766,0
1553634135.878,38.086,67.871,13.672,45.898,-2.930,0
1553634135.882,54.199,69.824,15.625,17.090,6.348,0
1553634135.886,36.621,67.871,16.113,13.184,13.672,0
1553634135.890,28.320,64.941,16.113,15.625,22.949,0
1553634135.894,26.367,64.941,11.719,-9.766,106.445,0
1553634135.898,49.316,68.848,9.277,49.316,87.402,0
1553634135.902,86.914,68.359,14.160,56.641,37.598,0
1553634135.906,50.781,64.453,16.113,2.930,67.871,0
1553634135.910,20.020,63.477,20.020,42.480,61.035,0
1553634135.914,31.738,64.453,26.855,72.266,43.945,0
1553634135.917,52.246,73.730,15.137,-5.859,44.434,0
1553634135.921,76.172,71.777,11.719,-8.301,101.074,0
1553634135.925,56.641,66.406,17.090,38.574,83.984,0
1553634135.929,19.531,64.453,16.113,39.062,59.082,0
1553634135.933,16.113,60.059,20.020,31.250,51.270,0
1553634135.937,35.156,61.523,17.578,11.719,19.043,0
1553634135.941,38.574,69.336,15.625,33.203,25.879,0
1553634135.945,38.574,70.312,20.996,61.035,29.785,0
1553634135.949,60.059,67.871,20.508,14.648,7.812,0
1553634135.953,48.340,67.871,27.344,8.789,2.441,0
1553634135.957,26.855,66.406,23.438,17.578,20.508,0
1553634135.960,83.984,66.895,16.602,44.922,95.703,0
1553634135.964,75.195,61.035,43.945,81.543,56.641,0
1553634135.968,19.043,64.941,51.758,14.160,1.465,0
1553634135.972,21.973,69.336,33.203,30.273,85.938,0
1553634135.976,31.250,64.453,36.621,48.828,44.922,0
1553634135.980,50.293,64.941,41.992,14.160,24.902,0
1553634135.984,59.082,62.500,39.551,20.996,89.844,0
1553634135.988,35.645,59.082,39.551,-10.742,87.402,0
1553634135.992,22.949,56.152,36.621,12.207,33.203,0
1553634135.996,63.965,53.711,32.715,84.473,29.785,0
1553634135.999,82.031,52.734,33.203,61.035,76.660,0
1553634136.003,53.711,48.828,33.203,5.859,45.898,0
1553634136.007,52.246,44.434,33.691,29.297,25.391,0
1553634136.011,39.551,44.434,41.016,33.691,37.598,0
1553634136.015,40.527,42.969,55.176,38.086,-11.230,0
1553634136.019,41.992,39.062,60.547,58.594,27.344,0
1553634136.023,49.316,41.504,59.570,30.762,37.598,0
1553634136.027,57.617,39.551,58.594,25.391,68.848,0
1553634136.031,45.410,35.156,58.105,75.195,80.566,0
1553634136.035,51.270,32.227,63.965,67.383,17.578,0
1553634136.039,59.082,33.691,58.105,29.785,34.180,0
1553634136.042,45.898,34.180,52.734,3.418,123.047,0
1553634136.046,81.543,34.668,51.758,14.160,71.289,0
1553634136.050,73.730,37.109,44.922,40.527,-4.883,0
1553634136.054,27.832,33.691,47.363,29.297,57.129,0
1553634136.058,25.391,32.715,47.363,19.043,81.055,0
1553634136.062,30.762,37.109,41.016,52.246,39.551,0
1553634136.066,59.570,40.039,38.574,48.340,12.695,0
1553634136.070,61.035,40.527,38.574,26.855,75.195,0
1553634136.074,58.594,41.504,35.156,47.852,76.660,0
1553634136.078,68.848,37.109,34.180,48.828,57.129,0
1553634136.082,50.781,33.203,36.133,39.551,62.012,0
1553634136.085,50.781,35.645,38.086,91.797,9.766,0
1553634136.089,44.434,34.668,37.109,78.613,18.555,0
1553634136.093,36.133,35.156,34.180,-15.137,23.926,0
1553634136.097,67.871,39.062,31.250,4.395,55.176,0
1553634136.101,29.785,40.527,30.273,41.992,146.484,0
1553634136.105,35.645,41.992,30.273,41.016,96.680,0
1553634136.109,53.711,40.527,30.762,43.945,57.129,0
1553634136.113,59.570,42.480,27.832,39.062,-13.184,0
1553634136.117,63.477,44.922,28.320,27.832,4.883,0
1553634136.121,57.129,44.922,27.832,11.719,12.207,0
1553634136.124,46.387,42.969,30.273,71.289,15.137,0
1553634136.128,37.109,43.945,32.715,77.148,83.984,0
1553634136.132,48.828,49.316,28.320,8.301,140.625,0
1553634136.136,22.949,48.340,30.762,27.344,64.453,0
1553634136.140,49.805,44.922,34.668,51.270,30.273,0
1553634136.144,45.898,45.410,32.715,35.156,80.566,0
1553634136.148,25.391,48.828,32.227,64.941,78.613,0
1553634136.152,42.969,45.898,31.250,60.059,32.715,0
1553634136.156,48.340,44.434,25.391,10.254,20.508,0
1553634136.160,49.316,43.945,27.344,81.543,74.707,0
1553634136.164,51.758,43.945,28.320,82.520,71.777,0
1553634136.167,60.059,51.758,19.531,-0.977,44.922,0
1553634136.171,35.645,48.340,23.438,10.254,-3.418,0
1553634136.175,45.410,45.898,27.832,29.297,89.844,0
1553634136.179,46.875,52.734,22.949,18.066,73.730,0
1553634136.183,34.668,48.340,22.461,43.457,-16.602,0
1553634136.187,55.664,46.875,22.949,75.195,18.555,0
1553634136.191,47.852,45.410,20.996,69.336,46.875,0
1553634136.195,31.738,43.457,18.555,13.184,66.406,0
1553634136.199,33.691,43.945,18.555,-3.418,62.012,0
1553634136.203,51.758,43.945,21.484,29.297,95.703,0
1553634136.207,56.152,49.316,20.508,22.949,109.375,0
1553634136.210,34.180,46.875,20.508,23.438,93.750,0
1553634136.214,44.922,45.410,19.531,50.293,31.250,0
1553634136.218,64.941,52.734,19.043,37.109,-23.926,0
1553634136.222,49.316,49.805,21.484,41.016,35.645,0
1553634136.226,56.641,46.387,21.484,66.406,27.832,0
1553634136.230,59.082,48.828,21.973,83.008,20.508,0
1553634136.234,31.250,45.410,24.902,59.570,87.891,0
1553634136.238,40.039,45.410,24.414,3.418,90.332,0
1553634136.242,55.664,46.875,22.461,24.902,21.973,0
1553634136.246,50.781,47.852,21.484,45.898,51.758,0
1553634136.249,53.711,50.781,20.508,45.898,79.590,0
1553634136.253,62.988,49.805,21.973,37.109,60.059,0
1553634136.257,61.035,52.246,22.461,43.945,92.285,0
1553634136.261,59.570,54.199,22.949,46.875,41.504,0
1553634136.265,53.711,52.246,26.855,68.359,51.270,0
1553634136.269,42.969,53.711,26.367,62.988,63.965,0
1553634136.273,47.363,55.176,24.414,27.832,0.488,0
1553634136.277,56.641,55.664,23.926,29.297,21.484,0
1553634136.281,36.133,53.711,25.879,16.113,65.918,0
1553634136.285,35.156,52.246,26.855,36.621,62.012,0
1553634136.289,42.969,48.340,28.320,60.059,-17.578,0
1553634136.292,49.805,50.781,26.855,19.531,-1.953,0
1553634136.296,62.500,52.734,24.414,47.852,55.664,0
1553634136.300,46.387,37.598,24.414,102.051,106.934,0
1553634136.304,80.078,46.387,23.438,91.309,91.309,0
1553634136.308,69.336,77.148,16.602,30.762,38.574,0
1553634136.312,29.785,63.965,16.113,8.789,77.148,0
1553634136.316,42.480,46.875,19.531,49.316,112.305,0
1553634136.320,52.734,47.852,21.973,62.012,70.801,0
1553634136.324,56.152,54.688,18.555,43.457,46.875,0
1553634136.328,32.227,59.082,15.625,27.344,70.312,0
1553634136.332,23.926,56.152,19.531,7.812,65.918,0
1553634136.335,23.438,55.176,19.531,18.066,3.418,0
1553634136.339,23.438,51.270,21.973,53.711,11.719,0
1553634136.343,60.547,50.293,22.461,67.383,16.113,0
1553634136.347,65.918,53.223,23.438,62.012,12.695,0
1553634136.351,47.363,51.758,25.391,53.711,20.996,0
1553634136.355,65.430,50.293,22.949,61.523,19.531,0
1553634136.359,56.152,45.898,25.391,50.293,39.062,0
1553634136.363,47.852,46.387,27.832,59.570,97.168,0
1553634136.367,47.363,53.223,23.438,66.406,60.059,0
1553634136.371,67.383,54.688,23.438,53.711,3.906,0
1553634136.374,66.406,50.781,27.344,73.730,56.641,0
1553634136.378,44.922,50.781,26.855,84.961,66.406,0
1553634136.382,43.457,50.293,28.809,42.969,14.160,0
1553634136.386,62.012,53.711,31.738,40.527,47.852,0
1553634136.390,65.918,60.547,25.879,49.805,64.453,0
1553634136.394,72.266,53.223,21.484,66.406,-8.301,0
1553634136.398,73.242,51.758,22.461,59.570,35.645,0
1553634136.402,43.945,57.129,23.438,37.109,57.129,0
1553634136.406,37.598,56.152,21.484,37.109,26.855,0
1553634136.410,34.180,52.734,27.344,44.434,25.391,0
1553634136.414,32.715,50.781,27.344,47.852,29.297,0
1553634136.417,49.316,52.734,27.344,44.434,45.898,0
1553634136.421,59.082,53.711,37.598,52.734,9.277,0
1553634136.425,59.570,51.758,29.297,75.684,33.203,0
1553634136.429,62.012,50.781,17.090,65.918,98.145,0
1553634136.433,53.711,51.758,18.066,43.945,85.449,0
1553634136.437,40.527,52.246,20.020,53.223,48.340,0
1553634136.441,35.645,53.711,21.973,48.828,24.414,0
1553634136.445,41.016,46.875,24.902,92.285,36.133,0
1553634136.449,75.684,51.270,24.414,103.027,8.789,0
1553634136.453,77.148,75.684,17.090,33.691,19.043,0
1553634136.457,46.875,67.383,19.043,15.625,55.176,0
1553634136.460,55.176,55.664,22.949,46.875,101.562,0
1553634136.464,47.363,54.199,25.879,119.629,83.984,0
1553634136.468,29.297,54.199,31.738,77.637,36.133,0
1553634136.472,30.273,65.430,28.320,-12.207,83.496,0
1553634136.476,33.203,62.012,21.973,32.715,74.707,0
1553634136.480,47.852,56.152,27.344,63.965,37.598,0
1553634136.484,58.594,56.641,25.879,33.203,-17.578,0
1553634136.488,33.691,48.340,24.902,85.938,18.066,0
1553634136.492,44.434,48.828,28.809,105.469,13.184,0
1553634136.496,50.293,54.688,27.344,21.484,18.555,0
1553634136.499,41.016,52.734,27.832,36.133,41.016,0
1553634136.503,48.828,52.734,27.832,51.270,6.348,0
1553634136.507,65.918,54.688,28.320,34.668,58.105,0
1553634136.511,62.988,54.688,25.391,42.480,18.555,0
1553634136.515,36.621,48.828,29.297,108.887,5.371,0
1553634136.519,53.223,49.805,28.320,86.914,27.344,0
1553634136.523,55.176,53.711,22.949,10.742,4.395,0
1553634136.527,44.434,49.316,22.949,30.273,47.363,0
1553634136.531,63.965,50.781,20.508,62.500,70.801,0
1553634136.535,65.918,53.223,20.996,59.082,44.434,0
1553634136.539,59.082,54.199,24.414,32.227,110.352,0
1553634136.542,62.012,56.641,22.461,100.586,103.027,0
1553634136.546,67.383,55.176,24.414,113.770,154.785,0
1553634136.550,71.289,57.129,24.902,26.367,181.641,0
1553634136.554,65.918,56.152,28.809,38.574,76.172,0
1553634136.558,54.199,48.828,34.180,40.039,64.453,0
1553634136.562,44.434,46.387,38.086,68.848,48.828,0
1553634136.566,40.039,46.387,41.504,84.473,80.078,0
1553634136.570,62.988,49.805,36.133,32.715,104.004,0
1553634136.574,64.941,48.828,34.180,38.574,63.965,0
1553634136.578,46.387,50.293,36.621,25.391,47.852,0
1553634136.582,27.832,51.758,36.133,18.555,66.895,0
1553634136.585,31.738,52.246,32.227,25.391,48.828,0
1553634136.589,52.734,57.617,28.809,32.715,43.945,0
1553634136.593,52.734,53.711,30.273,47.363,58.594,0
1553634136.597,50.781,49.805,29.297,61.035,41.016,0
1553634136.601,30.273,51.270,34.180,23.926,41.992,0
1553634136.605,28.809,46.875,37.598,45.410,-25.391,0
1553634136.609,55.664,47.852,22.949,41.504,21.484,0
1553634136.613,46.875,49.316,22.461,6.836,102.539,0
1553634136.617,17.090,41.992,31.250,39.062,57.617,0
1553634136.621,33.691,42.480,32.227,36.621,60.059,0
1553634136.624,47.852,46.387,31.738,46.875,59.082,0
1553634136.628,25.879,44.922,34.180,53.711,73.730,0
1553634136.632,16.113,44.922,35.645,59.570,96.680,0
1553634136.636,27.344,49.316,31.738,56.152,24.414,0
1553634136.640,37.598,47.363,30.273,22.461,64.941,0
1553634136.644,34.180,49.316,32.227,46.387,111.328,0
1553634136.648,44.434,56.641,29.297,51.270,2.441,0
1553634136.652,52.246,48.340,36.133,48.828,9.766,0
1553634136.656,36.133,43.945,40.527,37.598,106.445,0
1553634136.660,36.621,47.363,27.832,33.691,46.875,0
1553634136.664,30.762,48.340,22.949,42.969,19.531,0
1553634136.667,36.133,55.664,30.273,42.969,57.129,0
1553634136.671,45.410,60.547,35.156,54.199,78.613,0
1553634136.675,46.387,59.570,32.715,56.152,90.820,0
1553634136.679,60.547,49.805,33.203,48.340,30.273,0
1553634136.683,34.668,38.086,25.879,51.758,42.480,0
1553634136.687,41.016,36.133,20.020,36.621,74.219,0
1553634136.691,44.434,41.504,24.414,11.719,27.344,0
1553634136.695,20.508,52.734,27.832,61.523,-19.043,0
1553634136.699,27.832,44.922,29.297,77.148,-7.324,0
1553634136.703,36.621,39.062,29.297,41.992,42.969,0
1553634136.707,41.992,48.828,24.414,43.457,36.621,0
1553634136.710,44.434,48.340,21.484,38.574,-8.789,0
1553634136.714,49.316,45.410,27.832,48.340,36.621,0
1553634136.718,56.641,50.781,25.879,83.008,76.172,0
1553634136.722,48.828,49.805,20.996,47.852,80.078,0
1553634136.726,23.926,47.852,20.996,7.324,141.602,0
1553634136.730,60.547,48.340,19.043,55.176,145.508,0
1553634136.734,91.797,39.062,38.574,86.914,57.617,0
1553634136.738,22.461,28.320,43.945,18.555,56.152,0
1553634136.742,13.672,32.227,27.832,8.789,60.059,0
1553634136.746,41.992,27.832,33.203,52.734,36.133,0
1553634136.749,37.109,40.039,40.527,49.316,75.684,0
1553634136.753,25.879,50.781,30.762,34.668,44.922,0
1553634136.757,22.949,26.367,27.832,42.480,15.137,0
1553634136.761,41.992,28.809,27.344,63.965,58.105,0
1553634136.765,48.828,32.227,31.738,46.387,44.922,0
1553634136.769,43.457,39.062,41.992,55.176,31.250,0
1553634136.773,41.992,45.898,43.945,51.758,28.320,0
1553634136.777,32.227,18.066,24.414,27.344,1.953,0
1553634136.781,39.551,28.809,27.832,27.344,42.969,0
1553634136.785,58.105,52.734,50.293,45.898,52.734,0
1553634136.789,53.223,29.785,30.762,60.059,24.902,0
1553634136.792,22.461,2.441,9.277,37.109,72.266,0
1553634136.796,19.043,9.766,13.184,29.785,82.031,0
1553634136.800,36.133,10.742,22.461,48.828,11.230,0
1553634136.804,38.086,4.395,26.367,65.430,38.574,0
1553634136.808,51.758,20.020,37.598,47.363,55.664,0
1553634136.812,21.484,29.785,47.363,31.250,47.363,0
1553634136.816,-7.324,12.207,30.273,25.879,24.902,0
1553634136.820,9.277,17.578,18.066,33.203,-22.461,0
1553634136.824,21.484,41.504,22.949,60.059,33.203,0
1553634136.828,37.109,57.617,43.457,50.293,55.664,0
1553634136.832,41.504,25.391,62.500,50.781,10.742,0
1553634136.835,17.090,-26.855,34.180,23.438,14.648,0
1553634136.839,3.906,-31.738,4.883,-8.789,106.445,0
1553634136.843,6.348,-29.297,-1.465,20.020,67.383,0
1553634136.847,20.508,-27.832,2.441,30.762,36.621,0
1553634136.851,40.039,-14.648,17.578,47.852,66.406,0
1553634136.855,21.973,-12.207,20.020,37.109,57.617,0
1553634136.859,23.926,-25.879,18.066,3.418,97.656,0
1553634136.863,39.062,-24.902,23.926,65.430,39.062,0
1553634136.867,-1.465,-22.949,21.973,47.852,17.090,0
1553634136.871,9.766,-29.297,15.137,-3.418,96.191,0
1553634136.874,21.973,-29.785,15.137,36.621,81.543,0
1553634136.878,29.297,-28.809,20.020,29.785,54.688,0
1553634136.882,27.832,-38.574,17.090,-5.371,50.293,0
1553634136.886,15.625,-45.410,19.043,0.000,29.785,0
1553634136.890,33.691,-42.480,27.344,35.156,-44.922,0
1553634136.894,55.176,-41.016,24.414,45.898,28.809,0
1553634136.898,45.898,-41.016,18.066,31.738,45.898,0
1553634136.902,40.527,-44.922,20.508,16.602,39.551,0
1553634136.906,32.227,-46.387,20.020,27.832,46.875,0
1553634136.910,17.090,-41.992,12.695,70.312,32.715,0
1553634136.914,27.344,-41.016,12.207,44.434,43.457,0
1553634136.917,39.062,-39.062,7.324,4.395,15.137,0
1553634136.921,47.852,-34.668,-2.930,31.738,25.391,0
1553634136.925,54.199,-32.715,-1.953,47.363,-3.418,0
1553634136.929,52.246,-34.180,0.488,46.387,49.805,0
1553634136.933,21.484,-33.203,-5.371,25.391,77.148,0
1553634136.937,44.922,-26.855,-13.184,15.625,41.016,0
1553634136.941,58.594,-25.879,-14.648,58.594,82.031,0
1553634136.945,32.227,-22.949,-16.113,68.359,54.688,0
1553634136.949,63.477,-20.020,-24.902,16.113,43.945,0
1553634136.953,65.430,-19.531,-30.762,21.484,48.340,0
1553634136.957,22.461,-19.043,-29.297,49.316,56.641,0
1553634136.960,28.320,-20.996,-28.809,30.273,66.895,0
1553634136.964,54.688,-15.625,-37.109,34.668,55.664,0
1553634136.968,34.180,-12.695,-41.992,21.973,53.223,0
1553634136.972,37.598,-11.719,-49.316,60.059,110.352,0
1553634136.976,74.707,-15.137,-44.922,97.656,106.934,0
1553634136.980,47.363,-16.113,-29.297,43.945,30.273,0
1553634136.984,27.832,0.488,-38.574,7.324,49.316,0
1553634136.988,28.320,-0.488,-39.551,24.902,131.836,0
1553634136.992,28.809,-2.441,-35.645,75.684,72.754,0
1553634136.996,51.758,4.883,-42.969,60.547,11.719,0
1553634136.999,37.598,1.953,-45.410,6.836,70.312,0
1553634137.003,18.555,3.418,-47.852,4.883,79.102,0
1553634137.007,50.293,6.348,-49.805,35.156,72.266,0
1553634137.011,44.434,7.812,-45.410,47.852,46.875,0
1553634137.015,30.273,9.277,-44.922,25.391,46.875,0
1553634137.019,22.949,9.766,-52.734,44.922,74.219,0
1553634137.023,33.691,12.695,-53.223,73.730,41.016,0
1553634137.027,54.688,17.578,-52.246,46.387,56.641,0
1553634137.031,46.387,19.043,-50.781,35.645,5.859,0
1553634137.035,50.781,18.555,-50.781,41.992,6.348,0
1553634137.039,55.664,18.066,-49.316,103.027,26.367,0
1553634137.042,51.758,21.484,-47.852,67.871,24.414,0
1553634137.046,70.312,26.367,-48.340,4.883,85.938,0
1553634137.050,66.895,24.902,-46.387,62.988,109.375,0
1553634137.054,57.617,22.949,-43.945,69.824,48.340,0
1553634137.058,60.059,24.902,-43.945,51.270,-9.766,0
1553634137.062,60.547,28.809,-44.922,43.945,35.156,0
1553634137.066,81.543,31.738,-45.898,59.570,74.707,0
1553634137.070,77.637,31.738,-44.434,87.402,19.531,0
1553634137.074,54.688,28.809,-44.922,79.102,-10.742,0
1553634137.078,71.289,27.344,-41.992,44.922,47.852,0
1553634137.082,67.383,32.715,-43.945,78.613,55.664,0
1553634137.085,74.707,29.785,-41.504,104.004,26.367,0
1553634137.089,83.496,28.809,-36.621,63.965,52.246,0
1553634137.093,68.359,31.250,-37.109,36.133,13.672,0
1553634137.097,66.895,35.156,-35.645,60.059,-11.230,0
1553634137.101,49.316,40.527,-39.062,65.430,-15.625,0
1553634137.105,50.781,38.086,-36.133,64.941,35.156,0
1553634137.109,53.223,36.621,-30.273,52.734,86.426,0
1553634137.113,71.289,39.062,-38.086,28.320,90.820,0
1553634137.117,71.289,36.621,-38.574,36.621,50.293,0
1553634137.121,44.434,38.086,-31.738,41.992,-2.441,0
1553634137.124,60.059,41.992,-28.809,74.707,33.203,0
1553634137.128,78.125,41.992,-32.227,123.535,-36.133,0
1553634137.132,55.664,40.527,-33.203,41.504,7.324,0
1553634137.136,38.574,39.551,-30.273,7.324,97.656,0
1553634137.140,42.480,40.039,-27.344,36.621,67.383,0
1553634137.144,39.551,37.598,-25.391,40.527,54.199,0
1553634137.148,48.828,37.109,-22.949,58.105,34.180,0
1553634137.152,45.410,39.551,-24.902,39.062,20.508,0
1553634137.156,57.129,38.574,-26.367,20.508,45.410,0
1553634137.160,63.965,37.109,-20.020,76.172,59.570,0
1553634137.164,46.875,35.156,-12.695,113.770,33.203,0
1553634137.167,62.988,33.203,-17.578,77.148,5.371,0
1553634137.171,91.309,37.598,-27.344,44.922,10.742,0
1553634137.175,67.871,37.109,-6.836,14.160,57.129,0
1553634137.179,41.992,44.434,0.488,23.926,83.496,0
1553634137.183,43.945,52.734,-15.137,53.223,92.285,0
1553634137.187,48.340,42.969,-9.766,17.090,64.941,0
1553634137.191,67.383,40.039,-3.418,83.984,29.297,0
1553634137.195,49.316,36.133,-1.953,95.703,-12.695,0
1553634137.199,21.484,34.668,0.488,26.367,31.738,0
1553634137.203,67.871,39.551,-0.488,45.410,37.109,0
1553634137.207,81.543,33.691,3.418,50.293,46.387,0
1553634137.210,47.852,39.551,1.465,52.734,130.371,0
1553634137.214,49.805,44.434,-0.977,35.645,94.727,0
1553634137.218,52.734,41.016,2.930,34.668,38.574,0
1553634137.222,54.199,40.039,4.395,61.523,46.875,0
1553634137.226,58.105,36.133,6.348,62.988,43.945,0
1553634137.230,38.574,35.645,3.906,47.852,33.203,0
1553634137.234,74.219,39.551,2.441,39.551,52.734,0
1553634137.238,67.383,42.969,0.977,43.457,71.777,0
1553634137.242,35.645,43.457,1.953,71.777,37.598,0
1553634137.246,50.781,41.504,6.348,58.105,74.219,0
1553634137.249,41.016,36.621,9.277,18.555,40.039,0
1553634137.253,48.340,35.645,6.348,41.504,48.340,0
1553634137.257,62.500,41.992,3.418,40.039,93.262,0
1553634137.261,49.316,38.574,9.766,34.668,75.195,0
1553634137.265,48.828,38.086,11.230,49.805,25.391,0
1553634137.269,50.781,43.457,8.789,72.266,3.418,0
1553634137.273,74.707,41.992,9.277,73.242,47.363,0
1553634137.277,61.523,42.969,5.371,42.480,18.066,0
1553634137.281,31.738,43.457,6.836,37.598,-40.039,0
1553634137.285,46.875,37.109,11.230,80.566,13.184,0
1553634137.289,42.480,37.109,8.789,74.219,76.660,0
1553634137.292,49.805,42.969,3.906,38.574,40.527,0
1553634137.296,77.637,42.969,7.324,43.945,74.219,0
1553634137.300,57.129,41.504,12.207,79.102,136.719,0
1553634137.304,47.852,41.992,9.766,48.340,99.121,0
1553634137.308,48.340,44.922,8.789,4.883,37.109,0
1553634137.312,43.945,45.410,10.254,43.945,57.617,0
1553634137.316,38.574,41.504,13.184,39.551,106.445,0
1553634137.320,56.641,35.156,19.043,91.797,62.500,0
1553634137.324,57.129,38.574,17.578,85.449,8.301,0
1553634137.328,16.113,40.039,16.113,20.020,35.156,0
1553634137.332,33.691,40.527,17.578,29.785,-0.488,0
1553634137.335,46.387,45.410,13.672,57.617,5.371,0
1553634137.339,69.336,35.645,15.625,82.520,58.594,0
1553634137.343,115.234,51.270,11.719,65.430,55.176,0
1553634137.347,65.918,66.406,7.812,5.859,103.516,0
1553634137.351,13.672,44.434,13.672,3.906,37.598,0
1553634137.355,39.551,43.945,13.184,63.965,33.203,0
1553634137.359,58.594,54.688,11.719,84.473,121.094,0
1553634137.363,56.152,56.641,10.742,21.973,73.730,0
1553634137.367,34.668,60.547,3.906,-11.230,42.969,0
1553634137.371,34.180,55.664,0.000,71.777,52.246,0
1553634137.374,58.105,48.340,7.324,47.852,20.508,0
1553634137.378,30.762,42.969,12.695,0.977,38.574,0
1553634137.382,39.062,40.039,12.207,36.621,101.074,0
1553634137.386,57.129,39.551,14.160,30.762,62.988,0
1553634137.390,34.668,38.086,13.672,9.277,18.066,0
1553634137.394,37.598,39.551,9.277,61.523,64.453,0
1553634137.398,50.781,41.504,10.742,61.523,39.062,0
1553634137.402,53.711,40.527,8.789,22.461,15.137,0
1553634137.406,39.062,41.504,9.766,29.297,15.625,0
1553634137.410,59.570,41.504,12.695,38.574,51.758,0
1553634137.414,70.312,40.039,12.695,47.852,47.852,0
1553634137.417,37.109,36.621,14.160,56.152,15.137,0
1553634137.421,36.133,36.133,15.137,43.945,62.500,0
1553634137.425,50.781,40.527,13.184,49.805,77.148,0
1553634137.429,64.941,44.434,12.695,51.270,47.852,0
1553634137.433,47.852,39.551,16.602,-4.883,69.336,0
1553634137.437,36.621,33.203,23.438,32.715,46.875,0
1553634137.441,45.898,36.133,20.996,72.754,50.781,0
1553634137.445,47.852,39.062,17.090,63.477,84.473,0
1553634137.449,44.922,37.109,20.508,51.270,12.207,0
1553634137.453,41.016,35.645,23.438,28.809,6.836,0
1553634137.457,27.832,31.250,25.879,37.598,38.574,0
1553634137.460,51.270,30.273,25.391,84.473,50.293,0
1553634137.464,64.453,36.133,22.949,101.562,109.375,0
1553634137.468,28.809,38.086,19.043,86.914,45.410,0
1553634137.472,37.109,37.598,17.090,23.926,22.461,0
1553634137.476,53.711,37.109,20.020,27.832,48.828,0
1553634137.480,32.715,36.621,15.625,45.410,59.082,0
1553634137.484,37.598,39.062,15.625,14.648,90.820,0
1553634137.488,44.434,41.016,17.090,35.645,51.758,0
1553634137.492,49.805,37.109,19.531,57.129,41.016,0
1553634137.496,47.852,34.668,17.090,48.340,86.914,0
1553634137.499,48.340,36.621,13.184,50.293,151.855,0
1553634137.503,49.805,34.668,17.090,50.293,120.605,0
1553634137.507,65.918,31.738,20.996,58.105,78.125,0
1553634137.511,53.711,31.250,22.461,58.594,94.238,0
1553634137.515,22.949,35.156,18.555,41.992,46.875,0
1553634137.519,32.227,32.715,20.020,52.734,-35.156,0
1553634137.523,39.551,31.250,21.484,43.457,-22.461,0
1553634137.527,32.227,33.203,18.555,29.297,29.297,0
1553634137.531,40.039,31.738,22.461,69.336,31.738,0
1553634137.535,47.852,35.156,23.438,88.379,38.086,0
1553634137.539,46.387,37.109,19.043,61.523,56.152,0
1553634137.542,47.852,32.227,20.020,39.551,82.031,0
1553634137.546,36.621,30.273,22.949,35.645,33.691,0
1553634137.550,34.180,32.227,25.391,60.547,30.273,0
1553634137.554,22.461,34.668,20.508,93.750,18.555,0
1553634137.558,60.547,38.574,19.043,43.945,16.113,0
1553634137.562,66.895,35.645,22.949,27.832,39.062,0
1553634137.566,12.695,33.203,24.902,49.805,27.344,0
1553634137.570,18.555,33.691,24.902,32.715,46.387,0
1553634137.574,39.551,30.762,25.391,70.312,19.043,0
1553634137.578,60.547,33.691,24.902,79.102,42.480,0
1553634137.582,51.270,36.133,20.996,27.832,111.328,0
1553634137.585,49.805,34.668,20.508,30.762,80.566,0
1553634137.589,53.711,35.645,16.113,59.570,59.082,0
1553634137.593,32.715,41.504,10.742,96.680,108.887,0
1553634137.597,35.645,32.715,19.043,76.660,77.148,0
1553634137.601,65.918,26.855,20.996,24.414,45.898,0
1553634137.605,57.129,30.762,16.113,82.031,44.434,0
1553634137.609,58.105,28.320,26.855,86.426,16.602,0
1553634137.613,54.688,31.738,36.133,35.156,50.781,0
1553634137.617,12.207,41.016,28.320,115.234,50.293,0
1553634137.621,37.598,44.434,19.531,108.398,7.324,0
1553634137.624,45.898,32.715,26.367,14.160,-3.906,0
1553634137.628,30.762,28.809,28.809,33.691,66.895,0
1553634137.632,44.434,34.180,31.250,39.062,112.305,0
1553634137.636,49.805,25.879,37.109,29.785,50.781,0
1553634137.640,56.152,23.926,39.551,82.031,37.109,0
1553634137.644,50.781,29.297,38.086,79.102,53.223,0
1553634137.648,33.203,28.809,36.133,48.340,77.637,0
1553634137.652,26.855,30.762,34.668,79.590,54.199,0
1553634137.656,43.945,28.809,41.504,68.359,59.082,0
1553634137.660,34.180,25.391,46.387,62.988,102.051,0
1553634137.664,46.875,36.133,34.668,56.641,81.055,0
1553634137.667,58.594,36.621,33.203,66.406,20.996,0
1553634137.671,15.137,24.902,39.551,61.035,52.734,0
1553634137.675,21.484,31.250,36.621,16.113,32.227,0
1553634137.679,38.086,37.109,35.156,42.969,39.551,0
1553634137.683,35.156,33.203,36.621,83.496,67.383,0
1553634137.687,34.180,30.762,46.387,88.867,49.805,0
1553634137.691,61.035,25.879,54.688,88.379,20.508,0
1553634137.695,61.523,32.227,41.016,34.180,66.406,0
1553634137.699,74.707,38.574,35.645,95.215,71.777,0
1553634137.703,32.227,26.367,39.551,104.980,32.227,0
1553634137.707,-4.395,22.461,37.109,-10.254,52.734,0
1553634137.710,5.371,30.273,35.156,4.395,-0.488,0
1553634137.714,47.852,36.621,36.133,54.688,37.598,0
1553634137.718,86.426,40.527,46.387,56.641,97.656,0
1553634137.722,42.480,28.320,45.898,92.285,61.035,0
1553634137.726,-2.441,22.461,36.133,84.961,71.777,0
1553634137.730,-1.465,33.691,34.180,-4.395,86.914,0
1553634137.734,24.414,32.715,37.109,16.113,47.852,0
1553634137.738,-2.930,28.320,37.598,85.449,71.777,0
1553634137.742,-5.859,27.344,35.156,34.668,68.848,0
1553634137.746,27.344,27.344,37.109,3.418,-3.906,0
1553634137.749,20.508,29.297,44.434,41.504,13.184,0
1553634137.753,27.344,28.809,41.504,14.648,44.434,0
1553634137.757,13.672,34.180,33.203,28.320,27.832,0
1553634137.761,23.438,36.133,33.203,6.348,26.367,0
1553634137.765,36.621,29.785,38.086,24.902,58.594,0
1553634137.769,-1.465,28.320,40.039,68.848,42.969,0
1553634137.773,-1.465,33.691,32.715,33.203,4.395,0
1553634137.777,16.113,37.598,26.367,36.621,41.504,0
1553634137.781,-1.953,31.250,27.832,44.434,67.871,0
1553634137.785,-18.066,20.020,36.621,54.688,20.020,0
1553634137.789,18.555,21.484,43.457,39.551,51.758,0
1553634137.792,36.133,34.668,35.156,41.992,36.621,0
1553634137.796,5.859,31.250,31.250,60.547,-34.180,0
1553634137.800,-5.859,31.738,31.250,14.160,35.645,0
1553634137.804,21.484,35.156,32.227,-20.996,31.250,0
1553634137.808,52.246,29.785,36.621,39.551,-9.277,0
1553634137.812,61.035,28.320,32.227,84.473,41.992,0
1553634137.816,35.645,20.508,50.293,72.754,50.781,0
1553634137.820,-19.531,22.461,62.988,53.223,40.039,0
1553634137.824,7.324,41.504,41.992,41.504,74.707,0
1553634137.828,18.555,36.621,41.992,33.203,137.695,0
1553634137.832,-15.137,20.508,55.664,29.785,64.453,0
1553634137.835,-50.293,18.066,56.641,15.625,46.875,0
1553634137.839,-5.859,29.785,45.410,45.410,79.102,0
1553634137.843,28.809,36.133,36.133,50.293,46.875,0
1553634137.847,0.488,34.180,41.992,70.801,35.156,0
1553634137.851,-0.488,23.926,50.293,56.152,4.395,0
1553634137.855,21.973,25.391,46.875,15.625,27.344,0
1553634137.859,5.371,32.227,42.480,30.762,20.508,0
1553634137.863,-3.906,23.926,47.852,83.008,58.594,0
1553634137.867,24.414,28.320,41.016,102.051,77.148,0
1553634137.871,42.969,36.133,33.203,23.926,10.742,0
1553634137.874,29.785,28.320,41.504,6.348,56.641,0
1553634137.878,-18.066,23.926,45.898,36.621,67.871,0
1553634137.882,2.930,22.461,40.527,38.086,49.316,0
1553634137.886,31.250,27.344,37.598,138.184,72.754,0
