timestamps,TP9,AF7,AF8,TP10,Right AUX,Marker0
1553808676.536,39.062,43.945,13.184,47.363,54.199,0
1553808676.540,44.922,41.992,17.090,63.477,35.156,0
1553808676.544,52.246,42.480,19.043,23.438,-6.348,0
1553808676.548,35.645,39.551,16.113,-7.324,29.785,0
1553808676.552,37.598,40.039,17.578,-1.465,56.152,0
1553808676.555,37.109,39.551,17.578,28.320,31.738,0
1553808676.559,20.508,37.598,15.625,50.781,20.020,0
1553808676.563,40.039,40.039,18.066,39.551,14.648,0
1553808676.567,33.691,40.527,20.508,16.602,25.879,0
1553808676.571,19.043,38.086,21.973,5.859,68.848,0
1553808676.575,28.809,40.039,26.367,13.672,43.457,0
1553808676.579,29.785,39.551,24.414,27.832,-34.668,0
1553808676.583,41.992,38.086,20.020,23.438,15.625,0
1553808676.587,39.062,39.062,20.508,18.555,86.426,0
1553808676.591,29.785,34.180,21.484,71.777,29.785,0
1553808676.595,54.688,34.180,19.043,51.270,23.926,0
1553808676.598,34.180,36.133,20.020,0.977,47.363,0
1553808676.602,15.625,37.598,18.555,26.367,37.598,0
1553808676.606,32.227,38.574,13.184,33.691,36.621,0
1553808676.610,33.691,40.039,13.184,35.156,-1.953,0
1553808676.614,53.223,40.527,19.043,25.879,4.395,0
1553808676.618,50.293,38.574,25.879,15.137,73.730,0
1553808676.622,3.906,33.691,27.344,42.480,71.289,0
1553808676.626,8.301,31.738,23.438,32.227,11.719,0
1553808676.630,37.598,35.645,19.531,-3.906,4.395,0
1553808676.634,46.387,37.598,26.367,41.504,27.344,0
1553808676.638,48.340,37.598,30.273,69.336,31.738,0
1553808676.641,37.109,37.109,28.320,15.625,51.758,0
1553808676.645,23.926,35.156,29.785,-0.488,64.941,0
1553808676.649,36.621,37.109,25.879,12.207,71.289,0
1553808676.653,22.949,38.574,21.973,19.043,78.125,0
1553808676.657,-4.395,37.598,21.973,29.297,-30.273,0
1553808676.661,15.625,34.668,20.508,50.293,-58.105,0
1553808676.665,45.898,34.668,12.207,15.625,10.742,0
1553808676.669,49.805,37.109,15.625,14.648,19.043,0
1553808676.673,29.785,34.180,24.902,46.387,9.766,0
1553808676.677,-0.977,28.320,21.973,35.645,17.090,0
1553808676.680,22.949,27.832,22.461,20.508,34.180,0
1553808676.684,36.621,27.344,23.438,15.625,41.016,0
1553808676.688,3.418,31.250,18.066,-2.441,60.059,0
1553808676.692,14.648,33.203,20.020,-2.441,95.215,0
1553808676.696,24.414,30.273,20.508,30.273,72.266,0
1553808676.700,21.484,34.668,19.531,11.719,85.449,0
1553808676.704,26.855,38.086,20.508,-9.277,128.418,0
1553808676.708,13.184,33.691,17.578,11.719,37.598,0
1553808676.712,25.879,34.668,15.625,28.320,-27.344,0
1553808676.716,25.391,41.016,18.066,4.883,-1.465,0
1553808676.720,27.832,41.016,20.508,24.902,20.020,0
1553808676.723,41.504,40.039,15.137,55.664,7.324,0
1553808676.727,58.105,38.574,17.090,20.020,17.090,0
1553808676.731,51.758,32.715,24.414,27.344,-4.395,0
1553808676.735,28.809,33.203,23.438,28.809,25.879,0
1553808676.739,26.367,33.691,26.367,-0.977,68.848,0
1553808676.743,19.531,29.785,30.273,2.930,61.523,0
1553808676.747,-11.230,22.949,30.273,8.789,75.684,0
1553808676.751,-12.207,19.043,34.668,13.672,31.250,0
1553808676.755,19.043,21.484,41.016,20.996,35.156,0
1553808676.759,24.414,22.461,38.086,39.062,48.340,0
1553808676.763,23.926,24.414,35.156,55.664,39.062,0
1553808676.766,33.203,28.320,39.551,33.691,68.848,0
1553808676.770,34.668,29.785,36.621,30.273,102.051,0
1553808676.774,26.367,28.809,31.250,30.762,66.895,0
1553808676.778,24.902,29.297,31.738,46.387,-5.859,0
1553808676.782,31.250,33.691,33.203,26.367,25.391,0
1553808676.786,33.691,31.250,33.691,-15.137,35.156,0
1553808676.790,29.785,24.902,29.785,3.906,11.230,0
1553808676.794,15.137,26.367,25.879,0.000,13.672,0
1553808676.798,17.090,24.902,22.949,16.113,-24.902,0
1553808676.802,37.109,24.414,22.461,28.320,2.930,0
1553808676.805,33.691,31.250,31.250,23.926,31.250,0
1553808676.809,21.973,31.738,35.156,41.504,-6.348,0
1553808676.813,28.809,25.391,33.691,53.223,16.602,0
1553808676.817,27.832,24.902,31.250,45.898,50.781,0
1553808676.821,26.367,28.320,30.273,11.230,15.137,0
1553808676.825,17.090,29.785,31.250,-5.371,31.738,0
1553808676.829,36.621,26.855,29.297,28.320,52.734,0
1553808676.833,52.734,29.297,26.855,33.691,-20.996,0
1553808676.837,32.227,35.156,27.832,20.996,28.320,0
1553808676.841,19.531,34.668,29.297,34.180,53.711,0
1553808676.845,26.855,34.180,27.344,62.500,-0.488,0
1553808676.848,45.898,37.109,27.832,49.805,59.082,0
1553808676.852,54.688,37.598,28.320,15.625,86.426,0
1553808676.856,48.340,39.062,28.809,16.113,39.551,0
1553808676.860,52.246,40.527,28.809,26.855,17.578,0
1553808676.864,45.410,39.062,27.344,21.973,52.734,0
1553808676.868,35.156,37.109,28.320,28.320,48.340,0
1553808676.872,49.316,36.621,27.832,43.457,69.824,0
1553808676.876,43.457,37.598,23.926,24.414,74.219,0
1553808676.880,21.484,38.086,18.555,26.855,21.973,0
1553808676.884,44.922,36.133,20.996,46.875,29.297,0
1553808676.888,53.223,36.621,23.438,23.438,5.859,0
1553808676.891,29.785,36.133,23.926,22.461,11.719,0
1553808676.895,18.066,31.738,26.367,36.621,31.250,0
1553808676.899,13.184,32.227,26.367,7.324,52.734,0
1553808676.903,37.109,32.715,30.762,-0.977,60.059,0
1553808676.907,49.316,32.227,26.855,42.969,-9.277,0
1553808676.911,24.902,37.598,20.020,24.414,0.977,0
1553808676.915,23.926,39.551,28.320,-11.230,31.738,0
1553808676.919,24.414,37.109,36.133,45.898,14.160,0
1553808676.923,21.484,35.645,33.691,49.805,16.113,0
1553808676.927,32.715,35.156,31.250,-12.695,7.812,0
1553808676.930,36.133,35.645,30.762,-10.742,-22.949,0
1553808676.934,22.461,30.762,31.738,26.855,44.922,0
1553808676.938,2.930,31.250,29.785,12.695,72.754,0
1553808676.942,4.395,33.203,27.344,6.836,74.219,0
1553808676.946,27.832,28.809,27.344,53.711,49.316,0
1553808676.950,32.715,29.785,29.297,48.340,19.531,0
1553808676.954,32.715,34.668,30.762,15.137,45.898,0
1553808676.958,54.199,38.086,29.297,28.320,12.207,0
1553808676.962,39.062,38.574,24.414,26.367,-15.625,0
1553808676.966,9.766,35.645,20.996,3.906,39.062,0
1553808676.970,23.438,36.621,18.555,24.414,65.430,0
1553808676.973,31.738,37.109,17.090,49.805,42.969,0
1553808676.977,33.691,38.574,16.602,21.484,42.480,0
1553808676.981,25.879,39.062,14.648,-11.230,49.805,0
1553808676.985,29.297,34.668,15.625,6.348,40.039,0
1553808676.989,26.367,34.668,18.066,13.672,32.715,0
1553808676.993,39.062,36.621,20.508,3.906,-5.859,0
1553808676.997,50.781,35.156,22.949,23.438,2.930,0
1553808677.001,41.016,34.668,23.438,29.785,41.016,0
1553808677.005,22.461,31.738,23.926,17.090,2.441,0
1553808677.009,24.414,33.691,23.438,10.742,11.719,0
1553808677.013,35.645,36.621,22.461,23.926,6.836,0
1553808677.016,45.898,34.668,25.391,36.621,41.992,0
1553808677.020,38.086,37.109,27.344,34.180,83.984,0
1553808677.024,41.992,37.598,24.414,20.020,50.293,0
1553808677.028,18.555,29.785,20.996,34.180,34.668,0
1553808677.032,0.488,29.785,17.578,25.879,43.457,0
1553808677.036,32.227,31.250,19.043,26.855,1.465,0
1553808677.040,59.082,30.762,20.508,22.949,-11.719,0
1553808677.044,83.984,34.180,17.090,32.227,-16.113,0
1553808677.048,83.984,31.738,18.066,21.973,39.062,0
1553808677.052,23.926,28.809,20.996,-3.906,82.520,0
1553808677.055,-7.812,30.762,21.484,21.484,43.457,0
1553808677.059,-3.418,32.715,16.602,16.113,4.395,0
1553808677.063,17.578,31.250,16.602,9.277,20.996,0
1553808677.067,29.785,31.250,20.020,22.949,41.504,0
1553808677.071,20.508,35.156,16.602,29.785,-6.348,0
1553808677.075,24.414,39.062,18.066,45.898,36.133,0
1553808677.079,24.902,42.969,20.508,34.668,31.250,0
1553808677.083,39.551,40.527,23.438,27.344,-8.789,0
1553808677.087,64.941,39.551,27.832,31.250,-5.859,0
1553808677.091,49.805,40.527,25.391,7.324,-13.184,0
1553808677.095,29.785,39.551,20.996,7.324,-0.977,0
1553808677.098,41.016,37.598,21.484,22.949,40.527,0
1553808677.102,61.035,39.551,23.926,38.574,18.066,0
1553808677.106,40.527,41.016,21.484,25.879,1.953,0
1553808677.110,20.996,39.062,22.949,32.227,48.828,0
1553808677.114,7.812,37.109,25.391,41.504,35.645,0
1553808677.118,66.406,34.180,22.461,40.039,21.973,0
1553808677.122,67.871,34.180,20.996,28.320,71.289,0
1553808677.126,-0.488,35.645,19.531,-4.883,104.980,0
1553808677.130,21.973,38.574,17.578,1.953,32.227,0
1553808677.134,43.457,39.062,17.578,19.531,9.277,0
1553808677.138,24.414,39.062,18.555,35.156,19.531,0
1553808677.141,22.949,39.551,21.484,48.828,49.805,0
1553808677.145,63.477,38.086,18.555,48.340,87.402,0
1553808677.149,33.691,31.738,17.090,33.203,61.523,0
1553808677.153,2.441,31.738,16.602,2.441,36.133,0
1553808677.157,-4.883,34.180,17.578,16.113,23.926,0
1553808677.161,-5.371,32.715,19.043,39.551,-0.977,0
1553808677.165,11.719,34.180,15.137,25.391,52.734,0
1553808677.169,0.000,33.203,17.578,27.832,112.793,0
1553808677.173,1.465,30.273,20.020,50.781,77.148,0
1553808677.177,14.160,31.250,19.043,60.059,92.285,0
1553808677.180,9.766,34.668,18.066,35.645,111.328,0
1553808677.184,2.930,40.039,18.555,22.461,57.617,0
1553808677.188,18.066,41.992,21.484,41.016,15.137,0
1553808677.192,32.227,39.062,19.531,25.391,23.438,0
1553808677.196,28.809,38.574,17.090,-3.418,4.395,0
1553808677.200,20.508,44.434,18.066,10.742,49.805,0
1553808677.204,14.648,44.434,16.113,35.645,63.965,0
1553808677.208,6.836,39.062,14.648,23.438,7.812,0
1553808677.212,23.926,41.016,13.184,13.184,30.762,0
1553808677.216,38.086,41.504,16.602,15.625,49.316,0
1553808677.220,6.348,39.551,19.531,43.457,67.871,0
1553808677.223,-8.789,40.527,19.043,56.152,37.598,0
1553808677.227,-11.719,39.551,17.090,14.160,23.926,0
1553808677.231,-6.836,38.574,15.625,-7.812,9.277,0
1553808677.235,26.855,40.039,15.137,6.836,-80.078,0
1553808677.239,31.738,39.551,16.113,18.555,-61.035,0
1553808677.243,12.695,35.645,20.020,43.945,36.621,0
1553808677.247,21.973,34.180,21.484,50.293,83.008,0
1553808677.251,33.691,34.180,19.043,27.832,59.570,0
1553808677.255,10.254,35.156,16.602,25.879,52.246,0
1553808677.259,11.719,34.180,11.719,16.113,24.902,0
1553808677.263,26.367,34.668,11.230,16.113,-1.465,0
1553808677.266,0.977,36.621,16.602,17.578,14.160,0
1553808677.270,-8.301,36.621,18.066,13.184,32.227,0
1553808677.274,5.371,34.668,18.555,41.992,-4.395,0
1553808677.278,28.320,36.621,18.555,28.809,-31.250,0
1553808677.282,58.594,41.992,19.531,-26.367,46.387,0
1553808677.286,8.301,43.945,18.555,-7.812,101.074,0
1553808677.290,-22.461,41.016,16.113,0.488,58.594,0
1553808677.294,13.184,34.668,16.113,4.883,-7.812,0
1553808677.298,-1.465,34.668,19.043,22.949,32.715,0
1553808677.302,1.465,37.109,21.484,24.414,63.965,0
1553808677.305,9.277,32.227,19.043,30.762,10.254,0
1553808677.309,0.977,31.738,18.555,6.348,-18.066,0
1553808677.313,24.902,35.645,20.996,-12.695,62.500,0
1553808677.317,7.324,35.645,19.043,-4.395,101.562,0
1553808677.321,-24.902,37.598,17.578,-12.695,47.363,0
1553808677.325,-18.555,40.039,19.531,-2.441,24.414,0
1553808677.329,-7.324,38.574,19.531,13.672,61.035,0
1553808677.333,15.137,37.109,22.461,23.438,72.754,0
1553808677.337,28.320,37.109,24.902,33.691,41.992,0
1553808677.341,-10.254,35.645,21.973,22.461,23.438,0
1553808677.345,-49.805,34.668,24.414,7.812,11.230,0
1553808677.348,-17.090,32.715,28.320,14.160,33.203,0
1553808677.352,-8.789,31.250,27.832,12.695,82.520,0
1553808677.356,-2.930,33.691,23.438,-15.625,30.762,0
1553808677.360,-2.930,38.086,18.066,-33.691,-44.434,0
1553808677.364,-21.484,38.086,19.043,-33.203,1.953,0
1553808677.368,-12.695,35.156,24.902,9.277,14.160,0
1553808677.372,-27.344,34.668,25.391,34.180,12.207,0
1553808677.376,-17.578,36.133,21.973,-8.789,36.133,0
1553808677.380,-10.742,34.668,24.414,-19.531,8.789,0
1553808677.384,-42.969,31.738,27.344,0.000,-29.785,0
1553808677.388,-34.668,31.250,26.855,-6.348,-26.367,0
1553808677.391,-15.137,30.762,26.367,7.812,1.953,0
1553808677.395,3.906,31.738,26.367,3.418,50.293,0
1553808677.399,-17.090,31.250,28.320,-9.277,70.801,0
1553808677.403,-28.809,35.645,27.344,-14.648,49.805,0
1553808677.407,-23.438,40.039,26.367,-4.395,57.617,0
1553808677.411,-23.926,34.180,30.273,2.930,99.121,0
1553808677.415,8.301,31.250,32.715,26.855,43.457,0
1553808677.419,-9.277,34.180,30.273,35.156,-9.766,0
1553808677.423,0.000,35.156,27.832,12.695,-13.184,0
1553808677.427,17.090,33.203,29.785,12.695,-15.137,0
1553808677.430,16.602,37.109,30.273,20.508,66.406,0
1553808677.434,7.812,37.109,29.785,24.414,71.777,0
1553808677.438,10.254,33.691,30.762,32.715,64.453,0
1553808677.442,12.207,34.180,33.203,39.551,56.641,0
1553808677.446,15.625,32.715,33.691,51.270,1.465,0
1553808677.450,26.855,32.715,31.738,58.105,63.965,0
1553808677.454,22.461,37.598,32.227,26.855,95.215,0
1553808677.458,24.902,37.109,34.668,20.996,69.336,0
1553808677.462,31.738,37.109,31.738,49.316,43.457,0
1553808677.466,35.156,38.086,25.391,25.879,19.043,0
1553808677.470,22.461,35.645,24.414,13.184,-15.137,0
1553808677.473,43.945,36.621,26.367,37.598,4.395,0
1553808677.477,35.156,34.180,24.902,19.531,12.695,0
1553808677.481,26.367,31.250,24.902,26.367,18.066,0
1553808677.485,14.648,31.250,24.414,53.223,56.152,0
1553808677.489,31.738,31.250,15.137,10.254,6.348,0
1553808677.493,64.941,34.180,14.160,7.324,-25.391,0
1553808677.497,0.000,33.203,26.855,44.434,8.301,0
1553808677.501,-11.230,31.250,35.156,14.160,26.367,0
1553808677.505,38.574,32.227,33.203,31.250,18.066,0
1553808677.509,26.855,33.691,25.879,34.668,-11.719,0
1553808677.513,-12.695,31.250,28.320,-5.371,-42.969,0
1553808677.516,-2.930,28.320,34.668,2.930,9.766,0
1553808677.520,24.902,26.367,29.297,-0.977,27.344,0
1553808677.524,33.691,25.879,29.297,8.789,-27.832,0
1553808677.528,24.902,26.855,32.715,17.090,9.277,0
1553808677.532,3.906,28.320,33.203,14.648,62.012,0
1553808677.536,31.250,25.391,32.715,41.016,43.457,0
1553808677.540,29.297,23.926,30.762,37.598,75.195,0
1553808677.544,-11.719,23.926,32.715,14.160,41.992,0
1553808677.548,25.879,24.902,34.668,41.992,-40.527,0
1553808677.552,32.715,27.344,31.250,50.781,31.250,0
1553808677.555,32.227,28.320,27.832,24.414,61.035,0
1553808677.559,40.039,30.273,29.785,24.414,93.262,0
1553808677.563,25.391,29.785,27.344,16.602,99.121,0
1553808677.567,33.691,27.832,23.926,-23.438,28.320,0
1553808677.571,27.344,26.367,31.250,-8.789,23.926,0
1553808677.575,19.531,22.461,33.203,30.273,3.906,0
1553808677.579,23.926,26.367,28.809,41.016,62.500,0
1553808677.583,55.176,31.250,30.273,40.039,158.691,0
1553808677.587,49.316,28.320,32.227,19.531,88.379,0
1553808677.591,20.996,30.762,28.809,3.906,7.324,0
1553808677.595,57.129,34.668,24.414,21.484,23.926,0
1553808677.598,59.570,32.715,22.949,33.691,2.441,0
1553808677.602,28.320,32.715,17.578,23.926,39.551,0
1553808677.606,31.250,32.715,19.043,15.625,64.453,0
1553808677.610,32.715,30.762,29.297,36.621,41.016,0
1553808677.614,29.785,31.250,26.855,15.625,60.547,0
1553808677.618,17.090,33.203,18.555,-19.043,76.660,0
1553808677.622,27.832,26.855,20.996,10.254,79.102,0
1553808677.626,55.664,20.020,25.391,36.621,68.359,0
1553808677.630,41.504,23.438,21.484,29.785,22.461,0
1553808677.634,29.297,30.762,18.066,35.645,29.785,0
1553808677.638,20.020,35.645,23.438,93.262,54.199,0
1553808677.641,49.316,36.133,23.438,30.273,44.922,0
1553808677.645,47.852,36.621,15.625,-51.758,42.480,0
1553808677.649,36.133,34.180,12.207,-14.648,68.848,0
1553808677.653,64.453,34.668,18.066,14.648,91.797,0
1553808677.657,35.645,33.203,26.855,29.297,48.828,0
1553808677.661,19.043,35.645,26.855,39.551,40.527,0
1553808677.665,63.477,37.598,21.973,28.320,92.285,0
1553808677.669,63.965,35.645,25.879,43.945,105.957,0
1553808677.673,35.156,35.645,29.785,80.566,99.121,0
1553808677.677,37.109,33.691,24.902,53.711,90.332,0
1553808677.680,25.879,31.738,23.926,21.484,69.336,0
1553808677.684,26.855,32.227,23.926,10.742,28.809,0
1553808677.688,49.316,35.645,20.508,11.230,-21.484,0
1553808677.692,63.477,35.645,23.438,22.949,11.230,0
1553808677.696,41.992,35.156,30.273,37.598,48.828,0
1553808677.700,48.340,36.133,27.832,27.832,50.781,0
1553808677.704,20.020,36.133,22.461,33.203,43.945,0
1553808677.708,2.441,35.156,19.531,17.578,18.555,0
1553808677.712,38.574,35.645,21.973,47.363,36.621,0
1553808677.716,61.035,35.645,25.391,47.363,11.230,0
1553808677.720,48.340,35.645,22.461,4.883,15.625,0
1553808677.723,32.715,39.062,19.043,21.484,72.754,0
1553808677.727,20.508,37.598,19.043,16.113,29.297,0
1553808677.731,27.832,37.598,20.020,12.695,21.484,0
1553808677.735,44.922,41.504,20.996,9.766,67.871,0
1553808677.739,40.039,40.039,20.508,25.879,52.246,0
1553808677.743,40.039,36.133,20.020,35.645,31.738,0
1553808677.747,39.062,33.203,21.973,46.387,32.227,0
1553808677.751,39.551,32.715,22.949,38.086,5.859,0
1553808677.755,41.016,33.203,22.461,29.785,15.137,0
1553808677.759,41.016,35.645,21.484,47.363,0.000,0
1553808677.763,49.805,30.273,21.973,-0.488,-8.301,0
1553808677.766,55.176,27.344,22.949,-3.906,53.223,0
1553808677.770,24.414,27.832,21.973,39.062,49.316,0
1553808677.774,0.488,26.855,23.926,37.109,42.480,0
1553808677.778,15.137,27.832,29.785,16.113,69.824,0
1553808677.782,43.945,33.691,25.391,13.184,99.121,0
1553808677.786,49.316,33.691,22.461,30.762,48.340,0
1553808677.790,45.410,28.809,30.273,43.945,-7.812,0
1553808677.794,38.086,27.344,35.645,80.566,48.340,0
1553808677.798,25.391,26.855,32.715,80.566,9.766,0
1553808677.802,27.344,30.762,26.367,62.012,11.719,0
1553808677.805,16.602,32.227,28.320,91.309,29.785,0
1553808677.809,9.766,32.715,32.227,92.773,-10.742,0
1553808677.813,19.043,33.203,35.156,76.172,36.621,0
1553808677.817,46.387,28.809,35.156,63.965,50.781,0
1553808677.821,48.340,31.250,26.367,5.371,-16.602,0
1553808677.825,35.645,33.691,22.949,-42.480,-57.617,0
1553808677.829,37.598,34.668,22.949,-44.434,-31.738,0
1553808677.833,47.852,33.203,20.996,-28.809,69.336,0
1553808677.837,57.129,31.250,24.902,-23.926,80.566,0
1553808677.841,54.688,35.156,23.926,-12.207,68.359,0
1553808677.845,51.270,32.227,22.461,3.906,76.660,0
1553808677.848,64.453,32.227,23.438,-9.277,78.125,0
1553808677.852,59.570,37.598,22.949,-0.977,35.156,0
1553808677.856,37.598,30.762,28.320,12.207,44.922,0
1553808677.860,35.156,28.320,27.832,27.344,56.152,0
1553808677.864,41.016,30.762,22.461,19.531,28.809,0
1553808677.868,62.500,27.344,22.949,22.461,36.133,0
1553808677.872,57.617,24.902,24.414,49.805,76.172,0
1553808677.876,35.156,28.809,24.414,30.273,62.988,0
1553808677.880,27.832,29.785,29.297,26.855,35.645,0
1553808677.884,51.270,21.484,34.180,41.992,1.465,0
1553808677.888,47.852,21.484,33.203,29.785,20.508,0
1553808677.891,17.090,33.203,26.855,35.645,48.340,0
1553808677.895,18.066,36.621,23.438,34.180,25.391,0
1553808677.899,37.598,31.738,24.902,31.738,-9.277,0
1553808677.903,36.133,27.832,31.250,26.855,-7.324,0
1553808677.907,46.387,25.391,36.621,6.836,16.602,0
1553808677.911,46.387,27.832,29.785,23.926,3.906,0
1553808677.915,16.113,31.738,24.902,26.855,48.340,0
1553808677.919,12.695,30.273,23.438,4.395,47.852,0
1553808677.923,43.945,29.785,23.438,23.926,-19.531,0
1553808677.927,46.875,29.785,27.832,43.945,12.207,0
1553808677.930,29.785,31.250,24.414,26.367,47.363,0
1553808677.934,41.504,31.738,20.996,20.996,5.859,0
1553808677.938,34.668,31.250,24.414,47.852,14.160,0
1553808677.942,34.668,29.785,25.879,51.758,1.953,0
1553808677.946,50.293,29.785,25.391,47.363,20.996,0
1553808677.950,55.664,34.180,24.414,16.602,90.820,0
1553808677.954,45.410,34.668,23.926,-19.043,84.961,0
1553808677.958,30.762,32.227,23.926,28.809,22.461,0
1553808677.962,15.137,28.809,28.320,40.039,37.598,0
1553808677.966,18.555,27.832,29.297,38.086,97.656,0
1553808677.970,59.570,41.016,20.996,65.430,62.988,0
1553808677.973,80.078,45.410,20.020,28.809,49.805,0
1553808677.977,29.785,34.180,22.949,26.367,71.777,0
1553808677.981,3.906,27.832,25.879,29.785,39.551,0
1553808677.985,48.828,31.250,24.902,-3.418,14.160,0
1553808677.989,72.266,35.645,21.973,-7.324,4.395,0
1553808677.993,41.992,35.156,25.391,-1.465,48.828,0
1553808677.997,59.082,34.668,26.367,23.438,71.289,0
1553808678.001,76.660,38.574,22.461,20.508,10.254,0
1553808678.005,19.043,39.551,20.996,26.367,-5.859,0
1553808678.009,15.625,33.691,24.902,46.875,41.992,0
1553808678.013,22.949,30.762,29.297,34.180,20.508,0
1553808678.016,14.160,31.738,27.832,25.879,40.039,0
1553808678.020,18.066,27.344,22.461,10.742,56.152,0
1553808678.024,31.250,30.762,22.949,6.836,67.871,0
1553808678.028,54.199,38.086,28.809,9.277,51.758,0
1553808678.032,71.777,38.086,33.203,27.832,9.277,0
1553808678.036,80.078,41.992,32.715,39.062,41.016,0
1553808678.040,44.434,40.039,28.320,45.410,55.664,0
1553808678.044,25.391,34.668,25.391,50.781,55.664,0
1553808678.048,53.711,40.039,22.949,19.531,15.137,0
1553808678.052,72.266,48.340,13.184,11.719,-25.879,0
1553808678.055,70.801,46.387,10.742,54.199,9.766,0
1553808678.059,48.828,43.457,18.066,20.020,45.410,0
1553808678.063,64.941,42.480,17.578,31.738,34.180,0
1553808678.067,123.535,41.992,9.766,37.598,26.367,0
1553808678.071,114.746,41.016,11.230,32.227,4.883,0
1553808678.075,118.164,35.156,19.531,102.539,15.625,0
1553808678.079,136.719,44.922,12.207,86.914,87.402,0
1553808678.083,125.488,46.875,8.301,52.734,72.266,0
1553808678.087,148.438,30.762,13.672,58.105,-18.066,0
1553808678.091,142.578,30.762,18.555,36.621,37.109,0
1553808678.095,132.812,31.738,20.020,69.824,51.270,0
1553808678.098,188.477,36.133,12.695,76.660,17.578,0
1553808678.102,227.539,42.480,14.160,48.828,39.551,0
1553808678.106,243.652,43.945,21.484,69.336,-0.488,0
1553808678.110,273.926,43.945,18.555,35.156,12.207,0
1553808678.114,297.852,30.273,24.902,46.875,45.410,0
1553808678.118,302.246,40.039,22.461,64.941,58.105,0
1553808678.122,282.715,48.340,15.625,-8.301,41.016,0
1553808678.126,336.426,27.832,21.484,15.625,-5.859,0
1553808678.130,398.438,19.043,32.715,69.824,-14.160,0
1553808678.134,451.660,29.785,39.062,74.707,7.812,0
1553808678.138,503.906,32.715,39.062,51.758,49.805,0
1553808678.141,581.055,33.691,38.086,60.547,68.848,0
1553808678.145,694.336,41.504,37.109,47.852,43.457,0
1553808678.149,786.133,41.992,41.992,37.109,34.668,0
1553808678.153,817.383,34.180,44.922,75.684,92.285,0
1553808678.157,849.121,35.156,39.551,46.387,74.219,0
1553808678.161,954.102,40.039,40.039,61.035,23.926,0
1553808678.165,-997.559,38.086,47.852,115.723,85.449,0
1553808678.169,996.582,35.645,54.199,162.109,118.164,0
1553808678.173,999.023,37.109,50.781,100.586,58.105,0
1553808678.177,999.512,41.992,42.969,17.578,106.934,0
1553808678.180,999.512,41.016,41.016,53.223,143.066,0
1553808678.184,999.512,41.016,38.086,81.055,169.922,0
1553808678.188,999.512,40.039,34.180,92.773,256.836,0
1553808678.192,999.512,32.715,41.504,123.535,324.219,0
1553808678.196,999.512,34.180,41.992,141.113,432.617,0
1553808678.200,999.512,42.969,35.645,77.637,487.793,0
1553808678.204,-1000.000,41.992,41.992,13.672,567.383,0
1553808678.208,996.094,41.504,42.480,18.066,599.609,0
1553808678.212,-998.535,44.434,32.715,25.391,585.449,0
1553808678.216,974.121,42.969,25.391,19.043,610.352,0
1553808678.220,852.539,38.086,31.738,45.410,618.652,0
1553808678.223,724.609,39.062,33.203,55.664,609.375,0
1553808678.227,547.852,35.156,25.391,35.645,601.074,0
1553808678.231,395.508,25.391,24.902,22.461,583.496,0
1553808678.235,346.191,21.973,29.297,4.395,594.727,0
1553808678.239,267.090,23.438,30.762,37.109,521.484,0
1553808678.243,229.492,31.250,21.973,51.758,449.219,0
1553808678.247,224.609,36.621,16.602,24.414,424.805,0
1553808678.251,210.938,34.668,22.461,24.902,393.555,0
1553808678.255,184.570,29.297,29.785,61.035,395.020,0
1553808678.259,149.902,29.785,26.855,97.168,407.715,0
1553808678.263,124.512,30.273,22.461,85.449,408.203,0
1553808678.266,126.465,27.344,28.809,76.172,444.824,0
1553808678.270,139.160,32.715,27.344,73.242,405.762,0
1553808678.274,161.621,36.621,27.832,84.961,373.047,0
1553808678.278,168.945,39.062,28.809,91.797,359.375,0
1553808678.282,163.086,36.621,22.461,44.922,367.676,0
1553808678.286,208.008,31.738,17.578,-42.480,363.281,0
1553808678.290,249.023,34.180,16.602,-74.219,333.496,0
1553808678.294,259.277,38.574,20.020,-78.613,377.441,0
1553808678.298,295.898,36.133,21.484,-56.641,392.578,0
1553808678.302,322.266,31.738,27.344,-14.648,355.957,0
1553808678.305,376.953,29.297,30.762,2.441,363.281,0
1553808678.309,418.457,28.320,26.855,46.387,371.582,0
1553808678.313,446.777,29.785,24.414,14.160,346.680,0
1553808678.317,519.043,30.762,26.855,-24.414,394.531,0
1553808678.321,545.410,29.785,34.668,12.207,483.887,0
1553808678.325,573.242,30.273,35.645,31.738,469.238,0
1553808678.329,636.719,34.668,33.203,42.480,448.242,0
1553808678.333,690.918,38.574,31.738,69.824,493.164,0
1553808678.337,684.570,37.109,26.367,61.523,417.480,0
1553808678.341,683.105,31.250,31.738,42.969,390.625,0
1553808678.345,724.121,29.785,35.645,28.320,472.168,0
1553808678.348,712.891,32.715,27.344,6.836,501.953,0
1553808678.352,659.180,38.574,18.555,49.316,498.047,0
1553808678.356,623.535,34.668,23.438,55.176,502.930,0
1553808678.360,602.051,25.879,31.250,24.414,489.258,0
1553808678.364,600.098,31.738,25.879,46.875,500.977,0
1553808678.368,593.750,41.016,17.090,59.082,478.516,0
1553808678.372,555.664,37.598,20.508,103.027,416.016,0
1553808678.376,506.836,30.762,20.508,51.758,457.031,0
1553808678.380,449.707,28.809,18.066,-53.223,417.480,0
1553808678.384,393.066,30.762,22.949,-14.648,366.699,0
1553808678.388,337.891,33.203,15.137,29.785,328.613,0
1553808678.391,306.152,33.691,14.648,48.340,286.621,0
1553808678.395,271.973,29.785,20.996,3.418,306.641,0
1553808678.399,279.785,29.785,18.066,21.973,307.129,0
1553808678.403,264.648,36.621,22.949,57.617,248.047,0
1553808678.407,202.148,25.391,30.762,21.484,208.496,0
1553808678.411,159.180,19.531,26.855,7.324,181.152,0
1553808678.415,151.855,33.203,19.531,11.719,206.055,0
1553808678.419,168.457,41.504,12.695,-11.719,214.355,0
1553808678.423,151.855,39.551,10.742,12.207,167.969,0
1553808678.427,123.535,35.645,20.996,52.246,133.301,0
1553808678.430,107.910,33.691,23.438,21.973,145.020,0
1553808678.434,92.285,30.273,27.344,56.641,154.297,0
1553808678.438,102.539,35.156,30.762,53.711,135.742,0
1553808678.442,107.422,41.992,21.484,-34.668,124.023,0
1553808678.446,81.543,35.645,20.020,-39.551,93.750,0
1553808678.450,102.539,30.273,24.414,10.742,87.402,0
1553808678.454,122.559,35.156,24.414,25.879,107.422,0
1553808678.458,119.141,38.574,22.461,38.086,131.836,0
1553808678.462,116.211,36.621,23.926,55.664,129.395,0
1553808678.466,94.727,31.738,27.832,20.020,101.562,0
1553808678.470,73.730,31.738,28.809,-0.488,116.699,0
1553808678.473,69.336,29.785,28.320,-7.812,125.488,0
1553808678.477,85.938,27.832,25.879,-21.973,112.793,0
1553808678.481,88.867,31.738,22.949,-27.344,83.984,0
1553808678.485,69.824,35.156,25.879,-20.020,92.773,0
1553808678.489,75.684,33.203,28.809,26.855,124.023,0
1553808678.493,104.004,31.738,33.203,43.457,125.000,0
1553808678.497,121.094,31.738,34.668,24.414,111.328,0
1553808678.501,101.074,31.738,29.297,-2.930,155.273,0
1553808678.505,94.238,32.715,20.996,-57.129,142.090,0
1553808678.509,143.066,34.668,11.719,-57.129,118.164,0
1553808678.513,145.508,32.715,23.926,-10.742,119.629,0
1553808678.516,104.980,29.297,37.109,26.855,129.395,0
1553808678.520,86.426,30.273,33.203,62.988,166.992,0
1553808678.524,108.887,28.809,30.273,39.551,147.949,0
1553808678.528,120.605,23.926,32.715,5.859,149.902,0
1553808678.532,109.863,16.113,34.668,82.520,149.414,0
1553808678.536,150.879,10.254,37.598,91.309,171.875,0
1553808678.540,184.570,8.301,41.016,43.945,209.473,0
1553808678.544,210.938,5.859,39.062,82.031,218.262,0
1553808678.548,207.031,6.836,42.480,104.004,211.426,0
1553808678.552,208.008,9.277,45.410,78.613,200.195,0
1553808678.555,208.008,10.254,41.504,118.652,217.773,0
1553808678.559,200.195,8.789,45.898,121.582,243.164,0
1553808678.563,222.656,8.301,52.734,46.387,252.930,0
1553808678.567,234.375,10.742,52.734,73.242,186.523,0
1553808678.571,220.703,15.137,49.805,158.203,185.547,0
1553808678.575,186.035,14.648,51.758,190.430,225.586,0
1553808678.579,192.383,17.578,50.781,83.496,231.445,0
1553808678.583,196.289,25.391,50.293,29.785,255.371,0
1553808678.587,178.223,26.367,52.246,101.562,249.512,0
1553808678.591,178.711,25.391,48.340,125.488,193.359,0
1553808678.595,154.297,23.926,41.504,122.559,215.820,0
1553808678.598,112.793,21.484,45.898,100.586,256.348,0
1553808678.602,93.750,21.973,45.898,82.031,233.398,0
1553808678.606,113.770,27.832,40.527,96.680,207.031,0
1553808678.610,138.672,31.250,37.598,85.449,255.859,0
1553808678.614,158.203,26.367,33.691,84.961,309.570,0
1553808678.618,186.035,27.344,32.715,125.977,212.891,0
1553808678.622,172.363,28.809,33.203,135.742,173.828,0
1553808678.626,133.789,26.367,30.273,39.551,195.312,0
1553808678.630,125.000,22.949,27.832,28.320,187.500,0
1553808678.634,136.230,20.508,29.785,66.406,223.145,0
1553808678.638,138.672,22.949,29.785,60.059,237.305,0
1553808678.641,150.391,26.855,27.832,99.609,268.555,0
1553808678.645,157.715,27.832,26.855,103.516,273.438,0
1553808678.649,128.906,27.832,22.949,74.707,239.258,0
1553808678.653,119.629,28.809,21.973,96.191,200.684,0
1553808678.657,104.004,31.250,20.508,89.844,178.223,0
1553808678.661,96.191,34.180,13.672,54.199,112.305,0
1553808678.665,93.750,33.691,15.625,71.289,106.445,0
1553808678.669,66.406,30.273,20.996,67.383,161.133,0
1553808678.673,16.113,27.344,26.855,61.523,175.293,0
1553808678.677,-24.902,22.461,29.785,62.500,169.922,0
1553808678.680,1.465,23.926,23.926,29.785,154.297,0
1553808678.684,30.762,34.180,19.531,7.324,151.367,0
1553808678.688,31.250,32.715,22.949,50.781,114.746,0
1553808678.692,11.719,29.785,20.508,52.246,72.754,0
1553808678.696,12.207,34.668,17.578,48.828,86.426,0
1553808678.700,-0.977,36.133,22.949,54.199,97.168,0
1553808678.704,1.465,36.621,21.484,34.668,3.906,0
1553808678.708,23.438,38.086,18.066,43.457,-14.648,0
1553808678.712,34.180,40.039,18.555,37.598,93.750,0
1553808678.716,34.668,43.457,20.508,44.434,62.012,0
1553808678.720,28.320,42.969,19.043,41.504,-57.129,0
1553808678.723,0.488,39.551,25.391,64.941,-10.742,0
1553808678.727,-0.977,29.785,33.203,101.562,26.855,0
1553808678.731,39.551,30.273,28.809,45.410,-11.719,0
1553808678.735,21.484,35.156,24.414,17.090,-55.176,0
1553808678.739,-28.809,25.879,30.762,46.875,-34.180,0
1553808678.743,-17.578,26.367,28.320,29.785,-20.020,0
1553808678.747,28.809,34.180,24.414,64.453,-24.414,0
1553808678.751,38.574,33.691,26.855,58.594,10.254,0
1553808678.755,36.133,31.250,23.926,31.738,-0.977,0
1553808678.759,31.250,34.180,16.113,48.340,-59.570,0
1553808678.763,36.133,33.691,16.113,30.273,-64.941,0
1553808678.766,59.082,31.738,18.555,41.992,-68.359,0
1553808678.770,72.754,38.574,17.578,55.176,-109.375,0
1553808678.774,59.082,43.945,20.508,41.504,-126.465,0
1553808678.778,43.457,38.086,29.297,44.434,-84.473,0
1553808678.782,68.848,29.785,33.203,36.133,-90.332,0
1553808678.786,72.754,29.297,30.273,20.996,-106.934,0
1553808678.790,47.852,32.715,25.879,24.414,-99.609,0
1553808678.794,71.289,33.691,25.391,25.879,-103.027,0
1553808678.798,120.117,39.062,22.461,28.809,-146.484,0
1553808678.802,110.840,41.504,20.508,55.176,-162.109,0
1553808678.805,41.016,36.133,21.484,26.367,-144.531,0
1553808678.809,53.711,31.738,24.902,20.508,-137.695,0
1553808678.813,40.039,28.809,28.809,40.527,-104.492,0
1553808678.817,-36.621,22.461,31.250,19.531,-80.566,0
1553808678.821,-27.344,20.996,31.250,23.438,-134.277,0
1553808678.825,-2.930,26.855,30.273,45.898,-151.855,0
1553808678.829,-10.254,30.273,25.879,63.477,-145.996,0
1553808678.833,0.488,32.715,23.926,52.246,-173.340,0
1553808678.837,-11.719,28.809,31.250,36.133,-204.590,0
1553808678.841,-21.973,22.461,33.691,28.320,-194.336,0
1553808678.845,-36.133,25.391,29.297,32.227,-153.320,0
1553808678.848,-53.711,28.320,25.391,37.109,-162.109,0
1553808678.852,-49.316,27.832,24.902,69.336,-207.031,0
1553808678.856,-54.199,29.785,28.320,78.613,-224.121,0
1553808678.860,-40.527,33.691,26.367,17.090,-212.402,0
1553808678.864,-62.988,36.133,20.020,-27.832,-161.133,0
1553808678.868,-86.426,32.227,28.809,20.996,-123.047,0
1553808678.872,-87.402,27.832,38.086,106.445,-100.586,0
1553808678.876,-38.574,28.809,35.156,49.316,-131.348,0
1553808678.880,-48.828,34.668,33.691,0.977,-186.035,0
1553808678.884,-108.887,36.621,36.621,51.270,-175.293,0
1553808678.888,-121.582,35.156,33.203,38.086,-190.430,0
1553808678.891,-97.656,32.715,32.227,41.504,-188.477,0
1553808678.895,-80.566,29.785,29.297,0.488,-169.922,0
1553808678.899,-128.906,26.855,25.391,-11.719,-201.172,0
1553808678.903,-168.457,23.438,27.344,63.965,-176.758,0
1553808678.907,-170.410,27.344,24.902,81.055,-134.766,0
1553808678.911,-156.738,32.715,24.902,44.922,-154.785,0
1553808678.915,-154.785,35.156,27.344,16.602,-154.785,0
1553808678.919,-197.754,34.180,22.949,39.551,-150.879,0
1553808678.923,-149.902,41.504,17.578,9.766,-164.551,0
1553808678.927,-140.625,52.246,14.648,-80.078,-139.648,0
1553808678.930,-217.773,52.246,6.836,-79.102,-157.715,0
1553808678.934,-224.609,52.734,3.906,-23.926,-189.941,0
1553808678.938,-212.891,60.059,0.488,15.625,-168.945,0
1553808678.942,-205.078,61.035,-5.371,-27.832,-157.715,0
1553808678.946,-218.750,61.035,-6.348,-98.145,-156.738,0
1553808678.950,-217.773,65.430,-6.836,-80.566,-216.309,0
1553808678.954,-190.430,69.336,-8.789,-65.430,-193.359,0
1553808678.958,-235.840,70.801,-3.906,-88.379,-147.949,0
1553808678.962,-284.668,73.730,-2.930,-103.027,-149.902,0
1553808678.966,-235.840,68.359,-8.301,-88.379,-104.980,0
1553808678.970,-227.051,59.082,-2.930,-70.801,-141.602,0
1553808678.973,-266.113,61.035,4.395,-67.383,-154.297,0
1553808678.977,-261.230,63.965,6.348,-78.125,-89.355,0
1553808678.981,-271.484,61.523,5.859,-64.453,-140.137,0
1553808678.985,-280.273,60.059,12.695,-47.852,-195.312,0
1553808678.989,-309.082,64.941,16.602,-52.734,-147.461,0
1553808678.993,-334.473,73.242,11.719,-113.770,-165.527,0
1553808678.997,-327.148,78.125,12.207,-95.703,-150.879,0
1553808679.001,-301.270,71.777,18.066,-60.547,-166.992,0
1553808679.005,-255.371,70.801,19.531,-77.637,-230.469,0
1553808679.009,-270.020,71.289,21.484,-34.668,-202.637,0
1553808679.013,-315.430,62.988,21.484,-57.617,-177.734,0
1553808679.016,-311.035,53.223,22.949,-100.098,-180.664,0
1553808679.020,-302.734,47.852,23.926,-84.473,-217.285,0
1553808679.024,-266.113,51.270,19.043,-27.344,-254.395,0
1553808679.028,-228.027,47.363,20.996,16.602,-176.758,0
1553808679.032,-163.574,42.480,20.996,34.180,-155.762,0
1553808679.036,-101.074,42.969,15.625,14.648,-146.484,0
1553808679.040,-44.434,36.133,17.090,8.789,-130.859,0
1553808679.044,-6.836,32.227,19.043,5.371,-181.152,0
1553808679.048,-12.207,38.086,17.090,7.812,-161.621,0
1553808679.052,-3.906,41.504,14.160,19.531,-144.043,0
1553808679.055,14.648,36.133,19.531,7.324,-120.117,0
1553808679.059,21.484,35.156,22.949,-6.836,-80.566,0
1553808679.063,33.203,31.738,21.973,18.066,-93.750,0
1553808679.067,58.594,24.414,23.438,37.598,-103.516,0
1553808679.071,51.270,20.508,25.879,37.109,-67.383,0
1553808679.075,29.785,20.996,23.926,45.898,-46.875,0
1553808679.079,75.195,26.367,18.066,61.523,-72.266,0
1553808679.083,86.426,25.391,18.555,60.059,-110.840,0
1553808679.087,35.156,21.484,20.020,71.777,-115.234,0
1553808679.091,22.949,25.391,19.531,66.895,-70.312,0
1553808679.095,44.434,28.809,20.020,42.969,-41.992,0
1553808679.098,79.102,26.855,19.043,21.484,-47.852,0
1553808679.102,33.691,20.508,20.996,0.488,-100.586,0
1553808679.106,17.090,26.367,24.902,37.598,-117.676,0
1553808679.110,42.969,32.715,21.973,43.945,-22.949,0
1553808679.114,9.766,27.832,18.066,30.762,24.902,0
1553808679.118,5.371,31.250,12.207,45.410,-6.348,0
1553808679.122,-1.465,32.715,13.672,61.035,-24.902,0
1553808679.126,-74.707,25.879,16.602,-4.883,-68.359,0
1553808679.130,-115.234,23.438,12.695,-34.668,-100.098,0
1553808679.134,-83.496,25.391,13.672,2.930,-54.688,0
1553808679.138,-101.562,25.879,16.113,25.391,-52.246,0
1553808679.141,-121.582,25.391,20.508,80.566,-94.727,0
1553808679.145,-106.934,24.902,21.973,93.750,-118.164,0
1553808679.149,-105.957,28.320,17.090,25.879,-74.707,0
1553808679.153,-165.527,27.344,16.602,16.602,-37.109,0
1553808679.157,-226.074,29.785,20.508,20.020,-32.227,0
1553808679.161,-224.121,29.785,23.438,29.297,-35.645,0
1553808679.165,-173.340,27.344,21.973,39.062,-32.715,0
1553808679.169,-135.254,38.574,27.344,76.660,-60.059,0
1553808679.173,-183.105,41.504,19.531,68.848,-69.336,0
1553808679.177,-226.562,30.273,4.883,28.809,-67.383,0
1553808679.180,-285.156,24.902,2.930,11.719,-104.980,0
1553808679.184,-365.234,19.531,5.371,12.207,-129.395,0
1553808679.188,-398.926,18.066,15.625,-28.320,-166.016,0
1553808679.192,-395.020,23.438,4.883,-31.738,-140.137,0
1553808679.196,-382.324,27.344,0.488,10.254,-114.746,0
1553808679.200,-375.977,24.414,17.090,69.824,-160.645,0
1553808679.204,-409.180,25.391,27.832,60.547,-208.496,0
1553808679.208,-450.195,31.250,43.457,-30.762,-229.980,0
1553808679.212,-500.000,25.391,23.926,-23.438,-229.492,0
1553808679.216,-511.230,16.602,7.812,5.859,-246.582,0
1553808679.220,-530.762,17.578,34.668,27.344,-290.039,0
1553808679.223,-559.082,20.996,37.109,45.898,-299.805,0
1553808679.227,-598.145,19.043,12.207,52.246,-293.457,0
1553808679.231,-707.520,17.578,9.277,59.570,-305.664,0
1553808679.235,-831.055,15.625,17.090,50.293,-320.312,0
1553808679.239,-924.805,12.207,22.461,13.184,-371.094,0
1553808679.243,-960.938,9.766,26.367,-38.086,-471.191,0
1553808679.247,-981.445,10.254,20.020,-38.574,-500.488,0
1553808679.251,-879.395,15.137,21.973,59.570,-463.867,0
1553808679.255,-649.414,20.996,20.996,69.824,-459.961,0
1553808679.259,-582.031,25.391,19.043,5.859,-480.957,0
1553808679.263,-535.645,24.902,29.297,-16.113,-505.371,0
1553808679.266,-443.359,25.391,39.062,9.277,-422.363,0
1553808679.270,-390.625,30.762,41.992,54.688,-332.520,0
1553808679.274,-369.629,23.438,40.527,67.871,-359.375,0
1553808679.278,-327.148,20.020,35.645,57.617,-407.715,0
1553808679.282,-260.254,25.879,30.273,32.227,-365.234,0
1553808679.286,-260.742,30.273,27.832,36.133,-299.316,0
1553808679.290,-330.078,31.738,28.320,6.348,-337.402,0
1553808679.294,-330.566,32.715,27.832,16.602,-293.457,0
1553808679.298,-330.566,31.250,28.320,52.734,-231.934,0
1553808679.302,-381.348,26.367,24.902,20.020,-251.953,0
1553808679.305,-407.715,24.414,24.414,14.160,-209.473,0
1553808679.309,-439.941,30.273,23.438,8.301,-165.039,0
1553808679.313,-454.590,29.297,20.020,-3.418,-210.938,0
1553808679.317,-457.520,22.949,21.484,4.395,-194.824,0
1553808679.321,-514.160,22.949,20.020,26.367,-145.020,0
1553808679.325,-533.691,23.926,21.484,55.664,-125.977,0
1553808679.329,-512.207,26.855,20.996,39.062,-142.578,0
1553808679.333,-522.949,28.320,14.648,-16.602,-192.871,0
1553808679.337,-465.332,28.320,21.973,13.184,-175.781,0
1553808679.341,-650.879,31.738,17.578,24.414,-141.113,0
1553808679.345,-975.098,28.320,-19.531,-86.914,-164.551,0
1553808679.348,-970.215,17.578,-25.391,-73.730,-187.988,0
1553808679.352,-960.449,17.578,-10.254,-15.625,-189.453,0
1553808679.356,-966.309,20.020,-1.953,-11.719,-196.777,0
1553808679.360,-975.586,23.438,8.789,-13.184,-156.738,0
1553808679.364,-922.852,27.344,15.625,-26.367,-140.137,0
1553808679.368,-780.762,25.879,23.926,-20.508,-108.887,0
1553808679.372,-591.797,29.785,28.320,3.906,-73.730,0
1553808679.376,-428.711,34.668,28.320,-26.367,-70.801,0
1553808679.380,-356.934,34.668,31.738,-52.246,-49.316,0
1553808679.384,-270.508,33.691,36.133,-11.230,-87.891,0
1553808679.388,-189.453,34.668,36.133,6.836,-76.172,0
1553808679.391,-103.027,34.668,34.668,-22.461,-42.480,0
1553808679.395,-52.246,34.180,35.156,-58.105,-86.426,0
1553808679.399,-37.109,31.738,33.203,-6.836,-60.059,0
1553808679.403,-13.672,28.320,33.203,65.918,-14.648,0
1553808679.407,29.785,28.320,35.645,-2.441,-48.340,0
1553808679.411,24.902,28.809,41.504,-18.066,-42.480,0
1553808679.415,51.758,32.715,41.504,64.453,-24.414,0
1553808679.419,87.402,34.668,38.574,48.340,14.160,0
1553808679.423,92.773,34.180,40.039,17.578,-7.324,0
1553808679.427,91.797,31.250,38.086,12.207,-51.270,0
1553808679.430,83.008,29.785,31.738,-22.949,-42.480,0
1553808679.434,102.539,30.273,30.762,-75.684,-7.324,0
1553808679.438,129.883,31.738,33.691,-62.012,-6.348,0
1553808679.442,128.418,35.645,35.156,-10.254,-2.441,0
1553808679.446,92.285,36.133,36.621,10.254,26.855,0
1553808679.450,58.105,33.691,33.691,21.973,-18.066,0
1553808679.454,99.609,33.691,32.227,-4.883,-59.570,0
1553808679.458,105.957,31.250,36.133,51.270,-13.672,0
1553808679.462,86.914,29.785,34.180,49.316,-11.719,0
1553808679.466,140.137,30.273,27.832,-43.945,-19.043,0
1553808679.470,113.770,26.367,30.273,-10.254,4.395,0
1553808679.473,88.379,26.855,31.738,4.395,1.465,0
1553808679.477,75.684,25.391,28.809,-10.254,-9.766,0
1553808679.481,104.980,23.926,30.762,67.383,0.977,0
1553808679.485,153.809,26.367,32.715,58.105,-40.527,0
1553808679.489,151.367,29.297,31.738,-52.246,-48.828,0
1553808679.493,143.555,27.344,37.109,-15.137,-9.766,0
1553808679.497,143.066,25.879,41.504,51.270,10.742,0
1553808679.501,221.680,30.762,40.527,30.273,59.082,0
1553808679.505,220.703,31.250,36.621,21.973,58.105,0
1553808679.509,198.730,30.273,31.250,1.953,41.992,0
1553808679.513,186.035,30.273,32.227,45.898,34.668,0
1553808679.516,178.711,30.273,34.668,43.457,43.457,0
1553808679.520,205.566,31.738,29.785,28.320,-6.836,0
1553808679.524,202.637,35.156,23.926,19.531,-20.508,0
1553808679.528,191.895,37.598,21.973,-27.344,-23.438,0
1553808679.532,200.195,30.762,22.461,-16.602,-7.324,0
1553808679.536,187.988,25.391,26.855,41.016,46.875,0
1553808679.540,159.668,26.855,28.320,76.172,6.836,0
1553808679.544,133.301,28.809,31.250,14.648,22.949,0
1553808679.548,117.188,30.273,32.715,25.879,43.457,0
1553808679.552,115.234,28.320,30.762,42.480,12.207,0
1553808679.555,114.258,26.855,30.762,66.895,-18.555,0
1553808679.559,115.723,27.344,27.832,29.785,-15.137,0
1553808679.563,83.984,26.367,26.367,-1.953,23.926,0
1553808679.567,71.289,29.785,25.391,29.785,39.551,0
1553808679.571,105.957,34.180,25.391,8.789,55.664,0
1553808679.575,76.172,35.645,29.297,-3.906,50.293,0
1553808679.579,32.227,37.109,26.367,-11.719,-14.648,0
1553808679.583,77.637,34.668,27.832,11.719,-21.973,0
1553808679.587,105.957,33.203,32.715,10.254,76.660,0
1553808679.591,50.781,30.273,32.227,50.293,81.543,0
1553808679.595,-3.418,29.297,29.297,101.074,67.383,0
1553808679.598,32.227,32.715,27.832,47.852,49.805,0
1553808679.602,55.664,36.133,30.762,8.301,23.926,0
1553808679.606,38.086,35.645,29.297,38.574,53.223,0
1553808679.610,59.082,33.691,24.414,71.777,14.160,0
1553808679.614,59.570,37.109,21.973,49.316,41.016,0
1553808679.618,47.852,36.621,23.438,12.695,65.918,0
1553808679.622,21.973,33.691,25.879,5.859,18.066,0
1553808679.626,28.320,33.691,22.461,-13.184,17.578,0
1553808679.630,72.754,32.715,22.461,44.434,-23.926,0
1553808679.634,73.242,32.227,28.809,85.449,-5.859,0
1553808679.638,6.348,28.320,29.785,-24.414,32.715,0
1553808679.641,4.883,24.902,26.855,-43.457,41.504,0
1553808679.645,-2.930,27.344,26.367,-4.395,57.617,0
1553808679.649,1.953,27.832,26.367,17.090,29.297,0
1553808679.653,36.621,28.320,25.391,54.688,44.922,0
1553808679.657,17.090,30.273,25.879,38.574,41.016,0
1553808679.661,39.062,31.738,23.926,-26.855,55.664,0
1553808679.665,24.902,31.250,22.461,-2.930,59.570,0
1553808679.669,-4.883,30.273,23.926,19.043,23.438,0
1553808679.673,4.395,26.855,27.344,53.223,2.441,0
1553808679.677,0.000,27.832,29.297,63.477,26.367,0
1553808679.680,11.230,29.785,29.785,13.184,44.922,0
1553808679.684,-3.418,24.902,27.344,-6.348,7.324,0
1553808679.688,-12.695,28.320,24.902,-20.508,48.340,0
1553808679.692,14.648,31.250,26.367,-17.090,73.242,0
1553808679.696,20.020,26.367,29.785,31.738,23.926,0
1553808679.700,-3.418,26.367,28.809,67.871,-15.625,0
1553808679.704,-9.766,30.762,23.438,6.836,36.621,0
1553808679.708,21.484,29.785,21.973,-27.832,50.781,0
1553808679.712,14.648,25.391,25.391,28.320,23.926,0
1553808679.716,-2.441,25.879,29.297,45.898,34.180,0
1553808679.720,-9.766,30.762,28.320,0.488,9.766,0
1553808679.723,8.301,32.715,28.320,2.441,30.762,0
1553808679.727,11.230,30.762,28.809,26.855,47.363,0
1553808679.731,-25.391,30.273,25.391,25.391,41.504,0
1553808679.735,-39.062,31.250,20.508,17.578,22.949,0
1553808679.739,-22.949,32.715,20.996,6.836,-15.137,0
1553808679.743,-28.809,32.715,24.902,-2.930,41.504,0
1553808679.747,-63.965,31.738,21.973,32.715,55.176,0
1553808679.751,-78.125,31.250,24.414,49.316,8.789,0
1553808679.755,-57.129,30.762,28.320,3.418,52.734,0
1553808679.759,-61.523,30.273,24.414,-15.137,9.766,0
1553808679.763,-67.383,33.203,25.391,-45.898,-2.930,0
1553808679.766,-65.918,34.180,28.320,-65.430,79.590,0
1553808679.770,-102.539,27.832,24.902,-27.344,50.781,0
1553808679.774,-115.723,26.367,23.926,40.039,18.555,0
1553808679.778,-99.609,26.367,27.344,52.734,59.570,0
1553808679.782,-91.309,26.367,28.320,-9.766,-15.625,0
1553808679.786,-83.008,27.832,27.832,-11.230,-12.695,0
1553808679.790,-105.469,24.902,25.879,24.902,38.086,0
1553808679.794,-126.465,23.926,25.391,3.906,7.812,0
1553808679.798,-103.027,25.879,24.902,13.184,3.418,0
1553808679.802,-69.336,26.855,25.391,37.598,57.617,0
1553808679.805,-57.617,30.273,24.902,51.270,77.148,0
1553808679.809,-77.637,31.250,25.879,44.922,-2.441,0
1553808679.813,-73.730,26.855,25.391,-8.789,-30.273,0
1553808679.817,-72.266,25.391,24.902,31.738,-12.695,0
1553808679.821,-110.840,32.715,29.785,61.523,3.906,0
1553808679.825,-111.816,32.715,29.785,20.996,57.617,0
1553808679.829,-108.887,28.320,31.250,24.902,71.289,0
1553808679.833,-75.684,32.227,30.762,19.531,14.160,0
1553808679.837,-67.871,36.621,29.297,41.016,-39.551,0
1553808679.841,-53.223,39.551,29.297,59.082,19.043,0
1553808679.845,-16.602,41.992,27.832,33.691,41.992,0
1553808679.848,-21.973,42.969,22.949,-1.953,39.551,0
1553808679.852,-33.203,39.062,21.973,0.000,43.945,0
1553808679.856,-0.488,37.109,24.902,4.883,-9.277,0
1553808679.860,39.062,41.992,23.926,-11.719,-7.812,0
1553808679.864,-8.301,38.574,20.996,-3.906,54.688,0
1553808679.868,-63.477,33.203,22.461,48.340,58.105,0
1553808679.872,-36.621,37.109,24.902,63.965,4.883,0
1553808679.876,-7.812,39.551,23.926,52.246,64.941,0
1553808679.880,-57.129,36.621,20.996,55.176,109.863,0
1553808679.884,-54.688,36.133,19.043,11.719,28.809,0
1553808679.888,-5.859,40.527,22.949,8.301,33.691,0
1553808679.891,25.391,41.504,28.809,50.781,97.168,0
1553808679.895,1.953,39.062,26.855,45.410,43.945,0
1553808679.899,-23.926,35.156,24.902,38.574,56.152,0
1553808679.903,8.789,31.250,29.297,56.152,77.148,0
1553808679.907,20.996,35.645,25.391,25.391,7.324,0
1553808679.911,2.441,37.598,19.531,24.902,25.391,0
1553808679.915,4.395,32.715,20.020,47.363,57.129,0
1553808679.919,18.555,33.203,19.531,34.180,55.176,0
1553808679.923,16.113,31.738,22.461,28.809,62.500,0
1553808679.927,23.926,33.691,24.902,58.594,-18.555,0
1553808679.930,49.316,37.109,24.414,75.684,-41.016,0
1553808679.934,19.043,38.086,22.949,28.320,35.156,0
1553808679.938,2.441,37.598,22.949,-1.953,15.625,0
1553808679.942,-12.695,33.691,23.438,8.301,48.828,0
1553808679.946,-19.531,31.250,24.414,0.488,58.105,0
1553808679.950,23.926,35.645,25.391,25.391,46.387,0
1553808679.954,46.387,39.062,21.484,67.871,69.336,0
1553808679.958,32.227,37.109,21.484,32.715,28.320,0
1553808679.962,34.180,38.086,26.367,5.859,9.766,0
1553808679.966,39.551,40.039,26.855,39.062,54.199,0
1553808679.970,10.742,38.574,25.391,48.828,48.340,0
1553808679.973,4.395,35.156,26.855,32.715,72.266,0
1553808679.977,10.742,32.715,29.785,37.109,75.684,0
1553808679.981,37.598,30.762,28.809,45.898,12.695,0
1553808679.985,35.156,31.738,25.391,20.508,-9.277,0
1553808679.989,29.785,32.227,27.832,28.320,27.344,0
1553808679.993,57.617,35.156,27.344,28.320,53.711,0
1553808679.997,56.152,38.086,24.414,-13.672,96.191,0
1553808680.001,39.551,38.574,22.461,8.789,46.387,0
1553808680.005,62.500,40.039,20.508,42.480,9.766,0
1553808680.009,75.195,41.504,23.438,46.875,16.602,0
1553808680.013,15.625,42.480,23.926,54.688,-1.953,0
1553808680.016,34.180,43.457,22.949,63.477,-6.348,0
1553808680.020,55.664,40.039,24.902,41.504,16.113,0
1553808680.024,31.250,37.109,24.902,20.020,36.133,0
1553808680.028,39.551,36.133,23.438,24.902,-11.719,0
1553808680.032,56.641,33.203,23.438,36.133,19.531,0
1553808680.036,55.176,31.250,26.855,27.832,88.379,0
1553808680.040,67.383,33.691,26.367,14.648,44.434,0
1553808680.044,73.730,35.156,26.367,50.781,50.781,0
1553808680.048,43.945,32.227,29.785,86.426,49.316,0
1553808680.052,23.926,32.227,29.297,44.922,50.293,0
1553808680.055,28.320,34.180,27.832,85.449,68.848,0
1553808680.059,53.223,38.086,25.879,77.148,32.715,0
1553808680.063,63.965,39.551,21.484,-22.949,26.855,0
1553808680.067,63.477,39.062,22.949,-3.906,1.465,0
1553808680.071,75.195,38.086,20.508,11.719,-2.441,0
1553808680.075,69.824,38.086,21.973,14.648,15.625,0
1553808680.079,55.176,37.109,24.414,21.973,52.246,0
1553808680.083,55.664,36.621,24.902,8.789,39.551,0
1553808680.087,57.129,35.645,25.879,22.949,11.230,0
1553808680.091,47.363,35.645,26.855,66.406,23.438,0
1553808680.095,30.273,35.156,25.391,31.250,10.742,0
1553808680.098,34.180,33.691,24.902,9.766,2.441,0
1553808680.102,40.527,36.133,27.344,38.086,13.184,0
1553808680.106,53.223,35.645,24.902,37.109,48.340,0
1553808680.110,76.172,35.645,19.531,31.738,76.172,0
1553808680.114,69.824,36.621,20.996,45.410,45.898,0
1553808680.118,48.828,36.133,23.438,67.383,53.223,0
1553808680.122,55.176,37.598,20.508,41.016,70.312,0
1553808680.126,52.734,36.133,23.438,23.438,45.898,0
1553808680.130,41.504,37.109,26.855,13.184,22.949,0
1553808680.134,62.500,38.086,24.902,16.113,19.043,0
1553808680.138,60.547,37.109,28.809,51.270,12.695,0
1553808680.141,62.500,35.645,31.250,83.008,-1.465,0
1553808680.145,68.848,32.715,30.273,42.969,34.668,0
1553808680.149,62.012,33.691,27.344,10.254,27.344,0
1553808680.153,80.566,33.691,28.320,33.691,-3.418,0
1553808680.157,53.711,29.785,33.691,62.500,57.129,0
1553808680.161,20.020,26.855,28.809,69.824,20.020,0
1553808680.165,30.273,28.809,24.414,56.152,6.348,0
1553808680.169,41.992,30.273,26.855,50.293,36.621,0
1553808680.173,44.922,31.250,30.762,64.941,24.902,0
1553808680.177,28.809,29.297,31.250,75.684,23.926,0
1553808680.180,40.039,31.250,24.902,51.270,-10.742,0
1553808680.184,51.270,35.156,23.438,31.250,0.000,0
1553808680.188,44.922,30.762,25.879,17.090,32.715,0
1553808680.192,54.199,29.297,24.414,13.184,1.953,0
1553808680.196,56.641,33.203,25.391,15.137,-25.391,0
1553808680.200,58.594,35.156,29.297,31.250,6.348,0
1553808680.204,56.152,34.180,25.879,10.742,54.199,0
1553808680.208,30.273,34.668,19.043,-5.371,40.527,0
1553808680.212,22.949,34.668,18.555,32.227,0.000,0
1553808680.216,30.762,32.227,23.926,38.574,33.691,0
1553808680.220,34.180,34.668,30.273,40.039,105.957,0
1553808680.223,8.301,35.156,30.762,48.828,123.047,0
1553808680.227,-13.184,34.668,30.273,41.992,49.805,0
1553808680.231,-14.648,34.180,35.645,52.734,27.344,0
1553808680.235,-22.949,32.227,37.109,34.668,96.191,0
1553808680.239,-17.578,32.715,33.203,32.715,53.711,0
1553808680.243,7.812,35.156,30.762,51.758,34.180,0
1553808680.247,5.859,38.574,26.855,28.320,24.414,0
1553808680.251,-6.836,37.598,28.320,7.324,23.926,0
1553808680.255,-21.484,37.109,28.320,14.160,20.508,0
1553808680.259,-20.508,38.574,26.367,33.203,-38.574,0
1553808680.263,-18.555,34.180,27.344,24.902,10.742,0
1553808680.266,-21.973,33.203,27.832,37.109,73.242,0
1553808680.270,-9.766,34.668,27.832,35.156,51.270,0
1553808680.274,-32.227,33.203,27.832,-2.441,46.387,0
1553808680.278,0.000,32.715,33.203,63.477,60.059,0
1553808680.282,43.457,33.203,34.180,97.656,32.715,0
1553808680.286,-14.648,35.156,30.273,-9.766,46.875,0
1553808680.290,-61.035,33.203,27.344,-36.133,40.039,0
1553808680.294,-29.297,27.832,23.438,-13.672,-3.906,0
1553808680.298,-4.395,27.344,24.902,-20.508,52.734,0
1553808680.302,-7.812,33.203,30.273,12.207,40.527,0
1553808680.305,-2.441,39.062,29.297,55.176,-17.090,0
1553808680.309,20.020,36.621,27.832,17.578,13.184,0
1553808680.313,18.066,36.133,29.785,-0.977,14.648,0
1553808680.317,2.441,34.668,30.273,38.086,6.836,0
1553808680.321,13.672,34.180,32.227,27.344,72.754,0
1553808680.325,1.953,35.156,31.250,-9.277,57.617,0
1553808680.329,-8.301,36.133,29.297,11.719,29.297,0
1553808680.333,-23.438,39.062,29.785,47.852,39.062,0
1553808680.337,-9.766,34.668,28.809,37.109,-20.020,0
1553808680.341,26.855,31.250,29.785,44.922,37.109,0
1553808680.345,-5.371,31.250,33.203,71.289,30.273,0
1553808680.348,-44.922,33.691,36.621,20.996,1.953,0
1553808680.352,-35.645,34.668,35.156,-18.066,9.766,0
1553808680.356,-11.230,33.691,35.156,-4.395,28.320,0
1553808680.360,8.789,34.180,37.109,40.527,63.477,0
1553808680.364,-0.977,32.227,36.621,89.355,36.133,0
1553808680.368,17.090,31.738,37.109,41.504,77.637,0
1553808680.372,16.602,31.250,34.668,-36.133,10.742,0
1553808680.376,-20.508,31.738,36.133,4.883,1.465,0
1553808680.380,-9.277,33.203,35.645,34.180,38.574,0
1553808680.384,30.762,34.180,32.715,-4.395,-28.809,0
1553808680.388,27.832,38.574,37.109,-9.277,2.441,0
1553808680.391,11.230,38.086,38.086,-2.441,85.938,0
1553808680.395,15.625,34.180,36.621,20.020,110.840,0
1553808680.399,8.789,31.738,36.133,38.574,59.570,0
1553808680.403,21.484,28.320,32.715,19.531,-8.789,0
1553808680.407,36.621,25.879,31.250,14.160,49.316,0
1553808680.411,33.691,27.832,32.227,10.742,97.168,0
1553808680.415,35.156,30.762,35.156,28.320,45.410,0
1553808680.419,49.805,30.762,33.203,52.246,64.941,0
1553808680.423,61.035,26.855,29.297,41.992,25.391,0
1553808680.427,54.688,24.902,31.250,29.297,-18.555,0
1553808680.430,78.125,28.320,34.180,37.109,9.766,0
1553808680.434,99.121,32.227,33.691,35.645,7.324,0
1553808680.438,83.496,34.180,35.645,39.062,1.465,0
1553808680.442,74.707,34.668,33.203,31.738,16.113,0
1553808680.446,80.078,36.133,30.273,4.883,13.672,0
1553808680.450,78.125,36.621,31.738,13.672,-8.301,0
1553808680.454,55.664,37.109,29.297,2.930,22.461,0
1553808680.458,65.430,36.133,31.250,15.137,32.715,0
1553808680.462,83.984,33.203,33.203,36.133,-36.621,0
1553808680.466,77.148,34.668,28.809,45.410,18.066,0
1553808680.470,73.730,35.156,28.320,49.805,50.781,0
1553808680.473,73.242,31.250,30.273,13.672,27.832,0
1553808680.477,70.312,30.762,28.809,-3.906,12.207,0
1553808680.481,52.734,30.762,27.832,25.879,34.180,0
1553808680.485,65.918,31.250,28.809,53.223,45.898,0
1553808680.489,85.938,32.715,29.297,39.062,4.883,0
1553808680.493,73.730,31.250,26.367,17.090,35.645,0
1553808680.497,60.547,28.809,23.926,58.594,90.820,0
1553808680.501,48.340,32.227,27.832,38.086,71.289,0
1553808680.505,50.781,32.227,30.762,11.230,-19.531,0
1553808680.509,41.992,33.691,29.785,28.809,-13.184,0
1553808680.513,27.832,34.668,30.762,26.367,41.992,0
1553808680.516,36.133,31.250,32.715,45.898,11.230,0
1553808680.520,52.246,31.250,30.273,64.941,25.879,0
1553808680.524,52.246,29.297,25.391,57.617,35.156,0
1553808680.528,61.523,33.691,24.902,52.734,16.602,0
1553808680.532,54.688,38.574,27.832,73.730,24.414,0
1553808680.536,35.156,38.086,27.832,23.438,5.371,0
1553808680.540,48.828,39.551,23.926,-47.363,10.254,0
1553808680.544,38.574,41.016,22.461,-23.438,64.941,0
1553808680.548,47.363,37.598,25.879,3.906,44.434,0
1553808680.552,57.617,36.133,28.809,16.113,-14.160,0
1553808680.555,57.617,39.062,26.855,22.949,-12.207,0
1553808680.559,53.711,38.574,27.832,25.391,25.391,0
1553808680.563,13.672,36.621,27.832,18.555,51.270,0
1553808680.567,23.438,37.109,26.367,18.066,68.359,0
1553808680.571,23.438,36.133,25.391,11.230,74.219,0
1553808680.575,-6.348,34.180,22.949,14.160,29.297,0
1553808680.579,-1.953,34.180,23.926,40.039,-39.551,0
1553808680.583,10.254,30.762,26.367,36.621,14.160,0
1553808680.587,19.531,27.832,23.926,2.930,39.551,0
1553808680.591,7.324,27.344,21.484,24.902,4.395,0
1553808680.595,9.277,28.320,22.461,34.668,52.734,0
1553808680.598,29.297,30.762,22.949,47.363,43.457,0
1553808680.602,23.926,32.715,26.855,58.105,0.000,0
1553808680.606,10.254,31.738,29.297,27.344,49.805,0
1553808680.610,4.883,32.715,26.367,29.297,82.520,0
1553808680.614,6.348,33.691,23.926,54.199,80.078,0
1553808680.618,36.133,34.668,22.461,45.898,41.992,0
1553808680.622,32.715,34.180,26.855,33.691,17.090,0
1553808680.626,6.348,34.180,28.809,22.461,5.859,0
1553808680.630,20.508,36.621,25.879,26.367,42.969,0
1553808680.634,45.898,35.645,27.832,58.105,45.898,0
1553808680.638,36.133,37.598,29.785,24.414,25.879,0
1553808680.641,44.434,37.109,32.715,11.230,36.133,0
1553808680.645,54.199,33.691,33.203,44.434,7.324,0
1553808680.649,32.715,32.227,31.738,41.504,-12.695,0
1553808680.653,26.855,33.691,32.227,25.391,39.062,0
1553808680.657,30.273,34.668,31.738,25.879,26.855,0
1553808680.661,22.949,33.691,33.203,-0.977,-18.066,0
1553808680.665,42.969,33.203,33.203,5.859,19.043,0
1553808680.669,60.547,35.156,31.738,37.598,32.715,0
1553808680.673,40.039,37.109,31.738,46.875,46.875,0
1553808680.677,-4.395,34.668,30.762,24.902,44.922,0
1553808680.680,-15.137,36.133,26.367,6.348,54.688,0
1553808680.684,31.738,37.598,26.855,27.344,119.629,0
1553808680.688,40.527,37.598,22.461,0.488,118.652,0
1553808680.692,-17.090,37.109,18.066,-10.254,30.762,0
1553808680.696,-36.133,30.762,18.555,19.531,13.184,0
1553808680.700,15.137,29.297,21.973,39.551,3.418,0
1553808680.704,25.879,33.203,21.973,44.922,-1.465,0
1553808680.708,1.953,36.133,20.020,41.016,29.297,0
1553808680.712,13.184,39.062,20.508,27.832,27.832,0
1553808680.716,30.762,39.551,19.043,25.879,-4.883,0
1553808680.720,33.691,40.039,20.020,3.906,36.621,0
1553808680.723,11.719,40.527,18.066,24.902,80.566,0
1553808680.727,-2.930,40.039,18.066,55.176,43.945,0
1553808680.731,28.809,39.062,21.484,38.086,34.180,0
1553808680.735,18.066,41.016,18.066,20.996,42.480,0
1553808680.739,19.531,41.016,16.602,6.836,23.926,0
1553808680.743,51.758,34.668,22.461,40.039,23.438,0
1553808680.747,58.594,32.715,21.973,35.645,36.133,0
1553808680.751,37.598,33.203,23.926,19.531,31.738,0
1553808680.755,35.645,30.273,25.879,22.461,25.391,0
1553808680.759,54.199,29.785,25.879,71.289,68.848,0
1553808680.763,68.848,29.785,26.855,92.285,54.688,0
1553808680.766,52.246,32.227,27.832,26.855,51.270,0
1553808680.770,61.523,35.645,28.809,-5.371,65.918,0
1553808680.774,74.219,33.691,29.785,18.555,56.152,0
1553808680.778,82.031,34.668,28.809,27.832,52.734,0
1553808680.782,74.707,37.109,22.461,6.348,41.504,0
1553808680.786,85.449,37.598,20.508,2.441,30.762,0
1553808680.790,90.820,36.621,23.926,24.902,46.387,0
1553808680.794,58.594,37.109,23.926,60.547,32.227,0
1553808680.798,69.336,41.016,21.973,60.547,42.480,0
1553808680.802,82.031,41.504,23.926,13.184,76.660,0
1553808680.805,76.172,40.039,23.438,18.555,48.340,0
1553808680.809,63.965,36.621,28.809,44.922,47.363,0
1553808680.813,90.820,36.621,30.273,5.859,35.645,0
1553808680.817,114.258,38.086,20.020,23.438,5.371,0
1553808680.821,102.539,37.598,23.438,53.711,70.801,0
1553808680.825,111.328,38.086,26.855,41.992,25.879,0
1553808680.829,109.863,39.551,23.926,46.387,-41.016,0
1553808680.833,97.168,42.480,27.832,43.457,-7.324,0
1553808680.837,87.891,38.086,28.320,10.742,16.113,0
1553808680.841,104.004,35.156,20.996,13.184,6.836,0
1553808680.845,135.254,36.621,25.879,59.570,-4.883,0
1553808680.848,116.699,35.156,33.203,46.875,64.453,0
1553808680.852,109.375,34.180,26.367,-9.766,74.219,0
1553808680.856,75.684,34.180,26.367,7.812,60.059,0
1553808680.860,71.777,37.598,26.367,14.160,52.734,0
1553808680.864,98.145,38.574,21.973,17.578,23.438,0
1553808680.868,70.312,38.574,18.555,34.668,4.395,0
1553808680.872,67.871,38.574,20.996,15.137,65.918,0
1553808680.876,93.262,35.156,27.344,-10.742,78.613,0
1553808680.880,87.402,34.180,29.297,2.441,50.293,0
1553808680.884,73.242,36.133,27.832,-30.762,59.082,0
1553808680.888,41.016,35.645,38.574,-41.016,41.504,0
1553808680.891,37.598,34.668,46.387,10.742,25.879,0
1553808680.895,47.363,36.621,37.109,41.992,34.668,0
1553808680.899,37.598,41.504,28.809,40.039,19.531,0
1553808680.903,63.965,43.457,31.738,46.875,-2.930,0
1553808680.907,95.215,41.992,35.645,72.754,11.719,0
1553808680.911,99.609,40.039,33.691,41.016,2.441,0
1553808680.915,86.426,38.574,27.344,20.020,3.906,0
1553808680.919,97.168,38.086,25.879,27.832,0.488,0
1553808680.923,101.562,41.016,20.996,-8.789,-23.438,0
1553808680.927,77.637,45.410,17.578,5.371,20.996,0
1553808680.930,67.871,42.969,20.020,58.594,26.855,0
1553808680.934,112.305,43.457,18.555,39.062,18.066,0
1553808680.938,130.859,43.945,21.484,43.945,73.730,0
1553808680.942,107.422,40.527,20.996,47.363,37.109,0
1553808680.946,106.445,40.039,21.973,19.531,20.508,0
1553808680.950,130.859,38.574,26.367,13.672,79.102,0
1553808680.954,170.898,39.062,17.578,9.277,87.891,0
1553808680.958,151.367,40.039,13.672,6.348,89.355,0
1553808680.962,139.648,38.574,18.066,-8.789,64.941,0
1553808680.966,159.668,34.668,22.461,9.766,36.621,0
1553808680.970,174.316,34.180,23.926,29.785,62.012,0
1553808680.973,163.574,34.668,20.996,50.781,59.570,0
1553808680.977,125.977,34.180,20.996,39.551,47.852,0
1553808680.981,135.742,39.551,19.043,11.719,22.949,0
1553808680.985,166.504,39.551,22.461,25.879,26.367,0
1553808680.989,167.969,35.156,20.020,28.809,45.410,0
1553808680.993,168.457,33.203,20.020,44.922,-11.719,0
1553808680.997,192.383,32.715,26.367,74.219,-29.785,0
1553808681.001,148.926,31.738,22.461,60.547,64.453,0
1553808681.005,136.719,33.691,19.531,31.250,88.379,0
1553808681.009,188.965,36.621,18.555,64.453,22.949,0
1553808681.013,124.512,35.645,25.391,25.391,17.090,0
1553808681.016,90.332,33.203,29.785,-10.742,10.254,0
1553808681.020,135.254,31.250,20.996,36.621,-17.090,0
1553808681.024,146.973,31.250,20.508,52.246,-25.879,0
1553808681.028,171.875,38.574,22.461,43.457,57.129,0
1553808681.032,150.879,42.480,22.461,30.273,87.891,0
1553808681.036,130.371,39.062,23.438,55.664,35.645,0
1553808681.040,106.934,38.086,27.832,96.680,23.438,0
1553808681.044,109.863,40.039,28.809,28.809,-0.488,0
1553808681.048,130.371,39.551,24.902,-16.113,-7.324,0
1553808681.052,119.141,40.527,17.578,23.926,2.441,0
1553808681.055,100.098,38.574,14.648,46.875,-8.789,0
1553808681.059,99.121,36.621,17.578,14.160,38.574,0
1553808681.063,85.449,38.574,18.555,21.484,58.105,0
1553808681.067,39.551,38.086,20.020,23.926,41.504,0
1553808681.071,54.688,42.480,23.926,11.230,33.203,0
1553808681.075,114.746,48.340,20.020,58.594,28.320,0
1553808681.079,99.609,43.457,20.996,50.781,48.340,0
1553808681.083,70.801,42.969,24.414,-2.930,94.727,0
1553808681.087,41.992,42.480,27.832,41.016,97.656,0
1553808681.091,66.406,37.109,31.738,36.621,40.527,0
1553808681.095,29.785,34.180,34.668,-25.391,-7.324,0
1553808681.098,-40.527,36.133,31.250,6.836,24.414,0
1553808681.102,21.973,36.621,22.461,25.879,32.227,0
1553808681.106,45.898,32.227,26.367,43.945,-46.387,0
1553808681.110,52.246,31.738,31.738,48.828,-24.414,0
1553808681.114,43.945,36.133,33.691,41.504,54.199,0
1553808681.118,34.668,37.598,37.109,34.180,42.969,0
1553808681.122,26.855,36.133,32.715,29.785,26.367,0
1553808681.126,8.301,35.156,33.203,36.133,63.965,0
1553808681.130,12.695,32.227,29.297,24.902,67.871,0
1553808681.134,-0.977,24.414,23.438,40.039,17.090,0
1553808681.138,3.906,20.996,33.691,34.668,14.160,0
1553808681.141,20.996,32.227,26.367,13.184,18.555,0
1553808681.145,-11.230,32.227,26.367,26.367,32.715,0
1553808681.149,-3.906,30.273,32.715,29.297,35.156,0
1553808681.153,-3.906,36.621,29.297,39.551,6.836,0
1553808681.157,-17.090,40.039,27.832,40.039,24.902,0
1553808681.161,20.020,37.598,28.809,23.926,54.688,0
1553808681.165,48.340,34.668,31.250,40.527,20.996,0
1553808681.169,-4.395,30.273,29.785,48.340,50.293,0
1553808681.173,-18.066,28.320,27.832,34.668,78.125,0
1553808681.177,-29.785,35.156,18.555,20.508,54.199,0
1553808681.180,-27.344,36.621,20.020,26.855,124.023,0
1553808681.184,-5.371,30.762,28.809,38.086,80.078,0
1553808681.188,-40.527,29.785,34.668,42.480,41.992,0
1553808681.192,-26.855,35.156,32.227,0.977,47.852,0
1553808681.196,-4.883,34.668,20.996,-5.859,54.199,0
1553808681.200,-38.574,35.645,26.855,54.688,74.219,0
1553808681.204,-48.340,35.156,23.438,39.551,68.359,0
1553808681.208,-4.883,31.738,18.066,15.137,61.035,0
1553808681.212,0.488,33.203,23.926,39.551,49.316,0
1553808681.216,-21.484,35.156,23.438,7.812,26.367,0
1553808681.220,6.348,36.621,22.949,16.113,22.949,0
1553808681.223,-7.812,36.621,30.762,51.758,5.371,0
1553808681.227,-49.316,42.480,23.438,58.105,-1.953,0
1553808681.231,-27.344,40.527,18.066,23.926,35.156,0
1553808681.235,-36.133,30.273,24.902,27.832,20.996,0
1553808681.239,-39.062,33.203,24.414,24.902,7.812,0
1553808681.243,-41.504,32.715,23.438,46.875,2.441,0
1553808681.247,-41.992,30.273,23.438,45.898,17.090,0
1553808681.251,-14.160,33.691,24.902,10.254,41.016,0
1553808681.255,7.324,31.738,27.832,20.996,21.973,0
1553808681.259,-8.789,32.715,24.414,17.578,9.766,0
1553808681.263,-14.160,32.227,28.809,24.414,16.602,0
1553808681.266,-16.602,37.109,30.762,36.621,36.621,0
1553808681.270,-11.719,37.109,24.902,24.414,60.547,0
1553808681.274,35.645,29.297,24.902,14.648,70.801,0
1553808681.278,15.625,30.762,25.391,24.414,47.852,0
1553808681.282,-14.160,32.227,24.414,15.625,46.875,0
1553808681.286,13.184,34.180,26.367,25.879,34.180,0
1553808681.290,-14.160,35.156,24.414,40.039,29.297,0
1553808681.294,-24.902,35.156,20.508,0.977,3.418,0
1553808681.298,4.883,33.203,17.578,10.254,-30.762,0
1553808681.302,-4.883,35.645,16.602,48.340,-5.371,0
1553808681.305,13.184,36.621,24.902,31.738,35.645,0
1553808681.309,19.043,25.879,31.250,30.273,34.668,0
1553808681.313,-13.184,30.273,28.809,24.414,-19.043,0
1553808681.317,7.812,34.668,35.156,15.625,13.184,0
1553808681.321,6.348,24.902,38.086,37.598,68.359,0
1553808681.325,-10.254,28.809,28.809,33.691,52.246,0
1553808681.329,26.367,31.250,31.738,16.602,46.387,0
1553808681.333,20.508,26.855,34.668,33.691,56.152,0
1553808681.337,20.996,24.902,30.273,38.574,52.246,0
1553808681.341,58.594,21.973,33.203,31.738,37.109,0
1553808681.345,68.359,25.879,29.297,21.484,-17.090,0
1553808681.348,46.875,25.879,29.297,17.578,8.301,0
1553808681.352,19.531,22.949,32.227,27.832,104.980,0
1553808681.356,22.949,30.762,23.438,30.273,112.305,0
1553808681.360,20.020,31.738,24.902,16.602,31.738,0
1553808681.364,25.879,24.414,33.203,7.324,3.418,0
1553808681.368,44.922,27.344,24.414,22.949,37.598,0
1553808681.372,-3.418,30.273,20.508,34.668,42.480,0
1553808681.376,1.953,30.762,22.461,16.602,-2.930,0
1553808681.380,21.484,30.273,28.320,29.297,-7.324,0
1553808681.384,25.391,25.879,20.508,33.203,32.715,0
1553808681.388,29.297,25.879,20.020,15.625,20.996,0
1553808681.391,-3.906,25.391,23.438,20.996,33.691,0
1553808681.395,-5.859,26.855,18.555,47.363,9.766,0
1553808681.399,4.395,28.809,23.438,50.293,-19.043,0
1553808681.403,32.715,31.738,25.391,29.785,15.625,0
1553808681.407,5.371,34.668,24.902,40.527,20.020,0
1553808681.411,1.953,37.109,27.344,27.832,27.344,0
1553808681.415,15.137,33.691,22.461,-20.508,92.773,0
1553808681.419,3.418,38.086,20.020,-0.977,80.078,0
1553808681.423,8.301,40.527,23.926,41.504,71.777,0
1553808681.427,30.273,34.180,18.066,31.738,46.875,0
1553808681.430,36.133,30.762,24.414,17.090,32.227,0
1553808681.434,10.254,29.297,23.926,14.648,53.711,0
1553808681.438,5.859,28.320,20.020,27.832,63.965,0
1553808681.442,-5.371,27.832,24.414,39.551,28.809,0
1553808681.446,-18.066,30.273,21.484,31.738,22.949,0
1553808681.450,2.930,30.273,20.996,13.672,58.105,0
1553808681.454,5.859,30.762,20.508,25.391,3.906,0
1553808681.458,-2.930,31.738,31.738,39.062,10.742,0
1553808681.462,-14.160,28.809,33.203,4.883,41.016,0
1553808681.466,3.418,34.180,20.996,1.465,28.809,0
1553808681.470,-1.953,35.645,16.602,36.621,56.152,0
1553808681.473,-16.602,30.273,15.625,27.832,26.855,0
1553808681.477,-13.672,32.715,17.578,13.184,-29.785,0
1553808681.481,-7.812,31.738,20.996,27.832,-5.859,0
1553808681.485,-17.578,29.785,22.461,43.945,57.617,0
1553808681.489,-14.648,28.320,23.926,31.738,30.273,0
1553808681.493,-5.859,27.344,30.273,12.695,-22.949,0
1553808681.497,-2.441,26.367,29.297,31.250,14.648,0
1553808681.501,1.465,34.180,18.555,40.527,7.324,0
1553808681.505,3.418,34.180,30.273,16.602,-30.273,0
1553808681.509,41.992,32.715,35.156,9.277,52.246,0
1553808681.513,56.152,37.598,21.973,29.785,41.016,0
1553808681.516,41.016,35.156,18.066,54.199,-27.344,0
1553808681.520,78.125,35.156,23.438,67.383,38.574,0
1553808681.524,55.176,40.039,19.043,60.547,82.520,0
1553808681.528,-16.602,38.086,19.043,9.766,80.566,0
1553808681.532,14.648,31.250,24.414,-7.324,51.270,0
1553808681.536,14.160,31.250,27.832,15.625,1.953,0
1553808681.540,36.621,33.691,32.715,8.789,67.383,0
1553808681.544,32.715,31.738,28.809,21.973,113.770,0
1553808681.548,-30.762,29.785,21.484,22.461,48.340,0
1553808681.552,-8.301,31.738,27.344,-21.484,-8.789,0
1553808681.555,19.531,31.250,32.227,-6.348,16.113,0
1553808681.559,22.461,31.738,23.438,32.227,5.859,0
1553808681.563,34.180,34.668,22.949,40.527,16.602,0
1553808681.567,62.500,34.668,25.391,53.223,58.594,0
1553808681.571,61.523,31.250,29.297,61.035,82.031,0
1553808681.575,37.598,34.668,25.879,39.062,78.125,0
1553808681.579,49.805,40.039,18.066,33.691,26.367,0
1553808681.583,44.922,38.574,22.949,26.855,20.508,0
1553808681.587,26.367,36.621,28.809,46.387,-1.953,0
1553808681.591,51.270,33.691,27.832,20.996,16.602,0
1553808681.595,54.688,29.785,39.062,2.441,37.109,0
1553808681.598,42.480,32.715,35.645,51.270,-16.113,0
1553808681.602,51.270,37.598,17.090,31.250,23.926,0
1553808681.606,51.758,32.715,20.996,6.348,38.574,0
1553808681.610,54.688,33.691,23.926,20.020,67.871,0
1553808681.614,72.754,36.133,25.391,38.086,57.617,0
1553808681.618,71.777,33.203,29.785,35.645,22.949,0
1553808681.622,53.711,29.785,26.855,44.922,73.242,0
1553808681.626,21.973,30.762,26.367,22.461,57.129,0
1553808681.630,42.480,32.715,26.855,-5.371,60.059,0
1553808681.634,60.059,35.645,19.531,8.301,32.715,0
1553808681.638,59.082,30.273,22.461,39.062,32.715,0
1553808681.641,60.547,29.297,28.809,30.273,35.156,0
1553808681.645,47.852,31.250,33.203,-5.371,10.254,0
1553808681.649,38.574,27.832,21.973,33.203,42.969,0
1553808681.653,48.828,31.250,16.602,36.133,51.270,0
1553808681.657,56.152,34.668,23.438,1.465,44.434,0
1553808681.661,35.156,37.109,23.926,18.555,19.531,0
1553808681.665,7.812,34.180,22.949,37.109,28.809,0
1553808681.669,3.418,31.250,20.508,21.484,35.156,0
1553808681.673,48.828,32.227,22.949,-4.883,19.043,0
1553808681.677,45.898,37.109,21.484,17.578,39.551,0
1553808681.680,34.668,40.527,12.207,26.855,18.555,0
1553808681.684,20.996,29.297,20.996,22.461,50.293,0
1553808681.688,16.113,23.926,27.832,25.879,49.316,0
1553808681.692,42.969,24.902,22.461,41.016,36.621,0
1553808681.696,11.719,21.973,29.297,30.762,14.160,0
1553808681.700,0.000,26.855,30.273,13.184,-21.484,0
1553808681.704,11.719,33.203,19.043,20.996,22.949,0
1553808681.708,13.672,30.762,27.344,32.227,-6.348,0
1553808681.712,12.695,29.297,27.832,53.223,-18.066,0
1553808681.716,19.531,27.832,21.484,29.785,11.719,0
1553808681.720,19.531,25.879,35.156,30.762,27.344,0
1553808681.723,27.344,32.227,31.738,25.391,28.320,0
1553808681.727,18.066,36.621,18.555,43.457,62.012,0
1553808681.731,0.488,31.738,30.273,49.805,28.809,0
1553808681.735,12.695,30.762,31.738,-10.254,36.133,0
1553808681.739,-21.973,33.203,24.414,4.883,94.238,0
1553808681.743,-9.766,35.156,21.973,39.551,41.504,0
1553808681.747,20.508,39.062,21.973,34.180,42.969,0
1553808681.751,19.531,34.180,19.043,35.645,57.617,0
1553808681.755,17.578,35.156,14.648,27.832,53.223,0
1553808681.759,-3.418,31.738,25.879,22.461,63.965,0
1553808681.763,-12.695,28.320,23.438,34.668,0.488,0
1553808681.766,16.602,30.762,17.578,32.715,-30.762,0
1553808681.770,40.039,29.297,25.879,49.316,26.367,0
1553808681.774,-10.254,34.180,25.391,26.855,25.391,0
1553808681.778,-21.484,34.668,22.461,14.160,27.832,0
1553808681.782,15.625,35.156,22.949,40.039,83.496,0
1553808681.786,28.809,38.574,23.438,40.527,99.121,0
1553808681.790,39.062,38.574,18.555,40.039,87.402,0
1553808681.794,37.109,39.062,17.578,37.598,19.043,0
1553808681.798,26.367,42.969,21.973,14.160,-26.367,0
1553808681.802,17.578,43.457,19.043,12.695,17.090,0
1553808681.805,30.273,37.598,18.066,35.156,29.297,0
1553808681.809,19.043,34.180,24.414,17.578,19.043,0
1553808681.813,16.602,40.039,24.902,20.996,30.273,0
1553808681.817,39.551,44.922,20.020,36.621,3.418,0
1553808681.821,17.578,35.645,19.043,17.090,15.625,0
1553808681.825,30.762,35.156,25.879,13.672,32.227,0
1553808681.829,41.016,39.062,27.344,28.809,41.016,0
1553808681.833,32.715,36.133,14.160,24.902,66.406,0
1553808681.837,44.922,34.668,22.461,9.277,41.992,0
1553808681.841,31.250,33.691,27.832,23.926,16.602,0
1553808681.845,27.832,34.668,17.090,57.617,68.359,0
1553808681.848,35.156,39.062,18.066,32.227,59.082,0
1553808681.852,39.062,36.133,19.531,6.348,30.273,0
1553808681.856,21.973,31.250,25.391,28.320,56.152,0
1553808681.860,28.320,32.715,20.508,7.812,88.379,0
1553808681.864,15.137,31.738,14.160,-26.855,14.648,0
1553808681.868,21.484,27.344,20.508,-2.441,44.922,0
1553808681.872,21.973,25.391,26.855,32.227,95.215,0
1553808681.876,27.832,31.250,18.066,25.391,13.672,0
1553808681.880,40.527,32.715,18.066,25.391,12.695,0
1553808681.884,41.992,31.250,18.555,30.273,31.738,0
1553808681.888,40.039,31.738,19.531,27.344,43.945,0
1553808681.891,28.320,28.809,26.855,21.484,36.621,0
1553808681.895,33.203,27.344,30.273,34.180,23.438,0
1553808681.899,28.320,30.273,23.926,34.180,-0.488,0
1553808681.903,40.527,31.250,13.672,6.348,42.480,0
1553808681.907,28.320,24.414,18.555,6.348,18.555,0
1553808681.911,26.855,23.926,16.602,11.230,-32.227,0
1553808681.915,56.152,31.738,12.695,22.461,-15.137,0
1553808681.919,31.250,37.598,16.113,34.180,23.438,0
1553808681.923,24.414,36.621,19.531,54.688,32.227,0
1553808681.927,41.504,34.180,22.461,62.988,19.043,0
1553808681.930,31.738,37.109,24.902,33.691,83.496,0
1553808681.934,18.066,32.715,20.508,12.207,56.152,0
1553808681.938,28.320,27.832,16.602,-2.930,12.695,0
1553808681.942,52.734,25.879,20.020,11.230,22.949,0
1553808681.946,56.152,31.738,14.648,20.020,26.855,0
1553808681.950,35.645,37.598,12.695,13.672,44.434,0
1553808681.954,12.207,33.691,19.531,34.668,23.926,0
1553808681.958,27.832,31.250,20.020,63.965,-1.953,0
1553808681.962,26.367,34.668,17.090,12.695,44.922,0
1553808681.966,10.742,36.133,16.113,-23.438,29.785,0
1553808681.970,6.348,37.109,16.113,7.324,-51.758,0
1553808681.973,10.254,34.180,20.996,26.367,32.715,0
1553808681.977,9.766,32.227,21.973,24.902,62.012,0
1553808681.981,28.320,31.250,24.902,13.672,73.730,0
1553808681.985,29.785,28.809,17.578,12.695,95.703,0
1553808681.989,24.414,33.203,17.090,5.859,98.145,0
1553808681.993,50.781,36.621,22.461,16.602,78.613,0
1553808681.997,30.762,39.062,9.277,29.297,-7.324,0
1553808682.001,31.250,37.598,13.672,36.133,18.066,0
1553808682.005,42.969,39.551,21.973,54.199,48.340,0
1553808682.009,17.090,40.039,20.996,36.621,34.668,0
1553808682.013,41.016,37.598,20.508,14.648,31.250,0
1553808682.016,43.457,37.598,20.996,5.371,12.207,0
1553808682.020,46.387,37.598,23.438,3.906,-6.348,0
1553808682.024,42.480,31.250,24.414,37.109,20.508,0
1553808682.028,23.438,33.691,22.949,57.617,33.203,0
1553808682.032,33.691,35.156,24.414,32.227,4.883,0
1553808682.036,41.016,35.645,23.926,-1.953,-12.695,0
1553808682.040,37.598,39.551,21.484,23.926,-17.090,0
1553808682.044,28.809,41.016,24.414,42.969,9.766,0
1553808682.048,62.988,39.062,26.367,40.039,10.254,0
1553808682.052,55.664,33.203,35.645,65.430,29.785,0
1553808682.055,19.531,34.668,32.715,38.574,30.273,0
1553808682.059,40.039,38.574,25.391,18.066,51.270,0
1553808682.063,58.105,41.504,22.949,45.410,86.426,0
1553808682.067,61.523,40.039,18.555,31.738,69.824,0
1553808682.071,58.105,38.574,23.926,20.996,70.801,0
1553808682.075,64.941,38.574,23.926,26.367,27.344,0
1553808682.079,43.945,35.645,24.902,38.574,4.883,0
1553808682.083,35.156,33.691,32.227,37.598,45.410,0
1553808682.087,46.387,34.668,29.785,35.645,53.223,0
1553808682.091,54.688,32.227,26.367,8.789,85.938,0
1553808682.095,48.828,36.133,21.484,10.742,69.336,0
1553808682.098,8.789,34.180,30.273,37.109,21.973,0
1553808682.102,46.387,31.738,33.691,16.113,-0.977,0
1553808682.106,55.176,36.133,25.879,27.344,4.883,0
1553808682.110,10.254,33.203,28.320,5.859,16.113,0
1553808682.114,48.828,36.621,24.902,-4.395,22.461,0
1553808682.118,64.941,38.086,23.926,24.902,72.266,0
1553808682.122,22.949,36.621,25.391,22.949,65.430,0
1553808682.126,22.949,35.645,20.996,71.777,-24.414,0
1553808682.130,17.090,33.203,20.508,46.875,-49.316,0
1553808682.134,18.555,33.691,23.438,3.418,76.660,0
1553808682.138,50.293,35.645,22.461,3.418,145.020,0
1553808682.141,21.973,33.691,26.367,19.531,72.754,0
1553808682.145,-0.488,33.203,24.414,33.203,50.781,0
1553808682.149,40.039,33.203,18.066,4.883,9.766,0
1553808682.153,82.520,30.762,31.250,34.668,25.879,0
1553808682.157,43.945,31.738,36.133,55.176,62.500,0
1553808682.161,8.301,30.762,30.273,51.758,71.777,0
1553808682.165,32.227,31.250,30.273,27.344,84.961,0
1553808682.169,29.297,34.180,33.691,-6.348,120.117,0
1553808682.173,27.832,27.832,41.016,12.207,121.582,0
1553808682.177,33.203,27.832,36.621,8.301,60.059,0
1553808682.180,12.695,24.414,33.691,6.836,26.367,0
1553808682.184,21.973,25.391,29.297,22.949,2.441,0
1553808682.188,27.832,28.809,31.250,30.273,-22.949,0
1553808682.192,3.906,26.855,34.668,57.617,1.465,0
1553808682.196,17.578,22.461,36.621,56.152,21.973,0
1553808682.200,10.254,22.949,41.016,21.484,22.461,0
1553808682.204,0.977,23.438,40.527,24.414,10.742,0
1553808682.208,11.230,20.508,39.551,5.371,-19.043,0
1553808682.212,9.277,20.020,38.086,-0.977,-20.020,0
1553808682.216,13.672,24.414,41.016,23.926,35.645,0
1553808682.220,27.344,27.344,34.180,46.875,30.273,0
1553808682.223,41.016,26.855,30.762,41.992,-39.551,0
1553808682.227,36.133,31.250,29.785,34.180,-0.488,0
1553808682.231,46.387,31.250,25.391,27.344,26.855,0
1553808682.235,43.945,26.855,26.367,24.414,12.695,0
1553808682.239,10.742,27.832,22.461,31.738,18.555,0
1553808682.243,9.766,26.367,28.809,34.180,54.199,0
1553808682.247,20.508,30.273,31.738,35.645,30.273,0
1553808682.251,35.645,31.250,33.691,30.273,11.230,0
1553808682.255,40.039,26.855,34.180,25.391,66.895,0
1553808682.259,26.855,26.855,28.809,19.043,73.730,0
1553808682.263,29.785,24.902,28.809,11.230,43.457,0
1553808682.266,34.668,25.391,24.902,12.207,22.461,0
1553808682.270,0.000,29.297,25.391,14.160,2.441,0
1553808682.274,10.742,29.785,30.273,19.043,37.109,0
1553808682.278,12.695,30.762,22.461,13.184,33.691,0
1553808682.282,9.277,26.367,18.066,20.996,41.504,0
1553808682.286,37.598,25.879,28.809,25.391,20.996,0
1553808682.290,65.918,26.367,37.598,40.527,75.195,0
1553808682.294,32.227,30.273,32.715,34.668,88.867,0
1553808682.298,13.184,31.250,30.273,11.719,50.293,0
1553808682.302,54.199,31.738,28.320,37.598,94.238,0
1553808682.305,37.598,37.598,26.367,19.531,69.336,0
1553808682.309,36.621,38.574,27.344,18.555,34.668,0
1553808682.313,48.340,35.156,24.902,38.574,27.344,0
1553808682.317,35.156,35.156,24.414,56.152,14.648,0
1553808682.321,37.598,40.039,18.066,33.203,23.438,0
1553808682.325,29.785,39.551,17.578,5.371,-21.484,0
1553808682.329,47.363,37.598,23.438,16.113,21.484,0
1553808682.333,57.617,32.227,25.879,41.992,103.027,0
1553808682.337,33.691,28.320,24.902,42.480,-8.301,0
1553808682.341,36.133,29.297,23.926,-1.953,-16.113,0
1553808682.345,53.711,34.668,26.367,-10.254,45.410,0
1553808682.348,51.270,33.203,23.926,9.766,51.758,0
1553808682.352,17.090,29.785,23.926,29.297,45.898,0
1553808682.356,4.883,28.320,27.832,32.227,31.250,0
1553808682.360,16.113,22.949,27.344,37.598,22.461,0
1553808682.364,41.504,27.832,21.973,18.066,52.246,0
1553808682.368,48.340,29.785,17.578,16.113,36.133,0
1553808682.372,16.113,31.738,21.973,43.945,6.348,0
1553808682.376,27.344,35.645,26.367,45.410,52.246,0
1553808682.380,51.758,24.902,29.785,41.016,52.734,0
1553808682.384,53.223,23.438,24.902,9.766,10.254,0
1553808682.388,20.996,26.855,16.113,-18.555,19.043,0
1553808682.391,1.465,26.855,19.531,-7.812,5.859,0
1553808682.395,22.949,25.879,19.043,25.879,24.414,0
1553808682.399,20.996,22.949,14.648,53.223,58.105,0
1553808682.403,35.645,27.344,15.137,19.531,42.969,0
1553808682.407,29.297,32.227,22.461,28.809,52.246,0
1553808682.411,17.578,28.809,28.809,59.570,42.480,0
1553808682.415,28.320,30.273,28.809,40.039,39.551,0
1553808682.419,25.879,31.250,31.250,24.902,34.180,0
1553808682.423,31.738,31.250,31.738,13.184,7.812,0
1553808682.427,24.414,29.785,38.086,15.137,-7.324,0
1553808682.430,20.020,29.785,32.227,22.949,1.953,0
1553808682.434,25.879,31.738,24.902,25.391,25.391,0
1553808682.438,34.180,33.691,29.785,38.086,43.945,0
1553808682.442,20.996,34.668,37.109,46.875,49.805,0
1553808682.446,20.996,32.227,29.297,10.254,62.500,0
1553808682.450,45.410,33.203,22.949,25.879,51.758,0
1553808682.454,43.457,34.668,31.738,58.594,27.832,0
1553808682.458,28.809,32.227,30.762,32.715,32.715,0
1553808682.462,14.648,29.297,28.320,20.508,37.598,0
1553808682.466,25.391,37.109,27.344,22.461,16.602,0
1553808682.470,25.879,35.156,28.809,12.207,-0.488,0
1553808682.473,9.766,34.668,30.273,26.855,-8.789,0
1553808682.477,18.066,34.180,27.832,27.832,39.551,0
1553808682.481,45.898,29.297,30.273,27.832,69.336,0
1553808682.485,53.711,35.156,31.738,36.621,60.059,0
1553808682.489,37.598,36.133,25.879,16.602,36.133,0
1553808682.493,28.320,30.762,26.855,26.855,12.695,0
1553808682.497,33.203,27.344,34.668,22.949,26.367,0
1553808682.501,53.711,26.855,37.109,7.324,68.359,0
1553808682.505,46.875,23.438,31.250,40.039,92.285,0
1553808682.509,31.250,28.809,30.273,44.434,42.480,0
1553808682.513,30.762,32.715,32.227,36.621,46.875,0
1553808682.516,76.172,34.180,24.414,13.672,30.273,0
1553808682.520,62.500,39.062,18.555,-3.418,17.090,0
1553808682.524,43.945,35.156,22.949,16.602,42.480,0
1553808682.528,72.266,32.715,22.461,23.926,26.367,0
1553808682.532,60.547,38.086,13.184,21.484,49.316,0
1553808682.536,68.359,38.574,15.137,11.230,23.926,0
1553808682.540,61.523,38.574,15.137,30.762,-14.648,0
1553808682.544,55.664,38.086,13.672,34.668,12.207,0
1553808682.548,72.266,42.480,16.602,5.371,48.340,0
1553808682.552,70.312,43.457,17.578,16.602,30.762,0
1553808682.555,50.781,41.016,18.555,28.320,27.832,0
1553808682.559,47.852,40.527,12.695,22.949,69.336,0
1553808682.563,55.176,37.598,13.184,33.203,31.250,0
1553808682.567,53.223,39.551,15.625,36.133,0.488,0
1553808682.571,69.336,37.109,18.555,26.855,-22.461,0
1553808682.575,69.824,36.133,23.438,19.531,-13.672,0
1553808682.579,29.785,34.668,21.484,40.527,7.324,0
1553808682.583,45.410,40.527,16.602,31.738,33.203,0
1553808682.587,57.129,47.363,17.578,2.441,28.809,0
1553808682.591,38.574,47.852,21.484,15.625,-28.320,0
1553808682.595,42.969,45.410,22.461,14.160,11.230,0
1553808682.598,52.246,38.086,21.973,17.090,54.199,0
1553808682.602,48.340,36.133,20.020,21.973,36.133,0
1553808682.606,34.668,34.668,27.344,27.344,42.969,0
1553808682.610,30.273,33.691,26.367,24.414,48.340,0
1553808682.614,22.461,39.062,15.137,2.441,16.602,0
1553808682.618,24.902,39.062,19.043,-6.836,10.254,0
1553808682.622,8.789,38.086,19.043,17.090,-0.488,0
1553808682.626,3.906,40.039,21.484,28.809,25.391,0
1553808682.630,13.184,40.527,16.602,7.812,12.695,0
1553808682.634,17.090,38.574,18.555,8.301,21.484,0
1553808682.638,9.766,42.480,20.508,16.113,46.875,0
1553808682.641,12.695,44.434,15.137,15.137,-7.324,0
1553808682.645,37.109,37.109,16.113,-20.508,0.977,0
1553808682.649,28.809,34.180,14.648,11.719,31.250,0
1553808682.653,-29.297,32.715,18.066,22.949,2.930,0
1553808682.657,-69.824,32.715,17.578,-14.648,35.645,0
1553808682.661,-46.387,31.738,22.461,-11.230,40.527,0
1553808682.665,-0.488,33.691,24.414,2.441,16.602,0
1553808682.669,-4.883,38.086,17.578,5.371,-2.930,0
1553808682.673,-14.648,39.551,17.578,8.301,39.551,0
1553808682.677,-21.973,39.062,20.020,8.789,34.668,0
1553808682.680,-13.184,37.598,23.438,3.418,9.277,0
1553808682.684,-16.602,40.039,21.973,23.926,-9.277,0
1553808682.688,-52.246,39.551,21.484,20.020,-40.527,0
1553808682.692,-27.832,40.527,18.555,-29.785,43.457,0
1553808682.696,-32.227,36.133,22.461,-22.949,41.992,0
1553808682.700,-39.062,28.809,23.438,23.438,14.648,0
1553808682.704,-41.992,33.203,17.090,11.719,12.695,0
1553808682.708,-47.363,42.969,23.438,-0.977,17.090,0
1553808682.712,-38.086,42.969,26.855,23.926,41.992,0
1553808682.716,-34.180,34.180,29.785,22.949,68.848,0
1553808682.720,-34.668,35.645,27.832,0.488,47.363,0
1553808682.723,-25.391,37.598,26.855,-18.555,26.855,0
1553808682.727,-21.484,41.992,26.367,-25.879,42.969,0
1553808682.731,-29.297,44.434,24.902,-17.578,32.227,0
1553808682.735,-40.039,46.875,25.391,-3.418,29.297,0
1553808682.739,-31.250,45.898,22.949,14.160,36.133,0
1553808682.743,-12.695,41.016,22.461,29.297,-13.184,0
1553808682.747,-22.949,41.504,34.668,33.691,4.395,0
1553808682.751,-33.203,41.992,46.387,0.977,30.762,0
1553808682.755,-48.340,47.363,40.527,-16.113,31.250,0
1553808682.759,-63.477,38.086,44.922,7.812,41.992,0
1553808682.763,-56.152,26.855,48.340,18.066,65.430,0
1553808682.766,-13.184,29.297,50.781,27.832,42.480,0
1553808682.770,-19.043,30.273,53.711,18.555,50.781,0
1553808682.774,-31.250,26.367,52.734,16.602,80.078,0
1553808682.778,-15.625,24.414,56.641,23.438,46.387,0
1553808682.782,14.160,23.926,59.082,47.852,37.598,0
1553808682.786,24.414,20.996,59.570,75.195,63.477,0
1553808682.790,8.301,20.508,54.199,59.570,-30.273,0
1553808682.794,25.879,18.555,50.781,76.660,-20.996,0
1553808682.798,65.430,16.602,52.246,85.449,44.434,0
1553808682.802,87.402,11.719,53.223,93.750,4.883,0
1553808682.805,67.871,15.625,47.363,106.934,21.484,0
1553808682.809,29.297,19.043,41.992,90.332,54.199,0
1553808682.813,38.574,17.090,48.340,81.543,82.520,0
1553808682.817,80.566,20.996,42.480,94.727,51.270,0
1553808682.821,97.168,20.508,36.621,101.074,24.902,0
1553808682.825,62.012,19.531,37.109,93.750,6.348,0
1553808682.829,44.922,21.973,28.320,106.445,-18.555,0
1553808682.833,63.477,21.484,31.738,98.145,19.043,0
1553808682.837,53.711,19.043,31.738,85.449,-1.953,0
1553808682.841,71.777,21.973,23.926,86.914,9.277,0
1553808682.845,80.566,30.273,24.902,71.289,43.945,0
1553808682.848,60.547,27.832,30.273,62.988,5.859,0
1553808682.852,116.211,24.414,29.785,76.660,26.855,0
1553808682.856,103.027,27.344,25.879,86.914,13.184,0
1553808682.860,38.574,23.926,23.926,63.477,-25.391,0
1553808682.864,52.734,24.414,23.926,69.336,50.781,0
1553808682.868,65.430,23.438,22.461,83.496,8.301,0
1553808682.872,69.336,22.949,25.879,53.223,-48.828,0
1553808682.876,72.266,23.926,29.297,22.461,13.184,0
1553808682.880,73.242,25.391,24.414,61.523,43.457,0
1553808682.884,108.887,25.391,20.508,65.918,53.711,0
1553808682.888,104.492,28.809,14.648,39.551,8.301,0
1553808682.891,65.430,27.344,19.043,58.594,7.812,0
1553808682.895,61.523,27.344,22.461,55.664,63.477,0
1553808682.899,58.105,26.855,18.555,56.641,46.387,0
1553808682.903,60.547,21.973,25.391,57.129,33.691,0
1553808682.907,57.617,23.438,28.320,48.828,86.914,0
1553808682.911,55.664,25.879,26.367,69.824,86.914,0
1553808682.915,72.266,23.438,28.809,52.246,41.504,0
1553808682.919,75.684,21.973,31.738,28.320,13.184,0
1553808682.923,65.430,28.809,30.762,30.273,38.086,0
1553808682.927,57.617,36.133,25.391,58.594,68.848,0
1553808682.930,72.266,37.598,22.461,57.129,75.195,0
1553808682.934,84.961,36.133,24.414,47.363,66.895,0
1553808682.938,83.496,30.762,34.180,51.270,53.223,0
1553808682.942,76.660,29.297,34.180,33.691,99.609,0
1553808682.946,51.270,25.391,38.086,30.762,59.570,0
1553808682.950,67.383,22.461,41.504,47.363,29.785,0
1553808682.954,55.176,22.949,37.109,72.266,32.227,0
1553808682.958,71.289,19.043,36.621,67.383,55.664,0
1553808682.962,72.754,25.879,33.691,41.992,95.703,0
1553808682.966,59.570,28.809,35.645,36.133,34.180,0
1553808682.970,87.891,26.855,37.109,28.320,21.484,0
1553808682.973,90.332,32.227,35.645,44.434,51.758,0
1553808682.977,82.520,32.715,33.691,57.617,96.680,0
1553808682.981,81.543,34.668,28.320,12.207,62.500,0
1553808682.985,59.570,33.203,30.762,40.527,48.828,0
1553808682.989,83.984,26.855,32.715,64.941,50.293,0
1553808682.993,98.145,29.785,32.227,16.113,24.902,0
1553808682.997,57.129,24.902,35.645,20.020,-5.371,0
1553808683.001,83.496,24.902,32.715,46.387,-14.648,0
1553808683.005,88.867,29.297,36.621,58.594,49.316,0
1553808683.009,71.777,28.320,37.598,21.484,64.941,0
1553808683.013,71.777,29.785,32.715,2.441,61.035,0
1553808683.016,56.152,33.691,32.227,34.668,57.129,0
1553808683.020,80.566,34.180,31.250,33.203,-14.648,0
1553808683.024,81.055,32.227,33.203,36.133,-20.996,0
1553808683.028,65.430,33.203,32.715,44.922,21.484,0
1553808683.032,82.031,34.668,24.902,41.016,-15.625,0
1553808683.036,89.355,29.785,32.715,46.387,10.254,0
1553808683.040,69.336,30.273,41.016,41.992,32.227,0
1553808683.044,31.250,32.715,28.320,32.715,31.738,0
1553808683.048,9.277,32.227,23.926,29.785,36.133,0
1553808683.052,-25.391,35.156,25.391,-1.465,16.113,0
1553808683.055,-15.625,32.715,30.273,-15.137,43.457,0
1553808683.059,11.230,30.762,31.250,25.879,35.645,0
1553808683.063,4.395,33.691,27.832,32.227,5.371,0
1553808683.067,29.785,31.738,37.598,51.270,52.246,0
1553808683.071,33.203,30.273,35.645,45.410,48.828,0
1553808683.075,20.996,28.809,27.344,10.254,22.949,0
1553808683.079,18.555,26.855,22.461,22.461,59.082,0
1553808683.083,11.719,28.320,22.949,30.762,87.402,0
1553808683.087,34.668,31.250,20.508,27.832,70.801,0
1553808683.091,48.828,38.086,19.531,23.438,31.250,0
1553808683.095,42.480,34.668,29.785,17.090,38.574,0
1553808683.098,34.668,31.250,33.203,27.832,64.453,0
1553808683.102,20.508,35.156,32.227,28.320,67.871,0
1553808683.106,23.926,33.691,35.645,69.824,55.664,0
1553808683.110,28.320,30.762,26.367,48.828,49.805,0
1553808683.114,20.020,32.715,23.926,-17.578,52.246,0
1553808683.118,2.930,36.133,26.855,16.602,-2.441,0
1553808683.122,16.602,34.180,20.996,20.508,10.742,0
1553808683.126,25.391,35.645,18.555,9.277,71.777,0
1553808683.130,26.367,35.645,19.043,12.207,73.242,0
1553808683.134,12.207,35.156,14.160,7.812,42.969,0
1553808683.138,10.254,32.227,13.672,55.664,-17.578,0
1553808683.141,46.875,33.691,21.973,35.645,-1.465,0
1553808683.145,25.391,40.527,20.508,9.277,32.715,0
1553808683.149,7.812,41.504,13.672,14.160,-11.719,0
1553808683.153,16.113,39.551,18.555,-35.645,15.625,0
1553808683.157,-25.879,43.945,22.949,-35.156,33.691,0
1553808683.161,-53.223,45.898,19.043,-27.832,-21.484,0
1553808683.165,-64.453,42.969,17.090,-41.992,87.891,0
1553808683.169,-70.801,48.340,7.812,-63.965,92.285,0
1553808683.173,-82.031,48.340,6.836,-71.777,-4.395,0
1553808683.177,-66.895,48.340,4.395,-60.547,9.277,0
1553808683.180,-63.965,52.734,-0.488,-77.637,-9.766,0
1553808683.184,-68.359,52.734,3.418,-90.332,-31.250,0
1553808683.188,-76.172,52.246,3.418,-79.590,5.371,0
1553808683.192,-88.379,51.270,-1.953,-50.781,51.758,0
1553808683.196,-79.102,46.387,-1.465,-57.617,52.734,0
1553808683.200,-62.012,49.316,-2.441,-85.938,41.992,0
1553808683.204,-55.664,51.758,-6.348,-56.641,78.125,0
1553808683.208,-49.316,49.805,-1.953,-48.340,49.316,0
1553808683.212,-41.016,49.805,3.906,-16.602,-31.250,0
1553808683.216,-38.574,50.293,2.930,13.672,-20.996,0
1553808683.220,-8.301,50.781,0.977,-30.273,7.324,0
1553808683.223,-0.488,46.875,6.836,-51.758,-45.410,0
1553808683.227,-17.578,43.945,8.789,-17.578,8.789,0
1553808683.231,2.930,47.363,9.766,-5.859,59.082,0
1553808683.235,11.230,48.340,11.719,-1.465,31.738,0
1553808683.239,-3.906,47.852,13.184,-17.578,79.102,0
1553808683.243,19.043,47.363,14.160,-40.527,50.293,0
1553808683.247,17.090,46.875,14.160,-1.953,31.738,0
1553808683.251,12.207,45.410,16.113,24.414,36.621,0
1553808683.255,13.184,44.434,16.113,10.254,55.176,0
1553808683.259,5.371,42.969,10.254,-10.254,66.895,0
1553808683.263,5.859,41.992,11.719,-17.578,75.684,0
1553808683.266,-0.488,41.992,12.695,12.207,100.098,0
1553808683.270,12.695,42.969,7.324,9.277,70.801,0
1553808683.274,23.926,39.551,7.324,-18.555,78.125,0
1553808683.278,10.254,40.527,10.742,-7.812,45.410,0
1553808683.282,17.578,43.945,15.137,6.836,34.668,0
1553808683.286,30.273,37.598,20.020,39.062,59.570,0
1553808683.290,20.020,37.109,19.043,41.016,42.969,0
1553808683.294,28.320,43.945,18.066,25.879,32.715,0
1553808683.298,33.203,45.898,16.113,19.531,47.852,0
1553808683.302,36.133,47.852,11.230,4.883,53.223,0
1553808683.305,26.367,47.852,13.184,24.902,84.473,0
1553808683.309,12.207,39.551,17.090,31.738,23.926,0
1553808683.313,-1.953,40.039,17.578,19.531,-43.457,0
1553808683.317,10.254,39.062,20.508,31.738,-2.441,0
1553808683.321,25.391,35.156,17.090,16.602,20.996,0
1553808683.325,25.391,40.527,14.648,-11.719,13.184,0
1553808683.329,15.625,40.039,18.066,-5.859,-10.742,0
1553808683.333,19.043,35.645,20.508,11.230,2.441,0
1553808683.337,37.598,35.156,17.578,29.785,27.832,0
1553808683.341,22.461,33.203,19.043,26.367,28.809,0
1553808683.345,16.113,36.133,23.438,16.602,31.250,0
1553808683.348,17.090,38.086,22.461,28.320,36.621,0
1553808683.352,20.508,36.621,24.902,39.551,-1.953,0
1553808683.356,46.875,34.180,25.391,28.809,16.602,0
1553808683.360,39.062,35.156,20.020,21.484,23.438,0
1553808683.364,28.320,39.062,20.508,25.879,-6.348,0
1553808683.368,45.410,34.668,22.949,30.273,28.320,0
1553808683.372,54.688,37.598,23.926,37.598,23.438,0
1553808683.376,56.152,44.434,25.879,23.438,61.523,0
1553808683.380,54.199,40.527,22.949,-0.488,86.914,0
1553808683.384,45.410,40.039,22.461,5.859,8.789,0
1553808683.388,45.898,43.945,24.902,21.973,-3.906,0
1553808683.391,45.898,39.551,24.902,33.691,24.414,0
1553808683.395,36.621,32.715,21.973,27.832,15.137,0
1553808683.399,41.504,32.715,22.949,16.113,40.039,0
1553808683.403,35.156,34.180,27.344,13.184,66.406,0
1553808683.407,13.184,34.180,29.785,26.855,50.781,0
1553808683.411,21.484,35.645,30.273,27.344,5.371,0
1553808683.415,35.645,36.133,32.715,35.645,20.508,0
1553808683.419,28.320,35.645,29.297,40.527,39.062,0
1553808683.423,34.180,35.156,26.855,25.391,27.832,0
1553808683.427,35.156,36.621,28.320,26.855,36.621,0
1553808683.430,39.551,36.621,25.879,13.184,51.758,0
1553808683.434,45.898,36.621,23.926,15.137,20.996,0
1553808683.438,40.527,40.039,23.438,38.086,19.531,0
1553808683.442,41.992,40.039,26.367,11.230,61.035,0
1553808683.446,42.480,39.062,27.832,30.273,59.570,0
1553808683.450,20.020,38.574,23.926,39.062,35.156,0
1553808683.454,0.977,32.715,24.902,-19.043,45.410,0
1553808683.458,7.812,29.785,29.297,5.371,0.488,0
1553808683.462,24.902,31.738,27.344,14.160,-54.199,0
1553808683.466,22.949,31.250,30.273,8.301,-15.137,0
1553808683.470,19.043,31.738,36.133,19.043,6.348,0
1553808683.473,31.738,30.762,33.203,27.344,60.547,0
1553808683.477,32.715,33.203,33.203,41.016,26.855,0
1553808683.481,28.809,35.645,32.227,45.898,-29.785,0
1553808683.485,38.086,32.715,29.297,33.203,29.297,0
1553808683.489,35.645,34.668,28.320,17.090,-5.859,0
1553808683.493,14.648,35.156,30.273,17.578,-1.465,0
1553808683.497,34.180,31.738,25.879,23.438,88.867,0
1553808683.501,71.289,33.691,30.762,20.020,82.520,0
1553808683.505,40.039,36.133,40.039,16.602,41.992,0
1553808683.509,-17.090,32.715,35.156,2.930,-1.953,0
1553808683.513,-13.672,31.738,31.250,20.020,-0.977,0
1553808683.516,7.324,33.691,30.762,29.297,82.031,0
1553808683.520,18.066,34.668,29.297,15.625,68.359,0
1553808683.524,-1.953,35.645,31.250,-11.230,25.391,0
1553808683.528,-36.621,34.668,31.738,-51.270,28.809,0
1553808683.532,-32.227,29.785,36.621,-55.664,41.504,0
1553808683.536,-16.602,31.250,39.551,-33.203,86.914,0
1553808683.540,-10.742,30.762,33.691,-3.906,61.523,0
1553808683.544,-7.812,25.391,33.691,20.508,-8.789,0
1553808683.548,-6.836,25.391,34.180,19.531,7.324,0
1553808683.552,5.859,24.414,34.180,25.879,53.223,0
1553808683.555,-2.441,24.414,29.785,24.414,54.199,0
1553808683.559,2.441,28.809,26.367,5.371,43.945,0
1553808683.563,26.367,29.297,29.297,32.715,61.035,0
1553808683.567,28.320,31.738,28.320,30.762,46.875,0
1553808683.571,21.484,32.715,28.809,13.672,41.504,0
1553808683.575,21.973,29.785,27.832,9.766,40.527,0
1553808683.579,24.902,27.344,23.926,-2.441,13.672,0
1553808683.583,16.602,27.832,22.949,13.672,4.395,0
1553808683.587,4.883,27.344,23.438,33.691,0.977,0
1553808683.591,18.066,26.855,26.855,22.949,18.066,0
1553808683.595,28.809,25.879,30.762,35.156,10.254,0
1553808683.598,18.066,24.414,24.414,44.922,17.090,0
1553808683.602,21.484,27.344,20.508,13.672,34.180,0
1553808683.606,31.738,27.832,20.508,8.301,52.734,0
1553808683.610,9.277,26.367,19.043,1.465,66.406,0
1553808683.614,-4.883,27.344,19.531,30.762,-8.301,0
1553808683.618,0.000,29.297,19.043,35.645,-28.320,0
1553808683.622,0.488,33.203,20.996,9.766,-4.883,0
1553808683.626,-9.277,32.715,22.461,51.758,15.625,0
1553808683.630,-6.836,29.297,20.508,61.523,41.016,0
1553808683.634,17.578,30.273,19.043,43.457,40.527,0
1553808683.638,30.762,33.203,23.926,16.113,14.160,0
1553808683.641,-0.488,36.621,26.367,-11.719,17.578,0
1553808683.645,-18.555,36.621,27.344,6.836,16.113,0
1553808683.649,-11.719,33.691,26.367,10.742,25.391,0
1553808683.653,2.930,32.715,21.484,-19.043,35.156,0
1553808683.657,-13.184,33.203,24.902,-45.898,37.109,0
1553808683.661,-63.965,33.691,25.879,-22.949,18.555,0
1553808683.665,-26.367,35.645,22.949,1.465,14.160,0
1553808683.669,-5.371,35.645,26.367,16.602,43.457,0
1553808683.673,-40.039,35.156,25.879,6.348,85.938,0
1553808683.677,-28.320,33.691,22.949,-29.785,72.754,0
1553808683.680,-3.418,32.227,27.832,-1.465,86.914,0
1553808683.684,10.254,30.273,24.902,21.973,80.566,0
1553808683.688,20.508,28.809,21.973,13.184,-9.277,0
1553808683.692,8.789,30.273,22.949,27.832,-30.273,0
1553808683.696,2.930,31.738,21.484,27.344,-1.953,0
1553808683.700,18.066,26.367,27.832,41.504,-20.508,0
1553808683.704,38.574,24.414,29.785,34.668,25.391,0
1553808683.708,20.508,26.367,22.949,9.766,59.570,0
1553808683.712,10.742,24.414,20.020,15.137,43.945,0
1553808683.716,40.527,25.879,17.090,16.602,74.219,0
1553808683.720,30.762,30.273,16.113,40.527,46.387,0
1553808683.723,21.484,32.715,14.160,21.973,48.828,0
1553808683.727,11.719,29.785,15.137,-21.973,37.598,0
1553808683.731,46.875,27.344,19.531,17.578,-10.254,0
1553808683.735,44.922,29.785,21.484,20.508,-0.977,0
1553808683.739,7.812,29.785,20.996,11.230,45.898,0
1553808683.743,26.367,30.273,24.902,42.969,57.617,0
1553808683.747,57.129,34.180,27.344,31.250,45.410,0
1553808683.751,66.406,37.109,24.902,20.508,-0.488,0
1553808683.755,43.945,34.668,28.809,35.156,17.578,0
1553808683.759,41.016,33.203,29.785,19.043,60.059,0
1553808683.763,50.781,37.109,26.367,14.160,59.082,0
1553808683.766,47.363,37.109,26.367,28.809,49.316,0
1553808683.770,32.715,35.645,26.855,40.527,-3.418,0
1553808683.774,21.484,36.621,25.879,18.066,6.836,0
1553808683.778,28.809,33.691,24.902,34.180,13.672,0
1553808683.782,40.039,32.715,25.879,26.367,14.648,0
1553808683.786,73.242,34.180,30.762,-2.441,45.410,0
1553808683.790,77.637,33.691,31.738,31.250,16.113,0
1553808683.794,44.434,33.691,30.273,23.438,18.066,0
1553808683.798,61.035,36.621,32.227,28.320,42.969,0
1553808683.802,74.219,37.598,30.762,45.410,47.363,0
1553808683.805,65.918,37.109,28.809,34.180,86.426,0
1553808683.809,34.668,37.109,31.250,59.570,54.688,0
1553808683.813,40.527,35.156,36.621,45.898,33.203,0
1553808683.817,60.059,38.574,32.715,23.438,42.969,0
1553808683.821,49.805,41.504,25.879,29.785,12.695,0
1553808683.825,60.059,39.551,29.297,47.852,31.250,0
1553808683.829,53.711,39.551,30.762,44.434,25.879,0
1553808683.833,53.711,38.086,33.691,15.625,41.016,0
1553808683.837,49.805,38.086,34.668,31.738,32.227,0
1553808683.841,66.406,40.039,29.297,26.855,-1.953,0
1553808683.845,60.547,41.016,26.367,30.273,-1.953,0
1553808683.848,22.949,37.109,31.250,34.668,18.066,0
1553808683.852,41.504,36.133,33.203,31.738,27.344,0
1553808683.856,41.992,40.039,29.297,28.320,48.828,0
1553808683.860,44.434,38.086,27.344,26.367,52.246,0
1553808683.864,56.152,35.645,27.344,19.531,22.461,0
1553808683.868,21.973,35.645,27.832,14.160,31.250,0
1553808683.872,11.719,35.645,25.879,9.277,78.613,0
1553808683.876,20.508,35.645,24.414,26.855,37.109,0
1553808683.880,39.062,32.715,23.926,56.152,-1.953,0
1553808683.884,39.551,32.227,23.438,17.578,46.875,0
1553808683.888,46.875,32.715,25.391,19.043,53.223,0
1553808683.891,39.062,32.227,20.508,46.387,-13.184,0
1553808683.895,23.926,37.109,20.508,18.555,29.785,0
1553808683.899,33.691,37.598,23.926,42.969,86.914,0
1553808683.903,24.902,32.227,23.926,27.344,58.105,0
1553808683.907,19.531,32.227,27.344,-12.695,77.637,0
1553808683.911,24.414,30.762,30.273,13.672,103.516,0
1553808683.915,24.414,31.250,29.297,27.832,79.102,0
1553808683.919,38.574,35.645,26.855,24.902,47.852,0
1553808683.923,44.434,40.527,26.855,17.578,40.039,0
1553808683.927,18.555,41.016,31.250,40.527,30.273,0
1553808683.930,6.348,41.016,29.785,50.293,52.246,0
1553808683.934,19.531,41.504,30.273,6.836,26.855,0
1553808683.938,28.320,39.551,31.738,8.301,-13.184,0
1553808683.942,17.090,37.598,29.785,34.180,-4.883,0
1553808683.946,25.879,35.156,39.062,17.578,0.488,0
1553808683.950,54.199,38.574,38.086,14.648,7.324,0
1553808683.954,41.992,37.598,33.203,33.691,2.930,0
1553808683.958,30.273,32.227,37.598,44.434,-10.254,0
1553808683.962,13.672,33.203,36.133,40.039,13.672,0
1553808683.966,17.090,36.621,33.203,37.109,-3.418,0
1553808683.970,24.902,34.668,33.203,24.902,-1.465,0
1553808683.973,6.348,31.738,29.785,24.414,8.789,0
1553808683.977,-3.906,35.156,22.949,12.207,45.898,0
1553808683.981,15.625,38.086,20.996,-2.441,57.129,0
1553808683.985,19.531,37.598,24.902,12.207,32.715,0
1553808683.989,10.254,36.621,25.391,22.949,5.859,0
1553808683.993,11.230,33.203,27.832,13.184,-19.043,0
1553808683.997,16.602,32.715,29.785,40.039,22.949,0
1553808684.001,24.902,35.156,26.855,34.668,-3.906,0
1553808684.005,32.227,33.203,29.785,5.859,3.418,0
1553808684.009,15.137,30.762,33.691,-0.977,40.527,0
1553808684.013,27.832,31.250,37.109,-8.789,57.617,0
1553808684.016,50.781,34.668,37.109,10.254,96.680,0
1553808684.020,22.949,36.133,33.203,16.113,26.367,0
1553808684.024,4.395,29.785,36.621,19.531,32.715,0
1553808684.028,29.785,31.250,38.086,16.602,13.184,0
1553808684.032,41.992,37.598,36.133,21.973,32.715,0
1553808684.036,21.484,39.062,38.086,9.766,57.129,0
1553808684.040,21.973,38.086,36.133,-3.906,67.383,0
1553808684.044,18.555,38.086,32.227,6.348,75.195,0
1553808684.048,16.113,33.691,28.320,4.883,40.039,0
1553808684.052,44.922,33.691,31.738,16.602,54.199,0
1553808684.055,37.109,37.109,35.156,25.391,65.430,0
1553808684.059,14.648,39.062,34.180,12.207,61.523,0
1553808684.063,27.832,40.527,35.645,21.973,66.406,0
1553808684.067,41.016,33.691,34.668,22.949,78.125,0
1553808684.071,46.875,27.832,36.133,-9.277,52.246,0
1553808684.075,57.129,36.621,37.598,0.000,18.555,0
1553808684.079,41.992,37.598,33.203,4.883,0.488,0
1553808684.083,36.621,35.156,33.203,26.855,25.879,0
1553808684.087,61.035,38.574,39.062,44.922,47.852,0
1553808684.091,73.242,39.551,41.992,22.461,13.184,0
1553808684.095,49.805,38.574,39.551,7.324,6.836,0
1553808684.098,51.270,43.945,40.039,8.789,5.371,0
1553808684.102,45.898,48.340,39.551,32.715,-9.766,0
1553808684.106,27.344,43.457,39.062,30.273,-8.301,0
1553808684.110,14.160,41.992,37.598,9.766,-17.090,0
1553808684.114,6.348,41.992,36.621,4.395,41.992,0
1553808684.118,36.621,44.922,41.992,17.578,57.617,0
1553808684.122,29.785,47.363,41.992,35.156,44.922,0
1553808684.126,6.348,40.527,42.480,32.227,56.641,0
1553808684.130,21.484,35.645,41.992,22.949,32.715,0
1553808684.134,34.668,38.574,48.340,47.852,-5.371,0
1553808684.138,32.715,37.598,52.246,39.062,18.555,0
1553808684.141,29.297,36.133,45.410,12.207,51.758,0
1553808684.145,34.180,35.645,41.504,30.762,12.695,0
1553808684.149,31.738,38.086,41.016,19.531,5.859,0
1553808684.153,43.457,40.527,42.969,23.438,16.602,0
1553808684.157,50.293,40.039,43.945,34.180,41.992,0
1553808684.161,33.203,36.133,45.898,36.621,97.168,0
1553808684.165,56.152,35.156,44.922,27.344,110.840,0
1553808684.169,48.828,39.551,40.527,31.738,50.293,0
1553808684.173,23.926,38.086,42.480,54.688,-5.859,0
1553808684.177,36.133,37.109,44.434,48.340,-0.488,0
1553808684.180,35.645,41.016,45.898,41.504,-9.766,0
1553808684.184,38.086,39.551,48.340,26.855,5.859,0
1553808684.188,41.504,35.645,49.805,20.996,44.922,0
1553808684.192,49.805,37.109,42.969,26.855,69.336,0
1553808684.196,41.504,39.062,40.039,39.551,40.527,0
1553808684.200,21.973,38.086,42.969,52.246,62.988,0
1553808684.204,17.578,36.133,41.992,30.273,87.402,0
1553808684.208,22.949,34.180,41.992,13.184,22.461,0
1553808684.212,30.762,37.109,42.969,26.855,53.711,0
1553808684.216,33.691,36.621,43.457,34.668,64.941,0
1553808684.220,42.969,33.203,47.363,25.879,-20.020,0
1553808684.223,42.969,34.668,46.875,40.527,-11.719,0
1553808684.227,39.062,34.668,41.016,50.781,24.414,0
1553808684.231,17.578,33.691,42.969,29.297,0.488,0
1553808684.235,11.719,36.133,44.434,34.180,4.395,0
1553808684.239,22.949,33.691,45.898,47.363,20.996,0
1553808684.243,27.344,31.738,46.875,29.297,53.223,0
1553808684.247,29.297,34.180,44.922,30.273,38.574,0
1553808684.251,33.203,37.598,40.039,27.344,29.297,0
1553808684.255,54.688,34.668,38.086,47.852,68.848,0
1553808684.259,43.457,35.645,39.551,55.664,35.156,0
1553808684.263,6.836,40.527,38.574,20.020,26.855,0
1553808684.266,26.367,36.133,36.621,15.625,-10.742,0
1553808684.270,43.457,34.180,38.086,29.785,-32.227,0
1553808684.274,30.273,34.668,39.551,49.805,7.812,0
1553808684.278,19.043,31.738,41.992,53.711,19.043,0
1553808684.282,37.109,35.156,42.480,32.715,45.410,0
1553808684.286,63.477,37.598,39.062,46.387,67.871,0
1553808684.290,36.621,33.691,41.504,59.082,37.109,0
1553808684.294,20.996,33.691,45.410,40.039,28.809,0
1553808684.298,59.082,33.203,49.316,47.363,47.363,0
1553808684.302,59.570,34.180,51.270,46.875,29.297,0
1553808684.305,13.672,36.133,44.922,34.180,52.734,0
1553808684.309,11.230,33.691,39.551,11.230,84.961,0
1553808684.313,35.645,33.203,41.016,32.227,62.500,0
1553808684.317,40.527,30.762,41.504,39.062,34.180,0
1553808684.321,35.156,30.273,37.598,22.461,9.277,0
1553808684.325,27.832,30.762,33.203,20.508,49.805,0
1553808684.329,32.227,29.297,28.320,11.719,29.297,0
1553808684.333,27.832,31.738,27.344,7.324,-34.180,0
1553808684.337,5.859,32.715,30.273,4.395,-8.301,0
1553808684.341,14.648,33.203,33.203,12.207,-24.902,0
1553808684.345,20.508,34.180,31.738,32.715,-44.434,0
1553808684.348,34.668,32.227,34.180,31.738,49.316,0
1553808684.352,61.523,32.715,37.109,35.156,53.223,0
1553808684.356,55.664,37.109,39.062,71.289,56.152,0
1553808684.360,41.992,39.062,38.574,63.477,62.012,0
1553808684.364,44.434,40.527,34.180,24.902,17.578,0
1553808684.368,62.500,36.621,35.156,21.973,67.383,0
1553808684.372,55.176,35.645,36.133,31.738,48.828,0
1553808684.376,43.457,34.180,36.621,37.109,-11.230,0
1553808684.380,35.645,32.227,32.715,43.457,5.371,0
1553808684.384,18.066,33.203,29.297,36.621,43.457,0
1553808684.388,33.691,32.227,33.203,25.391,74.219,0
1553808684.391,49.316,33.691,34.668,38.086,58.594,0
1553808684.395,35.645,33.203,33.691,47.363,46.387,0
1553808684.399,26.367,33.203,35.645,21.973,77.637,0
1553808684.403,45.898,36.133,38.086,21.973,29.785,0
1553808684.407,48.340,35.156,38.086,64.453,41.504,0
1553808684.411,41.016,34.668,41.016,43.945,67.383,0
1553808684.415,47.852,35.156,43.457,24.902,6.836,0
1553808684.419,58.594,31.738,47.363,41.504,17.578,0
1553808684.423,55.176,35.645,46.387,23.438,39.551,0
1553808684.427,39.551,36.621,40.039,33.203,19.043,0
1553808684.430,24.414,30.273,40.527,52.734,42.969,0
1553808684.434,38.574,35.156,39.551,45.898,78.613,0
1553808684.438,68.359,40.039,35.645,54.199,71.289,0
1553808684.442,45.898,41.504,33.203,48.828,65.430,0
1553808684.446,33.691,42.480,31.250,27.344,52.734,0
1553808684.450,62.500,42.480,31.738,28.809,36.621,0
1553808684.454,54.688,41.504,33.691,61.035,19.043,0
1553808684.458,34.668,37.598,35.156,59.570,44.922,0
1553808684.462,31.250,34.668,36.133,23.926,-2.441,0
1553808684.466,41.016,36.621,39.551,11.719,-40.527,0
1553808684.470,36.621,36.133,39.551,24.902,35.156,0
1553808684.473,24.414,33.691,37.598,56.641,38.574,0
1553808684.477,42.969,34.668,33.203,25.391,51.270,0
1553808684.481,57.617,36.133,32.715,-5.859,40.039,0
1553808684.485,49.316,40.527,28.320,37.109,29.297,0
1553808684.489,35.645,43.945,19.531,26.855,33.203,0
1553808684.493,33.203,40.527,27.832,8.301,20.996,0
1553808684.497,28.320,41.016,24.414,31.738,14.648,0
1553808684.501,21.484,40.527,17.090,20.020,0.000,0
1553808684.505,26.367,38.086,24.414,7.812,2.441,0
1553808684.509,26.855,37.598,28.809,22.949,15.625,0
1553808684.513,16.113,38.574,29.297,43.945,-13.184,0
1553808684.516,15.625,38.574,35.156,50.293,-9.766,0
1553808684.520,36.133,36.133,35.645,52.246,16.602,0
1553808684.524,29.785,34.180,31.250,30.273,37.109,0
1553808684.528,24.902,31.738,32.227,18.066,54.199,0
1553808684.532,33.691,35.645,30.762,34.668,42.969,0
1553808684.536,28.320,35.645,35.156,45.410,11.719,0
1553808684.540,34.180,31.738,37.109,24.414,37.109,0
1553808684.544,33.203,33.203,30.762,13.672,31.250,0
1553808684.548,25.391,34.180,33.691,26.855,15.137,0
1553808684.552,30.762,32.227,30.273,-2.441,63.965,0
1553808684.555,30.762,34.668,21.973,0.977,21.973,0
1553808684.559,21.484,37.109,23.926,10.742,10.254,0
1553808684.563,23.926,36.621,25.391,16.602,4.395,0
1553808684.567,41.016,39.551,25.391,35.645,11.230,0
1553808684.571,28.320,38.574,26.855,20.508,28.320,0
1553808684.575,7.812,32.715,30.273,25.391,53.711,0
1553808684.579,11.230,33.691,35.645,32.715,99.609,0
1553808684.583,51.270,34.180,36.621,17.090,49.805,0
1553808684.587,60.547,31.250,36.621,18.066,-7.812,0
1553808684.591,41.992,31.250,39.551,42.480,61.523,0
1553808684.595,36.133,30.762,36.133,60.059,68.359,0
1553808684.598,25.879,25.879,36.621,38.574,-11.230,0
1553808684.602,43.945,27.832,34.668,21.484,2.441,0
1553808684.606,45.410,32.227,28.809,46.875,37.598,0
1553808684.610,16.113,25.391,32.715,55.176,20.508,0
1553808684.614,25.879,27.344,29.785,1.953,37.598,0
1553808684.618,41.016,31.738,27.344,-0.488,71.777,0
1553808684.622,35.156,33.691,29.785,21.484,59.082,0
1553808684.626,25.879,34.668,33.203,16.602,40.039,0
1553808684.630,42.969,34.180,36.621,8.789,35.645,0
1553808684.634,44.922,35.156,35.645,15.625,5.859,0
1553808684.638,15.625,32.715,35.156,25.391,47.852,0
1553808684.641,34.668,33.691,35.156,17.090,102.051,0
1553808684.645,47.363,35.156,37.109,41.016,90.820,0
1553808684.649,32.715,32.715,36.621,44.434,54.688,0
1553808684.653,31.738,29.297,32.715,11.719,-10.254,0
1553808684.657,38.574,28.809,34.180,38.574,12.695,0
1553808684.661,46.387,32.715,36.621,28.809,34.180,0
1553808684.665,37.109,34.668,35.156,15.137,49.316,0
1553808684.669,31.738,33.691,33.691,38.086,42.480,0
1553808684.673,41.016,35.156,35.645,31.738,16.113,0
1553808684.677,37.109,38.574,37.598,28.320,13.184,0
1553808684.680,37.598,39.062,36.133,51.270,69.824,0
1553808684.684,45.898,34.668,35.156,40.527,114.258,0
1553808684.688,37.598,34.180,36.133,9.277,38.086,0
1553808684.692,42.480,37.109,36.133,14.648,11.719,0
1553808684.696,57.129,36.621,35.645,21.973,51.270,0
1553808684.700,47.852,34.668,32.715,25.391,84.961,0
1553808684.704,31.738,32.227,26.855,6.836,15.137,0
1553808684.708,29.785,31.738,26.855,23.438,-59.082,0
1553808684.712,17.578,31.738,27.344,22.949,-31.738,0
1553808684.716,36.621,32.227,26.367,3.418,-28.320,0
1553808684.720,76.172,35.645,29.297,21.484,1.953,0
1553808684.723,72.266,32.715,29.785,23.926,49.316,0
1553808684.727,53.711,30.273,30.273,32.227,49.316,0
1553808684.731,50.293,31.250,30.762,52.734,42.969,0
1553808684.735,46.875,31.250,36.133,62.500,16.602,0
1553808684.739,42.480,31.738,36.133,47.852,-7.324,0
1553808684.743,16.113,31.250,32.715,31.250,14.648,0
1553808684.747,25.879,30.762,37.109,49.316,0.977,0
1553808684.751,47.852,30.762,40.527,41.016,27.832,0
1553808684.755,23.438,34.180,37.109,3.418,54.199,0
1553808684.759,7.324,34.180,33.203,19.531,38.574,0
1553808684.763,19.043,31.250,31.738,28.320,30.273,0
1553808684.766,43.457,35.645,30.762,6.348,28.809,0
1553808684.770,54.199,38.574,30.762,11.230,63.477,0
1553808684.774,36.133,33.203,29.785,18.555,72.754,0
1553808684.778,23.438,30.762,28.809,18.066,51.758,0
1553808684.782,25.391,31.738,26.855,21.484,57.617,0
1553808684.786,20.020,29.785,28.320,19.531,67.383,0
1553808684.790,23.438,26.367,31.250,16.113,7.812,0
1553808684.794,41.992,29.297,35.156,35.156,-36.621,0
1553808684.798,27.344,29.297,35.156,57.129,-18.555,0
1553808684.802,25.391,26.367,34.668,21.973,33.691,0
1553808684.805,22.461,28.809,36.133,9.766,63.965,0
1553808684.809,-1.953,31.250,33.203,30.762,6.836,0
1553808684.813,13.184,32.715,34.180,15.137,30.273,0
1553808684.817,26.855,32.227,29.297,0.488,113.281,0
1553808684.821,47.363,32.715,23.926,4.395,51.270,0
1553808684.825,37.109,36.621,21.484,19.043,-7.324,0
1553808684.829,22.461,39.062,20.508,28.809,49.805,0
1553808684.833,48.340,37.109,19.531,31.250,47.852,0
1553808684.837,29.785,37.598,21.484,9.277,75.195,0
1553808684.841,19.043,36.621,22.949,17.090,96.680,0
1553808684.845,41.016,33.203,23.926,41.504,55.176,0
1553808684.848,45.410,29.297,23.438,28.320,11.230,0
1553808684.852,21.973,28.320,25.391,26.855,-6.836,0
1553808684.856,22.461,27.832,35.156,20.508,47.852,0
1553808684.860,42.480,29.297,33.203,16.113,52.246,0
1553808684.864,18.066,36.621,26.855,20.996,-37.109,0
1553808684.868,31.250,36.133,34.180,8.301,-14.160,0
1553808684.872,47.852,34.668,33.203,21.484,50.293,0
1553808684.876,15.625,38.574,25.879,17.578,25.879,0
1553808684.880,14.648,31.738,28.809,36.133,50.781,0
1553808684.884,41.992,29.785,30.762,54.688,54.688,0
1553808684.888,46.875,29.297,31.250,37.109,12.695,0
1553808684.891,26.855,29.785,29.785,12.695,23.926,0
1553808684.895,25.879,35.156,28.809,3.906,64.453,0
1553808684.899,35.645,34.668,26.855,17.578,22.461,0
1553808684.903,41.504,35.156,27.832,29.297,30.762,0
1553808684.907,31.738,37.109,26.855,39.551,61.035,0
1553808684.911,20.508,38.086,26.855,22.949,59.082,0
1553808684.915,47.363,38.086,32.715,29.297,67.871,0
1553808684.919,50.293,35.645,33.203,27.832,48.340,0
1553808684.923,20.020,35.156,34.180,19.043,50.781,0
1553808684.927,15.625,34.180,35.645,13.672,67.871,0
1553808684.930,25.391,30.273,32.715,21.973,20.508,0
1553808684.934,33.691,35.645,30.273,32.715,4.395,0
1553808684.938,37.109,38.086,34.180,23.438,49.316,0
1553808684.942,39.551,37.109,34.180,20.020,17.578,0
1553808684.946,41.992,38.574,35.156,41.992,12.695,0
1553808684.950,49.805,39.551,34.668,36.621,65.918,0
1553808684.954,43.945,42.480,30.762,7.812,72.266,0
1553808684.958,35.645,41.504,30.762,32.715,38.086,0
1553808684.962,29.785,34.180,29.785,52.734,57.129,0
1553808684.966,27.832,34.180,23.926,48.340,59.570,0
1553808684.970,24.902,36.621,21.484,32.715,-2.930,0
1553808684.973,35.645,38.086,22.461,-16.602,9.277,0
1553808684.977,24.902,36.621,21.973,-9.277,22.949,0
1553808684.981,17.090,32.227,27.344,20.508,7.324,0
1553808684.985,25.391,35.645,30.762,8.301,27.832,0
1553808684.989,30.273,38.086,29.297,9.766,59.082,0
1553808684.993,31.250,37.598,31.250,20.020,51.270,0
1553808684.997,24.902,38.574,28.809,30.273,63.965,0
1553808685.001,28.320,40.039,29.297,39.062,45.898,0
1553808685.005,29.297,38.086,34.180,39.551,38.086,0
1553808685.009,38.086,39.551,30.273,8.301,68.848,0
1553808685.013,32.227,41.992,24.414,2.441,69.336,0
1553808685.016,32.715,41.016,24.414,15.625,19.043,0
1553808685.020,42.480,39.551,30.762,34.668,32.227,0
1553808685.024,32.715,36.133,32.227,43.457,30.273,0
1553808685.028,40.527,35.645,32.227,35.645,35.156,0
1553808685.032,58.105,36.621,34.668,68.848,21.484,0
1553808685.036,64.453,37.598,35.156,32.715,0.488,0
1553808685.040,60.059,40.527,35.645,32.227,53.711,0
1553808685.044,-10.254,42.969,35.645,17.578,33.203,0
1553808685.048,-10.742,41.016,38.574,-23.926,31.738,0
1553808685.052,25.391,36.133,40.527,6.348,56.152,0
1553808685.055,15.137,34.668,35.156,7.324,54.199,0
1553808685.059,33.203,34.180,34.180,13.184,56.641,0
1553808685.063,24.414,37.598,35.156,10.742,50.781,0
1553808685.067,22.461,37.109,29.297,25.879,62.500,0
1553808685.071,32.227,38.086,26.855,34.180,53.711,0
1553808685.075,23.926,40.527,29.297,7.324,8.789,0
1553808685.079,52.246,36.621,31.738,9.766,7.324,0
1553808685.083,67.871,37.598,30.762,44.434,41.504,0
1553808685.087,9.766,37.598,30.762,41.504,57.617,0
1553808685.091,10.254,35.645,30.762,22.949,43.457,0
1553808685.095,38.086,37.598,32.227,42.480,36.621,0
1553808685.098,35.156,40.039,33.691,32.715,82.520,0
1553808685.102,29.785,35.156,33.203,17.090,54.688,0
1553808685.106,26.855,33.691,31.250,35.156,27.832,0
1553808685.110,36.621,38.086,33.203,18.555,50.781,0
1553808685.114,41.016,36.621,32.227,17.578,20.508,0
1553808685.118,41.504,37.598,27.344,42.480,-20.996,0
1553808685.122,34.668,40.527,28.809,20.996,2.930,0
1553808685.126,62.500,37.598,32.227,44.434,42.480,0
1553808685.130,54.199,37.598,28.320,48.828,-0.977,0
1553808685.134,5.371,37.109,32.715,-13.184,-16.602,0
1553808685.138,31.250,34.668,37.598,-20.020,23.438,0
1553808685.141,21.973,33.691,31.738,4.883,36.621,0
1553808685.145,19.531,34.668,30.273,17.578,37.598,0
1553808685.149,29.785,37.598,30.273,9.277,34.180,0
1553808685.153,16.602,37.109,36.133,38.086,-21.973,0
1553808685.157,30.762,34.668,40.039,61.035,-25.391,0
1553808685.161,32.227,34.668,38.574,28.809,45.898,0
1553808685.165,35.156,35.645,30.762,0.488,88.867,0
1553808685.169,39.062,33.691,32.715,33.691,40.039,0
1553808685.173,17.578,30.762,36.621,39.062,38.574,0
1553808685.177,5.859,31.250,34.180,24.902,44.922,0
1553808685.180,20.996,31.250,29.297,8.789,41.992,0
1553808685.184,24.902,27.832,29.785,-4.395,74.219,0
1553808685.188,22.949,29.785,35.645,8.789,43.945,0
1553808685.192,26.855,30.762,29.297,6.348,38.086,0
1553808685.196,30.762,30.273,27.832,12.695,27.832,0
1553808685.200,59.082,30.273,32.715,16.602,70.312,0
1553808685.204,60.059,31.738,30.273,14.160,60.059,0
1553808685.208,33.691,33.203,28.320,24.414,-10.742,0
1553808685.212,27.344,32.715,29.297,28.809,6.836,0
1553808685.216,63.965,34.668,32.227,32.227,52.734,0
1553808685.220,76.660,35.645,33.203,29.785,109.375,0
1553808685.223,44.922,35.645,25.879,11.719,102.051,0
1553808685.227,33.691,35.156,21.484,14.648,5.371,0
1553808685.231,46.387,33.691,25.879,35.645,-33.203,0
1553808685.235,61.035,32.715,27.832,26.367,-11.719,0
1553808685.239,62.988,29.785,25.391,22.949,43.457,0
1553808685.243,59.570,32.227,29.785,27.832,53.711,0
1553808685.247,57.617,34.180,37.109,29.297,49.805,0
1553808685.251,57.617,33.691,35.156,22.461,33.203,0
1553808685.255,34.668,33.691,29.297,4.395,49.316,0
1553808685.259,15.137,33.203,27.344,2.930,39.551,0
1553808685.263,11.230,32.227,26.367,-0.977,12.695,0
1553808685.266,11.719,29.785,21.484,20.996,28.809,0
1553808685.270,14.648,32.715,21.973,27.344,1.953,0
1553808685.274,19.531,37.598,23.926,-25.879,20.508,0
1553808685.278,13.672,37.109,22.949,-11.719,52.246,0
1553808685.282,23.438,34.180,20.996,16.113,43.945,0
1553808685.286,28.809,36.133,19.043,0.977,40.527,0
1553808685.290,17.578,37.109,20.020,-0.977,36.621,0
1553808685.294,31.738,35.645,22.949,13.672,77.148,0
1553808685.298,26.367,33.203,24.414,36.621,96.191,0
1553808685.302,12.695,29.297,23.926,30.273,-4.395,0
1553808685.305,22.461,29.785,28.320,-0.488,-51.758,0
1553808685.309,23.926,30.762,25.879,14.160,50.781,0
1553808685.313,25.391,32.715,30.762,33.691,111.816,0
1553808685.317,7.324,32.227,35.156,22.949,54.688,0
1553808685.321,2.441,32.227,19.531,20.508,20.508,0
1553808685.325,5.371,32.715,16.113,40.527,-8.789,0
1553808685.329,-2.930,33.691,20.020,35.645,-68.359,0
1553808685.333,21.484,34.668,22.949,17.578,13.672,0
1553808685.337,34.180,33.203,26.367,19.043,44.922,0
1553808685.341,5.371,30.762,28.809,28.320,31.738,0
1553808685.345,0.977,31.738,27.832,25.879,70.801,0
1553808685.348,29.297,37.598,28.809,20.020,41.992,0
1553808685.352,12.695,37.598,32.227,32.715,55.664,0
1553808685.356,2.441,37.598,26.855,52.734,23.926,0
1553808685.360,5.859,36.133,21.973,40.527,-2.930,0
1553808685.364,-1.953,37.109,21.973,9.766,35.645,0
1553808685.368,0.977,38.086,20.996,6.836,-6.836,0
1553808685.372,8.789,36.133,25.391,22.461,30.273,0
1553808685.376,16.113,38.574,27.344,38.574,68.848,0
1553808685.380,25.879,40.527,26.367,29.785,9.766,0
1553808685.384,23.438,40.527,26.855,15.625,58.105,0
1553808685.388,14.648,39.062,24.902,6.836,20.020,0
1553808685.391,9.766,37.598,25.391,6.836,-11.719,0
1553808685.395,12.695,39.062,28.809,14.160,46.875,0
1553808685.399,23.438,39.551,32.715,25.391,35.156,0
1553808685.403,19.531,38.574,35.645,49.805,19.043,0
1553808685.407,16.113,36.621,33.691,43.457,35.156,0
1553808685.411,16.602,34.180,32.227,28.809,36.621,0
1553808685.415,7.812,35.645,27.832,27.344,-15.625,0
1553808685.419,18.555,35.156,24.902,19.531,-8.301,0
1553808685.423,18.066,33.203,31.738,31.250,16.602,0
1553808685.427,-3.906,34.180,33.203,56.641,60.059,0
1553808685.430,0.977,33.691,30.273,43.945,107.422,0
1553808685.434,26.367,38.574,28.320,9.766,11.719,0
1553808685.438,21.484,42.480,34.180,23.438,36.133,0
1553808685.442,10.742,39.062,33.203,53.223,80.566,0
1553808685.446,12.695,37.109,31.738,42.969,72.266,0
1553808685.450,17.090,37.109,31.250,21.484,91.797,0
1553808685.454,23.438,38.086,29.297,38.574,66.895,0
1553808685.458,28.320,38.574,27.344,23.926,36.621,0
1553808685.462,19.531,35.156,21.484,17.578,9.277,0
1553808685.466,26.855,36.133,20.508,31.738,48.828,0
1553808685.470,57.129,38.574,30.762,31.250,63.477,0
1553808685.473,32.227,36.621,33.203,35.156,49.316,0
