timestamps,TP9,AF7,AF8,TP10,Right AUX,Marker0
1542733832.296,29.785,35.645,20.508,-137.207,20.508,0
1542733832.300,30.762,36.621,21.973,-113.281,52.246,0
1542733832.303,17.578,32.715,28.809,-93.750,59.570,0
1542733832.307,41.016,28.320,33.691,-68.359,30.762,0
1542733832.311,34.180,30.273,30.273,-40.527,9.766,0
1542733832.315,42.480,37.109,30.762,-23.438,12.207,0
1542733832.319,55.176,28.809,33.203,16.113,-7.812,0
1542733832.323,40.039,20.996,33.691,42.480,-14.648,0
1542733832.327,16.602,38.574,50.781,12.207,33.203,0
1542733832.331,10.254,45.898,53.223,-73.242,37.109,0
1542733832.335,5.371,36.133,30.762,-148.926,46.387,0
1542733832.339,-2.930,38.086,28.320,-159.180,46.387,0
1542733832.343,-28.320,43.945,44.922,-137.695,2.441,0
1542733832.346,-49.316,63.965,62.012,-152.832,66.895,0
1542733832.350,-63.965,70.801,75.684,-162.109,53.223,0
1542733832.354,-82.520,48.340,65.918,-158.203,66.895,0
1542733832.358,-82.520,47.363,57.129,-153.809,77.637,0
1542733832.362,-99.121,50.781,77.148,-164.551,23.438,0
1542733832.366,-159.180,46.387,98.145,-226.074,3.906,0
1542733832.370,-187.500,49.805,125.977,-252.930,24.902,0
1542733832.374,-180.664,54.199,132.324,-249.023,26.855,0
1542733832.378,-182.617,50.293,125.000,-252.930,-10.742,0
1542733832.382,-173.340,49.805,134.766,-252.930,29.297,0
1542733832.385,-174.805,49.805,141.113,-223.633,50.781,0
1542733832.389,-174.805,25.879,157.227,-217.773,12.207,0
1542733832.393,-181.152,7.324,166.504,-232.422,20.020,0
1542733832.397,-201.172,8.789,167.969,-226.074,42.480,0
1542733832.401,-163.086,10.254,168.945,-223.633,8.789,0
1542733832.405,-122.559,7.812,161.133,-201.172,-14.648,0
1542733832.409,-145.508,1.953,161.133,-170.898,12.695,0
1542733832.413,-144.531,-2.441,161.621,-166.992,47.852,0
1542733832.417,-121.094,-0.488,156.738,-164.551,9.766,0
1542733832.421,-122.070,7.812,145.996,-127.930,26.367,0
1542733832.425,-100.098,2.930,141.602,-97.656,36.133,0
1542733832.428,-74.707,-7.324,143.555,-105.469,41.504,0
1542733832.432,-67.383,-15.137,127.441,-129.883,-2.441,0
1542733832.436,-42.969,-7.812,102.051,-159.180,-5.859,0
1542733832.440,-15.625,0.977,94.727,-111.816,82.520,0
1542733832.444,38.574,5.371,94.238,-176.270,48.340,0
1542733832.448,36.133,13.184,80.078,-139.160,58.594,0
1542733832.452,34.668,19.043,64.941,48.828,72.754,0
1542733832.456,95.703,6.836,60.547,139.648,69.336,0
1542733832.460,103.516,-4.883,62.500,229.492,62.988,0
1542733832.464,104.004,6.348,47.363,257.812,46.875,0
1542733832.468,107.422,3.418,30.273,256.836,41.016,0
1542733832.471,117.676,-1.465,25.391,247.559,30.762,0
1542733832.475,125.977,19.531,28.809,251.465,6.836,0
1542733832.479,130.859,27.344,29.297,288.086,8.789,0
1542733832.483,148.438,24.414,19.531,318.848,48.828,0
1542733832.487,145.996,24.902,14.648,328.125,61.035,0
1542733832.491,133.301,26.367,17.578,340.332,51.270,0
1542733832.495,142.090,28.809,10.742,351.562,60.059,0
1542733832.499,163.086,27.832,2.930,368.652,76.172,0
1542733832.503,158.691,23.926,-17.090,403.809,88.379,0
1542733832.507,109.375,14.160,-15.137,380.371,36.133,0
1542733832.510,91.309,17.578,15.625,350.586,30.762,0
1542733832.514,131.836,28.809,13.184,378.906,35.645,0
1542733832.518,140.137,21.973,14.160,335.938,28.809,0
1542733832.522,158.203,20.020,18.555,314.941,15.625,0
1542733832.526,162.109,30.762,16.602,367.676,15.625,0
1542733832.530,112.305,34.180,7.324,398.438,47.852,0
1542733832.534,104.004,41.992,-3.418,404.785,37.598,0
1542733832.538,132.324,41.992,1.465,432.129,37.598,0
1542733832.542,136.719,34.180,6.348,436.035,4.395,0
1542733832.546,127.441,26.855,7.812,370.605,13.672,0
1542733832.550,127.930,24.414,9.766,354.980,35.156,0
1542733832.553,111.328,34.180,5.859,370.605,30.762,0
1542733832.557,96.680,35.156,0.977,382.324,13.184,0
1542733832.561,93.750,39.551,-6.348,381.348,-34.180,0
1542733832.565,103.027,47.363,0.977,368.164,17.578,0
1542733832.569,107.422,45.410,8.789,375.000,53.223,0
1542733832.573,99.121,40.527,14.160,367.188,41.504,0
1542733832.577,89.844,35.156,26.855,338.379,20.996,0
1542733832.581,83.008,43.945,24.414,305.664,-4.395,0
1542733832.585,82.520,44.922,30.762,286.621,-6.836,0
1542733832.589,94.238,36.133,20.020,273.926,26.367,0
1542733832.593,49.805,31.738,14.648,249.023,22.949,0
1542733832.596,11.719,33.691,33.691,242.676,-48.828,0
1542733832.600,34.180,44.434,37.109,228.516,-60.059,0
1542733832.604,4.883,49.805,43.945,173.340,1.953,0
1542733832.608,-44.434,32.227,63.965,120.605,3.906,0
1542733832.612,-65.918,15.137,78.125,66.406,41.992,0
1542733832.616,-83.008,26.855,90.332,48.340,54.688,0
1542733832.620,-103.516,43.457,101.074,52.734,29.297,0
1542733832.624,-128.906,57.617,107.422,-17.578,20.508,0
1542733832.628,-183.594,64.453,95.215,-64.941,47.363,0
1542733832.632,-218.750,53.711,87.402,-77.148,45.898,0
1542733832.635,-192.871,50.293,100.098,-134.766,39.062,0
1542733832.639,-222.168,55.176,107.910,-214.355,36.621,0
1542733832.643,-247.559,63.965,105.469,-215.820,31.250,0
1542733832.647,-221.191,72.754,97.656,-147.461,67.383,0
1542733832.651,-220.703,72.266,95.215,-96.680,50.293,0
1542733832.655,-215.820,74.707,95.215,-70.312,6.836,0
1542733832.659,-192.383,75.684,92.285,-62.500,10.742,0
1542733832.663,-175.293,78.613,83.008,-8.789,36.621,0
1542733832.667,-155.762,79.102,68.359,5.859,69.824,0
1542733832.671,-124.512,65.430,60.547,-12.695,15.137,0
1542733832.675,-103.516,62.012,46.875,53.711,-2.930,0
1542733832.678,-86.426,64.941,35.645,111.328,82.031,0
1542733832.682,-30.273,70.801,19.531,126.953,10.742,0
1542733832.686,10.742,65.430,9.277,117.188,28.809,0
1542733832.690,6.348,49.805,8.789,132.812,70.801,0
1542733832.694,21.484,47.852,0.488,189.453,-1.953,0
1542733832.698,46.875,46.875,-3.418,175.293,28.809,0
1542733832.702,75.195,49.316,-8.301,178.711,21.484,0
1542733832.706,99.121,50.781,-18.066,230.469,15.137,0
1542733832.710,101.074,39.551,-20.508,257.324,36.133,0
1542733832.714,99.609,20.508,-24.902,285.645,-16.602,0
1542733832.718,145.508,21.484,-30.273,314.941,31.250,0
1542733832.721,129.395,42.969,-24.414,353.516,68.848,0
1542733832.725,149.902,29.297,-17.578,378.906,64.453,0
1542733832.729,182.129,-0.977,-22.949,342.773,158.691,0
1542733832.733,141.113,16.113,-26.367,358.887,225.098,0
1542733832.737,143.555,38.574,-23.926,363.770,233.887,0
1542733832.741,128.906,37.109,-24.414,309.570,230.957,0
1542733832.745,129.883,38.086,-21.973,314.941,235.840,0
1542733832.749,141.602,41.504,-22.949,331.543,212.891,0
1542733832.753,151.367,44.434,-28.320,336.426,263.184,0
1542733832.757,142.578,36.621,-22.461,321.777,338.379,0
1542733832.760,120.605,25.879,-21.973,309.082,357.910,0
1542733832.764,153.809,21.973,-31.250,317.871,340.820,0
1542733832.768,155.273,23.926,-23.926,315.918,336.914,0
1542733832.772,121.582,24.414,-16.113,309.570,335.449,0
1542733832.776,109.863,15.137,-13.672,320.312,271.973,0
1542733832.780,135.254,-1.953,-10.742,297.852,259.277,0
1542733832.784,128.418,-14.160,-13.672,250.488,296.875,0
1542733832.788,105.469,11.719,-17.578,247.070,298.340,0
1542733832.792,150.391,37.598,-4.395,270.996,253.418,0
1542733832.796,119.141,35.645,1.953,269.043,241.699,0
1542733832.800,74.707,39.062,-9.277,244.629,240.723,0
1542733832.803,85.449,34.668,-6.836,272.949,246.582,0
1542733832.807,83.984,25.879,-2.441,241.211,225.586,0
1542733832.811,88.379,27.832,-5.371,191.406,189.941,0
1542733832.815,105.957,21.973,-2.441,237.305,195.312,0
1542733832.819,101.562,10.742,2.441,229.492,172.363,0
1542733832.823,137.207,22.949,1.465,207.520,167.480,0
1542733832.827,134.277,32.227,0.977,225.586,144.043,0
1542733832.831,88.379,16.602,-0.977,220.703,109.375,0
1542733832.835,115.234,26.367,-15.137,222.656,105.957,0
1542733832.839,106.445,36.621,-2.930,228.027,79.590,0
1542733832.843,96.680,19.531,17.578,212.891,102.539,0
1542733832.846,105.469,21.484,18.555,198.730,114.746,0
1542733832.850,71.289,27.344,17.578,205.566,90.332,0
1542733832.854,90.332,30.273,13.672,210.938,137.207,0
1542733832.858,99.609,38.574,14.160,216.797,146.484,0
1542733832.862,93.262,29.297,19.531,181.641,160.645,0
1542733832.866,85.449,25.391,18.066,116.699,173.340,0
1542733832.870,84.961,37.109,13.184,105.957,163.574,0
1542733832.874,71.289,35.645,10.742,85.938,141.113,0
1542733832.878,66.406,28.809,13.184,123.047,73.242,0
1542733832.882,107.422,34.180,17.578,186.523,86.914,0
1542733832.885,107.422,40.527,14.648,125.488,141.113,0
1542733832.889,69.824,34.180,15.137,76.172,165.039,0
1542733832.893,62.012,30.273,20.020,119.141,127.930,0
1542733832.897,47.852,30.762,16.602,159.180,120.605,0
1542733832.901,32.715,31.250,14.648,172.363,146.484,0
1542733832.905,81.543,34.668,12.695,161.133,134.277,0
1542733832.909,79.590,31.738,10.742,149.414,83.984,0
1542733832.913,47.852,29.785,15.137,149.414,38.086,0
1542733832.917,69.336,29.785,12.695,139.648,78.613,0
1542733832.921,80.566,25.879,10.254,153.320,42.480,0
1542733832.925,65.430,21.973,17.578,108.398,38.086,0
1542733832.928,64.941,31.250,14.160,83.984,109.863,0
1542733832.932,88.379,44.434,10.742,145.020,90.820,0
1542733832.936,67.383,34.668,18.066,141.113,78.613,0
1542733832.940,25.391,28.320,25.879,99.121,98.145,0
1542733832.944,45.898,39.062,20.996,107.422,105.957,0
1542733832.948,69.824,43.457,17.090,141.113,49.316,0
1542733832.952,36.133,40.527,18.066,140.625,-2.930,0
1542733832.956,51.758,43.945,20.020,119.141,9.277,0
1542733832.960,70.312,48.828,19.043,107.422,1.465,0
1542733832.964,84.473,46.875,24.414,144.531,4.395,0
1542733832.968,97.168,40.527,20.508,55.176,-1.465,0
1542733832.971,65.430,29.785,25.879,-55.664,28.320,0
1542733832.975,37.109,30.762,34.180,17.090,27.832,0
1542733832.979,43.457,40.039,28.809,97.656,-46.875,0
1542733832.983,47.363,40.039,30.273,127.930,2.441,0
1542733832.987,78.125,47.363,32.227,137.207,-0.977,0
1542733832.991,53.711,52.734,23.438,134.766,-62.988,0
1542733832.995,29.785,42.480,20.996,113.281,-28.809,0
1542733832.999,67.383,41.016,28.320,118.164,23.926,0
1542733833.003,95.703,40.039,25.391,92.773,43.457,0
1542733833.007,57.617,29.297,24.902,74.707,10.254,0
1542733833.010,11.230,17.090,30.762,90.332,62.500,0
1542733833.014,25.391,21.973,33.203,110.840,45.410,0
1542733833.018,47.363,42.969,31.738,130.371,-24.902,0
1542733833.022,59.082,45.898,28.809,115.723,38.574,0
1542733833.026,40.527,44.434,31.738,96.680,66.895,0
1542733833.030,33.203,34.180,41.992,128.418,34.180,0
1542733833.034,34.668,18.066,36.133,155.273,18.066,0
1542733833.038,23.926,24.902,25.879,102.051,-25.391,0
1542733833.042,15.137,38.574,29.785,98.145,64.453,0
1542733833.046,25.391,38.086,26.367,119.141,74.219,0
1542733833.050,54.199,39.551,24.902,114.258,-54.199,0
1542733833.053,67.871,41.016,30.273,127.441,-61.523,0
1542733833.057,46.875,35.156,31.250,115.723,-28.809,0
1542733833.061,8.301,35.645,26.855,83.008,6.348,0
1542733833.065,10.742,26.855,21.484,90.820,21.484,0
1542733833.069,48.828,19.043,25.879,109.863,-61.035,0
1542733833.073,51.758,14.648,28.320,106.934,-30.273,0
1542733833.077,15.625,20.996,20.996,97.168,24.414,0
1542733833.081,13.672,33.691,20.020,98.633,-40.527,0
1542733833.085,51.758,34.180,24.902,110.352,-36.133,0
1542733833.089,39.551,35.156,22.949,88.379,-41.504,0
1542733833.093,14.648,36.133,22.461,83.008,-72.754,0
1542733833.096,9.766,29.297,22.461,83.984,-66.406,0
1542733833.100,26.367,22.949,21.973,80.078,-43.457,0
1542733833.104,31.738,30.273,25.879,102.539,-37.598,0
1542733833.108,10.742,23.438,24.902,93.262,-48.340,0
1542733833.112,36.133,8.789,28.320,96.680,-62.500,0
1542733833.116,33.691,22.461,34.668,104.004,-79.102,0
1542733833.120,20.508,38.574,26.855,66.895,-99.609,0
1542733833.124,20.020,39.551,21.484,31.738,-45.410,0
1542733833.128,1.953,35.645,26.367,54.199,-52.734,0
1542733833.132,24.902,34.668,35.156,92.285,-69.336,0
1542733833.135,44.922,30.273,33.203,90.332,-57.617,0
1542733833.139,41.992,16.113,27.832,87.891,-98.633,0
1542733833.143,33.691,26.367,29.785,94.727,-90.820,0
1542733833.147,17.090,39.062,33.203,98.633,5.371,0
1542733833.151,55.664,29.297,34.668,102.051,22.461,0
1542733833.155,84.961,37.109,31.738,106.445,-77.637,0
1542733833.159,36.621,44.922,27.832,114.258,-40.527,0
1542733833.163,7.324,28.320,20.996,80.078,-3.906,0
1542733833.167,10.742,20.996,27.832,69.824,-77.637,0
1542733833.171,30.762,39.551,31.738,89.844,-95.215,0
1542733833.175,65.430,46.875,26.367,106.934,-73.242,0
1542733833.178,57.617,46.387,26.367,108.398,-72.266,0
1542733833.182,48.828,40.527,24.902,65.918,-40.039,0
1542733833.186,75.684,33.203,29.785,80.566,-27.832,0
1542733833.190,43.457,16.113,32.227,87.402,-33.203,0
1542733833.194,24.902,22.949,28.809,75.684,-18.066,0
1542733833.198,43.457,54.688,24.414,97.656,-18.066,0
1542733833.202,48.340,56.152,25.879,117.188,-27.832,0
1542733833.206,49.805,45.898,28.809,104.492,-37.598,0
1542733833.210,36.133,35.156,29.297,84.473,-35.645,0
1542733833.214,32.227,33.203,36.133,88.867,-87.891,0
1542733833.218,77.637,38.574,37.109,95.703,-112.793,0
1542733833.221,75.195,44.434,28.809,95.215,-65.430,0
1542733833.225,34.180,38.086,22.949,72.754,-45.410,0
1542733833.229,41.992,31.250,29.297,55.664,-56.641,0
1542733833.233,21.973,32.227,32.715,47.852,-17.090,0
1542733833.237,20.508,26.367,32.715,52.734,-60.547,0
1542733833.241,34.668,28.809,41.992,79.590,-61.523,0
1542733833.245,39.062,36.133,37.109,73.730,8.789,0
1542733833.249,39.062,42.480,32.227,56.152,-25.879,0
1542733833.253,42.480,42.480,39.062,46.387,-46.875,0
1542733833.257,52.246,42.480,34.180,17.090,-38.574,0
1542733833.260,49.805,39.551,30.273,27.832,-40.527,0
1542733833.264,41.504,36.133,34.668,60.059,-3.418,0
1542733833.268,32.715,39.062,35.645,60.547,-8.789,0
1542733833.272,34.668,42.969,36.621,76.172,-30.762,0
1542733833.276,41.992,43.457,34.180,101.074,14.648,0
1542733833.280,71.777,46.875,32.715,95.703,-16.113,0
1542733833.284,16.602,47.852,29.785,102.051,-38.086,0
1542733833.288,7.324,30.762,32.715,103.027,3.418,0
1542733833.292,38.574,25.879,37.598,79.590,-48.828,0
1542733833.296,49.316,38.086,33.203,80.078,-71.777,0
1542733833.300,41.016,40.039,31.738,103.027,-74.219,0
1542733833.303,48.340,40.039,35.645,100.586,-86.426,0
1542733833.307,41.504,48.340,34.668,71.289,-96.191,0
1542733833.311,21.973,44.434,35.645,65.918,-97.168,0
1542733833.315,48.828,38.086,40.039,24.902,-70.312,0
1542733833.319,46.875,36.133,36.133,-12.695,-45.410,0
1542733833.323,21.484,40.039,32.715,19.043,-67.871,0
1542733833.327,36.133,43.457,34.668,33.691,-55.176,0
1542733833.331,56.152,43.457,38.086,52.246,0.488,0
1542733833.335,39.062,43.945,39.551,69.824,33.691,0
1542733833.339,20.508,38.574,38.086,43.945,-8.301,0
1542733833.343,25.391,38.086,30.762,41.016,25.879,0
1542733833.346,27.832,45.898,26.367,45.898,18.555,0
1542733833.350,48.828,41.504,38.574,77.637,-19.531,0
1542733833.354,52.734,34.668,47.363,65.918,-3.906,0
1542733833.358,58.105,41.992,39.551,22.461,-19.531,0
1542733833.362,81.055,41.504,40.039,80.078,-47.363,0
1542733833.366,77.148,23.926,56.152,93.262,-46.387,0
1542733833.370,78.125,15.137,55.664,94.727,-19.531,0
1542733833.374,121.094,17.578,42.480,132.324,-18.555,0
1542733833.378,121.094,15.625,49.805,148.438,-12.695,0
1542733833.382,84.473,25.391,53.223,136.230,4.883,0
1542733833.385,94.727,25.879,36.621,148.926,21.484,0
1542733833.389,121.094,20.996,43.945,161.621,21.973,0
1542733833.393,125.000,25.879,47.852,145.020,39.551,0
1542733833.397,101.562,24.902,50.293,175.293,35.156,0
1542733833.401,99.609,24.902,53.223,175.293,-17.578,0
1542733833.405,102.051,34.180,44.922,125.000,-50.293,0
1542733833.409,111.328,39.062,51.758,146.973,2.930,0
1542733833.413,134.766,20.020,56.641,160.645,16.602,0
1542733833.417,104.004,5.859,52.246,106.934,-0.488,0
1542733833.421,54.199,16.113,52.246,96.191,13.184,0
1542733833.425,89.355,36.133,50.293,25.391,18.555,0
1542733833.428,93.262,35.156,41.992,-41.992,20.020,0
1542733833.432,65.918,21.484,44.922,58.594,-12.695,0
1542733833.436,84.473,26.367,46.387,106.934,-51.270,0
1542733833.440,106.445,29.785,39.062,108.887,-51.270,0
1542733833.444,87.891,28.320,42.969,130.859,-43.457,0
1542733833.448,46.875,26.855,49.316,141.602,7.324,0
1542733833.452,67.383,32.715,47.852,104.492,37.109,0
1542733833.456,96.680,30.762,51.270,96.680,-2.441,0
1542733833.460,83.008,27.832,45.410,98.145,-5.371,0
1542733833.464,55.664,37.109,32.227,78.613,-31.250,0
1542733833.468,36.621,30.273,37.598,104.492,-27.832,0
1542733833.471,61.035,18.066,43.945,136.719,-32.227,0
1542733833.475,74.219,18.066,42.480,136.719,-23.438,0
1542733833.479,35.156,29.297,45.410,119.141,33.203,0
1542733833.483,40.039,36.621,48.828,101.562,-4.395,0
1542733833.487,60.547,40.527,42.969,89.844,-19.531,0
1542733833.491,68.359,56.152,34.180,79.590,-25.391,0
1542733833.495,57.129,56.152,30.762,68.848,-8.301,0
1542733833.499,37.109,40.039,40.527,68.359,6.836,0
1542733833.503,55.176,29.297,41.016,60.059,49.316,0
1542733833.507,45.410,21.973,27.832,47.363,83.496,0
1542733833.510,25.391,25.879,31.250,71.289,24.902,0
1542733833.514,62.500,36.621,46.387,82.031,-24.414,0
1542733833.518,59.082,42.969,48.828,67.383,-3.906,0
1542733833.522,43.945,39.062,41.016,27.832,65.918,0
1542733833.526,51.758,28.809,40.527,46.387,23.438,0
1542733833.530,58.105,31.250,37.598,48.828,-15.137,0
1542733833.534,34.668,42.480,36.621,32.227,32.227,0
1542733833.538,0.977,38.574,45.410,89.844,5.859,0
1542733833.542,8.789,38.086,37.598,83.008,-7.324,0
1542733833.546,20.508,40.039,34.668,75.195,-7.324,0
1542733833.550,9.277,27.832,37.598,81.055,8.789,0
1542733833.553,25.879,28.809,35.645,59.082,45.410,0
1542733833.557,61.523,36.133,38.574,56.152,43.945,0
1542733833.561,37.109,32.715,38.086,72.754,10.742,0
1542733833.565,36.133,43.945,37.109,73.730,-18.066,0
1542733833.569,51.270,40.039,46.387,66.406,36.621,0
1542733833.573,13.184,27.832,46.875,69.824,85.938,0
1542733833.577,26.367,28.809,41.016,79.590,55.176,0
1542733833.581,59.570,38.086,38.574,86.914,6.348,0
1542733833.585,37.109,38.086,39.551,77.148,-5.859,0
1542733833.589,22.461,33.203,47.363,67.871,6.836,0
1542733833.593,20.020,38.574,43.457,52.734,20.020,0
1542733833.596,25.391,25.391,31.250,32.227,1.953,0
1542733833.600,54.199,17.090,42.969,29.297,-20.020,0
1542733833.604,40.039,33.203,48.340,70.801,12.207,0
1542733833.608,-2.930,43.457,31.738,51.758,19.531,0
1542733833.612,-1.465,59.082,28.320,31.250,39.062,0
1542733833.616,-35.156,46.875,24.414,15.625,57.617,0
1542733833.620,-81.055,38.574,25.879,-32.715,39.062,0
1542733833.624,-86.426,60.547,25.391,-41.016,-20.020,0
1542733833.628,-98.633,67.871,10.742,-45.898,-47.363,0
1542733833.632,-40.039,72.754,10.254,-56.641,-10.742,0
1542733833.635,-52.734,70.801,5.859,-36.133,-12.695,0
1542733833.639,-124.023,55.176,-13.672,-70.312,-2.930,0
1542733833.643,-103.027,52.246,-15.625,-92.285,13.184,0
1542733833.647,-81.543,63.965,1.953,-36.621,-29.785,0
1542733833.651,-71.777,56.152,14.160,0.488,-46.875,0
1542733833.655,-59.570,47.852,9.766,4.883,-32.715,0
1542733833.659,-60.059,56.641,-0.488,-9.277,-22.949,0
1542733833.663,-22.461,65.918,-5.371,-1.953,-58.594,0
1542733833.667,4.883,56.152,0.488,11.230,-50.781,0
1542733833.671,-21.973,43.457,10.254,8.301,2.930,0
1542733833.675,-42.969,39.062,11.719,-18.066,8.789,0
1542733833.678,-8.789,36.621,7.812,-32.227,-15.625,0
1542733833.682,24.414,18.555,9.766,-23.438,-0.977,0
1542733833.686,4.883,17.578,10.254,6.348,42.480,0
1542733833.690,11.230,45.410,5.859,38.574,31.250,0
1542733833.694,5.371,54.199,14.648,25.391,31.738,0
1542733833.698,-13.672,45.410,18.555,39.062,53.223,0
1542733833.702,-10.742,30.273,20.996,59.082,38.086,0
1542733833.706,21.973,28.809,17.578,57.129,54.199,0
1542733833.710,26.855,47.852,5.859,51.270,74.219,0
1542733833.714,33.203,61.035,11.230,48.828,23.438,0
1542733833.718,20.996,62.012,21.973,60.059,0.000,0
1542733833.721,-25.879,47.852,21.484,61.035,10.254,0
1542733833.725,20.996,29.785,19.043,94.727,-8.789,0
1542733833.729,33.203,43.457,14.648,93.750,0.000,0
1542733833.733,9.766,43.457,18.555,38.086,3.906,0
1542733833.737,23.926,47.852,18.066,35.645,41.016,0
1542733833.741,24.902,50.781,23.926,40.039,39.062,0
1542733833.745,-2.441,31.738,31.250,44.922,27.344,0
1542733833.749,-1.953,33.691,19.531,68.848,-5.859,0
1542733833.753,28.809,37.109,19.531,84.961,-28.320,0
1542733833.757,33.203,34.668,30.273,83.984,14.160,0
1542733833.760,22.949,37.598,37.598,78.125,-1.953,0
1542733833.764,36.621,53.711,33.203,67.383,-8.301,0
1542733833.768,55.176,28.809,18.555,92.285,-24.902,0
1542733833.772,46.387,-3.418,30.762,117.188,-19.043,0
1542733833.776,58.105,32.715,27.344,80.566,-13.184,0
1542733833.780,53.223,53.223,18.555,58.594,-43.457,0
1542733833.784,2.930,51.270,23.438,81.543,19.043,0
1542733833.788,-10.254,44.922,22.461,88.379,10.254,0
1542733833.792,24.902,51.270,16.113,54.199,22.949,0
1542733833.796,54.688,51.758,21.973,58.594,34.180,0
1542733833.800,53.711,44.434,29.785,75.195,-6.836,0
1542733833.803,43.457,43.457,34.180,72.266,-9.277,0
1542733833.807,25.391,47.852,28.809,60.547,20.508,0
1542733833.811,42.969,47.363,28.809,39.551,0.000,0
1542733833.815,66.406,38.574,41.992,83.008,-4.883,0
1542733833.819,48.828,39.062,38.086,116.699,0.000,0
1542733833.823,35.645,39.551,27.832,75.684,3.418,0
1542733833.827,13.672,41.992,23.438,50.293,3.418,0
1542733833.831,-5.371,50.781,27.832,40.527,-52.246,0
1542733833.835,22.949,40.039,26.367,43.945,-28.320,0
1542733833.839,53.711,41.992,13.184,54.199,6.348,0
1542733833.843,76.172,43.457,12.695,76.172,41.992,0
1542733833.846,60.059,32.227,13.672,104.492,52.734,0
1542733833.850,85.938,42.969,18.066,94.727,40.039,0
1542733833.854,88.379,49.316,29.785,96.680,50.293,0
1542733833.858,-2.441,38.086,30.762,90.332,18.555,0
1542733833.862,0.000,45.898,25.879,92.285,-17.578,0
1542733833.866,34.668,61.523,29.297,113.770,29.785,0
1542733833.870,48.828,58.105,34.668,114.258,17.578,0
1542733833.874,61.523,56.152,35.156,91.797,15.137,0
1542733833.878,38.086,52.246,27.832,56.641,1.465,0
1542733833.882,22.949,41.016,27.344,72.754,-42.969,0
1542733833.885,42.969,38.086,26.855,103.516,35.156,0
1542733833.889,9.277,36.621,31.738,85.449,4.395,0
1542733833.893,2.441,46.387,33.691,76.660,-1.465,0
1542733833.897,24.414,49.316,30.273,112.793,45.410,0
1542733833.901,17.578,41.992,32.227,113.770,12.207,0
1542733833.905,30.273,29.297,26.367,80.566,-31.738,0
1542733833.909,83.008,28.320,24.414,55.664,-13.184,0
1542733833.913,85.938,51.758,24.902,61.035,49.316,0
1542733833.917,38.086,50.293,25.879,76.660,18.066,0
1542733833.921,82.031,42.480,34.180,49.805,-24.414,0
1542733833.925,110.352,45.410,31.250,70.801,12.695,0
1542733833.928,32.227,46.387,30.273,93.750,23.926,0
1542733833.932,36.133,40.039,33.691,96.680,-2.930,0
1542733833.936,-0.488,32.715,30.762,90.332,34.668,0
1542733833.940,-0.488,35.156,33.203,88.867,0.977,0
1542733833.944,33.691,35.645,35.645,110.352,19.043,0
1542733833.948,20.508,38.086,27.344,106.934,36.133,0
1542733833.952,-13.672,34.180,28.809,90.332,44.434,0
1542733833.956,-1.465,32.715,31.250,66.895,52.246,0
1542733833.960,51.758,40.039,27.832,58.594,-7.812,0
1542733833.964,54.688,35.645,30.762,79.102,13.184,0
1542733833.968,27.832,14.648,34.668,95.703,28.809,0
1542733833.971,4.883,25.391,27.832,90.820,75.684,0
1542733833.975,52.246,49.316,23.438,77.148,42.480,0
1542733833.979,99.609,42.480,33.691,79.590,69.336,0
1542733833.983,64.453,41.992,32.715,94.727,72.754,0
1542733833.987,55.176,38.574,24.902,97.656,30.273,0
1542733833.991,49.316,38.086,25.879,65.430,45.410,0
1542733833.995,47.852,45.898,19.531,65.430,9.766,0
1542733833.999,43.945,37.109,27.344,113.281,-4.883,0
1542733834.003,14.160,31.738,42.480,131.348,0.488,0
1542733834.007,52.246,34.180,37.598,88.867,57.129,0
1542733834.010,78.613,33.203,33.691,76.172,49.805,0
1542733834.014,48.828,34.668,32.227,89.844,-13.184,0
1542733834.018,36.621,31.738,33.203,91.309,33.691,0
1542733834.022,28.809,30.762,37.598,87.402,50.781,0
1542733834.026,-42.969,34.180,32.715,89.355,42.969,0
1542733834.030,-49.316,34.180,32.227,76.660,34.668,0
1542733834.034,26.855,31.250,27.344,90.820,42.969,0
1542733834.038,-4.883,28.809,25.879,85.449,67.383,0
1542733834.042,22.461,32.227,33.691,62.012,79.590,0
1542733834.046,26.367,28.809,37.598,106.445,40.039,0
1542733834.050,0.000,26.367,36.621,93.262,16.602,0
1542733834.053,34.668,37.109,29.785,74.219,19.531,0
1542733834.057,129.883,39.062,23.926,101.074,12.207,0
1542733834.061,120.605,34.668,24.902,87.891,51.758,0
1542733834.065,79.590,32.227,31.250,96.680,9.277,0
1542733834.069,60.059,33.203,29.297,123.047,-12.695,0
1542733834.073,-26.855,31.738,24.414,125.000,64.453,0
1542733834.077,52.246,27.344,21.973,142.578,71.777,0
1542733834.081,132.324,44.922,20.020,102.051,51.758,0
1542733834.085,55.664,51.758,23.438,76.172,91.309,0
1542733834.089,23.926,31.250,37.598,92.773,35.156,0
1542733834.093,32.227,20.020,43.945,109.863,21.973,0
1542733834.096,47.852,18.066,44.922,148.438,16.602,0
1542733834.100,-36.621,11.230,46.387,111.328,-11.719,0
1542733834.104,-19.531,11.230,39.551,125.000,5.859,0
1542733834.108,41.992,11.719,40.039,169.922,25.391,0
1542733834.112,2.930,5.371,40.039,127.930,7.812,0
1542733834.116,-14.160,9.277,36.133,121.094,-8.301,0
1542733834.120,-8.789,16.113,41.992,180.176,14.160,0
1542733834.124,3.418,14.648,39.062,194.336,50.781,0
1542733834.128,-31.250,8.301,34.180,166.992,19.531,0
1542733834.132,-3.906,11.230,40.527,193.359,0.000,0
1542733834.135,39.551,20.508,36.133,208.008,6.836,0
1542733834.139,50.293,9.277,41.016,188.477,1.465,0
1542733834.143,87.891,5.859,44.434,183.105,5.371,0
1542733834.147,125.000,27.832,22.949,153.320,-16.602,0
1542733834.151,143.555,37.109,14.648,146.484,7.812,0
1542733834.155,73.242,35.645,19.531,145.508,14.648,0
1542733834.159,-9.277,25.391,30.762,166.504,0.488,0
1542733834.163,29.297,9.277,38.086,194.824,15.137,0
1542733834.167,69.824,18.066,29.785,194.336,8.789,0
1542733834.171,28.320,33.203,22.461,203.613,46.387,0
1542733834.175,-15.625,28.320,26.855,226.562,66.406,0
1542733834.178,2.441,16.113,31.738,220.215,-0.488,0
1542733834.182,2.930,17.090,29.785,221.191,1.465,0
1542733834.186,-15.625,24.902,27.832,227.051,67.871,0
1542733834.190,-49.316,20.996,26.367,215.332,87.402,0
1542733834.194,-8.789,21.484,23.926,188.965,35.156,0
1542733834.198,109.863,37.598,25.879,172.363,-3.418,0
1542733834.202,58.105,37.109,30.762,207.520,37.598,0
1542733834.206,12.695,24.902,36.133,253.418,31.738,0
1542733834.210,36.133,23.926,32.715,251.953,5.371,0
1542733834.214,63.965,23.438,29.785,217.773,-5.859,0
1542733834.218,79.102,28.809,27.344,227.051,19.531,0
1542733834.221,20.020,26.367,26.855,249.512,69.336,0
1542733834.225,76.660,30.273,26.367,255.371,21.484,0
1542733834.229,64.453,36.133,26.367,291.016,40.039,0
1542733834.233,-9.277,30.273,33.203,288.574,34.180,0
1542733834.237,5.859,25.391,41.016,249.023,1.465,0
1542733834.241,-9.277,25.391,34.180,236.328,39.551,0
1542733834.245,-41.992,29.297,28.809,222.168,69.336,0
1542733834.249,-34.668,26.855,36.133,248.047,14.160,0
1542733834.253,-25.879,25.391,38.086,283.203,-22.461,0
1542733834.257,0.977,25.391,33.203,257.324,21.484,0
1542733834.260,30.762,19.531,34.668,236.328,38.574,0
1542733834.264,55.176,22.949,42.969,264.160,11.719,0
1542733834.268,61.523,27.832,41.016,262.695,-41.992,0
1542733834.272,63.965,34.668,38.574,226.562,-0.977,0
1542733834.276,31.250,37.109,40.527,208.008,33.203,0
1542733834.280,17.578,27.832,43.457,213.867,16.113,0
1542733834.284,59.082,24.414,41.016,211.426,15.625,0
1542733834.288,62.988,30.762,36.133,205.078,32.715,0
1542733834.292,74.707,35.156,33.203,210.938,17.090,0
1542733834.296,80.078,35.645,33.203,216.797,12.207,0
1542733834.300,54.688,36.133,33.203,193.848,38.086,0
1542733834.303,49.316,32.227,28.809,168.945,25.879,0
1542733834.307,20.020,32.227,34.668,166.016,31.738,0
1542733834.311,68.848,34.668,39.062,149.902,47.852,0
1542733834.315,78.613,31.250,34.180,160.156,46.387,0
1542733834.319,34.668,35.156,29.785,153.809,49.316,0
1542733834.323,64.453,36.133,23.438,103.516,25.391,0
1542733834.327,64.453,26.855,23.926,103.027,34.180,0
1542733834.331,20.508,23.438,32.715,125.488,62.012,0
1542733834.335,38.574,32.715,33.691,114.258,10.254,0
1542733834.339,33.203,36.621,29.297,89.355,42.969,0
1542733834.343,22.949,33.203,31.250,106.934,61.035,0
1542733834.346,78.613,30.762,30.273,106.445,23.438,0
1542733834.350,92.285,33.203,29.297,91.797,56.152,0
1542733834.354,31.738,31.250,29.785,114.746,74.707,0
1542733834.358,1.465,33.691,26.855,98.145,75.195,0
1542733834.362,31.250,31.250,30.762,81.055,26.367,0
1542733834.366,55.176,27.344,29.297,72.266,39.062,0
1542733834.370,61.035,35.156,24.902,73.242,79.102,0
1542733834.374,54.199,37.109,26.855,83.984,39.062,0
1542733834.378,39.551,31.738,35.645,98.633,41.016,0
1542733834.382,73.242,40.039,30.273,107.910,69.824,0
1542733834.385,85.449,44.922,21.973,83.496,39.062,0
1542733834.389,31.250,45.898,22.461,63.477,-5.859,0
1542733834.393,52.246,45.410,24.902,58.594,35.645,0
1542733834.397,49.316,40.039,37.109,87.402,49.805,0
1542733834.401,-1.953,37.109,33.203,98.633,28.809,0
1542733834.405,28.320,30.762,26.855,68.848,27.344,0
1542733834.409,41.992,22.949,40.527,104.004,73.730,0
1542733834.413,40.527,30.273,36.133,103.027,90.820,0
1542733834.417,66.895,43.945,25.391,64.941,47.363,0
1542733834.421,80.566,42.480,27.344,82.031,-19.531,0
1542733834.425,69.824,50.293,33.203,77.148,6.836,0
1542733834.428,18.555,52.246,25.879,64.453,78.125,0
1542733834.432,36.621,50.293,17.578,76.660,68.359,0
1542733834.436,62.988,47.363,30.762,64.453,11.230,0
1542733834.440,40.527,40.039,33.203,61.523,1.465,0
1542733834.444,41.504,45.410,29.297,58.594,25.391,0
1542733834.448,29.785,44.434,27.832,41.016,29.297,0
1542733834.452,38.574,39.062,33.203,60.059,29.785,0
1542733834.456,96.680,42.969,41.992,69.336,12.207,0
1542733834.460,55.176,45.410,33.203,60.059,8.789,0
1542733834.464,30.762,42.969,26.855,62.988,15.625,0
1542733834.468,56.152,45.898,26.855,69.336,32.227,0
1542733834.471,34.668,48.340,20.020,37.109,43.945,0
1542733834.475,32.227,40.527,20.508,9.277,17.090,0
1542733834.479,22.461,25.879,31.250,38.086,-1.465,0
1542733834.483,32.715,28.809,29.785,40.039,36.133,0
1542733834.487,13.184,44.434,17.578,-6.836,39.062,0
1542733834.491,20.996,53.711,16.602,-16.113,69.824,0
1542733834.495,45.410,66.406,12.207,19.043,108.887,0
1542733834.499,35.156,67.383,11.230,1.953,45.410,0
1542733834.503,31.250,63.965,7.324,-20.020,65.430,0
1542733834.507,13.184,60.547,2.930,-16.602,60.547,0
1542733834.510,17.090,52.734,2.930,-33.203,8.789,0
1542733834.514,31.250,51.270,-1.953,-0.977,1.465,0
1542733834.518,39.551,50.293,2.441,10.742,43.457,0
1542733834.522,58.594,49.316,4.395,-5.859,58.105,0
1542733834.526,29.297,54.199,-2.441,-23.438,43.945,0
1542733834.530,17.090,52.734,0.000,-28.320,57.617,0
1542733834.534,40.527,47.363,4.395,-14.160,42.480,0
1542733834.538,26.367,37.598,10.254,-15.137,31.250,0
1542733834.542,11.719,34.180,11.230,-10.254,2.441,0
1542733834.546,-2.930,42.480,10.254,9.277,21.484,0
1542733834.550,7.812,42.969,10.254,9.766,87.402,0
1542733834.553,34.180,38.574,9.766,5.371,60.547,0
1542733834.557,42.480,37.109,8.789,-9.766,36.621,0
1542733834.561,33.691,42.480,7.812,-35.156,23.926,0
1542733834.565,38.574,46.875,7.812,-23.926,3.418,0
1542733834.569,18.066,41.016,9.766,-2.930,30.762,0
1542733834.573,-10.254,40.527,11.230,-8.789,32.227,0
1542733834.577,-1.953,44.922,6.836,-21.484,6.836,0
1542733834.581,11.230,36.133,16.602,-18.066,-12.207,0
1542733834.585,26.855,34.180,22.949,-3.906,33.203,0
1542733834.589,42.969,39.062,16.602,-21.484,45.898,0
1542733834.593,24.414,41.016,16.113,-53.223,-13.184,0
1542733834.596,-11.719,38.574,20.508,-34.668,12.695,0
1542733834.600,-13.184,29.297,22.949,2.930,78.613,0
1542733834.604,52.246,31.738,24.414,11.719,84.473,0
1542733834.608,35.156,41.504,24.902,-13.184,42.969,0
1542733834.612,-23.926,39.551,28.809,-31.250,36.133,0
1542733834.616,1.465,32.715,33.203,-20.996,12.207,0
1542733834.620,7.812,25.879,32.715,-5.371,-9.766,0
1542733834.624,34.668,28.809,25.391,-3.906,73.730,0
1542733834.628,58.105,33.203,22.949,-12.207,61.035,0
1542733834.632,-2.930,32.715,27.344,-12.695,22.949,0
1542733834.635,-25.391,31.250,33.203,-9.766,53.711,0
1542733834.639,5.859,31.250,36.621,-59.570,39.062,0
1542733834.643,7.812,32.715,35.645,-53.223,53.223,0
1542733834.647,-3.418,30.273,35.156,-2.930,41.016,0
1542733834.651,17.090,31.738,30.762,-3.418,-31.250,0
1542733834.655,43.457,34.180,25.391,-27.832,-15.137,0
1542733834.659,25.879,35.156,30.273,-61.523,50.781,0
1542733834.663,25.879,27.832,39.062,-42.969,46.387,0
1542733834.667,8.789,21.973,35.156,-39.551,32.227,0
1542733834.671,-11.719,20.996,31.250,-110.352,66.895,0
1542733834.675,5.859,25.391,33.203,-89.844,97.168,0
1542733834.678,38.086,29.297,31.738,-18.555,76.660,0
1542733834.682,39.062,23.438,30.762,-12.695,39.551,0
1542733834.686,3.418,20.508,35.156,-25.879,23.438,0
1542733834.690,9.277,28.320,35.645,-12.207,26.855,0
1542733834.694,27.832,34.668,32.715,-31.738,37.109,0
1542733834.698,30.273,33.203,34.668,-52.734,44.922,0
1542733834.702,7.812,33.691,36.133,-47.363,49.805,0
1542733834.706,-1.465,33.691,34.180,-49.316,33.203,0
1542733834.710,8.301,27.832,34.668,-54.688,23.926,0
1542733834.714,9.766,28.809,35.645,-51.758,25.879,0
1542733834.718,31.250,34.668,28.320,-87.891,-22.461,0
1542733834.721,42.480,31.738,25.879,-75.684,36.133,0
1542733834.725,26.855,32.227,32.227,-19.043,52.246,0
1542733834.729,41.992,32.227,27.344,-29.785,6.348,0
1542733834.733,71.777,38.574,20.508,-25.879,35.645,0
1542733834.737,27.344,39.062,27.344,-24.414,14.648,0
1542733834.741,-15.137,29.785,42.969,-78.125,-34.180,0
1542733834.745,-13.672,22.949,48.828,-106.445,-7.324,0
1542733834.749,7.324,16.113,50.781,-236.816,-22.461,0
1542733834.753,2.930,5.371,58.105,-433.105,-7.812,0
1542733834.757,-8.301,3.906,56.152,-490.234,20.996,0
1542733834.760,28.320,16.113,41.016,-393.555,8.301,0
1542733834.764,29.297,21.973,40.527,-218.262,18.066,0
1542733834.768,22.949,23.926,47.852,-129.395,30.762,0
1542733834.772,11.719,19.043,41.504,-112.305,15.625,0
1542733834.776,30.762,14.160,40.527,-142.090,0.977,0
1542733834.780,50.293,18.555,40.039,-172.363,13.672,0
1542733834.784,28.320,20.020,37.109,-202.637,71.777,0
1542733834.788,34.668,22.949,37.109,-270.996,62.988,0
1542733834.792,41.504,32.227,31.738,-336.426,16.602,0
1542733834.796,62.012,30.273,32.715,-348.145,39.551,0
1542733834.800,72.754,22.461,35.645,-326.172,22.461,0
1542733834.803,64.941,24.414,31.250,-309.570,-7.812,0
1542733834.807,65.918,26.855,30.762,-290.527,-16.113,0
1542733834.811,50.293,28.809,27.344,-298.828,-1.953,0
1542733834.815,46.387,32.227,27.344,-381.348,56.152,0
1542733834.819,48.828,28.809,33.691,-394.043,38.574,0
1542733834.823,40.039,27.832,32.227,-331.543,42.969,0
1542733834.827,32.227,32.227,27.344,-308.105,31.738,0
1542733834.831,53.711,23.926,22.949,-262.695,-15.625,0
1542733834.835,72.266,20.508,23.438,-166.992,1.465,0
1542733834.839,51.270,24.902,25.391,-69.824,0.488,0
1542733834.843,60.547,32.715,26.367,38.086,-18.555,0
1542733834.846,63.477,31.738,29.785,93.262,-60.547,0
1542733834.850,39.062,31.738,26.855,77.148,-30.762,0
1542733834.854,44.434,33.203,31.250,118.164,27.832,0
1542733834.858,60.547,32.227,39.062,125.977,18.555,0
1542733834.862,89.844,39.551,32.715,84.961,27.832,0
1542733834.866,63.477,37.598,24.414,63.477,41.992,0
1542733834.870,54.688,32.715,37.109,-8.789,45.410,0
1542733834.874,68.359,29.297,41.016,-104.492,58.594,0
1542733834.878,81.055,34.180,31.250,-158.203,40.527,0
1542733834.882,74.219,36.621,28.320,-244.629,22.461,0
1542733834.885,68.848,32.715,29.297,-270.996,39.062,0
1542733834.889,81.055,25.391,34.180,-252.930,47.852,0
1542733834.893,80.078,29.297,35.645,-281.250,36.133,0
1542733834.897,101.074,42.480,32.227,-275.391,34.668,0
1542733834.901,114.258,37.598,33.203,-262.695,32.227,0
1542733834.905,88.379,31.250,36.621,-268.066,16.113,0
1542733834.909,67.871,31.738,37.598,-167.969,46.875,0
1542733834.913,74.707,30.273,34.180,-19.531,35.645,0
1542733834.917,90.820,25.391,37.598,50.781,10.742,0
1542733834.921,87.402,28.320,41.016,-79.102,29.785,0
1542733834.925,74.219,30.762,33.691,-163.086,32.227,0
1542733834.928,87.891,30.762,26.367,-60.059,2.930,0
1542733834.932,88.379,29.297,29.297,-22.949,12.207,0
1542733834.936,121.094,29.297,36.621,4.883,10.742,0
1542733834.940,135.742,34.668,35.645,-3.906,38.574,0
1542733834.944,80.078,33.691,34.668,-68.848,73.730,0
1542733834.948,72.266,33.203,33.203,-101.074,31.738,0
1542733834.952,71.777,32.715,35.645,-123.047,2.441,0
1542733834.956,121.094,30.273,33.203,-158.691,37.109,0
1542733834.960,133.789,29.785,31.738,-156.738,54.688,0
1542733834.964,83.496,32.715,39.062,-144.043,44.922,0
1542733834.968,105.957,37.109,25.879,-166.016,19.043,0
1542733834.971,119.629,32.715,27.832,-168.457,6.348,0
1542733834.975,104.492,20.996,40.527,-103.027,-10.254,0
1542733834.979,127.930,20.508,40.039,16.113,35.645,0
1542733834.983,180.176,21.484,40.039,61.523,51.270,0
1542733834.987,148.926,12.695,46.875,90.332,27.832,0
1542733834.991,78.125,5.371,56.641,171.387,-10.254,0
1542733834.995,110.352,3.418,55.664,205.566,-11.719,0
1542733834.999,140.625,5.371,58.594,224.609,-5.371,0
1542733835.003,164.551,5.859,63.965,235.840,-36.133,0
1542733835.007,192.871,12.207,55.176,191.406,13.184,0
1542733835.010,167.969,15.625,49.805,180.664,-6.836,0
1542733835.014,166.504,15.137,55.176,194.824,-64.453,0
1542733835.018,187.988,16.602,53.223,223.145,0.977,0
1542733835.022,165.039,21.484,51.758,269.531,43.457,0
1542733835.026,147.461,22.461,54.199,253.418,20.508,0
1542733835.030,146.973,22.461,50.781,222.656,4.395,0
1542733835.034,148.438,22.461,48.828,229.980,26.855,0
1542733835.038,159.180,23.926,49.316,189.453,67.871,0
1542733835.042,150.879,29.785,46.875,165.527,61.035,0
1542733835.046,154.297,22.949,49.316,196.289,69.824,0
1542733835.050,162.109,18.555,47.852,230.469,24.902,0
1542733835.053,147.949,23.926,46.875,283.203,-26.855,0
1542733835.057,139.648,27.832,48.340,184.570,-13.184,0
1542733835.061,152.344,27.344,45.410,70.312,31.738,0
1542733835.065,141.113,28.809,38.086,145.020,51.758,0
1542733835.069,141.113,35.645,37.109,210.449,-1.953,0
1542733835.073,164.551,44.434,49.316,239.258,12.695,0
1542733835.077,146.973,43.457,50.293,220.703,38.574,0
1542733835.081,110.352,36.133,39.062,216.309,8.301,0
1542733835.085,144.043,37.598,39.062,240.723,5.371,0
1542733835.089,184.570,34.180,50.781,223.633,6.836,0
1542733835.093,163.086,34.180,48.828,242.676,49.805,0
1542733835.096,115.234,35.156,45.898,255.371,22.949,0
1542733835.100,128.906,31.738,44.922,251.465,-19.043,0
1542733835.104,163.574,32.715,41.016,243.652,-21.973,0
1542733835.108,139.160,29.785,43.457,240.723,-33.203,0
1542733835.112,119.629,29.785,44.922,248.535,51.270,0
1542733835.116,155.762,38.574,45.898,222.168,51.758,0
1542733835.120,148.926,40.039,41.992,197.266,30.273,0
1542733835.124,101.562,36.133,37.598,110.840,85.938,0
1542733835.128,115.723,34.668,37.598,74.219,88.379,0
1542733835.132,140.625,36.133,47.363,151.855,61.523,0
1542733835.135,116.211,41.016,54.199,200.684,81.543,0
1542733835.139,101.562,45.410,42.480,223.633,75.195,0
1542733835.143,109.375,44.434,37.109,208.008,-6.836,0
1542733835.147,124.512,36.621,42.480,207.520,-9.766,0
1542733835.151,121.582,29.297,44.922,219.238,20.508,0
1542733835.155,97.168,30.762,44.922,213.867,41.016,0
1542733835.159,125.977,37.109,40.527,176.270,82.520,0
1542733835.163,100.586,39.062,36.133,160.645,47.852,0
1542733835.167,101.562,43.457,39.062,180.664,4.395,0
1542733835.171,132.812,51.758,36.621,195.312,-9.766,0
1542733835.175,101.562,52.246,26.367,203.125,-2.930,0
1542733835.178,109.375,35.645,39.551,190.430,8.789,0
1542733835.182,116.211,20.020,55.664,179.199,-0.977,0
1542733835.186,120.117,18.555,55.176,179.688,28.809,0
1542733835.190,112.793,13.672,56.641,208.008,36.621,0
1542733835.194,100.586,9.277,60.547,182.129,8.789,0
1542733835.198,96.191,6.836,66.406,184.570,25.391,0
1542733835.202,105.957,6.348,66.895,190.918,58.105,0
1542733835.206,128.418,3.418,63.477,152.344,17.578,0
1542733835.210,143.555,-1.465,66.895,195.312,-0.977,0
1542733835.214,121.094,0.000,71.777,169.922,42.480,0
1542733835.218,128.906,-2.441,70.801,152.344,58.594,0
1542733835.221,150.879,-6.348,70.312,180.176,31.738,0
1542733835.225,114.258,-4.395,69.824,184.570,19.531,0
1542733835.229,127.441,-2.441,67.871,165.527,9.766,0
1542733835.233,133.789,-1.465,65.430,166.016,-7.324,0
1542733835.237,124.023,3.906,60.059,144.043,-24.414,0
1542733835.241,150.879,5.371,58.594,98.633,-18.555,0
1542733835.245,130.371,9.277,59.082,109.863,12.207,0
1542733835.249,89.844,9.766,56.641,103.516,23.926,0
1542733835.253,94.238,8.301,53.223,118.652,58.105,0
1542733835.257,121.094,14.160,47.852,102.051,76.172,0
1542733835.260,105.957,18.555,48.340,80.078,56.152,0
1542733835.264,71.289,18.066,55.176,115.723,4.395,0
1542733835.268,76.172,20.020,52.246,132.812,37.109,0
1542733835.272,82.031,22.461,41.992,117.188,81.543,0
1542733835.276,85.449,22.461,42.480,88.867,-18.066,0
1542733835.280,100.586,27.832,41.504,106.445,-36.133,0
1542733835.284,68.359,37.109,37.598,110.352,1.465,0
1542733835.288,73.730,33.203,41.504,70.312,20.996,0
1542733835.292,73.242,27.832,38.086,46.387,63.477,0
1542733835.296,44.434,30.273,34.668,58.105,80.566,0
1542733835.300,56.641,30.762,41.016,72.266,61.035,0
1542733835.303,59.082,36.133,33.691,20.020,-0.977,0
1542733835.307,62.988,41.504,19.043,-25.879,40.039,0
1542733835.311,55.176,35.645,34.668,-11.230,62.500,0
1542733835.315,37.598,29.785,52.246,13.672,2.930,0
1542733835.319,51.270,27.832,50.781,68.848,71.289,0
1542733835.323,61.523,22.461,50.293,104.492,98.633,0
1542733835.327,37.598,13.672,52.246,140.137,68.848,0
1542733835.331,53.223,10.254,55.176,145.508,53.223,0
1542733835.335,99.609,9.277,58.105,118.652,74.219,0
1542733835.339,85.938,1.953,63.965,156.250,95.215,0
1542733835.343,72.266,-4.883,68.359,188.477,16.113,0
1542733835.346,137.695,-1.953,67.871,186.523,46.387,0
1542733835.350,125.000,-0.488,66.895,162.109,80.078,0
1542733835.354,68.359,-3.906,68.848,159.668,71.777,0
1542733835.358,99.121,-6.836,67.383,173.340,81.543,0
1542733835.362,106.934,-11.719,68.359,17.578,21.484,0
1542733835.366,99.121,-20.508,73.242,-144.043,5.859,0
1542733835.370,114.258,-21.973,74.707,-218.750,40.039,0
1542733835.374,91.797,-18.066,74.707,-298.340,41.504,0
1542733835.378,90.332,-20.020,78.125,-285.645,62.988,0
1542733835.382,93.262,-23.438,83.496,-152.344,92.773,0
1542733835.385,73.730,-19.043,83.984,-11.719,66.406,0
1542733835.389,61.035,-15.625,83.984,12.207,64.453,0
1542733835.393,80.078,-16.113,82.520,22.949,62.500,0
1542733835.397,103.516,-10.254,78.613,7.812,78.613,0
1542733835.401,84.961,-6.836,75.195,-52.246,33.691,0
1542733835.405,62.012,-4.395,71.289,-69.336,-19.043,0
1542733835.409,64.941,-0.488,66.895,-56.641,16.602,0
1542733835.413,51.758,6.348,62.988,-83.496,44.922,0
1542733835.417,20.020,10.742,59.570,-84.473,57.617,0
1542733835.421,24.902,8.301,62.988,-42.969,44.922,0
1542733835.425,44.434,8.789,66.895,-107.910,17.090,0
1542733835.428,46.875,11.719,63.477,-144.043,-17.090,0
1542733835.432,42.969,19.043,56.641,-142.090,-13.672,0
1542733835.436,62.988,29.297,51.270,-148.438,-14.648,0
1542733835.440,33.203,30.762,52.246,-117.188,-48.828,0
1542733835.444,24.414,26.367,52.246,-140.137,-19.043,0
1542733835.448,37.109,27.344,45.898,-106.934,-6.836,0
1542733835.452,36.133,32.715,41.992,-42.969,-41.016,0
1542733835.456,26.855,34.180,45.898,-43.945,7.324,0
1542733835.460,17.578,34.668,47.852,-52.246,39.062,0
1542733835.464,31.738,41.504,46.875,-119.629,24.902,0
1542733835.468,22.949,43.945,43.945,-136.230,18.555,0
1542733835.471,-2.930,42.480,36.621,-29.785,33.691,0
1542733835.475,12.207,43.457,31.250,40.527,36.621,0
1542733835.479,5.859,46.387,29.297,80.078,27.832,0
1542733835.483,11.230,50.293,30.273,95.215,28.809,0
1542733835.487,34.180,48.340,30.762,107.910,24.414,0
1542733835.491,25.879,48.340,25.879,116.699,30.273,0
1542733835.495,41.992,50.293,23.926,130.859,56.152,0
1542733835.499,13.672,51.270,29.297,146.973,52.734,0
1542733835.503,-3.418,48.340,30.273,130.859,20.508,0
1542733835.507,20.996,47.363,29.297,119.629,0.488,0
1542733835.510,34.180,48.828,31.250,114.746,-20.996,0
1542733835.514,45.898,51.758,30.273,116.211,25.879,0
1542733835.518,32.715,55.176,29.785,104.492,25.879,0
1542733835.522,25.879,51.270,31.738,104.980,10.742,0
1542733835.526,29.785,54.688,28.809,126.465,8.789,0
1542733835.530,32.227,61.035,26.367,117.188,30.273,0
1542733835.534,46.387,57.129,26.855,125.488,63.965,0
1542733835.538,21.484,53.711,31.738,133.301,35.645,0
1542733835.542,-1.953,52.734,32.227,138.672,-7.812,0
1542733835.546,46.875,56.152,25.391,136.230,-37.598,0
1542733835.550,54.199,63.477,20.508,119.141,-16.602,0
1542733835.553,-2.441,60.059,24.902,111.816,0.000,0
1542733835.557,10.742,49.805,33.203,127.930,48.828,0
1542733835.561,41.504,48.828,35.156,134.277,66.895,0
1542733835.565,31.250,49.805,31.738,119.141,6.836,0
1542733835.569,29.785,49.316,26.855,122.559,-24.902,0
1542733835.573,50.781,50.781,27.344,146.973,-48.340,0
1542733835.577,62.988,51.270,26.367,121.582,-46.875,0
1542733835.581,57.617,51.758,28.320,55.176,5.859,0
1542733835.585,40.527,54.688,31.250,56.641,24.414,0
1542733835.589,38.086,55.664,33.203,94.238,-28.320,0
1542733835.593,61.523,58.105,31.738,90.332,16.602,0
1542733835.596,54.199,59.082,34.180,32.715,61.523,0
1542733835.600,46.875,60.059,37.109,26.367,41.016,0
1542733835.604,51.758,53.223,34.180,71.777,60.059,0
1542733835.608,47.363,50.781,28.809,60.059,53.711,0
1542733835.612,43.945,52.734,24.902,67.871,56.641,0
1542733835.616,40.039,46.875,26.855,76.660,49.805,0
1542733835.620,38.574,48.340,27.344,66.406,-7.324,0
1542733835.624,52.246,49.316,28.809,65.430,-12.207,0
1542733835.628,73.242,45.410,29.785,43.945,35.645,0
1542733835.632,70.801,41.504,28.809,27.344,64.453,0
1542733835.635,44.922,36.621,26.855,47.852,40.039,0
1542733835.639,50.293,40.039,29.297,63.965,21.973,0
1542733835.643,80.566,44.434,32.715,61.035,10.742,0
1542733835.647,75.684,45.410,34.180,81.055,0.000,0
1542733835.651,33.691,52.246,34.668,88.379,41.504,0
1542733835.655,30.762,50.293,28.809,51.758,63.965,0
1542733835.659,62.988,39.551,27.832,37.109,-5.371,0
1542733835.663,50.781,39.551,30.273,41.992,41.992,0
1542733835.667,48.340,40.039,26.855,71.289,98.145,0
1542733835.671,64.941,37.109,27.344,67.871,16.602,0
1542733835.675,60.547,41.504,35.645,55.664,26.855,0
1542733835.678,58.594,46.875,35.156,62.988,39.062,0
1542733835.682,60.547,49.316,29.785,40.527,37.598,0
1542733835.686,47.852,51.758,32.227,26.367,27.344,0
1542733835.690,36.621,50.293,32.715,36.133,13.672,0
1542733835.694,38.086,51.270,24.902,44.922,55.664,0
1542733835.698,62.012,51.270,34.668,37.109,62.500,0
1542733835.702,48.828,47.852,44.434,2.441,34.668,0
1542733835.706,10.254,48.828,38.086,8.301,73.242,0
1542733835.710,5.371,41.016,40.527,21.973,65.430,0
1542733835.714,9.766,31.738,43.945,29.297,26.855,0
1542733835.718,35.645,32.715,36.621,51.270,43.457,0
1542733835.721,45.898,38.086,31.738,-2.441,50.781,0
1542733835.725,42.969,39.551,32.227,-82.031,31.250,0
1542733835.729,38.574,38.574,28.809,-43.945,12.695,0
1542733835.733,80.078,40.039,30.273,7.324,21.973,0
1542733835.737,81.543,41.992,29.785,8.789,38.574,0
1542733835.741,44.922,43.457,26.855,6.348,56.152,0
1542733835.745,37.598,42.480,27.344,18.555,48.828,0
1542733835.749,24.414,42.969,28.809,37.109,33.691,0
1542733835.753,36.133,40.039,32.715,21.973,0.488,0
1542733835.757,29.297,38.086,35.645,12.695,14.648,0
1542733835.760,26.855,39.551,35.645,35.645,-4.395,0
1542733835.764,35.156,41.992,30.273,47.363,0.000,0
1542733835.768,52.246,42.480,28.809,36.133,25.879,0
1542733835.772,54.199,39.062,31.738,40.527,-9.766,0
1542733835.776,26.855,38.086,35.645,36.621,17.578,0
1542733835.780,41.992,38.086,33.203,0.000,4.883,0
1542733835.784,78.613,37.598,30.273,25.879,-26.855,0
1542733835.788,77.148,41.504,29.297,-9.277,-23.926,0
1542733835.792,44.434,41.016,30.762,-35.156,32.715,0
1542733835.796,48.340,34.180,34.180,5.859,68.848,0
1542733835.800,70.801,35.645,31.738,3.906,7.812,0
1542733835.803,32.227,38.574,35.156,26.855,28.809,0
1542733835.807,-22.461,26.855,49.316,30.762,14.648,0
1542733835.811,17.578,20.020,54.199,41.504,23.438,0
1542733835.815,70.801,42.969,39.551,57.129,79.102,0
1542733835.819,19.531,63.477,29.785,9.277,60.059,0
1542733835.823,-53.223,74.219,38.086,-37.598,61.523,0
1542733835.827,-67.383,73.730,38.574,-56.641,37.109,0
1542733835.831,-84.473,83.496,37.598,-74.219,74.219,0
1542733835.835,-131.348,97.656,32.715,-112.793,66.895,0
1542733835.839,-156.738,84.473,32.227,-165.527,3.906,0
1542733835.843,-136.719,102.051,41.016,-167.480,-20.508,0
1542733835.846,-166.992,128.418,43.457,-198.242,-20.996,0
1542733835.850,-214.844,119.629,39.062,-279.785,23.926,0
1542733835.854,-228.027,124.023,32.715,-301.270,1.465,0
1542733835.858,-268.066,145.020,40.527,-320.312,-67.383,0
1542733835.862,-305.176,168.457,41.016,-368.164,-62.012,0
1542733835.866,-341.797,186.035,33.203,-389.160,13.184,0
1542733835.870,-336.914,198.242,29.785,-405.762,49.316,0
1542733835.874,-303.223,208.008,15.137,-417.480,17.090,0
1542733835.878,-288.574,211.426,-0.977,-411.621,-9.766,0
1542733835.882,-283.203,212.402,-13.184,-375.977,-21.484,0
1542733835.885,-265.137,209.961,-28.320,-339.844,12.207,0
1542733835.889,-214.844,201.172,-41.504,-309.082,97.168,0
1542733835.893,-174.805,188.477,-54.199,-255.859,67.871,0
1542733835.897,-131.836,180.176,-64.453,-205.078,-22.461,0
1542733835.901,-85.449,170.898,-72.754,-165.527,-6.836,0
1542733835.905,-40.527,171.875,-81.055,-142.090,-41.992,0
1542733835.909,-21.484,166.016,-81.543,-114.258,-41.016,0
1542733835.913,-24.902,152.344,-80.078,-79.102,35.156,0
1542733835.917,-2.441,138.672,-78.125,-37.109,31.738,0
1542733835.921,33.203,119.141,-72.754,-5.859,10.254,0
1542733835.925,64.941,106.445,-69.336,1.465,6.348,0
1542733835.928,72.266,97.168,-62.500,9.277,11.719,0
1542733835.932,80.566,86.426,-57.617,23.438,3.906,0
1542733835.936,100.586,74.707,-53.223,56.641,69.336,0
1542733835.940,113.281,65.918,-44.434,75.195,63.477,0
1542733835.944,119.141,59.082,-39.062,77.148,-48.340,0
1542733835.948,145.508,50.293,-35.156,100.098,-28.320,0
1542733835.952,170.410,39.062,-27.344,122.559,9.766,0
1542733835.956,146.484,33.203,-15.625,79.590,-29.297,0
1542733835.960,111.816,28.320,-10.742,79.590,-14.160,0
1542733835.964,114.258,23.926,-14.648,124.512,41.992,0
1542733835.968,128.418,25.391,-12.207,125.977,65.430,0
1542733835.971,122.070,23.926,-6.348,139.160,64.941,0
1542733835.975,124.512,23.926,-5.859,86.914,55.176,0
1542733835.979,142.578,21.484,-2.441,62.500,12.207,0
1542733835.983,159.180,17.578,2.441,110.352,4.883,0
1542733835.987,131.836,16.113,8.789,125.000,15.625,0
1542733835.991,115.234,19.531,11.719,134.277,65.430,0
1542733835.995,120.117,16.602,9.766,119.629,55.664,0
1542733835.999,121.582,12.695,8.789,106.445,22.461,0
1542733836.003,137.207,13.672,9.277,131.836,36.621,0
1542733836.007,138.184,13.184,14.648,155.762,7.324,0
1542733836.010,117.676,18.555,19.043,155.762,47.852,0
1542733836.014,112.793,17.090,18.066,129.883,72.266,0
1542733836.018,104.492,12.695,18.066,105.957,12.695,0
1542733836.022,114.258,18.066,19.043,123.535,21.484,0
1542733836.026,124.023,21.973,20.996,133.301,1.953,0
1542733836.030,94.238,20.508,24.902,135.742,-17.090,0
1542733836.034,104.004,20.020,28.809,133.301,-2.441,0
1542733836.038,91.797,19.531,27.832,111.816,20.996,0
1542733836.042,82.031,15.625,27.344,126.465,83.008,0
1542733836.046,89.355,14.648,29.297,129.395,75.195,0
1542733836.050,86.914,13.184,29.297,122.070,50.293,0
1542733836.053,96.680,12.207,31.250,65.918,102.539,0
1542733836.057,94.238,12.695,35.156,14.648,111.328,0
1542733836.061,97.168,11.719,35.645,0.488,55.664,0
1542733836.065,95.703,15.137,36.621,0.000,20.508,0
1542733836.069,86.914,20.020,41.016,65.918,-26.855,0
1542733836.073,84.961,18.066,40.527,93.262,-45.898,0
1542733836.077,85.449,15.137,35.156,101.562,11.719,0
1542733836.081,87.891,15.625,32.227,114.258,34.668,0
1542733836.085,95.215,19.043,31.738,104.004,-14.648,0
1542733836.089,89.844,22.949,33.203,108.887,-21.973,0
1542733836.093,79.590,26.367,38.086,107.910,5.371,0
1542733836.096,90.332,23.438,41.016,90.820,9.766,0
1542733836.100,89.355,17.090,40.039,120.117,-23.438,0
1542733836.104,92.773,14.648,41.992,130.371,-69.824,0
1542733836.108,72.754,17.578,44.434,109.863,-41.504,0
1542733836.112,65.430,20.508,46.875,118.652,-13.184,0
1542733836.116,67.383,16.113,42.969,134.277,-20.020,0
1542733836.120,98.633,21.973,40.527,137.207,21.484,0
1542733836.124,94.727,30.273,43.945,131.836,32.715,0
1542733836.128,47.363,26.855,46.875,130.371,26.367,0
1542733836.132,57.617,18.555,47.363,125.488,86.426,0
1542733836.135,62.012,29.297,39.551,108.398,67.383,0
1542733836.139,47.363,41.992,39.062,92.773,41.504,0
1542733836.143,54.688,38.574,41.992,96.680,49.316,0
1542733836.147,93.750,34.668,43.945,76.660,12.207,0
1542733836.151,87.402,39.551,43.457,74.219,-15.137,0
1542733836.155,66.895,39.062,48.828,87.891,76.660,0
1542733836.159,44.434,35.645,45.898,70.312,91.309,0
1542733836.163,38.086,38.086,39.062,36.133,21.484,0
1542733836.167,49.316,40.039,44.434,21.973,13.184,0
1542733836.171,41.992,38.086,47.363,29.785,16.113,0
1542733836.175,52.734,37.109,44.922,76.660,-12.207,0
1542733836.178,57.129,35.156,42.969,62.012,11.719,0
1542733836.182,53.711,30.762,42.480,62.012,49.805,0
1542733836.186,77.148,34.668,47.363,82.031,-2.930,0
1542733836.190,74.707,37.598,49.316,75.195,-46.875,0
1542733836.194,47.852,36.621,41.992,88.379,-3.906,0
1542733836.198,47.852,31.738,44.922,64.453,4.395,0
1542733836.202,52.246,22.461,46.387,62.988,30.273,0
1542733836.206,53.711,27.832,43.945,81.543,32.227,0
1542733836.210,42.969,40.527,42.969,109.863,37.598,0
1542733836.214,41.504,38.086,45.898,111.328,44.922,0
1542733836.218,47.363,35.156,48.828,58.594,9.277,0
1542733836.221,39.551,39.062,43.457,30.762,19.531,0
1542733836.225,59.570,35.156,39.062,64.941,54.688,0
1542733836.229,67.871,37.598,40.527,85.938,58.105,0
1542733836.233,58.594,43.945,40.039,78.125,55.176,0
1542733836.237,59.082,47.363,38.574,74.219,58.594,0
1542733836.241,55.176,40.527,39.551,101.074,65.918,0
1542733836.245,57.617,32.715,44.922,82.520,61.523,0
1542733836.249,55.664,33.691,41.992,34.668,70.801,0
1542733836.253,60.547,33.691,39.551,56.152,47.363,0
1542733836.257,73.242,31.250,46.387,100.586,16.602,0
1542733836.260,75.684,35.156,46.875,101.074,78.613,0
1542733836.264,50.293,40.039,47.363,113.281,104.004,0
1542733836.268,53.223,38.086,51.270,105.469,72.266,0
1542733836.272,46.875,41.016,42.969,65.430,30.762,0
1542733836.276,59.082,42.969,38.086,80.078,-3.418,0
1542733836.280,54.688,36.621,48.828,103.027,10.254,0
1542733836.284,54.199,41.992,51.270,115.234,42.969,0
1542733836.288,41.504,43.945,50.293,94.727,26.367,0
1542733836.292,5.371,40.527,48.340,20.508,44.434,0
1542733836.296,10.742,45.410,47.852,8.301,58.594,0
1542733836.300,21.973,49.805,41.992,46.387,28.809,0
1542733836.303,20.020,56.641,31.250,50.293,-21.973,0
1542733836.307,18.555,63.477,30.273,25.391,15.625,0
1542733836.311,15.625,53.711,34.668,41.992,15.137,0
1542733836.315,-6.348,39.062,35.645,44.922,-1.953,0
1542733836.319,-17.090,35.156,35.645,19.043,36.133,0
1542733836.323,11.230,35.156,32.227,42.969,15.625,0
1542733836.327,39.551,37.598,30.273,40.527,32.715,0
1542733836.331,34.668,38.574,32.227,-0.977,-1.953,0
1542733836.335,63.965,44.434,30.273,-7.324,-43.457,0
1542733836.339,67.383,46.875,32.227,53.223,14.160,0
1542733836.343,22.949,46.387,34.668,67.383,-2.441,0
1542733836.346,13.672,41.992,35.156,64.453,7.324,0
1542733836.350,33.691,38.574,35.156,85.449,44.434,0
1542733836.354,43.457,39.062,34.668,81.543,31.250,0
1542733836.358,62.012,38.574,41.016,67.383,5.859,0
1542733836.362,50.781,44.922,41.016,68.359,-23.438,0
1542733836.366,-4.883,42.969,34.668,67.383,-10.742,0
1542733836.370,5.371,33.691,37.598,46.387,-38.574,0
1542733836.374,39.551,37.598,39.062,-1.465,15.137,0
1542733836.378,71.777,43.945,33.203,6.836,47.363,0
1542733836.382,41.992,41.992,32.227,61.035,-12.695,0
1542733836.385,-1.953,36.621,35.645,99.121,-15.625,0
1542733836.389,2.441,30.273,41.016,99.609,65.430,0
1542733836.393,25.879,32.227,40.527,50.781,119.141,0
1542733836.397,39.062,26.367,35.156,24.902,42.480,0
1542733836.401,37.598,26.367,38.086,48.828,28.320,0
1542733836.405,32.715,38.574,40.039,70.801,54.688,0
1542733836.409,23.438,40.039,41.504,28.809,65.430,0
1542733836.413,45.898,42.480,40.527,45.410,47.363,0
1542733836.417,36.133,44.922,37.598,11.230,20.996,0
1542733836.421,38.574,43.457,36.621,-141.113,40.527,0
1542733836.425,60.059,43.945,38.086,-73.730,97.656,0
1542733836.428,37.109,41.504,41.504,48.828,51.758,0
1542733836.432,30.762,36.621,43.945,50.781,6.348,0
1542733836.436,39.062,35.645,38.086,43.457,-31.250,0
1542733836.440,51.758,39.062,34.668,73.730,-55.664,0
1542733836.444,47.363,40.527,30.762,82.031,-1.953,0
1542733836.448,15.625,41.504,27.344,75.684,2.930,0
1542733836.452,-6.348,39.551,34.180,66.895,15.137,0
1542733836.456,20.508,36.621,34.668,26.855,54.199,0
1542733836.460,30.273,33.691,37.109,38.574,89.355,0
1542733836.464,29.297,28.320,43.945,-98.145,58.594,0
1542733836.468,60.059,36.133,35.645,-376.465,28.320,0
1542733836.471,78.125,43.945,27.344,-349.121,17.090,0
1542733836.475,66.406,41.016,28.809,-146.973,19.043,0
1542733836.479,48.340,43.945,29.785,-104.980,15.137,0
1542733836.483,31.250,38.574,30.762,-51.758,6.836,0
1542733836.487,54.199,34.668,37.109,57.617,41.016,0
1542733836.491,69.336,43.945,39.062,80.078,11.719,0
1542733836.495,40.527,43.945,40.039,96.191,-8.789,0
1542733836.499,36.133,41.992,41.504,112.793,26.855,0
1542733836.503,74.707,53.711,42.480,87.891,0.977,0
1542733836.507,71.289,54.199,43.945,93.262,2.930,0
1542733836.510,47.363,47.852,44.434,104.492,75.684,0
1542733836.514,63.477,47.852,41.504,92.773,44.434,0
1542733836.518,50.781,47.363,38.086,104.004,26.855,0
1542733836.522,22.949,37.598,46.387,117.676,57.129,0
1542733836.526,58.594,40.527,50.293,119.629,24.414,0
1542733836.530,64.453,49.805,46.387,109.375,20.508,0
1542733836.534,29.297,50.781,42.969,104.004,-2.930,0
1542733836.538,62.500,58.105,32.715,109.863,-38.574,0
1542733836.542,56.152,60.059,28.320,69.336,-9.766,0
1542733836.546,20.996,54.688,36.621,38.574,17.090,0
1542733836.550,48.340,51.758,40.039,64.453,49.805,0
1542733836.553,69.336,49.316,38.574,86.426,53.223,0
1542733836.557,40.527,44.922,36.133,75.684,15.625,0
1542733836.561,47.363,44.434,38.086,72.754,11.230,0
1542733836.565,72.754,44.434,39.551,95.703,2.441,0
1542733836.569,47.363,35.156,41.016,103.516,51.758,0
1542733836.573,60.059,38.086,42.969,90.332,83.008,0
1542733836.577,44.434,42.480,42.969,101.074,45.898,0
1542733836.581,21.484,28.320,45.410,107.910,65.430,0
1542733836.585,57.129,29.785,41.504,105.469,74.707,0
1542733836.589,53.711,41.016,40.527,122.559,0.977,0
1542733836.593,33.203,44.922,41.504,119.629,24.902,0
1542733836.596,46.387,43.945,42.480,127.441,76.660,0
1542733836.600,40.527,40.039,41.992,136.719,-3.906,0
1542733836.604,14.160,33.203,40.527,117.676,-35.156,0
1542733836.608,11.719,28.320,39.551,61.523,-21.484,0
1542733836.612,22.949,34.180,40.527,5.859,-30.762,0
1542733836.616,39.062,39.551,42.969,-12.207,-16.113,0
1542733836.620,33.203,41.992,44.922,7.324,19.531,0
1542733836.624,39.062,47.852,40.039,69.336,71.289,0
1542733836.628,18.066,39.551,39.062,105.957,55.664,0
1542733836.632,20.996,26.855,44.434,88.379,31.738,0
1542733836.635,52.246,29.297,44.922,64.453,44.922,0
1542733836.639,68.848,41.992,41.016,50.293,67.871,0
1542733836.643,55.176,46.875,40.039,14.160,60.059,0
1542733836.647,42.969,46.875,42.480,34.180,21.484,0
1542733836.651,54.199,47.852,44.922,65.918,46.875,0
1542733836.655,52.734,50.293,44.434,58.594,20.508,0
1542733836.659,30.273,51.758,43.945,47.363,20.020,0
1542733836.663,5.859,41.016,44.922,41.016,18.066,0
1542733836.667,30.273,33.203,43.945,75.684,10.742,0
1542733836.671,23.438,33.691,40.527,84.961,14.160,0
1542733836.675,35.645,32.227,37.109,66.895,14.160,0
1542733836.678,49.805,33.691,39.062,51.270,55.664,0
1542733836.682,10.742,39.551,36.621,52.246,37.598,0
1542733836.686,19.043,42.480,33.203,24.414,16.113,0
1542733836.690,42.969,41.016,35.645,-38.574,32.715,0
1542733836.694,47.363,41.504,39.062,-22.949,57.129,0
1542733836.698,21.973,40.527,41.992,-2.441,39.062,0
1542733836.702,14.648,42.480,41.504,8.301,13.184,0
1542733836.706,31.738,40.527,37.598,34.668,21.484,0
1542733836.710,29.785,34.668,36.621,56.152,-0.488,0
1542733836.714,64.453,37.598,38.574,43.457,22.461,0
1542733836.718,83.008,41.016,41.992,21.484,32.227,0
1542733836.721,47.363,39.062,39.062,43.945,29.297,0
1542733836.725,51.270,42.480,28.320,68.359,32.227,0
1542733836.729,44.434,43.457,32.715,91.309,-3.906,0
1542733836.733,4.883,39.062,47.852,96.191,13.184,0
1542733836.737,12.207,35.156,49.805,87.891,61.523,0
1542733836.741,16.602,23.438,50.781,90.820,80.078,0
1542733836.745,35.645,20.508,51.758,64.453,71.777,0
1542733836.749,56.152,24.414,49.316,62.500,57.617,0
1542733836.753,38.086,26.855,45.898,69.336,-2.930,0
1542733836.757,26.367,31.250,43.945,35.156,-7.812,0
1542733836.760,25.391,28.809,43.945,36.621,20.508,0
1542733836.764,29.785,24.902,45.898,47.852,9.766,0
1542733836.768,52.246,23.926,46.387,33.691,10.742,0
1542733836.772,30.273,26.855,40.039,4.883,37.598,0
1542733836.776,20.508,22.949,42.969,-70.312,17.090,0
1542733836.780,39.062,25.391,45.410,-145.020,11.230,0
1542733836.784,22.949,34.180,37.598,-177.246,66.895,0
1542733836.788,28.320,36.133,34.180,-96.680,13.672,0
1542733836.792,25.879,30.762,34.668,-60.059,26.855,0
1542733836.796,43.457,34.668,34.668,-146.484,83.496,0
1542733836.800,59.082,35.156,37.598,-74.707,33.203,0
1542733836.803,36.133,30.762,40.039,23.438,38.574,0
1542733836.807,46.387,36.621,41.504,41.016,25.879,0
1542733836.811,25.879,34.668,42.969,16.602,52.246,0
1542733836.815,20.508,36.621,37.598,41.504,67.383,0
1542733836.819,32.227,38.574,36.621,64.453,28.809,0
1542733836.823,9.277,32.227,39.062,69.824,4.883,0
1542733836.827,29.297,31.250,40.527,103.027,35.156,0
1542733836.831,80.078,36.133,42.969,105.469,76.172,0
1542733836.835,66.895,40.039,40.039,114.258,67.871,0
1542733836.839,20.508,40.039,35.645,105.469,83.496,0
1542733836.843,2.930,37.598,34.668,117.188,76.172,0
1542733836.846,5.859,34.180,40.527,108.887,0.488,0
1542733836.850,31.738,36.133,41.504,75.684,7.324,0
1542733836.854,30.273,34.668,36.133,86.914,37.598,0
1542733836.858,62.500,28.320,35.156,66.406,0.488,0
1542733836.862,90.820,40.527,27.344,42.969,-2.441,0
1542733836.866,29.785,47.363,30.762,91.797,82.031,0
1542733836.870,-7.324,41.016,39.551,105.469,89.844,0
1542733836.874,1.465,36.621,35.645,80.078,20.020,0
1542733836.878,30.273,29.785,38.086,56.641,15.137,0
1542733836.882,39.551,30.273,41.016,2.930,58.105,0
1542733836.885,26.855,37.109,41.016,23.438,119.141,0
1542733836.889,34.180,40.039,41.016,76.172,64.941,0
1542733836.893,43.457,37.109,35.645,43.457,20.508,0
1542733836.897,44.922,36.621,34.668,4.883,24.902,0
1542733836.901,21.973,41.016,35.156,17.578,-1.465,0
1542733836.905,9.766,45.410,33.203,-16.602,-52.734,0
1542733836.909,36.621,36.133,37.598,-52.734,21.973,0
1542733836.913,27.344,33.691,39.551,19.531,-0.488,0
1542733836.917,11.230,37.598,39.062,56.152,-20.020,0
1542733836.921,26.367,29.785,39.062,41.016,42.480,0
1542733836.925,27.832,31.738,36.133,66.895,6.348,0
1542733836.928,28.320,38.574,35.156,88.379,20.508,0
1542733836.932,69.824,39.062,37.598,87.891,71.777,0
1542733836.936,50.293,39.062,39.551,92.773,52.246,0
1542733836.940,5.371,46.875,34.180,84.961,40.527,0
1542733836.944,0.977,47.363,30.762,56.641,14.648,0
1542733836.948,4.395,40.527,27.832,20.508,10.742,0
1542733836.952,22.461,45.410,20.508,-84.473,33.203,0
1542733836.956,32.227,51.758,15.625,-114.258,14.160,0
1542733836.960,42.480,50.781,12.207,-74.219,47.852,0
1542733836.964,28.809,49.805,15.137,-29.785,30.762,0
1542733836.968,16.113,48.828,22.949,35.156,27.832,0
1542733836.971,18.066,44.434,27.344,57.129,-13.184,0
1542733836.975,12.207,41.016,23.926,81.055,-57.617,0
1542733836.979,9.766,43.945,22.949,60.547,-1.953,0
1542733836.983,10.742,42.969,29.297,11.719,60.059,0
1542733836.987,30.273,36.133,35.645,21.484,39.551,0
1542733836.991,12.207,32.227,37.109,55.176,20.508,0
1542733836.995,28.320,39.062,32.715,85.449,62.500,0
1542733836.999,77.637,49.316,30.273,98.633,83.984,0
1542733837.003,46.875,48.340,33.691,66.406,89.844,0
1542733837.007,8.301,46.387,28.320,61.523,87.891,0
1542733837.010,19.043,47.363,28.809,70.801,110.840,0
1542733837.014,40.527,49.316,32.715,59.570,38.086,0
1542733837.018,54.199,49.805,33.691,90.820,33.691,0
1542733837.022,45.410,49.316,37.598,100.586,54.688,0
1542733837.026,33.203,46.875,31.250,101.562,2.930,0
1542733837.030,28.809,43.457,27.344,65.918,32.227,0
1542733837.034,21.484,45.898,30.273,21.484,35.156,0
1542733837.038,27.344,48.828,30.273,33.691,8.789,0
1542733837.042,38.086,43.945,24.414,28.809,9.766,0
1542733837.046,45.898,44.922,26.367,31.738,21.973,0
1542733837.050,32.227,43.457,32.715,38.574,47.852,0
1542733837.053,38.574,39.062,35.156,79.102,35.156,0
1542733837.057,44.434,41.504,33.691,-57.617,58.594,0
1542733837.061,29.785,41.992,35.156,-151.855,53.223,0
1542733837.065,18.555,36.621,35.645,-35.156,10.254,0
1542733837.069,25.879,30.762,32.715,7.324,12.207,0
1542733837.073,20.020,30.762,34.668,-36.621,-38.574,0
1542733837.077,14.160,41.992,36.621,-101.562,-36.621,0
1542733837.081,39.551,43.457,35.645,-37.109,50.293,0
1542733837.085,34.668,29.297,37.109,36.133,28.320,0
1542733837.089,13.184,33.203,33.203,25.391,-11.719,0
1542733837.093,31.738,47.363,27.832,30.273,-17.090,0
1542733837.096,21.973,45.410,32.715,45.410,22.949,0
1542733837.100,10.742,45.898,37.598,22.461,39.062,0
1542733837.104,33.691,45.898,39.062,43.457,0.488,0
1542733837.108,57.129,38.086,37.109,74.219,9.277,0
1542733837.112,56.152,36.621,33.203,64.453,14.648,0
1542733837.116,22.461,35.645,34.668,53.711,-6.836,0
1542733837.120,19.531,33.203,39.062,71.777,-16.113,0
1542733837.124,37.598,36.133,36.133,35.156,15.625,0
1542733837.128,33.203,40.039,29.785,22.461,52.246,0
1542733837.132,45.898,41.992,35.156,74.707,82.520,0
1542733837.135,43.945,37.598,37.109,-0.977,85.449,0
1542733837.139,53.223,36.621,38.086,-55.664,41.992,0
1542733837.143,44.434,44.922,37.109,12.207,9.766,0
1542733837.147,23.438,48.340,36.133,26.367,16.113,0
1542733837.151,45.410,44.434,32.715,59.570,50.293,0
1542733837.155,26.367,38.086,32.227,68.359,22.461,0
1542733837.159,33.691,35.156,38.086,42.969,16.602,0
1542733837.163,28.320,36.133,37.598,52.734,57.617,0
1542733837.167,14.648,31.738,36.133,59.570,39.062,0
1542733837.171,33.691,30.762,37.598,40.039,32.715,0
1542733837.175,20.020,33.691,37.109,58.105,16.602,0
1542733837.178,34.180,39.551,29.785,85.938,-13.672,0
1542733837.182,41.992,38.574,30.762,82.031,-1.465,0
1542733837.186,22.949,35.156,33.203,22.949,25.879,0
1542733837.190,28.809,38.574,32.227,-44.434,11.230,0
1542733837.194,41.992,39.062,34.180,-39.551,26.367,0
1542733837.198,14.648,37.598,40.039,-51.758,50.293,0
1542733837.202,30.762,32.715,41.992,-75.195,58.594,0
1542733837.206,62.012,29.297,40.039,-34.668,33.691,0
1542733837.210,40.039,31.250,39.062,-87.891,29.297,0
1542733837.214,16.602,34.180,38.574,-70.801,-3.418,0
1542733837.218,5.371,40.527,35.645,-18.066,37.598,0
1542733837.221,35.645,42.969,31.738,-26.855,100.586,0
1542733837.225,39.551,42.480,32.227,-86.426,60.059,0
1542733837.229,32.227,39.062,34.668,-71.777,18.555,0
1542733837.233,35.156,34.668,35.645,34.180,34.180,0
1542733837.237,28.809,36.621,32.715,55.664,43.945,0
1542733837.241,18.555,41.992,29.785,40.527,33.203,0
1542733837.245,0.000,44.434,30.273,44.434,18.066,0
1542733837.249,23.926,43.945,20.508,89.355,19.531,0
1542733837.253,41.992,41.504,20.508,113.281,64.941,0
1542733837.257,28.320,33.203,38.574,108.887,76.660,0
1542733837.260,30.273,27.344,42.480,63.477,59.082,0
1542733837.264,17.090,25.391,37.598,35.156,10.742,0
1542733837.268,5.859,20.508,42.480,61.523,45.410,0
1542733837.272,20.996,17.090,48.828,75.684,38.574,0
1542733837.276,19.531,20.020,46.875,106.445,14.648,0
1542733837.280,9.766,21.973,46.875,120.605,-5.859,0
1542733837.284,-3.418,21.484,45.410,104.004,-73.242,0
1542733837.288,32.227,21.973,39.062,78.613,-10.254,0
1542733837.292,30.273,27.832,36.133,84.961,14.160,0
1542733837.296,-5.371,31.250,37.109,53.711,-13.184,0
1542733837.300,14.648,25.879,38.574,-6.348,-60.059,0
1542733837.303,46.875,29.297,39.062,-47.363,-38.086,0
1542733837.307,48.828,33.203,40.527,-63.965,16.113,0
1542733837.311,31.250,34.180,44.434,11.230,-1.953,0
1542733837.315,13.672,34.180,41.992,51.758,20.508,0
1542733837.319,36.621,35.156,38.574,62.988,51.270,0
1542733837.323,41.504,32.715,36.621,88.867,51.758,0
1542733837.327,4.883,31.250,36.621,97.656,50.293,0
1542733837.331,20.020,34.180,39.062,101.562,30.273,0
1542733837.335,35.156,27.832,36.621,106.934,58.105,0
1542733837.339,19.043,24.902,33.691,80.566,23.926,0
1542733837.343,26.367,26.855,35.156,79.590,16.602,0
1542733837.346,20.020,29.785,37.109,66.895,49.316,0
1542733837.350,12.695,32.715,32.715,2.930,50.293,0
1542733837.354,16.113,30.273,33.691,17.578,21.973,0
1542733837.358,24.902,27.832,41.016,47.363,-7.812,0
1542733837.362,51.270,30.762,44.922,30.762,-7.324,0
1542733837.366,34.668,21.973,41.504,57.617,17.090,0
1542733837.370,7.324,13.672,36.621,76.660,22.461,0
1542733837.374,23.438,34.180,33.203,93.750,12.207,0
1542733837.378,20.508,44.922,31.250,124.512,64.941,0
1542733837.382,13.184,40.527,36.621,113.281,108.398,0
1542733837.385,38.086,36.621,39.551,61.523,59.570,0
1542733837.389,61.523,37.109,37.109,68.848,37.109,0
1542733837.393,21.973,41.504,35.156,104.004,71.289,0
1542733837.397,-39.551,37.109,34.668,87.891,99.121,0
1542733837.401,0.000,24.902,39.551,49.805,65.430,0
1542733837.405,55.664,24.902,41.992,44.922,29.297,0
1542733837.409,9.766,30.762,41.504,66.895,45.410,0
1542733837.413,-9.277,33.203,43.457,70.312,52.734,0
1542733837.417,3.906,36.133,40.527,64.941,73.242,0
1542733837.421,32.715,38.086,35.645,73.242,55.176,0
1542733837.425,33.691,39.062,39.551,53.711,28.320,0
1542733837.428,24.414,30.762,40.039,41.016,56.152,0
1542733837.432,41.016,27.832,35.645,45.410,41.504,0
1542733837.436,34.180,37.109,35.156,63.965,-0.488,0
1542733837.440,17.578,34.180,36.621,81.055,-4.883,0
1542733837.444,13.184,26.367,39.551,104.004,0.488,0
1542733837.448,23.926,28.320,41.016,93.750,15.625,0
1542733837.452,22.461,32.715,37.598,85.938,0.488,0
1542733837.456,26.367,36.133,41.504,77.637,-11.230,0
1542733837.460,18.066,37.109,41.504,39.062,-12.207,0
1542733837.464,33.691,40.039,36.133,58.105,3.418,0
1542733837.468,46.387,45.898,33.203,78.613,13.672,0
1542733837.471,4.883,42.969,31.738,74.219,33.203,0
1542733837.475,10.742,31.250,29.297,-92.285,-8.789,0
1542733837.479,34.668,26.367,33.203,-308.105,23.438,0
1542733837.483,28.809,27.344,36.133,-230.957,81.055,0
1542733837.487,18.555,35.156,33.203,-74.707,7.324,0
1542733837.491,32.715,41.016,27.832,22.461,9.277,0
1542733837.495,40.039,39.551,27.832,96.680,24.902,0
1542733837.499,23.926,39.062,39.062,-42.480,-5.371,0
1542733837.503,21.484,41.992,37.598,-137.207,-12.695,0
1542733837.507,33.203,41.504,36.133,0.977,29.785,0
1542733837.510,35.156,36.621,41.504,52.734,15.625,0
1542733837.514,22.461,33.203,38.574,74.707,24.414,0
1542733837.518,38.574,34.668,36.621,104.980,42.480,0
1542733837.522,36.133,34.668,38.574,116.699,13.672,0
1542733837.526,5.859,30.762,39.062,53.223,9.766,0
1542733837.530,28.320,34.668,38.086,6.836,-8.789,0
1542733837.534,33.691,38.086,35.156,23.438,-17.090,0
1542733837.538,36.133,37.109,35.645,41.504,-27.344,0
1542733837.542,48.340,37.598,36.621,42.969,-20.996,0
1542733837.546,42.969,37.109,35.156,58.594,32.227,0
1542733837.550,38.574,30.273,38.574,92.773,86.426,0
1542733837.553,35.645,24.902,42.480,122.070,97.656,0
1542733837.557,29.297,31.738,39.062,137.695,58.594,0
1542733837.561,14.160,38.574,37.109,133.301,80.078,0
1542733837.565,35.156,41.016,37.109,125.488,79.590,0
1542733837.569,26.367,38.574,38.086,118.652,24.902,0
1542733837.573,13.184,42.480,35.645,91.797,9.766,0
1542733837.577,17.578,44.434,36.133,98.145,-0.977,0
1542733837.581,13.184,40.039,40.527,102.051,11.230,0
1542733837.585,11.230,35.645,36.133,96.680,-20.020,0
1542733837.589,6.348,34.668,32.227,99.609,-21.484,0
1542733837.593,30.762,38.086,36.621,107.910,69.824,0
1542733837.596,45.898,36.621,39.062,115.234,70.801,0
1542733837.600,30.762,31.250,39.551,74.707,52.734,0
1542733837.604,25.391,31.250,34.668,16.113,26.855,0
1542733837.608,33.691,38.086,29.297,32.715,-30.762,0
1542733837.612,32.227,38.086,31.250,71.777,50.293,0
1542733837.616,18.555,35.645,32.715,76.172,86.426,0
1542733837.620,13.672,35.645,33.691,90.820,39.062,0
1542733837.624,7.324,35.645,32.227,104.492,46.387,0
1542733837.628,3.418,35.645,33.203,102.051,22.949,0
1542733837.632,22.949,32.715,35.645,101.074,24.414,0
1542733837.635,39.062,29.297,35.645,93.750,13.672,0
1542733837.639,41.992,33.691,36.133,79.590,22.461,0
1542733837.643,21.484,39.551,36.621,64.941,45.410,0
1542733837.647,14.648,40.039,34.180,91.797,-9.277,0
1542733837.651,28.320,38.574,29.785,64.941,-27.832,0
1542733837.655,20.020,39.062,28.320,-174.805,3.418,0
1542733837.659,14.648,40.039,30.273,-166.992,31.250,0
1542733837.663,21.973,37.109,30.762,10.742,35.645,0
1542733837.667,14.648,35.156,31.738,53.223,21.484,0
1542733837.671,18.066,36.133,33.203,36.621,71.289,0
1542733837.675,31.250,35.156,35.156,53.223,36.133,0
1542733837.678,43.945,39.551,35.645,108.887,-34.180,0
1542733837.682,37.598,41.504,32.715,89.844,25.879,0
1542733837.686,-0.488,37.109,33.203,76.172,70.312,0
1542733837.690,-9.277,35.156,38.574,83.496,65.430,0
1542733837.694,2.930,33.203,36.621,93.262,51.758,0
1542733837.698,13.672,31.738,33.691,56.641,46.875,0
1542733837.702,31.250,31.738,34.668,43.457,8.789,0
1542733837.706,14.648,28.809,33.691,75.195,-22.461,0
1542733837.710,-1.953,31.250,32.715,68.359,3.418,0
1542733837.714,3.906,39.551,31.250,72.266,22.949,0
1542733837.718,23.438,38.574,27.832,81.543,38.086,0
1542733837.721,30.273,38.574,30.762,92.285,92.773,0
1542733837.725,26.367,38.086,37.598,84.473,93.750,0
1542733837.729,31.250,38.574,33.203,83.008,11.230,0
1542733837.733,51.758,39.551,26.855,96.680,23.438,0
1542733837.737,28.320,34.668,27.832,97.656,34.180,0
1542733837.741,9.766,36.133,29.785,106.445,7.324,0
1542733837.745,7.812,38.086,28.320,108.398,-14.160,0
1542733837.749,10.742,32.227,25.879,117.188,-30.273,0
1542733837.753,46.875,31.738,24.902,118.652,20.508,0
1542733837.757,35.156,31.250,26.855,109.863,69.336,0
1542733837.760,29.785,31.738,30.273,62.988,74.707,0
1542733837.764,32.715,38.574,28.809,66.406,76.172,0
1542733837.768,31.250,37.598,29.785,82.031,57.617,0
1542733837.772,49.805,34.668,32.227,57.617,49.316,0
1542733837.776,34.180,37.109,34.668,83.008,86.426,0
1542733837.780,18.066,39.062,35.645,92.285,80.566,0
1542733837.784,32.715,32.715,38.086,74.707,52.246,0
1542733837.788,40.039,29.785,35.156,75.684,32.227,0
1542733837.792,21.484,33.691,31.250,84.961,-13.184,0
1542733837.796,32.227,45.410,31.250,64.941,-20.508,0
1542733837.800,14.648,42.969,30.273,53.223,49.316,0
1542733837.803,-11.230,30.273,32.227,19.043,59.570,0
1542733837.807,6.836,31.250,31.250,43.457,32.227,0
1542733837.811,23.438,30.273,34.180,76.172,39.551,0
1542733837.815,48.340,30.762,34.668,-25.879,23.926,0
1542733837.819,46.875,37.598,32.227,-12.695,46.387,0
1542733837.823,8.789,35.645,28.809,39.551,64.941,0
1542733837.827,-1.465,34.668,28.809,16.113,47.363,0
1542733837.831,26.855,34.668,35.645,48.828,-4.883,0
1542733837.835,28.809,28.320,35.645,69.824,4.883,0
1542733837.839,-0.977,27.344,42.480,83.008,24.414,0
1542733837.843,32.715,33.203,47.363,94.238,4.395,0
1542733837.846,47.363,33.691,41.016,92.773,35.156,0
1542733837.850,11.230,31.250,40.527,98.633,39.062,0
1542733837.854,16.602,30.762,41.992,93.262,-8.301,0
1542733837.858,32.227,28.809,36.621,63.965,88.867,0
1542733837.862,12.695,28.320,37.109,62.012,134.277,0
1542733837.866,36.621,34.668,41.016,54.688,11.230,0
1542733837.870,46.387,39.551,34.668,49.316,0.000,0
1542733837.874,8.301,36.621,33.203,58.105,34.668,0
1542733837.878,23.438,36.133,35.645,-27.344,45.898,0
1542733837.882,43.945,34.180,37.598,-51.758,20.020,0
1542733837.885,24.902,29.297,39.551,22.949,-35.156,0
1542733837.889,45.898,31.250,39.551,49.316,22.461,0
1542733837.893,31.738,34.180,39.551,66.406,82.520,0
1542733837.897,9.277,40.039,30.762,55.176,73.730,0
1542733837.901,27.832,42.969,22.461,29.785,33.691,0
1542733837.905,11.230,43.457,22.949,48.828,-5.371,0
1542733837.909,-1.465,44.922,25.391,59.082,-15.625,0
1542733837.913,30.273,42.969,22.949,51.758,28.320,0
1542733837.917,54.688,45.898,20.020,61.523,8.789,0
1542733837.921,22.461,49.805,20.020,59.570,-15.625,0
1542733837.925,26.367,45.898,28.320,63.477,38.574,0
1542733837.928,35.645,42.480,34.668,84.473,71.777,0
1542733837.932,33.691,46.875,32.715,82.031,63.965,0
1542733837.936,39.551,49.316,30.762,80.566,66.406,0
1542733837.940,28.320,45.898,29.297,75.195,48.828,0
1542733837.944,24.414,42.480,30.762,66.895,4.883,0
1542733837.948,34.668,36.621,31.738,75.195,19.531,0
1542733837.952,30.762,31.738,28.809,76.172,35.156,0
1542733837.956,17.090,41.016,24.902,65.430,3.906,0
1542733837.960,20.020,48.828,22.461,52.734,48.340,0
1542733837.964,42.480,40.527,21.973,56.152,69.336,0
1542733837.968,32.227,39.551,24.902,47.363,29.785,0
1542733837.971,13.672,41.504,27.832,52.246,7.812,0
1542733837.975,22.949,40.527,27.344,53.223,-11.719,0
1542733837.979,41.992,44.922,23.926,33.691,-20.996,0
1542733837.983,45.898,43.945,21.484,-4.883,32.715,0
1542733837.987,23.926,40.039,23.926,-11.230,75.195,0
1542733837.991,9.277,38.574,26.855,46.875,58.594,0
1542733837.995,29.785,38.086,29.785,66.895,28.809,0
1542733837.999,30.762,34.668,29.297,79.102,0.977,0
1542733838.003,5.859,29.297,26.367,66.895,41.016,0
1542733838.007,21.973,25.879,26.855,46.387,24.414,0
1542733838.010,47.363,25.391,29.297,62.988,-11.230,0
1542733838.014,46.875,33.691,30.762,51.270,-20.508,0
1542733838.018,20.508,40.039,30.762,49.316,22.949,0
1542733838.022,18.555,42.969,28.320,62.012,64.941,0
1542733838.026,21.484,40.527,29.785,62.012,91.309,0
1542733838.030,22.461,35.645,27.344,14.160,37.109,0
1542733838.034,13.184,31.250,28.320,-17.090,4.395,0
1542733838.038,10.742,26.855,30.273,22.461,48.340,0
1542733838.042,28.320,20.508,31.738,39.551,20.996,0
1542733838.046,33.691,24.414,31.738,36.133,51.758,0
1542733838.050,35.156,34.668,29.785,45.898,-14.648,0
1542733838.053,12.207,38.574,29.297,62.012,-22.461,0
1542733838.057,13.672,33.203,26.367,78.125,25.879,0
1542733838.061,24.414,21.484,23.926,44.434,41.016,0
1542733838.065,24.902,25.391,25.879,11.230,1.953,0
1542733838.069,19.531,33.691,25.879,41.016,29.297,0
1542733838.073,6.348,30.273,24.414,45.410,38.086,0
1542733838.077,25.391,33.691,25.391,21.973,9.277,0
1542733838.081,23.438,37.109,23.438,30.762,28.320,0
1542733838.085,0.977,29.785,22.949,34.180,61.523,0
1542733838.089,13.184,28.809,24.414,42.480,47.852,0
1542733838.093,18.066,28.320,21.973,57.129,20.020,0
1542733838.096,20.020,27.344,24.902,59.570,32.715,0
1542733838.100,23.926,26.855,25.391,51.270,35.156,0
1542733838.104,6.348,28.320,22.949,73.730,6.348,0
1542733838.108,29.297,35.156,22.949,24.902,6.836,0
1542733838.112,25.391,34.668,23.926,-36.621,33.203,0
1542733838.116,10.742,33.203,21.484,-11.230,38.086,0
1542733838.120,28.809,31.250,18.066,14.648,16.602,0
1542733838.124,37.109,20.996,25.391,20.020,49.316,0
1542733838.128,47.852,26.855,25.879,-156.250,39.551,0
1542733838.132,22.461,38.574,21.973,-247.070,4.395,0
1542733838.135,-0.977,36.133,23.926,-97.168,3.418,0
1542733838.139,10.254,36.133,22.461,-23.438,14.648,0
1542733838.143,34.668,40.039,23.438,19.531,41.504,0
1542733838.147,41.016,39.062,26.855,44.434,35.156,0
1542733838.151,31.738,36.621,28.320,41.016,84.473,0
1542733838.155,16.113,38.574,23.926,67.383,112.305,0
1542733838.159,30.273,37.109,18.066,77.148,33.203,0
1542733838.163,52.246,34.668,22.461,93.750,-10.742,0
1542733838.167,36.133,35.156,30.273,100.098,-4.395,0
1542733838.171,29.785,31.738,29.297,54.688,-16.113,0
1542733838.175,35.645,27.832,28.320,18.066,-22.461,0
1542733838.178,28.809,35.156,31.738,28.809,26.367,0
1542733838.182,-6.836,39.551,29.297,48.828,3.418,0
1542733838.186,26.855,38.086,28.320,7.324,-13.184,0
1542733838.190,60.059,38.086,31.250,39.062,12.695,0
1542733838.194,33.691,37.109,32.227,-2.930,34.180,0
1542733838.198,33.691,39.062,28.809,-109.375,95.215,0
1542733838.202,28.809,32.715,24.902,-102.051,94.238,0
1542733838.206,30.273,29.297,24.902,-82.031,55.664,0
1542733838.210,38.086,33.691,28.320,-20.996,45.898,0
1542733838.214,9.766,29.785,35.156,-11.230,31.738,0
1542733838.218,-4.883,28.320,36.133,-0.488,36.621,0
1542733838.221,5.371,27.344,41.016,52.734,54.688,0
1542733838.225,21.973,22.461,48.828,73.242,54.688,0
1542733838.229,30.273,20.996,45.898,33.203,49.316,0
1542733838.233,2.930,20.508,43.945,53.711,-16.602,0
1542733838.237,7.324,24.902,37.598,60.547,-16.113,0
1542733838.241,37.109,29.297,30.762,53.711,-3.906,0
1542733838.245,38.574,29.297,33.691,71.777,10.254,0
1542733838.249,21.973,31.738,34.668,56.641,14.648,0
1542733838.253,18.066,28.320,28.320,69.824,-8.301,0
1542733838.257,9.277,16.113,33.203,15.137,-13.672,0
1542733838.260,16.113,18.066,39.062,-2.930,21.484,0
1542733838.264,32.227,26.855,35.645,65.430,47.363,0
1542733838.268,23.926,29.785,32.227,-24.414,31.738,0
1542733838.272,25.879,33.691,33.691,-141.113,34.180,0
1542733838.276,24.414,35.645,37.598,-108.887,20.508,0
1542733838.280,28.809,31.250,31.250,-41.992,42.969,0
1542733838.284,26.367,32.715,31.250,41.016,77.148,0
1542733838.288,31.250,36.621,38.574,82.031,38.574,0
1542733838.292,41.016,35.156,39.062,88.867,-10.742,0
1542733838.296,31.738,30.273,41.016,74.707,-39.062,0
1542733838.300,47.852,30.762,37.598,80.566,7.812,0
1542733838.303,39.062,39.551,37.598,86.914,62.012,0
1542733838.307,16.113,38.574,38.086,92.773,27.832,0
1542733838.311,13.184,33.691,35.156,98.633,12.695,0
1542733838.315,22.461,31.738,32.715,81.543,27.832,0
1542733838.319,45.410,28.809,31.738,68.848,13.184,0
1542733838.323,42.480,33.203,32.715,35.645,-13.672,0
1542733838.327,17.578,42.969,36.621,1.953,27.832,0
1542733838.331,8.789,43.945,39.062,20.020,94.727,0
1542733838.335,29.785,33.203,38.086,46.387,63.965,0
1542733838.339,38.086,26.367,38.086,70.312,12.695,0
1542733838.343,19.531,34.668,37.109,87.891,31.738,0
1542733838.346,31.738,36.133,33.203,55.176,38.574,0
1542733838.350,44.922,29.297,33.691,33.691,56.152,0
1542733838.354,38.086,27.344,37.109,43.945,88.867,0
1542733838.358,28.320,35.156,37.598,52.246,38.086,0
1542733838.362,31.250,43.457,34.668,12.695,27.832,0
1542733838.366,41.504,40.527,36.133,2.930,45.898,0
1542733838.370,46.875,37.109,38.086,39.062,-13.672,0
1542733838.374,14.160,30.273,35.645,34.668,10.254,0
1542733838.378,14.648,27.832,36.621,48.828,16.113,0
1542733838.382,52.246,35.156,41.016,86.426,-7.324,0
1542733838.385,29.785,39.062,41.992,75.195,70.801,0
1542733838.389,24.414,39.062,40.039,47.363,63.477,0
1542733838.393,38.086,35.156,42.969,13.672,-17.578,0
1542733838.397,27.344,41.016,34.180,-38.086,4.395,0
1542733838.401,34.668,39.062,31.738,-65.430,0.488,0
1542733838.405,35.645,32.715,37.598,-36.621,-13.672,0
1542733838.409,20.020,38.086,33.203,26.855,3.418,0
1542733838.413,26.367,41.992,32.227,38.574,11.719,0
1542733838.417,35.156,40.039,36.621,59.082,-5.859,0
1542733838.421,28.320,41.016,38.574,87.402,14.160,0
1542733838.425,22.949,37.598,37.109,81.543,51.758,0
1542733838.428,24.414,32.715,39.551,69.824,10.742,0
1542733838.432,29.785,34.668,44.922,67.383,6.348,0
1542733838.436,28.809,34.668,40.527,71.289,-18.555,0
1542733838.440,24.902,30.762,32.227,74.707,-0.488,0
1542733838.444,6.348,29.785,37.109,63.477,48.340,0
1542733838.448,15.137,30.762,43.945,62.988,-0.977,0
1542733838.452,44.434,27.832,42.969,60.547,13.184,0
1542733838.456,38.086,34.668,38.574,88.379,62.500,0
1542733838.460,51.270,42.480,37.598,55.176,15.625,0
1542733838.464,34.668,39.062,39.062,2.930,-15.625,0
1542733838.468,30.762,41.016,37.598,56.641,4.395,0
1542733838.471,50.293,46.875,31.738,51.270,10.742,0
1542733838.475,26.855,42.969,39.062,31.250,-6.348,0
1542733838.479,23.926,35.645,49.316,3.906,8.301,0
1542733838.483,42.480,38.086,41.016,-33.691,60.059,0
1542733838.487,30.273,40.527,31.738,-10.254,84.473,0
1542733838.491,23.926,36.133,30.762,19.043,20.996,0
1542733838.495,39.062,32.715,29.785,30.273,-40.039,0
1542733838.499,32.227,31.738,32.227,2.441,-14.648,0
1542733838.503,15.137,30.762,33.691,-10.742,-29.297,0
1542733838.507,32.715,31.250,31.738,-23.926,0.000,0
1542733838.510,52.734,34.180,33.691,-9.277,34.668,0
1542733838.514,45.898,36.621,38.086,-52.734,37.598,0
1542733838.518,17.090,33.203,41.992,-166.992,-0.488,0
1542733838.522,17.090,32.227,39.551,-398.926,-20.996,0
1542733838.526,24.902,25.879,40.039,-382.324,60.547,0
1542733838.530,19.531,27.344,41.992,-118.652,-8.301,0
1542733838.534,30.273,32.227,37.598,-20.020,-9.766,0
1542733838.538,33.691,28.809,37.598,-32.227,57.129,0
1542733838.542,14.160,28.320,36.133,-19.531,10.254,0
1542733838.546,18.555,33.203,26.367,-16.602,57.617,0
1542733838.550,40.527,35.156,28.320,-5.371,87.402,0
1542733838.553,22.949,32.227,39.062,55.176,48.340,0
1542733838.557,19.043,31.250,39.551,65.430,54.688,0
1542733838.561,41.992,35.645,36.133,79.102,66.895,0
1542733838.565,42.480,36.133,36.621,-12.695,19.531,0
1542733838.569,7.812,33.203,37.598,-40.039,17.578,0
1542733838.573,32.715,42.969,31.250,61.523,45.898,0
1542733838.577,55.664,41.016,28.809,44.434,33.203,0
1542733838.581,1.465,28.809,36.621,17.090,51.758,0
1542733838.585,-6.836,27.832,38.574,41.016,88.867,0
1542733838.589,46.387,28.809,39.551,78.613,62.988,0
1542733838.593,36.133,30.273,40.039,64.453,61.523,0
1542733838.596,10.254,38.574,32.227,46.387,49.316,0
1542733838.600,30.273,41.504,27.832,43.945,30.762,0
1542733838.604,41.992,29.297,34.180,44.434,29.297,0
1542733838.608,47.852,26.855,38.574,81.055,15.137,0
1542733838.612,24.902,32.227,39.062,95.215,68.848,0
1542733838.616,8.301,34.668,29.785,95.703,87.891,0
1542733838.620,12.695,31.250,22.949,52.246,14.160,0
1542733838.624,10.742,28.320,33.203,55.176,29.297,0
1542733838.628,11.230,32.715,37.598,70.801,54.688,0
1542733838.632,29.297,36.621,37.109,52.246,12.207,0
1542733838.635,28.809,35.645,34.668,49.805,40.039,0
1542733838.639,21.973,31.738,26.367,21.484,0.977,0
1542733838.643,24.902,32.715,27.344,11.719,-6.836,0
1542733838.647,34.180,34.668,30.273,47.363,5.371,0
1542733838.651,20.996,36.133,37.109,8.789,-15.137,0
1542733838.655,18.066,35.156,40.527,-46.875,15.625,0
1542733838.659,46.875,31.250,36.621,29.297,8.789,0
1542733838.663,29.297,26.367,30.273,62.012,32.715,0
1542733838.667,30.273,36.621,25.391,-38.086,23.438,0
1542733838.671,27.832,45.410,27.832,-190.918,26.855,0
1542733838.675,56.641,42.969,28.809,-192.871,34.180,0
1542733838.678,69.336,37.598,22.949,-77.148,-4.395,0
1542733838.682,3.906,28.320,27.344,-13.184,3.906,0
1542733838.686,19.531,32.227,34.180,39.551,6.836,0
1542733838.690,32.715,33.203,31.738,89.355,-3.906,0
1542733838.694,15.137,30.273,35.156,107.910,25.879,0
1542733838.698,20.996,39.551,36.133,101.074,10.742,0
1542733838.702,19.531,39.062,32.715,88.379,45.898,0
1542733838.706,22.949,36.621,30.273,94.727,23.926,0
1542733838.710,42.480,46.387,26.367,113.770,-44.922,0
1542733838.714,41.992,40.527,26.855,104.492,-33.203,0
1542733838.718,28.809,32.715,32.715,53.711,-23.438,0
1542733838.721,6.348,30.762,35.156,53.223,69.824,0
1542733838.725,-4.883,27.344,35.156,67.871,53.223,0
1542733838.729,20.508,28.320,33.203,19.043,20.508,0
1542733838.733,30.273,33.691,32.227,-0.488,11.719,0
1542733838.737,44.922,36.133,32.715,10.254,10.742,0
1542733838.741,29.785,24.902,33.203,36.133,48.828,0
1542733838.745,4.883,24.414,31.738,31.738,32.715,0
1542733838.749,29.297,37.598,26.367,26.855,50.293,0
1542733838.753,43.457,38.086,27.344,71.289,24.414,0
1542733838.757,27.344,38.086,28.809,72.754,-5.859,0
1542733838.760,38.086,36.133,30.762,33.691,55.176,0
1542733838.764,41.016,33.203,32.227,45.410,59.082,0
1542733838.768,45.410,37.598,27.344,67.383,18.066,0
1542733838.772,28.320,37.598,26.855,35.156,14.648,0
1542733838.776,8.789,36.621,30.762,17.578,-10.742,0
1542733838.780,21.973,37.598,28.320,34.180,3.418,0
1542733838.784,58.105,37.598,31.250,33.691,23.438,0
1542733838.788,68.848,41.504,35.645,19.043,0.977,0
1542733838.792,27.344,42.480,31.250,3.906,26.855,0
1542733838.796,12.207,35.156,34.180,6.348,23.438,0
1542733838.800,21.973,28.320,38.086,-5.859,-9.277,0
1542733838.803,15.137,28.320,29.297,-14.648,-4.883,0
1542733838.807,37.109,32.715,21.484,-7.324,45.898,0
1542733838.811,56.152,35.645,26.855,-28.809,54.688,0
1542733838.815,41.992,41.992,29.297,-15.625,50.781,0
1542733838.819,10.742,44.434,20.508,2.441,64.941,0
1542733838.823,26.855,34.180,21.484,-59.082,39.551,0
1542733838.827,61.035,31.250,30.762,-120.117,-7.324,0
1542733838.831,49.805,35.645,26.855,-96.191,-35.156,0
1542733838.835,36.133,39.062,25.391,-82.520,-10.254,0
1542733838.839,38.086,42.480,25.879,-73.730,0.488,0
1542733838.843,43.945,38.086,29.297,-11.230,-22.949,0
1542733838.846,26.367,27.344,36.133,32.227,6.836,0
1542733838.850,37.598,30.273,31.738,48.828,27.344,0
1542733838.854,47.852,30.762,30.762,-0.488,32.227,0
1542733838.858,25.391,28.320,34.180,-45.898,86.426,0
1542733838.862,31.250,39.062,27.832,-14.160,55.664,0
1542733838.866,52.246,36.621,33.691,33.691,12.207,0
1542733838.870,33.691,32.227,37.598,51.270,59.082,0
1542733838.874,19.043,44.922,23.926,14.648,46.387,0
1542733838.878,53.711,43.457,23.438,-5.371,39.551,0
1542733838.882,75.195,36.621,29.297,32.227,36.133,0
1542733838.885,34.180,33.203,27.832,62.988,14.160,0
1542733838.889,6.348,26.855,25.879,19.043,-13.184,0
1542733838.893,22.461,29.785,24.902,8.301,10.742,0
1542733838.897,43.457,34.180,29.785,57.617,36.133,0
1542733838.901,57.129,30.273,32.715,99.609,63.477,0
1542733838.905,33.691,16.602,36.133,73.242,43.945,0
1542733838.909,11.719,20.996,27.344,41.016,-29.785,0
1542733838.913,18.066,32.227,20.020,49.316,-8.789,0
1542733838.917,64.453,32.715,34.668,57.129,28.809,0
1542733838.921,46.387,28.320,40.039,74.219,18.066,0
1542733838.925,-3.418,27.832,37.109,59.082,-15.625,0
1542733838.928,4.395,36.133,28.320,4.883,16.113,0
1542733838.932,-3.906,32.715,22.949,-18.066,53.223,0
1542733838.936,32.227,26.367,26.367,-53.223,66.895,0
1542733838.940,58.594,27.344,35.156,-28.320,45.898,0
1542733838.944,30.762,30.273,42.480,4.883,-9.277,0
1542733838.948,4.395,37.109,32.715,-43.945,7.324,0
1542733838.952,6.348,34.668,37.109,8.301,-4.883,0
1542733838.956,18.066,27.344,40.527,-12.695,19.531,0
1542733838.960,23.926,26.367,33.203,-86.914,-4.395,0
1542733838.964,44.922,30.762,33.203,-33.203,-14.648,0
1542733838.968,39.551,29.785,31.250,-3.906,-8.301,0
1542733838.971,-4.395,31.738,34.668,-33.691,3.906,0
1542733838.975,31.250,36.133,37.109,-86.914,25.391,0
1542733838.979,62.988,36.133,37.598,-177.734,0.488,0
1542733838.983,33.203,34.180,34.180,-190.918,45.898,0
1542733838.987,12.207,32.715,23.926,-151.855,33.203,0
1542733838.991,12.207,31.738,28.809,-79.590,-30.762,0
1542733838.995,21.973,29.297,35.156,-14.648,24.902,0
1542733838.999,16.113,25.391,35.645,-41.504,64.941,0
1542733839.003,27.832,25.391,37.598,-27.344,53.223,0
1542733839.007,24.414,34.668,39.551,55.176,83.008,0
1542733839.010,7.324,35.645,36.133,38.086,65.918,0
1542733839.014,20.996,34.668,29.785,65.918,59.570,0
1542733839.018,38.574,36.133,30.762,98.633,50.781,0
1542733839.022,12.207,28.320,28.809,78.613,51.758,0
1542733839.026,16.113,31.738,30.273,107.910,54.688,0
1542733839.030,59.570,41.016,39.551,152.832,22.949,0
1542733839.034,39.062,39.551,41.504,163.086,7.324,0
1542733839.038,12.695,27.832,34.668,134.277,-11.230,0
1542733839.042,21.484,30.762,24.414,34.668,0.000,0
1542733839.046,14.160,37.109,26.855,-45.410,22.461,0
1542733839.050,22.461,31.738,26.367,-4.395,16.602,0
1542733839.053,52.734,40.527,32.715,43.457,63.965,0
1542733839.057,33.203,41.992,34.668,77.637,100.098,0
1542733839.061,23.438,39.062,27.344,105.469,84.961,0
1542733839.065,20.020,35.645,26.855,110.352,68.359,0
1542733839.069,20.020,31.250,35.156,149.902,47.852,0
1542733839.073,62.988,36.621,40.039,166.992,46.387,0
1542733839.077,45.898,39.551,32.227,121.094,64.941,0
1542733839.081,-18.066,31.250,31.250,67.871,9.766,0
1542733839.085,-11.230,20.020,37.109,71.777,8.789,0
1542733839.089,9.766,20.508,42.480,104.004,85.938,0
1542733839.093,24.902,30.273,32.715,55.176,76.660,0
1542733839.096,27.344,32.715,26.367,20.020,39.062,0
1542733839.100,33.203,35.645,32.227,52.246,50.293,0
1542733839.104,33.691,32.227,35.156,61.523,63.965,0
1542733839.108,19.043,26.367,34.668,86.426,53.223,0
1542733839.112,15.625,31.738,32.715,79.590,27.344,0
1542733839.116,18.555,30.273,34.180,86.426,45.898,0
1542733839.120,20.020,27.832,32.227,90.820,57.617,0
1542733839.124,5.371,27.344,30.762,59.570,5.371,0
1542733839.128,24.902,28.809,34.180,83.008,3.906,0
1542733839.132,58.594,34.668,28.809,82.031,7.324,0
1542733839.135,34.180,34.668,21.973,76.172,3.906,0
1542733839.139,12.695,35.156,25.391,77.637,9.766,0
1542733839.143,16.602,33.691,28.809,43.457,5.371,0
1542733839.147,26.855,32.227,34.180,41.016,49.316,0
1542733839.151,28.320,36.133,35.645,82.520,42.480,0
1542733839.155,19.531,29.785,38.574,65.918,36.621,0
1542733839.159,27.832,19.531,41.992,42.480,60.059,0
1542733839.163,25.879,31.250,31.250,67.383,14.648,0
1542733839.167,21.973,28.320,21.484,43.945,4.395,0
1542733839.171,26.367,18.066,27.344,28.809,8.301,0
1542733839.175,-0.488,29.785,30.273,37.109,-8.301,0
1542733839.178,-19.531,39.551,24.902,7.324,-37.598,0
1542733839.182,2.930,35.156,23.926,-4.883,16.602,0
1542733839.186,44.434,36.133,23.926,28.809,12.207,0
1542733839.190,24.902,41.016,19.043,45.898,-56.641,0
1542733839.194,-10.254,41.992,16.113,1.953,-11.230,0
1542733839.198,-1.465,41.992,16.602,-18.066,18.555,0
1542733839.202,6.348,38.574,19.531,21.484,49.805,0
1542733839.206,30.273,29.785,23.438,33.203,48.828,0
1542733839.210,53.711,32.227,19.531,40.527,26.855,0
1542733839.214,4.883,33.203,18.555,37.109,49.805,0
1542733839.218,-3.418,31.250,15.137,-10.254,53.223,0
1542733839.221,47.363,36.621,17.090,7.324,61.035,0
1542733839.225,36.133,36.133,23.438,49.805,77.637,0
1542733839.229,14.648,33.203,27.344,53.711,44.434,0
1542733839.233,24.902,31.738,24.902,-28.320,62.012,0
1542733839.237,61.035,40.527,24.414,-85.449,63.965,0
1542733839.241,46.875,39.062,29.297,-43.457,23.438,0
1542733839.245,5.371,35.156,26.855,-22.461,-32.715,0
1542733839.249,13.184,42.969,24.414,-19.043,-9.766,0
1542733839.253,27.832,34.668,30.762,5.859,61.035,0
1542733839.257,31.250,35.645,35.645,27.832,6.348,0
1542733839.260,33.203,40.527,26.367,36.621,-16.113,0
1542733839.264,49.805,32.227,25.391,38.574,18.555,0
1542733839.268,59.570,35.645,34.180,24.414,14.160,0
1542733839.272,40.527,39.551,24.902,15.625,30.762,0
1542733839.276,54.688,35.645,25.391,-36.621,74.219,0
1542733839.280,40.527,37.598,30.273,-47.363,15.625,0
1542733839.284,38.086,33.691,19.531,14.160,23.438,0
1542733839.288,36.133,22.949,24.414,41.016,75.684,0
1542733839.292,19.043,22.461,37.598,44.434,11.230,0
1542733839.296,26.855,28.320,33.691,63.965,2.441,0
1542733839.300,15.137,25.391,29.297,61.523,73.242,0
1542733839.303,35.645,12.695,33.203,45.898,25.879,0
1542733839.307,41.016,15.137,37.109,54.688,7.324,0
1542733839.311,47.363,27.832,36.133,68.359,-8.789,0
1542733839.315,53.223,37.109,29.297,30.762,-20.020,0
1542733839.319,32.227,40.039,26.855,12.695,64.941,0
1542733839.323,11.230,34.180,27.832,42.480,84.961,0
1542733839.327,12.695,33.691,29.785,71.777,35.156,0
1542733839.331,28.809,33.203,34.668,64.453,66.406,0
1542733839.335,61.035,33.691,36.621,36.133,41.992,0
1542733839.339,46.875,35.645,41.016,45.898,27.344,0
1542733839.343,-3.906,36.133,32.715,43.457,15.625,0
1542733839.346,11.230,36.133,23.926,34.668,-16.113,0
1542733839.350,23.926,30.762,27.832,37.598,35.156,0
1542733839.354,40.527,25.879,28.320,16.602,18.066,0
1542733839.358,70.801,29.297,34.668,3.906,-8.301,0
1542733839.362,78.125,34.180,38.574,43.457,5.371,0
1542733839.366,43.945,30.762,35.645,48.340,45.898,0
1542733839.370,-9.766,27.832,27.344,-25.879,68.848,0
1542733839.374,9.766,31.738,30.273,-30.762,81.055,0
1542733839.378,40.039,30.762,36.133,-65.918,87.891,0
1542733839.382,19.531,29.785,31.738,-75.195,22.461,0
1542733839.385,23.926,30.273,32.227,-102.539,24.902,0
1542733839.389,33.691,30.762,32.715,-165.039,15.625,0
1542733839.393,17.090,28.320,32.715,-126.953,-20.996,0
1542733839.397,85.449,33.203,33.691,-42.480,-23.926,0
1542733839.401,70.312,38.574,25.879,37.598,-20.020,0
1542733839.405,-11.230,38.086,26.367,40.527,3.418,0
1542733839.409,-0.977,36.621,39.062,11.719,48.340,0
1542733839.413,-10.742,30.762,44.434,5.859,41.992,0
1542733839.417,-25.879,21.973,45.410,-29.785,34.180,0
1542733839.421,-26.855,19.531,46.875,-64.453,92.773,0
1542733839.425,-32.715,26.855,34.180,-69.824,65.918,0
1542733839.428,-19.531,21.484,26.855,-88.379,41.992,0
1542733839.432,-37.598,9.277,31.250,-53.223,85.938,0
1542733839.436,-74.707,16.602,26.367,-31.738,95.703,0
1542733839.440,-62.012,18.555,23.926,-26.367,92.285,0
1542733839.444,-21.973,17.578,25.879,-46.387,80.566,0
1542733839.448,-27.344,18.066,26.855,-20.020,56.641,0
1542733839.452,-16.113,19.043,25.391,34.668,60.059,0
1542733839.456,17.090,18.066,20.508,26.855,62.500,0
1542733839.460,0.000,21.484,15.625,45.898,11.719,0
1542733839.464,-14.160,25.879,17.090,75.684,19.531,0
1542733839.468,0.977,27.344,18.555,86.914,56.152,0
1542733839.471,10.254,23.926,19.531,66.406,26.855,0
1542733839.475,16.113,19.531,26.855,36.621,21.973,0
1542733839.479,12.207,22.461,30.273,28.809,50.781,0
1542733839.483,22.461,31.250,26.855,29.785,64.941,0
1542733839.487,40.527,29.297,18.066,19.531,83.984,0
1542733839.491,12.207,22.461,13.672,15.137,34.180,0
1542733839.495,0.488,23.438,20.508,24.414,32.715,0
1542733839.499,7.324,30.762,24.414,42.480,37.598,0
1542733839.503,3.418,31.738,26.367,43.945,2.930,0
1542733839.507,-11.719,32.227,22.461,29.297,39.551,0
1542733839.510,-22.949,30.762,24.414,56.641,-22.461,0
1542733839.514,1.465,28.809,25.391,55.664,-28.320,0
1542733839.518,29.785,33.691,22.461,55.664,74.219,0
1542733839.522,28.320,29.785,21.973,65.918,72.754,0
1542733839.526,25.391,27.832,21.973,37.109,36.133,0
1542733839.530,26.367,28.320,27.344,57.617,54.688,0
1542733839.534,-13.184,26.367,23.438,36.621,71.289,0
1542733839.538,-12.207,20.996,25.879,-15.625,99.121,0
1542733839.542,23.926,23.926,30.762,-13.184,90.820,0
1542733839.546,37.109,36.621,19.531,-39.062,83.496,0
1542733839.550,32.715,38.086,20.508,-58.594,102.539,0
1542733839.553,22.949,22.949,28.809,-61.523,83.984,0
1542733839.557,19.531,26.855,24.902,-31.738,51.758,0
1542733839.561,7.324,27.832,24.414,2.441,36.133,0
1542733839.565,20.508,17.090,27.832,7.812,69.824,0
1542733839.569,36.133,25.879,26.367,16.113,83.008,0
1542733839.573,8.789,29.785,31.250,36.133,22.461,0
1542733839.577,6.836,29.297,32.715,4.883,-0.488,0
1542733839.581,25.879,35.156,31.738,-14.648,-2.441,0
1542733839.585,26.855,36.133,29.785,29.297,-10.742,0
1542733839.589,20.508,33.203,30.273,31.250,-10.742,0
1542733839.593,33.203,32.227,30.762,52.734,-21.484,0
1542733839.596,44.922,37.598,29.297,72.266,-13.672,0
1542733839.600,19.531,37.109,35.156,86.914,6.348,0
1542733839.604,-2.930,25.391,34.180,118.652,-12.695,0
1542733839.608,27.344,26.367,34.180,96.191,-26.855,0
1542733839.612,36.621,30.762,37.598,75.684,16.602,0
1542733839.616,45.410,27.832,35.156,92.773,37.109,0
1542733839.620,50.293,25.391,30.273,85.938,5.371,0
1542733839.624,34.180,33.691,24.414,70.312,-5.371,0
1542733839.628,18.066,34.668,27.344,89.844,1.465,0
1542733839.632,25.879,31.738,33.691,55.176,23.438,0
1542733839.635,33.691,34.668,32.715,14.648,51.758,0
1542733839.639,7.324,32.227,30.762,22.949,22.949,0
1542733839.643,18.555,31.738,37.109,56.152,28.320,0
1542733839.647,37.109,33.691,37.109,40.039,80.566,0
1542733839.651,38.574,25.391,28.809,2.441,72.754,0
1542733839.655,42.480,26.855,24.902,4.883,30.273,0
1542733839.659,42.969,31.250,25.879,1.953,39.062,0
1542733839.663,46.387,35.156,25.879,27.832,59.082,0
1542733839.667,12.695,35.156,30.273,51.758,42.969,0
1542733839.671,10.254,25.879,28.809,52.734,24.414,0
1542733839.675,51.758,38.086,22.461,63.477,23.926,0
1542733839.678,51.270,42.969,20.996,15.625,38.574,0
1542733839.682,56.152,36.621,25.879,16.602,6.348,0
1542733839.686,28.320,26.367,33.203,54.688,-16.113,0
1542733839.690,12.207,28.809,33.203,62.500,52.246,0
1542733839.694,33.203,33.203,31.738,36.621,30.762,0
1542733839.698,25.879,23.926,30.762,1.953,42.969,0
1542733839.702,50.781,27.832,34.668,30.273,60.059,0
1542733839.706,54.688,35.645,37.109,35.645,-14.648,0
1542733839.710,26.855,38.574,33.691,-3.906,-38.086,0
1542733839.714,-1.953,39.062,32.715,-27.344,-41.504,0
1542733839.718,3.418,36.133,35.156,-25.391,10.742,0
1542733839.721,30.273,36.621,33.203,-15.625,1.953,0
1542733839.725,30.273,40.527,35.645,-13.184,-40.527,0
1542733839.729,4.883,30.273,43.945,-5.859,-40.039,0
1542733839.733,9.766,17.578,44.922,-3.906,-15.137,0
1542733839.737,22.461,26.367,34.180,-3.906,27.344,0
1542733839.741,0.488,44.922,22.949,-25.879,65.430,0
1542733839.745,7.324,44.922,22.949,-12.207,45.898,0
1542733839.749,4.883,37.598,29.785,35.645,20.020,0
1542733839.753,14.648,39.062,30.762,45.410,53.711,0
1542733839.757,38.574,38.574,32.715,59.570,35.645,0
1542733839.760,20.020,40.039,33.203,57.617,57.617,0
1542733839.764,10.254,41.992,27.344,37.598,44.922,0
1542733839.768,15.137,41.016,31.738,51.758,-5.859,0
1542733839.772,25.879,43.945,36.621,58.105,-1.953,0
1542733839.776,40.527,32.227,39.551,27.344,35.645,0
1542733839.780,34.668,31.250,40.039,11.230,54.199,0
1542733839.784,62.012,40.039,39.062,-28.809,44.922,0
1542733839.788,57.617,34.668,39.551,-35.156,81.543,0
1542733839.792,30.762,42.969,42.480,-110.352,64.941,0
1542733839.796,61.035,51.758,41.992,-175.781,52.246,0
1542733839.800,74.707,49.805,34.180,-107.910,75.684,0
1542733839.803,56.641,38.574,36.621,-43.945,59.570,0
1542733839.807,38.574,36.621,32.227,-24.414,52.246,0
1542733839.811,39.551,48.828,32.715,-45.898,7.812,0
1542733839.815,56.152,42.969,37.598,-39.551,40.039,0
1542733839.819,50.781,43.457,31.738,-118.652,54.199,0
1542733839.823,63.477,43.457,38.086,-221.191,54.199,0
1542733839.827,50.293,36.621,38.086,-188.965,59.082,0
1542733839.831,53.711,32.227,37.109,-80.566,60.547,0
1542733839.835,80.566,37.598,30.762,-44.434,52.246,0
1542733839.839,94.727,42.480,20.020,-84.961,16.113,0
1542733839.843,48.340,40.527,25.391,-54.199,-5.371,0
1542733839.846,36.133,34.668,35.156,-41.016,-9.277,0
1542733839.850,54.199,30.273,39.551,-66.895,15.625,0
1542733839.854,26.367,39.062,30.762,-47.363,27.832,0
1542733839.858,34.180,37.598,29.297,11.230,23.926,0
1542733839.862,62.012,29.785,34.180,22.461,20.996,0
1542733839.866,75.195,41.504,25.879,6.348,-24.414,0
1542733839.870,36.621,35.645,31.738,18.555,-24.902,0
1542733839.874,23.438,25.391,35.156,38.574,0.488,0
1542733839.878,71.777,41.016,37.109,48.340,-33.691,0
1542733839.882,62.500,44.922,34.180,65.430,-49.316,0
1542733839.885,17.578,37.109,33.691,72.266,39.551,0
1542733839.889,52.734,32.715,42.969,59.570,111.328,0
1542733839.893,61.523,34.180,35.156,39.551,28.320,0
1542733839.897,44.434,36.133,31.250,-5.371,-11.230,0
1542733839.901,42.480,41.504,28.320,-15.625,26.855,0
1542733839.905,47.363,35.156,20.020,0.488,50.293,0
1542733839.909,40.527,27.344,26.855,11.230,46.387,0
1542733839.913,12.207,7.324,31.250,28.809,3.906,0
1542733839.917,29.297,7.324,27.344,20.020,-61.035,0
1542733839.921,54.688,32.715,28.320,3.418,-67.383,0
1542733839.925,54.688,42.480,32.715,7.324,-30.273,0
1542733839.928,61.523,46.387,35.645,3.418,-22.949,0
1542733839.932,34.668,39.062,39.062,21.973,-28.320,0
1542733839.936,19.531,29.785,46.387,34.668,-25.391,0
1542733839.940,26.367,37.109,40.527,24.902,-6.348,0
1542733839.944,21.484,37.109,28.809,27.832,-40.039,0
1542733839.948,38.086,30.762,30.762,-1.953,-22.949,0
1542733839.952,40.527,30.762,30.762,-2.441,8.301,0
1542733839.956,34.668,34.668,26.367,1.465,22.461,0
1542733839.960,52.734,30.273,28.320,20.996,26.855,0
1542733839.964,30.273,23.926,35.156,16.602,29.785,0
1542733839.968,18.066,18.066,41.992,-27.832,52.246,0
1542733839.971,14.648,11.719,40.039,-13.672,98.633,0
1542733839.975,15.137,26.855,26.367,14.160,106.445,0
1542733839.979,20.020,35.645,21.973,24.414,23.438,0
1542733839.983,26.367,26.855,35.645,29.297,9.277,0
1542733839.987,50.781,32.715,39.551,33.691,41.016,0
1542733839.991,26.367,39.062,38.086,7.324,62.012,0
1542733839.995,-4.395,38.086,37.109,29.785,36.133,0
1542733839.999,16.113,31.738,32.715,23.438,36.133,0
1542733840.003,10.254,27.344,34.180,-1.953,41.992,0
1542733840.007,17.090,26.855,35.156,3.906,12.695,0
1542733840.010,36.133,33.203,31.250,-15.137,-38.574,0
1542733840.014,23.926,29.785,30.762,-17.578,-30.762,0
1542733840.018,42.480,24.414,30.273,-6.348,38.086,0
1542733840.022,29.297,30.273,28.809,-11.230,45.410,0
1542733840.026,14.648,32.715,35.645,-2.441,15.137,0
1542733840.030,57.129,33.203,38.574,17.578,30.762,0
1542733840.034,53.223,28.809,32.227,-4.395,28.320,0
1542733840.038,21.484,30.273,36.133,-23.438,83.496,0
1542733840.042,34.668,39.551,41.016,5.859,66.895,0
1542733840.046,45.898,42.480,39.062,-1.465,11.719,0
1542733840.050,21.973,41.992,40.039,-1.953,53.223,0
1542733840.053,16.113,35.645,44.434,15.137,89.844,0
1542733840.057,51.758,29.785,46.875,-122.070,80.566,0
1542733840.061,39.551,27.344,36.621,-312.012,14.648,0
1542733840.065,19.043,33.203,26.367,-321.289,8.301,0
1542733840.069,37.598,44.434,30.762,-252.930,4.395,0
1542733840.073,17.578,44.922,39.062,-224.609,48.828,0
1542733840.077,35.156,37.109,39.551,-215.820,80.566,0
1542733840.081,36.621,23.438,42.969,-216.309,53.223,0
1542733840.085,20.996,37.598,40.039,-223.145,43.945,0
1542733840.089,39.062,53.223,29.785,-248.535,18.066,0
1542733840.093,30.273,52.734,24.414,-215.820,46.875,0
1542733840.096,0.977,45.410,22.461,-166.504,35.156,0
1542733840.100,-6.836,41.992,22.949,-168.457,51.270,0
1542733840.104,14.648,53.711,20.508,-120.117,93.750,0
1542733840.108,47.852,59.570,17.090,-70.312,52.246,0
1542733840.112,39.551,47.852,18.066,-36.133,62.012,0
1542733840.116,2.441,30.762,27.832,-23.926,72.754,0
1542733840.120,23.438,29.785,34.668,-62.500,31.738,0
1542733840.124,64.941,43.457,24.414,-69.336,47.852,0
1542733840.128,42.480,53.223,25.879,-21.973,48.340,0
1542733840.132,9.766,50.781,29.785,14.160,19.043,0
1542733840.135,15.625,46.875,27.832,53.223,37.598,0
1542733840.139,36.133,47.363,23.438,78.125,33.691,0
1542733840.143,51.758,46.875,20.996,52.246,5.859,0
1542733840.147,34.668,47.363,24.902,21.484,21.973,0
1542733840.151,26.367,41.504,34.180,67.871,35.156,0
1542733840.155,21.484,34.180,38.086,106.934,55.664,0
1542733840.159,41.504,35.156,38.086,118.652,12.695,0
1542733840.163,54.688,36.621,25.879,111.816,-1.465,0
1542733840.167,13.184,40.039,14.648,104.492,22.461,0
1542733840.171,44.434,36.133,27.344,103.516,-0.977,0
1542733840.175,58.105,35.156,32.227,67.383,-5.371,0
1542733840.178,26.855,33.203,28.809,33.203,11.230,0
1542733840.182,24.414,31.738,23.926,14.648,33.203,0
1542733840.186,40.527,34.668,24.414,74.219,58.105,0
1542733840.190,30.762,22.949,34.180,149.414,68.359,0
1542733840.194,32.227,27.832,27.344,143.555,63.477,0
1542733840.198,29.297,35.645,20.508,128.906,31.738,0
1542733840.202,16.113,27.344,27.344,132.812,37.598,0
1542733840.206,45.898,31.250,25.879,121.094,25.391,0
1542733840.210,53.711,31.250,24.902,103.027,18.555,0
1542733840.214,60.059,26.367,37.109,128.906,-3.906,0
1542733840.218,35.156,38.086,37.109,71.777,-19.531,0
1542733840.221,2.441,35.156,39.062,62.988,28.320,0
1542733840.225,12.207,23.438,44.922,117.676,32.227,0
1542733840.229,27.832,36.621,36.621,75.195,19.043,0
1542733840.233,35.645,40.527,32.715,63.477,10.742,0
1542733840.237,15.137,35.645,32.227,15.625,-11.719,0
1542733840.241,45.410,42.480,29.297,-23.926,8.789,0
1542733840.245,44.434,41.016,31.738,53.223,-32.227,0
1542733840.249,41.992,41.992,27.832,79.590,-26.367,0
1542733840.253,45.410,50.781,28.809,69.336,43.945,0
1542733840.257,11.230,37.598,40.039,56.641,54.688,0
1542733840.260,44.434,27.832,35.156,20.508,73.242,0
1542733840.264,51.758,44.922,22.461,95.703,81.543,0
1542733840.268,6.836,41.016,27.344,-119.629,73.730,0
1542733840.272,2.441,29.785,34.180,-344.238,29.297,0
1542733840.276,25.391,32.715,33.203,-168.945,-16.113,0
1542733840.280,33.691,29.297,30.762,-16.113,-30.273,0
1542733840.284,47.852,31.738,32.227,70.312,-18.555,0
1542733840.288,46.875,39.551,39.062,91.309,-21.484,0
1542733840.292,33.691,50.293,30.273,99.609,-34.668,0
1542733840.296,-8.789,49.805,27.344,125.000,-11.230,0
1542733840.300,-24.414,44.922,36.133,164.551,54.199,0
1542733840.303,4.395,39.551,32.715,208.984,56.152,0
1542733840.307,30.762,33.691,36.133,197.266,27.832,0
1542733840.311,48.340,38.574,40.527,180.176,68.848,0
1542733840.315,19.043,51.758,36.621,140.137,22.949,0
1542733840.319,-5.371,63.965,38.574,105.957,-9.766,0
1542733840.323,5.371,52.246,35.156,136.230,34.180,0
1542733840.327,7.812,28.320,45.898,138.672,11.230,0
1542733840.331,-12.207,15.625,63.965,178.223,-24.902,0
1542733840.335,-43.945,23.438,62.012,41.504,24.414,0
1542733840.339,-58.594,46.387,59.570,-316.895,18.555,0
1542733840.343,-43.945,49.316,70.312,-272.461,35.156,0
1542733840.346,-84.473,47.363,88.379,-58.105,63.965,0
1542733840.350,-125.000,46.387,104.980,-25.391,89.355,0
1542733840.354,-113.281,37.109,116.699,-16.113,35.645,0
1542733840.358,-130.859,34.180,126.465,-14.160,-23.926,0
1542733840.362,-177.246,29.297,131.836,-21.973,47.363,0
1542733840.366,-184.570,40.039,130.859,-43.945,73.242,0
1542733840.370,-213.379,50.781,138.672,-102.051,69.336,0
1542733840.374,-229.004,31.250,147.461,-98.145,39.551,0
1542733840.378,-207.520,32.715,141.113,-67.383,18.066,0
1542733840.382,-190.430,45.898,134.277,-122.070,43.457,0
1542733840.385,-173.340,35.645,128.906,-128.418,98.145,0
1542733840.389,-167.969,36.621,126.953,-84.961,86.914,0
1542733840.393,-170.898,37.598,127.441,-58.105,20.996,0
1542733840.397,-151.855,41.504,110.352,-24.414,43.457,0
1542733840.401,-113.770,41.992,103.516,1.465,58.105,0
1542733840.405,-110.840,40.527,99.121,9.277,25.879,0
1542733840.409,-77.148,48.828,83.984,3.906,28.320,0
1542733840.413,-46.387,47.363,70.801,14.160,25.879,0
1542733840.417,-59.570,30.762,71.289,71.777,39.062,0
1542733840.421,-15.625,30.762,64.453,111.328,68.359,0
1542733840.425,19.043,39.062,48.340,107.422,50.293,0
1542733840.428,13.672,35.156,33.203,110.840,8.789,0
1542733840.432,22.949,36.133,20.508,119.141,-2.441,0
1542733840.436,42.969,31.250,23.926,149.414,-12.695,0
1542733840.440,56.152,26.855,27.344,150.879,20.020,0
1542733840.444,56.641,30.273,25.879,142.090,53.711,0
1542733840.448,56.152,34.180,15.625,151.855,33.691,0
1542733840.452,73.242,33.203,-2.441,149.414,19.043,0
1542733840.456,109.375,27.344,0.977,173.340,38.574,0
1542733840.460,99.609,25.391,2.930,172.363,43.457,0
1542733840.464,84.961,23.438,-9.766,181.641,54.199,0
1542733840.468,101.562,30.273,-6.836,193.359,58.105,0
1542733840.471,71.777,23.926,-0.488,173.340,34.668,0
1542733840.475,56.641,20.508,-5.859,178.711,0.488,0
1542733840.479,89.355,14.648,-5.371,168.457,-5.859,0
1542733840.483,115.234,10.742,-8.301,151.367,27.344,0
1542733840.487,105.957,26.855,-16.113,154.297,34.668,0
1542733840.491,67.383,26.367,-11.719,155.273,-30.762,0
1542733840.495,78.125,20.508,-13.672,138.672,-11.230,0
1542733840.499,102.539,33.203,-19.531,148.438,26.855,0
1542733840.503,84.961,34.180,-18.066,160.156,-4.883,0
1542733840.507,65.430,37.109,-26.855,145.020,13.184,0
1542733840.510,64.941,33.691,-19.531,133.789,30.762,0
1542733840.514,84.961,31.738,-9.766,145.996,34.180,0
1542733840.518,114.258,43.945,-14.648,140.137,12.207,0
1542733840.522,109.863,32.715,-6.348,123.535,34.180,0
1542733840.526,80.566,28.809,-11.719,142.090,54.199,0
1542733840.530,84.473,41.016,-20.508,142.578,-22.949,0
1542733840.534,92.773,32.227,-6.348,141.113,0.000,0
1542733840.538,83.984,26.855,-2.441,132.812,63.477,0
1542733840.542,78.613,31.738,-2.441,123.047,31.738,0
1542733840.546,87.891,31.250,3.906,115.234,33.203,0
1542733840.550,78.125,31.738,4.395,121.582,52.734,0
1542733840.553,70.801,33.691,2.930,123.535,60.059,0
1542733840.557,99.121,39.551,2.441,95.703,33.203,0
1542733840.561,70.801,34.668,0.488,106.934,70.801,0
1542733840.565,88.867,23.926,7.812,142.578,59.082,0
1542733840.569,111.328,23.926,16.602,154.785,24.414,0
1542733840.573,59.570,29.297,13.672,119.141,50.293,0
1542733840.577,53.711,28.809,16.602,117.676,34.180,0
1542733840.581,82.520,41.016,9.277,119.141,22.461,0
1542733840.585,76.172,47.363,1.953,105.957,11.230,0
1542733840.589,92.773,45.410,3.418,133.789,-12.695,0
1542733840.593,91.309,50.293,2.930,126.465,-2.441,0
1542733840.596,75.684,31.250,10.254,98.633,5.371,0
1542733840.600,52.734,23.926,16.602,105.957,34.180,0
1542733840.604,22.949,33.691,16.602,92.285,88.867,0
1542733840.608,56.152,23.926,20.508,101.074,83.008,0
1542733840.612,57.617,24.902,14.648,103.516,65.918,0
1542733840.616,60.547,26.367,6.348,89.355,20.996,0
1542733840.620,61.523,21.973,14.160,105.469,23.438,0
1542733840.624,76.172,38.086,16.113,113.770,35.156,0
1542733840.628,64.941,39.551,13.184,116.699,-16.602,0
1542733840.632,35.645,25.879,13.672,104.980,-59.570,0
1542733840.635,49.805,27.344,17.090,88.379,-66.406,0
1542733840.639,37.109,30.762,15.625,110.840,-16.113,0
1542733840.643,59.082,27.832,18.066,103.027,-52.734,0
1542733840.647,104.492,29.297,20.996,98.145,-32.715,0
1542733840.651,52.246,28.809,15.137,92.773,-21.973,0
1542733840.655,-15.137,26.855,22.461,75.684,-55.664,0
1542733840.659,36.621,26.367,31.738,110.840,14.160,0
1542733840.663,65.918,33.691,16.602,92.285,14.160,0
1542733840.667,18.555,27.832,12.695,75.684,35.645,0
1542733840.671,9.766,11.719,35.645,83.984,67.871,0
1542733840.675,40.039,19.043,27.832,76.172,76.172,0
1542733840.678,45.410,32.715,8.301,81.055,19.531,0
1542733840.682,55.176,26.855,17.578,69.824,-25.391,0
1542733840.686,44.922,28.320,31.250,95.703,-9.766,0
1542733840.690,23.926,27.832,33.691,96.680,28.809,0
1542733840.694,35.645,29.297,25.879,87.891,119.629,0
1542733840.698,39.551,29.785,21.973,91.309,80.566,0
1542733840.702,58.594,30.762,27.832,100.098,-11.230,0
1542733840.706,32.227,31.250,34.180,105.957,-21.973,0
1542733840.710,21.973,19.531,38.574,104.004,2.930,0
1542733840.714,44.434,29.785,35.156,93.750,0.000,0
1542733840.718,17.578,26.367,31.738,78.613,4.883,0
1542733840.721,37.109,22.461,31.738,65.430,30.762,0
1542733840.725,83.984,39.551,20.508,47.852,70.312,0
1542733840.729,58.594,37.598,20.020,69.336,26.855,0
1542733840.733,37.598,34.668,29.297,95.703,-16.113,0
1542733840.737,47.363,29.297,30.273,104.980,42.969,0
1542733840.741,22.461,22.949,31.250,95.703,40.039,0
1542733840.745,42.969,37.598,26.855,87.402,4.395,0
1542733840.749,73.730,46.387,26.367,102.539,32.227,0
1542733840.753,55.664,32.227,33.691,132.812,69.824,0
1542733840.757,40.039,22.461,30.273,130.859,39.551,0
1542733840.760,25.391,21.484,26.855,95.703,53.711,0
1542733840.764,18.555,34.668,25.391,91.309,44.434,0
1542733840.768,40.527,38.086,24.414,91.797,44.434,0
1542733840.772,72.754,44.434,19.531,78.613,70.312,0
1542733840.776,55.664,47.363,15.137,77.637,23.926,0
1542733840.780,19.531,33.691,36.133,110.840,0.488,0
1542733840.784,8.789,31.250,38.086,96.191,8.789,0
1542733840.788,26.855,35.645,17.090,49.805,13.184,0
1542733840.792,44.434,38.086,16.113,54.688,-6.836,0
1542733840.796,60.547,29.785,31.250,94.238,17.578,0
1542733840.800,71.777,24.414,35.156,110.352,59.570,0
1542733840.803,7.812,24.414,25.879,81.543,78.125,0
1542733840.807,-7.324,26.367,24.902,65.430,22.461,0
1542733840.811,18.555,31.250,28.320,87.402,-7.812,0
1542733840.815,27.832,26.855,23.926,70.312,18.555,0
1542733840.819,51.270,28.320,25.391,55.664,65.430,0
1542733840.823,76.660,39.551,21.973,51.758,52.734,0
1542733840.827,40.039,34.180,24.414,30.273,31.738,0
1542733840.831,-3.906,30.273,36.133,43.945,22.949,0
1542733840.835,29.785,30.273,31.738,48.340,11.230,0
1542733840.839,55.176,35.645,26.367,66.895,61.523,0
1542733840.843,47.852,58.594,18.066,43.457,78.613,0
1542733840.846,0.000,54.688,18.066,28.320,20.508,0
1542733840.850,-2.930,27.832,21.484,45.898,9.277,0
1542733840.854,27.344,18.555,25.391,22.461,18.066,0
1542733840.858,32.715,28.809,26.855,33.691,48.340,0
1542733840.862,24.414,37.598,27.832,37.598,49.805,0
1542733840.866,58.594,40.039,34.668,62.500,-34.180,0
1542733840.870,44.922,42.480,32.715,66.895,-30.762,0
1542733840.874,-3.906,38.086,31.738,48.828,26.367,0
1542733840.878,-3.906,36.621,29.785,33.691,0.488,0
1542733840.882,23.926,37.598,23.438,21.973,4.395,0
1542733840.885,23.926,38.574,19.531,34.668,43.457,0
1542733840.889,20.020,32.227,23.926,47.852,33.691,0
1542733840.893,43.457,31.738,23.438,77.148,24.902,0
1542733840.897,102.539,38.574,26.367,79.590,53.711,0
1542733840.901,103.516,37.598,31.250,81.543,47.852,0
1542733840.905,-21.484,27.832,17.578,41.504,34.668,0
1542733840.909,-52.246,20.508,16.602,14.648,8.301,0
1542733840.913,16.113,26.855,30.273,64.941,-10.742,0
1542733840.917,38.086,31.738,35.645,86.914,-2.441,0
1542733840.921,34.668,27.832,32.715,56.152,21.484,0
1542733840.925,33.203,31.738,36.133,43.457,22.949,0
1542733840.928,5.859,26.367,34.180,30.273,55.176,0
1542733840.932,10.254,33.691,26.367,57.129,87.891,0
1542733840.936,32.227,49.316,21.484,46.875,56.152,0
1542733840.940,51.270,33.691,28.320,23.438,34.668,0
1542733840.944,44.922,27.344,38.574,92.773,29.297,0
1542733840.948,2.441,39.551,24.902,48.828,-2.441,0
1542733840.952,-7.812,40.039,16.113,-17.090,-4.395,0
1542733840.956,28.809,29.297,29.297,30.273,21.973,0
1542733840.960,3.906,23.438,36.133,44.922,19.531,0
1542733840.964,6.836,32.227,23.926,55.664,-1.465,0
1542733840.968,34.668,36.621,20.996,50.781,6.836,0
1542733840.971,8.301,32.227,28.320,36.133,57.617,0
1542733840.975,-4.395,34.180,27.344,58.594,72.754,0
1542733840.979,29.785,36.621,28.809,24.414,78.125,0
1542733840.983,36.621,34.668,30.762,-14.160,85.938,0
1542733840.987,58.105,41.992,22.461,16.113,26.367,0
1542733840.991,35.645,30.762,25.391,-126.953,15.137,0
1542733840.995,-22.461,14.160,40.527,-186.523,45.898,0
1542733840.999,-0.488,27.832,44.922,-62.988,99.609,0
1542733841.003,40.039,46.875,43.457,10.742,104.980,0
1542733841.007,62.500,59.082,53.223,27.344,32.715,0
1542733841.010,-8.789,52.734,43.945,-49.316,25.391,0
1542733841.014,-58.594,50.293,34.668,-49.805,12.207,0
1542733841.018,-22.949,41.992,45.410,1.953,11.230,0
1542733841.022,-61.035,22.461,52.246,-9.766,5.859,0
1542733841.026,-117.188,32.227,56.641,-61.523,-49.316,0
1542733841.030,-83.496,58.594,62.988,-89.844,-44.434,0
1542733841.034,-117.188,59.082,77.637,-106.934,20.508,0
1542733841.038,-195.801,48.828,103.516,-114.746,35.156,0
1542733841.042,-207.520,50.781,116.211,-145.996,-11.719,0
1542733841.046,-218.262,60.059,120.117,-195.312,-61.523,0
1542733841.050,-266.113,75.195,129.883,-223.145,-16.602,0
1542733841.053,-286.621,83.496,134.277,-253.418,22.949,0
1542733841.057,-295.410,71.777,144.043,-289.062,27.832,0
1542733841.061,-286.133,62.988,153.809,-278.320,29.297,0
1542733841.065,-286.621,62.988,152.344,-290.527,33.203,0
1542733841.069,-279.297,56.641,154.785,-294.434,50.293,0
1542733841.073,-248.535,49.805,151.855,-339.355,-26.855,0
1542733841.077,-234.863,52.734,146.484,-384.277,-25.879,0
1542733841.081,-239.258,53.223,139.648,-308.594,17.090,0
1542733841.085,-221.680,48.828,131.348,-231.445,-9.766,0
1542733841.089,-180.664,40.527,116.699,-172.363,31.738,0
1542733841.093,-158.691,31.738,94.727,-108.887,26.855,0
1542733841.096,-107.422,26.367,83.984,-74.219,21.484,0
1542733841.100,-61.523,20.996,76.660,-44.434,49.805,0
1542733841.104,-37.598,24.414,62.500,-22.461,38.086,0
1542733841.108,-4.395,27.832,52.246,-5.371,53.223,0
1542733841.112,2.441,22.949,46.387,31.250,0.488,0
1542733841.116,45.898,12.207,44.434,66.406,-15.137,0
1542733841.120,78.613,2.930,34.180,47.852,19.043,0
1542733841.124,78.613,1.953,20.020,57.617,-12.695,0
1542733841.128,85.449,8.301,11.719,102.539,20.020,0
1542733841.132,110.840,19.043,5.371,121.094,36.621,0
1542733841.135,117.188,13.672,2.930,137.207,23.438,0
1542733841.139,85.938,4.883,-5.371,137.695,79.102,0
1542733841.143,98.145,2.441,-5.859,168.945,131.348,0
1542733841.147,115.234,3.418,-2.930,198.242,94.727,0
1542733841.151,124.512,11.230,-5.371,189.453,57.129,0
1542733841.155,145.508,11.230,-7.324,199.219,12.695,0
1542733841.159,153.320,10.254,-15.137,210.449,13.184,0
1542733841.163,157.715,17.090,-12.207,211.426,42.480,0
1542733841.167,127.441,18.555,-7.324,170.898,54.199,0
1542733841.171,115.234,11.719,-16.113,129.395,62.500,0
