timestamps,TP9,AF7,AF8,TP10,Right AUX,Marker0
1553806395.278,-12.207,38.574,10.742,1.953,28.809,0
1553806395.282,12.695,45.898,12.207,28.809,15.625,0
1553806395.286,15.625,53.223,16.602,14.648,-14.160,0
1553806395.290,-12.695,48.828,12.695,-4.883,58.105,0
1553806395.294,-20.996,52.734,13.672,2.930,21.973,0
1553806395.298,-7.812,54.688,8.789,-3.906,-54.688,0
1553806395.302,-3.418,46.387,5.859,-8.301,63.965,0
1553806395.306,3.418,44.434,5.371,-5.371,13.184,0
1553806395.310,-9.766,47.363,5.371,-4.395,17.090,0
1553806395.313,-14.648,42.480,7.812,12.695,46.875,0
1553806395.317,14.648,43.457,10.742,33.691,-16.602,0
1553806395.321,9.277,55.176,10.742,16.602,19.531,0
1553806395.325,-19.043,54.199,9.277,1.465,49.316,0
1553806395.329,-7.324,47.363,12.207,20.020,60.547,0
1553806395.333,13.184,48.340,14.648,35.156,65.918,0
1553806395.337,14.160,47.852,19.043,24.902,64.453,0
1553806395.341,27.344,43.457,20.508,16.113,35.645,0
1553806395.345,35.645,47.852,19.531,38.086,48.828,0
1553806395.349,40.039,47.363,16.602,30.273,8.789,0
1553806395.353,34.668,38.574,13.184,9.766,14.648,0
1553806395.356,24.902,42.480,13.672,19.531,32.715,0
1553806395.360,16.602,54.688,14.648,28.809,11.719,0
1553806395.364,20.996,56.152,15.625,27.832,42.480,0
1553806395.368,41.016,47.852,13.184,26.855,41.992,0
1553806395.372,39.062,44.434,17.090,33.203,50.293,0
1553806395.376,31.250,48.340,22.461,35.645,74.707,0
1553806395.380,30.273,53.711,20.020,36.621,34.180,0
1553806395.384,22.949,54.199,17.090,52.734,39.062,0
1553806395.388,32.715,49.316,19.043,54.199,71.289,0
1553806395.392,35.156,42.969,19.531,52.246,86.914,0
1553806395.396,27.344,49.316,9.277,39.062,54.199,0
1553806395.399,27.344,52.246,1.465,27.344,24.414,0
1553806395.403,12.695,42.969,13.184,18.555,54.688,0
1553806395.407,18.555,43.457,27.832,14.160,78.613,0
1553806395.411,19.043,41.992,26.367,30.762,74.219,0
1553806395.415,5.371,42.969,22.949,37.598,63.477,0
1553806395.419,5.371,42.480,20.508,45.410,46.875,0
1553806395.423,16.113,40.039,19.043,43.457,37.598,0
1553806395.427,25.391,38.574,22.461,30.273,77.637,0
1553806395.431,20.508,40.039,20.996,32.227,104.980,0
1553806395.435,14.648,52.246,22.461,35.156,74.219,0
1553806395.438,5.371,53.711,20.508,37.109,-12.695,0
1553806395.442,-9.277,45.410,17.090,50.293,25.879,0
1553806395.446,2.930,47.852,20.020,50.781,95.703,0
1553806395.450,35.156,45.898,16.602,34.668,73.730,0
1553806395.454,20.020,33.691,10.742,17.578,76.660,0
1553806395.458,-28.320,42.480,9.277,5.371,72.754,0
1553806395.462,-20.996,51.758,17.578,17.090,20.020,0
1553806395.466,-2.930,41.016,25.879,29.785,4.883,0
1553806395.470,1.953,36.621,21.973,39.062,27.344,0
1553806395.474,-0.488,48.828,20.996,34.180,28.809,0
1553806395.478,-6.836,46.387,19.043,19.531,40.527,0
1553806395.481,-10.254,40.527,14.160,5.371,49.805,0
1553806395.485,6.836,41.992,18.066,12.207,15.625,0
1553806395.489,21.484,46.875,22.949,40.527,12.207,0
1553806395.493,-12.695,60.059,26.367,19.531,7.324,0
1553806395.497,-37.598,67.383,28.320,-18.066,6.836,0
1553806395.501,-39.062,60.059,20.020,-40.527,10.254,0
1553806395.505,-64.453,53.223,21.973,-63.477,-6.836,0
1553806395.509,-90.332,52.734,33.203,-80.566,75.195,0
1553806395.513,-105.469,56.641,34.180,-98.145,111.816,0
1553806395.517,-126.465,64.453,33.691,-111.328,72.754,0
1553806395.521,-135.742,62.988,28.809,-95.215,26.367,0
1553806395.524,-129.395,67.383,25.391,-96.191,-3.906,0
1553806395.528,-124.023,64.453,23.926,-105.957,40.527,0
1553806395.532,-104.004,59.082,19.043,-85.449,93.750,0
1553806395.536,-67.871,59.082,22.949,-79.102,119.141,0
1553806395.540,-78.613,53.223,28.809,-71.777,87.891,0
1553806395.544,-88.379,47.363,31.250,-51.758,66.895,0
1553806395.548,-59.570,41.504,11.719,-38.574,107.910,0
1553806395.552,-72.266,41.992,0.000,-34.180,89.355,0
1553806395.556,-62.012,43.457,20.996,-19.043,6.348,0
1553806395.560,-34.668,44.922,25.879,-26.855,43.457,0
1553806395.563,-34.180,54.688,27.832,-50.781,5.859,0
1553806395.567,-26.367,60.547,23.438,-43.457,-47.363,0
1553806395.571,-20.996,59.082,21.484,-24.902,61.523,0
1553806395.575,-3.418,48.340,26.855,-20.996,80.566,0
1553806395.579,-12.207,42.969,27.344,1.465,66.895,0
1553806395.583,-57.617,51.270,25.391,17.578,99.121,0
1553806395.587,-42.969,50.293,23.438,20.508,85.938,0
1553806395.591,-16.113,42.480,18.555,17.578,82.031,0
1553806395.595,6.348,44.922,15.625,4.883,27.344,0
1553806395.599,1.953,45.410,17.090,15.137,1.953,0
1553806395.603,-8.301,35.156,14.648,14.160,19.531,0
1553806395.606,-7.812,32.227,12.695,1.465,64.453,0
1553806395.610,-7.324,43.457,11.719,11.719,88.867,0
1553806395.614,-8.301,47.363,9.277,21.484,48.828,0
1553806395.618,-6.836,43.945,16.113,12.695,20.996,0
1553806395.622,20.020,41.504,21.973,20.020,3.906,0
1553806395.626,11.230,39.062,17.578,22.461,43.945,0
1553806395.630,-7.324,38.086,21.484,25.879,77.148,0
1553806395.634,6.836,38.086,23.438,20.020,49.805,0
1553806395.638,10.742,41.992,23.438,17.090,53.711,0
1553806395.642,-23.926,40.527,20.996,7.812,8.789,0
1553806395.646,-13.184,46.387,23.926,18.555,29.785,0
1553806395.649,-3.418,43.457,30.273,30.273,109.375,0
1553806395.653,-21.973,43.457,33.691,-0.488,83.008,0
1553806395.657,-51.758,53.711,37.598,-16.602,49.805,0
1553806395.661,-57.129,47.852,37.109,-25.391,30.273,0
1553806395.665,-38.086,60.547,41.992,-24.414,35.156,0
1553806395.669,-98.633,70.801,33.691,-64.453,18.555,0
1553806395.673,-129.883,62.012,44.434,-94.238,9.277,0
1553806395.677,-105.957,69.336,63.965,-67.383,68.359,0
1553806395.681,-139.648,79.590,62.500,-107.422,62.988,0
1553806395.685,-176.758,73.730,56.641,-148.926,40.039,0
1553806395.688,-196.777,70.801,65.430,-138.672,24.902,0
1553806395.692,-195.801,71.777,74.707,-158.691,8.789,0
1553806395.696,-181.152,77.637,62.988,-170.410,20.508,0
1553806395.700,-219.727,85.449,55.176,-194.336,8.301,0
1553806395.704,-227.051,80.078,41.992,-208.008,4.883,0
1553806395.708,-207.031,80.566,25.879,-205.566,-2.441,0
1553806395.712,-208.008,71.289,74.707,-182.129,58.105,0
1553806395.716,-228.516,64.453,119.141,-164.551,41.504,0
1553806395.720,-212.891,70.801,78.613,-167.969,6.348,0
1553806395.724,-169.434,62.012,55.176,-132.324,133.789,0
1553806395.728,-135.742,55.664,62.988,-99.609,107.910,0
1553806395.731,-121.094,53.711,7.812,-65.430,18.066,0
1553806395.735,-97.168,58.105,29.785,-51.270,40.527,0
1553806395.739,-68.848,49.316,104.980,-49.316,37.109,0
1553806395.743,-46.875,40.527,75.684,-1.953,0.977,0
1553806395.747,-18.066,29.785,40.527,22.461,-37.109,0
1553806395.751,10.254,27.344,28.809,24.414,-24.902,0
1553806395.755,13.672,32.227,10.742,48.828,-16.602,0
1553806395.759,35.156,28.320,1.953,75.195,12.695,0
1553806395.763,52.734,31.738,-7.812,83.984,64.941,0
1553806395.767,65.918,29.785,-14.648,108.398,34.668,0
1553806395.771,81.055,28.320,-19.043,88.379,24.902,0
1553806395.774,59.082,26.855,-17.578,87.402,15.137,0
1553806395.778,53.711,25.391,-25.879,124.512,-25.879,0
1553806395.782,69.824,26.855,-37.598,121.582,-11.230,0
1553806395.786,86.426,29.785,-20.020,107.422,16.113,0
1553806395.790,80.078,22.461,-7.812,107.910,31.738,0
1553806395.794,67.871,27.344,-0.977,117.188,14.160,0
1553806395.798,48.340,35.645,-1.953,101.074,57.129,0
1553806395.802,52.734,36.621,-15.625,66.895,65.918,0
1553806395.806,79.102,46.875,-5.371,81.543,-8.789,0
1553806395.810,29.785,48.340,7.812,74.219,-2.441,0
1553806395.813,-3.906,45.898,13.672,42.969,30.762,0
1553806395.817,-7.324,56.641,20.996,27.832,76.660,0
1553806395.821,-33.691,57.617,11.230,12.207,39.062,0
1553806395.825,-62.988,62.500,-2.441,14.160,-1.465,0
1553806395.829,-57.617,73.242,-2.441,-16.113,86.914,0
1553806395.833,-50.781,85.449,1.465,-35.156,33.691,0
1553806395.837,-108.887,80.078,22.461,-76.660,-41.016,0
1553806395.841,-184.570,68.359,54.688,-125.488,20.508,0
1553806395.845,-194.336,77.637,-5.371,-116.211,48.828,0
1553806395.849,-167.480,78.613,0.977,-122.070,35.645,0
1553806395.853,-166.016,83.496,106.445,-127.930,26.367,0
1553806395.856,-152.344,93.262,104.004,-111.816,19.531,0
1553806395.860,-122.559,84.961,79.590,-79.102,26.855,0
1553806395.864,-79.590,68.359,67.871,-33.691,70.312,0
1553806395.868,-41.504,51.270,40.039,1.953,41.504,0
1553806395.872,-8.301,46.387,21.484,17.090,34.180,0
1553806395.876,16.602,51.270,18.555,19.531,82.031,0
1553806395.880,-2.930,46.387,6.348,34.668,-2.930,0
1553806395.884,-18.066,30.762,-7.812,47.852,-45.410,0
1553806395.888,-3.418,33.691,-0.977,79.102,-3.906,0
1553806395.892,0.977,37.598,0.977,90.820,-0.488,0
1553806395.896,41.992,30.273,-8.789,81.543,-26.367,0
1553806395.899,70.312,31.738,-15.137,97.168,-69.824,0
1553806395.903,69.824,31.738,-12.207,116.699,-8.301,0
1553806395.907,78.613,26.367,-12.207,137.695,42.480,0
1553806395.911,82.031,25.391,-21.973,145.996,28.809,0
1553806395.915,62.988,28.809,-20.508,127.930,30.762,0
1553806395.919,44.434,39.062,-2.441,116.699,15.137,0
1553806395.923,43.457,38.086,4.395,114.746,78.613,0
1553806395.927,67.383,22.461,-5.371,113.770,108.887,0
1553806395.931,79.590,29.785,-9.766,112.305,54.199,0
1553806395.935,46.875,40.039,-6.348,112.305,55.176,0
1553806395.938,44.922,34.668,-1.465,126.465,51.758,0
1553806395.942,47.852,31.250,0.000,142.578,24.902,0
1553806395.946,50.781,33.203,2.930,119.141,46.875,0
1553806395.950,42.969,34.668,11.719,95.703,46.875,0
1553806395.954,18.066,35.645,8.301,88.867,39.551,0
1553806395.958,5.371,31.738,7.812,93.750,59.082,0
1553806395.962,14.648,24.902,9.766,104.980,-13.672,0
1553806395.966,19.043,26.367,3.906,88.867,4.883,0
1553806395.970,12.695,26.855,2.441,93.262,50.781,0
1553806395.974,25.879,27.832,1.953,102.539,-5.859,0
1553806395.978,30.762,26.367,-0.488,117.188,-25.879,0
1553806395.981,36.133,24.414,-7.812,103.027,52.246,0
1553806395.985,-10.254,22.461,0.977,81.055,53.711,0
1553806395.989,-78.613,30.762,16.113,82.031,22.949,0
1553806395.993,22.461,38.574,18.066,83.008,19.043,0
1553806395.997,49.316,26.855,9.277,81.055,12.207,0
1553806396.001,-4.395,23.926,3.906,47.363,58.594,0
1553806396.005,-19.531,26.367,6.836,64.941,108.887,0
1553806396.009,-41.992,28.320,11.719,79.590,105.957,0
1553806396.013,-24.902,34.180,6.836,69.824,83.496,0
1553806396.017,-27.344,21.973,16.602,63.477,36.621,0
1553806396.021,-25.391,12.695,22.949,71.289,1.953,0
1553806396.024,-41.992,25.391,23.926,61.035,90.332,0
1553806396.028,-64.453,28.320,20.996,38.086,117.188,0
1553806396.032,-75.195,21.484,10.254,38.574,31.250,0
1553806396.036,-71.289,27.344,22.949,42.969,7.324,0
1553806396.040,-66.406,39.551,34.668,68.359,13.672,0
1553806396.044,-68.848,36.621,29.297,68.848,-29.297,0
1553806396.048,-87.402,35.156,1.953,35.645,-32.227,0
1553806396.052,-104.004,41.016,-2.930,41.504,40.527,0
1553806396.056,-93.262,43.457,14.160,39.551,65.430,0
1553806396.060,-88.379,42.480,18.555,13.184,48.340,0
1553806396.063,-86.426,37.109,8.301,8.789,65.918,0
1553806396.067,-126.465,36.133,-17.090,32.715,31.250,0
1553806396.071,-149.902,38.086,-23.438,16.602,74.219,0
1553806396.075,-76.660,30.762,14.648,14.648,80.566,0
1553806396.079,-63.965,26.367,38.574,33.691,-14.648,0
1553806396.083,-66.895,43.457,25.879,22.949,41.016,0
1553806396.087,-92.773,50.293,33.691,31.738,119.141,0
1553806396.091,-141.602,45.410,51.758,21.484,76.660,0
1553806396.095,-106.934,45.410,34.668,22.461,4.395,0
1553806396.099,-89.355,27.344,32.715,42.480,49.316,0
1553806396.103,-107.910,19.531,52.734,13.672,93.262,0
1553806396.106,-105.957,21.484,38.574,28.809,35.645,0
1553806396.110,-104.492,21.973,26.367,10.742,-0.488,0
1553806396.114,-161.133,28.809,8.789,-53.711,36.133,0
1553806396.118,-125.488,17.090,48.340,-17.090,58.105,0
1553806396.122,-85.449,16.113,80.078,1.953,0.977,0
1553806396.126,-118.164,26.367,50.781,-23.926,-5.859,0
1553806396.130,-112.305,23.438,43.457,-33.691,10.742,0
1553806396.134,-137.695,15.625,66.406,-24.902,3.418,0
1553806396.138,-128.906,15.137,58.105,3.418,27.344,0
1553806396.142,-118.652,20.996,30.762,-12.207,29.785,0
1553806396.146,-121.094,22.949,25.879,-9.277,63.965,0
1553806396.149,-98.633,18.066,6.348,0.000,34.668,0
1553806396.153,-92.285,11.719,13.184,-6.836,9.766,0
1553806396.157,-80.078,12.695,66.406,-6.348,48.828,0
1553806396.161,-105.957,20.020,70.801,-6.348,89.844,0
1553806396.165,-125.488,31.738,48.340,-4.883,72.754,0
1553806396.169,-77.637,21.484,20.020,-20.508,61.035,0
1553806396.173,-61.035,8.789,-4.883,-44.434,82.520,0
1553806396.177,-71.777,30.762,33.691,-39.551,37.598,0
1553806396.181,-95.215,39.551,63.965,-28.809,7.324,0
1553806396.185,-150.879,32.715,47.852,-41.992,35.645,0
1553806396.188,-108.398,33.691,-9.277,-48.828,97.168,0
1553806396.192,-36.621,39.062,-26.367,-31.738,90.332,0
1553806396.196,-66.895,49.316,34.668,-20.508,78.613,0
1553806396.200,-102.539,49.805,55.664,-47.852,50.293,0
1553806396.204,-70.312,48.828,41.016,-46.387,29.297,0
1553806396.208,-64.941,43.945,28.809,-19.043,88.379,0
1553806396.212,-80.566,32.227,20.996,-14.160,24.414,0
1553806396.216,-68.848,40.039,11.230,-24.414,-14.648,0
1553806396.220,-65.430,55.176,11.230,-10.254,-1.953,0
1553806396.224,-46.387,61.523,18.555,-11.719,-0.488,0
1553806396.228,-42.480,62.988,14.648,-24.414,8.789,0
1553806396.231,-38.574,61.523,-10.254,-4.883,-30.273,0
1553806396.235,-33.203,62.012,-11.230,-20.508,1.465,0
1553806396.239,-49.805,57.617,11.719,-23.438,44.434,0
1553806396.243,-44.434,55.664,2.441,-18.555,62.012,0
1553806396.247,-33.203,57.129,-6.348,-5.371,39.551,0
1553806396.251,-25.391,59.082,-5.371,-7.812,27.832,0
1553806396.255,-21.484,58.105,11.719,-20.020,60.059,0
1553806396.259,-11.230,43.945,34.668,0.488,-8.301,0
1553806396.263,-39.062,42.480,30.273,2.930,-11.230,0
1553806396.267,-73.730,52.246,20.020,0.977,74.219,0
1553806396.271,-56.641,60.547,16.602,0.000,-0.977,0
1553806396.274,-38.086,55.176,17.090,1.465,-23.926,0
1553806396.278,-20.996,61.523,6.836,-12.695,58.594,0
1553806396.282,-27.344,73.730,-2.441,-11.719,66.895,0
1553806396.286,-16.602,68.359,8.301,13.672,25.879,0
1553806396.290,21.484,53.711,11.230,36.621,69.336,0
1553806396.294,24.902,59.082,6.836,52.734,88.867,0
1553806396.298,-20.996,76.172,-0.977,14.160,21.484,0
1553806396.302,-29.785,79.590,-12.207,-21.973,28.320,0
1553806396.306,4.395,77.637,-13.672,-20.020,32.715,0
1553806396.310,-13.672,81.543,-8.301,-12.207,4.395,0
1553806396.313,-32.715,87.402,-33.691,-8.789,13.672,0
1553806396.317,-15.137,86.914,-43.457,-18.555,-3.906,0
1553806396.321,-24.902,73.242,-7.324,-40.039,45.410,0
1553806396.325,-28.809,79.102,-8.789,-47.363,41.016,0
1553806396.329,-33.691,84.473,-38.574,-37.109,-21.973,0
1553806396.333,-38.574,72.266,-26.367,-27.832,45.410,0
1553806396.337,-17.578,67.871,-1.465,-23.438,41.504,0
1553806396.341,-8.301,61.523,-2.930,-37.109,76.660,0
1553806396.345,-7.324,75.684,-20.020,-36.133,86.426,0
1553806396.349,-39.551,74.707,-35.156,19.531,13.184,0
1553806396.353,-36.621,64.941,-27.832,0.977,-68.359,0
1553806396.356,4.395,69.336,-27.832,-21.973,-39.551,0
1553806396.360,11.230,67.871,-3.906,0.977,29.785,0
1553806396.364,23.926,74.707,18.066,38.574,51.758,0
1553806396.368,28.809,74.707,17.578,36.621,85.938,0
1553806396.372,25.391,74.707,19.043,18.555,23.926,0
1553806396.376,22.949,71.777,17.578,22.461,-15.137,0
1553806396.380,29.297,64.453,22.461,17.090,8.301,0
1553806396.384,33.203,66.895,-22.949,32.227,18.066,0
1553806396.388,46.875,69.824,-63.477,46.875,47.363,0
1553806396.392,40.527,67.871,6.348,12.207,2.441,0
1553806396.396,9.766,64.453,36.621,-21.484,6.348,0
1553806396.399,10.254,61.035,7.812,-22.949,61.035,0
1553806396.403,31.738,59.570,11.230,-4.883,69.336,0
1553806396.407,42.969,64.453,0.488,10.742,40.527,0
1553806396.411,33.203,62.012,-13.672,17.090,41.016,0
1553806396.415,20.020,49.805,12.207,27.344,73.242,0
1553806396.419,21.484,51.270,37.109,24.414,86.426,0
1553806396.423,35.645,60.547,33.203,2.441,20.996,0
1553806396.427,58.105,62.500,20.508,1.953,-10.742,0
1553806396.431,45.898,59.082,19.531,19.531,43.457,0
1553806396.435,40.527,57.617,14.160,19.531,50.781,0
1553806396.438,56.152,52.246,3.418,12.695,86.426,0
1553806396.442,31.250,56.641,7.812,7.812,36.621,0
1553806396.446,32.715,62.988,-4.883,32.715,-33.691,0
1553806396.450,51.758,51.270,-20.508,44.922,20.996,0
1553806396.454,50.781,44.434,3.906,47.363,27.344,0
1553806396.458,47.363,56.641,20.020,62.500,-2.930,0
1553806396.462,40.527,57.617,15.625,31.250,35.156,0
1553806396.466,56.641,41.992,44.434,18.066,70.312,0
1553806396.470,59.082,44.922,46.875,14.648,40.039,0
1553806396.474,68.848,63.477,-14.160,10.742,19.531,0
1553806396.478,68.848,59.570,-14.160,16.602,12.695,0
1553806396.481,62.500,36.621,45.410,52.246,-3.906,0
1553806396.485,48.828,47.363,47.363,28.809,-18.555,0
1553806396.489,37.109,64.941,10.742,-14.160,-1.953,0
1553806396.493,54.199,56.641,2.441,14.160,36.621,0
1553806396.497,61.035,51.270,-4.395,37.109,69.336,0
1553806396.501,53.711,40.039,0.977,-0.488,83.496,0
1553806396.505,83.496,28.320,55.176,24.902,1.953,0
1553806396.509,94.238,46.387,62.500,56.641,-63.477,0
1553806396.513,41.504,58.105,22.461,8.789,17.578,0
1553806396.517,18.066,45.898,34.180,18.555,80.566,0
1553806396.521,30.762,43.945,18.066,14.648,64.941,0
1553806396.524,11.230,30.762,41.504,-21.973,60.547,0
1553806396.528,4.395,15.137,104.980,-16.113,67.871,0
1553806396.532,-6.348,21.973,97.656,-20.508,22.949,0
1553806396.536,-3.418,20.020,82.031,-20.996,50.293,0
1553806396.540,18.555,11.719,69.824,-1.465,74.707,0
1553806396.544,1.953,7.812,51.758,19.043,67.871,0
1553806396.548,-4.883,15.137,48.340,-5.371,77.148,0
1553806396.552,1.953,12.207,72.754,-11.230,59.082,0
1553806396.556,3.418,2.441,54.199,-12.695,51.270,0
1553806396.560,3.906,2.441,23.926,10.742,58.105,0
1553806396.563,-0.488,5.859,39.062,23.926,84.961,0
1553806396.567,2.930,1.953,52.246,22.949,22.461,0
1553806396.571,23.926,1.953,69.824,32.227,-41.992,0
1553806396.575,22.949,12.695,58.105,17.578,33.203,0
1553806396.579,11.230,20.508,62.012,11.719,20.020,0
1553806396.583,31.250,32.227,45.410,-1.953,-30.762,0
1553806396.587,33.691,37.109,0.488,7.324,1.465,0
1553806396.591,31.250,26.367,8.301,40.039,37.598,0
1553806396.595,31.250,16.602,53.711,28.809,20.508,0
1553806396.599,22.461,19.531,73.242,24.414,37.109,0
1553806396.603,36.621,28.320,43.945,32.715,80.566,0
1553806396.606,32.227,37.598,23.438,22.461,82.031,0
1553806396.610,34.180,32.227,30.762,32.715,30.273,0
1553806396.614,67.871,26.367,30.762,28.809,49.805,0
1553806396.618,61.523,39.062,13.672,12.695,92.285,0
1553806396.622,27.832,40.039,21.484,13.672,71.777,0
1553806396.626,28.809,39.062,27.344,22.461,65.430,0
1553806396.630,35.645,38.086,16.602,18.555,68.848,0
1553806396.634,46.875,34.180,12.695,15.625,43.945,0
1553806396.638,39.062,41.016,19.043,31.250,0.488,0
1553806396.642,34.668,38.574,28.320,39.062,6.836,0
1553806396.646,71.289,37.598,25.879,30.273,-21.484,0
1553806396.649,41.504,30.762,24.414,0.977,13.672,0
1553806396.653,-14.160,22.949,22.461,13.672,25.879,0
1553806396.657,5.371,38.086,18.066,39.062,1.953,0
1553806396.661,15.625,44.922,10.254,13.184,61.035,0
1553806396.665,5.371,37.598,5.371,5.859,28.320,0
1553806396.669,9.766,34.668,1.465,24.902,-36.621,0
1553806396.673,2.930,35.645,1.465,22.461,0.977,0
1553806396.677,8.301,33.203,21.484,16.602,38.574,0
1553806396.681,19.531,35.156,34.668,20.508,-9.766,0
1553806396.685,24.414,44.922,40.039,14.160,-27.832,0
1553806396.688,17.090,46.875,34.668,34.180,56.152,0
1553806396.692,22.949,40.039,-1.953,36.621,47.363,0
1553806396.696,16.602,38.574,-18.555,15.137,-15.625,0
1553806396.700,9.766,32.715,4.395,14.648,-8.789,0
1553806396.704,29.297,20.020,32.715,13.672,19.043,0
1553806396.708,6.348,28.320,38.086,13.672,50.293,0
1553806396.712,1.953,58.105,33.203,12.695,79.102,0
1553806396.716,10.742,56.641,29.297,23.926,101.074,0
1553806396.720,4.883,41.504,5.371,10.254,116.699,0
1553806396.724,11.230,44.434,4.395,10.254,51.758,0
1553806396.728,5.859,46.387,17.578,18.066,7.812,0
1553806396.731,-5.859,45.898,14.648,-4.883,16.602,0
1553806396.735,-0.488,44.434,24.902,27.344,52.246,0
1553806396.739,26.855,43.945,25.879,52.246,8.301,0
1553806396.743,40.527,45.410,19.531,35.156,0.488,0
1553806396.747,13.672,41.504,30.762,30.273,-36.133,0
1553806396.751,0.000,34.180,26.367,33.203,-39.551,0
1553806396.755,50.293,46.387,-5.371,53.711,51.758,0
1553806396.759,57.617,58.594,-2.441,22.949,55.664,0
1553806396.763,12.207,50.781,17.090,-20.508,16.113,0
1553806396.767,-3.906,57.129,11.230,-12.695,21.973,0
1553806396.771,-0.977,66.406,4.395,-0.488,47.363,0
1553806396.774,-6.348,66.895,-1.953,-5.859,62.012,0
1553806396.778,-4.395,71.777,-7.812,-18.066,87.402,0
1553806396.782,3.418,66.895,-15.625,-15.625,54.199,0
1553806396.786,14.160,50.293,-26.855,-15.137,26.855,0
1553806396.790,0.977,69.336,-29.785,-8.789,11.230,0
1553806396.794,-11.230,88.867,-28.320,-36.621,-13.672,0
1553806396.798,24.414,88.867,-28.809,-41.016,13.672,0
1553806396.802,31.250,83.984,-31.250,-37.109,44.434,0
1553806396.806,16.113,75.684,-23.926,-35.156,85.449,0
1553806396.810,20.508,72.266,-33.691,-16.113,87.402,0
1553806396.813,29.297,66.406,-45.410,-7.812,57.129,0
1553806396.817,50.293,58.594,-33.203,11.719,44.434,0
1553806396.821,47.363,49.316,-16.113,13.184,41.992,0
1553806396.825,25.879,49.805,-16.602,18.066,11.230,0
1553806396.829,34.180,50.781,-18.066,16.602,29.785,0
1553806396.833,57.617,60.547,-40.039,16.113,23.926,0
1553806396.837,64.453,59.570,-57.129,37.598,13.184,0
1553806396.841,70.801,55.664,-18.555,39.062,101.074,0
1553806396.845,59.570,61.035,6.836,31.738,97.656,0
1553806396.849,63.477,60.059,-4.395,39.551,-13.672,0
1553806396.853,76.660,56.152,-9.277,28.809,4.395,0
1553806396.856,65.918,55.176,-19.043,6.836,91.797,0
1553806396.860,59.082,58.594,-25.879,1.465,101.074,0
1553806396.864,52.734,41.992,5.859,9.277,86.914,0
1553806396.868,65.430,34.668,18.066,14.648,46.875,0
1553806396.872,60.547,61.523,7.812,4.395,11.719,0
1553806396.876,49.805,71.289,4.883,15.137,38.086,0
1553806396.880,61.523,65.430,-5.859,33.691,44.434,0
1553806396.884,62.988,55.664,-20.020,30.762,15.137,0
1553806396.888,42.480,40.527,-10.742,16.602,50.293,0
1553806396.892,36.621,51.270,9.766,27.344,75.684,0
1553806396.896,26.367,63.477,9.277,17.090,94.238,0
1553806396.899,11.230,59.082,8.301,0.488,69.336,0
1553806396.903,-2.441,52.734,5.859,20.508,14.648,0
1553806396.907,15.625,40.527,-12.695,35.156,54.688,0
1553806396.911,39.062,45.898,-12.695,29.785,70.312,0
1553806396.915,36.621,52.734,6.348,29.297,31.250,0
1553806396.919,35.156,49.316,20.996,32.227,-2.930,0
1553806396.923,34.180,45.410,15.137,39.062,39.062,0
1553806396.927,37.109,36.621,13.672,41.016,13.184,0
1553806396.931,55.176,25.391,24.902,30.273,-31.250,0
1553806396.935,60.059,30.762,26.367,32.227,30.762,0
1553806396.938,60.547,43.457,5.371,46.387,85.449,0
1553806396.942,47.852,44.922,-12.207,40.039,54.688,0
1553806396.946,37.598,35.156,7.812,30.762,97.168,0
1553806396.950,50.781,37.598,20.996,40.039,62.012,0
1553806396.954,46.387,41.504,14.160,35.645,29.785,0
1553806396.958,40.039,31.250,22.949,31.738,59.082,0
1553806396.962,58.594,20.020,33.691,24.902,-6.836,0
1553806396.966,47.363,24.902,11.719,44.434,-27.344,0
1553806396.970,12.695,38.086,-15.137,56.152,33.691,0
1553806396.974,28.809,45.898,14.160,38.574,92.285,0
1553806396.978,42.480,52.246,21.484,47.852,9.766,0
1553806396.981,22.461,49.316,11.230,55.664,-4.395,0
1553806396.985,37.598,52.734,36.621,35.645,55.176,0
1553806396.989,55.664,52.734,42.480,20.996,22.949,0
1553806396.993,33.203,40.039,24.902,32.715,50.293,0
1553806396.997,26.367,37.109,22.461,38.086,67.383,0
1553806397.001,29.297,40.527,28.809,35.156,19.531,0
1553806397.005,23.438,39.551,25.879,29.785,33.203,0
1553806397.009,-1.465,48.828,16.113,39.551,7.812,0
1553806397.013,11.719,53.711,7.324,37.109,17.090,0
1553806397.017,49.805,50.293,10.742,18.555,95.215,0
1553806397.021,14.160,52.734,29.297,24.414,105.957,0
1553806397.024,-17.578,43.457,8.301,41.016,62.012,0
1553806397.028,-3.418,40.527,-6.348,20.996,57.129,0
1553806397.032,-0.977,49.316,17.578,-7.324,54.688,0
1553806397.036,11.230,47.852,-5.371,-2.441,63.965,0
1553806397.040,13.184,50.293,11.719,4.395,37.109,0
1553806397.044,5.859,51.270,70.801,-9.277,0.000,0
1553806397.048,12.695,46.875,60.547,-0.977,36.133,0
1553806397.052,0.488,37.598,31.250,2.441,48.340,0
1553806397.056,-12.207,41.016,31.250,-4.395,32.715,0
1553806397.060,-5.859,49.316,16.602,-1.953,17.090,0
1553806397.063,6.836,53.711,3.906,-5.859,26.855,0
1553806397.067,-2.930,47.363,20.020,8.301,61.035,0
1553806397.071,6.836,38.574,24.902,10.254,32.227,0
1553806397.075,2.930,47.852,10.254,2.930,28.809,0
1553806397.079,18.555,51.270,9.766,14.648,56.152,0
1553806397.083,24.902,44.922,-12.207,20.996,63.965,0
1553806397.087,0.977,44.434,-34.668,11.719,57.617,0
1553806397.091,14.160,41.504,27.832,5.859,7.812,0
1553806397.095,15.625,47.363,65.430,20.508,41.992,0
1553806397.099,16.113,52.734,35.645,6.348,94.727,0
1553806397.103,29.297,45.898,5.859,0.488,64.941,0
1553806397.106,26.855,50.781,9.766,8.301,57.129,0
1553806397.110,4.883,56.152,22.949,21.973,41.992,0
1553806397.114,18.555,52.734,18.555,20.996,5.859,0
1553806397.118,52.734,46.875,14.648,21.484,24.902,0
1553806397.122,67.871,41.504,25.879,38.086,2.441,0
1553806397.126,51.270,49.316,27.344,45.898,10.254,0
1553806397.130,20.508,41.992,16.602,49.316,49.805,0
1553806397.134,18.555,37.109,-34.180,49.316,88.379,0
1553806397.138,25.391,47.363,-19.043,27.344,114.746,0
1553806397.142,21.973,50.293,68.359,3.418,70.801,0
1553806397.146,29.785,52.246,72.754,10.742,2.441,0
1553806397.149,6.348,49.316,60.059,17.578,51.270,0
1553806397.153,11.719,45.898,51.270,25.391,42.969,0
1553806397.157,53.711,46.387,35.645,19.531,-35.645,0
1553806397.161,35.645,42.480,21.484,20.508,22.461,0
1553806397.165,15.625,41.016,11.719,66.406,72.754,0
1553806397.169,15.137,49.316,10.254,66.406,76.172,0
1553806397.173,13.184,54.199,20.508,21.973,72.754,0
1553806397.177,23.926,53.223,31.738,24.414,43.945,0
1553806397.181,32.715,49.316,39.062,34.668,34.180,0
1553806397.185,37.598,50.781,31.250,29.297,20.020,0
1553806397.188,44.434,40.527,14.160,38.086,19.043,0
1553806397.192,30.762,32.227,19.531,42.480,47.363,0
1553806397.196,15.625,39.551,27.832,31.250,33.691,0
1553806397.200,30.762,42.969,33.203,32.227,57.617,0
1553806397.204,18.066,41.992,33.691,37.109,77.148,0
1553806397.208,26.367,41.992,35.645,18.066,70.312,0
1553806397.212,27.832,39.551,27.344,25.879,36.133,0
1553806397.216,22.949,26.367,18.555,42.969,15.137,0
1553806397.220,33.691,24.902,16.602,43.945,15.137,0
1553806397.224,21.973,41.016,19.043,48.340,34.668,0
1553806397.228,45.410,47.852,26.367,35.156,54.688,0
1553806397.231,67.383,45.410,23.926,14.160,-4.883,0
1553806397.235,31.250,44.434,5.859,6.836,16.113,0
1553806397.239,-0.488,39.062,5.371,12.695,49.316,0
1553806397.243,-12.695,36.621,23.438,18.066,49.805,0
1553806397.247,7.324,41.992,27.344,19.531,43.945,0
1553806397.251,25.879,37.598,27.832,33.203,22.949,0
1553806397.255,23.438,35.645,24.414,36.621,6.836,0
1553806397.259,20.508,32.715,22.461,39.062,18.066,0
1553806397.263,47.852,30.273,25.391,33.691,28.809,0
1553806397.267,65.918,31.738,19.043,27.344,54.688,0
1553806397.271,34.668,38.574,11.230,33.203,62.500,0
1553806397.274,-12.695,45.898,-4.883,22.461,-18.066,0
1553806397.278,3.906,40.527,4.395,27.344,17.578,0
1553806397.282,36.133,39.062,28.809,53.711,4.883,0
1553806397.286,35.645,37.109,5.371,47.363,23.438,0
1553806397.290,42.480,35.156,7.812,22.461,112.793,0
1553806397.294,37.109,26.855,45.898,27.832,17.578,0
1553806397.298,20.996,17.090,38.086,42.480,-20.508,0
1553806397.302,24.902,11.719,24.902,61.035,46.387,0
1553806397.306,27.344,32.715,25.879,51.758,31.250,0
1553806397.310,32.715,53.711,15.137,46.387,32.715,0
1553806397.313,26.855,57.129,21.484,22.949,68.848,0
1553806397.317,17.090,60.059,27.344,37.598,40.527,0
1553806397.321,44.434,51.270,23.438,77.148,26.855,0
1553806397.325,44.434,44.922,22.949,54.199,45.410,0
1553806397.329,10.254,40.039,18.066,17.578,33.203,0
1553806397.333,36.621,39.551,14.648,36.621,33.691,0
1553806397.337,59.082,46.875,13.672,49.805,12.207,0
1553806397.341,31.738,44.922,2.930,33.691,-21.484,0
1553806397.345,-1.953,37.109,3.906,37.109,-8.789,0
1553806397.349,11.230,33.691,19.531,47.363,17.578,0
1553806397.353,9.766,43.457,14.160,45.898,13.672,0
1553806397.356,33.691,57.129,-5.859,41.992,-3.906,0
1553806397.360,41.504,55.664,0.000,40.527,62.500,0
1553806397.364,19.531,54.688,25.391,25.391,69.824,0
1553806397.368,34.668,51.270,24.902,23.926,59.082,0
1553806397.372,3.418,39.062,18.555,40.039,54.199,0
1553806397.376,-1.953,36.621,21.973,41.016,18.555,0
1553806397.380,35.645,49.805,14.648,27.832,-13.672,0
1553806397.384,42.480,56.641,8.789,24.902,13.184,0
1553806397.388,15.137,56.152,13.672,24.414,75.684,0
1553806397.392,2.930,48.828,9.277,34.180,45.410,0
1553806397.396,26.367,46.387,1.953,39.551,30.273,0
1553806397.399,16.113,55.664,6.348,0.488,-21.973,0
1553806397.403,-10.254,53.711,13.672,4.883,-8.301,0
1553806397.407,-2.930,48.340,16.113,46.875,41.504,0
1553806397.411,-24.902,46.387,12.207,48.340,56.641,0
1553806397.415,-21.973,44.434,13.672,22.461,44.922,0
1553806397.419,-28.320,44.922,13.184,4.883,-11.230,0
1553806397.423,-50.781,45.898,10.254,18.555,41.016,0
1553806397.427,-12.207,36.621,14.648,25.391,110.840,0
1553806397.431,49.316,30.273,16.113,10.742,76.172,0
1553806397.435,46.875,36.621,13.672,16.602,60.059,0
1553806397.438,-19.531,44.434,9.766,13.672,54.199,0
1553806397.442,-66.406,45.410,10.254,11.719,20.020,0
1553806397.446,-63.477,44.922,9.277,27.832,22.461,0
1553806397.450,-18.066,56.641,7.324,20.996,89.355,0
1553806397.454,-17.578,54.688,23.926,-14.648,113.281,0
1553806397.458,-41.504,42.969,31.250,-24.414,109.375,0
1553806397.462,-39.551,44.434,36.621,6.348,45.410,0
1553806397.466,-55.176,41.992,31.738,-5.859,19.043,0
1553806397.470,-42.480,39.062,12.207,-17.578,91.797,0
1553806397.474,-33.203,56.152,22.461,8.301,41.504,0
1553806397.478,-63.477,57.129,37.598,1.953,28.320,0
1553806397.481,-44.922,54.199,31.250,-41.992,58.594,0
1553806397.485,-23.926,58.105,24.414,-52.734,27.832,0
1553806397.489,-40.039,57.129,32.715,-24.414,0.000,0
1553806397.493,-67.383,69.336,22.461,-38.574,20.020,0
1553806397.497,-114.746,83.008,6.348,-88.379,-9.766,0
1553806397.501,-169.434,80.566,31.738,-119.141,-34.180,0
1553806397.505,-216.797,79.102,47.852,-135.742,-18.555,0
1553806397.509,-221.680,92.285,46.387,-165.039,-41.992,0
1553806397.513,-217.773,91.309,49.316,-170.898,53.711,0
1553806397.517,-235.840,89.844,43.457,-187.012,70.312,0
1553806397.521,-234.863,110.840,61.523,-212.891,17.090,0
1553806397.524,-239.746,115.723,67.383,-225.098,27.832,0
1553806397.528,-254.883,104.492,60.059,-238.281,94.238,0
1553806397.532,-262.695,100.586,75.195,-218.262,96.680,0
1553806397.536,-262.207,99.121,53.223,-209.473,48.340,0
1553806397.540,-258.789,87.891,28.809,-246.094,57.617,0
1553806397.544,-263.184,87.891,67.871,-249.023,77.637,0
1553806397.548,-235.840,72.266,89.355,-225.098,83.008,0
1553806397.552,-225.586,55.664,50.781,-178.223,50.781,0
1553806397.556,-211.914,89.844,18.555,-151.855,80.566,0
1553806397.560,-194.824,83.496,67.871,-152.344,80.566,0
1553806397.563,-181.152,53.711,97.656,-110.840,33.691,0
1553806397.567,-143.555,60.059,78.613,-73.242,31.250,0
1553806397.571,-85.449,52.734,56.152,-70.312,49.805,0
1553806397.575,-69.824,47.363,42.480,-74.707,23.438,0
1553806397.579,-74.219,42.480,40.527,-48.340,38.086,0
1553806397.583,-26.855,30.273,38.086,8.301,35.645,0
1553806397.587,27.832,22.461,29.297,23.438,27.344,0
1553806397.591,27.344,27.344,14.160,22.461,9.277,0
1553806397.595,33.691,30.273,2.441,51.270,32.227,0
1553806397.599,24.902,21.973,-2.930,81.055,91.797,0
1553806397.603,27.832,15.625,-3.418,77.637,29.785,0
1553806397.606,59.082,7.812,-6.836,64.453,59.570,0
1553806397.610,50.293,12.695,-8.301,88.379,70.312,0
1553806397.614,68.848,28.320,-12.207,121.094,72.754,0
1553806397.618,91.797,20.020,-21.484,127.441,57.129,0
1553806397.622,82.520,2.930,-13.184,97.168,-15.625,0
1553806397.626,77.148,17.090,-2.930,74.219,-6.348,0
1553806397.630,68.359,21.484,-1.953,76.172,23.438,0
1553806397.634,62.988,11.719,-1.465,101.074,50.293,0
1553806397.638,86.914,19.531,-3.418,114.746,9.277,0
1553806397.642,92.285,23.926,-11.719,112.305,-11.719,0
1553806397.646,56.641,19.531,-13.184,88.867,55.176,0
1553806397.649,84.473,20.020,-7.812,77.637,92.773,0
1553806397.653,94.727,16.602,-14.160,102.051,27.344,0
1553806397.657,64.941,10.742,-12.207,100.098,-35.645,0
1553806397.661,69.824,10.254,-15.137,87.891,-7.812,0
1553806397.665,68.359,17.578,-12.207,87.402,16.113,0
1553806397.669,68.359,18.555,0.977,83.984,82.031,0
1553806397.673,73.242,18.066,1.465,87.891,131.348,0
1553806397.677,60.547,21.484,-0.488,105.957,23.926,0
1553806397.681,59.082,20.020,-2.441,98.633,18.066,0
1553806397.685,91.797,23.926,-5.859,98.633,27.344,0
1553806397.688,104.980,27.832,-9.766,120.605,50.293,0
1553806397.692,46.387,26.855,-15.137,78.613,74.219,0
1553806397.696,37.109,28.320,-2.930,71.289,33.203,0
1553806397.700,47.852,28.809,1.953,92.773,5.859,0
1553806397.704,61.035,24.902,0.977,90.332,40.039,0
1553806397.708,73.730,21.484,3.418,76.172,39.551,0
1553806397.712,87.402,28.809,0.977,79.590,-46.387,0
1553806397.716,94.727,29.785,0.000,84.473,-80.078,0
1553806397.720,71.777,30.762,5.371,73.730,-15.625,0
1553806397.724,47.363,29.785,9.277,81.543,67.871,0
1553806397.728,51.758,7.324,-5.371,69.824,107.910,0
1553806397.731,63.965,1.465,-6.836,68.848,87.402,0
1553806397.735,71.289,28.809,2.441,79.590,41.992,0
1553806397.739,34.668,35.156,0.977,64.453,27.832,0
1553806397.743,7.324,28.320,13.184,56.641,60.547,0
1553806397.747,47.852,24.414,29.297,70.801,48.340,0
1553806397.751,64.941,29.785,22.949,58.594,56.152,0
1553806397.755,63.477,36.133,14.160,33.691,91.309,0
1553806397.759,56.641,28.320,11.230,31.250,11.230,0
1553806397.763,41.992,35.156,12.207,44.922,-0.488,0
1553806397.767,53.711,41.504,1.953,42.480,71.777,0
1553806397.771,29.297,33.691,-0.488,42.480,45.410,0
1553806397.774,38.086,30.273,17.578,49.316,-20.020,0
1553806397.778,58.105,32.715,19.043,56.641,31.738,0
1553806397.782,46.875,33.203,14.160,49.805,76.172,0
1553806397.786,28.809,31.250,13.672,49.316,40.527,0
1553806397.790,34.180,32.715,4.883,53.223,-0.977,0
1553806397.794,40.527,34.668,-4.883,44.922,42.480,0
1553806397.798,20.020,29.297,6.348,39.551,41.504,0
1553806397.802,30.273,27.344,13.672,41.504,4.883,0
1553806397.806,49.805,26.855,14.160,60.059,2.441,0
1553806397.810,65.430,30.273,9.277,53.223,49.805,0
1553806397.813,54.688,41.504,4.395,51.270,90.820,0
1553806397.817,47.852,44.922,5.859,48.828,28.320,0
1553806397.821,52.734,37.598,6.836,45.898,7.812,0
1553806397.825,62.988,40.527,8.301,62.500,48.828,0
1553806397.829,43.457,43.945,14.160,63.477,86.914,0
1553806397.833,41.992,35.645,22.949,34.668,84.473,0
1553806397.837,36.133,35.156,31.250,26.855,27.344,0
1553806397.841,27.344,41.016,33.691,44.434,-0.977,0
1553806397.845,37.598,40.527,20.996,45.898,54.199,0
1553806397.849,34.668,38.086,7.324,40.039,58.594,0
1553806397.853,43.945,38.086,14.648,30.273,81.543,0
1553806397.856,44.434,36.621,20.020,30.273,46.875,0
1553806397.860,26.855,33.691,19.043,42.969,-48.340,0
1553806397.864,40.527,38.574,14.648,31.738,7.324,0
1553806397.868,44.434,40.527,-0.488,17.578,58.594,0
1553806397.872,41.992,36.621,2.441,41.504,34.180,0
1553806397.876,29.297,35.156,16.602,29.297,22.461,0
1553806397.880,36.621,33.691,18.555,21.484,44.434,0
1553806397.884,60.547,36.621,18.066,28.320,108.887,0
1553806397.888,43.457,38.086,18.555,19.043,103.027,0
1553806397.892,63.965,37.109,20.020,15.625,7.812,0
1553806397.896,42.969,37.598,16.602,27.832,16.113,0
1553806397.899,17.578,41.992,8.301,42.480,22.461,0
1553806397.903,13.672,39.551,9.277,37.109,3.906,0
1553806397.907,23.926,28.320,12.695,20.996,39.551,0
1553806397.911,29.297,19.043,14.160,16.602,68.848,0
1553806397.915,24.414,33.691,12.695,25.391,53.711,0
1553806397.919,44.922,43.457,11.719,23.438,51.270,0
1553806397.923,44.434,41.992,11.719,23.926,83.008,0
1553806397.927,62.500,49.316,8.301,27.832,45.410,0
1553806397.931,53.223,52.734,7.324,38.086,10.254,0
1553806397.935,18.066,40.039,5.859,27.832,59.570,0
1553806397.938,32.715,40.527,-12.207,5.371,66.895,0
1553806397.942,49.316,53.711,-11.230,26.367,19.531,0
1553806397.946,46.875,45.898,16.113,29.785,33.691,0
1553806397.950,46.387,41.016,21.973,24.902,49.805,0
1553806397.954,40.039,46.875,18.066,29.785,2.441,0
1553806397.958,28.320,50.781,24.414,56.152,26.367,0
1553806397.962,37.109,52.734,20.508,45.898,49.316,0
1553806397.966,48.828,50.781,16.113,3.906,18.066,0
1553806397.970,44.434,43.945,20.020,7.324,17.090,0
1553806397.974,33.691,41.992,18.066,9.277,27.344,0
1553806397.978,32.227,42.480,15.137,8.301,65.918,0
1553806397.981,33.691,39.551,11.719,13.184,44.434,0
1553806397.985,18.066,48.340,6.348,14.160,20.020,0
1553806397.989,28.320,54.199,-0.977,0.977,64.941,0
1553806397.993,61.035,53.711,-21.973,-8.789,83.496,0
1553806397.997,32.715,41.992,-11.719,20.020,17.578,0
1553806398.001,14.648,41.016,19.531,32.227,-1.465,0
1553806398.005,50.293,41.016,12.207,29.297,58.594,0
1553806398.009,32.227,45.410,5.859,33.203,37.598,0
1553806398.013,0.000,62.012,13.184,32.227,-11.230,0
1553806398.017,19.531,62.500,12.695,33.691,12.695,0
1553806398.021,48.340,42.969,33.203,55.176,74.707,0
1553806398.024,62.012,35.156,35.156,69.824,102.051,0
1553806398.028,37.109,52.734,-39.062,55.664,67.383,0
1553806398.032,26.367,62.988,-70.801,30.762,18.066,0
1553806398.036,18.555,42.969,6.836,15.625,71.777,0
1553806398.040,24.902,35.156,61.523,13.184,69.336,0
1553806398.044,24.902,53.711,70.312,21.484,-0.977,0
1553806398.048,32.715,56.152,49.805,39.551,61.523,0
1553806398.052,53.711,47.363,-7.324,20.020,69.336,0
1553806398.056,26.367,50.293,3.418,-29.785,-10.742,0
1553806398.060,20.996,67.871,3.418,29.297,14.160,0
1553806398.063,70.801,64.453,-41.016,106.934,79.102,0
1553806398.067,96.191,29.297,-19.531,45.410,79.102,0
1553806398.071,28.809,19.043,44.922,15.137,38.574,0
1553806398.075,-8.301,43.457,65.918,6.348,39.551,0
1553806398.079,34.180,55.664,42.969,-7.324,40.527,0
1553806398.083,6.348,55.664,24.414,9.766,16.602,0
1553806398.087,-21.484,29.785,-88.867,14.648,-21.484,0
1553806398.091,28.809,12.207,-156.738,61.523,-26.367,0
1553806398.095,25.879,27.832,31.250,14.648,-10.742,0
1553806398.099,-38.086,19.531,190.430,-87.402,11.230,0
1553806398.103,-40.527,15.625,156.738,-83.008,41.992,0
1553806398.106,-13.184,-3.418,120.117,-41.504,17.090,0
1553806398.110,0.000,-5.371,41.504,0.000,35.645,0
1553806398.114,-31.738,26.855,0.488,-45.410,72.266,0
1553806398.118,-77.148,20.508,104.004,-69.336,53.711,0
1553806398.122,-58.105,24.414,62.988,-33.691,79.102,0
1553806398.126,-61.523,32.715,27.832,-44.922,83.984,0
1553806398.130,-55.664,30.273,118.164,-27.344,35.156,0
1553806398.134,-27.344,21.484,109.863,-14.648,-8.301,0
1553806398.138,-33.203,8.789,14.648,-31.738,93.750,0
1553806398.142,-13.672,-16.602,9.277,-20.508,101.562,0
1553806398.146,-23.926,-31.738,34.668,-22.461,-23.926,0
1553806398.149,-55.664,5.859,108.887,-35.645,33.691,0
1553806398.153,-53.223,20.508,176.758,-24.414,84.473,0
1553806398.157,-56.641,-0.488,144.043,16.113,24.902,0
1553806398.161,-47.852,3.906,104.004,26.855,14.160,0
1553806398.165,-24.902,22.949,10.742,17.090,37.598,0
1553806398.169,-6.836,16.602,35.645,25.391,-5.371,0
1553806398.173,-44.922,-7.324,144.531,30.273,79.590,0
1553806398.177,-78.125,-15.625,122.559,30.762,97.168,0
1553806398.181,-48.828,-4.395,99.609,12.695,45.898,0
1553806398.185,-26.855,9.766,111.328,14.160,67.871,0
1553806398.188,-6.348,17.090,89.355,-4.395,64.453,0
1553806398.192,13.672,8.789,50.781,-22.949,46.387,0
1553806398.196,13.184,8.789,39.062,13.672,37.109,0
1553806398.200,-16.602,9.277,54.199,38.086,85.938,0
1553806398.204,-25.879,10.742,37.109,40.039,45.410,0
1553806398.208,0.000,11.230,5.371,28.320,-12.207,0
1553806398.212,14.160,0.000,48.340,25.391,31.250,0
1553806398.216,-9.766,10.742,90.332,-20.020,15.137,0
1553806398.220,-12.695,17.578,51.758,4.395,32.715,0
1553806398.224,-1.953,14.648,12.207,61.035,39.062,0
1553806398.228,2.930,17.090,46.875,55.664,-10.742,0
1553806398.231,-6.348,23.438,51.758,39.551,1.953,0
1553806398.235,-32.715,28.809,36.133,19.043,20.996,0
1553806398.239,-26.367,28.809,54.199,29.785,40.039,0
1553806398.243,-9.766,7.812,61.035,57.617,38.086,0
1553806398.247,-18.066,7.812,30.273,59.570,23.926,0
1553806398.251,-17.578,37.598,14.648,11.719,31.250,0
1553806398.255,-11.230,34.180,8.789,-37.109,70.312,0
1553806398.259,-5.371,20.996,-5.859,-28.809,112.793,0
1553806398.263,17.090,33.203,13.184,7.324,84.473,0
1553806398.267,36.621,48.828,44.434,-1.953,34.180,0
1553806398.271,16.113,48.340,20.020,-7.324,7.812,0
1553806398.274,-36.133,38.086,-19.531,39.551,43.457,0
1553806398.278,-32.227,29.785,-12.207,52.734,47.852,0
1553806398.282,22.461,33.203,41.992,71.777,-1.465,0
1553806398.286,47.852,29.297,-10.742,84.961,26.855,0
1553806398.290,-1.953,20.020,-67.383,50.293,80.566,0
1553806398.294,-18.066,44.434,26.367,35.156,48.828,0
1553806398.298,-1.465,73.242,62.988,-9.766,-2.930,0
1553806398.302,-1.953,71.289,14.160,46.387,33.691,0
1553806398.306,-8.789,58.594,19.043,44.922,-0.488,0
1553806398.310,2.930,55.664,38.574,-13.672,51.270,0
1553806398.313,31.738,52.246,29.297,36.133,93.750,0
1553806398.317,32.715,37.109,16.113,-6.836,44.434,0
1553806398.321,32.227,41.016,10.254,-25.879,54.199,0
1553806398.325,25.879,53.711,24.902,13.672,67.383,0
1553806398.329,-0.977,53.711,12.207,8.789,43.457,0
1553806398.333,-23.926,40.527,-25.391,42.969,-17.578,0
1553806398.337,-29.785,35.156,-17.578,48.828,-21.484,0
1553806398.341,-26.855,40.527,38.574,-0.977,52.734,0
1553806398.345,0.000,45.410,56.152,27.344,43.457,0
1553806398.349,56.152,54.688,26.855,48.340,29.785,0
1553806398.353,32.715,55.176,12.695,20.020,107.422,0
1553806398.356,-20.996,49.316,24.414,13.672,88.379,0
1553806398.360,3.418,49.805,19.531,27.832,37.598,0
1553806398.364,11.230,53.223,18.066,45.898,62.500,0
1553806398.368,-44.434,51.270,20.996,12.207,29.297,0
1553806398.372,-65.918,50.781,19.531,-2.441,-27.832,0
1553806398.376,-35.645,60.059,24.902,20.020,23.926,0
1553806398.380,-40.039,63.477,13.184,2.930,86.426,0
1553806398.384,-51.270,56.641,10.742,-18.555,105.469,0
1553806398.388,-35.156,62.012,15.137,-50.293,59.570,0
1553806398.392,-66.895,58.594,11.230,-38.086,36.133,0
1553806398.396,-68.848,55.176,32.227,-1.953,80.078,0
1553806398.399,-63.477,76.172,28.809,-21.973,77.148,0
1553806398.403,-94.238,93.262,12.207,-48.828,38.086,0
1553806398.407,-79.102,103.516,9.766,-66.406,-3.906,0
1553806398.411,-115.234,110.840,-1.465,-109.375,59.082,0
1553806398.415,-196.289,115.723,1.953,-131.836,65.918,0
1553806398.419,-200.195,122.070,23.926,-97.656,-0.977,0
1553806398.423,-168.457,130.859,33.691,-84.961,64.453,0
1553806398.427,-167.480,137.207,35.645,-108.398,76.660,0
1553806398.431,-161.133,128.418,-26.855,-162.598,62.500,0
1553806398.435,-163.574,113.770,-62.988,-137.207,27.344,0
1553806398.438,-182.617,113.281,-5.859,-112.305,19.043,0
1553806398.442,-144.043,111.816,14.648,-99.609,55.176,0
1553806398.446,-140.625,112.793,-8.789,-95.215,61.523,0
1553806398.450,-144.043,125.000,-38.086,-81.055,29.297,0
1553806398.454,-89.355,130.371,-50.781,-43.457,38.086,0
1553806398.458,-34.668,123.535,-46.387,-28.320,31.250,0
1553806398.462,-20.020,109.375,-48.340,9.766,-31.738,0
1553806398.466,-1.953,111.816,-45.410,35.156,5.371,0
1553806398.470,5.371,125.977,-78.613,19.531,-8.301,0
1553806398.474,-47.363,108.398,-88.379,-7.812,-10.254,0
1553806398.478,-16.113,101.562,-49.805,5.371,2.441,0
1553806398.481,8.789,108.398,-49.805,61.035,-43.945,0
1553806398.485,-3.906,106.934,-60.059,77.148,-17.090,0
1553806398.489,26.855,106.934,-71.777,45.410,56.152,0
1553806398.493,63.965,104.004,-67.871,48.340,108.398,0
1553806398.497,89.355,96.191,-62.988,78.613,-35.645,0
1553806398.501,55.664,92.285,-63.477,75.684,-72.754,0
1553806398.505,13.672,87.891,-59.082,62.988,6.348,0
1553806398.509,35.645,86.914,-60.059,78.613,24.414,0
1553806398.513,56.152,85.938,-53.223,93.262,43.945,0
1553806398.517,64.941,81.055,-45.898,86.426,27.344,0
1553806398.521,60.059,72.754,-38.574,73.730,10.254,0
1553806398.524,58.105,61.523,-38.574,57.129,-27.344,0
1553806398.528,89.355,62.500,-36.621,65.430,-4.395,0
1553806398.532,108.887,72.754,-20.508,103.516,42.480,0
1553806398.536,62.500,65.430,-21.484,99.609,86.426,0
1553806398.540,30.273,45.898,-26.855,78.125,83.496,0
1553806398.544,63.477,46.875,-15.625,60.059,41.016,0
1553806398.548,75.684,58.105,-20.508,61.523,46.875,0
1553806398.552,74.219,50.293,-19.531,78.125,39.551,0
1553806398.556,43.945,48.828,5.371,56.641,55.664,0
1553806398.560,36.133,52.734,14.160,41.016,62.012,0
1553806398.563,70.312,50.781,11.230,47.852,72.266,0
1553806398.567,78.613,41.992,8.789,35.156,50.293,0
1553806398.571,61.523,50.293,12.207,53.223,36.133,0
1553806398.575,64.453,62.012,18.555,90.332,82.520,0
1553806398.579,53.223,52.246,26.855,83.984,86.426,0
1553806398.583,53.711,49.316,22.949,44.922,41.992,0
1553806398.587,68.848,48.340,22.461,21.973,33.203,0
1553806398.591,83.008,42.480,27.832,32.715,110.840,0
1553806398.595,97.168,41.992,20.996,31.250,67.871,0
1553806398.599,72.754,41.016,16.113,29.785,12.695,0
1553806398.603,25.391,38.574,25.879,67.871,32.227,0
1553806398.606,28.320,38.086,36.133,46.387,51.758,0
1553806398.610,77.148,39.062,38.086,28.320,49.805,0
1553806398.614,84.473,37.109,34.180,59.570,20.020,0
1553806398.618,73.730,42.969,38.086,45.410,1.953,0
1553806398.622,99.121,43.945,42.969,41.504,61.523,0
1553806398.626,79.102,35.156,26.855,36.133,15.625,0
1553806398.630,47.363,35.156,31.250,-0.488,-18.555,0
1553806398.634,41.504,40.039,47.363,-4.883,43.945,0
1553806398.638,7.324,43.457,41.504,-15.137,62.500,0
1553806398.642,22.461,47.363,35.156,-25.879,43.945,0
1553806398.646,25.879,46.875,41.992,-20.996,11.230,0
1553806398.649,-35.156,45.898,36.133,-4.883,20.508,0
1553806398.653,-35.645,55.176,31.250,-34.180,51.758,0
1553806398.657,-33.203,57.129,50.293,-83.496,81.543,0
1553806398.661,-60.059,63.477,70.801,-97.168,2.930,0
1553806398.665,-104.980,76.172,65.430,-125.488,25.879,0
1553806398.669,-130.859,68.359,62.500,-141.602,65.918,0
1553806398.673,-114.258,68.848,54.199,-129.395,45.898,0
1553806398.677,-120.605,75.684,31.250,-151.855,48.340,0
1553806398.681,-132.324,71.289,61.523,-202.637,84.473,0
1553806398.685,-170.410,80.078,100.586,-212.891,91.797,0
1553806398.688,-213.867,70.801,100.586,-196.289,61.523,0
1553806398.692,-203.613,58.594,98.145,-198.242,34.668,0
1553806398.696,-162.109,79.590,99.609,-191.895,54.688,0
1553806398.700,-178.223,83.984,65.430,-199.707,86.914,0
1553806398.704,-211.914,72.754,36.621,-202.148,70.312,0
1553806398.708,-159.180,70.801,48.828,-176.270,64.941,0
1553806398.712,-130.859,58.594,47.363,-147.461,57.129,0
1553806398.716,-145.996,55.664,54.199,-155.273,62.012,0
1553806398.720,-131.348,42.480,71.289,-155.273,88.379,0
1553806398.724,-94.238,28.320,57.617,-118.652,61.523,0
1553806398.728,-98.145,33.203,61.035,-112.305,78.613,0
1553806398.731,-82.520,31.250,80.078,-68.359,88.379,0
1553806398.735,-17.090,22.461,67.383,-0.488,34.668,0
1553806398.739,0.000,16.113,50.781,-30.273,12.695,0
1553806398.743,5.371,12.207,34.180,-31.738,48.828,0
1553806398.747,32.715,20.996,16.602,35.156,55.176,0
1553806398.751,52.734,23.926,11.719,51.758,20.508,0
1553806398.755,53.711,16.113,-3.418,66.406,-36.621,0
1553806398.759,86.914,11.230,-19.531,99.121,-23.438,0
1553806398.763,117.676,12.695,-15.625,121.094,5.859,0
1553806398.767,114.258,16.113,-6.836,127.441,23.926,0
1553806398.771,100.586,16.113,0.488,136.230,31.738,0
1553806398.774,123.047,14.160,1.465,137.207,59.570,0
1553806398.778,160.156,9.766,-7.812,132.324,55.176,0
1553806398.782,144.043,8.301,-10.742,138.184,-19.531,0
1553806398.786,95.215,10.254,-13.184,117.188,-6.348,0
1553806398.790,98.633,16.602,-16.113,108.398,9.766,0
1553806398.794,110.352,7.812,-10.254,120.605,-1.465,0
1553806398.798,110.840,3.906,-7.324,121.582,-12.207,0
1553806398.802,121.582,19.531,-19.531,116.211,10.742,0
1553806398.806,105.957,21.973,-17.578,92.773,-5.859,0
1553806398.810,105.957,17.578,-7.324,110.352,-6.836,0
1553806398.813,123.535,12.207,-2.930,149.902,38.086,0
1553806398.817,114.258,18.066,-11.719,133.789,40.039,0
1553806398.821,77.637,22.949,-34.180,106.445,36.621,0
1553806398.825,80.566,14.648,-27.344,113.281,29.785,0
1553806398.829,117.188,18.066,2.441,96.680,54.688,0
1553806398.833,113.281,24.902,24.902,88.867,45.410,0
1553806398.837,113.281,24.414,25.391,98.145,27.344,0
1553806398.841,105.957,31.250,16.113,115.723,-1.953,0
1553806398.845,98.633,38.086,10.742,117.188,-43.945,0
1553806398.849,80.078,38.574,5.371,101.074,-22.461,0
1553806398.853,99.609,28.809,5.859,106.934,37.598,0
1553806398.856,112.793,25.879,12.695,105.957,20.020,0
1553806398.860,99.609,32.227,10.742,85.449,29.785,0
1553806398.864,94.727,29.785,7.812,83.496,58.594,0
1553806398.868,90.820,25.879,6.836,86.426,41.016,0
1553806398.872,93.262,22.461,6.348,107.422,35.645,0
1553806398.876,81.543,27.832,9.766,123.047,81.055,0
1553806398.880,83.984,32.715,16.113,84.961,104.492,0
1553806398.884,96.191,35.156,17.578,54.688,43.457,0
1553806398.888,104.980,35.645,16.113,81.055,36.621,0
1553806398.892,87.402,28.809,13.184,89.355,70.801,0
1553806398.896,85.938,28.809,14.160,78.125,51.270,0
1553806398.899,122.070,30.762,17.090,108.398,80.566,0
1553806398.903,128.906,30.762,16.113,102.051,76.172,0
1553806398.907,65.430,33.691,4.395,52.246,82.031,0
1553806398.911,46.875,27.832,7.324,37.598,130.371,0
1553806398.915,79.590,27.832,20.508,68.848,59.570,0
1553806398.919,85.449,35.645,24.414,75.684,80.566,0
1553806398.923,74.219,40.039,23.438,55.176,80.566,0
1553806398.927,69.824,26.855,17.578,43.457,53.223,0
1553806398.931,62.012,19.043,17.090,52.734,31.250,0
1553806398.935,64.453,42.969,19.531,45.410,8.301,0
1553806398.938,78.613,40.039,2.930,29.785,26.367,0
1553806398.942,69.336,34.180,-50.293,57.129,21.973,0
1553806398.946,94.727,51.270,-22.949,65.430,42.480,0
1553806398.950,70.801,48.828,53.223,54.688,58.105,0
1553806398.954,44.434,30.273,48.828,48.340,92.773,0
1553806398.958,61.523,25.879,31.738,30.273,92.285,0
1553806398.962,80.566,40.039,31.738,13.672,62.012,0
1553806398.966,58.594,46.875,25.879,16.602,76.172,0
1553806398.970,23.438,42.480,24.902,30.273,120.605,0
1553806398.974,55.664,36.621,19.043,31.250,36.621,0
1553806398.978,61.523,31.738,8.301,41.992,-18.555,0
1553806398.981,45.898,34.668,12.207,40.527,-39.551,0
1553806398.985,55.176,39.062,20.996,20.996,-43.457,0
1553806398.989,51.758,40.039,15.137,21.973,-37.109,0
1553806398.993,61.035,40.039,11.230,28.320,27.344,0
1553806398.997,74.707,37.598,14.648,46.875,66.895,0
1553806399.001,96.680,44.922,12.207,51.270,19.531,0
1553806399.005,105.469,47.363,10.254,33.203,4.395,0
1553806399.009,80.566,38.574,22.461,47.363,55.664,0
1553806399.013,45.410,31.250,14.160,45.410,82.520,0
1553806399.017,19.531,31.738,-17.578,35.645,54.199,0
1553806399.021,32.715,39.551,-9.766,32.227,12.695,0
1553806399.024,64.941,41.016,24.414,26.367,19.043,0
1553806399.028,67.871,31.738,40.527,43.945,45.898,0
1553806399.032,70.801,29.297,33.203,63.477,48.340,0
1553806399.036,45.410,51.270,20.020,13.184,34.668,0
1553806399.040,20.020,65.430,20.996,-16.602,92.285,0
1553806399.044,40.527,62.500,13.672,1.953,55.664,0
1553806399.048,18.555,58.594,5.859,-24.414,51.758,0
1553806399.052,-17.578,48.340,25.879,-56.152,166.016,0
1553806399.056,-1.953,46.387,32.715,-62.012,66.406,0
1553806399.060,-16.602,41.504,25.879,-45.898,5.371,0
1553806399.063,-51.270,45.410,22.461,-33.203,49.805,0
1553806399.067,-48.340,51.270,16.113,-34.180,61.523,0
1553806399.071,1.465,48.340,12.695,-28.809,86.914,0
1553806399.075,17.578,43.457,0.488,-17.090,36.133,0
1553806399.079,20.508,35.645,-26.855,-2.930,30.762,0
1553806399.083,40.039,39.062,-18.555,10.254,96.680,0
1553806399.087,47.363,48.828,27.832,10.742,90.820,0
1553806399.091,44.922,46.875,59.570,-2.441,100.098,0
1553806399.095,-1.953,47.852,57.617,-17.578,49.316,0
1553806399.099,-18.555,40.527,47.852,4.883,34.180,0
1553806399.103,18.555,41.504,34.668,27.344,63.477,0
1553806399.106,46.387,45.410,20.020,-1.465,82.520,0
1553806399.110,25.879,48.340,16.602,-8.789,85.449,0
1553806399.114,18.555,48.828,16.113,15.137,21.484,0
1553806399.118,35.156,35.645,16.602,14.648,21.484,0
1553806399.122,33.203,32.227,23.438,17.090,26.367,0
1553806399.126,28.809,41.992,22.461,19.531,20.020,0
1553806399.130,32.715,49.805,20.996,10.742,-19.531,0
1553806399.134,48.340,38.086,2.441,38.574,-48.828,0
1553806399.138,41.992,36.621,-13.184,49.805,-9.766,0
1553806399.142,54.688,45.898,20.020,21.484,16.113,0
1553806399.146,31.738,39.062,44.922,18.066,33.691,0
1553806399.149,22.461,36.621,37.109,10.254,71.289,0
1553806399.153,43.945,38.574,30.273,-17.090,62.988,0
1553806399.157,41.016,37.109,23.438,16.113,60.547,0
1553806399.161,54.199,38.086,2.441,53.711,64.453,0
1553806399.165,72.754,36.621,-19.531,28.320,39.551,0
1553806399.169,50.293,28.809,11.230,11.719,20.508,0
1553806399.173,23.926,35.645,47.363,32.227,35.156,0
1553806399.177,54.199,51.270,42.969,36.133,51.270,0
1553806399.181,68.359,47.852,26.855,16.602,11.719,0
1553806399.185,60.547,41.504,13.184,22.949,15.137,0
1553806399.188,70.312,44.434,8.789,46.875,29.297,0
1553806399.192,72.266,46.387,5.859,54.688,34.668,0
1553806399.196,49.805,45.898,3.906,59.570,8.301,0
1553806399.200,38.086,45.898,15.137,71.777,15.625,0
1553806399.204,53.711,43.945,27.344,55.664,61.523,0
1553806399.208,69.336,41.992,22.949,7.812,56.641,0
1553806399.212,70.801,42.969,12.207,6.836,-2.930,0
1553806399.216,49.805,31.250,-4.883,9.766,24.902,0
1553806399.220,38.574,20.508,1.953,-3.418,17.090,0
1553806399.224,40.039,33.203,21.484,34.180,-41.016,0
1553806399.228,36.133,39.551,-1.953,44.434,20.020,0
1553806399.231,56.152,34.668,12.207,22.949,37.109,0
1553806399.235,36.133,32.227,54.688,18.066,4.883,0
1553806399.239,41.992,33.203,49.316,20.996,25.391,0
1553806399.243,77.637,31.250,32.715,29.785,12.695,0
1553806399.247,52.734,30.762,28.809,37.598,23.926,0
1553806399.251,52.246,38.086,25.391,36.133,3.906,0
1553806399.255,57.129,35.645,14.648,26.855,54.199,0
1553806399.259,55.664,34.668,13.184,42.969,62.012,0
1553806399.263,66.406,41.504,17.578,22.949,-3.906,0
1553806399.267,55.664,42.480,15.625,20.020,18.555,0
1553806399.271,41.016,41.504,9.766,26.367,54.688,0
1553806399.274,44.434,39.551,14.160,35.645,69.336,0
1553806399.278,52.734,39.062,17.578,60.059,82.520,0
1553806399.282,68.848,34.668,7.812,48.340,61.523,0
1553806399.286,62.500,33.203,4.395,24.902,84.473,0
1553806399.290,35.156,36.133,7.324,17.578,42.480,0
1553806399.294,47.852,32.227,17.090,7.324,42.480,0
1553806399.298,75.195,42.969,31.250,6.836,76.172,0
1553806399.302,84.473,43.457,32.227,14.160,13.184,0
1553806399.306,64.453,30.762,19.531,33.691,-0.977,0
1553806399.310,38.574,36.133,20.020,42.969,15.625,0
1553806399.313,22.461,42.480,23.926,44.922,37.598,0
1553806399.317,29.785,38.574,24.414,24.902,-37.109,0
1553806399.321,65.918,34.180,32.227,14.648,-19.531,0
1553806399.325,72.266,36.621,25.391,29.785,31.738,0
1553806399.329,55.176,38.574,21.973,39.551,3.418,0
1553806399.333,38.574,34.180,34.668,38.574,76.660,0
1553806399.337,46.875,31.250,37.109,34.180,107.910,0
1553806399.341,77.148,32.227,33.203,29.297,100.586,0
1553806399.345,57.617,32.227,24.414,28.809,46.875,0
1553806399.349,33.691,31.738,10.254,41.016,38.086,0
1553806399.353,45.898,37.109,12.207,63.477,38.086,0
1553806399.356,45.410,36.621,30.762,47.363,34.180,0
1553806399.360,55.176,25.879,27.344,27.344,16.602,0
1553806399.364,65.918,19.043,-5.371,26.855,20.508,0
1553806399.368,44.922,22.461,10.254,25.391,52.246,0
1553806399.372,54.688,27.832,45.410,40.039,-4.883,0
1553806399.376,71.777,34.180,42.480,33.691,36.621,0
1553806399.380,51.758,36.133,33.691,16.602,81.543,0
1553806399.384,61.035,35.156,31.250,24.414,-2.930,0
1553806399.388,55.664,35.156,31.738,35.156,13.672,0
1553806399.392,36.621,34.668,20.508,28.320,39.062,0
1553806399.396,44.434,36.621,14.160,29.297,-9.766,0
1553806399.399,35.645,32.715,1.953,32.715,10.254,0
1553806399.403,30.762,30.762,-12.207,26.855,65.430,0
1553806399.407,37.109,35.156,32.227,23.438,97.656,0
1553806399.411,45.410,35.156,63.477,41.016,71.777,0
1553806399.415,53.711,31.250,56.152,46.875,-1.465,0
1553806399.419,41.504,29.785,42.969,30.762,80.566,0
1553806399.423,37.109,29.297,36.621,25.879,131.348,0
1553806399.427,56.152,30.273,26.367,33.203,54.688,0
1553806399.431,36.621,36.133,17.578,30.762,92.285,0
1553806399.435,6.348,28.320,25.879,28.809,99.121,0
1553806399.438,35.156,26.855,25.391,23.926,86.426,0
1553806399.442,36.621,41.504,25.879,30.762,36.621,0
1553806399.446,23.438,38.086,34.668,31.250,3.418,0
1553806399.450,75.684,27.344,34.180,58.105,25.879,0
1553806399.454,93.262,34.180,26.855,87.891,54.199,0
1553806399.458,22.461,46.387,21.973,31.738,34.668,0
1553806399.462,-0.488,40.527,22.461,-8.789,9.277,0
1553806399.466,46.875,34.668,12.207,35.156,51.270,0
1553806399.470,57.129,40.039,4.883,52.246,19.043,0
1553806399.474,43.457,35.645,18.555,21.973,13.184,0
1553806399.478,47.363,33.203,20.020,18.066,77.148,0
1553806399.481,45.410,31.250,3.906,5.859,58.105,0
1553806399.485,39.551,30.273,9.766,20.996,2.441,0
1553806399.489,58.105,38.574,20.508,54.688,35.645,0
1553806399.493,57.617,39.551,22.461,47.852,27.832,0
1553806399.497,38.574,37.109,28.320,31.738,18.066,0
1553806399.501,39.062,32.715,29.297,45.410,60.059,0
1553806399.505,37.598,31.738,17.090,39.062,56.641,0
1553806399.509,26.855,34.668,4.395,39.062,38.086,0
1553806399.513,25.391,34.668,14.160,49.316,44.434,0
1553806399.517,45.898,38.086,31.250,33.691,41.016,0
1553806399.521,45.410,38.574,38.574,39.062,62.988,0
1553806399.524,35.645,38.086,32.715,49.805,40.527,0
1553806399.528,51.758,35.645,26.367,32.715,-2.441,0
1553806399.532,58.105,34.668,27.344,20.020,35.645,0
1553806399.536,21.973,32.715,27.832,27.832,-1.953,0
1553806399.540,-3.906,26.367,23.438,28.809,-3.418,0
1553806399.544,10.254,28.809,24.414,45.898,29.785,0
1553806399.548,19.043,37.598,26.855,45.410,18.066,0
1553806399.552,33.203,39.551,24.902,29.297,32.715,0
1553806399.556,21.484,36.621,14.160,28.320,64.941,0
1553806399.560,7.812,37.598,10.254,37.598,8.789,0
1553806399.563,29.297,37.598,25.879,37.598,-21.484,0
1553806399.567,44.922,36.621,34.668,27.344,61.035,0
1553806399.571,26.855,33.203,22.949,24.414,31.250,0
1553806399.575,35.156,32.715,-5.859,28.809,5.859,0
1553806399.579,49.316,38.574,4.395,16.602,49.805,0
1553806399.583,10.742,40.527,45.410,27.344,4.883,0
1553806399.587,4.883,38.086,44.922,35.156,-28.809,0
1553806399.591,18.066,38.574,32.227,26.367,29.785,0
1553806399.595,12.207,33.203,31.738,14.648,4.883,0
1553806399.599,0.977,28.809,30.273,16.602,-29.297,0
1553806399.603,8.301,36.133,26.855,35.645,13.184,0
1553806399.606,25.391,41.016,24.414,22.949,62.500,0
1553806399.610,45.410,44.922,16.602,21.484,12.695,0
1553806399.614,46.875,41.992,14.160,25.879,-32.715,0
1553806399.618,23.438,31.738,23.438,27.832,-6.348,0
1553806399.622,30.762,33.203,27.832,28.320,-15.137,0
1553806399.626,36.621,38.574,29.297,16.602,-3.418,0
1553806399.630,4.883,36.621,15.137,26.367,41.016,0
1553806399.634,4.883,38.086,8.301,47.852,95.215,0
1553806399.638,20.020,37.109,28.320,37.109,12.207,0
1553806399.642,11.719,30.762,39.062,48.340,-14.648,0
1553806399.646,22.949,30.273,37.598,40.527,-0.488,0
1553806399.649,28.809,32.227,36.133,24.414,-6.836,0
1553806399.653,12.695,31.738,33.691,47.852,23.438,0
1553806399.657,23.926,29.785,27.832,23.438,7.812,0
1553806399.661,22.461,30.273,24.902,34.668,11.230,0
1553806399.665,18.555,38.574,-0.488,67.871,16.602,0
1553806399.669,56.641,43.945,-15.625,45.898,31.738,0
1553806399.673,50.781,39.551,19.531,-5.371,117.188,0
1553806399.677,-0.488,36.133,32.227,-8.789,47.852,0
1553806399.681,17.578,38.086,28.320,19.043,-20.508,0
1553806399.685,7.324,39.551,47.852,16.113,10.254,0
1553806399.688,-21.484,42.480,50.781,5.371,83.496,0
1553806399.692,6.348,36.133,43.457,8.301,96.680,0
1553806399.696,30.273,29.785,27.344,31.250,35.156,0
1553806399.700,33.691,33.203,19.531,23.926,34.180,0
1553806399.704,22.949,36.621,27.832,21.973,47.363,0
1553806399.708,17.578,36.621,27.832,44.922,63.477,0
1553806399.712,3.906,37.598,17.578,39.062,51.270,0
1553806399.716,5.859,34.180,15.137,23.438,61.523,0
1553806399.720,18.555,29.785,15.137,30.762,89.355,0
1553806399.724,27.344,34.180,15.625,23.438,53.223,0
1553806399.728,26.367,44.434,-2.930,7.324,43.945,0
1553806399.731,35.645,41.016,-9.277,7.812,68.359,0
1553806399.735,25.879,23.438,19.043,2.441,-9.766,0
1553806399.739,-25.879,15.137,13.672,19.531,355.469,0
1553806399.743,-27.344,25.879,10.742,30.762,956.543,0
1553806399.747,-2.930,28.320,28.809,22.949,-998.535,0
1553806399.751,-0.977,22.461,36.621,33.691,978.516,0
1553806399.755,-0.488,26.367,31.738,32.715,944.824,0
1553806399.759,24.414,32.715,22.949,7.324,833.984,0
1553806399.763,23.438,40.527,27.344,-0.977,739.746,0
1553806399.767,-10.254,39.551,30.273,-3.906,668.457,0
1553806399.771,-23.926,31.738,23.438,9.277,597.656,0
1553806399.774,6.836,39.551,28.320,27.344,547.363,0
1553806399.778,1.465,47.363,30.273,14.160,497.070,0
1553806399.782,4.395,48.828,24.414,11.719,434.570,0
1553806399.786,0.488,51.270,25.391,12.695,381.348,0
1553806399.790,-38.086,57.129,31.250,-2.441,303.223,0
1553806399.794,-40.039,58.594,30.273,-21.484,217.285,0
1553806399.798,-37.109,61.523,33.203,-61.035,145.996,0
1553806399.802,-97.656,67.383,50.781,-100.098,113.281,0
1553806399.806,-131.348,71.777,41.504,-125.488,73.242,0
1553806399.810,-136.230,78.613,26.855,-131.348,17.090,0
1553806399.813,-191.895,76.172,43.945,-119.629,-48.828,0
1553806399.817,-198.730,79.102,62.988,-166.016,-121.582,0
1553806399.821,-201.660,74.219,63.477,-208.496,-134.277,0
1553806399.825,-220.703,75.684,60.547,-203.125,-137.207,0
1553806399.829,-259.277,78.125,80.566,-230.957,-125.000,0
1553806399.833,-264.160,74.219,103.516,-229.004,-167.480,0
1553806399.837,-247.070,68.359,116.211,-211.914,-239.258,0
1553806399.841,-224.121,61.523,107.422,-203.125,-231.445,0
1553806399.845,-195.312,64.941,96.191,-174.805,-199.707,0
1553806399.849,-199.707,60.059,105.957,-166.992,-177.246,0
1553806399.853,-190.430,43.945,121.094,-162.598,-188.965,0
1553806399.856,-157.227,34.180,110.840,-125.488,-240.723,0
1553806399.860,-114.258,31.738,87.402,-97.168,-209.961,0
1553806399.864,-85.938,29.297,93.750,-72.754,-182.617,0
1553806399.868,-60.547,21.973,78.125,-48.340,-203.613,0
1553806399.872,-32.715,17.090,21.973,-20.020,-179.199,0
1553806399.876,4.883,17.578,25.391,21.484,-188.965,0
1553806399.880,43.457,13.672,58.594,41.504,-230.957,0
1553806399.884,58.594,6.836,41.992,45.410,-197.266,0
1553806399.888,55.176,11.719,18.555,73.730,-150.391,0
1553806399.892,57.129,18.555,5.859,93.750,-162.109,0
1553806399.896,71.777,22.949,-0.488,85.938,-116.699,0
1553806399.899,84.961,26.855,-2.441,77.637,-83.008,0
1553806399.903,100.098,23.926,-3.418,104.004,-123.047,0
1553806399.907,94.727,20.020,-2.930,120.605,-140.137,0
1553806399.911,93.750,18.555,-4.395,90.820,-137.207,0
1553806399.915,99.609,17.090,-21.973,123.047,-112.793,0
1553806399.919,95.703,17.090,-22.461,125.977,-102.539,0
1553806399.923,105.469,19.531,-3.418,78.613,-46.387,0
1553806399.927,118.164,21.973,-3.418,86.914,-63.477,0
1553806399.931,119.629,18.555,-11.719,106.445,-114.258,0
1553806399.935,117.676,20.996,-16.602,98.633,-63.477,0
1553806399.938,99.609,25.879,-8.789,111.328,-12.207,0
1553806399.942,92.285,25.391,-1.465,102.539,-65.918,0
1553806399.946,101.562,23.438,-0.977,94.727,-71.777,0
1553806399.950,109.375,22.949,-4.883,103.516,-58.594,0
1553806399.954,98.145,26.367,-11.719,93.262,-38.086,0
1553806399.958,86.914,31.738,-3.906,105.469,-4.395,0
1553806399.962,96.680,28.809,2.930,119.141,-41.992,0
1553806399.966,96.191,24.902,1.465,114.258,-71.777,0
1553806399.970,110.840,26.367,0.488,81.055,-41.016,0
1553806399.974,125.488,26.855,0.488,57.617,-13.184,0
1553806399.978,122.070,27.832,0.000,82.520,-50.781,0
1553806399.981,116.699,31.738,-3.418,90.332,-18.066,0
1553806399.985,93.750,30.273,-16.113,102.051,4.395,0
1553806399.989,76.660,31.250,-6.836,106.445,-48.340,0
1553806399.993,97.656,30.762,20.508,89.844,-52.246,0
1553806399.997,107.422,28.320,29.785,71.289,-6.836,0
1553806400.001,101.074,35.156,23.438,85.938,-4.395,0
1553806400.005,107.422,34.668,18.066,90.332,-11.230,0
1553806400.009,93.262,26.855,12.207,56.152,-8.301,0
1553806400.013,72.266,25.879,7.324,66.406,15.625,0
1553806400.017,81.055,25.879,11.719,84.473,28.809,0
1553806400.021,92.285,27.832,17.090,63.477,-1.953,0
1553806400.024,77.148,31.250,21.484,84.961,20.020,0
1553806400.028,78.613,30.273,22.949,90.820,40.527,0
1553806400.032,73.730,32.715,22.949,54.199,-27.344,0
1553806400.036,79.590,32.715,17.578,56.641,1.953,0
1553806400.040,115.234,32.227,16.602,77.148,13.672,0
1553806400.044,78.125,37.109,24.902,62.500,-14.160,0
1553806400.048,35.156,39.062,30.273,31.738,23.438,0
1553806400.052,57.617,35.156,20.508,44.922,34.180,0
1553806400.056,59.570,34.180,8.789,50.293,-12.695,0
1553806400.060,39.062,36.133,-5.859,57.129,-3.906,0
1553806400.063,50.293,35.156,-28.809,50.781,62.500,0
1553806400.067,57.129,34.668,11.230,32.715,-15.137,0
1553806400.071,40.527,30.762,56.152,30.762,-5.859,0
1553806400.075,29.785,34.668,46.387,37.109,61.035,0
1553806400.079,40.039,37.598,38.086,38.086,-1.465,0
1553806400.083,65.430,36.133,24.414,37.109,-11.230,0
1553806400.087,54.199,38.574,1.953,35.645,30.762,0
1553806400.091,37.598,39.551,3.418,37.598,28.320,0
1553806400.095,38.086,34.668,22.949,38.086,1.953,0
1553806400.099,34.668,27.344,33.691,13.184,6.836,0
1553806400.103,24.414,31.738,30.762,-5.859,30.273,0
1553806400.106,20.020,36.133,22.949,5.859,-1.953,0
1553806400.110,15.625,29.785,14.648,18.066,-2.930,0
1553806400.114,31.250,28.320,20.508,1.465,69.824,0
1553806400.118,34.668,37.109,24.414,11.719,102.539,0
1553806400.122,-8.789,36.133,16.113,35.645,51.270,0
1553806400.126,14.160,34.180,4.883,23.438,21.484,0
1553806400.130,54.688,35.645,-0.488,15.625,83.496,0
1553806400.134,47.363,38.574,3.906,12.695,75.684,0
1553806400.138,36.621,36.621,27.344,1.465,101.074,0
1553806400.142,33.203,30.273,47.852,18.066,46.875,0
1553806400.146,22.949,30.273,39.062,23.926,-11.719,0
1553806400.149,51.270,31.738,26.367,27.832,62.500,0
1553806400.153,64.453,36.133,21.973,36.621,50.293,0
1553806400.157,38.574,30.762,21.484,30.762,31.250,0
1553806400.161,58.594,30.273,9.277,16.602,84.473,0
1553806400.165,71.777,34.180,-0.977,14.160,56.152,0
1553806400.169,49.805,34.180,16.602,13.672,48.828,0
1553806400.173,50.293,36.621,27.832,0.000,72.754,0
1553806400.177,73.242,33.203,26.367,17.090,17.090,0
1553806400.181,52.734,31.738,28.320,33.203,39.062,0
1553806400.185,43.945,34.668,24.902,16.602,30.762,0
1553806400.188,40.039,32.715,22.949,6.348,-7.324,0
1553806400.192,21.484,35.156,23.926,34.180,37.109,0
1553806400.196,39.062,34.180,17.578,40.039,55.664,0
1553806400.200,72.266,33.691,18.066,24.414,15.625,0
1553806400.204,58.594,31.738,27.832,51.270,-22.949,0
1553806400.208,29.297,28.809,23.926,37.598,-20.508,0
1553806400.212,58.105,25.391,27.832,5.371,20.508,0
1553806400.216,80.566,23.438,35.645,36.133,6.836,0
1553806400.220,83.984,30.762,28.809,50.781,18.066,0
1553806400.224,73.242,35.645,23.926,21.484,42.969,0
1553806400.228,60.059,34.668,23.926,25.879,52.734,0
1553806400.231,77.637,33.203,23.926,42.480,65.430,0
1553806400.235,81.055,32.715,23.438,22.949,-10.742,0
1553806400.239,56.152,33.691,22.461,28.320,5.371,0
1553806400.243,54.199,33.691,23.438,63.965,72.266,0
1553806400.247,61.035,30.762,25.391,57.129,30.273,0
1553806400.251,46.387,33.203,19.531,35.645,5.371,0
1553806400.255,50.781,37.109,14.648,31.738,33.691,0
1553806400.259,57.129,36.621,20.996,21.973,75.684,0
1553806400.263,59.082,36.133,25.879,43.945,70.312,0
1553806400.267,73.242,34.668,25.391,43.945,54.199,0
1553806400.271,66.895,40.039,5.371,24.414,38.086,0
1553806400.274,58.105,39.551,9.277,10.742,37.109,0
1553806400.278,69.336,33.203,32.227,0.977,34.668,0
1553806400.282,49.316,32.227,34.180,29.785,49.805,0
1553806400.286,39.062,34.180,28.320,59.082,83.008,0
1553806400.290,65.918,25.391,27.344,67.383,61.523,0
1553806400.294,93.750,23.438,25.879,62.500,50.293,0
1553806400.298,100.098,47.363,9.766,31.250,15.625,0
1553806400.302,79.590,54.688,2.441,-1.465,41.992,0
1553806400.306,81.055,45.410,8.301,32.227,78.125,0
1553806400.310,103.516,37.109,10.742,44.922,-30.273,0
1553806400.313,112.793,41.504,0.000,41.016,-13.672,0
1553806400.317,94.238,49.805,-9.277,38.086,65.430,0
1553806400.321,127.930,43.945,-9.277,20.508,13.672,0
1553806400.325,140.137,38.086,-4.883,81.055,-4.883,0
1553806400.329,91.309,34.668,2.930,95.703,12.207,0
1553806400.333,120.117,36.133,4.395,38.574,2.441,0
1553806400.337,125.000,33.203,6.836,36.621,41.504,0
1553806400.341,83.984,29.297,9.277,62.012,67.871,0
1553806400.345,101.562,35.156,6.836,65.430,87.402,0
1553806400.349,118.652,31.738,11.230,56.152,48.828,0
1553806400.353,114.258,31.738,16.602,64.941,12.207,0
1553806400.356,91.309,37.598,13.184,60.059,28.809,0
1553806400.360,114.746,37.598,11.230,45.898,66.406,0
1553806400.364,129.395,36.621,12.695,50.293,73.730,0
1553806400.368,112.305,37.109,13.184,55.176,47.363,0
1553806400.372,97.168,35.645,18.555,46.875,53.711,0
1553806400.376,101.562,40.039,21.973,74.219,-9.277,0
1553806400.380,79.102,39.062,20.996,82.520,8.789,0
1553806400.384,89.844,34.668,21.484,50.293,41.016,0
1553806400.388,127.930,37.109,20.020,53.711,69.336,0
1553806400.392,97.656,36.133,19.043,90.820,43.457,0
1553806400.396,83.984,37.598,20.508,70.801,27.344,0
1553806400.399,103.516,39.062,21.973,44.922,42.969,0
1553806400.403,125.000,37.598,22.461,54.688,62.988,0
1553806400.407,119.141,38.086,20.996,41.016,55.176,0
1553806400.411,112.793,38.574,21.973,32.715,58.105,0
1553806400.415,118.164,36.621,20.020,41.504,13.184,0
1553806400.419,133.301,33.203,25.391,54.199,4.883,0
1553806400.423,153.809,30.762,25.879,54.688,87.402,0
1553806400.427,165.527,32.227,18.066,70.801,66.406,0
1553806400.431,125.977,30.273,28.320,68.359,14.648,0
1553806400.435,124.023,27.832,31.738,39.551,36.133,0
1553806400.438,153.320,25.879,31.250,45.410,69.336,0
1553806400.442,164.551,28.809,30.273,34.668,71.777,0
1553806400.446,152.344,34.180,23.926,39.551,-0.977,0
1553806400.450,149.902,26.367,29.785,56.152,-13.672,0
1553806400.454,203.613,23.438,33.691,73.730,-5.371,0
1553806400.458,180.664,28.320,29.297,57.617,-5.859,0
1553806400.462,148.438,26.367,23.926,73.242,11.230,0
1553806400.466,164.551,25.391,25.391,51.758,14.648,0
1553806400.470,190.430,25.879,27.832,8.789,2.441,0
1553806400.474,224.609,28.320,21.973,38.574,52.734,0
1553806400.478,202.148,29.297,20.996,52.246,118.164,0
1553806400.481,214.355,25.391,24.902,57.617,60.059,0
1553806400.485,233.398,28.809,25.879,32.227,-9.766,0
1553806400.489,207.031,30.273,24.902,28.320,50.781,0
1553806400.493,208.984,29.297,21.973,39.551,80.566,0
1553806400.497,199.219,34.180,23.926,48.340,73.730,0
1553806400.501,209.473,32.227,27.344,61.035,90.332,0
1553806400.505,247.559,28.809,23.926,55.664,-19.531,0
1553806400.509,243.164,27.344,30.273,54.199,-14.160,0
1553806400.513,189.453,31.250,32.227,49.316,41.016,0
1553806400.517,183.105,32.715,24.414,21.973,50.293,0
1553806400.521,213.867,30.273,24.902,20.508,51.270,0
1553806400.524,204.102,29.785,26.855,32.715,29.785,0
1553806400.528,196.289,29.297,29.785,50.293,31.738,0
1553806400.532,186.035,34.668,30.762,63.477,22.949,0
1553806400.536,185.547,35.645,26.367,37.598,24.902,0
1553806400.540,215.332,33.691,24.414,39.551,81.055,0
1553806400.544,215.820,34.668,26.855,48.828,56.641,0
1553806400.548,196.289,36.621,24.902,71.777,20.508,0
1553806400.552,202.148,35.645,18.555,73.730,78.125,0
1553806400.556,216.797,37.598,23.438,63.477,79.102,0
1553806400.560,233.887,36.133,23.438,93.750,22.949,0
1553806400.563,229.492,35.645,10.254,92.773,16.113,0
1553806400.567,191.895,36.621,26.367,68.848,43.457,0
1553806400.571,210.938,37.109,37.109,59.570,-14.160,0
1553806400.575,229.004,35.156,33.203,38.086,41.016,0
1553806400.579,229.980,28.809,41.016,70.312,62.012,0
1553806400.583,225.586,27.344,40.039,85.938,59.570,0
1553806400.587,207.520,33.691,34.668,85.449,57.617,0
1553806400.591,226.562,37.109,34.668,93.750,1.953,0
1553806400.595,232.422,29.297,39.551,114.258,32.227,0
1553806400.599,216.797,30.762,36.621,146.973,55.664,0
1553806400.603,228.516,39.062,24.902,105.957,51.270,0
1553806400.606,217.285,34.180,26.855,92.285,11.230,0
1553806400.610,240.234,35.645,33.203,94.727,30.762,0
1553806400.614,247.070,39.551,33.203,68.848,83.008,0
1553806400.618,214.355,32.715,30.762,111.816,124.023,0
1553806400.622,239.746,30.762,34.180,137.695,95.703,0
1553806400.626,255.859,38.574,25.391,126.465,22.949,0
1553806400.630,288.574,37.109,17.578,148.926,41.016,0
1553806400.634,255.859,31.738,37.109,143.066,61.523,0
1553806400.638,179.688,31.250,48.340,106.934,97.656,0
1553806400.642,185.059,36.133,41.992,74.219,115.234,0
1553806400.646,202.637,40.039,41.992,54.688,102.539,0
1553806400.649,188.965,36.133,44.922,53.223,94.238,0
1553806400.653,174.316,38.574,40.039,57.617,41.016,0
1553806400.657,171.387,41.504,40.039,56.641,45.898,0
1553806400.661,150.391,37.109,45.410,25.391,31.250,0
1553806400.665,123.535,36.621,42.969,22.949,58.594,0
1553806400.669,143.555,38.086,34.668,23.926,24.902,0
1553806400.673,229.492,35.645,35.645,49.805,23.926,0
1553806400.677,221.191,32.715,37.598,80.078,68.359,0
1553806400.681,179.199,34.668,35.645,77.148,60.547,0
1553806400.685,207.520,35.156,34.668,97.168,62.012,0
1553806400.688,273.438,33.691,32.227,84.473,46.387,0
1553806400.692,279.297,35.156,30.273,101.562,41.016,0
1553806400.696,246.582,35.645,29.785,156.250,-18.555,0
1553806400.700,260.742,33.203,29.785,135.254,-29.785,0
1553806400.704,257.324,34.668,27.344,85.938,18.555,0
1553806400.708,240.234,28.320,24.902,117.676,34.668,0
1553806400.712,268.555,28.320,23.438,121.094,2.930,0
1553806400.716,290.527,32.227,25.391,110.352,10.254,0
1553806400.720,293.945,33.691,25.879,181.641,-5.371,0
1553806400.724,289.062,33.203,22.949,154.785,-10.742,0
1553806400.728,266.113,22.461,27.344,144.043,46.875,0
1553806400.731,295.410,24.902,29.297,157.227,49.316,0
1553806400.735,290.039,30.273,25.879,133.301,53.711,0
1553806400.739,269.531,25.391,19.043,170.898,33.203,0
1553806400.743,298.828,23.438,17.578,166.016,-7.812,0
1553806400.747,319.336,31.250,14.648,164.062,35.645,0
1553806400.751,330.566,31.250,19.043,164.062,51.758,0
1553806400.755,322.754,22.461,23.438,134.277,42.480,0
1553806400.759,324.707,33.203,13.672,157.715,31.738,0
1553806400.763,310.547,35.645,11.719,185.059,17.090,0
1553806400.767,310.059,30.762,21.484,197.266,12.207,0
1553806400.771,336.914,36.621,21.973,183.594,-15.137,0
1553806400.774,315.918,38.574,13.672,185.059,2.441,0
1553806400.778,330.566,32.715,14.160,191.406,18.066,0
1553806400.782,347.656,30.273,17.090,183.594,1.465,0
1553806400.786,327.148,31.250,15.137,175.781,-19.531,0
1553806400.790,321.289,31.250,9.277,200.684,-27.344,0
1553806400.794,330.566,28.320,13.672,221.191,-33.203,0
1553806400.798,338.379,25.879,15.137,204.590,-21.973,0
1553806400.802,302.246,23.926,8.789,201.660,28.320,0
1553806400.806,304.199,23.438,7.324,187.012,84.961,0
1553806400.810,358.887,26.367,4.883,196.289,61.523,0
1553806400.813,347.168,21.973,11.230,208.984,27.344,0
1553806400.817,336.914,15.625,8.789,200.195,62.988,0
1553806400.821,335.449,25.879,-2.441,201.172,39.062,0
1553806400.825,273.926,24.902,2.441,214.355,-9.277,0
1553806400.829,302.734,19.531,7.324,210.938,-48.340,0
1553806400.833,330.566,23.438,4.883,185.059,48.340,0
1553806400.837,283.203,19.043,2.930,203.613,97.168,0
1553806400.841,282.715,12.207,8.301,235.840,-44.434,0
1553806400.845,321.777,13.184,16.113,215.820,20.996,0
1553806400.849,323.242,14.160,7.812,184.082,35.156,0
1553806400.853,305.664,12.207,-0.977,186.035,4.395,0
1553806400.856,325.195,16.602,-5.371,211.914,57.129,0
1553806400.860,349.609,15.625,-1.953,218.262,-40.039,0
1553806400.864,335.449,10.742,8.301,175.781,-23.926,0
1553806400.868,318.848,10.254,10.742,166.504,35.156,0
1553806400.872,321.777,13.184,6.836,188.477,30.273,0
1553806400.876,317.871,12.695,3.418,208.496,52.246,0
1553806400.880,312.988,10.254,4.395,189.453,61.035,0
1553806400.884,311.523,9.277,5.859,179.199,44.922,0
1553806400.888,307.129,8.301,6.348,189.453,81.543,0
1553806400.892,312.012,11.230,3.906,188.965,91.309,0
1553806400.896,326.172,15.137,-1.465,163.086,20.996,0
1553806400.899,297.363,11.719,-2.930,161.621,74.219,0
1553806400.903,264.648,4.883,-1.465,203.613,151.367,0
1553806400.907,267.090,7.812,6.348,193.848,112.305,0
1553806400.911,267.090,14.160,1.465,176.758,41.016,0
1553806400.915,269.043,13.672,-8.301,180.176,79.102,0
1553806400.919,272.949,11.230,0.488,196.777,74.219,0
1553806400.923,262.695,8.301,7.812,219.238,-7.812,0
1553806400.927,239.746,13.672,4.395,187.012,16.602,0
1553806400.931,274.902,20.996,-1.465,162.109,90.332,0
1553806400.935,284.180,21.484,-0.977,173.828,66.895,0
1553806400.938,232.422,15.625,1.465,207.520,15.625,0
1553806400.942,218.262,14.160,2.441,220.703,-2.930,0
1553806400.946,255.371,19.531,1.465,169.434,30.762,0
1553806400.950,262.207,21.973,0.000,108.398,79.102,0
1553806400.954,246.094,20.508,3.418,174.316,46.875,0
1553806400.958,244.141,16.113,5.859,221.680,64.941,0
1553806400.962,273.926,19.043,6.348,162.598,94.727,0
1553806400.966,268.555,28.320,0.488,149.902,6.836,0
1553806400.970,231.445,20.996,3.418,151.367,-16.113,0
1553806400.974,230.469,18.066,6.348,173.828,29.297,0
1553806400.978,230.469,26.855,5.859,215.332,12.207,0
1553806400.981,226.074,23.926,5.859,194.824,1.465,0
1553806400.985,172.363,17.090,4.883,151.367,-7.324,0
1553806400.989,198.242,20.508,5.371,172.363,13.672,0
1553806400.993,263.672,30.273,1.953,188.965,12.207,0
1553806400.997,212.402,20.996,9.277,171.387,60.547,0
1553806401.001,177.734,20.020,11.230,171.387,60.547,0
1553806401.005,211.914,32.227,1.465,187.988,30.762,0
1553806401.009,243.652,29.297,5.859,200.195,34.668,0
1553806401.013,232.422,29.785,8.789,138.184,73.730,0
1553806401.017,217.285,28.809,6.348,112.793,110.352,0
1553806401.021,243.164,26.367,7.324,162.109,101.562,0
1553806401.024,225.586,32.227,4.395,171.875,43.457,0
1553806401.028,197.266,35.645,0.000,158.691,65.430,0
1553806401.032,209.961,34.180,-0.488,166.504,94.727,0
1553806401.036,215.820,36.133,0.977,166.504,31.738,0
1553806401.040,208.984,37.598,2.930,188.477,15.137,0
1553806401.044,199.707,30.273,10.254,176.758,56.641,0
1553806401.048,226.074,35.645,9.766,166.016,50.781,0
1553806401.052,229.492,34.180,7.812,171.875,45.410,0
1553806401.056,206.543,33.203,9.766,162.109,68.848,0
1553806401.060,213.379,42.480,9.277,149.902,10.742,0
1553806401.063,211.426,37.109,17.090,162.109,0.000,0
1553806401.067,200.195,38.086,20.996,148.438,13.672,0
1553806401.071,187.012,41.504,13.184,127.930,-8.301,0
1553806401.075,172.363,39.551,18.555,137.207,-29.785,0
1553806401.079,145.508,45.410,25.391,77.148,25.391,0
1553806401.083,105.957,49.805,26.855,61.035,125.977,0
1553806401.087,43.457,47.852,29.297,82.031,76.172,0
1553806401.091,63.965,57.617,38.086,41.504,26.855,0
1553806401.095,41.016,58.594,46.387,-1.465,30.762,0
1553806401.099,-8.789,55.664,43.945,-30.762,37.598,0
1553806401.103,-7.324,65.430,48.340,-43.945,61.523,0
1553806401.106,-62.500,67.383,62.012,-58.594,58.594,0
1553806401.110,-76.660,60.547,68.359,-78.613,70.312,0
1553806401.114,-43.457,59.570,66.895,-90.332,108.398,0
1553806401.118,-63.477,68.848,70.312,-79.590,61.035,0
1553806401.122,-108.887,78.125,71.777,-109.375,5.371,0
1553806401.126,-83.984,83.008,75.195,-104.980,53.223,0
1553806401.130,-61.035,80.566,82.031,-50.293,81.055,0
1553806401.134,-66.895,68.848,85.449,-64.453,9.277,0
1553806401.138,-22.949,65.918,86.426,-54.688,38.574,0
1553806401.142,-5.371,62.988,79.590,-44.434,91.797,0
1553806401.146,-17.090,51.270,78.613,-58.594,33.691,0
1553806401.149,16.113,52.246,70.801,-15.137,-4.395,0
1553806401.153,17.578,53.223,60.547,28.320,1.953,0
1553806401.157,53.223,45.898,55.664,54.688,35.645,0
1553806401.161,96.680,46.387,47.852,74.707,70.312,0
1553806401.165,86.426,41.504,38.086,62.988,5.859,0
1553806401.169,121.582,40.039,28.809,87.402,22.461,0
1553806401.173,189.453,43.945,21.484,141.113,70.801,0
1553806401.177,201.660,39.551,14.648,142.578,2.441,0
1553806401.181,203.613,40.039,6.836,164.062,-27.344,0
1553806401.185,241.699,42.969,0.977,192.383,16.602,0
1553806401.188,239.258,49.316,-9.766,163.574,66.895,0
1553806401.192,213.379,48.340,-8.301,179.688,37.109,0
1553806401.196,232.910,48.828,-9.277,230.469,-19.531,0
1553806401.200,238.770,52.246,-19.043,218.262,33.203,0
1553806401.204,208.008,46.875,-12.695,220.703,93.262,0
1553806401.208,247.559,50.293,-11.230,216.309,99.121,0
1553806401.212,264.160,53.223,-16.113,223.145,65.430,0
1553806401.216,242.676,50.781,-10.742,220.215,78.613,0
1553806401.220,239.746,56.152,-17.090,185.059,6.836,0
1553806401.224,222.656,55.176,-20.996,194.336,-22.949,0
1553806401.228,237.793,47.852,-12.695,222.168,39.551,0
1553806401.231,240.723,50.781,-11.230,205.566,67.383,0
1553806401.235,228.027,42.969,-9.766,196.289,27.832,0
1553806401.239,250.488,42.480,-18.555,205.566,-1.465,0
1553806401.243,221.680,49.805,-17.578,218.262,-26.855,0
1553806401.247,204.102,47.852,-11.719,227.539,-20.020,0
1553806401.251,216.797,44.434,-6.836,209.961,47.852,0
1553806401.255,182.129,43.457,-7.324,192.871,101.562,0
1553806401.259,227.051,48.340,-10.254,196.777,30.273,0
1553806401.263,242.188,45.410,-4.395,186.523,11.230,0
1553806401.267,179.688,41.992,-10.254,195.312,14.160,0
1553806401.271,192.383,41.992,-10.254,216.309,-75.195,0
1553806401.274,212.402,39.551,-4.883,175.781,-38.086,0
1553806401.278,223.145,37.109,1.465,154.785,64.453,0
1553806401.282,234.863,39.551,-2.441,180.664,80.078,0
1553806401.286,183.105,44.434,-6.836,185.059,96.680,0
1553806401.290,153.320,41.504,1.953,177.734,48.828,0
1553806401.294,182.617,36.621,6.836,170.410,9.766,0
1553806401.298,181.152,34.180,2.930,180.176,73.730,0
1553806401.302,200.195,33.691,4.883,173.340,84.473,0
1553806401.306,190.918,33.691,9.766,170.410,94.238,0
1553806401.310,165.039,29.785,11.230,193.848,67.871,0
1553806401.313,198.242,30.762,2.441,168.945,-15.137,0
1553806401.317,209.473,31.250,-6.348,147.949,35.645,0
1553806401.321,175.293,27.344,6.348,148.926,63.965,0
1553806401.325,190.430,33.691,19.043,150.391,16.113,0
1553806401.329,187.012,35.156,16.113,165.527,43.945,0
1553806401.333,155.762,33.691,15.137,171.875,31.250,0
1553806401.337,182.617,41.016,17.578,165.527,0.488,0
1553806401.341,182.617,44.922,10.742,109.863,25.391,0
1553806401.345,146.973,39.062,12.207,102.051,42.969,0
1553806401.349,149.902,39.551,17.090,125.488,111.328,0
1553806401.353,180.664,41.016,16.602,119.629,48.828,0
1553806401.356,150.879,39.551,15.137,125.488,20.020,0
1553806401.360,147.949,41.504,13.184,161.621,68.848,0
1553806401.364,147.949,42.969,13.672,154.785,42.480,0
1553806401.368,133.301,42.480,14.160,117.188,69.336,0
1553806401.372,165.527,46.875,10.254,89.844,47.363,0
1553806401.376,161.621,46.387,14.648,110.840,-8.789,0
1553806401.380,147.949,41.504,17.578,112.305,25.391,0
1553806401.384,127.930,46.875,11.719,85.938,21.484,0
1553806401.388,130.371,50.293,13.672,89.844,-37.109,0
1553806401.392,112.305,47.852,16.113,100.586,15.625,0
1553806401.396,118.164,48.828,15.625,115.723,74.707,0
1553806401.399,152.344,46.875,19.531,99.121,86.914,0
1553806401.403,114.746,45.898,15.625,97.168,10.742,0
1553806401.407,103.027,52.246,10.742,112.793,10.742,0
1553806401.411,135.742,54.199,13.672,98.145,62.988,0
1553806401.415,140.137,46.875,15.625,104.980,9.277,0
1553806401.419,104.004,42.480,15.137,114.258,25.879,0
1553806401.423,99.609,41.504,22.461,85.449,53.223,0
1553806401.427,91.797,39.551,26.367,71.777,97.168,0
1553806401.431,93.750,48.828,15.137,70.312,86.914,0
1553806401.435,90.332,49.805,17.090,81.055,47.852,0
1553806401.438,69.824,38.574,25.879,120.605,23.926,0
1553806401.442,66.406,40.527,23.438,110.352,42.480,0
1553806401.446,104.004,45.898,16.602,45.410,33.203,0
1553806401.450,101.074,46.875,16.602,52.734,0.488,0
1553806401.454,86.914,46.875,19.531,78.125,76.660,0
1553806401.458,90.820,41.992,20.508,74.219,87.891,0
1553806401.462,100.586,40.039,23.926,72.266,13.672,0
1553806401.466,97.168,41.992,23.438,72.266,25.879,0
1553806401.470,73.242,34.180,26.855,75.195,67.383,0
1553806401.474,68.359,36.133,22.461,86.914,37.598,0
1553806401.478,86.914,38.574,21.484,91.309,17.578,0
1553806401.481,108.398,37.109,22.949,80.566,61.035,0
1553806401.485,113.770,41.504,17.090,88.379,27.832,0
1553806401.489,102.539,40.527,19.043,102.051,-15.137,0
1553806401.493,106.445,39.551,24.902,88.867,34.668,0
1553806401.497,107.422,44.922,15.137,54.688,8.301,0
1553806401.501,85.449,42.480,13.672,50.781,-6.836,0
1553806401.505,78.125,39.551,20.020,88.867,40.039,0
1553806401.509,94.727,46.387,18.555,79.102,-33.691,0
1553806401.513,89.844,48.340,16.113,67.383,-19.043,0
1553806401.517,93.262,45.410,18.555,88.379,23.926,0
1553806401.521,88.379,41.016,18.555,77.148,20.996,0
1553806401.524,90.332,41.016,19.043,67.871,25.391,0
1553806401.528,112.793,48.828,18.066,69.824,80.078,0
1553806401.532,100.098,54.688,14.648,62.988,106.934,0
1553806401.536,107.422,55.664,16.113,64.453,78.613,0
1553806401.540,114.258,48.340,23.926,93.262,39.551,0
1553806401.544,96.191,47.852,17.578,74.219,26.855,0
1553806401.548,88.379,53.711,8.789,29.785,61.523,0
1553806401.552,89.844,49.805,15.137,57.617,64.453,0
1553806401.556,89.844,48.828,15.625,56.641,93.262,0
1553806401.560,97.656,55.176,13.672,46.875,85.449,0
1553806401.563,84.473,56.641,16.602,56.641,65.918,0
1553806401.567,71.289,51.270,22.461,94.238,21.973,0
1553806401.571,80.566,49.805,24.414,98.145,38.574,0
1553806401.575,72.754,54.688,14.160,24.414,79.102,0
1553806401.579,97.656,56.152,13.672,41.016,77.148,0
1553806401.583,96.680,57.129,20.020,81.543,115.723,0
1553806401.587,77.637,57.617,23.438,47.363,108.887,0
1553806401.591,97.656,55.176,20.508,46.875,77.148,0
1553806401.595,108.887,51.270,19.043,81.055,47.852,0
1553806401.599,86.426,48.828,26.367,78.125,-37.109,0
1553806401.603,70.801,46.875,28.320,31.250,-17.578,0
1553806401.606,85.938,45.898,24.902,20.996,48.340,0
1553806401.610,80.078,37.109,30.273,87.891,40.039,0
1553806401.614,68.848,31.738,30.762,92.773,52.734,0
1553806401.618,69.336,41.504,22.949,69.824,62.988,0
1553806401.622,102.539,51.270,24.902,85.449,25.879,0
1553806401.626,112.793,45.898,28.320,90.332,76.172,0
1553806401.630,78.613,41.016,24.414,106.445,79.590,0
1553806401.634,94.238,50.781,22.949,85.449,49.316,0
1553806401.638,107.422,51.270,28.809,62.988,87.402,0
1553806401.642,121.094,49.805,22.461,63.477,55.664,0
1553806401.646,88.867,51.758,19.043,66.406,22.949,0
1553806401.649,84.961,48.340,26.367,91.309,2.930,0
1553806401.653,91.309,49.805,23.926,59.570,0.977,0
1553806401.657,81.055,55.176,20.020,44.922,32.715,0
1553806401.661,96.680,58.594,16.113,71.777,-10.742,0
1553806401.665,93.262,52.246,14.648,86.914,-7.812,0
1553806401.669,91.797,49.316,16.602,95.703,39.062,0
1553806401.673,97.168,56.641,15.137,83.984,-6.348,0
1553806401.677,104.492,58.105,13.672,76.172,23.438,0
1553806401.681,83.008,59.570,16.113,87.891,113.770,0
1553806401.685,80.078,60.059,17.578,74.707,76.172,0
1553806401.688,89.355,56.641,17.090,38.574,-5.859,0
1553806401.692,69.824,53.223,16.602,56.152,13.672,0
1553806401.696,88.867,59.082,14.648,65.918,28.320,0
1553806401.700,85.938,63.477,10.742,68.848,20.996,0
1553806401.704,88.867,55.664,20.508,78.613,61.523,0
1553806401.708,105.957,56.152,23.438,74.707,75.195,0
1553806401.712,102.539,59.570,16.602,95.703,62.012,0
1553806401.716,64.941,58.105,15.137,83.008,61.035,0
1553806401.720,70.312,56.641,15.625,72.266,77.637,0
1553806401.724,88.867,58.594,15.625,68.848,154.297,0
1553806401.728,61.035,60.059,15.625,55.664,124.512,0
1553806401.731,49.805,56.152,18.066,49.316,35.645,0
1553806401.735,50.781,55.664,19.043,62.988,41.016,0
1553806401.739,50.781,57.617,18.066,78.125,80.566,0
1553806401.743,77.148,54.688,18.555,87.891,68.359,0
1553806401.747,74.707,50.781,19.531,84.473,-42.480,0
1553806401.751,58.105,54.199,15.625,56.152,-33.691,0
1553806401.755,59.082,57.617,16.113,73.730,62.500,0
1553806401.759,46.387,54.199,19.043,43.457,35.156,0
1553806401.763,52.734,51.758,18.555,30.762,-0.977,0
1553806401.767,70.312,53.711,16.113,67.383,1.465,0
1553806401.771,68.848,49.805,17.090,70.801,51.758,0
1553806401.774,49.316,47.852,20.996,79.102,8.789,0
1553806401.778,59.570,52.246,18.555,65.918,-0.977,0
1553806401.782,88.867,50.293,18.066,53.223,-0.488,0
1553806401.786,74.219,48.340,23.438,42.969,7.324,0
1553806401.790,40.527,45.410,22.461,59.082,80.078,0
1553806401.794,35.645,41.992,19.043,65.430,43.945,0
1553806401.798,42.480,45.410,17.578,36.133,-2.441,0
1553806401.802,56.641,37.109,23.926,71.289,45.898,0
1553806401.806,79.590,38.574,28.320,95.703,32.227,0
1553806401.810,82.520,59.082,16.602,47.852,29.297,0
1553806401.813,54.688,64.941,12.695,32.227,49.316,0
1553806401.817,46.875,56.641,16.602,76.660,25.391,0
1553806401.821,85.449,55.664,11.719,84.961,39.551,0
1553806401.825,86.426,68.359,3.418,64.453,23.438,0
1553806401.829,66.406,72.266,1.465,26.367,62.012,0
1553806401.833,73.242,62.012,7.324,45.898,66.895,0
1553806401.837,84.961,60.547,8.301,74.219,43.457,0
1553806401.841,80.566,62.988,10.254,71.289,38.086,0
1553806401.845,55.176,59.082,13.672,72.754,36.621,0
1553806401.849,70.801,62.500,11.230,82.520,6.348,0
1553806401.853,72.754,63.477,10.742,105.957,-32.715,0
1553806401.856,37.109,59.570,11.719,97.168,41.504,0
1553806401.860,53.223,61.523,14.648,59.082,82.031,0
1553806401.864,79.590,65.430,11.230,60.547,63.965,0
1553806401.868,74.219,64.941,9.766,84.473,57.129,0
1553806401.872,69.824,62.500,14.160,68.359,49.316,0
1553806401.876,47.363,60.059,13.184,58.594,17.090,0
1553806401.880,33.203,56.641,16.113,40.039,43.945,0
1553806401.884,42.969,59.570,16.602,34.668,46.875,0
1553806401.888,42.480,63.477,11.230,64.941,57.129,0
1553806401.892,74.219,60.059,16.113,68.359,46.875,0
1553806401.896,78.125,58.594,15.137,51.270,40.039,0
1553806401.899,51.758,62.500,16.113,61.035,75.684,0
1553806401.903,40.527,68.848,17.578,57.617,13.672,0
1553806401.907,29.785,61.035,20.020,48.828,20.020,0
1553806401.911,50.781,54.199,22.461,58.105,62.012,0
1553806401.915,63.477,59.570,20.996,69.824,67.871,0
1553806401.919,43.457,63.477,24.902,64.453,42.969,0
1553806401.923,54.199,65.430,25.391,38.574,32.715,0
1553806401.927,85.938,65.918,15.625,28.809,43.457,0
1553806401.931,63.477,63.477,16.113,51.758,-16.113,0
1553806401.935,34.180,60.059,20.996,62.988,-10.254,0
1553806401.938,38.086,61.523,16.602,36.133,55.176,0
1553806401.942,46.875,63.477,15.137,52.734,29.785,0
1553806401.946,62.988,63.965,18.066,67.383,19.531,0
1553806401.950,48.828,63.965,18.066,49.316,47.363,0
1553806401.954,34.180,64.453,19.531,55.664,24.414,0
1553806401.958,40.527,63.965,22.949,64.453,22.949,0
1553806401.962,41.016,64.941,21.973,73.730,-10.742,0
1553806401.966,43.945,64.941,20.996,56.641,17.090,0
1553806401.970,59.570,63.477,25.879,35.645,40.527,0
1553806401.974,76.660,61.523,25.879,61.523,10.742,0
1553806401.978,40.039,62.500,23.438,71.289,5.371,0
1553806401.981,38.574,63.477,22.461,64.453,-17.578,0
1553806401.985,43.945,60.059,23.438,71.777,13.672,0
1553806401.989,28.320,60.547,24.902,38.086,17.578,0
1553806401.993,63.965,64.453,22.949,34.180,4.883,0
1553806401.997,73.242,66.406,21.973,58.105,0.488,0
1553806402.001,35.645,66.406,22.949,63.965,69.336,0
1553806402.005,35.645,63.477,22.949,79.590,60.059,0
1553806402.009,39.062,65.430,22.949,64.941,42.480,0
1553806402.013,32.227,66.406,23.438,16.602,62.988,0
1553806402.017,70.312,62.500,20.020,49.316,17.578,0
1553806402.021,72.266,61.523,20.020,73.730,39.551,0
1553806402.024,33.691,61.523,22.461,41.016,71.289,0
1553806402.028,15.137,57.129,24.414,41.992,59.570,0
1553806402.032,18.555,55.664,22.461,41.992,68.359,0
1553806402.036,45.898,55.176,22.949,52.734,62.988,0
1553806402.040,41.992,52.734,25.879,40.039,43.457,0
1553806402.044,26.855,52.246,23.438,15.625,10.742,0
1553806402.048,29.297,53.711,24.902,15.625,57.129,0
1553806402.052,38.574,53.711,23.438,20.020,62.988,0
1553806402.056,40.039,54.199,20.508,52.246,49.316,0
1553806402.060,62.500,50.781,23.438,35.645,103.516,0
1553806402.063,73.242,48.340,25.391,19.043,37.109,0
1553806402.067,24.414,46.387,21.484,37.598,13.672,0
1553806402.071,-12.207,43.945,20.996,38.574,41.016,0
1553806402.075,7.812,44.922,21.484,32.715,51.270,0
1553806402.079,36.621,47.363,21.973,47.363,-20.508,0
1553806402.083,27.344,42.480,26.367,40.039,-27.344,0
1553806402.087,45.410,39.551,20.508,24.902,100.586,0
1553806402.091,52.246,44.434,18.066,55.664,87.891,0
1553806402.095,50.293,43.945,24.414,50.781,23.926,0
1553806402.099,74.707,44.434,24.414,27.344,73.730,0
1553806402.103,24.902,45.898,22.949,23.438,103.027,0
1553806402.106,-15.625,41.504,25.391,36.621,75.195,0
1553806402.110,19.043,40.039,28.809,76.172,21.484,0
1553806402.114,26.367,41.016,28.320,37.109,75.684,0
1553806402.118,38.574,42.969,23.926,15.625,133.301,0
1553806402.122,49.805,43.457,22.949,37.109,58.594,0
1553806402.126,50.293,41.992,24.902,46.387,41.016,0
1553806402.130,41.504,40.527,24.902,39.062,25.879,0
1553806402.134,69.824,40.039,25.879,12.695,10.742,0
1553806402.138,54.199,41.992,24.414,30.762,37.109,0
1553806402.142,41.016,43.457,23.926,65.430,32.227,0
1553806402.146,59.570,44.434,27.344,52.734,22.949,0
1553806402.149,27.344,40.039,24.414,29.297,74.219,0
1553806402.153,28.320,40.039,17.578,27.832,95.215,0
1553806402.157,56.641,41.992,20.996,18.066,116.211,0
1553806402.161,36.621,39.062,27.344,24.414,36.621,0
1553806402.165,16.602,39.551,26.367,43.945,-43.457,0
1553806402.169,47.363,43.945,21.973,28.320,-4.883,0
1553806402.173,31.250,40.527,25.391,2.930,28.809,0
1553806402.177,19.531,39.062,29.297,49.316,72.754,0
1553806402.181,28.809,45.898,21.973,24.902,51.270,0
1553806402.185,44.922,45.898,20.020,-4.395,32.227,0
1553806402.188,62.012,44.922,21.973,31.738,61.523,0
1553806402.192,44.434,47.852,22.461,17.578,52.246,0
1553806402.196,26.855,46.875,21.484,26.855,52.734,0
1553806402.200,23.926,45.898,18.066,42.480,54.199,0
1553806402.204,28.809,45.898,21.484,24.414,17.578,0
1553806402.208,50.293,47.852,23.438,18.066,10.742,0
1553806402.212,53.223,50.293,16.113,37.598,50.781,0
1553806402.216,82.031,48.828,13.672,78.125,54.199,0
1553806402.220,62.500,39.551,25.879,50.293,88.379,0
1553806402.224,31.250,37.109,31.250,3.906,72.754,0
1553806402.228,41.992,38.574,32.715,8.789,48.828,0
1553806402.231,24.414,40.527,32.715,26.367,32.715,0
1553806402.235,9.277,41.504,32.227,18.555,25.879,0
1553806402.239,8.301,36.621,35.645,25.879,77.637,0
1553806402.243,20.508,37.109,33.691,56.641,48.828,0
1553806402.247,32.227,37.109,30.273,61.523,-3.906,0
1553806402.251,37.109,35.645,27.344,36.621,36.133,0
1553806402.255,33.203,36.621,26.855,0.488,91.309,0
1553806402.259,33.203,34.668,29.785,42.969,66.406,0
1553806402.263,47.363,34.668,29.785,64.941,4.883,0
1553806402.267,51.270,34.668,30.273,24.902,22.949,0
1553806402.271,28.320,34.668,26.855,18.555,54.688,0
1553806402.274,25.391,36.621,22.949,19.531,8.301,0
1553806402.278,38.086,40.527,28.809,25.879,17.090,0
1553806402.282,46.387,42.969,30.762,31.250,49.805,0
1553806402.286,55.664,39.551,27.344,29.297,25.879,0
1553806402.290,26.367,39.062,22.949,26.855,39.062,0
1553806402.294,17.090,39.062,25.879,29.297,6.836,0
1553806402.298,48.828,39.062,31.738,34.180,39.062,0
1553806402.302,51.758,38.086,29.785,50.781,39.551,0
1553806402.306,56.152,39.551,25.391,45.898,19.531,0
1553806402.310,42.480,43.945,20.020,8.301,41.992,0
1553806402.313,22.949,40.527,24.902,21.973,63.477,0
1553806402.317,33.691,36.133,26.855,34.180,110.352,0
1553806402.321,44.922,36.621,22.949,38.574,88.867,0
1553806402.325,36.621,40.039,21.973,26.855,41.992,0
1553806402.329,41.992,41.504,24.414,20.996,25.879,0
1553806402.333,54.688,41.016,28.320,49.316,62.012,0
1553806402.337,62.012,41.016,24.902,30.273,58.105,0
1553806402.341,48.828,42.480,23.438,12.695,23.438,0
1553806402.345,13.672,41.016,21.973,14.160,45.898,0
1553806402.349,32.715,38.086,20.508,13.184,57.617,0
1553806402.353,35.645,39.062,25.391,35.156,12.695,0
1553806402.356,41.504,38.086,22.461,40.039,20.996,0
1553806402.360,60.547,38.086,21.484,4.883,90.820,0
1553806402.364,47.363,39.551,25.391,14.648,-6.836,0
1553806402.368,43.945,36.133,28.320,52.734,-72.266,0
1553806402.372,45.898,35.645,28.320,49.805,18.066,0
1553806402.376,39.062,39.062,26.367,28.809,24.414,0
1553806402.380,39.062,36.133,27.344,19.531,20.996,0
1553806402.384,39.551,35.156,25.391,21.484,74.219,0
1553806402.388,42.480,36.133,27.832,29.297,44.434,0
1553806402.392,55.176,35.156,29.785,21.973,19.043,0
1553806402.396,62.988,39.062,25.391,26.367,46.387,0
1553806402.399,49.316,39.062,24.414,29.297,85.449,0
1553806402.403,38.574,42.480,21.484,17.578,53.223,0
1553806402.407,56.641,48.340,20.508,10.254,62.988,0
1553806402.411,40.527,42.969,25.391,8.789,78.125,0
1553806402.415,20.996,41.504,28.320,15.625,34.668,0
1553806402.419,39.062,48.340,25.391,45.410,40.039,0
1553806402.423,36.621,50.293,23.926,42.969,40.039,0
1553806402.427,43.457,48.828,19.043,22.949,11.719,0
1553806402.431,76.172,51.270,19.043,19.531,40.039,0
1553806402.435,77.148,55.664,24.902,24.414,21.973,0
1553806402.438,29.297,49.316,27.832,24.414,0.000,0
1553806402.442,29.785,45.410,27.832,7.812,24.902,0
1553806402.446,55.664,48.828,26.367,3.418,12.207,0
1553806402.450,50.781,48.340,26.367,20.508,35.645,0
1553806402.454,50.293,49.805,23.926,27.832,45.410,0
1553806402.458,36.133,48.340,27.344,28.320,54.688,0
1553806402.462,18.555,42.969,35.156,42.969,57.129,0
1553806402.466,62.012,41.992,31.738,30.762,43.457,0
1553806402.470,60.059,46.387,28.809,25.879,42.480,0
1553806402.474,46.875,48.828,29.785,38.574,51.270,0
1553806402.478,62.988,46.387,34.180,24.902,48.828,0
1553806402.481,47.363,44.434,32.227,10.254,58.105,0
1553806402.485,39.551,42.480,26.367,13.184,37.109,0
1553806402.489,61.035,41.504,29.297,19.531,-57.129,0
1553806402.493,69.336,49.805,33.691,35.156,-28.809,0
1553806402.497,42.480,52.246,32.227,41.504,16.113,0
1553806402.501,36.133,54.688,30.273,23.926,-28.809,0
1553806402.505,35.156,49.316,37.598,8.789,-16.113,0
1553806402.509,57.129,35.156,43.945,16.602,-1.953,0
1553806402.513,52.734,44.922,29.297,28.320,21.484,0
1553806402.517,-6.836,63.965,29.297,-23.438,40.527,0
1553806402.521,-21.973,65.918,41.992,-57.617,78.613,0
1553806402.524,-24.414,68.359,43.457,-49.805,73.730,0
1553806402.528,-77.637,75.195,45.410,-81.055,-25.391,0
1553806402.532,-119.141,81.055,43.945,-128.418,13.184,0
1553806402.536,-101.562,83.984,54.688,-145.996,137.695,0
1553806402.540,-119.629,92.773,54.688,-155.273,75.195,0
1553806402.544,-178.711,85.938,58.594,-170.410,8.789,0
1553806402.548,-173.340,77.637,67.383,-176.270,0.488,0
1553806402.552,-175.293,81.055,64.453,-191.406,37.109,0
1553806402.556,-187.012,77.148,67.383,-204.102,77.637,0
1553806402.560,-186.523,79.590,74.219,-177.246,23.438,0
1553806402.563,-167.969,81.543,81.055,-198.730,46.875,0
1553806402.567,-168.457,77.637,84.473,-194.824,95.703,0
1553806402.571,-194.824,74.707,85.449,-176.758,104.492,0
1553806402.575,-191.895,70.801,88.379,-190.430,62.012,0
1553806402.579,-175.293,68.359,83.984,-191.406,62.012,0
1553806402.583,-154.297,65.430,77.148,-174.316,100.586,0
1553806402.587,-138.672,56.152,81.055,-137.207,40.527,0
1553806402.591,-122.559,48.828,81.543,-124.512,27.344,0
1553806402.595,-74.219,46.387,71.777,-93.750,66.895,0
1553806402.599,-39.551,39.062,67.871,-79.590,90.820,0
1553806402.603,-42.480,38.086,55.664,-89.844,106.445,0
1553806402.606,8.301,39.551,44.434,-56.152,36.621,0
1553806402.610,13.184,33.203,40.527,-23.438,72.754,0
1553806402.614,0.000,31.738,29.785,3.906,83.496,0
1553806402.618,30.762,31.738,25.879,18.555,21.484,0
1553806402.622,37.598,31.250,24.414,34.668,59.082,0
1553806402.626,66.406,31.738,20.996,47.363,66.406,0
1553806402.630,99.121,32.715,9.766,44.922,65.430,0
1553806402.634,83.496,31.250,3.418,66.895,76.660,0
1553806402.638,87.402,28.320,9.277,97.656,25.391,0
1553806402.642,101.074,23.926,9.277,104.980,-44.434,0
1553806402.646,105.469,27.832,2.930,101.562,8.789,0
1553806402.649,113.770,30.762,-2.930,76.660,26.855,0
1553806402.653,102.051,25.391,-0.977,75.684,69.336,0
1553806402.657,129.883,24.414,0.977,96.680,50.293,0
1553806402.661,140.137,30.762,-0.977,115.234,7.324,0
1553806402.665,117.676,31.250,1.465,109.863,38.086,0
1553806402.669,118.164,28.320,3.418,82.031,75.684,0
1553806402.673,126.465,29.785,4.883,111.328,38.574,0
1553806402.677,109.863,31.738,5.371,105.957,-4.883,0
1553806402.681,121.094,41.016,12.695,81.055,13.672,0
1553806402.685,112.793,39.551,14.648,88.379,22.461,0
1553806402.688,73.242,33.691,12.207,60.059,16.602,0
1553806402.692,112.305,43.457,11.230,50.781,22.949,0
1553806402.696,98.145,44.434,13.184,58.594,67.383,0
1553806402.700,41.504,54.199,19.043,47.852,10.254,0
1553806402.704,32.715,61.035,25.391,21.484,22.949,0
1553806402.708,-2.930,54.688,38.086,-8.301,43.945,0
1553806402.712,-27.832,64.453,39.062,-30.273,-5.859,0
1553806402.716,-37.109,74.219,45.410,-74.219,16.113,0
1553806402.720,-54.688,74.707,52.246,-113.770,90.820,0
1553806402.724,-102.051,75.684,54.199,-117.676,45.898,0
1553806402.728,-133.301,79.102,57.617,-143.555,38.086,0
1553806402.731,-143.066,82.031,62.500,-166.504,104.004,0
1553806402.735,-136.719,78.613,66.895,-178.223,70.801,0
1553806402.739,-139.648,73.730,67.871,-170.898,53.711,0
1553806402.743,-154.785,69.824,73.242,-166.016,-37.109,0
1553806402.747,-143.555,63.965,76.172,-161.621,-42.969,0
1553806402.751,-128.906,66.895,76.660,-107.910,60.059,0
1553806402.755,-115.234,75.684,74.219,-120.605,53.223,0
1553806402.759,-101.074,69.336,61.035,-119.141,39.062,0
1553806402.763,-52.734,62.500,56.152,-106.445,23.926,0
1553806402.767,-56.152,54.688,51.270,-103.516,33.691,0
1553806402.771,-50.781,44.434,34.668,-57.129,11.719,0
1553806402.774,-8.789,44.922,31.738,-41.016,-23.926,0
1553806402.778,9.766,35.156,41.016,-24.414,27.344,0
1553806402.782,45.410,26.367,33.691,17.090,44.922,0
1553806402.786,82.031,31.738,23.926,57.129,20.996,0
1553806402.790,106.445,31.250,20.508,69.824,88.867,0
1553806402.794,136.719,30.762,13.672,79.102,94.238,0
1553806402.798,114.258,32.715,10.254,102.051,7.812,0
1553806402.802,111.328,30.762,7.324,113.770,-22.461,0
1553806402.806,148.926,32.715,1.953,118.652,22.949,0
1553806402.810,163.086,32.227,-0.488,117.676,62.500,0
1553806402.813,150.879,26.855,0.977,112.305,30.273,0
1553806402.817,156.738,26.855,0.488,141.113,10.742,0
1553806402.821,176.270,30.762,-2.441,123.047,66.406,0
1553806402.825,155.762,32.715,-3.906,96.191,114.258,0
1553806402.829,165.039,25.391,-0.488,126.465,38.086,0
1553806402.833,177.246,22.949,3.418,151.367,48.828,0
1553806402.837,162.109,28.320,3.906,148.438,12.695,0
1553806402.841,158.691,23.438,5.371,139.160,-8.789,0
1553806402.845,148.438,20.020,6.348,125.977,48.828,0
1553806402.849,152.344,20.020,7.812,120.605,50.293,0
1553806402.853,148.926,20.508,8.301,121.094,64.941,0
1553806402.856,151.367,20.996,7.812,117.676,85.449,0
1553806402.860,141.602,20.996,6.836,136.230,34.180,0
1553806402.864,123.535,19.531,8.301,122.070,13.184,0
1553806402.868,123.047,20.508,9.766,91.309,-4.883,0
1553806402.872,126.465,24.414,10.254,111.328,37.109,0
1553806402.876,136.719,25.879,9.277,109.375,4.395,0
1553806402.880,121.094,24.414,5.859,96.191,62.988,0
1553806402.884,114.258,25.879,8.789,96.680,113.770,0
1553806402.888,126.465,28.809,10.742,96.191,1.953,0
1553806402.892,131.836,25.391,15.137,106.934,39.551,0
1553806402.896,122.070,26.367,16.602,110.352,93.750,0
1553806402.899,105.957,27.832,10.254,86.914,20.996,0
1553806402.903,117.188,22.461,8.789,85.449,41.992,0
1553806402.907,103.027,26.367,14.160,106.445,40.527,0
1553806402.911,107.422,28.320,14.648,100.586,7.812,0
1553806402.915,109.863,27.344,14.160,83.008,-0.488,0
1553806402.919,95.215,28.320,17.578,88.379,9.766,0
1553806402.923,104.492,28.809,18.555,83.984,17.090,0
1553806402.927,113.281,25.879,19.531,91.309,-80.078,0
1553806402.931,137.207,21.484,18.555,92.773,-45.410,0
1553806402.935,108.887,25.391,18.555,102.051,14.160,0
1553806402.938,88.867,27.832,18.066,109.375,39.551,0
1553806402.942,85.449,30.762,6.348,88.379,31.738,0
1553806402.946,85.938,30.762,-2.441,93.750,45.410,0
1553806402.950,102.051,31.250,10.254,81.055,54.199,0
1553806402.954,94.727,29.297,22.949,71.777,52.246,0
1553806402.958,88.867,22.461,12.207,81.055,75.195,0
1553806402.962,83.496,27.832,-18.555,67.871,3.906,0
1553806402.966,79.102,27.344,1.465,71.289,25.391,0
1553806402.970,102.539,25.879,46.387,80.078,70.312,0
1553806402.974,123.047,31.250,53.223,68.848,38.574,0
1553806402.978,88.379,32.227,56.152,65.918,-7.812,0
1553806402.981,86.426,31.738,48.340,61.035,6.348,0
1553806402.985,79.590,37.598,33.203,76.172,34.180,0
1553806402.989,65.918,40.039,29.785,93.262,54.199,0
1553806402.993,83.496,22.461,19.531,65.430,89.844,0
1553806402.997,81.055,29.785,9.766,73.242,68.359,0
1553806403.001,70.312,45.898,23.926,75.195,77.637,0
1553806403.005,69.824,43.457,39.551,72.266,62.012,0
1553806403.009,97.656,48.340,28.809,73.242,68.848,0
1553806403.013,101.562,57.129,20.508,57.129,86.914,0
1553806403.017,59.082,50.781,32.227,67.871,64.941,0
1553806403.021,59.082,41.992,38.086,73.242,80.078,0
1553806403.024,94.727,36.133,-6.836,62.500,58.594,0
1553806403.028,75.684,35.156,-16.113,51.270,55.176,0
1553806403.032,52.734,53.711,20.508,48.340,46.387,0
1553806403.036,74.219,50.781,46.387,85.938,45.410,0
1553806403.040,81.543,40.039,62.500,98.145,101.074,0
1553806403.044,84.473,44.434,55.176,55.664,80.566,0
1553806403.048,67.383,33.691,71.289,33.691,50.293,0
1553806403.052,26.855,22.949,92.285,42.480,55.664,0
1553806403.056,15.625,19.043,90.820,44.434,33.203,0
1553806403.060,43.457,15.625,89.355,68.359,0.488,0
1553806403.063,27.832,19.531,86.914,46.875,28.320,0
1553806403.067,25.391,16.113,85.938,17.578,34.180,0
1553806403.071,19.043,12.695,84.961,44.434,-4.883,0
1553806403.075,4.395,9.277,66.406,52.246,37.109,0
1553806403.079,10.254,4.883,62.500,34.180,100.098,0
1553806403.083,20.020,7.324,81.543,41.504,92.773,0
1553806403.087,37.598,11.719,96.191,41.992,102.051,0
1553806403.091,33.691,22.461,105.469,31.250,65.918,0
1553806403.095,38.086,19.043,60.547,45.898,71.777,0
1553806403.099,22.949,9.277,2.441,53.711,75.195,0
1553806403.103,5.371,0.977,49.805,49.805,19.531,0
1553806403.106,6.348,-1.953,92.285,49.316,51.270,0
1553806403.110,32.227,-4.883,67.383,53.223,72.754,0
1553806403.114,44.922,-8.301,76.660,37.598,44.434,0
1553806403.118,50.293,2.441,95.215,56.641,22.949,0
1553806403.122,61.035,5.371,90.820,82.520,43.945,0
1553806403.126,49.316,5.859,75.684,80.078,86.914,0
1553806403.130,51.270,21.973,39.551,62.500,7.324,0
1553806403.134,62.012,41.992,17.090,65.430,10.742,0
1553806403.138,74.219,40.527,60.547,49.316,64.941,0
1553806403.142,77.148,32.715,83.496,31.250,21.973,0
1553806403.146,61.523,22.461,66.406,50.781,-11.230,0
1553806403.149,25.879,18.555,60.547,57.617,24.414,0
1553806403.153,42.480,23.438,74.219,64.453,56.152,0
1553806403.157,58.594,14.648,63.965,75.684,-4.883,0
1553806403.161,57.617,11.230,12.207,71.777,14.648,0
1553806403.165,83.984,26.855,32.715,61.035,54.688,0
1553806403.169,70.801,19.043,83.496,56.641,48.340,0
1553806403.173,61.523,14.648,80.566,56.641,73.242,0
1553806403.177,71.777,32.227,79.102,58.594,82.031,0
1553806403.181,74.219,24.414,74.707,48.828,51.270,0
1553806403.185,73.730,20.020,55.176,43.945,71.777,0
1553806403.188,60.059,30.762,48.340,51.758,63.965,0
1553806403.192,65.918,30.273,42.480,62.988,44.434,0
1553806403.196,70.312,27.344,35.156,74.219,20.020,0
1553806403.200,72.754,30.273,35.645,79.102,8.301,0
1553806403.204,70.312,29.785,38.574,70.312,-14.648,0
1553806403.208,62.500,28.809,59.082,52.734,9.277,0
1553806403.212,82.520,24.902,68.359,34.180,20.020,0
1553806403.216,101.074,18.555,61.523,44.434,13.184,0
1553806403.220,75.195,17.090,53.223,59.570,38.086,0
1553806403.224,86.914,23.926,46.387,69.336,62.500,0
1553806403.228,112.793,29.785,43.945,64.941,91.797,0
1553806403.231,62.500,23.926,43.945,46.875,15.625,0
1553806403.235,66.406,25.391,41.016,42.969,-20.996,0
1553806403.239,98.145,31.250,38.086,48.828,-16.602,0
1553806403.243,79.102,29.785,39.551,57.129,-15.625,0
1553806403.247,94.238,33.691,33.203,49.805,3.418,0
1553806403.251,121.094,39.062,21.484,30.762,21.973,0
1553806403.255,132.324,35.645,30.273,33.203,20.996,0
1553806403.259,159.180,32.715,39.062,55.664,-17.578,0
1553806403.263,153.320,33.203,34.668,43.457,36.621,0
1553806403.267,131.348,32.715,33.203,45.410,131.836,0
1553806403.271,129.395,35.156,34.180,55.176,57.129,0
1553806403.274,120.605,38.086,32.715,25.391,-30.762,0
1553806403.278,143.066,29.297,30.273,19.531,-7.324,0
1553806403.282,185.059,27.344,24.902,76.660,-42.969,0
1553806403.286,151.855,48.828,14.648,87.891,-9.766,0
1553806403.290,135.254,59.082,14.648,38.086,11.719,0
1553806403.294,149.414,55.176,15.625,30.273,8.301,0
1553806403.298,129.883,55.176,12.207,27.832,6.348,0
1553806403.302,102.051,63.477,7.812,27.344,41.992,0
1553806403.306,105.469,75.684,-1.953,15.137,87.402,0
1553806403.310,119.629,72.754,-2.930,-9.766,53.711,0
1553806403.313,100.586,71.777,-1.465,-20.020,80.078,0
1553806403.317,75.684,72.754,-3.906,-35.156,104.004,0
1553806403.321,104.980,72.266,-10.742,-17.578,69.824,0
1553806403.325,124.512,73.242,-14.648,-2.930,45.898,0
1553806403.329,93.750,65.918,-6.348,13.184,83.008,0
1553806403.333,96.680,64.453,-6.348,8.789,57.617,0
1553806403.337,117.188,69.824,-12.207,-18.066,49.316,0
1553806403.341,107.422,66.895,-3.906,-8.301,77.637,0
1553806403.345,96.191,59.570,0.977,21.973,28.320,0
1553806403.349,91.797,59.570,0.488,32.227,27.832,0
1553806403.353,110.352,61.035,6.348,24.414,27.832,0
1553806403.356,123.047,53.223,-9.277,25.391,47.852,0
1553806403.360,120.605,52.734,-25.879,33.691,35.645,0
1553806403.364,123.047,52.734,5.859,57.129,9.766,0
1553806403.368,110.352,45.410,33.691,50.293,38.574,0
1553806403.372,105.469,49.316,31.250,19.043,56.641,0
1553806403.376,112.793,55.664,20.020,26.855,109.863,0
1553806403.380,119.141,53.711,16.113,38.574,48.828,0
1553806403.384,87.891,41.504,23.926,39.551,21.484,0
1553806403.388,99.609,40.527,28.320,62.012,80.566,0
1553806403.392,119.629,46.387,24.414,51.270,51.270,0
1553806403.396,92.285,43.945,22.461,10.742,35.645,0
1553806403.399,119.141,40.527,20.996,8.789,22.461,0
1553806403.403,113.281,39.062,21.973,23.438,19.531,0
1553806403.407,76.172,38.574,28.809,27.832,109.863,0
1553806403.411,83.496,38.574,25.879,43.945,90.332,0
1553806403.415,76.172,36.133,23.438,42.480,5.371,0
1553806403.419,74.707,35.156,24.902,19.043,81.055,0
1553806403.423,80.078,35.156,25.879,31.250,62.500,0
1553806403.427,92.285,34.668,23.438,31.250,0.488,0
1553806403.431,102.051,36.621,19.043,26.855,28.809,0
1553806403.435,84.961,34.668,23.438,31.738,73.730,0
1553806403.438,70.312,33.691,24.414,43.945,50.293,0
1553806403.442,78.125,33.691,25.391,40.527,45.410,0
1553806403.446,75.684,33.691,28.809,18.555,67.871,0
1553806403.450,44.922,35.156,24.414,28.809,62.988,0
1553806403.454,51.758,36.621,24.414,37.598,57.617,0
1553806403.458,40.527,34.668,26.367,13.184,5.371,0
1553806403.462,53.711,35.156,23.438,12.207,7.812,0
1553806403.466,77.637,35.645,25.391,37.598,26.367,0
1553806403.470,83.008,33.691,27.344,31.738,33.203,0
1553806403.474,84.473,34.668,26.855,14.648,34.180,0
1553806403.478,53.223,34.180,27.344,27.344,5.859,0
1553806403.481,50.781,30.762,24.414,25.391,-11.719,0
1553806403.485,78.613,28.320,25.879,38.086,20.020,0
1553806403.489,62.500,32.227,26.855,34.668,30.273,0
1553806403.493,49.316,32.227,26.367,20.020,17.578,0
1553806403.497,63.477,29.785,29.785,33.203,12.695,0
1553806403.501,62.012,30.762,29.297,23.438,27.832,0
1553806403.505,58.105,29.297,31.738,7.324,2.441,0
1553806403.509,56.152,29.297,31.738,16.113,-9.277,0
1553806403.513,61.523,27.832,29.297,30.762,54.199,0
1553806403.517,54.688,22.949,31.250,49.316,92.773,0
1553806403.521,48.340,21.973,36.133,36.621,60.547,0
1553806403.524,42.480,24.414,36.621,13.672,60.547,0
1553806403.528,43.457,25.879,34.668,2.441,70.801,0
1553806403.532,40.527,26.367,33.691,25.391,85.938,0
1553806403.536,58.105,28.320,33.691,48.828,83.984,0
1553806403.540,73.730,32.227,31.250,29.785,6.348,0
1553806403.544,40.039,29.785,29.785,1.465,93.750,0
1553806403.548,67.383,23.438,35.645,46.875,92.773,0
1553806403.552,68.848,31.738,32.227,37.598,40.039,0
1553806403.556,37.109,38.086,28.809,-13.672,31.250,0
1553806403.560,53.223,32.227,25.391,-1.465,2.930,0
1553806403.563,56.152,21.973,20.996,42.969,84.473,0
1553806403.567,80.566,21.973,17.090,95.703,58.594,0
1553806403.571,80.566,34.180,8.789,72.754,22.949,0
1553806403.575,83.984,28.320,11.719,68.359,59.082,0
1553806403.579,123.047,24.414,16.113,43.457,32.227,0
1553806403.583,101.074,26.367,19.531,34.180,7.324,0
1553806403.587,91.797,27.832,18.555,32.227,23.438,0
1553806403.591,95.703,26.855,25.391,33.691,5.859,0
1553806403.595,82.031,22.461,32.227,68.359,9.766,0
1553806403.599,77.148,24.902,25.879,79.590,9.766,0
1553806403.603,67.383,27.344,23.438,52.246,45.898,0
1553806403.606,78.613,23.926,27.344,31.250,79.590,0
1553806403.610,58.105,21.973,29.297,62.500,34.668,0
1553806403.614,44.434,22.461,29.297,36.621,11.230,0
1553806403.618,100.586,23.438,30.762,14.648,94.238,0
1553806403.622,99.609,20.508,35.645,53.711,31.250,0
1553806403.626,28.809,17.090,34.668,68.848,-40.527,0
1553806403.630,34.180,26.367,21.484,54.688,19.531,0
1553806403.634,32.715,30.273,25.391,31.738,50.293,0
1553806403.638,5.859,21.484,38.574,9.277,15.625,0
1553806403.642,33.203,19.531,44.922,13.184,47.852,0
1553806403.646,22.461,23.438,45.898,21.484,91.309,0
1553806403.649,32.227,22.949,41.992,1.953,62.500,0
1553806403.653,53.711,20.996,37.109,12.207,3.906,0
1553806403.657,11.719,23.438,32.227,23.926,-19.531,0
1553806403.661,10.742,27.832,38.574,21.973,28.809,0
1553806403.665,42.480,27.344,45.898,8.789,75.195,0
1553806403.669,20.020,25.391,46.875,-3.418,19.043,0
1553806403.673,-18.555,24.902,47.363,25.391,28.320,0
1553806403.677,-3.418,24.902,45.898,13.672,66.895,0
1553806403.681,20.020,26.855,42.480,-26.855,28.809,0
1553806403.685,12.207,25.879,43.457,3.418,16.602,0
1553806403.688,11.230,26.367,46.875,20.020,27.344,0
1553806403.692,4.883,32.227,49.316,-30.273,73.730,0
1553806403.696,-29.785,32.715,49.316,-26.367,101.074,0
1553806403.700,-26.855,33.203,49.805,-11.230,84.961,0
1553806403.704,4.883,40.039,50.293,-12.695,38.574,0
1553806403.708,-25.391,39.551,53.223,-29.297,19.043,0
1553806403.712,-24.414,34.668,54.199,-37.109,67.871,0
1553806403.716,-51.270,40.039,65.918,-20.996,57.617,0
1553806403.720,-86.426,44.434,71.777,-60.547,44.922,0
1553806403.724,-59.570,44.434,67.383,-106.445,45.898,0
1553806403.728,-81.543,52.734,70.312,-104.980,37.109,0
1553806403.731,-162.109,65.430,62.500,-148.438,16.602,0
1553806403.735,-205.566,48.828,78.613,-179.199,75.195,0
1553806403.739,-191.895,44.922,91.309,-165.527,135.254,0
1553806403.743,-218.750,69.824,87.402,-230.469,98.145,0
1553806403.747,-266.602,74.707,109.863,-239.258,98.145,0
1553806403.751,-266.113,83.984,97.656,-293.457,59.570,0
1553806403.755,-285.156,83.008,82.031,-313.965,8.301,0
1553806403.759,-326.660,63.477,101.074,-188.477,39.062,0
1553806403.763,-246.094,77.148,89.355,-237.305,117.188,0
1553806403.767,-245.605,82.520,79.590,-323.242,113.281,0
1553806403.771,-402.832,77.148,84.473,-289.062,16.602,0
1553806403.774,-279.297,84.961,79.102,-325.195,5.859,0
1553806403.778,-127.441,77.148,72.266,-326.172,35.156,0
1553806403.782,-174.805,66.406,82.520,-171.875,46.875,0
1553806403.786,-187.988,57.129,81.543,-191.895,100.098,0
1553806403.790,-63.477,65.430,62.988,-278.320,82.520,0
1553806403.794,-81.055,64.941,59.570,-208.008,-5.371,0
1553806403.798,-154.785,53.711,62.012,-113.281,-13.672,0
1553806403.802,-131.836,48.340,54.688,-193.359,64.453,0
1553806403.806,-138.672,46.387,51.758,-216.797,96.680,0
1553806403.810,-77.637,39.062,62.012,-108.887,72.266,0
1553806403.813,-52.734,27.832,50.293,-150.879,51.758,0
1553806403.817,-104.492,19.531,48.340,-241.211,10.254,0
1553806403.821,16.113,10.742,46.387,-287.109,-2.441,0
1553806403.825,26.367,12.695,30.273,-201.660,11.719,0
1553806403.829,-1.953,8.789,33.203,-49.316,49.805,0
1553806403.833,60.547,9.277,39.062,-125.488,9.766,0
1553806403.837,-54.199,-5.371,44.922,-104.004,30.762,0
1553806403.841,-18.066,-14.160,43.457,-43.945,24.414,0
1553806403.845,77.148,-4.883,40.039,-9.766,10.254,0
1553806403.849,141.113,-7.812,37.598,-41.992,76.660,0
1553806403.853,217.285,-14.648,30.762,-41.016,8.789,0
1553806403.856,44.922,-21.484,34.180,55.176,-63.477,0
1553806403.860,-2.930,-18.066,31.250,3.906,12.207,0
1553806403.864,116.211,-20.020,14.648,83.496,49.316,0
1553806403.868,160.645,-27.832,1.953,104.004,43.457,0
1553806403.872,203.613,-18.066,-9.277,69.824,14.648,0
1553806403.876,277.344,-20.020,10.254,113.770,-15.137,0
1553806403.880,290.039,-19.531,6.836,44.434,85.938,0
1553806403.884,396.973,10.254,-30.273,6.348,39.551,0
1553806403.888,372.559,14.648,-36.621,10.254,-33.691,0
1553806403.892,169.434,6.836,-51.270,135.254,6.836,0
1553806403.896,263.184,17.578,-58.594,161.133,-5.859,0
1553806403.899,396.973,21.973,-17.090,20.996,-19.531,0
1553806403.903,341.797,26.855,21.484,73.242,-24.902,0
1553806403.907,321.289,31.738,18.555,143.555,-13.184,0
1553806403.911,382.812,43.945,-7.812,157.227,-30.273,0
1553806403.915,347.168,47.852,-29.785,183.594,-32.715,0
1553806403.919,356.934,30.762,-58.105,159.180,30.273,0
1553806403.923,446.777,19.531,-64.453,133.301,-26.855,0
1553806403.927,395.508,7.324,-32.227,226.562,-13.184,0
1553806403.931,333.496,7.812,-33.203,214.844,56.641,0
1553806403.935,436.523,10.254,-61.523,205.078,45.410,0
1553806403.938,456.055,6.836,-78.613,211.426,-19.531,0
1553806403.942,375.977,1.953,-89.844,71.777,-16.113,0
1553806403.946,346.191,-3.906,-121.582,15.625,40.527,0
1553806403.950,392.090,-11.230,-179.688,122.559,14.648,0
1553806403.954,419.434,-20.020,-207.031,103.027,35.645,0
1553806403.958,320.801,-26.367,-163.086,35.156,64.453,0
1553806403.962,318.359,-35.156,-139.160,108.398,68.848,0
1553806403.966,368.164,-47.363,-146.973,72.754,93.750,0
1553806403.970,338.379,-65.430,-146.484,144.043,68.359,0
1553806403.974,403.320,-76.172,-161.621,94.727,65.430,0
1553806403.978,387.207,-83.984,-190.430,-41.504,114.258,0
1553806403.981,340.332,-91.309,-202.148,12.695,42.480,0
1553806403.985,252.930,-123.047,-232.422,89.355,8.301,0
1553806403.989,163.086,-158.691,-255.859,57.129,13.672,0
1553806403.993,188.965,-177.246,-256.836,-49.805,10.254,0
1553806403.997,222.168,-192.383,-272.461,-40.039,59.082,0
1553806404.001,202.148,-202.148,-289.062,-27.832,35.156,0
1553806404.005,187.012,-224.609,-311.035,-87.402,58.594,0
1553806404.009,201.660,-252.441,-353.027,-141.602,75.684,0
1553806404.013,167.480,-267.578,-376.953,-87.402,48.340,0
1553806404.017,147.461,-274.902,-365.723,-21.973,31.250,0
1553806404.021,84.961,-281.250,-361.816,-133.301,19.043,0
1553806404.024,50.781,-290.527,-379.395,-149.902,105.469,0
1553806404.028,131.348,-300.781,-389.648,-94.238,62.500,0
1553806404.032,99.609,-304.688,-397.461,-31.738,40.527,0
1553806404.036,60.059,-305.176,-414.062,-77.148,101.562,0
1553806404.040,163.086,-305.664,-419.922,-243.164,75.684,0
1553806404.044,173.340,-310.059,-414.062,-230.957,92.285,0
1553806404.048,107.422,-315.918,-414.062,-121.582,72.754,0
1553806404.052,178.711,-305.664,-425.293,-43.945,49.805,0
1553806404.056,194.336,-310.059,-420.898,-160.156,36.133,0
1553806404.060,110.352,-314.941,-390.137,-250.977,78.613,0
1553806404.063,109.863,-313.477,-372.070,-111.816,45.410,0
1553806404.067,67.383,-315.430,-384.766,-242.676,19.043,0
1553806404.071,166.504,-298.828,-377.930,-382.812,32.227,0
1553806404.075,210.938,-296.875,-357.422,-214.844,33.203,0
1553806404.079,104.004,-285.156,-356.445,-214.844,115.234,0
1553806404.083,122.070,-281.738,-340.332,-297.852,104.004,0
1553806404.087,151.855,-285.156,-323.242,-122.070,87.402,0
1553806404.091,159.668,-266.113,-318.848,-114.746,49.316,0
1553806404.095,271.973,-241.699,-314.453,-283.203,39.551,0
1553806404.099,220.703,-234.863,-304.688,-292.969,73.242,0
1553806404.103,73.730,-240.234,-285.645,-254.395,52.734,0
1553806404.106,224.609,-220.215,-288.574,-153.320,66.895,0
1553806404.110,267.090,-215.332,-291.992,-142.090,36.621,0
1553806404.114,134.277,-217.285,-246.582,-202.637,13.672,0
1553806404.118,182.129,-201.172,-220.703,-107.910,39.062,0
1553806404.122,283.691,-185.059,-219.727,-150.391,15.625,0
1553806404.126,248.047,-175.781,-214.844,-265.625,30.273,0
1553806404.130,229.492,-168.457,-205.078,-145.508,83.496,0
1553806404.134,287.109,-151.367,-183.105,-20.020,10.254,0
