timestamps,TP9,AF7,AF8,TP10,Right AUX,Marker0
1553806853.575,14.648,37.109,19.531,31.738,9.277,0
1553806853.579,11.719,30.762,12.695,23.926,15.625,0
1553806853.583,23.438,20.508,14.160,21.484,-15.625,0
1553806853.587,19.531,31.250,15.137,24.902,-17.090,0
1553806853.591,21.973,41.992,6.836,28.809,45.898,0
1553806853.595,26.367,41.504,7.812,36.133,54.199,0
1553806853.599,29.785,43.945,19.043,32.227,78.613,0
1553806853.603,20.996,37.598,23.926,24.414,107.422,0
1553806853.606,19.531,20.508,10.742,27.344,16.602,0
1553806853.610,22.461,26.855,1.465,36.621,1.953,0
1553806853.614,9.766,41.016,25.391,34.668,90.332,0
1553806853.618,8.301,40.527,43.945,18.066,49.316,0
1553806853.622,2.441,38.574,40.039,5.859,39.551,0
1553806853.626,1.953,39.062,31.738,18.555,49.316,0
1553806853.630,-0.488,39.062,23.926,22.949,34.668,0
1553806853.634,-6.836,37.109,12.207,15.625,69.824,0
1553806853.638,20.020,39.551,14.160,23.926,86.426,0
1553806853.642,50.781,40.527,30.762,36.133,100.098,0
1553806853.646,30.273,38.574,33.203,17.090,122.559,0
1553806853.649,8.789,38.086,28.809,7.324,126.465,0
1553806853.653,17.090,30.273,29.297,41.992,56.152,0
1553806853.657,42.480,26.367,22.461,56.152,13.184,0
1553806853.661,64.453,25.879,17.090,72.266,21.484,0
1553806853.665,62.500,26.855,21.973,78.613,69.824,0
1553806853.669,43.457,27.832,20.020,64.453,77.148,0
1553806853.673,48.340,20.020,19.043,72.754,32.227,0
1553806853.677,68.848,24.902,19.043,76.172,39.551,0
1553806853.681,73.242,37.109,12.695,78.613,-2.930,0
1553806853.685,75.195,33.203,10.742,90.332,-37.598,0
1553806853.688,91.309,23.438,19.531,93.262,0.000,0
1553806853.692,95.703,21.484,21.973,84.473,-2.930,0
1553806853.696,73.242,24.414,18.066,89.844,19.531,0
1553806853.700,63.477,21.973,21.484,90.820,23.438,0
1553806853.704,62.988,20.996,27.344,87.402,21.973,0
1553806853.708,80.078,29.785,29.785,87.891,5.371,0
1553806853.712,79.102,35.645,25.391,83.984,3.906,0
1553806853.716,59.082,35.645,32.715,80.566,27.344,0
1553806853.720,71.777,32.227,37.598,72.266,17.578,0
1553806853.724,72.754,28.809,34.668,61.523,66.895,0
1553806853.728,53.711,25.879,40.527,55.176,35.156,0
1553806853.731,48.340,26.367,46.875,63.965,60.547,0
1553806853.735,49.316,29.297,49.805,64.453,88.867,0
1553806853.739,39.062,31.250,38.574,53.223,41.504,0
1553806853.743,38.086,37.109,1.465,63.965,41.016,0
1553806853.747,48.340,42.969,10.742,61.035,13.184,0
1553806853.751,47.852,42.480,60.059,42.480,72.266,0
1553806853.755,38.086,42.969,74.219,39.062,104.004,0
1553806853.759,45.410,40.527,59.082,45.410,83.008,0
1553806853.763,41.504,41.992,38.086,59.082,95.215,0
1553806853.767,19.531,41.504,44.434,43.457,66.895,0
1553806853.771,20.996,31.250,46.387,27.344,26.855,0
1553806853.774,24.414,29.785,42.480,35.645,-11.230,0
1553806853.778,11.719,46.875,43.457,34.180,-9.766,0
1553806853.782,10.254,50.781,37.109,33.203,49.316,0
1553806853.786,27.344,43.457,27.832,44.434,42.480,0
1553806853.790,27.344,43.457,24.902,42.969,51.270,0
1553806853.794,12.695,44.434,27.832,40.527,90.332,0
1553806853.798,15.137,49.316,35.156,41.016,57.129,0
1553806853.802,20.020,47.363,40.039,44.434,4.883,0
1553806853.806,29.785,40.039,35.645,41.504,28.320,0
1553806853.810,35.645,46.387,39.062,33.203,42.969,0
1553806853.813,28.809,50.293,43.457,39.551,7.812,0
1553806853.817,33.203,31.738,38.086,44.434,47.363,0
1553806853.821,32.227,30.273,30.273,38.574,27.832,0
1553806853.825,21.973,44.434,31.250,35.156,29.785,0
1553806853.829,32.715,44.922,34.668,31.250,68.848,0
1553806853.833,27.344,46.387,32.715,28.320,37.598,0
1553806853.837,12.207,43.457,28.320,33.203,15.137,0
1553806853.841,6.348,32.227,31.738,32.227,15.625,0
1553806853.845,9.277,36.133,26.855,35.156,40.527,0
1553806853.849,18.555,26.367,19.043,40.039,4.395,0
1553806853.853,21.484,18.066,24.902,33.691,24.414,0
1553806853.856,16.602,45.410,30.273,32.227,87.891,0
1553806853.860,8.301,62.012,31.738,31.250,42.480,0
1553806853.864,10.254,61.523,32.715,29.297,-34.668,0
1553806853.868,9.277,55.176,36.133,36.621,-2.441,0
1553806853.872,15.137,40.039,35.645,37.598,24.902,0
1553806853.876,7.324,34.668,43.945,23.438,25.391,0
1553806853.880,0.977,40.527,59.570,21.973,75.195,0
1553806853.884,8.301,43.945,57.617,23.438,42.969,0
1553806853.888,5.859,51.270,49.316,17.578,14.648,0
1553806853.892,12.695,47.363,35.645,24.902,43.945,0
1553806853.896,36.621,34.180,17.578,43.945,60.547,0
1553806853.899,13.184,38.086,28.809,40.527,60.547,0
1553806853.903,-38.574,51.270,45.410,2.930,60.059,0
1553806853.907,-36.621,53.711,46.387,-13.184,41.992,0
1553806853.911,-38.574,48.828,48.340,-20.020,46.875,0
1553806853.915,-57.129,45.898,42.480,-42.969,29.785,0
1553806853.919,-75.195,45.410,44.922,-59.082,11.719,0
1553806853.923,-114.258,51.758,53.223,-86.426,94.727,0
1553806853.927,-138.672,65.918,47.852,-106.934,98.633,0
1553806853.931,-143.555,64.941,49.805,-116.211,101.562,0
1553806853.935,-137.695,59.082,52.246,-121.582,145.508,0
1553806853.938,-137.695,69.824,50.781,-116.211,31.250,0
1553806853.942,-143.555,70.801,50.781,-128.906,21.484,0
1553806853.946,-141.602,60.547,38.086,-134.766,62.500,0
1553806853.950,-138.672,52.734,37.598,-117.676,22.949,0
1553806853.954,-115.234,54.199,43.457,-98.633,20.020,0
1553806853.958,-100.586,47.852,43.457,-95.703,32.227,0
1553806853.962,-107.422,44.434,48.828,-85.449,81.543,0
1553806853.966,-91.309,60.059,43.945,-66.406,103.027,0
1553806853.970,-79.590,59.570,34.668,-66.406,90.820,0
1553806853.974,-77.148,50.293,28.320,-64.941,124.023,0
1553806853.978,-66.406,50.293,21.973,-60.547,115.234,0
1553806853.981,-41.992,47.363,23.926,-46.387,57.617,0
1553806853.985,-49.805,38.574,32.715,-40.527,13.184,0
1553806853.989,-63.477,41.992,37.109,-40.039,6.836,0
1553806853.993,-51.270,46.387,30.762,-24.902,20.996,0
1553806853.997,-47.363,56.641,22.949,-26.855,20.508,0
1553806854.001,-38.086,61.523,19.043,-32.715,5.371,0
1553806854.005,-45.410,56.641,23.926,-25.391,3.418,0
1553806854.009,-38.086,51.758,32.715,-25.391,2.441,0
1553806854.013,-19.043,37.109,35.156,-19.043,-13.184,0
1553806854.017,-12.207,22.461,32.227,-1.465,47.363,0
1553806854.021,-27.832,35.645,20.020,-5.371,49.316,0
1553806854.024,-38.086,55.176,17.090,-9.766,13.184,0
1553806854.028,-34.668,48.828,34.180,1.953,65.918,0
1553806854.032,-34.180,40.039,47.363,7.324,4.395,0
1553806854.036,-23.438,26.855,44.922,-5.371,-44.922,0
1553806854.040,-29.785,38.086,34.180,-11.230,53.711,0
1553806854.044,-30.762,54.199,28.809,0.488,34.668,0
1553806854.048,-14.648,52.246,32.715,8.301,9.277,0
1553806854.052,-1.953,53.711,30.762,0.488,53.711,0
1553806854.056,-2.930,45.410,32.227,2.930,63.965,0
1553806854.060,-8.301,29.297,39.062,21.484,24.902,0
1553806854.063,-11.719,26.855,32.715,22.461,29.297,0
1553806854.067,-10.742,40.039,29.297,11.719,19.531,0
1553806854.071,1.465,49.316,34.180,5.859,43.945,0
1553806854.075,-5.859,52.734,34.668,7.324,0.488,0
1553806854.079,-8.301,47.363,33.203,17.090,-16.113,0
1553806854.083,0.000,35.156,34.180,19.043,23.926,0
1553806854.087,-7.324,32.715,25.879,20.020,57.617,0
1553806854.091,-4.395,40.039,23.926,24.414,11.719,0
1553806854.095,4.883,46.387,36.133,20.020,-41.504,0
1553806854.099,4.395,47.363,43.945,20.020,54.199,0
1553806854.103,-0.977,48.340,45.410,25.879,25.879,0
1553806854.106,-8.301,41.992,40.527,17.578,-18.555,0
1553806854.110,0.000,41.016,36.621,15.137,35.645,0
1553806854.114,9.277,43.945,39.551,19.531,41.504,0
1553806854.118,9.766,34.668,37.598,19.531,20.020,0
1553806854.122,8.301,34.668,36.133,17.578,5.371,0
1553806854.126,14.160,39.551,30.762,18.066,-17.090,0
1553806854.130,31.738,38.574,21.484,46.875,-1.953,0
1553806854.134,11.719,39.551,27.832,28.320,51.270,0
1553806854.138,-24.414,43.457,42.480,-17.578,39.551,0
1553806854.142,-23.438,40.039,47.852,-12.695,73.242,0
1553806854.146,-24.414,33.203,44.434,0.488,39.062,0
1553806854.149,-24.902,35.645,39.062,-3.906,-4.395,0
1553806854.153,-16.113,36.133,41.016,-7.812,76.660,0
1553806854.157,-13.184,35.156,48.828,-0.977,86.426,0
1553806854.161,-7.324,30.762,40.039,1.953,44.922,0
1553806854.165,-4.883,26.855,27.832,8.789,50.781,0
1553806854.169,-7.812,32.715,36.133,13.184,53.223,0
1553806854.173,-5.859,33.203,45.898,11.230,10.254,0
1553806854.177,-1.465,33.691,44.434,7.812,78.125,0
1553806854.181,5.859,41.016,41.992,23.438,109.863,0
1553806854.185,8.789,44.922,39.551,19.043,59.082,0
1553806854.188,12.695,35.645,36.621,3.906,50.781,0
1553806854.192,20.020,26.367,41.992,11.230,65.918,0
1553806854.196,12.207,41.016,41.504,27.344,71.777,0
1553806854.200,4.883,50.293,37.109,21.973,58.105,0
1553806854.204,12.207,47.852,38.086,10.254,55.664,0
1553806854.208,9.277,41.504,42.480,11.230,70.801,0
1553806854.212,8.301,39.551,44.922,16.113,24.414,0
1553806854.216,28.320,39.551,44.434,20.020,10.742,0
1553806854.220,19.043,38.086,39.062,11.230,34.668,0
1553806854.224,8.301,38.574,37.598,20.020,23.438,0
1553806854.228,14.648,31.738,42.480,26.367,-26.855,0
1553806854.231,12.207,33.691,38.574,26.855,-6.348,0
1553806854.235,8.789,32.227,30.762,36.621,9.766,0
1553806854.239,3.906,29.785,35.156,33.203,-38.086,0
1553806854.243,11.719,40.527,41.992,19.531,44.922,0
1553806854.247,2.930,37.598,40.527,20.020,100.098,0
1553806854.251,-4.883,36.621,38.086,33.203,87.402,0
1553806854.255,2.930,42.480,36.621,26.855,59.570,0
1553806854.259,0.000,41.016,35.645,21.973,30.273,0
1553806854.263,15.625,28.320,34.668,19.531,72.754,0
1553806854.267,10.254,23.926,31.250,14.160,37.598,0
1553806854.271,-6.348,32.227,41.504,25.391,-27.832,0
1553806854.274,8.789,32.715,49.316,21.484,10.742,0
1553806854.278,9.766,34.668,43.457,5.371,75.195,0
1553806854.282,-3.906,43.945,36.133,0.000,48.828,0
1553806854.286,-3.906,44.922,40.527,10.254,9.766,0
1553806854.290,-2.930,38.574,45.898,10.742,18.066,0
1553806854.294,-13.672,39.062,46.387,4.395,56.152,0
1553806854.298,-15.137,35.645,47.852,12.695,42.480,0
1553806854.302,-8.301,38.086,37.109,9.766,14.648,0
1553806854.306,-1.953,48.340,35.156,1.465,62.012,0
1553806854.310,-3.906,45.410,40.039,5.859,98.145,0
1553806854.313,-4.395,37.109,42.480,11.719,50.781,0
1553806854.317,-11.719,35.156,42.480,7.324,23.438,0
1553806854.321,-14.160,37.109,42.480,7.324,64.941,0
1553806854.325,7.812,37.109,40.039,8.789,39.551,0
1553806854.329,4.395,29.785,29.785,9.277,-29.297,0
1553806854.333,-3.906,32.227,33.203,6.836,9.277,0
1553806854.337,5.371,45.898,41.992,24.902,24.902,0
1553806854.341,19.531,49.805,34.180,32.227,-3.418,0
1553806854.345,6.836,53.711,26.367,-4.395,31.250,0
1553806854.349,-11.230,52.246,29.297,-16.602,76.660,0
1553806854.353,-1.953,53.223,30.762,3.906,77.148,0
1553806854.356,0.000,50.293,32.227,11.230,60.547,0
1553806854.360,-2.441,45.410,27.344,9.766,12.695,0
1553806854.364,-3.906,43.457,21.973,10.254,24.414,0
1553806854.368,1.465,39.062,24.414,14.160,99.609,0
1553806854.372,1.465,40.039,28.320,16.113,23.438,0
1553806854.376,-6.348,46.875,24.902,11.719,18.555,0
1553806854.380,5.859,51.270,22.461,18.066,74.707,0
1553806854.384,2.930,49.805,34.180,23.926,42.480,0
1553806854.388,7.812,37.598,33.691,22.949,36.133,0
1553806854.392,20.020,35.156,34.668,27.832,21.484,0
1553806854.396,12.207,42.480,31.738,19.531,26.855,0
1553806854.399,-2.441,42.969,25.391,19.043,48.828,0
1553806854.403,1.465,45.898,35.645,15.625,52.246,0
1553806854.407,10.742,50.781,36.133,10.742,48.828,0
1553806854.411,3.906,45.410,29.785,16.113,62.500,0
1553806854.415,7.324,35.156,33.691,16.602,74.707,0
1553806854.419,-4.395,41.016,37.109,21.973,22.949,0
1553806854.423,-1.953,43.457,37.598,18.555,10.254,0
1553806854.427,14.160,37.109,33.203,9.766,11.230,0
1553806854.431,5.859,44.922,29.297,13.184,-32.227,0
1553806854.435,-6.836,47.363,33.203,16.602,14.648,0
1553806854.438,-4.395,48.828,35.156,11.719,88.867,0
1553806854.442,0.000,47.852,29.297,3.906,42.480,0
1553806854.446,-9.277,39.062,26.855,12.207,-17.578,0
1553806854.450,-7.324,35.156,28.809,16.602,13.672,0
1553806854.454,-4.395,40.527,26.855,12.207,54.199,0
1553806854.458,-4.883,39.551,31.738,15.137,46.875,0
1553806854.462,-8.301,22.949,43.457,13.672,20.020,0
1553806854.466,-12.695,33.203,44.922,11.719,73.730,0
1553806854.470,-0.977,56.152,44.922,8.789,40.527,0
1553806854.474,-14.160,52.246,50.781,-6.348,11.230,0
1553806854.478,3.906,36.133,48.828,18.066,87.891,0
1553806854.481,39.551,34.180,37.598,48.340,71.777,0
1553806854.485,-9.277,47.852,32.227,2.441,48.340,0
1553806854.489,-45.898,51.758,35.645,-39.062,39.551,0
1553806854.493,-34.668,51.758,34.180,-27.832,71.777,0
1553806854.497,-52.246,50.781,33.691,-27.832,59.570,0
1553806854.501,-69.824,43.457,36.621,-40.527,47.363,0
1553806854.505,-52.246,42.969,38.086,-44.434,96.191,0
1553806854.509,-46.875,46.875,31.738,-41.992,48.828,0
1553806854.513,-54.688,48.828,26.855,-31.738,51.270,0
1553806854.517,-24.414,39.551,26.367,-15.137,58.105,0
1553806854.521,-14.160,36.621,26.855,-8.301,41.504,0
1553806854.524,-33.691,45.410,37.109,-8.301,33.203,0
1553806854.528,-20.020,40.527,41.016,-10.742,27.344,0
1553806854.532,-16.113,41.016,37.598,-9.766,68.359,0
1553806854.536,-22.461,43.457,33.691,-0.488,71.289,0
1553806854.540,-16.113,40.527,25.391,2.930,49.316,0
1553806854.544,-15.137,45.898,27.832,-0.488,84.961,0
1553806854.548,-12.695,47.852,35.156,-7.812,102.051,0
1553806854.552,-1.953,46.387,38.574,7.812,106.445,0
1553806854.556,-6.348,56.152,30.762,11.230,42.480,0
1553806854.560,-5.859,58.105,20.020,1.465,13.184,0
1553806854.563,-5.859,38.574,23.926,3.418,67.871,0
1553806854.567,-18.555,34.668,31.250,-0.488,48.340,0
1553806854.571,1.953,46.875,34.668,6.836,64.453,0
1553806854.575,8.301,41.016,38.086,10.742,65.430,0
1553806854.579,-19.531,34.668,41.016,9.277,50.293,0
1553806854.583,-20.020,45.410,33.203,1.953,68.359,0
1553806854.587,-3.906,43.945,19.531,-9.277,46.387,0
1553806854.591,-0.488,41.992,21.973,0.000,43.945,0
1553806854.595,-1.465,52.246,31.738,12.207,78.125,0
1553806854.599,-2.930,44.434,32.227,14.648,38.086,0
1553806854.603,-12.207,44.434,39.062,4.395,29.785,0
1553806854.606,-7.812,45.898,49.805,4.395,42.969,0
1553806854.610,-7.324,43.945,47.363,14.160,9.766,0
1553806854.614,-10.742,36.621,41.992,10.742,1.953,0
1553806854.618,6.348,28.320,33.691,3.418,-4.395,0
1553806854.622,0.977,30.762,26.367,2.441,21.484,0
1553806854.626,-12.207,41.504,35.645,6.348,0.977,0
1553806854.630,2.441,50.781,43.945,18.066,34.668,0
1553806854.634,9.766,48.340,46.875,22.461,84.961,0
1553806854.638,-0.488,49.805,49.805,9.766,17.090,0
1553806854.642,-9.277,40.039,42.969,8.301,8.301,0
1553806854.646,-2.930,24.902,36.621,13.184,-21.973,0
1553806854.649,-2.441,21.973,35.645,9.766,18.555,0
1553806854.653,-9.766,32.715,41.016,8.789,105.469,0
1553806854.657,-3.906,49.805,41.504,3.418,29.297,0
1553806854.661,5.371,50.293,31.738,15.137,-8.301,0
1553806854.665,4.395,43.945,28.809,23.438,28.320,0
1553806854.669,3.906,41.016,34.668,25.391,59.082,0
1553806854.673,15.137,41.992,34.180,25.879,85.938,0
1553806854.677,14.648,37.109,33.203,19.043,51.270,0
1553806854.681,10.742,39.551,37.109,15.625,57.129,0
1553806854.685,21.973,47.852,35.645,30.762,16.113,0
1553806854.688,41.016,45.410,27.832,43.457,7.812,0
1553806854.692,15.137,32.227,36.621,24.414,38.086,0
1553806854.696,-20.020,25.879,44.922,6.348,34.668,0
1553806854.700,-7.324,36.133,43.945,11.230,61.523,0
1553806854.704,0.488,36.621,41.992,19.043,98.145,0
1553806854.708,-1.953,33.203,40.527,24.902,76.660,0
1553806854.712,-4.883,34.668,38.086,24.902,30.762,0
1553806854.716,-0.488,32.227,28.809,18.555,-2.930,0
1553806854.720,5.859,23.438,24.414,19.531,-3.906,0
1553806854.724,2.930,24.902,26.367,24.414,18.066,0
1553806854.728,-4.395,32.227,30.273,20.508,-6.836,0
1553806854.731,-4.395,26.367,28.320,21.973,41.504,0
1553806854.735,9.277,21.484,28.320,25.391,41.016,0
1553806854.739,18.555,41.504,37.598,23.926,46.875,0
1553806854.743,8.301,48.828,35.156,17.090,78.613,0
1553806854.747,0.488,31.738,24.414,9.766,40.527,0
1553806854.751,0.000,32.227,30.762,23.438,-15.137,0
1553806854.755,-3.906,39.062,34.180,30.762,-9.277,0
1553806854.759,-14.160,41.992,35.156,16.602,3.906,0
1553806854.763,-14.648,39.062,41.016,10.742,-10.742,0
1553806854.767,-9.766,43.945,39.551,9.766,34.180,0
1553806854.771,-10.254,45.410,31.738,9.766,74.219,0
1553806854.774,-8.301,39.062,26.367,13.184,114.258,0
1553806854.778,-8.301,42.969,29.785,18.066,79.590,0
1553806854.782,-18.555,48.828,34.180,18.066,19.531,0
1553806854.786,-17.090,40.527,27.832,11.230,6.836,0
1553806854.790,-5.859,28.320,22.949,13.184,39.551,0
1553806854.794,-3.906,34.668,36.621,18.555,77.637,0
1553806854.798,-8.301,45.410,46.387,19.043,29.785,0
1553806854.802,-11.230,47.363,37.109,16.113,43.945,0
1553806854.806,-0.977,44.434,26.855,10.254,13.184,0
1553806854.810,-2.930,49.805,22.949,5.859,-11.719,0
1553806854.813,-3.906,47.852,27.344,11.230,64.453,0
1553806854.817,-8.789,37.109,35.645,9.277,93.262,0
1553806854.821,-12.695,36.133,24.414,18.555,74.219,0
1553806854.825,-14.160,38.086,17.578,24.414,0.977,0
1553806854.829,-15.137,39.062,32.227,14.160,-10.254,0
1553806854.833,-3.906,43.945,38.086,14.160,33.203,0
1553806854.837,3.418,46.875,40.527,16.113,41.016,0
1553806854.841,8.301,38.574,33.691,14.648,28.320,0
1553806854.845,16.602,30.273,24.414,14.160,59.570,0
1553806854.849,27.344,26.855,30.273,22.949,11.230,0
1553806854.853,25.391,33.203,36.621,29.785,-30.762,0
1553806854.856,20.996,47.852,27.344,26.367,32.715,0
1553806854.860,20.996,52.246,26.855,17.578,54.688,0
1553806854.864,25.879,46.875,29.785,15.625,36.133,0
1553806854.868,26.367,34.668,32.715,17.578,-2.441,0
1553806854.872,10.742,30.273,42.969,24.414,28.809,0
1553806854.876,11.719,37.598,44.922,29.297,7.324,0
1553806854.880,8.301,45.410,33.203,29.785,22.949,0
1553806854.884,28.320,45.898,15.625,37.598,63.965,0
1553806854.888,46.875,35.645,17.578,44.922,26.367,0
1553806854.892,2.441,35.156,28.320,31.738,7.812,0
1553806854.896,-19.043,43.945,33.691,21.484,45.898,0
1553806854.899,1.465,33.691,42.969,39.062,18.066,0
1553806854.903,14.160,32.227,46.875,36.133,8.789,0
1553806854.907,4.883,33.691,41.504,11.719,61.035,0
1553806854.911,-2.930,25.879,40.039,14.648,49.316,0
1553806854.915,-0.488,32.227,37.109,23.926,27.344,0
1553806854.919,-2.441,39.551,33.691,18.555,39.551,0
1553806854.923,4.883,42.969,34.668,10.254,81.055,0
1553806854.927,8.301,41.504,24.414,17.578,108.887,0
1553806854.931,-3.418,28.809,27.344,22.949,42.480,0
1553806854.935,0.977,21.973,39.062,20.996,-12.207,0
1553806854.938,8.789,35.645,28.320,24.902,21.973,0
1553806854.942,6.836,51.270,26.367,21.973,53.711,0
1553806854.946,2.930,49.316,30.273,14.648,22.949,0
1553806854.950,-1.465,36.621,23.926,20.020,70.312,0
1553806854.954,-2.441,39.551,21.484,18.555,79.590,0
1553806854.958,8.789,37.598,20.508,17.578,43.945,0
1553806854.962,7.324,30.273,33.691,20.508,48.340,0
1553806854.966,-0.488,39.062,41.504,12.207,47.852,0
1553806854.970,0.000,40.527,24.414,15.625,65.918,0
1553806854.974,-1.465,38.574,29.785,23.438,65.430,0
1553806854.978,0.488,35.645,37.109,12.695,-0.977,0
1553806854.981,5.859,44.434,19.531,7.812,-45.898,0
1553806854.985,7.812,44.922,23.926,4.883,-3.418,0
1553806854.989,4.395,39.062,27.344,5.859,23.438,0
1553806854.993,2.930,41.504,19.531,13.672,60.059,0
1553806854.997,5.371,40.039,29.785,20.996,86.914,0
1553806855.001,19.531,38.086,36.133,19.043,44.434,0
1553806855.005,27.832,30.273,24.414,15.625,-39.062,0
1553806855.009,25.879,27.344,17.578,24.902,-20.996,0
1553806855.013,13.184,41.992,21.484,20.020,62.012,0
1553806855.017,-0.488,46.387,19.531,23.438,97.168,0
1553806855.021,9.277,41.992,20.508,20.020,83.008,0
1553806855.024,12.695,43.945,26.367,7.812,34.180,0
1553806855.028,6.836,34.668,34.180,20.996,-18.066,0
1553806855.032,11.230,29.297,31.738,31.738,54.688,0
1553806855.036,3.906,36.621,28.809,23.926,120.117,0
1553806855.040,2.441,47.363,26.367,9.766,37.109,0
1553806855.044,5.371,56.641,20.508,8.301,5.859,0
1553806855.048,-4.395,54.688,19.531,15.625,22.949,0
1553806855.052,7.812,50.293,18.555,22.461,26.855,0
1553806855.056,20.508,51.758,19.531,20.996,-8.301,0
1553806855.060,25.391,36.133,32.227,26.367,14.160,0
1553806855.063,27.832,30.762,37.598,44.922,36.133,0
1553806855.067,16.602,41.016,36.621,39.062,23.926,0
1553806855.071,-1.953,42.969,31.738,26.855,42.969,0
1553806855.075,-1.953,49.316,20.996,26.367,-19.043,0
1553806855.079,8.301,41.016,23.438,22.461,-22.949,0
1553806855.083,12.695,34.180,29.297,20.996,38.574,0
1553806855.087,14.648,46.387,35.645,30.273,57.617,0
1553806855.091,7.812,43.945,38.086,52.734,53.223,0
1553806855.095,19.043,41.992,27.832,62.988,22.461,0
1553806855.099,13.184,52.734,20.508,23.438,47.363,0
1553806855.103,-2.930,51.270,22.461,-6.836,93.262,0
1553806855.106,0.977,56.152,21.973,8.789,71.289,0
1553806855.110,10.254,54.199,18.066,23.438,49.805,0
1553806855.114,18.066,49.316,12.695,13.184,44.922,0
1553806855.118,16.602,43.945,15.625,10.254,-3.906,0
1553806855.122,21.484,44.922,10.742,11.230,-2.930,0
1553806855.126,15.137,52.246,7.812,10.742,92.285,0
1553806855.130,6.836,58.594,6.348,18.066,90.332,0
1553806855.134,-2.441,59.570,8.301,22.461,49.316,0
1553806855.138,0.000,50.293,25.879,11.230,54.199,0
1553806855.142,-5.371,44.922,31.738,13.184,40.039,0
1553806855.146,-7.324,42.969,21.973,20.508,65.430,0
1553806855.149,2.930,48.340,18.066,15.625,117.188,0
1553806855.153,1.953,47.852,26.367,20.996,4.395,0
1553806855.157,5.371,48.828,23.926,16.113,-7.324,0
1553806855.161,12.207,47.852,25.879,9.277,90.820,0
1553806855.165,8.789,39.551,24.902,7.812,87.891,0
1553806855.169,4.395,48.340,26.855,16.113,45.410,0
1553806855.173,9.277,57.129,34.668,21.973,32.227,0
1553806855.177,16.113,48.828,34.180,21.484,32.227,0
1553806855.181,16.113,53.711,21.973,27.832,47.852,0
1553806855.185,14.160,60.059,22.949,33.203,25.879,0
1553806855.188,19.531,46.387,30.762,36.133,94.727,0
1553806855.192,20.996,42.480,33.203,27.344,124.023,0
1553806855.196,18.066,47.852,34.668,19.531,68.359,0
1553806855.200,12.695,35.645,36.133,24.902,-13.184,0
1553806855.204,9.277,37.598,41.016,26.855,14.160,0
1553806855.208,11.230,45.898,38.574,29.785,96.191,0
1553806855.212,4.395,40.039,26.855,24.414,51.270,0
1553806855.216,-10.254,38.086,20.508,15.137,50.293,0
1553806855.220,-4.883,41.504,25.391,11.230,48.828,0
1553806855.224,11.230,48.340,29.785,17.090,0.488,0
1553806855.228,9.277,51.270,24.902,16.602,26.855,0
1553806855.231,-2.441,40.039,18.555,9.277,53.711,0
1553806855.235,-5.859,33.691,28.320,20.020,60.059,0
1553806855.239,7.812,25.391,34.180,20.996,60.059,0
1553806855.243,22.461,36.133,25.879,11.230,-5.371,0
1553806855.247,6.836,56.152,29.785,11.719,18.555,0
1553806855.251,-5.859,42.969,33.203,15.137,47.852,0
1553806855.255,8.301,39.062,24.414,8.301,37.109,0
1553806855.259,3.906,47.852,19.531,2.930,39.062,0
1553806855.263,2.441,43.457,29.785,23.926,21.484,0
1553806855.267,19.043,40.039,28.809,37.109,25.879,0
1553806855.271,3.418,48.828,10.254,15.137,62.012,0
1553806855.274,-6.836,44.434,20.996,2.441,18.066,0
1553806855.278,22.461,39.062,36.133,22.949,10.742,0
1553806855.282,20.508,41.992,34.180,32.227,13.672,0
1553806855.286,5.371,39.551,34.668,30.273,-17.578,0
1553806855.290,15.137,38.086,33.691,32.227,41.016,0
1553806855.294,15.625,40.039,38.574,28.809,46.387,0
1553806855.298,6.836,47.363,34.668,24.414,5.859,0
1553806855.302,2.441,49.805,22.949,23.438,35.645,0
1553806855.306,-8.301,44.434,28.809,21.484,48.340,0
1553806855.310,-6.348,33.691,31.250,16.113,51.270,0
1553806855.313,1.465,20.508,24.414,15.625,52.734,0
1553806855.317,0.000,27.832,25.879,15.137,33.691,0
1553806855.321,-0.488,35.156,26.855,13.672,35.156,0
1553806855.325,7.324,33.691,19.531,19.531,62.500,0
1553806855.329,9.277,48.828,24.902,27.344,48.340,0
1553806855.333,4.395,55.664,22.461,35.645,24.902,0
1553806855.337,6.836,43.945,20.508,29.297,19.531,0
1553806855.341,3.906,34.668,31.250,18.555,47.363,0
1553806855.345,-0.488,48.340,29.785,16.602,84.473,0
1553806855.349,0.488,53.711,20.996,17.090,83.984,0
1553806855.353,6.348,51.758,23.438,23.438,50.293,0
1553806855.356,21.484,48.828,32.715,33.691,34.668,0
1553806855.360,42.480,39.551,23.926,31.738,27.344,0
1553806855.364,36.621,42.969,20.020,35.156,-20.508,0
1553806855.368,24.902,55.176,16.602,37.598,-16.113,0
1553806855.372,18.066,57.129,6.348,31.738,11.719,0
1553806855.376,13.184,47.363,26.855,29.297,49.316,0
1553806855.380,10.742,41.992,40.527,35.156,56.641,0
1553806855.384,20.020,45.898,31.738,37.109,57.617,0
1553806855.388,24.414,47.363,34.180,30.273,81.055,0
1553806855.392,27.832,49.805,31.250,27.344,57.129,0
1553806855.396,58.105,47.852,24.902,47.852,72.754,0
1553806855.399,47.363,29.297,38.086,46.387,98.633,0
1553806855.403,2.441,30.762,43.945,16.113,57.129,0
1553806855.407,-4.395,46.875,37.598,7.324,66.406,0
1553806855.411,3.418,43.945,41.504,18.555,78.613,0
1553806855.415,9.766,39.551,50.781,26.855,82.520,0
1553806855.419,-3.906,34.180,50.781,17.090,41.992,0
1553806855.423,6.348,27.832,49.316,37.598,104.004,0
1553806855.427,28.809,28.320,42.480,46.387,158.203,0
1553806855.431,13.184,33.203,37.109,27.344,66.895,0
1553806855.435,11.230,28.809,39.062,21.484,63.965,0
1553806855.438,0.000,17.578,42.480,22.949,34.180,0
1553806855.442,-7.812,21.484,34.180,26.855,2.441,0
1553806855.446,7.812,26.855,21.484,29.785,22.461,0
1553806855.450,9.277,32.227,36.133,26.855,55.664,0
1553806855.454,7.812,41.504,54.199,23.438,44.922,0
1553806855.458,16.113,37.598,55.176,29.297,-41.504,0
1553806855.462,20.996,28.809,47.852,36.621,-39.551,0
1553806855.466,11.230,27.344,39.551,24.414,40.039,0
1553806855.470,14.648,37.109,39.062,23.926,79.590,0
1553806855.474,32.227,41.992,41.992,30.762,22.461,0
1553806855.478,23.926,40.039,45.410,31.738,71.777,0
1553806855.481,2.930,33.691,41.504,32.715,83.496,0
1553806855.485,13.184,30.273,35.156,28.809,39.062,0
1553806855.489,15.625,37.598,36.133,28.320,67.383,0
1553806855.493,2.441,37.109,43.457,34.668,40.527,0
1553806855.497,2.930,34.668,46.387,35.156,63.965,0
1553806855.501,1.953,41.016,39.062,35.156,74.219,0
1553806855.505,2.930,43.945,37.109,37.598,42.969,0
1553806855.509,20.996,41.992,45.410,36.133,20.020,0
1553806855.513,31.738,42.969,44.434,33.691,55.664,0
1553806855.517,28.320,45.898,39.062,42.969,86.914,0
1553806855.521,23.438,37.109,47.363,38.086,54.688,0
1553806855.524,18.066,33.203,52.734,24.902,53.711,0
1553806855.528,6.836,41.992,46.875,28.809,24.902,0
1553806855.532,-3.418,36.133,40.527,29.297,17.578,0
1553806855.536,11.230,37.598,38.574,35.156,26.367,0
1553806855.540,6.836,43.945,39.062,31.250,46.387,0
1553806855.544,-1.465,41.992,42.969,28.320,40.039,0
1553806855.548,4.395,42.480,35.156,25.879,-11.230,0
1553806855.552,5.371,41.016,32.715,18.555,-0.977,0
1553806855.556,0.000,37.109,47.852,17.578,-5.371,0
1553806855.560,0.000,37.598,51.758,20.996,1.953,0
1553806855.563,-0.488,40.039,44.922,25.391,60.059,0
1553806855.567,-6.836,46.387,42.969,7.324,73.730,0
1553806855.571,-8.301,51.270,38.574,1.465,13.184,0
1553806855.575,15.137,49.316,36.133,35.645,-62.012,0
1553806855.579,30.273,44.922,48.340,37.598,-18.066,0
1553806855.583,6.836,41.016,53.223,6.836,37.598,0
1553806855.587,-13.184,35.645,49.805,0.488,17.090,0
1553806855.591,-9.277,30.273,49.805,23.926,33.691,0
1553806855.595,0.000,26.367,49.316,32.715,10.254,0
1553806855.599,9.766,25.391,43.945,30.762,41.016,0
1553806855.603,39.551,22.461,40.527,47.363,3.906,0
1553806855.606,55.664,18.555,44.434,61.523,-46.875,0
1553806855.610,42.969,18.555,46.387,59.570,55.176,0
1553806855.614,55.664,17.090,44.434,69.336,77.148,0
1553806855.618,77.637,15.137,48.340,90.332,12.207,0
1553806855.622,52.734,11.719,52.246,84.473,26.855,0
1553806855.626,41.016,6.836,58.594,80.078,47.363,0
1553806855.630,57.617,7.812,61.035,94.727,44.922,0
1553806855.634,73.730,13.184,53.711,105.469,3.418,0
1553806855.638,80.566,15.137,54.199,102.539,2.441,0
1553806855.642,80.078,18.555,55.176,107.422,50.293,0
1553806855.646,59.570,20.508,54.199,100.098,66.406,0
1553806855.649,50.293,22.949,53.711,95.703,18.066,0
1553806855.653,75.195,21.484,48.828,103.027,24.414,0
1553806855.657,74.707,15.625,53.711,92.285,69.824,0
1553806855.661,67.383,21.484,58.594,86.914,80.078,0
1553806855.665,63.965,22.461,54.199,82.520,20.020,0
1553806855.669,58.594,20.996,49.316,82.031,7.812,0
1553806855.673,59.082,28.320,45.410,74.219,68.359,0
1553806855.677,49.316,19.531,43.457,65.918,72.266,0
1553806855.681,36.621,18.066,52.246,73.242,43.945,0
1553806855.685,42.480,38.086,56.152,72.754,52.246,0
1553806855.688,60.059,39.062,52.734,61.035,87.402,0
1553806855.692,62.988,27.344,62.012,56.641,39.062,0
1553806855.696,45.410,25.879,65.918,45.898,13.672,0
1553806855.700,32.715,33.691,62.988,45.410,38.086,0
1553806855.704,29.785,31.738,61.523,57.129,22.461,0
1553806855.708,35.156,29.785,55.176,54.199,58.105,0
1553806855.712,35.645,40.039,50.293,51.270,28.320,0
1553806855.716,31.738,43.945,48.828,44.434,10.254,0
1553806855.720,33.203,41.992,39.551,42.969,9.277,0
1553806855.724,33.691,40.039,39.551,45.898,35.645,0
1553806855.728,22.949,36.621,44.922,36.621,14.648,0
1553806855.731,12.207,41.016,42.969,35.645,-22.949,0
1553806855.735,22.949,39.551,37.109,38.086,21.973,0
1553806855.739,21.973,32.227,33.691,38.574,-3.418,0
1553806855.743,19.043,36.621,37.598,37.598,-30.762,0
1553806855.747,17.578,39.062,46.875,31.250,24.902,0
1553806855.751,3.418,38.086,41.992,25.391,88.867,0
1553806855.755,-6.348,41.504,35.156,20.020,60.059,0
1553806855.759,-7.324,42.480,37.109,20.508,42.969,0
1553806855.763,4.883,38.574,35.645,21.973,44.922,0
1553806855.767,8.301,25.879,32.715,24.414,-3.418,0
1553806855.771,3.906,29.297,28.809,20.508,-35.156,0
1553806855.774,16.602,43.457,35.645,15.625,-5.371,0
1553806855.778,13.184,41.504,41.016,19.043,15.137,0
1553806855.782,16.602,42.480,36.133,27.832,25.391,0
1553806855.786,21.484,41.992,28.809,24.902,9.766,0
1553806855.790,20.996,35.645,33.691,24.414,34.180,0
1553806855.794,18.066,38.574,40.039,34.668,41.992,0
1553806855.798,23.438,40.527,41.992,39.062,68.848,0
1553806855.802,32.715,31.738,36.133,33.691,45.898,0
1553806855.806,33.203,30.273,32.715,29.297,-0.488,0
1553806855.810,19.531,41.992,33.691,29.297,15.625,0
1553806855.813,0.000,42.480,31.250,29.297,-12.207,0
1553806855.817,7.812,27.832,40.527,37.109,15.625,0
1553806855.821,50.781,35.645,34.180,58.105,43.945,0
1553806855.825,54.199,55.664,18.066,41.992,48.340,0
1553806855.829,0.488,56.641,20.020,3.906,40.039,0
1553806855.833,-8.301,57.617,20.020,5.371,13.672,0
1553806855.837,1.465,67.871,16.113,0.000,-7.812,0
1553806855.841,-11.230,72.266,14.648,-13.184,26.367,0
1553806855.845,-15.137,68.848,12.695,-14.648,82.520,0
1553806855.849,-7.812,69.824,7.324,-16.113,54.688,0
1553806855.853,-7.812,72.754,0.000,-27.832,41.504,0
1553806855.856,-2.441,70.801,-1.953,-18.555,104.004,0
1553806855.860,9.766,73.730,-2.441,-5.859,79.590,0
1553806855.864,15.625,71.777,-3.906,-3.418,33.691,0
1553806855.868,19.043,71.289,-3.418,7.812,82.031,0
1553806855.872,18.555,69.824,0.977,6.836,79.102,0
1553806855.876,10.742,60.059,3.906,3.906,47.852,0
1553806855.880,9.277,49.316,8.789,4.883,32.227,0
1553806855.884,19.531,53.223,12.695,2.930,10.742,0
1553806855.888,9.277,59.570,10.742,5.859,15.137,0
1553806855.892,-1.465,59.570,12.207,8.301,47.363,0
1553806855.896,-1.465,66.406,8.301,5.859,56.152,0
1553806855.899,6.348,65.430,6.348,13.672,38.086,0
1553806855.903,10.742,50.781,15.137,18.555,-20.996,0
1553806855.907,6.836,52.734,18.555,16.602,4.395,0
1553806855.911,11.230,57.129,19.531,15.137,4.395,0
1553806855.915,17.090,57.129,21.973,16.602,-6.348,0
1553806855.919,16.602,55.664,21.484,24.414,12.695,0
1553806855.923,19.043,55.664,19.043,20.020,37.109,0
1553806855.927,17.578,59.082,23.926,10.742,91.309,0
1553806855.931,7.812,55.664,28.809,12.207,32.715,0
1553806855.935,12.695,47.363,22.461,16.113,-50.293,0
1553806855.938,18.555,45.410,25.391,16.113,36.621,0
1553806855.942,8.789,39.062,35.156,11.230,130.371,0
1553806855.946,2.930,41.016,32.715,9.277,108.887,0
1553806855.950,13.184,51.758,25.391,18.555,79.590,0
1553806855.954,27.344,48.828,26.367,24.414,73.242,0
1553806855.958,30.273,44.434,31.738,22.461,60.059,0
1553806855.962,24.902,42.480,32.715,21.484,-31.738,0
1553806855.966,23.926,38.574,36.133,18.555,-46.387,0
1553806855.970,16.113,37.109,34.180,20.996,60.547,0
1553806855.974,6.836,42.480,32.715,26.367,102.051,0
1553806855.978,12.207,39.062,23.926,25.391,39.062,0
1553806855.981,11.230,33.203,22.461,18.066,35.645,0
1553806855.985,8.789,45.410,39.062,28.320,77.148,0
1553806855.989,8.789,43.457,29.297,41.016,71.289,0
1553806855.993,14.160,34.180,26.367,27.832,30.273,0
1553806855.997,21.973,38.574,38.574,18.066,67.871,0
1553806856.001,20.508,45.410,34.668,24.414,85.938,0
1553806856.005,14.648,44.434,38.086,27.344,5.859,0
1553806856.009,17.578,35.156,41.016,26.855,0.000,0
1553806856.013,15.625,34.180,18.555,23.438,66.895,0
1553806856.017,21.484,44.922,10.254,39.062,20.996,0
1553806856.021,35.645,50.293,30.273,62.988,-22.949,0
1553806856.024,-1.953,52.734,47.363,26.367,48.828,0
1553806856.028,-37.109,58.105,50.293,-15.625,67.871,0
1553806856.032,-53.711,55.176,49.316,-32.715,39.551,0
1553806856.036,-83.008,57.617,44.434,-62.500,28.320,0
1553806856.040,-97.168,58.105,45.410,-80.078,97.168,0
1553806856.044,-110.352,58.594,49.805,-103.516,62.500,0
1553806856.048,-129.883,64.941,46.875,-133.789,78.125,0
1553806856.052,-160.645,62.012,44.922,-146.484,67.383,0
1553806856.056,-187.500,61.523,39.551,-153.809,-11.719,0
1553806856.060,-193.848,58.594,50.781,-158.691,94.238,0
1553806856.063,-186.035,57.617,62.012,-162.109,109.375,0
1553806856.067,-182.617,60.547,55.176,-160.645,-27.832,0
1553806856.071,-171.875,60.547,55.664,-145.020,-34.180,0
1553806856.075,-157.227,44.922,58.105,-142.578,-53.711,0
1553806856.079,-146.973,41.016,53.223,-129.395,-30.273,0
1553806856.083,-130.859,60.547,52.246,-108.398,12.207,0
1553806856.087,-107.910,53.223,43.945,-106.934,63.477,0
1553806856.091,-99.121,48.828,35.645,-91.309,121.094,0
1553806856.095,-93.262,58.594,39.551,-70.312,131.348,0
1553806856.099,-82.031,55.176,39.551,-55.176,65.430,0
1553806856.103,-77.148,39.062,39.062,-52.734,44.922,0
1553806856.106,-80.566,43.457,38.574,-57.129,94.727,0
1553806856.110,-79.590,60.059,40.527,-53.223,98.633,0
1553806856.114,-62.012,55.664,41.016,-41.504,65.918,0
1553806856.118,-48.828,46.875,31.738,-34.180,7.324,0
1553806856.122,-51.270,37.598,26.367,-34.668,15.137,0
1553806856.126,-45.898,33.691,27.832,-23.438,33.691,0
1553806856.130,-35.645,49.805,30.273,-5.859,54.199,0
1553806856.134,-38.086,52.734,33.691,-3.418,55.664,0
1553806856.138,-48.340,41.016,34.180,-12.207,44.922,0
1553806856.142,-36.621,50.293,31.250,-7.324,58.105,0
1553806856.146,-21.484,52.734,27.832,-5.859,26.367,0
1553806856.149,-15.137,45.410,34.668,-7.812,1.953,0
1553806856.153,-3.418,43.945,34.668,1.953,1.465,0
1553806856.157,-9.766,37.109,25.879,-4.395,17.578,0
1553806856.161,-15.137,38.574,22.949,1.953,0.488,0
1553806856.165,-13.184,43.457,25.391,15.137,48.340,0
1553806856.169,-16.602,33.691,31.738,8.789,60.547,0
1553806856.173,-17.090,33.203,34.180,6.348,44.434,0
1553806856.177,-18.555,39.551,26.855,12.695,68.359,0
1553806856.181,-19.531,36.133,28.320,0.000,35.645,0
1553806856.185,-16.602,37.109,38.086,-12.207,70.801,0
1553806856.188,-2.930,42.480,37.598,-0.977,43.457,0
1553806856.192,3.418,43.945,27.344,21.484,-49.316,0
1553806856.196,0.000,46.875,27.832,17.578,-5.371,0
1553806856.200,-7.324,36.621,35.156,7.812,39.062,0
1553806856.204,-16.602,24.902,36.133,11.719,37.109,0
1553806856.208,-13.672,43.457,37.109,7.812,52.246,0
1553806856.212,-4.395,54.199,32.715,8.301,60.059,0
1553806856.216,-5.371,40.527,30.762,2.930,93.262,0
1553806856.220,-10.742,31.250,34.180,12.695,80.078,0
1553806856.224,-11.230,39.062,33.691,20.996,45.410,0
1553806856.228,-8.789,44.922,32.715,14.648,46.875,0
1553806856.231,-1.465,42.480,31.738,7.324,17.578,0
1553806856.235,-0.977,38.086,31.738,4.395,19.531,0
1553806856.239,-0.977,28.320,39.551,18.066,38.574,0
1553806856.243,2.441,29.297,38.574,16.113,50.781,0
1553806856.247,-5.859,41.992,30.273,11.230,41.992,0
1553806856.251,-5.371,45.898,26.367,20.020,31.250,0
1553806856.255,6.348,39.551,25.391,23.438,30.762,0
1553806856.259,1.465,38.574,35.645,23.438,44.922,0
1553806856.263,-10.254,39.062,40.039,11.230,71.777,0
1553806856.267,9.277,39.062,30.273,12.207,33.691,0
1553806856.271,20.508,41.992,25.391,20.020,40.039,0
1553806856.274,-6.348,41.016,25.879,9.766,55.176,0
1553806856.278,-5.859,48.828,25.879,13.672,40.527,0
1553806856.282,0.488,48.340,35.645,24.414,20.996,0
1553806856.286,-3.418,50.781,35.156,15.625,16.113,0
1553806856.290,-4.883,52.734,25.879,12.207,3.418,0
1553806856.294,-1.953,41.504,28.320,21.973,-0.488,0
1553806856.298,-3.418,34.668,35.156,25.391,53.223,0
1553806856.302,-2.930,44.434,30.273,19.043,61.035,0
1553806856.306,3.906,49.805,27.832,3.906,36.133,0
1553806856.310,3.418,46.875,28.320,5.859,38.086,0
1553806856.313,13.672,51.758,24.902,13.184,17.090,0
1553806856.317,15.625,43.457,30.762,8.301,62.012,0
1553806856.321,4.883,27.344,40.527,13.672,53.223,0
1553806856.325,2.930,39.551,39.062,18.066,-30.273,0
1553806856.329,12.695,47.363,37.109,16.113,-3.418,0
1553806856.333,12.695,37.109,39.062,19.531,39.551,0
1553806856.337,7.812,33.691,36.621,23.926,13.184,0
1553806856.341,12.207,41.992,39.062,24.414,47.363,0
1553806856.345,12.207,41.504,31.250,23.926,59.570,0
1553806856.349,14.648,29.785,20.996,35.156,46.387,0
1553806856.353,15.137,35.156,31.250,33.203,77.637,0
1553806856.356,12.207,36.133,36.621,25.879,12.695,0
1553806856.360,6.348,36.133,36.621,14.648,23.926,0
1553806856.364,-0.488,47.363,33.203,11.230,91.309,0
1553806856.368,9.277,35.156,24.902,15.625,33.691,0
1553806856.372,2.441,28.809,25.391,12.695,-33.203,0
1553806856.376,-8.301,37.109,30.273,13.672,44.434,0
1553806856.380,3.418,38.086,34.180,12.695,90.332,0
1553806856.384,2.441,39.062,37.109,14.160,72.266,0
1553806856.388,-10.742,36.621,37.109,13.184,108.887,0
1553806856.392,-5.859,46.875,29.785,8.301,76.172,0
1553806856.396,23.438,46.875,24.902,20.508,37.598,0
1553806856.399,27.832,38.574,30.273,36.621,28.809,0
1553806856.403,-20.508,41.016,36.133,6.836,20.508,0
1553806856.407,-34.180,33.691,39.062,-6.836,-2.441,0
1553806856.411,-10.742,30.273,38.574,21.484,-9.766,0
1553806856.415,0.000,32.227,37.109,20.020,35.156,0
1553806856.419,11.230,36.133,28.809,7.812,55.176,0
1553806856.423,8.301,36.133,23.926,2.441,54.688,0
1553806856.427,-4.395,32.715,23.438,6.836,72.266,0
1553806856.431,-3.906,36.133,25.391,19.531,92.773,0
1553806856.435,-0.488,25.879,25.879,13.672,126.953,0
1553806856.438,3.906,26.367,22.949,13.672,104.004,0
1553806856.442,6.836,42.480,34.668,19.531,21.973,0
1553806856.446,10.254,35.645,34.668,20.020,29.785,0
1553806856.450,13.184,27.344,27.344,32.227,75.195,0
1553806856.454,7.812,44.922,35.156,25.879,34.180,0
1553806856.458,11.230,51.758,36.133,16.602,-8.301,0
1553806856.462,17.578,38.086,29.297,22.949,20.508,0
1553806856.466,17.090,37.109,29.297,10.742,13.184,0
1553806856.470,9.277,40.527,33.203,4.883,-0.977,0
1553806856.474,-0.977,37.598,30.273,20.508,-26.367,0
1553806856.478,-5.371,32.715,26.855,24.414,60.059,0
1553806856.481,2.930,15.625,32.715,25.879,85.938,0
1553806856.485,13.672,26.367,24.902,27.344,76.660,0
1553806856.489,7.812,40.039,21.973,24.414,86.426,0
1553806856.493,4.395,38.086,38.574,31.250,60.059,0
1553806856.497,7.812,43.457,35.156,32.227,70.801,0
1553806856.501,17.090,41.504,27.344,22.461,54.688,0
1553806856.505,16.113,38.574,31.250,19.531,43.457,0
1553806856.509,9.277,27.344,39.062,29.785,49.805,0
1553806856.513,12.695,22.949,38.574,26.855,20.020,0
1553806856.517,10.254,35.645,38.574,18.066,21.484,0
1553806856.521,17.090,45.898,34.180,20.020,27.344,0
1553806856.524,30.762,53.223,29.297,27.344,7.324,0
1553806856.528,21.973,39.062,34.180,25.391,64.453,0
1553806856.532,3.906,29.297,36.621,14.648,91.309,0
1553806856.536,4.395,38.574,30.273,13.672,-17.090,0
1553806856.540,9.766,45.410,26.855,20.020,4.883,0
1553806856.544,14.160,50.293,41.504,27.832,94.727,0
1553806856.548,11.230,41.992,50.293,29.297,18.066,0
1553806856.552,1.465,32.715,44.922,21.973,-0.488,0
1553806856.556,10.742,34.180,45.410,26.367,86.914,0
1553806856.560,12.695,37.598,40.039,33.691,51.758,0
1553806856.563,7.324,45.410,38.574,28.809,-11.719,0
1553806856.567,13.672,49.316,38.574,30.762,53.223,0
1553806856.571,11.719,50.293,29.785,21.973,38.086,0
1553806856.575,7.812,46.875,32.227,20.508,42.969,0
1553806856.579,7.812,39.062,37.598,27.832,79.102,0
1553806856.583,15.625,30.273,39.551,27.344,11.230,0
1553806856.587,18.066,28.809,38.574,26.367,30.273,0
1553806856.591,11.719,38.574,31.738,18.555,18.066,0
1553806856.595,1.465,44.922,26.855,20.996,-7.324,0
1553806856.599,-2.441,46.387,28.320,22.949,-6.836,0
1553806856.603,4.883,36.621,36.133,17.090,-2.930,0
1553806856.606,8.789,27.344,33.691,14.648,42.969,0
1553806856.610,10.254,42.969,32.227,20.020,19.043,0
1553806856.614,0.977,50.293,41.504,14.648,0.000,0
1553806856.618,-4.395,30.273,47.852,18.066,22.461,0
1553806856.622,1.953,25.391,31.250,24.414,33.203,0
1553806856.626,-4.395,40.527,9.766,14.160,-3.418,0
1553806856.630,-6.836,37.598,28.809,11.230,5.371,0
1553806856.634,-4.883,36.621,38.574,12.207,54.688,0
1553806856.638,1.953,45.898,30.273,18.066,74.707,0
1553806856.642,5.859,45.410,27.832,16.602,67.871,0
1553806856.646,2.441,41.016,26.367,14.160,14.648,0
1553806856.649,2.930,36.621,34.180,11.719,32.715,0
1553806856.653,11.230,29.297,41.016,27.344,62.012,0
1553806856.657,11.230,38.574,32.715,43.945,13.672,0
1553806856.661,-16.602,47.852,22.461,10.254,14.160,0
1553806856.665,-16.602,38.086,31.738,-7.324,47.363,0
1553806856.669,-1.953,30.762,36.133,12.695,9.277,0
1553806856.673,-4.395,36.621,26.855,16.113,23.438,0
1553806856.677,4.395,38.574,24.902,17.090,88.379,0
1553806856.681,9.277,34.668,27.832,17.578,88.379,0
1553806856.685,4.395,45.898,23.926,10.742,0.977,0
1553806856.688,-0.977,49.805,25.391,9.766,64.941,0
1553806856.692,-5.859,42.480,27.832,5.859,91.309,0
1553806856.696,-6.836,43.457,22.461,10.254,55.664,0
1553806856.700,-2.441,43.945,13.672,16.602,56.152,0
1553806856.704,-5.859,32.227,16.602,7.812,4.883,0
1553806856.708,-9.277,39.062,22.461,8.789,-16.113,0
1553806856.712,2.930,47.363,14.160,13.184,24.414,0
1553806856.716,6.348,43.457,23.926,16.602,16.602,0
1553806856.720,6.348,35.156,29.297,13.672,62.988,0
1553806856.724,9.277,26.855,27.832,10.742,124.023,0
1553806856.728,-3.418,40.527,30.273,24.414,53.711,0
1553806856.731,-11.719,59.082,23.926,37.109,-17.090,0
1553806856.735,-10.742,54.688,26.367,31.738,-39.551,0
1553806856.739,-4.395,49.316,26.855,14.160,13.672,0
1553806856.743,-0.977,54.199,23.438,9.277,18.066,0
1553806856.747,0.977,38.574,28.320,13.184,34.668,0
1553806856.751,6.348,29.297,36.133,9.766,64.453,0
1553806856.755,3.906,40.039,33.691,7.812,78.125,0
1553806856.759,2.441,41.504,30.762,17.578,48.340,0
1553806856.763,-1.953,58.594,40.039,22.461,6.348,0
1553806856.767,-12.695,67.383,33.691,14.648,15.625,0
1553806856.771,-15.625,62.988,34.180,5.371,68.359,0
1553806856.774,-12.695,61.523,42.480,4.395,53.223,0
1553806856.778,-39.062,50.293,33.691,-23.438,20.020,0
1553806856.782,-41.016,59.082,48.340,-23.926,19.043,0
1553806856.786,-38.574,69.336,61.035,-20.996,45.410,0
1553806856.790,-72.266,63.965,53.711,-60.059,98.145,0
1553806856.794,-89.355,69.336,54.199,-75.684,94.727,0
1553806856.798,-118.652,77.148,64.941,-102.051,107.422,0
1553806856.802,-153.320,80.078,85.449,-127.930,86.914,0
1553806856.806,-173.828,75.684,100.586,-138.184,47.363,0
1553806856.810,-202.148,63.477,110.840,-168.945,51.758,0
1553806856.813,-217.773,72.266,103.516,-192.871,33.691,0
1553806856.817,-240.234,82.520,110.840,-215.332,39.062,0
1553806856.821,-254.883,84.473,135.742,-248.535,38.574,0
1553806856.825,-265.625,92.285,160.645,-263.184,33.691,0
1553806856.829,-286.621,93.262,181.641,-261.719,83.984,0
1553806856.833,-271.973,95.703,173.340,-236.328,112.793,0
1553806856.837,-264.160,96.680,177.734,-223.145,85.449,0
1553806856.841,-246.582,86.914,176.758,-227.051,41.992,0
1553806856.845,-216.797,57.129,156.250,-207.520,56.641,0
1553806856.849,-211.426,49.316,149.902,-177.734,101.562,0
1553806856.853,-192.871,74.707,157.715,-160.156,62.012,0
1553806856.856,-152.344,80.078,86.426,-131.348,-31.738,0
1553806856.860,-135.254,73.730,50.781,-115.234,23.926,0
1553806856.864,-118.164,64.453,125.977,-100.586,67.871,0
1553806856.868,-94.727,53.711,142.090,-67.871,23.438,0
1553806856.872,-78.613,30.273,113.770,-47.852,48.828,0
1553806856.876,-52.246,31.250,78.613,-19.531,13.184,0
1553806856.880,-35.645,43.457,55.664,4.395,21.484,0
1553806856.884,-12.207,38.086,45.898,38.574,50.781,0
1553806856.888,20.996,37.109,28.320,49.316,-5.371,0
1553806856.892,35.645,28.809,24.902,42.969,-0.977,0
1553806856.896,61.035,18.555,18.066,66.406,14.160,0
1553806856.899,73.730,24.414,6.836,77.637,59.082,0
1553806856.903,75.684,31.738,-5.371,81.543,54.199,0
1553806856.907,80.078,30.762,-23.926,96.680,0.000,0
1553806856.911,83.984,23.926,-21.973,104.492,-19.531,0
1553806856.915,104.492,4.395,-16.113,99.121,6.348,0
1553806856.919,109.863,11.230,-21.973,105.957,40.527,0
1553806856.923,100.586,24.414,-20.508,119.141,32.227,0
1553806856.927,101.562,25.879,-20.996,116.699,29.785,0
1553806856.931,99.121,33.691,-25.879,111.816,13.184,0
1553806856.935,94.727,32.227,-22.461,102.051,31.738,0
1553806856.938,89.355,21.484,-20.508,101.074,34.180,0
1553806856.942,92.285,24.414,-31.738,110.352,7.324,0
1553806856.946,92.773,36.621,-37.598,106.934,32.227,0
1553806856.950,85.938,32.227,-21.484,101.562,35.156,0
1553806856.954,88.867,36.621,-16.113,93.750,0.488,0
1553806856.958,91.797,28.320,-20.996,87.891,22.949,0
1553806856.962,90.332,20.020,-17.578,81.543,42.480,0
1553806856.966,79.102,21.973,-13.672,78.613,84.473,0
1553806856.970,77.148,25.391,-13.184,87.402,58.594,0
1553806856.974,80.078,41.504,-13.184,88.867,18.066,0
1553806856.978,74.707,46.875,-19.531,74.707,6.348,0
1553806856.981,74.707,38.086,-18.555,71.289,23.438,0
1553806856.985,79.102,27.832,-13.672,81.543,-26.855,0
1553806856.989,84.961,23.926,-5.859,83.496,41.016,0
1553806856.993,64.941,29.297,-1.953,77.148,120.117,0
1553806856.997,55.664,40.527,-8.789,72.754,48.828,0
1553806857.001,58.105,34.180,-5.859,64.941,-38.086,0
1553806857.005,55.664,27.832,-1.465,58.105,18.555,0
1553806857.009,66.406,34.180,0.000,65.918,57.129,0
1553806857.013,69.824,28.809,7.324,65.918,-45.410,0
1553806857.017,63.965,23.926,6.836,64.941,48.340,0
1553806857.021,63.965,32.715,2.930,67.383,69.824,0
1553806857.024,57.617,29.297,7.324,62.012,-1.465,0
1553806857.028,59.570,25.879,14.160,59.570,-8.789,0
1553806857.032,57.129,39.551,13.184,67.871,-62.988,0
1553806857.036,37.598,20.996,3.906,66.895,10.254,0
1553806857.040,48.828,19.043,9.766,49.805,60.059,0
1553806857.044,51.270,46.875,16.113,45.410,28.809,0
1553806857.048,30.762,41.016,19.531,44.434,61.523,0
1553806857.052,34.668,25.391,19.043,44.922,84.473,0
1553806857.056,38.086,30.273,14.160,53.223,56.641,0
1553806857.060,41.992,38.086,18.555,60.059,-21.484,0
1553806857.063,45.410,30.762,20.996,59.082,3.418,0
1553806857.067,48.828,24.414,20.996,57.129,53.711,0
1553806857.071,49.316,26.855,19.043,58.105,85.938,0
1553806857.075,40.039,39.551,20.508,50.781,115.234,0
1553806857.079,41.016,44.434,26.855,52.246,95.703,0
1553806857.083,34.668,29.297,28.809,50.781,76.660,0
1553806857.087,36.621,18.555,29.297,53.711,56.152,0
1553806857.091,44.922,33.203,23.438,59.082,37.109,0
1553806857.095,43.457,37.598,22.949,56.152,8.789,0
1553806857.099,40.527,48.828,14.648,46.387,12.207,0
1553806857.103,32.715,57.129,6.348,48.340,12.695,0
1553806857.106,30.762,29.785,25.391,56.152,28.320,0
1553806857.110,24.414,31.250,36.621,43.945,62.500,0
1553806857.114,20.020,42.480,27.832,41.992,-11.230,0
1553806857.118,19.531,38.086,27.344,43.945,28.809,0
1553806857.122,31.250,43.457,31.738,37.109,52.734,0
1553806857.126,35.645,42.480,30.273,31.738,-54.199,0
1553806857.130,24.414,43.457,25.879,29.297,-7.812,0
1553806857.134,33.691,49.805,18.066,39.551,23.438,0
1553806857.138,31.250,45.410,20.020,43.457,26.367,0
1553806857.142,1.465,41.016,32.715,28.320,35.645,0
1553806857.146,-3.418,38.574,36.621,25.879,-20.996,0
1553806857.149,2.441,39.062,28.320,28.809,39.062,0
1553806857.153,10.742,34.180,25.879,21.973,48.340,0
1553806857.157,24.414,28.809,18.066,20.508,33.203,0
1553806857.161,13.672,38.086,12.695,37.109,42.480,0
1553806857.165,0.977,54.688,24.414,32.715,2.930,0
1553806857.169,7.324,41.992,19.043,21.973,44.922,0
1553806857.173,20.020,29.785,15.137,33.691,110.840,0
1553806857.177,22.949,31.250,32.715,30.762,111.816,0
1553806857.181,20.020,34.668,32.715,27.344,-16.113,0
1553806857.185,20.020,43.457,18.066,26.855,11.230,0
1553806857.188,22.949,32.227,23.438,28.320,53.223,0
1553806857.192,25.391,21.484,27.832,29.785,36.133,0
1553806857.196,26.855,22.461,27.832,26.855,74.219,0
1553806857.200,27.344,33.691,32.227,25.391,77.148,0
1553806857.204,14.160,40.527,26.855,26.367,94.238,0
1553806857.208,4.883,34.180,20.996,34.668,113.281,0
1553806857.212,13.184,34.180,19.531,29.785,64.453,0
1553806857.216,12.207,35.645,25.879,20.508,36.621,0
1553806857.220,10.742,21.973,34.180,20.508,59.570,0
1553806857.224,13.672,20.508,30.273,21.973,37.109,0
1553806857.228,25.879,30.273,25.879,27.832,106.445,0
1553806857.231,36.133,22.949,33.203,17.578,94.238,0
1553806857.235,28.320,25.391,35.645,11.719,11.719,0
1553806857.239,23.926,35.645,33.691,22.461,43.945,0
1553806857.243,16.602,33.691,25.879,19.531,13.672,0
1553806857.247,7.324,31.250,14.648,18.555,10.254,0
1553806857.251,12.207,33.203,27.832,18.066,57.617,0
1553806857.255,9.277,35.156,45.410,15.137,36.621,0
1553806857.259,0.977,26.855,41.016,21.973,67.871,0
1553806857.263,1.465,23.926,37.109,15.137,78.613,0
1553806857.267,-0.977,27.344,40.039,5.859,38.574,0
1553806857.271,2.930,38.574,28.809,22.949,87.402,0
1553806857.274,6.348,41.504,24.414,25.879,26.367,0
1553806857.278,2.441,28.809,21.973,10.254,1.465,0
1553806857.282,7.324,29.297,13.184,17.090,62.012,0
1553806857.286,8.301,35.156,17.578,15.625,30.762,0
1553806857.290,7.812,29.785,29.297,15.137,-10.254,0
1553806857.294,5.859,40.039,30.273,22.461,12.695,0
1553806857.298,0.488,55.664,23.438,20.996,36.133,0
1553806857.302,-0.977,43.457,26.855,25.391,86.426,0
1553806857.306,11.230,31.738,33.203,25.879,83.496,0
1553806857.310,23.926,44.922,15.137,15.137,18.555,0
1553806857.313,12.695,47.363,1.953,6.348,6.836,0
1553806857.317,5.859,34.180,19.043,7.324,10.254,0
1553806857.321,-0.488,32.715,27.344,6.348,33.691,0
1553806857.325,-8.789,39.551,34.668,13.672,63.965,0
1553806857.329,-2.441,37.598,31.250,20.020,20.020,0
1553806857.333,7.324,32.715,21.973,15.137,64.453,0
1553806857.337,5.859,27.832,26.367,17.090,68.359,0
1553806857.341,6.348,30.273,27.344,15.137,36.133,0
1553806857.345,7.324,35.156,22.949,16.602,70.312,0
1553806857.349,10.742,42.480,13.672,23.926,72.754,0
1553806857.353,47.363,32.227,4.883,47.363,35.156,0
1553806857.356,46.387,23.438,20.508,44.434,52.246,0
1553806857.360,-0.977,32.715,41.016,11.230,72.754,0
1553806857.364,-0.977,37.109,37.598,12.207,44.922,0
1553806857.368,11.719,29.297,33.203,33.203,-20.020,0
1553806857.372,0.000,22.949,32.227,35.156,-62.012,0
1553806857.376,11.719,20.020,31.738,33.203,26.367,0
1553806857.380,22.461,15.137,33.203,42.969,60.059,0
1553806857.384,13.184,20.508,30.273,37.598,13.672,0
1553806857.388,15.625,23.926,33.691,23.926,-25.879,0
1553806857.392,25.879,30.762,36.621,29.297,51.758,0
1553806857.396,24.414,40.527,33.203,34.668,117.188,0
1553806857.399,20.020,27.832,36.133,36.621,67.383,0
1553806857.403,23.926,8.301,38.086,31.250,6.348,0
1553806857.407,11.719,21.484,32.715,31.738,17.578,0
1553806857.411,2.441,43.945,25.879,22.461,90.332,0
1553806857.415,13.672,41.504,32.227,12.695,24.902,0
1553806857.419,1.465,35.645,26.367,19.531,-1.465,0
1553806857.423,-11.230,24.902,27.344,22.461,35.156,0
1553806857.427,-3.418,29.297,52.246,28.320,71.289,0
1553806857.431,-8.789,42.969,55.176,18.066,81.543,0
1553806857.435,-15.137,46.387,51.758,12.207,39.551,0
1553806857.438,-5.371,43.457,46.875,26.367,69.824,0
1553806857.442,-3.906,32.227,39.551,19.043,117.188,0
1553806857.446,5.859,28.320,43.457,13.184,89.844,0
1553806857.450,11.230,27.832,45.410,12.207,68.848,0
1553806857.454,6.836,33.203,41.992,17.090,32.715,0
1553806857.458,-0.977,42.480,48.340,24.414,10.254,0
1553806857.462,-12.207,41.504,46.875,16.113,53.711,0
1553806857.466,-11.719,45.410,45.410,14.160,28.809,0
1553806857.470,-11.719,51.270,52.734,5.371,12.207,0
1553806857.474,-20.996,52.246,57.129,-8.301,30.273,0
1553806857.478,-42.969,51.758,63.477,-27.832,-12.207,0
1553806857.481,-74.219,54.688,74.219,-56.641,-7.812,0
1553806857.485,-93.750,61.523,78.125,-77.148,69.336,0
1553806857.489,-120.605,64.941,84.961,-110.352,115.234,0
1553806857.493,-152.344,66.895,96.680,-127.930,74.707,0
1553806857.497,-174.805,70.312,104.492,-143.555,18.555,0
1553806857.501,-203.125,75.195,109.375,-172.852,25.391,0
1553806857.505,-220.703,64.941,119.629,-192.871,27.344,0
1553806857.509,-244.141,65.430,147.461,-217.773,65.430,0
1553806857.513,-275.391,74.219,173.828,-240.723,89.355,0
1553806857.517,-275.879,72.266,179.199,-238.281,70.312,0
1553806857.521,-285.156,67.871,168.945,-239.746,46.387,0
1553806857.524,-299.316,73.730,153.320,-256.348,36.621,0
1553806857.528,-279.297,86.914,145.996,-245.605,3.418,0
1553806857.532,-263.672,85.449,168.457,-241.699,83.008,0
1553806857.536,-258.301,75.195,175.781,-232.910,127.441,0
1553806857.540,-250.977,69.336,168.945,-223.633,72.266,0
1553806857.544,-241.211,66.406,179.199,-221.191,74.707,0
1553806857.548,-214.844,52.246,170.410,-192.383,-14.160,0
1553806857.552,-192.383,57.617,155.762,-171.875,-35.645,0
1553806857.556,-177.246,54.199,145.508,-163.574,28.320,0
1553806857.560,-151.855,31.738,143.555,-123.535,58.594,0
1553806857.563,-144.531,37.109,133.301,-111.816,29.297,0
1553806857.567,-125.488,30.273,106.934,-97.168,-10.742,0
1553806857.571,-76.172,26.855,91.797,-48.828,43.945,0
1553806857.575,-57.129,42.969,74.219,-29.297,72.266,0
1553806857.579,-40.527,41.504,57.617,-17.090,32.715,0
1553806857.583,5.371,33.691,49.805,15.625,24.414,0
1553806857.587,23.438,29.297,32.227,33.691,72.266,0
1553806857.591,39.062,24.902,19.531,40.039,81.543,0
1553806857.595,66.895,16.602,5.371,65.918,8.301,0
1553806857.599,75.684,16.113,-20.508,83.984,13.184,0
1553806857.603,84.961,25.879,-17.090,94.238,25.879,0
1553806857.606,105.469,24.414,-12.207,111.816,-22.461,0
1553806857.610,111.816,30.273,-25.391,120.117,-75.684,0
1553806857.614,113.770,39.062,-33.691,121.094,-18.555,0
1553806857.618,122.559,28.320,-35.156,122.070,65.430,0
1553806857.622,125.977,20.996,-29.785,134.277,61.523,0
1553806857.626,128.418,25.391,-30.762,138.184,-3.906,0
1553806857.630,129.395,29.297,-38.574,134.766,63.477,0
1553806857.634,125.000,30.273,-39.062,143.066,111.816,0
1553806857.638,126.465,34.180,-36.621,129.883,88.867,0
1553806857.642,119.629,19.043,-38.086,130.371,87.402,0
1553806857.646,116.699,5.859,-36.621,137.695,62.500,0
1553806857.649,115.723,24.414,-32.227,128.418,66.895,0
1553806857.653,115.723,25.391,-37.109,122.559,32.715,0
1553806857.657,113.770,22.461,-31.738,120.605,31.738,0
1553806857.661,110.352,33.203,-23.926,121.094,70.312,0
1553806857.665,115.723,35.156,-20.996,129.395,48.828,0
1553806857.669,111.816,31.738,-11.230,127.930,22.461,0
1553806857.673,102.539,28.809,-9.766,128.418,21.484,0
1553806857.677,102.051,29.785,-12.695,131.836,17.090,0
1553806857.681,101.562,20.508,-16.602,122.070,53.223,0
1553806857.685,98.633,14.160,-12.207,110.840,61.035,0
1553806857.688,93.750,27.344,-8.789,105.469,-7.812,0
1553806857.692,85.938,38.086,-15.137,103.516,1.465,0
1553806857.696,87.402,35.156,-17.578,95.215,15.625,0
1553806857.700,92.285,27.344,-11.230,91.797,20.020,0
1553806857.704,84.961,26.855,-3.906,98.633,24.414,0
1553806857.708,81.543,28.809,1.465,108.398,48.828,0
1553806857.712,83.496,21.973,0.488,102.539,99.121,0
1553806857.716,80.078,11.230,-1.465,90.332,80.566,0
1553806857.720,83.496,24.414,5.371,99.121,33.691,0
1553806857.724,82.031,41.992,8.301,96.680,13.184,0
1553806857.728,64.453,32.715,3.906,82.520,19.531,0
1553806857.731,54.688,17.578,2.441,77.148,29.297,0
1553806857.735,65.430,26.367,7.812,78.125,28.320,0
1553806857.739,74.219,48.340,9.277,78.125,64.941,0
1553806857.743,65.430,43.945,3.418,76.172,52.246,0
1553806857.747,57.129,35.156,-4.883,79.102,60.059,0
1553806857.751,58.594,35.645,1.465,75.195,2.930,0
1553806857.755,55.664,32.715,10.742,68.359,-41.016,0
1553806857.759,56.152,25.391,12.207,69.336,43.945,0
1553806857.763,59.082,23.438,17.090,62.988,21.973,0
1553806857.767,60.547,32.715,18.066,64.941,-9.766,0
1553806857.771,60.059,36.621,11.719,60.547,68.848,0
1553806857.774,33.203,42.480,12.207,42.480,98.633,0
1553806857.778,30.273,47.852,10.742,48.828,27.344,0
1553806857.782,40.039,39.062,-3.906,47.363,23.438,0
1553806857.786,38.086,30.762,-4.883,35.156,83.008,0
1553806857.790,32.715,34.668,-0.488,31.250,8.789,0
1553806857.794,29.297,39.551,0.977,33.203,35.156,0
1553806857.798,34.668,43.457,18.555,47.852,31.250,0
1553806857.802,36.133,41.016,18.066,43.457,28.809,0
1553806857.806,37.109,42.969,15.137,32.715,16.113,0
1553806857.810,41.504,48.340,21.973,40.527,-11.230,0
1553806857.813,37.598,37.598,19.531,33.691,41.992,0
1553806857.817,39.062,24.902,18.066,29.297,-14.160,0
1553806857.821,41.992,27.832,16.602,40.039,6.836,0
1553806857.825,29.297,32.715,13.184,41.992,66.406,0
1553806857.829,23.438,33.691,7.324,33.691,-21.484,0
1553806857.833,21.973,34.668,14.160,29.297,-6.836,0
1553806857.837,13.672,28.320,30.273,35.645,31.738,0
1553806857.841,3.418,24.414,33.203,32.715,47.363,0
1553806857.845,-0.488,28.320,31.738,24.414,46.387,0
1553806857.849,9.277,32.227,33.203,28.809,25.879,0
1553806857.853,9.277,32.227,28.809,28.320,73.242,0
1553806857.856,3.906,31.250,17.578,14.160,55.664,0
1553806857.860,5.859,24.414,20.508,11.230,68.848,0
1553806857.864,5.859,22.949,30.762,10.254,94.238,0
1553806857.868,7.812,29.297,34.668,13.672,63.477,0
1553806857.872,11.719,35.156,36.621,21.973,46.387,0
1553806857.876,29.297,37.109,28.320,36.621,49.316,0
1553806857.880,13.184,42.480,21.484,19.043,29.785,0
1553806857.884,-6.348,32.227,22.461,2.441,60.059,0
1553806857.888,2.441,19.531,20.020,15.625,53.223,0
1553806857.892,-1.953,23.438,20.020,19.531,39.551,0
1553806857.896,6.836,34.668,22.461,15.625,41.992,0
1553806857.899,11.230,36.133,21.973,12.695,58.594,0
1553806857.903,11.719,27.832,15.137,20.508,54.199,0
1553806857.907,4.883,31.738,12.695,21.484,74.219,0
1553806857.911,-0.488,44.434,22.461,16.602,53.223,0
1553806857.915,10.254,45.410,26.855,19.531,11.230,0
1553806857.919,10.742,37.598,30.762,11.719,0.488,0
1553806857.923,9.277,46.875,30.762,10.254,59.082,0
1553806857.927,4.395,49.805,20.996,30.762,86.914,0
1553806857.931,-1.465,35.156,14.648,23.926,46.387,0
1553806857.935,9.277,34.180,11.719,15.137,54.688,0
1553806857.938,15.625,41.992,10.742,20.996,60.547,0
1553806857.942,23.438,41.992,21.484,23.926,56.152,0
1553806857.946,19.531,49.316,29.785,24.414,38.574,0
1553806857.950,12.207,51.270,20.508,24.414,40.527,0
1553806857.954,19.043,41.016,14.160,30.762,56.152,0
1553806857.958,11.230,37.598,19.531,33.203,34.180,0
1553806857.962,20.508,36.133,22.949,35.645,39.062,0
1553806857.966,30.762,30.762,32.227,25.879,31.738,0
1553806857.970,21.484,41.016,22.949,10.254,37.109,0
1553806857.974,13.184,56.641,10.254,15.625,16.113,0
1553806857.978,10.254,49.316,24.414,19.531,59.570,0
1553806857.981,13.672,41.504,25.879,21.484,26.367,0
1553806857.985,4.395,45.410,23.926,24.902,-1.953,0
1553806857.989,15.137,40.527,21.973,19.043,42.480,0
1553806857.993,27.344,31.738,17.578,20.508,18.555,0
1553806857.997,-3.906,46.875,19.531,19.043,23.926,0
1553806858.001,-12.207,52.734,25.391,15.137,60.547,0
1553806858.005,0.000,44.922,40.039,19.043,83.008,0
1553806858.009,6.348,37.109,33.203,24.902,41.016,0
1553806858.013,6.348,17.578,26.855,25.391,-15.625,0
1553806858.017,4.883,6.348,35.156,23.926,31.250,0
1553806858.021,13.184,26.367,39.062,14.648,43.457,0
1553806858.024,13.672,44.922,36.621,10.254,17.090,0
1553806858.028,5.859,45.410,32.715,10.254,17.578,0
1553806858.032,16.602,21.973,33.203,11.230,23.438,0
1553806858.036,19.531,4.395,37.598,17.090,37.598,0
1553806858.040,-3.418,30.273,27.344,28.809,44.434,0
1553806858.044,6.348,56.641,16.602,39.551,-4.395,0
1553806858.048,-1.953,59.082,20.508,18.066,-38.574,0
1553806858.052,-30.762,49.805,31.738,-10.254,5.371,0
1553806858.056,-20.996,54.199,39.062,4.395,18.066,0
1553806858.060,-20.508,60.059,36.133,1.465,6.348,0
1553806858.063,-20.020,48.340,21.484,0.977,32.715,0
1553806858.067,-2.930,36.621,16.602,17.578,15.137,0
1553806858.071,7.812,37.109,22.461,9.277,8.789,0
1553806858.075,18.066,40.527,24.414,5.371,50.293,0
1553806858.079,10.742,45.898,19.043,11.719,78.613,0
1553806858.083,-1.953,44.922,14.160,16.113,39.551,0
1553806858.087,-3.906,32.715,14.160,22.461,47.852,0
1553806858.091,-0.488,39.062,19.531,15.625,48.340,0
1553806858.095,5.859,47.852,22.461,12.207,47.363,0
1553806858.099,7.324,38.086,24.414,24.902,36.133,0
1553806858.103,1.465,45.410,19.531,20.508,54.199,0
1553806858.106,4.883,51.758,13.184,19.043,92.773,0
1553806858.110,8.789,46.875,22.461,18.066,39.551,0
1553806858.114,7.324,40.039,28.320,11.230,55.664,0
1553806858.118,13.672,29.785,28.809,15.625,77.637,0
1553806858.122,15.137,37.109,26.855,15.137,-15.625,0
1553806858.126,3.418,44.434,25.391,20.996,-33.691,0
1553806858.130,8.789,43.457,22.461,29.297,79.102,0
1553806858.134,12.695,30.273,24.902,23.438,47.363,0
1553806858.138,1.465,24.414,31.250,16.602,-3.418,0
1553806858.142,9.766,45.898,15.137,25.391,47.852,0
1553806858.146,16.113,48.828,16.602,31.250,96.680,0
1553806858.149,2.441,37.109,35.156,24.902,23.438,0
1553806858.153,-3.418,38.574,30.762,26.367,-30.273,0
1553806858.157,12.207,43.457,25.879,26.367,-26.855,0
1553806858.161,25.879,41.992,17.090,23.926,-0.488,0
1553806858.165,21.973,35.645,17.090,18.066,86.426,0
1553806858.169,19.531,32.715,29.297,14.160,39.551,0
1553806858.173,26.367,36.133,28.809,23.438,-21.973,0
1553806858.177,21.973,41.016,20.020,19.043,5.371,0
1553806858.181,18.066,41.504,14.648,13.184,48.340,0
1553806858.185,10.742,28.809,22.461,21.973,48.340,0
1553806858.188,-0.488,33.203,28.320,25.391,44.434,0
1553806858.192,12.207,44.434,23.438,15.137,57.617,0
1553806858.196,19.043,35.156,25.879,12.695,60.059,0
1553806858.200,6.348,43.945,27.344,10.254,-1.465,0
1553806858.204,10.742,49.805,27.832,10.742,3.418,0
1553806858.208,20.020,33.691,31.738,20.020,50.781,0
1553806858.212,6.836,29.297,29.297,12.207,38.574,0
1553806858.216,1.953,40.039,30.762,8.789,52.246,0
1553806858.220,12.207,45.410,31.738,18.066,65.430,0
1553806858.224,4.883,30.273,29.297,20.996,46.387,0
1553806858.228,10.254,23.438,33.691,22.949,34.180,0
1553806858.231,22.949,34.668,34.180,23.926,17.578,0
1553806858.235,12.695,44.434,36.621,20.508,56.641,0
1553806858.239,11.230,44.922,34.180,20.508,19.531,0
1553806858.243,13.672,36.621,26.855,16.602,0.977,0
1553806858.247,15.137,38.574,24.902,12.207,8.789,0
1553806858.251,6.836,42.969,23.438,11.719,-23.926,0
1553806858.255,-3.906,38.086,30.762,13.184,4.883,0
1553806858.259,13.184,36.133,36.133,20.508,26.367,0
1553806858.263,25.879,42.969,36.133,24.902,21.973,0
1553806858.267,18.555,47.852,33.691,31.250,-1.953,0
1553806858.271,13.184,47.852,27.344,32.227,7.324,0
1553806858.274,11.230,46.875,24.902,27.344,19.531,0
1553806858.278,16.602,35.156,18.066,28.809,32.715,0
1553806858.282,19.043,27.832,9.277,18.555,21.484,0
1553806858.286,16.602,42.969,22.461,23.438,51.270,0
1553806858.290,4.395,41.992,36.133,29.297,68.359,0
1553806858.294,0.977,38.086,34.180,22.461,34.180,0
1553806858.298,29.297,45.410,33.203,27.344,77.148,0
1553806858.302,48.340,46.387,31.738,55.176,59.082,0
1553806858.306,12.207,36.621,35.156,37.109,28.809,0
1553806858.310,-19.531,33.203,43.945,6.348,43.945,0
1553806858.313,-16.602,30.273,44.922,7.324,71.777,0
1553806858.317,-19.043,23.438,44.434,5.859,62.500,0
1553806858.321,-17.578,16.113,41.504,7.324,34.668,0
1553806858.325,-6.836,12.207,42.969,4.395,50.293,0
1553806858.329,-14.648,6.348,48.828,-3.418,79.590,0
1553806858.333,-21.973,11.230,46.387,2.441,133.301,0
1553806858.337,-12.207,29.297,44.434,17.090,89.844,0
1553806858.341,-16.602,28.809,43.945,3.418,83.008,0
1553806858.345,-25.879,19.531,39.551,-9.766,90.332,0
1553806858.349,-13.672,28.809,32.227,7.324,11.719,0
1553806858.353,-22.949,35.156,38.086,11.230,41.016,0
1553806858.356,-28.809,26.855,45.410,8.789,84.473,0
1553806858.360,-8.789,30.273,32.227,6.348,71.289,0
1553806858.364,-6.836,31.738,23.438,3.418,66.406,0
1553806858.368,-6.348,34.668,30.273,7.324,28.809,0
1553806858.372,-9.277,36.621,33.203,6.836,87.402,0
1553806858.376,-5.859,36.133,35.645,5.859,147.461,0
1553806858.380,-4.395,22.949,31.738,5.371,44.922,0
1553806858.384,-9.277,16.602,29.785,10.742,-19.531,0
1553806858.388,0.977,44.434,33.691,11.719,43.457,0
1553806858.392,4.395,54.688,30.762,9.766,55.664,0
1553806858.396,-3.418,40.039,36.621,17.090,-27.832,0
1553806858.399,-8.789,28.809,41.504,19.043,-57.129,0
1553806858.403,-8.301,30.273,36.621,21.973,-3.418,0
1553806858.407,-13.184,32.227,30.762,10.742,-19.531,0
1553806858.411,-7.812,32.227,31.738,9.766,-8.789,0
1553806858.415,-2.441,37.598,31.738,12.695,21.484,0
1553806858.419,-4.883,47.852,28.320,14.648,50.781,0
1553806858.423,-3.906,37.598,31.250,16.602,83.496,0
1553806858.427,-6.836,27.832,29.297,3.906,41.504,0
1553806858.431,-0.488,32.227,33.691,1.953,60.059,0
1553806858.435,16.113,26.855,34.180,13.672,91.797,0
1553806858.438,20.996,27.344,20.996,22.461,28.320,0
1553806858.442,16.113,36.621,22.949,15.625,6.836,0
1553806858.446,0.000,42.969,34.668,14.160,57.617,0
1553806858.450,-5.859,47.852,33.203,27.344,56.641,0
1553806858.454,-6.348,44.922,25.391,23.438,36.133,0
1553806858.458,-0.488,23.438,26.367,14.160,49.316,0
1553806858.462,10.742,17.090,27.832,20.020,17.578,0
1553806858.466,9.766,41.992,32.715,28.320,26.855,0
1553806858.470,-3.418,45.410,36.621,20.020,39.062,0
1553806858.474,0.000,43.457,33.691,17.578,83.008,0
1553806858.478,7.324,35.156,30.273,23.438,134.766,0
1553806858.481,0.977,22.949,27.344,19.531,34.180,0
1553806858.485,-5.371,18.066,30.762,26.855,-21.484,0
1553806858.489,-5.859,27.344,26.367,26.855,33.691,0
1553806858.493,-2.441,38.574,18.555,22.461,62.988,0
1553806858.497,-8.301,30.762,25.391,20.996,6.836,0
1553806858.501,-9.277,23.926,32.227,19.043,-29.297,0
1553806858.505,-3.418,24.902,30.273,19.043,61.035,0
1553806858.509,3.906,19.043,31.738,25.391,23.926,0
1553806858.513,23.926,25.879,33.203,40.527,-10.254,0
1553806858.517,10.742,46.875,30.273,17.578,57.617,0
1553806858.521,-16.602,53.711,31.250,-12.695,49.316,0
1553806858.524,-7.812,44.434,31.738,-4.883,12.695,0
1553806858.528,-8.301,35.156,28.320,0.000,35.156,0
1553806858.532,-12.695,39.062,26.367,1.953,61.523,0
1553806858.536,0.488,33.203,22.949,3.906,-5.859,0
1553806858.540,3.906,20.020,23.926,7.324,2.930,0
1553806858.544,2.930,28.320,21.973,16.602,27.832,0
1553806858.548,18.066,35.156,16.113,21.973,56.641,0
1553806858.552,9.766,33.691,17.578,19.043,61.035,0
1553806858.556,11.719,43.945,33.691,17.090,47.363,0
1553806858.560,25.879,53.223,33.203,31.250,24.902,0
1553806858.563,22.461,45.410,28.809,39.062,63.477,0
1553806858.567,17.090,35.645,34.180,19.043,63.477,0
1553806858.571,16.113,44.922,26.855,8.789,4.883,0
1553806858.575,22.461,52.734,25.879,20.996,53.223,0
1553806858.579,25.879,42.969,19.531,29.297,16.602,0
1553806858.583,21.484,38.574,10.254,26.367,53.711,0
1553806858.587,6.348,34.668,24.902,14.160,97.656,0
1553806858.591,15.137,26.367,28.809,18.066,13.184,0
1553806858.595,26.367,30.762,33.691,35.156,34.180,0
1553806858.599,11.230,44.434,38.086,33.203,1.953,0
1553806858.603,13.672,53.711,22.949,27.832,-31.250,0
1553806858.606,27.344,47.852,20.020,31.738,7.812,0
1553806858.610,24.902,41.992,32.227,23.926,96.191,0
1553806858.614,12.207,39.062,31.738,19.531,75.195,0
1553806858.618,-0.977,32.715,22.461,24.414,25.391,0
1553806858.622,6.836,33.203,25.879,23.438,65.918,0
1553806858.626,12.207,38.574,24.414,20.508,42.969,0
1553806858.630,7.324,41.504,23.438,20.996,37.598,0
1553806858.634,-10.742,40.527,31.738,22.461,86.914,0
1553806858.638,-5.859,38.574,33.203,18.555,50.293,0
1553806858.642,9.277,42.480,33.691,19.531,33.203,0
1553806858.646,-7.812,38.574,29.297,23.926,2.441,0
1553806858.649,-6.836,38.574,22.949,29.297,-4.883,0
1553806858.653,10.742,45.410,26.367,20.020,56.152,0
1553806858.657,-0.488,28.809,35.645,13.184,30.762,0
1553806858.661,-5.859,26.367,27.344,6.836,18.066,0
1553806858.665,11.719,41.016,24.414,4.883,33.691,0
1553806858.669,6.348,41.016,32.227,11.230,36.621,0
1553806858.673,-10.742,48.828,28.320,3.418,43.457,0
1553806858.677,-8.789,44.434,29.297,9.766,104.492,0
1553806858.681,-6.348,38.574,32.227,18.066,42.480,0
1553806858.685,-4.883,52.734,22.461,5.371,55.664,0
1553806858.688,-4.883,45.898,20.996,0.488,84.473,0
1553806858.692,-7.324,35.156,20.020,6.836,20.508,0
1553806858.696,1.465,38.574,20.508,6.836,39.551,0
1553806858.700,-2.930,41.992,28.320,6.348,30.273,0
1553806858.704,-7.812,36.621,28.809,12.207,58.105,0
1553806858.708,-2.930,30.273,21.973,0.977,86.426,0
1553806858.712,-6.836,38.086,21.484,0.000,11.719,0
1553806858.716,-8.301,37.109,38.086,9.277,0.000,0
1553806858.720,5.371,35.156,39.062,12.207,90.820,0
1553806858.724,24.902,42.480,22.461,20.020,25.879,0
1553806858.728,9.277,37.109,26.367,20.508,20.508,0
1553806858.731,-10.742,30.762,34.180,20.508,113.770,0
1553806858.735,0.977,40.527,32.715,24.902,112.305,0
1553806858.739,1.465,41.992,29.297,23.926,61.523,0
1553806858.743,-5.371,35.645,28.320,18.066,-16.602,0
1553806858.747,-3.418,33.203,36.133,16.602,-30.762,0
1553806858.751,0.488,34.180,33.203,20.508,19.043,0
1553806858.755,-2.441,36.621,29.785,19.531,34.668,0
1553806858.759,1.953,34.180,32.715,17.578,34.180,0
1553806858.763,8.301,29.785,30.273,15.137,68.848,0
1553806858.767,6.836,34.180,24.414,9.766,78.613,0
1553806858.771,4.883,36.133,20.020,33.203,61.523,0
1553806858.774,-2.930,34.668,26.367,48.340,67.383,0
1553806858.778,-3.906,39.062,35.645,18.555,29.297,0
1553806858.782,10.254,44.434,30.762,15.137,60.547,0
1553806858.786,2.441,34.180,25.879,26.855,19.043,0
1553806858.790,-9.766,23.926,34.180,12.695,3.418,0
1553806858.794,-3.906,32.715,34.668,11.719,31.738,0
1553806858.798,11.230,34.668,31.738,46.875,28.809,0
1553806858.802,34.180,40.527,25.391,52.246,79.102,0
1553806858.806,14.648,52.734,16.113,11.230,82.520,0
1553806858.810,0.977,46.387,14.648,-3.418,24.414,0
1553806858.813,5.371,35.156,19.043,4.395,24.902,0
1553806858.817,10.742,43.945,12.207,9.277,39.551,0
1553806858.821,23.438,48.828,11.230,22.949,-34.668,0
1553806858.825,27.832,47.363,14.160,27.832,-31.738,0
1553806858.829,33.691,53.711,3.906,16.602,24.414,0
1553806858.833,15.625,46.875,-1.465,14.160,74.219,0
1553806858.837,-0.488,39.551,8.301,17.578,93.262,0
1553806858.841,2.930,32.227,20.996,9.277,67.871,0
1553806858.845,12.207,26.367,20.996,18.555,42.480,0
1553806858.849,14.648,36.621,22.461,18.555,57.129,0
1553806858.853,14.160,43.945,22.949,6.836,61.035,0
1553806858.856,13.184,47.363,18.555,8.301,25.879,0
1553806858.860,6.836,40.527,9.766,1.465,32.227,0
1553806858.864,8.301,37.598,12.207,7.812,7.324,0
1553806858.868,18.066,35.156,22.949,26.855,15.625,0
1553806858.872,27.344,26.855,23.438,31.738,69.824,0
1553806858.876,16.602,29.297,20.508,22.461,63.965,0
1553806858.880,-6.348,36.621,24.902,17.090,47.363,0
1553806858.884,-2.930,41.992,18.066,17.090,33.691,0
1553806858.888,3.418,46.875,13.184,27.344,37.598,0
1553806858.892,0.000,41.992,24.902,17.090,-30.273,0
1553806858.896,5.371,40.527,20.508,-1.953,-45.410,0
1553806858.899,16.113,45.410,16.113,-3.906,24.414,0
1553806858.903,0.000,39.551,21.973,3.906,-7.324,0
1553806858.907,-16.602,32.227,25.879,9.766,12.695,0
1553806858.911,-9.766,35.645,16.602,12.695,82.520,0
1553806858.915,-8.789,38.086,9.766,18.555,50.781,0
1553806858.919,0.000,45.898,12.695,22.949,33.203,0
1553806858.923,3.906,46.875,24.902,20.508,37.598,0
1553806858.927,10.254,38.574,28.809,18.066,41.016,0
1553806858.931,16.113,38.086,20.996,20.508,51.270,0
1553806858.935,7.324,29.297,23.926,12.207,43.457,0
1553806858.938,1.465,33.691,20.996,13.672,10.254,0
1553806858.942,7.324,41.992,24.902,18.555,35.156,0
1553806858.946,21.973,37.598,22.461,7.324,81.055,0
1553806858.950,27.344,42.969,16.602,19.043,42.480,0
1553806858.954,8.301,45.410,22.949,29.297,37.598,0
1553806858.958,-13.184,30.762,21.973,19.043,37.598,0
1553806858.962,-5.859,30.273,19.043,19.531,38.574,0
1553806858.966,8.301,41.992,22.949,21.973,44.922,0
1553806858.970,9.277,38.086,24.902,24.902,49.316,0
1553806858.974,1.953,41.504,21.973,24.414,-10.254,0
1553806858.978,7.324,44.434,23.438,28.809,17.090,0
1553806858.981,3.906,36.621,31.738,26.855,47.852,0
1553806858.985,-9.277,33.203,29.785,24.414,4.883,0
1553806858.989,-9.277,38.574,26.367,25.391,83.008,0
1553806858.993,-2.441,42.969,25.391,9.277,72.266,0
1553806858.997,-0.977,31.738,21.973,1.465,-33.203,0
1553806859.001,0.488,24.902,20.508,0.488,12.207,0
1553806859.005,-1.953,25.391,20.508,3.418,90.820,0
1553806859.009,-6.836,26.855,22.949,6.836,20.996,0
1553806859.013,0.000,39.551,17.090,0.488,11.719,0
1553806859.017,1.953,38.574,23.926,1.465,19.043,0
1553806859.021,-10.254,36.621,38.086,8.789,37.109,0
1553806859.024,-14.160,42.969,37.109,19.043,85.938,0
1553806859.028,-4.395,44.434,25.391,25.879,54.199,0
1553806859.032,-1.465,40.527,19.043,16.602,83.008,0
1553806859.036,-3.906,34.180,35.645,15.625,85.938,0
1553806859.040,12.207,34.668,35.156,19.043,17.578,0
1553806859.044,8.301,36.621,25.879,16.113,15.625,0
1553806859.048,-6.348,43.457,35.156,20.020,2.930,0
1553806859.052,-10.254,44.434,34.180,25.879,-10.254,0
1553806859.056,-19.531,35.156,23.926,13.184,23.438,0
1553806859.060,-2.441,34.668,25.391,2.441,30.762,0
1553806859.063,12.207,40.527,29.785,10.742,76.660,0
1553806859.067,-3.906,41.992,29.297,24.414,20.996,0
1553806859.071,-4.395,41.016,28.320,18.555,15.137,0
1553806859.075,8.301,43.457,24.902,20.508,67.871,0
1553806859.079,0.977,29.785,19.531,30.273,67.871,0
1553806859.083,1.953,27.832,24.414,12.207,69.824,0
1553806859.087,0.977,33.203,22.949,8.301,70.801,0
1553806859.091,1.465,29.785,19.043,10.742,47.363,0
1553806859.095,4.883,44.922,34.180,7.812,0.488,0
1553806859.099,-9.766,38.086,36.621,4.883,39.062,0
1553806859.103,-18.555,22.461,31.250,11.719,67.871,0
1553806859.106,-16.602,35.156,27.832,12.207,40.039,0
1553806859.110,13.184,48.340,15.137,3.906,23.438,0
1553806859.114,39.551,41.992,11.719,33.691,8.301,0
1553806859.118,-3.418,26.855,30.273,36.133,54.688,0
1553806859.122,-46.387,29.785,46.387,-0.488,56.641,0
1553806859.126,-36.621,38.086,46.387,-14.160,55.664,0
1553806859.130,-17.578,34.180,42.480,-7.324,88.379,0
1553806859.134,-14.648,31.250,44.434,2.930,114.258,0
1553806859.138,-19.043,21.973,40.039,1.465,106.445,0
1553806859.142,-10.254,21.484,34.668,3.906,66.895,0
1553806859.146,-3.906,37.109,34.668,17.578,27.344,0
1553806859.149,-14.648,41.504,33.203,16.602,9.766,0
1553806859.153,-11.230,33.691,39.062,19.531,28.809,0
1553806859.157,5.371,34.180,42.480,19.531,4.883,0
1553806859.161,0.977,41.016,38.086,20.508,-31.250,0
1553806859.165,-5.371,43.945,30.273,26.855,0.488,0
1553806859.169,0.488,35.645,27.832,18.066,28.809,0
1553806859.173,3.418,32.227,32.715,0.000,41.504,0
1553806859.177,0.977,36.133,34.180,2.930,54.688,0
1553806859.181,5.371,36.133,36.621,10.742,109.375,0
1553806859.185,9.277,41.992,33.691,10.254,101.562,0
1553806859.188,15.625,39.551,28.320,11.230,18.555,0
1553806859.192,7.324,29.785,33.203,12.207,43.945,0
1553806859.196,3.906,43.457,38.086,20.996,23.438,0
1553806859.200,19.043,48.340,23.926,18.555,24.414,0
1553806859.204,8.789,30.273,23.926,11.719,-10.742,0
1553806859.208,-3.906,22.949,36.133,21.484,-32.227,0
1553806859.212,-5.859,28.320,31.250,20.508,35.645,0
1553806859.216,-9.277,38.086,28.809,12.207,64.941,0
1553806859.220,-7.812,24.902,36.621,22.461,20.020,0
1553806859.224,-7.324,18.066,37.109,37.109,33.691,0
1553806859.228,-3.418,28.809,34.668,21.973,95.703,0
1553806859.231,0.977,32.715,29.297,7.812,104.004,0
1553806859.235,3.418,37.109,12.207,11.719,12.695,0
1553806859.239,0.488,24.902,18.066,4.395,-20.020,0
1553806859.243,-7.324,13.672,28.809,6.836,-12.695,0
1553806859.247,-4.883,24.414,24.902,20.996,-27.832,0
1553806859.251,0.000,36.621,33.691,25.879,-7.324,0
1553806859.255,-1.465,41.992,36.133,15.137,37.598,0
1553806859.259,1.953,41.504,33.691,11.719,26.855,0
1553806859.263,1.465,35.645,35.645,23.926,-15.625,0
1553806859.267,7.324,28.320,30.273,27.832,51.758,0
1553806859.271,17.578,32.227,24.902,13.672,86.426,0
1553806859.274,4.395,38.086,22.949,10.254,38.086,0
1553806859.278,-7.812,29.785,16.602,12.695,44.922,0
1553806859.282,2.441,24.414,22.461,28.809,16.113,0
1553806859.286,16.602,38.574,27.832,34.668,18.066,0
1553806859.290,12.207,36.133,27.832,23.438,21.484,0
1553806859.294,2.441,31.738,26.855,30.762,4.395,0
1553806859.298,12.695,33.203,22.461,33.203,16.602,0
1553806859.302,6.348,26.855,27.344,19.531,58.594,0
1553806859.306,-12.207,29.785,22.949,14.160,76.172,0
1553806859.310,-1.953,43.457,15.137,20.508,24.414,0
1553806859.313,19.043,49.805,18.066,31.250,55.664,0
1553806859.317,7.812,46.387,25.391,18.555,90.820,0
1553806859.321,-13.672,33.203,33.691,-3.418,78.613,0
1553806859.325,-3.418,26.367,34.180,10.254,31.250,0
1553806859.329,5.371,34.180,28.320,22.949,-57.617,0
1553806859.333,-2.930,35.156,26.855,22.461,-43.945,0
1553806859.337,-2.930,38.574,31.738,25.391,10.742,0
1553806859.341,-9.277,33.691,26.855,24.414,11.719,0
1553806859.345,-8.789,30.762,20.996,25.879,25.391,0
1553806859.349,-6.348,34.668,22.949,28.320,72.266,0
1553806859.353,-10.742,37.598,25.879,24.902,85.449,0
1553806859.356,-1.953,45.410,25.391,22.461,42.969,0
1553806859.360,5.859,45.410,23.438,21.484,7.324,0
1553806859.364,-1.953,45.410,25.879,12.695,54.688,0
1553806859.368,-10.742,45.410,28.809,16.113,39.062,0
1553806859.372,5.371,43.457,29.297,26.367,25.879,0
1553806859.376,18.555,30.762,27.344,24.902,35.156,0
1553806859.380,19.043,18.555,33.203,21.973,44.922,0
1553806859.384,10.742,34.668,35.156,15.137,52.734,0
1553806859.388,3.418,40.527,33.203,17.090,50.293,0
1553806859.392,11.719,37.598,25.391,17.090,38.086,0
1553806859.396,22.461,38.574,27.344,17.578,0.977,0
1553806859.399,22.949,39.551,28.809,23.926,46.875,0
1553806859.403,18.066,45.898,20.020,18.555,65.918,0
1553806859.407,14.160,47.852,34.180,19.531,66.895,0
1553806859.411,9.277,46.387,39.551,20.508,46.875,0
1553806859.415,13.184,40.527,35.156,20.020,5.371,0
1553806859.419,12.695,37.598,27.344,33.691,46.875,0
1553806859.423,14.648,38.574,22.949,35.645,86.426,0
1553806859.427,23.438,29.297,25.879,19.043,26.367,0
1553806859.431,10.742,33.691,24.902,20.508,-11.230,0
1553806859.435,-3.906,40.039,21.973,14.160,15.625,0
1553806859.438,0.977,45.410,17.090,6.836,-10.254,0
1553806859.442,19.043,45.410,19.531,19.043,-33.691,0
1553806859.446,19.531,30.273,20.996,25.391,-28.320,0
1553806859.450,6.348,35.645,23.926,27.832,14.160,0
1553806859.454,-4.883,41.504,34.180,22.461,53.711,0
1553806859.458,-10.254,40.527,33.691,21.484,62.500,0
1553806859.462,-2.441,37.598,25.391,23.926,47.852,0
1553806859.466,-2.930,35.645,26.855,12.695,14.160,0
1553806859.470,-12.207,39.062,26.855,-0.488,51.758,0
1553806859.474,-11.719,35.156,15.137,0.000,74.707,0
1553806859.478,-2.930,39.551,19.531,6.836,66.406,0
1553806859.481,-7.812,44.922,31.250,11.719,42.480,0
1553806859.485,-11.719,47.363,21.973,16.113,43.457,0
1553806859.489,1.465,41.504,17.090,16.602,47.363,0
1553806859.493,5.371,37.598,32.715,16.602,11.719,0
1553806859.497,-0.488,47.852,35.645,13.184,-10.742,0
1553806859.501,13.184,34.180,20.996,15.625,58.594,0
1553806859.505,15.137,16.113,17.578,15.137,102.051,0
1553806859.509,2.930,27.344,30.273,10.254,84.473,0
1553806859.513,3.906,42.969,31.250,14.648,75.684,0
1553806859.517,0.000,46.875,20.020,11.230,38.574,0
1553806859.521,-3.418,46.387,22.461,15.137,15.625,0
1553806859.524,-4.883,44.922,25.391,21.973,12.207,0
1553806859.528,-2.930,33.691,27.832,22.949,11.719,0
1553806859.532,15.137,19.531,31.250,41.504,19.043,0
1553806859.536,34.668,23.926,22.461,49.805,14.160,0
1553806859.540,3.418,39.062,20.508,14.648,3.418,0
1553806859.544,-16.602,52.734,26.855,-8.789,43.945,0
1553806859.548,-3.906,54.199,24.414,-2.930,128.418,0
1553806859.552,4.883,50.781,19.531,14.160,97.656,0
1553806859.556,9.277,51.758,18.555,22.949,52.734,0
1553806859.560,1.465,46.387,20.996,10.742,120.605,0
1553806859.563,12.207,42.969,16.113,13.184,96.680,0
1553806859.567,14.160,38.086,14.160,30.762,26.855,0
1553806859.571,11.719,34.180,16.602,27.832,-4.395,0
1553806859.575,21.973,38.086,16.602,21.973,5.859,0
1553806859.579,16.113,43.945,15.625,34.668,34.180,0
1553806859.583,6.836,35.156,18.555,31.738,32.227,0
1553806859.587,9.277,31.250,23.926,17.578,54.199,0
1553806859.591,9.277,43.457,20.020,14.648,43.457,0
1553806859.595,10.742,44.434,16.113,13.672,13.672,0
1553806859.599,4.883,35.645,20.508,8.301,46.875,0
1553806859.603,1.465,36.133,27.832,11.230,90.332,0
1553806859.606,-8.789,34.668,24.902,5.859,78.125,0
1553806859.610,-24.414,26.367,19.043,4.883,8.789,0
1553806859.614,-4.883,37.109,26.855,9.766,-30.762,0
1553806859.618,-3.906,46.387,33.203,11.719,84.473,0
1553806859.622,-21.484,36.621,29.297,11.230,90.820,0
1553806859.626,-14.648,30.762,26.367,13.672,31.738,0
1553806859.630,-8.301,27.344,26.855,14.648,100.586,0
1553806859.634,-5.371,20.508,24.414,13.184,75.195,0
1553806859.638,1.953,31.738,23.926,20.020,41.016,0
1553806859.642,-13.672,36.133,31.250,17.090,46.387,0
1553806859.646,-12.695,41.016,34.180,8.789,51.758,0
1553806859.649,1.953,42.969,33.691,10.742,70.801,0
1553806859.653,-1.953,34.668,28.320,23.926,-15.625,0
1553806859.657,-4.883,37.598,14.648,28.320,-19.531,0
1553806859.661,3.906,37.109,15.137,16.113,21.973,0
1553806859.665,12.207,37.598,27.832,13.672,45.410,0
1553806859.669,9.277,47.852,32.715,20.996,49.805,0
1553806859.673,9.766,44.434,26.367,11.719,17.578,0
1553806859.677,8.301,33.203,22.461,18.555,63.965,0
1553806859.681,8.789,44.434,24.902,26.367,71.289,0
1553806859.685,12.695,51.758,20.508,15.625,55.664,0
1553806859.688,9.277,47.852,19.043,25.879,69.824,0
1553806859.692,15.137,44.434,21.973,28.320,29.297,0
1553806859.696,10.742,38.574,23.438,26.367,24.902,0
1553806859.700,7.812,37.109,20.508,30.273,68.848,0
1553806859.704,21.484,35.645,26.367,29.297,44.434,0
1553806859.708,27.344,44.434,29.785,23.438,7.324,0
1553806859.712,13.184,46.387,29.297,20.508,-12.207,0
1553806859.716,-5.371,41.504,32.227,19.043,41.992,0
1553806859.720,-2.441,43.457,29.297,27.344,119.629,0
1553806859.724,15.137,31.738,17.090,33.203,79.102,0
1553806859.728,7.324,24.902,21.973,-0.488,46.387,0
1553806859.731,-9.766,51.270,27.832,-0.488,78.613,0
1553806859.735,-7.324,52.734,24.414,19.043,66.895,0
1553806859.739,-5.371,37.598,28.320,6.348,73.730,0
1553806859.743,-2.930,35.156,31.250,5.371,103.516,0
1553806859.747,0.488,27.832,30.762,9.277,38.086,0
1553806859.751,10.254,24.902,29.297,6.348,19.043,0
1553806859.755,-1.465,41.016,23.926,5.371,62.988,0
1553806859.759,-10.254,51.270,25.879,6.836,-14.160,0
1553806859.763,-4.395,42.480,30.762,-2.930,-9.766,0
1553806859.767,-6.836,36.133,22.949,-0.488,43.945,0
1553806859.771,-13.184,40.039,29.785,7.812,52.246,0
1553806859.774,-13.672,33.691,42.480,0.977,41.992,0
1553806859.778,-6.348,30.273,36.133,0.977,-7.812,0
1553806859.782,-0.488,25.391,31.738,10.254,33.203,0
1553806859.786,-7.812,30.273,29.297,10.254,70.312,0
1553806859.790,-10.254,44.434,24.414,6.836,30.762,0
1553806859.794,-1.465,37.598,30.762,11.230,23.438,0
1553806859.798,0.000,37.109,36.133,14.648,36.133,0
1553806859.802,4.395,23.926,34.668,17.578,0.977,0
1553806859.806,6.348,20.508,21.484,19.531,8.789,0
1553806859.810,2.930,46.387,16.113,19.043,31.250,0
1553806859.813,-0.977,51.758,34.668,7.324,64.941,0
1553806859.817,-5.859,51.758,42.969,8.789,81.543,0
1553806859.821,-15.137,45.410,29.785,10.742,45.410,0
1553806859.825,-19.531,29.785,26.367,8.301,94.238,0
1553806859.829,-9.277,29.297,32.715,13.184,78.125,0
1553806859.833,-13.672,28.320,38.574,18.066,28.809,0
1553806859.837,-20.996,35.645,29.785,6.348,54.199,0
1553806859.841,-9.277,41.504,13.184,-4.883,61.035,0
1553806859.845,-2.930,42.969,28.320,2.930,50.293,0
1553806859.849,-11.230,48.340,46.875,0.000,19.531,0
1553806859.853,-25.391,45.898,46.387,-7.324,33.691,0
1553806859.856,-22.461,46.387,48.340,-6.836,44.922,0
1553806859.860,-23.926,41.504,46.387,-11.719,45.898,0
1553806859.864,-50.293,37.598,45.898,-24.414,-4.395,0
1553806859.868,-47.363,50.293,56.641,-22.461,10.254,0
1553806859.872,-43.457,59.570,64.941,-31.738,10.742,0
1553806859.876,-90.332,60.547,62.012,-79.590,56.152,0
1553806859.880,-121.582,67.383,81.055,-102.539,118.652,0
1553806859.884,-148.926,70.801,97.168,-128.906,66.895,0
1553806859.888,-185.547,70.801,92.773,-167.969,90.332,0
1553806859.892,-199.219,65.918,106.934,-174.805,92.773,0
1553806859.896,-229.492,60.059,129.395,-196.777,14.160,0
1553806859.899,-258.789,63.477,139.648,-239.258,27.832,0
1553806859.903,-268.555,54.199,142.090,-252.930,107.422,0
1553806859.907,-276.855,52.734,158.203,-261.719,83.008,0
1553806859.911,-270.508,64.941,170.410,-266.113,28.809,0
1553806859.915,-286.133,67.383,158.691,-263.672,17.578,0
1553806859.919,-297.852,75.195,158.691,-259.277,52.734,0
1553806859.923,-278.320,73.730,176.758,-251.953,54.199,0
1553806859.927,-270.020,65.918,184.082,-252.441,45.410,0
1553806859.931,-250.000,57.617,176.270,-227.051,47.852,0
1553806859.935,-229.004,50.293,162.598,-200.684,55.664,0
1553806859.938,-230.957,60.547,150.879,-201.660,31.250,0
1553806859.942,-209.473,66.895,138.672,-180.176,-8.301,0
1553806859.946,-168.945,37.598,145.020,-146.973,-10.254,0
1553806859.950,-184.570,18.066,154.785,-151.367,-5.859,0
1553806859.954,-185.547,22.461,141.113,-136.719,15.137,0
1553806859.958,-144.531,32.227,135.254,-107.910,30.762,0
1553806859.962,-126.953,31.738,135.742,-94.727,0.000,0
1553806859.966,-94.238,23.926,120.605,-57.617,-2.441,0
1553806859.970,-55.664,25.391,98.633,-23.926,23.438,0
1553806859.974,-34.668,20.996,86.426,-15.137,39.551,0
1553806859.978,-14.160,17.090,67.871,2.930,0.000,0
1553806859.981,10.742,26.855,35.645,33.691,19.043,0
1553806859.985,31.738,30.762,20.020,43.945,24.414,0
1553806859.989,48.828,23.438,23.438,65.918,10.254,0
1553806859.993,67.383,22.461,14.160,84.473,64.453,0
1553806859.997,77.637,27.832,4.883,92.773,13.672,0
1553806860.001,93.750,17.090,-4.883,110.352,-39.062,0
1553806860.005,117.676,12.695,-16.602,115.723,3.906,0
1553806860.009,119.629,27.832,-21.973,113.281,56.152,0
1553806860.013,118.652,35.156,-33.691,108.887,40.039,0
1553806860.017,119.629,31.738,-52.246,113.770,9.766,0
1553806860.021,114.258,32.715,-44.434,131.348,35.156,0
1553806860.024,112.305,23.926,-30.273,132.324,32.715,0
1553806860.028,125.000,17.578,-36.133,125.977,17.090,0
1553806860.032,123.047,24.902,-34.668,132.812,-52.734,0
1553806860.036,116.699,26.367,-28.809,139.160,-18.066,0
1553806860.040,131.836,23.438,-34.668,125.488,84.473,0
1553806860.044,130.859,23.926,-40.039,121.094,26.855,0
1553806860.048,120.117,30.762,-47.852,119.141,-20.020,0
1553806860.052,122.559,28.320,-45.898,121.582,5.371,0
1553806860.056,121.582,25.391,-28.809,133.789,-0.977,0
1553806860.060,105.957,27.344,-26.367,120.117,-8.789,0
1553806860.063,98.633,17.578,-31.738,104.492,8.789,0
1553806860.067,102.051,18.555,-31.250,103.027,50.293,0
1553806860.071,112.305,26.367,-25.391,102.051,77.148,0
1553806860.075,112.793,26.855,-24.414,107.422,57.129,0
1553806860.079,92.773,38.574,-25.391,101.562,46.387,0
1553806860.083,84.473,32.715,-28.320,106.934,87.402,0
1553806860.087,86.914,19.531,-29.297,116.699,60.059,0
1553806860.091,87.402,21.973,-20.020,99.609,11.719,0
1553806860.095,83.008,29.785,-19.531,90.820,85.449,0
1553806860.099,75.684,31.738,-12.207,86.426,65.918,0
1553806860.103,81.543,24.902,-0.488,81.055,19.043,0
1553806860.106,90.820,21.973,-3.906,82.520,33.203,0
1553806860.110,83.496,26.855,-9.277,83.496,3.418,0
1553806860.114,69.824,37.109,-12.695,76.172,63.477,0
1553806860.118,63.477,42.969,-16.113,73.242,74.219,0
1553806860.122,67.383,30.273,-5.859,81.543,44.434,0
1553806860.126,62.500,22.461,-0.977,72.266,19.043,0
1553806860.130,63.965,29.785,0.977,54.688,23.438,0
1553806860.134,68.848,35.645,1.465,55.176,60.547,0
1553806860.138,69.824,43.945,-4.395,68.359,62.012,0
1553806860.142,67.383,37.109,-7.812,70.801,52.246,0
1553806860.146,65.430,33.691,-4.883,61.523,76.660,0
1553806860.149,58.594,33.203,4.883,55.664,47.363,0
1553806860.153,47.852,28.809,6.348,62.988,35.156,0
1553806860.157,45.898,42.480,4.395,69.824,54.688,0
1553806860.161,49.316,41.504,3.906,62.500,73.242,0
1553806860.165,52.246,34.668,6.836,60.547,27.832,0
1553806860.169,49.316,40.039,13.184,73.242,13.184,0
1553806860.173,36.621,34.668,8.789,57.617,41.992,0
1553806860.177,35.645,27.832,-3.418,30.273,53.711,0
1553806860.181,49.805,39.062,-4.883,43.945,41.992,0
1553806860.185,42.969,40.039,9.277,48.828,17.578,0
1553806860.188,26.855,34.668,18.066,53.711,15.137,0
1553806860.192,28.809,42.969,13.672,61.035,20.996,0
1553806860.196,36.621,42.969,6.348,60.547,20.020,0
1553806860.200,41.016,38.574,11.719,56.641,30.762,0
1553806860.204,39.551,39.551,23.926,54.199,24.902,0
1553806860.208,27.344,27.344,16.602,49.805,26.367,0
1553806860.212,27.832,21.973,11.719,37.598,42.480,0
1553806860.216,31.738,28.320,15.137,40.527,90.332,0
1553806860.220,10.742,40.527,10.742,42.480,82.031,0
1553806860.224,9.277,49.805,10.742,38.574,77.148,0
1553806860.228,18.555,49.805,20.020,36.133,55.664,0
1553806860.231,22.461,39.062,28.809,42.480,26.367,0
1553806860.235,29.297,29.297,25.879,54.199,67.383,0
1553806860.239,28.809,27.832,23.438,50.293,3.418,0
1553806860.243,4.883,40.039,27.344,27.344,-13.672,0
1553806860.247,-6.348,41.016,26.855,13.672,65.918,0
1553806860.251,5.371,39.551,21.973,19.043,94.727,0
1553806860.255,7.324,41.992,23.438,15.625,48.340,0
1553806860.259,12.207,37.598,27.832,15.625,43.945,0
1553806860.263,14.160,35.156,20.020,16.602,55.176,0
1553806860.267,5.371,41.992,14.160,17.090,55.664,0
1553806860.271,7.324,40.527,17.090,17.090,70.801,0
1553806860.274,8.789,30.273,21.484,17.578,-0.488,0
1553806860.278,-2.441,25.391,29.297,14.648,-21.484,0
1553806860.282,-5.371,28.320,34.180,8.789,17.578,0
1553806860.286,-0.977,36.133,28.809,9.766,1.953,0
1553806860.290,12.695,44.434,20.020,10.742,15.137,0
1553806860.294,20.020,38.086,14.648,15.625,13.672,0
1553806860.298,39.062,23.438,18.066,44.434,64.941,0
1553806860.302,35.156,22.949,25.391,43.457,69.336,0
1553806860.306,-14.160,39.551,33.691,4.395,45.898,0
1553806860.310,-21.973,48.828,37.598,1.953,62.988,0
1553806860.313,4.395,43.945,38.574,19.043,28.809,0
1553806860.317,13.672,39.062,41.504,23.438,7.324,0
1553806860.321,11.719,42.969,38.086,21.484,24.414,0
1553806860.325,12.695,39.551,33.203,12.207,48.340,0
1553806860.329,15.137,32.715,24.902,21.973,37.598,0
1553806860.333,26.855,33.203,24.902,41.016,6.836,0
1553806860.337,32.227,36.621,29.297,34.180,-10.742,0
1553806860.341,29.785,32.715,26.367,25.391,35.156,0
1553806860.345,32.715,26.855,27.832,34.668,65.430,0
1553806860.349,20.996,22.461,31.250,37.109,54.688,0
1553806860.353,15.137,37.109,36.133,37.598,46.387,0
1553806860.356,22.461,53.711,31.738,37.109,70.312,0
1553806860.360,26.855,43.457,17.578,31.738,54.688,0
1553806860.364,28.320,41.992,23.438,38.086,77.637,0
1553806860.368,16.113,41.992,34.180,27.344,77.148,0
1553806860.372,11.230,36.133,28.320,28.320,62.500,0
1553806860.376,19.043,45.410,24.414,43.457,47.363,0
1553806860.380,18.066,44.434,28.809,30.273,53.711,0
1553806860.384,5.371,36.133,35.645,20.996,89.355,0
1553806860.388,18.066,33.203,34.668,28.320,34.180,0
1553806860.392,31.250,25.391,27.344,29.785,20.996,0
1553806860.396,16.113,33.691,21.973,21.484,64.941,0
1553806860.399,10.742,54.688,22.461,20.508,47.852,0
1553806860.403,12.695,50.781,31.250,21.484,26.367,0
1553806860.407,3.418,42.969,35.156,23.926,85.938,0
1553806860.411,5.371,42.969,27.832,24.414,63.965,0
1553806860.415,8.789,41.504,29.785,15.137,10.742,0
1553806860.419,-6.348,39.551,35.645,15.625,4.395,0
1553806860.423,-9.766,37.598,36.621,26.367,21.973,0
1553806860.427,-1.953,44.434,27.832,32.715,80.566,0
1553806860.431,-2.441,39.062,28.809,26.855,92.773,0
1553806860.435,-3.418,25.391,31.738,17.578,18.066,0
1553806860.438,4.395,29.297,26.367,25.391,20.996,0
1553806860.442,-2.930,30.273,32.227,19.043,95.703,0
1553806860.446,-24.414,37.109,32.227,0.977,55.176,0
1553806860.450,-16.113,48.828,26.367,9.766,6.348,0
1553806860.454,-13.184,40.527,32.227,12.695,45.898,0
1553806860.458,-23.438,42.969,34.668,11.230,48.340,0
1553806860.462,-11.719,50.293,27.832,11.230,50.293,0
1553806860.466,-14.160,43.945,36.133,8.789,48.828,0
1553806860.470,-18.066,39.062,39.062,11.230,55.176,0
1553806860.474,-9.277,41.504,29.785,24.902,43.945,0
1553806860.478,-2.930,34.668,21.484,24.902,23.926,0
1553806860.481,0.000,32.715,23.926,9.766,28.809,0
1553806860.485,-4.883,40.527,23.438,10.254,-18.555,0
1553806860.489,8.301,38.086,20.996,13.672,8.301,0
1553806860.493,9.277,34.668,16.602,16.602,69.824,0
1553806860.497,-1.953,16.602,24.414,19.531,58.105,0
1553806860.501,1.953,25.391,33.691,19.043,87.891,0
1553806860.505,8.789,59.570,32.227,15.625,103.516,0
1553806860.509,9.766,62.012,27.344,27.344,54.688,0
1553806860.513,11.230,45.410,24.902,33.203,71.777,0
1553806860.517,20.996,41.016,19.043,27.832,6.348,0
1553806860.521,18.555,37.109,14.648,24.414,-29.297,0
1553806860.524,6.348,22.461,29.297,27.832,39.062,0
1553806860.528,9.277,31.738,39.062,23.926,37.109,0
1553806860.532,16.602,40.527,35.645,25.391,39.062,0
1553806860.536,21.484,42.969,30.273,30.273,20.996,0
1553806860.540,26.855,41.504,25.879,30.273,-54.199,0
1553806860.544,27.344,43.945,18.066,35.156,-36.133,0
1553806860.548,21.973,43.945,22.949,26.855,8.301,0
1553806860.552,23.926,36.621,35.156,31.250,67.871,0
1553806860.556,32.715,43.945,25.879,41.016,109.863,0
1553806860.560,24.902,51.758,13.672,28.809,44.922,0
1553806860.563,19.531,42.969,25.391,25.879,1.465,0
1553806860.567,12.207,34.180,40.527,27.832,6.348,0
1553806860.571,-2.441,40.039,39.062,19.043,-1.953,0
1553806860.575,8.789,40.527,31.250,22.949,0.488,0
1553806860.579,21.973,40.527,29.297,25.391,15.625,0
1553806860.583,26.367,31.738,31.738,31.738,17.578,0
1553806860.587,31.250,24.902,26.367,37.109,-10.254,0
1553806860.591,31.250,37.598,20.508,24.902,58.594,0
1553806860.595,23.438,50.781,13.672,27.344,72.754,0
1553806860.599,9.766,48.828,22.461,20.996,-2.930,0
1553806860.603,1.953,42.480,39.062,16.113,-58.105,0
1553806860.606,-5.371,38.574,36.621,14.160,-32.227,0
1553806860.610,0.000,29.785,40.527,18.555,23.926,0
1553806860.614,21.973,29.785,43.457,48.340,58.105,0
1553806860.618,23.438,45.410,28.809,45.898,82.520,0
1553806860.622,0.977,54.199,22.461,12.695,-4.883,0
1553806860.626,-9.277,49.805,26.855,1.953,61.035,0
1553806860.630,-0.977,49.316,27.832,1.953,130.859,0
1553806860.634,6.836,50.781,20.020,12.207,70.312,0
1553806860.638,2.441,47.363,16.602,4.395,52.246,0
1553806860.642,2.441,49.805,12.695,-9.766,85.938,0
1553806860.646,4.395,37.598,10.254,2.930,33.691,0
1553806860.649,6.836,29.785,20.996,8.301,12.207,0
1553806860.653,-1.953,51.270,29.297,-2.441,52.246,0
1553806860.657,-10.742,49.316,31.250,4.395,53.223,0
1553806860.661,-0.488,38.086,22.461,10.742,51.270,0
1553806860.665,9.277,45.410,16.602,12.207,35.645,0
1553806860.669,18.066,47.852,24.902,19.043,23.926,0
1553806860.673,16.113,47.852,17.578,22.949,8.301,0
1553806860.677,7.324,45.410,15.625,20.020,19.043,0
1553806860.681,2.441,38.086,34.668,11.230,31.738,0
1553806860.685,-6.348,26.855,40.039,6.836,33.691,0
1553806860.688,-3.906,29.297,39.062,13.672,83.496,0
1553806860.692,8.301,40.039,39.551,26.855,16.602,0
1553806860.696,10.742,43.457,29.785,21.973,-33.203,0
1553806860.700,17.578,29.785,33.203,19.043,78.125,0
1553806860.704,20.996,25.879,22.461,20.996,79.590,0
1553806860.708,10.254,52.246,3.418,21.484,2.441,0
1553806860.712,7.324,50.781,25.879,23.926,-9.277,0
1553806860.716,13.184,41.504,41.016,14.648,18.555,0
1553806860.720,2.930,53.223,37.598,18.555,24.902,0
1553806860.724,-0.488,65.918,40.039,31.738,41.992,0
1553806860.728,8.789,62.500,38.574,15.625,15.137,0
1553806860.731,9.277,56.641,35.156,-1.953,-16.113,0
1553806860.735,13.184,56.152,34.180,13.672,31.738,0
1553806860.739,-5.371,58.594,25.879,9.277,69.824,0
1553806860.743,-30.273,62.500,24.414,-23.926,58.594,0
1553806860.747,-26.367,69.336,41.016,-32.715,55.176,0
1553806860.751,-51.758,76.660,47.363,-46.387,63.965,0
1553806860.755,-101.074,74.707,44.434,-67.383,24.414,0
1553806860.759,-111.328,71.289,59.570,-96.191,44.434,0
1553806860.763,-119.629,70.312,77.637,-121.094,34.668,0
1553806860.767,-155.762,71.777,71.777,-144.531,70.312,0
1553806860.771,-187.988,74.707,73.730,-184.570,128.906,0
1553806860.774,-197.754,80.078,98.633,-199.219,107.910,0
1553806860.778,-214.844,73.730,129.395,-201.172,63.477,0
1553806860.782,-248.047,70.801,139.160,-215.332,21.973,0
1553806860.786,-262.695,77.637,134.766,-233.398,37.109,0
1553806860.790,-257.812,67.871,140.625,-239.258,49.316,0
1553806860.794,-253.906,49.805,144.043,-231.934,5.859,0
1553806860.798,-243.164,62.012,147.461,-218.750,59.082,0
1553806860.802,-249.023,73.242,148.438,-215.332,69.824,0
1553806860.806,-258.789,69.824,143.555,-222.168,40.527,0
1553806860.810,-247.559,60.059,150.391,-214.355,25.879,0
1553806860.813,-236.816,40.527,166.992,-193.359,47.852,0
1553806860.817,-210.938,24.414,167.480,-166.504,117.188,0
1553806860.821,-190.918,15.625,163.086,-142.578,85.938,0
1553806860.825,-160.156,2.930,149.414,-108.398,25.879,0
1553806860.829,-125.000,16.113,137.207,-91.797,17.090,0
1553806860.833,-110.352,24.414,127.441,-84.473,-28.809,0
1553806860.837,-73.242,9.277,105.469,-53.223,47.363,0
1553806860.841,-41.992,11.230,80.078,-21.484,59.570,0
1553806860.845,-24.414,21.484,60.547,10.254,24.902,0
1553806860.849,10.254,25.391,41.504,25.391,36.133,0
1553806860.853,25.879,27.344,33.203,21.973,-20.020,0
1553806860.856,33.691,19.043,24.902,39.551,-15.137,0
1553806860.860,61.035,14.648,11.230,63.477,29.297,0
1553806860.864,77.148,20.996,1.953,73.242,36.621,0
1553806860.868,74.219,24.414,-6.836,83.984,11.230,0
1553806860.872,91.309,25.391,-12.207,97.168,41.504,0
1553806860.876,115.723,26.367,-16.113,109.375,37.598,0
1553806860.880,114.258,29.297,-19.531,117.676,60.547,0
1553806860.884,111.328,33.691,-24.902,116.699,83.984,0
1553806860.888,106.445,21.973,-31.250,111.816,69.824,0
1553806860.892,88.867,21.484,-27.344,114.258,48.828,0
1553806860.896,89.844,39.551,-23.438,118.652,73.730,0
1553806860.899,103.027,41.504,-22.461,123.047,54.688,0
1553806860.903,110.352,30.273,-25.391,123.535,19.531,0
1553806860.907,116.211,23.926,-24.902,123.535,2.930,0
1553806860.911,116.211,35.645,-30.762,130.371,-17.578,0
1553806860.915,114.746,36.133,-38.086,130.371,-9.766,0
1553806860.919,111.328,29.785,-18.066,115.234,-3.418,0
1553806860.923,110.840,31.250,-14.648,121.582,28.320,0
1553806860.927,104.492,33.203,-28.809,123.047,59.082,0
1553806860.931,99.609,31.250,-26.855,107.422,30.273,0
1553806860.935,103.027,27.832,-18.066,104.004,85.938,0
1553806860.938,104.492,32.715,-8.789,101.074,100.586,0
1553806860.942,97.656,35.156,-15.625,97.656,70.801,0
1553806860.946,85.938,30.273,-20.996,94.727,27.344,0
1553806860.950,79.102,26.367,-12.695,91.797,19.531,0
1553806860.954,74.219,24.902,-6.348,92.773,58.105,0
1553806860.958,68.848,30.273,-5.371,87.402,17.578,0
1553806860.962,62.500,21.973,-5.859,93.750,45.898,0
1553806860.966,63.965,29.785,-7.812,91.309,61.523,0
1553806860.970,70.312,22.949,-13.672,71.777,109.375,0
1553806860.974,67.383,16.113,-7.812,72.754,94.727,0
1553806860.978,63.965,33.203,5.371,80.078,43.457,0
1553806860.981,66.406,39.551,0.488,77.148,18.555,0
1553806860.985,68.359,41.992,-9.277,81.543,-32.715,0
1553806860.989,60.059,39.551,-2.930,80.566,-33.691,0
1553806860.993,62.012,32.715,3.418,61.035,30.273,0
1553806860.997,60.547,25.391,6.836,55.176,96.680,0
1553806861.001,50.781,27.344,11.719,67.383,64.941,0
1553806861.005,47.852,32.715,14.160,66.406,41.992,0
1553806861.009,46.387,34.668,17.090,64.453,65.430,0
1553806861.013,43.457,32.715,18.555,63.965,22.949,0
1553806861.017,43.457,31.738,16.602,50.781,-22.949,0
1553806861.021,45.898,29.785,11.230,54.688,-3.418,0
1553806861.024,48.340,31.250,5.859,57.129,4.395,0
1553806861.028,60.547,24.902,7.324,55.664,-35.156,0
1553806861.032,53.223,24.414,10.742,52.734,24.414,0
1553806861.036,39.062,41.992,9.766,52.734,53.711,0
1553806861.040,41.016,45.898,11.719,46.875,56.152,0
1553806861.044,39.551,37.109,14.648,37.109,74.219,0
1553806861.048,36.133,33.691,9.766,46.387,66.406,0
1553806861.052,41.992,47.363,12.207,54.688,37.598,0
1553806861.056,52.734,53.711,22.461,52.246,35.156,0
1553806861.060,50.781,44.922,17.578,51.270,108.887,0
1553806861.063,33.203,46.387,11.719,42.969,56.152,0
1553806861.067,17.578,28.320,20.020,45.410,21.973,0
1553806861.071,20.020,10.742,21.973,44.922,84.961,0
1553806861.075,19.043,34.668,20.020,44.922,88.867,0
1553806861.079,17.090,41.016,25.391,43.457,30.762,0
1553806861.083,26.855,31.738,37.109,53.711,25.879,0
1553806861.087,56.152,37.109,32.715,80.566,38.086,0
1553806861.091,41.992,49.316,20.996,59.082,13.184,0
1553806861.095,0.000,48.340,17.578,17.090,-6.836,0
1553806861.099,15.625,44.434,14.648,22.949,40.527,0
1553806861.103,29.785,55.176,8.301,23.926,34.668,0
1553806861.106,17.090,53.223,9.766,16.602,16.113,0
1553806861.110,17.578,46.387,17.090,26.855,63.965,0
1553806861.114,20.508,45.410,21.973,26.367,49.316,0
1553806861.118,23.926,44.434,21.484,28.809,20.996,0
1553806861.122,27.832,29.785,16.602,31.250,40.039,0
1553806861.126,26.855,28.809,15.625,34.668,19.531,0
1553806861.130,18.066,48.828,14.160,28.320,-20.996,0
1553806861.134,12.207,48.828,19.043,23.438,-1.953,0
1553806861.138,16.602,39.551,17.578,32.227,21.973,0
1553806861.142,11.719,36.621,8.301,29.297,119.141,0
1553806861.146,9.277,44.434,15.625,23.438,122.070,0
1553806861.149,15.137,47.363,28.320,23.438,73.242,0
1553806861.153,12.695,42.969,25.879,25.391,32.227,0
1553806861.157,16.602,30.762,24.414,28.809,11.230,0
1553806861.161,29.297,32.227,28.320,32.715,31.738,0
1553806861.165,17.578,44.922,26.855,38.086,-20.508,0
1553806861.169,12.207,40.039,26.367,31.738,-37.598,0
1553806861.173,19.043,43.457,28.320,35.645,-35.645,0
1553806861.177,8.789,42.480,23.926,39.062,-12.695,0
1553806861.181,1.953,24.902,25.391,31.738,7.812,0
1553806861.185,8.789,21.484,26.367,30.273,12.207,0
1553806861.188,0.000,32.715,28.809,15.137,15.625,0
1553806861.192,-9.277,44.922,26.855,4.395,82.031,0
1553806861.196,-4.395,51.270,23.438,13.672,68.848,0
1553806861.200,1.465,42.969,35.156,14.648,-44.922,0
1553806861.204,5.859,38.086,42.480,15.625,58.105,0
1553806861.208,9.766,34.668,33.203,21.973,116.699,0
1553806861.212,14.160,33.691,25.879,25.391,45.410,0
1553806861.216,14.648,42.969,28.320,20.996,26.367,0
1553806861.220,15.625,34.668,21.973,23.926,49.316,0
1553806861.224,16.602,30.273,17.090,31.250,111.328,0
1553806861.228,10.254,41.504,26.367,23.926,62.988,0
1553806861.231,7.812,29.785,28.809,17.090,13.184,0
1553806861.235,14.160,39.062,19.043,18.066,83.984,0
1553806861.239,14.648,60.547,17.578,17.578,99.609,0
1553806861.243,9.277,41.992,20.508,16.113,99.609,0
1553806861.247,3.418,38.574,20.020,11.230,42.480,0
1553806861.251,-9.277,45.898,31.738,12.695,-11.230,0
1553806861.255,-3.906,42.969,26.367,25.391,-6.836,0
1553806861.259,3.906,49.805,20.996,26.855,25.879,0
1553806861.263,8.789,50.293,32.227,27.344,62.500,0
1553806861.267,21.484,43.457,33.203,30.273,69.336,0
1553806861.271,20.996,39.062,30.762,26.367,45.410,0
1553806861.274,16.602,44.434,35.645,24.902,41.016,0
1553806861.278,16.602,52.246,28.320,22.949,28.320,0
1553806861.282,15.137,44.922,19.043,19.043,81.055,0
1553806861.286,14.160,35.645,28.809,10.742,37.598,0
1553806861.290,10.254,47.363,38.574,19.043,-43.457,0
1553806861.294,1.465,54.199,35.645,27.832,69.336,0
1553806861.298,6.348,41.992,32.715,23.926,74.707,0
1553806861.302,10.254,39.062,32.227,20.020,19.531,0
1553806861.306,5.371,31.738,24.902,25.391,41.992,0
1553806861.310,8.789,25.879,26.855,38.574,41.016,0
1553806861.313,5.859,45.410,40.527,29.297,26.367,0
1553806861.317,-1.953,48.828,36.133,7.324,44.434,0
1553806861.321,-2.930,45.898,29.297,9.766,16.113,0
1553806861.325,-5.371,52.246,32.715,27.832,38.574,0
1553806861.329,-4.883,44.922,32.227,28.320,57.617,0
1553806861.333,-1.953,33.691,32.227,22.949,58.594,0
1553806861.337,1.953,35.645,34.180,19.531,96.191,0
1553806861.341,12.207,36.133,34.180,19.043,71.777,0
1553806861.345,10.254,39.551,29.297,18.066,39.551,0
1553806861.349,10.254,41.504,20.020,21.484,32.227,0
1553806861.353,9.766,36.133,18.555,29.297,34.180,0
1553806861.356,11.230,41.504,34.180,28.320,40.039,0
1553806861.360,8.789,39.551,35.156,19.531,79.102,0
1553806861.364,0.488,29.785,23.438,16.113,2.930,0
1553806861.368,-0.488,28.809,33.203,14.648,5.859,0
1553806861.372,-5.859,39.551,39.551,17.090,53.711,0
1553806861.376,-9.277,44.434,27.344,13.184,-14.648,0
1553806861.380,-5.859,46.387,26.855,19.043,40.039,0
1553806861.384,-8.301,38.574,34.668,21.484,98.633,0
1553806861.388,-7.812,26.367,36.621,13.672,50.781,0
1553806861.392,-2.930,36.133,32.227,11.719,86.914,0
1553806861.396,-1.465,43.945,30.273,15.625,53.223,0
1553806861.399,1.953,42.969,25.391,19.531,5.371,0
1553806861.403,12.695,42.969,24.414,20.996,77.148,0
1553806861.407,13.672,45.410,27.344,21.484,105.957,0
1553806861.411,13.672,35.156,26.367,29.785,51.758,0
1553806861.415,16.602,24.902,16.602,28.809,19.531,0
1553806861.419,4.883,36.133,25.879,25.391,44.922,0
1553806861.423,4.883,42.480,33.691,26.855,66.895,0
1553806861.427,1.953,41.016,29.297,15.137,106.934,0
1553806861.431,2.441,31.250,28.809,3.906,46.875,0
1553806861.435,7.812,24.414,21.484,6.836,63.965,0
1553806861.438,-6.836,31.250,28.809,25.391,142.090,0
1553806861.442,-2.930,46.387,29.297,32.715,47.852,0
1553806861.446,2.441,43.945,26.367,15.625,82.520,0
1553806861.450,-2.441,37.109,29.297,5.371,112.305,0
1553806861.454,-5.371,36.621,26.367,3.906,42.969,0
1553806861.458,1.465,27.832,26.367,11.719,29.785,0
1553806861.462,24.902,37.109,25.391,43.945,14.160,0
1553806861.466,28.809,47.852,33.691,36.621,-10.742,0
1553806861.470,-10.742,48.828,42.480,-2.930,12.695,0
1553806861.474,-16.113,41.504,34.180,3.418,67.383,0
1553806861.478,-1.953,36.133,30.762,13.672,49.316,0
1553806861.481,-10.254,42.480,36.133,9.277,3.906,0
1553806861.485,-3.418,29.297,33.203,12.695,50.781,0
1553806861.489,10.254,23.926,17.578,18.555,45.898,0
1553806861.493,14.160,41.016,20.508,24.414,9.766,0
1553806861.497,12.207,47.852,37.109,21.484,-5.371,0
1553806861.501,1.465,43.945,35.156,16.602,-35.156,0
1553806861.505,-3.418,43.945,30.762,21.484,-12.207,0
1553806861.509,3.906,40.039,25.391,22.949,31.738,0
1553806861.513,5.371,31.250,21.484,20.996,44.434,0
1553806861.517,5.371,39.062,24.902,22.949,24.902,0
1553806861.521,9.277,47.363,23.926,21.973,58.105,0
1553806861.524,1.465,42.969,22.461,8.301,94.238,0
1553806861.528,-3.906,45.410,15.625,9.277,58.594,0
1553806861.532,3.906,41.992,22.461,19.043,48.828,0
1553806861.536,9.766,32.227,39.062,23.926,48.828,0
1553806861.540,1.465,30.273,39.062,35.156,41.016,0
1553806861.544,-2.930,35.645,33.691,30.762,-1.465,0
1553806861.548,9.277,45.898,31.738,25.391,3.906,0
1553806861.552,8.301,41.504,32.715,21.484,57.129,0
1553806861.556,-4.883,41.992,35.156,16.602,77.637,0
1553806861.560,0.977,43.457,35.645,17.090,47.852,0
1553806861.563,1.953,34.668,35.645,17.578,0.977,0
1553806861.567,-2.441,35.156,38.574,20.996,26.367,0
1553806861.571,-1.465,35.156,28.809,21.484,36.621,0
1553806861.575,-6.348,26.855,31.250,31.250,34.668,0
1553806861.579,3.906,30.273,40.527,37.109,72.266,0
1553806861.583,-6.348,28.809,36.133,24.414,1.953,0
1553806861.587,-21.484,20.508,33.203,11.719,1.465,0
1553806861.591,-7.324,29.297,24.414,11.719,50.781,0
1553806861.595,-5.859,42.969,25.391,10.254,22.461,0
1553806861.599,-15.625,39.551,29.297,20.508,82.031,0
1553806861.603,-5.371,28.320,27.344,20.020,78.125,0
1553806861.606,-0.977,35.156,32.227,3.906,-8.789,0
1553806861.610,-1.465,37.109,32.227,6.348,-2.441,0
1553806861.614,1.953,20.020,31.250,6.836,20.996,0
1553806861.618,0.977,15.137,39.551,11.719,50.781,0
1553806861.622,7.324,37.598,43.457,21.484,14.160,0
1553806861.626,14.160,47.363,31.738,15.625,10.742,0
1553806861.630,7.324,39.062,23.438,16.602,-9.766,0
1553806861.634,-2.441,29.785,33.691,20.508,-40.039,0
1553806861.638,20.020,30.273,34.180,23.438,-6.348,0
1553806861.642,26.367,30.762,28.809,22.461,4.395,0
1553806861.646,9.277,22.949,23.926,18.555,15.625,0
1553806861.649,17.090,34.180,19.531,20.020,44.434,0
1553806861.653,20.508,41.992,20.508,25.879,83.496,0
1553806861.657,9.277,33.203,23.926,22.949,47.363,0
1553806861.661,14.648,30.273,34.668,22.461,41.016,0
1553806861.665,27.344,28.809,27.344,21.484,19.043,0
1553806861.669,14.160,27.344,23.926,15.137,-34.180,0
1553806861.673,6.348,38.086,26.855,20.508,36.621,0
1553806861.677,13.184,34.668,24.414,22.949,84.473,0
1553806861.681,11.230,29.297,31.738,13.672,47.852,0
1553806861.685,14.648,43.945,31.250,9.277,87.891,0
1553806861.688,14.160,41.016,32.227,11.719,49.316,0
1553806861.692,11.719,26.855,31.738,12.207,-11.719,0
1553806861.696,20.996,29.785,23.926,23.438,-25.391,0
1553806861.700,17.578,41.016,25.879,21.484,8.789,0
1553806861.704,17.090,50.293,27.832,25.391,27.832,0
1553806861.708,22.461,41.992,22.461,29.785,24.414,0
1553806861.712,14.160,34.668,34.180,16.602,20.508,0
1553806861.716,8.301,40.527,45.410,11.230,54.688,0
1553806861.720,18.066,23.926,43.457,24.414,76.660,0
1553806861.724,26.855,27.344,32.227,33.691,24.902,0
1553806861.728,2.930,46.387,27.344,4.883,12.207,0
1553806861.731,-2.930,43.945,27.344,-3.418,6.836,0
1553806861.735,12.207,38.574,23.438,8.789,31.738,0
1553806861.739,4.883,39.551,25.879,5.371,30.273,0
1553806861.743,-1.465,41.992,23.438,12.695,20.996,0
1553806861.747,-3.418,33.203,21.973,10.742,6.348,0
1553806861.751,-4.883,23.926,27.344,4.395,47.363,0
1553806861.755,-4.395,23.438,26.367,9.277,44.434,0
1553806861.759,5.859,27.344,27.344,7.324,37.598,0
1553806861.763,10.254,33.203,28.320,0.488,40.527,0
1553806861.767,5.371,33.203,26.367,7.812,1.953,0
1553806861.771,3.418,30.762,26.855,11.719,23.926,0
1553806861.774,-2.930,27.344,24.414,9.277,41.992,0
1553806861.778,-6.348,30.762,18.555,6.348,76.172,0
1553806861.782,-1.953,33.691,24.414,4.395,103.027,0
1553806861.786,-1.953,33.691,33.203,8.789,85.449,0
1553806861.790,-9.766,39.062,27.832,18.555,86.914,0
1553806861.794,-5.859,38.086,30.762,24.414,65.430,0
1553806861.798,5.371,29.785,31.738,23.926,45.410,0
1553806861.802,8.301,31.738,26.367,25.879,83.984,0
1553806861.806,10.742,44.922,31.250,20.996,23.438,0
1553806861.810,15.137,47.852,26.855,16.113,22.949,0
1553806861.813,5.859,48.340,18.555,23.926,55.664,0
1553806861.817,0.488,41.504,14.648,28.320,16.602,0
1553806861.821,1.465,34.668,26.855,11.719,-8.301,0
1553806861.825,-0.488,42.969,40.527,9.766,4.883,0
1553806861.829,4.883,46.387,33.691,19.531,53.223,0
1553806861.833,8.301,39.551,26.855,23.438,39.551,0
1553806861.837,12.207,41.016,25.879,26.855,17.090,0
1553806861.841,15.137,46.387,29.785,22.949,42.969,0
1553806861.845,16.113,48.828,26.855,29.785,55.176,0
1553806861.849,3.418,34.180,19.531,27.832,54.688,0
1553806861.853,-3.418,30.762,20.996,10.254,93.262,0
1553806861.856,3.418,40.039,26.855,5.371,90.332,0
1553806861.860,5.371,38.086,24.902,6.836,2.930,0
1553806861.864,0.000,43.457,19.043,9.277,-3.418,0
1553806861.868,-6.836,48.340,25.391,8.789,56.641,0
1553806861.872,1.465,45.410,27.344,10.742,44.922,0
1553806861.876,4.883,33.203,24.414,11.230,28.320,0
1553806861.880,5.859,29.297,29.785,17.578,54.199,0
1553806861.884,11.230,35.645,26.855,20.020,52.734,0
1553806861.888,0.000,40.039,29.785,23.438,13.672,0
1553806861.892,-8.301,42.969,35.156,28.320,16.113,0
1553806861.896,6.836,36.621,29.785,25.391,90.820,0
1553806861.899,6.836,28.320,26.367,16.113,31.250,0
1553806861.903,-8.301,37.109,33.691,11.230,-33.691,0
1553806861.907,0.000,47.363,35.156,20.996,3.418,0
1553806861.911,-6.836,48.828,25.391,18.066,86.914,0
1553806861.915,-23.926,45.410,21.973,7.324,82.520,0
1553806861.919,-18.066,31.738,32.227,12.207,8.301,0
1553806861.923,-13.184,32.715,39.062,15.625,63.965,0
1553806861.927,-15.137,45.898,27.832,11.719,89.355,0
1553806861.931,-14.160,44.922,26.367,14.648,47.852,0
1553806861.935,-8.301,42.969,19.531,11.719,34.180,0
1553806861.938,-4.883,50.293,16.113,11.230,89.844,0
1553806861.942,-3.418,50.293,33.691,13.184,81.055,0
1553806861.946,2.441,37.109,32.715,12.207,59.082,0
1553806861.950,4.395,36.133,20.996,16.113,51.270,0
1553806861.954,6.836,42.969,19.531,21.973,-7.324,0
1553806861.958,11.230,45.898,29.297,20.508,-7.324,0
1553806861.962,12.207,52.246,42.969,11.230,-27.832,0
1553806861.966,3.906,49.316,34.180,18.555,-36.133,0
1553806861.970,8.301,43.945,17.578,17.090,47.363,0
1553806861.974,11.719,40.527,20.996,4.395,57.617,0
1553806861.978,13.184,41.992,20.020,10.742,-5.371,0
1553806861.981,21.973,52.246,17.578,14.160,-13.672,0
1553806861.985,22.949,45.410,27.344,9.766,50.293,0
1553806861.989,14.160,37.109,27.344,3.418,100.098,0
1553806861.993,5.859,34.180,27.344,8.789,75.684,0
1553806861.997,7.324,34.668,31.738,19.043,67.871,0
1553806862.001,-4.395,45.410,34.180,17.090,110.352,0
1553806862.005,-12.207,49.805,31.738,1.465,91.797,0
1553806862.009,-0.977,44.434,23.926,6.836,30.762,0
1553806862.013,3.906,38.574,27.344,22.949,59.082,0
1553806862.017,-4.883,38.574,30.273,14.648,76.172,0
1553806862.021,-10.742,28.809,24.414,7.324,75.195,0
1553806862.024,-6.348,27.344,28.320,15.137,22.949,0
1553806862.028,-6.836,40.527,41.992,16.113,-29.297,0
1553806862.032,0.977,40.039,36.133,20.020,-6.836,0
1553806862.036,7.324,39.062,25.391,16.113,101.562,0
1553806862.040,-3.418,35.645,28.320,13.184,70.312,0
1553806862.044,1.465,30.273,30.762,18.555,-15.625,0
1553806862.048,16.602,38.574,28.809,21.973,-5.371,0
1553806862.052,24.414,40.039,30.273,26.367,-27.344,0
1553806862.056,20.020,39.062,30.273,19.043,-16.113,0
1553806862.060,0.977,42.969,20.996,8.301,16.602,0
1553806862.063,7.324,41.992,24.902,9.766,1.953,0
1553806862.067,33.203,47.363,21.484,24.902,-22.949,0
1553806862.071,33.203,47.852,11.719,39.551,41.016,0
1553806862.075,-4.883,36.621,32.715,8.301,54.688,0
1553806862.079,-16.113,28.320,49.316,-11.230,15.625,0
1553806862.083,-9.766,28.809,41.992,0.488,24.902,0
1553806862.087,-13.184,28.809,36.133,-4.395,35.156,0
1553806862.091,-9.277,44.434,34.668,-0.977,96.680,0
1553806862.095,-16.602,47.852,25.391,5.859,137.695,0
1553806862.099,-19.043,37.109,18.555,8.301,82.520,0
1553806862.103,-17.578,40.039,23.438,12.207,29.785,0
1553806862.106,-9.766,36.133,23.926,13.184,12.695,0
1553806862.110,-1.465,33.691,26.367,14.160,-6.348,0
1553806862.114,9.277,22.461,29.297,20.508,19.043,0
1553806862.118,3.418,30.762,25.879,13.184,56.152,0
1553806862.122,-4.395,57.617,33.203,7.812,75.195,0
1553806862.126,8.301,49.316,25.391,17.578,96.680,0
1553806862.130,2.441,43.945,15.625,14.160,47.363,0
1553806862.134,-8.301,50.293,31.738,9.277,23.438,0
1553806862.138,3.906,48.340,41.504,9.766,68.359,0
1553806862.142,12.695,44.922,34.180,10.254,18.555,0
1553806862.146,13.184,35.156,20.508,13.184,41.016,0
1553806862.149,13.184,35.645,22.461,14.648,48.828,0
1553806862.153,12.207,50.293,33.203,10.742,17.578,0
1553806862.157,7.324,48.828,39.551,3.418,39.062,0
1553806862.161,-4.395,43.457,35.645,4.883,21.973,0
1553806862.165,-0.977,36.133,28.809,7.812,10.742,0
1553806862.169,6.348,40.039,32.715,8.301,12.207,0
1553806862.173,-5.859,49.316,44.922,0.488,1.465,0
1553806862.177,-19.531,49.805,50.293,-9.277,20.996,0
1553806862.181,-29.297,55.176,45.410,-15.137,81.543,0
1553806862.185,-42.969,55.176,51.758,-21.973,44.434,0
1553806862.188,-58.594,57.617,62.988,-38.574,-21.973,0
1553806862.192,-82.031,64.941,71.777,-59.570,-14.160,0
1553806862.196,-123.047,65.918,77.637,-103.516,41.504,0
1553806862.200,-154.297,65.430,87.891,-142.090,-10.254,0
1553806862.204,-173.828,63.477,91.797,-154.297,-12.207,0
1553806862.208,-199.219,58.594,91.309,-180.176,41.504,0
1553806862.212,-230.957,62.012,112.793,-211.914,73.242,0
1553806862.216,-258.789,62.988,137.695,-230.469,40.039,0
1553806862.220,-281.250,69.824,136.230,-256.348,105.957,0
1553806862.224,-292.969,68.848,150.879,-269.043,85.449,0
1553806862.228,-311.523,65.918,167.480,-284.668,9.277,0
1553806862.231,-308.594,68.359,159.180,-283.203,51.270,0
1553806862.235,-287.109,61.523,148.926,-256.836,21.973,0
1553806862.239,-271.973,79.590,148.438,-252.441,62.988,0
1553806862.243,-252.441,96.191,135.742,-234.863,86.426,0
1553806862.247,-236.816,74.707,145.020,-206.543,26.855,0
1553806862.251,-225.098,69.824,159.180,-197.266,42.969,0
1553806862.255,-199.219,89.844,140.137,-189.453,92.773,0
1553806862.259,-180.664,83.008,121.582,-175.293,28.809,0
1553806862.263,-171.875,65.918,116.699,-150.391,8.301,0
1553806862.267,-140.137,59.570,103.516,-108.887,71.777,0
1553806862.271,-112.793,65.918,68.848,-82.520,125.977,0
1553806862.274,-85.449,73.242,36.133,-57.617,115.234,0
1553806862.278,-48.340,64.453,39.062,-22.461,83.008,0
1553806862.282,-28.809,55.176,51.270,1.465,2.441,0
1553806862.286,-10.254,45.898,37.109,21.484,-53.223,0
1553806862.290,21.973,28.809,18.066,44.434,-33.691,0
1553806862.294,38.086,15.625,13.672,58.594,-5.371,0
1553806862.298,51.758,23.438,3.418,74.219,28.809,0
1553806862.302,72.754,40.527,-10.742,84.961,-0.488,0
1553806862.306,80.078,39.062,-21.973,92.773,-54.688,0
1553806862.310,84.473,23.438,-21.973,107.422,-22.949,0
1553806862.313,92.285,20.996,-13.672,110.840,65.430,0
1553806862.317,96.191,22.461,-13.184,107.910,65.430,0
1553806862.321,104.004,26.855,-20.020,104.492,40.039,0
1553806862.325,105.469,31.738,-25.391,120.117,-19.531,0
1553806862.329,113.770,28.320,-29.297,126.465,-33.691,0
1553806862.333,119.141,20.508,-37.109,120.117,10.742,0
1553806862.337,115.723,20.020,-28.809,119.629,5.859,0
1553806862.341,122.070,30.273,-25.879,123.047,-20.996,0
1553806862.345,126.953,19.531,-42.480,130.859,25.879,0
1553806862.349,113.281,20.508,-40.527,124.512,13.184,0
1553806862.353,93.262,26.367,-21.973,109.863,-23.438,0
1553806862.356,100.586,7.812,-19.531,109.375,44.922,0
1553806862.360,107.910,7.812,-24.902,116.699,75.195,0
1553806862.364,95.703,29.297,-24.414,110.840,84.473,0
1553806862.368,84.961,33.691,-22.949,112.305,82.520,0
1553806862.372,90.820,36.133,-19.531,117.188,57.617,0
1553806862.376,91.309,29.785,-22.461,106.934,0.977,0
1553806862.380,91.309,21.484,-19.531,105.957,20.020,0
1553806862.384,90.820,23.438,-7.812,108.887,9.277,0
1553806862.388,83.984,20.020,-9.766,106.934,25.391,0
1553806862.392,84.961,18.555,-13.672,107.910,99.609,0
1553806862.396,89.355,16.602,-5.859,106.445,57.129,0
1553806862.399,77.148,15.625,-0.488,99.121,32.715,0
1553806862.403,68.848,18.066,-1.465,85.449,74.219,0
1553806862.407,66.895,10.254,5.371,82.031,112.793,0
1553806862.411,69.336,17.578,8.301,87.402,82.031,0
1553806862.415,71.777,33.691,-0.977,84.473,81.055,0
1553806862.419,69.824,28.809,4.395,82.520,74.219,0
1553806862.423,70.801,16.602,8.789,84.473,42.969,0
1553806862.427,79.102,22.949,-2.441,80.078,58.594,0
1553806862.431,81.055,28.809,1.465,77.148,32.227,0
1553806862.435,57.129,31.738,9.277,73.242,41.992,0
1553806862.438,57.617,39.062,3.906,68.359,90.332,0
1553806862.442,77.148,32.227,-1.465,65.430,83.008,0
1553806862.446,59.082,28.809,-1.465,64.941,57.617,0
1553806862.450,57.617,22.461,6.836,87.891,73.730,0
1553806862.454,69.336,22.949,14.160,92.285,61.523,0
1553806862.458,41.504,37.598,11.230,45.898,47.363,0
1553806862.462,41.504,35.645,13.184,38.574,50.781,0
1553806862.466,52.734,41.504,16.113,56.152,32.227,0
1553806862.470,31.250,46.387,13.184,36.621,47.363,0
1553806862.474,31.250,28.809,7.812,42.969,19.043,0
1553806862.478,37.109,20.020,1.953,46.875,-5.859,0
1553806862.481,41.504,23.438,12.207,42.969,41.504,0
1553806862.485,52.246,37.109,16.602,47.363,36.621,0
1553806862.489,50.293,37.598,7.324,47.852,8.789,0
1553806862.493,39.062,35.645,11.230,50.781,8.301,0
1553806862.497,36.621,34.180,14.160,56.152,-49.805,0
1553806862.501,41.992,35.156,15.625,57.617,-40.527,0
1553806862.505,43.457,36.133,10.742,49.316,46.387,0
1553806862.509,39.062,37.109,4.395,49.805,28.320,0
1553806862.513,48.340,45.898,5.371,47.363,4.395,0
1553806862.517,54.688,41.016,9.277,47.852,39.062,0
1553806862.521,43.457,34.668,20.020,54.688,31.250,0
1553806862.524,40.527,37.598,22.461,47.852,22.461,0
1553806862.528,39.062,40.039,20.996,34.668,43.457,0
1553806862.532,31.250,44.434,24.902,33.203,-11.719,0
1553806862.536,33.203,49.805,17.090,34.668,25.879,0
1553806862.540,22.461,44.922,10.254,27.344,123.047,0
1553806862.544,12.207,34.668,16.602,31.738,86.914,0
1553806862.548,21.484,32.715,14.160,40.039,91.797,0
1553806862.552,23.926,32.227,8.789,42.969,99.121,0
