timestamps,TP9,AF7,AF8,TP10,Right AUX,Marker0
1553635439.643,-168.457,27.344,19.043,79.590,47.852,0
1553635439.647,-155.273,40.527,20.996,72.754,62.988,0
1553635439.651,-151.855,41.504,19.043,70.801,72.754,0
1553635439.655,-159.180,30.762,21.973,62.012,59.570,0
1553635439.658,-153.809,25.391,23.926,76.172,12.207,0
1553635439.662,-156.250,33.203,23.926,96.680,34.668,0
1553635439.666,-168.457,38.574,29.297,107.422,123.535,0
1553635439.670,-167.969,31.250,23.438,74.707,98.145,0
1553635439.674,-155.273,30.273,20.020,40.039,69.824,0
1553635439.678,-158.203,55.664,14.160,35.156,75.195,0
1553635439.682,-180.176,51.270,15.625,43.945,37.109,0
1553635439.686,-189.941,31.738,29.297,69.824,4.883,0
1553635439.690,-193.359,35.645,25.391,60.059,62.988,0
1553635439.694,-175.293,38.574,21.484,52.734,46.387,0
1553635439.697,-150.879,38.574,28.809,63.965,19.531,0
1553635439.701,-169.922,26.367,32.715,58.594,12.695,0
1553635439.705,-204.102,16.602,28.320,54.199,-0.977,0
1553635439.709,-190.430,16.602,23.926,53.711,0.977,0
1553635439.713,-167.480,2.930,25.391,58.105,-22.949,0
1553635439.717,-168.457,-32.715,25.879,60.547,22.461,0
1553635439.721,-174.805,-42.969,20.020,40.527,34.668,0
1553635439.725,-183.105,-37.109,20.508,22.461,-21.973,0
1553635439.729,-174.805,-50.781,26.855,29.297,6.836,0
1553635439.733,-160.645,-53.711,29.297,41.504,-11.230,0
1553635439.737,-157.715,-49.805,28.809,40.527,-10.254,0
1553635439.740,-148.438,-53.223,28.809,49.316,1.953,0
1553635439.744,-159.668,-61.035,27.344,42.480,2.930,0
1553635439.748,-178.223,-54.688,26.855,28.809,49.805,0
1553635439.752,-177.734,-55.664,31.250,50.293,27.832,0
1553635439.756,-186.035,-62.012,34.180,50.781,-23.926,0
1553635439.760,-184.570,-64.453,28.809,40.527,21.973,0
1553635439.764,-172.852,-64.941,25.879,39.062,40.527,0
1553635439.768,-158.691,-51.758,35.156,44.434,75.195,0
1553635439.772,-163.574,-56.152,41.016,61.035,76.660,0
1553635439.776,-167.969,-63.965,35.645,48.828,101.562,0
1553635439.780,-167.480,-56.641,31.250,33.203,76.172,0
1553635439.783,-169.922,-45.898,32.227,53.223,-12.207,0
1553635439.787,-163.574,-50.781,32.715,57.617,18.555,0
1553635439.791,-170.898,-57.617,32.227,42.480,26.367,0
1553635439.795,-188.477,-54.199,32.715,37.109,-1.953,0
1553635439.799,-183.594,-49.316,32.715,39.062,-6.836,0
1553635439.803,-164.062,-53.223,35.156,47.363,-32.227,0
1553635439.807,-160.645,-60.547,34.180,45.410,14.160,0
1553635439.811,-156.250,-54.199,33.203,44.922,48.828,0
1553635439.815,-151.855,-37.598,35.156,43.945,27.832,0
1553635439.819,-166.016,-48.340,36.133,35.156,67.383,0
1553635439.822,-175.293,-49.316,31.250,27.832,25.879,0
1553635439.826,-175.293,-42.480,30.273,28.320,-6.836,0
1553635439.830,-171.387,-40.039,37.109,38.574,10.254,0
1553635439.834,-158.691,-35.645,37.109,35.645,-1.953,0
1553635439.838,-166.992,-38.086,31.738,21.973,11.230,0
1553635439.842,-182.617,-36.133,32.715,14.160,56.152,0
1553635439.846,-190.918,-43.457,38.086,25.391,23.926,0
1553635439.850,-176.758,-43.945,36.133,27.832,2.930,0
1553635439.854,-151.855,-35.156,35.645,22.949,58.594,0
1553635439.858,-166.016,-20.996,32.227,13.672,72.754,0
1553635439.862,-170.898,-15.137,31.250,29.297,49.316,0
1553635439.865,-163.574,-23.926,34.180,31.250,46.387,0
1553635439.869,-155.762,-24.902,33.203,20.508,25.879,0
1553635439.873,-151.855,-5.371,32.715,29.297,-18.555,0
1553635439.877,-154.297,0.000,32.715,19.531,18.066,0
1553635439.881,-150.391,-2.441,33.203,20.020,47.363,0
1553635439.885,-158.203,-0.488,33.203,35.645,30.762,0
1553635439.889,-165.527,-9.277,38.574,30.273,77.148,0
1553635439.893,-166.016,-14.160,41.016,29.785,75.195,0
1553635439.897,-146.484,-15.625,32.715,29.297,-7.324,0
1553635439.901,-143.066,7.812,29.297,20.020,-37.109,0
1553635439.905,-153.320,20.020,32.227,17.578,14.160,0
1553635439.908,-151.367,-2.930,34.180,25.879,27.344,0
1553635439.912,-156.738,-0.488,32.715,36.133,-5.859,0
1553635439.916,-165.039,12.695,35.156,33.691,25.391,0
1553635439.920,-156.738,5.371,35.645,24.414,24.902,0
1553635439.924,-147.949,-10.254,32.715,31.250,8.789,0
1553635439.928,-142.090,-14.648,34.180,39.551,17.090,0
1553635439.932,-164.551,-5.859,33.691,45.898,62.988,0
1553635439.936,-185.547,-14.160,29.785,28.320,89.844,0
1553635439.940,-152.832,-24.902,31.250,19.531,18.066,0
1553635439.944,-144.531,-21.973,34.668,37.598,23.926,0
1553635439.947,-167.969,-20.508,29.297,30.273,72.754,0
1553635439.951,-155.273,-8.789,31.738,37.109,16.602,0
1553635439.955,-145.996,-25.391,41.992,55.176,27.832,0
1553635439.959,-176.758,-47.852,41.016,26.367,2.441,0
1553635439.963,-185.547,-21.973,27.832,2.930,-15.137,0
1553635439.967,-167.480,-18.555,27.832,25.879,41.504,0
1553635439.971,-168.457,-31.738,41.992,41.016,19.043,0
1553635439.975,-156.250,-26.367,43.945,36.621,5.371,0
1553635439.979,-148.926,-18.066,40.527,36.133,-33.691,0
1553635439.983,-146.973,-10.742,35.156,26.855,-35.156,0
1553635439.987,-163.086,-9.277,34.668,30.762,16.602,0
1553635439.990,-162.598,-7.324,41.504,42.480,31.250,0
1553635439.994,-162.109,-16.113,48.340,46.875,36.621,0
1553635439.998,-174.316,-12.695,41.504,40.527,21.484,0
1553635440.002,-156.250,-1.953,28.320,20.508,52.246,0
1553635440.006,-148.438,0.488,32.227,19.043,90.332,0
1553635440.010,-152.832,6.836,38.086,35.645,73.242,0
1553635440.014,-143.066,1.953,35.645,56.152,10.254,0
1553635440.018,-150.391,5.371,36.621,62.012,-13.184,0
1553635440.022,-160.645,-5.371,41.992,42.969,-12.207,0
1553635440.026,-164.062,-11.230,41.504,32.227,-10.742,0
1553635440.030,-161.621,-6.836,41.992,40.527,-35.645,0
1553635440.033,-134.766,0.488,40.039,53.711,4.395,0
1553635440.037,-114.746,14.160,31.250,46.875,35.156,0
1553635440.041,-137.695,19.531,30.273,41.016,42.969,0
1553635440.045,-161.621,7.324,37.109,57.129,59.082,0
1553635440.049,-152.344,6.836,41.016,52.734,40.527,0
1553635440.053,-148.438,24.902,42.480,49.316,28.809,0
1553635440.057,-113.770,15.625,45.410,70.801,34.668,0
1553635440.061,-82.031,7.812,42.969,87.891,54.199,0
1553635440.065,-118.164,35.645,29.297,58.105,55.664,0
1553635440.069,-148.438,55.664,28.809,29.297,65.918,0
1553635440.072,-127.930,47.852,24.902,44.434,26.367,0
1553635440.076,-130.371,50.781,21.973,61.523,-16.602,0
1553635440.080,-123.535,62.988,17.090,56.641,-15.137,0
1553635440.084,-121.094,75.684,10.254,52.734,28.320,0
1553635440.088,-134.277,84.961,7.324,41.016,46.875,0
1553635440.092,-120.117,75.195,1.953,43.457,8.789,0
1553635440.096,-114.258,85.938,-0.488,48.828,37.598,0
1553635440.100,-102.051,107.910,-3.418,54.199,1.465,0
1553635440.104,-85.449,107.910,-9.277,55.176,24.902,0
1553635440.108,-92.773,107.910,-9.277,40.527,48.828,0
1553635440.112,-92.285,111.328,-6.348,41.992,73.242,0
1553635440.115,-102.539,110.352,-9.766,45.898,87.402,0
1553635440.119,-111.328,106.445,-6.348,58.594,70.312,0
1553635440.123,-115.234,109.863,-9.277,49.805,56.641,0
1553635440.127,-111.328,119.141,-17.578,32.227,40.039,0
1553635440.131,-100.098,128.906,-18.555,32.715,6.348,0
1553635440.135,-97.656,131.836,-20.020,34.668,6.836,0
1553635440.139,-86.426,119.141,-18.066,51.758,51.270,0
1553635440.143,-92.773,125.488,-12.695,63.965,61.523,0
1553635440.147,-99.121,117.676,-6.836,49.805,18.555,0
1553635440.151,-104.980,107.422,-2.441,44.434,1.953,0
1553635440.155,-104.980,107.910,-0.977,42.480,43.945,0
1553635440.158,-101.074,110.352,-0.977,36.133,22.461,0
1553635440.162,-107.422,104.980,2.930,54.199,15.625,0
1553635440.166,-121.582,93.750,5.371,75.684,51.758,0
1553635440.170,-113.281,93.750,6.836,53.711,28.809,0
1553635440.174,-87.402,93.750,2.930,38.574,-12.695,0
1553635440.178,-100.586,89.355,4.883,43.945,36.621,0
1553635440.182,-118.652,82.031,10.742,39.551,79.590,0
1553635440.186,-117.188,85.449,9.766,32.715,46.387,0
1553635440.190,-110.352,97.656,11.719,37.598,40.039,0
1553635440.194,-109.375,83.496,11.230,37.598,79.590,0
1553635440.197,-131.348,75.684,17.578,45.898,27.832,0
1553635440.201,-130.371,83.008,18.066,59.570,5.859,0
1553635440.205,-119.629,77.637,20.020,48.340,9.766,0
1553635440.209,-117.676,72.266,21.484,26.367,49.316,0
1553635440.213,-107.910,69.336,9.766,19.043,52.246,0
1553635440.217,-120.605,71.289,18.066,44.434,-16.602,0
1553635440.221,-131.348,68.848,29.297,63.965,65.918,0
1553635440.225,-122.559,55.176,26.367,47.852,106.934,0
1553635440.229,-132.812,55.176,23.926,50.293,43.457,0
1553635440.233,-94.727,71.289,21.973,62.988,40.039,0
1553635440.237,-93.262,69.824,20.996,43.457,2.441,0
1553635440.240,-140.625,55.176,21.484,40.039,3.418,0
1553635440.244,-129.395,50.781,28.809,70.801,38.574,0
1553635440.248,-121.094,56.641,29.297,74.219,-0.977,0
1553635440.252,-136.230,58.105,21.484,54.199,30.762,0
1553635440.256,-121.582,51.758,19.531,60.059,61.523,0
1553635440.260,-116.211,52.246,25.391,49.316,57.129,0
1553635440.264,-125.000,52.246,30.273,48.340,14.648,0
1553635440.268,-111.328,49.805,35.645,81.543,11.719,0
1553635440.272,-114.258,44.434,29.785,66.895,63.477,0
1553635440.276,-116.211,60.547,20.020,43.945,53.711,0
1553635440.280,-116.699,71.777,37.109,78.613,-5.371,0
1553635440.283,-123.535,66.406,45.410,69.824,17.578,0
1553635440.287,-83.984,69.824,30.762,78.613,24.902,0
1553635440.291,-82.031,78.613,20.996,98.633,20.996,0
1553635440.295,-109.863,76.172,22.461,99.121,92.285,0
1553635440.299,-102.051,61.035,30.762,116.211,45.410,0
1553635440.303,-91.797,57.617,40.527,104.004,0.488,0
1553635440.307,-108.887,55.176,37.598,84.961,47.363,0
1553635440.311,-147.949,49.316,31.250,92.285,14.160,0
1553635440.315,-118.164,54.199,24.902,103.027,14.160,0
1553635440.319,-76.660,47.852,28.320,126.465,-7.812,0
1553635440.322,-65.430,46.387,30.273,100.098,26.367,0
1553635440.326,-122.070,61.035,23.438,43.457,80.078,0
1553635440.330,-153.320,61.035,31.250,52.734,50.293,0
1553635440.334,-105.957,65.430,28.809,54.688,51.270,0
1553635440.338,-127.441,99.609,15.625,31.738,74.707,0
1553635440.342,-150.879,103.516,13.184,17.090,109.375,0
1553635440.346,-144.043,91.797,14.648,18.066,76.660,0
1553635440.350,-149.414,112.305,6.836,28.320,38.574,0
1553635440.354,-143.066,133.789,-3.418,8.301,62.012,0
1553635440.358,-125.977,126.465,2.930,-0.488,41.504,0
1553635440.362,-166.504,132.324,-0.488,19.043,18.066,0
1553635440.365,-162.598,137.207,-7.324,17.090,-13.672,0
1553635440.369,-129.395,146.484,-3.906,6.836,-29.785,0
1553635440.373,-145.508,164.551,-10.742,4.395,45.898,0
1553635440.377,-117.676,157.227,-22.949,-10.742,60.059,0
1553635440.381,-94.238,168.457,-20.996,-10.742,22.461,0
1553635440.385,-109.863,179.688,-12.207,27.344,19.043,0
1553635440.389,-104.492,163.086,-14.160,27.832,37.109,0
1553635440.393,-102.051,169.922,-20.508,9.277,10.254,0
1553635440.397,-120.605,176.270,-21.484,12.207,-11.230,0
1553635440.401,-119.141,167.969,-21.484,7.812,50.781,0
1553635440.405,-101.074,159.180,-20.996,23.438,56.641,0
1553635440.408,-84.961,166.992,-19.043,30.762,83.984,0
1553635440.412,-93.262,163.574,-19.043,19.043,54.688,0
1553635440.416,-98.633,158.691,-20.508,23.438,25.391,0
1553635440.420,-72.266,157.227,-20.508,17.578,52.734,0
1553635440.424,-99.121,140.137,-16.113,7.324,-18.066,0
1553635440.428,-103.027,154.297,-20.020,11.230,-32.715,0
1553635440.432,-75.684,174.316,-30.762,12.207,46.387,0
1553635440.436,-81.055,150.879,-19.043,37.109,69.336,0
1553635440.440,-98.145,144.043,-18.555,25.879,61.523,0
1553635440.444,-118.652,148.926,-14.648,23.438,68.359,0
1553635440.447,-121.582,135.254,-6.836,27.832,47.852,0
1553635440.451,-90.332,147.461,-18.555,24.414,13.184,0
1553635440.455,-91.797,154.785,-16.113,36.133,40.039,0
1553635440.459,-114.258,145.020,-23.926,5.859,37.598,0
1553635440.463,-81.543,148.926,-17.090,24.414,20.020,0
1553635440.467,-94.727,136.719,-3.418,31.250,55.176,0
1553635440.471,-111.816,135.254,-9.766,5.371,47.363,0
1553635440.475,-74.707,149.414,-7.324,23.438,32.227,0
1553635440.479,-84.961,124.512,7.324,36.133,49.316,0
1553635440.483,-112.793,117.188,-1.465,14.160,62.988,0
1553635440.487,-100.098,125.000,-3.906,7.324,21.973,0
1553635440.490,-87.402,118.652,14.160,46.875,-19.043,0
1553635440.494,-123.535,104.492,7.324,23.926,14.160,0
1553635440.498,-132.324,101.074,-1.465,9.766,102.539,0
1553635440.502,-100.098,101.074,1.953,11.230,54.199,0
1553635440.506,-98.633,88.867,11.230,36.133,-44.922,0
1553635440.510,-128.906,73.730,14.648,32.227,-46.875,0
1553635440.514,-123.535,82.031,-3.418,-19.043,-29.785,0
1553635440.518,-99.609,102.051,12.207,28.320,-7.812,0
1553635440.522,-112.793,84.473,24.902,39.551,20.020,0
1553635440.526,-133.301,69.824,10.254,7.812,15.137,0
1553635440.530,-133.789,68.359,23.926,27.344,-25.879,0
1553635440.533,-115.234,75.195,31.738,29.785,-17.578,0
1553635440.537,-118.164,73.730,19.043,5.371,17.090,0
1553635440.541,-144.531,58.594,18.066,13.672,29.785,0
1553635440.545,-128.906,71.777,18.066,27.832,14.648,0
1553635440.549,-118.652,76.660,22.461,40.039,-15.625,0
1553635440.553,-125.000,62.012,34.180,49.316,22.461,0
1553635440.557,-123.535,58.594,16.602,19.043,36.133,0
1553635440.561,-119.629,62.988,14.160,14.160,29.785,0
1553635440.565,-118.652,68.848,38.086,44.922,19.531,0
1553635440.569,-124.023,62.500,41.992,49.316,31.738,0
1553635440.572,-142.578,41.504,29.785,29.785,20.020,0
1553635440.576,-142.090,26.367,32.227,34.180,8.789,0
1553635440.580,-135.254,12.695,36.621,34.180,28.809,0
1553635440.584,-124.023,-3.418,33.691,23.438,12.207,0
1553635440.588,-111.816,-15.625,33.691,23.438,52.246,0
1553635440.592,-137.207,-36.621,36.621,34.668,44.922,0
1553635440.596,-154.297,-50.293,43.457,41.992,22.461,0
1553635440.600,-136.230,-41.992,45.410,37.598,50.293,0
1553635440.604,-137.695,-31.738,38.574,21.484,41.016,0
1553635440.608,-132.324,-21.973,28.809,3.906,19.043,0
1553635440.612,-132.812,-35.156,38.574,18.555,36.621,0
1553635440.615,-139.648,-58.105,54.199,58.594,46.387,0
1553635440.619,-116.211,-55.176,50.293,66.406,12.207,0
1553635440.623,-129.883,-44.434,40.527,39.551,-13.672,0
1553635440.627,-138.672,-46.875,34.180,25.879,-4.883,0
1553635440.631,-114.746,-51.270,36.621,34.668,22.461,0
1553635440.635,-129.883,-56.641,41.992,37.109,29.297,0
1553635440.639,-136.230,-61.035,42.480,31.250,41.992,0
1553635440.643,-126.953,-59.082,42.480,27.344,55.176,0
1553635440.647,-134.766,-62.500,35.645,20.020,20.996,0
1553635440.651,-128.418,-52.734,34.180,12.695,19.043,0
1553635440.655,-137.695,-47.363,40.527,25.391,-11.719,0
1553635440.658,-150.879,-61.035,38.086,21.973,18.066,0
1553635440.662,-140.625,-65.918,31.250,8.789,43.457,0
1553635440.666,-124.023,-57.129,35.156,8.301,-3.418,0
1553635440.670,-143.555,-55.176,39.062,11.230,10.254,0
1553635440.674,-149.902,-66.895,41.504,22.949,47.363,0
1553635440.678,-139.648,-71.289,46.387,28.809,52.734,0
1553635440.682,-154.785,-60.059,47.852,10.742,37.598,0
1553635440.686,-143.555,-55.664,39.062,8.301,-10.254,0
1553635440.690,-122.559,-60.059,30.762,16.602,-43.457,0
1553635440.694,-144.043,-60.547,35.645,12.207,-29.297,0
1553635440.697,-168.945,-46.387,46.875,27.344,59.082,0
1553635440.701,-139.160,-47.852,44.434,30.762,77.148,0
1553635440.705,-126.465,-58.594,42.969,26.855,34.180,0
1553635440.709,-150.879,-49.316,48.828,31.738,19.043,0
1553635440.713,-156.250,-25.879,44.434,27.344,-10.742,0
1553635440.717,-141.113,-29.297,45.410,31.250,39.062,0
1553635440.721,-143.555,-35.645,44.434,32.715,33.691,0
1553635440.725,-147.461,-28.809,41.504,38.574,56.152,0
1553635440.729,-145.508,-26.855,39.062,28.809,133.301,0
1553635440.733,-145.020,-30.273,38.086,16.113,103.027,0
1553635440.737,-140.625,-27.832,37.109,16.602,55.176,0
1553635440.740,-136.230,-22.461,33.691,18.555,68.848,0
1553635440.744,-136.230,-18.066,33.691,20.508,18.066,0
1553635440.748,-144.043,-8.301,34.668,17.578,35.156,0
1553635440.752,-154.785,-21.973,35.645,19.531,42.969,0
1553635440.756,-158.203,-20.020,35.645,18.555,41.504,0
1553635440.760,-143.555,-7.324,29.785,28.320,52.734,0
1553635440.764,-157.715,-12.207,28.809,24.414,13.184,0
1553635440.768,-173.828,-7.812,33.691,19.043,54.199,0
1553635440.772,-166.504,-6.348,33.691,26.367,42.969,0
1553635440.776,-158.691,-5.859,34.668,37.109,14.160,0
1553635440.780,-154.297,1.465,36.133,28.320,45.410,0
1553635440.783,-146.973,-1.465,38.574,26.367,80.566,0
1553635440.787,-141.602,-8.301,36.621,39.551,23.438,0
1553635440.791,-149.902,1.953,31.738,35.156,-15.137,0
1553635440.795,-153.809,-4.883,33.691,25.879,8.789,0
1553635440.799,-135.254,-11.719,37.109,20.996,26.855,0
1553635440.803,-137.695,8.789,38.086,23.438,52.734,0
1553635440.807,-146.973,12.207,33.691,20.508,34.668,0
1553635440.811,-140.137,2.441,33.691,20.996,0.977,0
1553635440.815,-138.672,10.742,30.273,27.344,36.621,0
1553635440.819,-136.230,21.484,25.391,24.414,100.586,0
1553635440.822,-127.930,12.695,29.297,30.273,41.992,0
1553635440.826,-135.742,15.137,30.762,34.180,-11.719,0
1553635440.830,-151.367,12.695,31.250,26.855,23.926,0
1553635440.834,-141.602,7.324,30.273,23.438,36.133,0
1553635440.838,-124.512,14.648,30.273,26.855,59.570,0
1553635440.842,-125.977,9.277,34.668,31.738,11.719,0
1553635440.846,-122.559,13.184,39.062,35.156,13.672,0
1553635440.850,-120.605,33.203,39.062,46.387,11.230,0
1553635440.854,-123.535,27.344,36.621,40.039,-34.668,0
1553635440.858,-115.723,22.949,35.156,48.828,3.418,0
1553635440.862,-120.117,26.367,37.598,57.617,37.598,0
1553635440.865,-116.699,20.508,41.016,48.340,-10.742,0
1553635440.869,-111.328,20.020,38.086,42.480,27.344,0
1553635440.873,-118.652,16.602,36.133,44.922,72.754,0
1553635440.877,-111.328,15.625,31.738,39.062,58.105,0
1553635440.881,-123.535,17.578,28.809,39.062,80.078,0
1553635440.885,-126.953,11.719,33.691,36.133,43.457,0
1553635440.889,-118.164,4.883,37.109,23.438,-6.836,0
1553635440.893,-128.906,16.602,38.086,34.668,22.949,0
1553635440.897,-131.348,19.531,37.598,40.527,97.656,0
1553635440.901,-127.930,6.836,34.668,28.809,105.469,0
1553635440.905,-125.977,9.766,36.133,28.320,68.359,0
1553635440.908,-121.582,13.672,35.645,30.762,100.586,0
1553635440.912,-112.793,10.742,33.203,32.227,69.824,0
1553635440.916,-127.441,8.301,36.133,43.945,19.531,0
1553635440.920,-130.859,9.277,37.109,39.062,28.809,0
1553635440.924,-123.047,11.719,33.691,17.578,-6.348,0
1553635440.928,-116.699,14.648,32.715,16.602,-24.902,0
1553635440.932,-118.164,13.672,36.621,26.367,10.254,0
1553635440.936,-125.488,16.602,41.016,36.621,37.109,0
1553635440.940,-126.953,27.832,38.086,43.945,-5.371,0
1553635440.944,-134.277,26.367,34.180,32.227,54.688,0
1553635440.947,-126.465,21.973,31.250,21.484,96.680,0
1553635440.951,-124.023,23.926,31.738,23.926,-7.812,0
1553635440.955,-131.348,31.738,29.785,18.555,20.508,0
1553635440.959,-128.906,29.785,30.762,15.137,73.242,0
1553635440.963,-117.676,30.273,31.250,12.695,46.387,0
1553635440.967,-124.512,34.180,26.367,14.648,40.039,0
1553635440.971,-130.859,30.273,28.320,29.297,38.574,0
1553635440.975,-129.395,24.902,30.762,25.879,22.461,0
1553635440.979,-132.812,31.250,28.320,9.766,-5.371,0
1553635440.983,-121.582,56.152,27.344,11.719,53.711,0
1553635440.987,-123.535,49.316,29.297,28.809,86.914,0
1553635440.990,-131.348,29.297,29.785,32.715,52.246,0
1553635440.994,-132.324,31.250,31.250,21.973,3.418,0
1553635440.998,-132.812,40.039,32.715,23.926,4.395,0
1553635441.002,-127.441,46.875,27.344,14.648,-0.488,0
1553635441.006,-135.254,42.480,27.832,10.254,-6.836,0
1553635441.010,-139.160,41.504,29.297,15.625,62.988,0
1553635441.014,-127.441,48.340,30.762,17.090,59.082,0
1553635441.018,-128.418,60.059,35.156,12.207,23.438,0
1553635441.022,-144.531,52.734,32.715,6.348,30.762,0
1553635441.026,-151.855,48.828,26.367,-9.277,12.207,0
1553635441.030,-147.461,76.172,19.531,0.488,-31.738,0
1553635441.033,-157.715,89.355,6.836,18.066,9.766,0
1553635441.037,-151.855,91.797,-3.906,4.883,38.086,0
1553635441.041,-145.508,95.703,14.648,0.488,-12.695,0
1553635441.045,-174.805,98.633,45.410,-12.695,-5.371,0
1553635441.049,-208.984,103.027,39.062,-60.059,10.254,0
1553635441.053,-225.098,106.934,32.715,-90.820,20.996,0
1553635441.057,-252.441,99.609,36.133,-101.074,31.738,0
1553635441.061,-279.297,92.773,36.621,-121.582,-5.859,0
1553635441.065,-300.781,86.914,51.270,-134.766,20.996,0
1553635441.069,-321.289,64.453,59.082,-140.137,54.199,0
1553635441.072,-351.074,56.152,59.570,-164.062,48.340,0
1553635441.076,-364.258,43.457,67.871,-173.340,78.613,0
1553635441.080,-365.723,17.090,72.266,-167.480,35.156,0
1553635441.084,-366.211,-3.906,78.613,-174.316,0.488,0
1553635441.088,-359.375,-18.555,88.379,-169.922,15.137,0
1553635441.092,-357.910,-42.480,94.727,-148.926,20.020,0
1553635441.096,-345.215,-70.801,97.168,-149.414,34.180,0
1553635441.100,-350.098,-90.820,104.004,-141.113,19.043,0
1553635441.104,-345.703,-114.746,117.676,-100.586,43.945,0
1553635441.108,-314.941,-140.625,124.512,-65.430,40.527,0
1553635441.112,-298.828,-159.180,127.930,-51.270,-0.977,0
1553635441.115,-292.969,-182.129,134.766,-35.645,-34.180,0
1553635441.119,-268.555,-194.824,137.695,-14.648,-5.859,0
1553635441.123,-237.305,-201.660,132.812,-3.906,41.504,0
1553635441.127,-225.098,-213.379,128.906,12.695,24.414,0
1553635441.131,-223.633,-213.867,132.812,19.531,57.129,0
1553635441.135,-195.312,-214.355,133.789,23.926,59.570,0
1553635441.139,-179.199,-232.422,134.277,60.547,38.086,0
1553635441.143,-173.340,-235.840,136.230,82.520,26.367,0
1553635441.147,-140.137,-228.516,137.695,97.656,-27.344,0
1553635441.151,-122.070,-228.027,142.578,122.070,24.902,0
1553635441.155,-121.094,-230.957,139.648,132.812,61.523,0
1553635441.158,-110.352,-228.516,137.207,140.625,47.852,0
1553635441.162,-113.281,-225.586,138.184,137.695,51.270,0
1553635441.166,-95.703,-210.938,134.277,145.020,56.152,0
1553635441.170,-67.871,-196.289,125.977,155.273,56.152,0
1553635441.174,-67.383,-196.777,125.000,144.531,69.824,0
1553635441.178,-68.848,-173.828,116.699,140.137,44.434,0
1553635441.182,-63.477,-143.555,101.074,121.094,-12.695,0
1553635441.186,-60.059,-145.996,101.562,115.234,16.113,0
1553635441.190,-72.754,-145.996,100.098,131.836,52.734,0
1553635441.194,-81.055,-128.906,91.797,131.348,39.551,0
1553635441.197,-66.895,-116.699,89.355,130.371,2.441,0
1553635441.201,-49.805,-98.633,83.984,142.578,-24.902,0
1553635441.205,-71.289,-85.449,81.055,136.230,-11.719,0
1553635441.209,-79.590,-90.820,84.473,135.254,10.254,0
1553635441.213,-58.105,-73.242,77.148,124.023,50.781,0
1553635441.217,-47.363,-62.012,71.289,106.445,80.566,0
1553635441.221,-50.293,-62.012,68.848,112.305,51.758,0
1553635441.225,-59.570,-46.387,62.500,100.098,0.000,0
1553635441.229,-64.453,-39.551,60.059,87.402,25.879,0
1553635441.233,-60.547,-34.668,55.664,89.355,65.430,0
1553635441.237,-30.273,-29.297,52.246,100.098,6.348,0
1553635441.240,-45.898,-22.949,53.711,102.539,-9.766,0
1553635441.244,-75.195,-18.555,50.781,94.727,-8.301,0
1553635441.248,-58.105,-13.184,50.781,97.656,21.484,0
1553635441.252,-36.621,-5.859,50.293,100.586,26.367,0
1553635441.256,-40.039,5.859,46.875,98.145,-7.324,0
1553635441.260,-61.035,17.578,42.480,99.121,24.902,0
1553635441.264,-73.242,21.484,42.480,87.891,31.250,0
1553635441.268,-74.707,32.227,47.363,104.004,7.812,0
1553635441.272,-50.781,35.156,44.434,112.305,37.109,0
1553635441.276,-59.570,27.832,40.039,103.027,39.062,0
1553635441.280,-83.496,38.574,38.086,102.539,28.320,0
1553635441.283,-73.730,55.664,34.180,66.406,87.402,0
1553635441.287,-76.660,49.316,34.668,65.918,72.266,0
1553635441.291,-69.824,50.293,35.645,80.566,47.363,0
1553635441.295,-77.637,61.523,33.691,75.684,41.992,0
1553635441.299,-82.520,66.406,39.062,85.449,-10.254,0
1553635441.303,-76.172,72.754,35.645,80.566,-31.250,0
1553635441.307,-91.797,65.430,27.344,74.219,-18.066,0
1553635441.311,-93.750,64.941,31.738,84.961,-7.812,0
1553635441.315,-82.031,85.449,35.156,86.426,4.395,0
1553635441.319,-74.707,76.660,36.621,96.191,38.574,0
1553635441.322,-95.215,77.148,33.203,78.125,12.207,0
1553635441.326,-102.539,85.449,28.320,56.641,-53.711,0
1553635441.330,-87.891,88.379,25.879,65.918,3.418,0
1553635441.334,-85.938,84.961,24.902,71.777,70.801,0
1553635441.338,-101.562,77.637,32.227,92.285,59.570,0
1553635441.342,-115.234,82.031,35.645,92.773,34.180,0
1553635441.346,-106.934,84.961,31.250,70.801,68.359,0
1553635441.350,-108.398,82.031,28.320,62.988,40.039,0
1553635441.354,-111.328,83.984,28.320,64.941,-10.254,0
1553635441.358,-109.863,90.332,30.762,55.664,54.688,0
1553635441.362,-105.957,85.449,31.250,46.387,4.883,0
1553635441.365,-107.422,81.543,29.297,69.336,-13.184,0
1553635441.369,-105.469,83.984,25.879,78.613,35.645,0
1553635441.373,-106.445,91.797,26.367,74.219,-2.930,0
1553635441.377,-117.676,92.285,33.691,89.844,-21.484,0
1553635441.381,-109.863,98.633,34.180,76.172,15.625,0
1553635441.385,-103.027,107.910,29.297,83.008,63.477,0
1553635441.389,-116.699,99.609,34.180,103.027,90.332,0
1553635441.393,-127.441,91.797,44.434,99.121,18.555,0
1553635441.397,-134.766,83.008,48.340,92.773,-19.531,0
1553635441.401,-149.902,85.938,54.199,68.848,28.320,0
1553635441.405,-134.277,95.215,53.223,55.176,24.414,0
1553635441.408,-144.531,95.215,50.781,57.617,43.457,0
1553635441.412,-174.316,91.309,51.758,53.223,55.176,0
1553635441.416,-155.762,96.191,50.781,46.875,60.547,0
1553635441.420,-161.621,104.980,52.734,40.527,19.531,0
1553635441.424,-161.621,103.516,48.828,35.156,6.836,0
1553635441.428,-155.762,101.074,44.922,50.781,-0.488,0
1553635441.432,-183.594,108.887,47.852,76.660,18.555,0
1553635441.436,-173.340,104.004,47.363,72.266,29.297,0
1553635441.440,-167.480,92.773,46.875,71.777,15.137,0
1553635441.444,-179.688,79.590,51.270,65.918,23.438,0
1553635441.447,-171.387,76.660,45.898,74.219,13.672,0
1553635441.451,-173.340,83.496,45.898,82.031,25.391,0
1553635441.455,-189.453,80.078,53.223,67.383,-21.973,0
1553635441.459,-182.617,82.520,51.270,67.871,-14.648,0
1553635441.463,-183.594,96.680,46.875,83.008,43.457,0
1553635441.467,-185.547,100.586,43.457,83.984,55.176,0
1553635441.471,-182.129,89.355,45.898,75.684,54.199,0
1553635441.475,-207.520,96.191,51.270,81.543,66.406,0
1553635441.479,-216.309,116.211,52.734,84.473,85.938,0
1553635441.483,-217.285,127.441,50.781,76.660,102.051,0
1553635441.487,-211.426,139.160,46.875,68.848,51.270,0
1553635441.490,-193.848,155.762,41.016,77.637,27.832,0
1553635441.494,-204.102,171.875,41.992,82.031,5.859,0
1553635441.498,-214.355,181.152,48.340,72.754,40.527,0
1553635441.502,-211.914,177.734,45.898,78.125,59.570,0
1553635441.506,-236.328,179.688,47.852,90.332,0.000,0
1553635441.510,-236.816,198.242,48.340,80.078,82.031,0
1553635441.514,-206.543,194.336,44.434,82.520,102.051,0
1553635441.518,-212.891,190.430,41.992,98.633,1.953,0
1553635441.522,-235.840,206.055,42.969,83.496,-10.742,0
1553635441.526,-221.680,212.402,43.945,83.984,66.406,0
1553635441.530,-222.168,194.824,41.504,86.426,78.613,0
1553635441.533,-230.469,197.754,39.062,71.777,24.414,0
1553635441.537,-241.699,207.520,40.527,74.219,56.152,0
1553635441.541,-231.445,209.473,36.133,72.266,99.121,0
1553635441.545,-212.891,204.590,33.203,80.078,50.293,0
1553635441.549,-226.562,192.871,42.480,93.750,79.102,0
1553635441.553,-235.352,194.824,47.852,83.008,60.547,0
1553635441.557,-244.629,197.266,39.062,55.176,42.969,0
1553635441.561,-247.070,182.129,26.855,52.734,32.715,0
1553635441.565,-225.586,176.758,36.133,78.125,-16.113,0
1553635441.569,-234.863,187.988,43.945,73.242,5.859,0
1553635441.572,-247.070,176.758,38.574,76.172,31.250,0
1553635441.576,-243.164,166.992,35.645,66.406,17.090,0
1553635441.580,-248.047,175.781,36.621,54.688,20.508,0
1553635441.584,-242.676,171.875,38.086,68.359,40.527,0
1553635441.588,-240.234,169.434,32.715,68.359,-6.836,0
1553635441.592,-220.703,154.785,37.598,73.242,-24.414,0
1553635441.596,-197.266,148.438,46.387,103.516,49.316,0
1553635441.600,-204.590,174.805,34.668,92.773,106.445,0
1553635441.604,-222.656,179.688,22.461,45.898,46.875,0
1553635441.608,-226.074,187.012,19.531,42.480,18.066,0
1553635441.612,-213.379,213.867,11.719,60.059,111.816,0
1553635441.615,-209.961,215.332,6.348,60.547,104.980,0
1553635441.619,-220.215,214.355,-5.371,52.734,33.691,0
1553635441.623,-207.031,231.934,-15.137,59.082,30.273,0
1553635441.627,-208.496,235.840,-14.160,48.340,66.406,0
1553635441.631,-215.820,236.328,-17.090,44.922,80.566,0
1553635441.635,-205.566,253.906,-28.809,42.969,86.426,0
1553635441.639,-190.918,262.207,-39.551,18.555,81.055,0
1553635441.643,-177.246,274.902,-42.480,29.297,51.758,0
1553635441.647,-164.551,281.738,-39.551,62.012,62.500,0
1553635441.651,-166.504,268.555,-44.922,43.457,88.867,0
1553635441.655,-155.273,267.090,-43.945,41.016,75.684,0
1553635441.658,-166.016,264.160,-31.250,54.688,37.109,0
1553635441.662,-170.898,247.559,-29.785,44.434,53.711,0
1553635441.666,-176.758,237.793,-30.762,33.691,93.262,0
1553635441.670,-208.984,234.863,-26.855,39.551,62.988,0
1553635441.674,-199.707,228.027,-20.508,53.711,4.395,0
1553635441.678,-181.641,222.168,-18.066,33.691,25.391,0
1553635441.682,-191.406,209.961,-17.578,27.344,50.293,0
1553635441.686,-221.191,216.309,-23.438,11.230,27.832,0
1553635441.690,-226.562,218.262,-18.066,18.555,57.129,0
1553635441.694,-210.449,189.941,-1.465,59.082,77.637,0
1553635441.697,-209.473,189.453,-3.906,52.246,18.555,0
1553635441.701,-215.332,190.918,-11.719,19.043,26.855,0
1553635441.705,-208.008,174.316,-5.859,17.090,68.848,0
1553635441.709,-223.145,151.367,1.465,35.156,37.109,0
1553635441.713,-235.352,152.344,-1.465,22.461,31.250,0
1553635441.717,-216.797,159.668,2.930,28.320,49.316,0
1553635441.721,-223.145,150.391,5.859,42.480,26.367,0
1553635441.725,-237.305,139.648,5.859,30.762,27.832,0
1553635441.729,-225.586,132.812,10.254,18.555,71.777,0
1553635441.733,-210.938,148.926,4.883,11.719,24.414,0
1553635441.737,-209.473,152.344,6.836,25.879,7.812,0
1553635441.740,-206.055,128.418,17.578,39.551,7.812,0
1553635441.744,-229.004,125.000,19.531,35.645,-9.277,0
1553635441.748,-229.004,136.230,15.137,35.156,34.180,0
1553635441.752,-214.355,132.812,15.625,43.945,57.617,0
1553635441.756,-215.332,125.488,19.043,30.762,42.480,0
1553635441.760,-209.473,127.930,17.578,22.461,18.066,0
1553635441.764,-203.613,133.789,15.137,40.039,40.039,0
1553635441.768,-198.242,129.883,15.625,38.574,28.320,0
1553635441.772,-212.891,129.883,19.043,11.230,-15.625,0
1553635441.776,-225.586,139.160,18.066,5.859,19.531,0
1553635441.780,-231.934,134.766,14.160,19.043,46.387,0
1553635441.783,-229.004,127.441,20.020,21.973,46.387,0
1553635441.787,-223.633,116.699,22.461,2.441,40.527,0
1553635441.791,-232.910,118.164,19.531,10.742,-8.301,0
1553635441.795,-226.074,120.117,25.879,39.062,28.320,0
1553635441.799,-227.051,119.141,19.531,17.578,58.594,0
1553635441.803,-226.074,125.000,17.090,10.254,43.457,0
1553635441.807,-217.285,124.023,31.250,27.832,25.391,0
1553635441.811,-205.566,125.488,28.320,19.531,39.062,0
1553635441.815,-200.195,119.629,24.414,17.090,51.270,0
1553635441.819,-206.543,118.164,25.391,14.160,0.000,0
1553635441.822,-226.562,126.465,20.020,3.418,-17.090,0
1553635441.826,-238.281,132.324,16.602,2.930,0.977,0
1553635441.830,-227.051,125.488,19.531,8.789,-11.719,0
1553635441.834,-206.055,121.094,24.414,19.043,-3.418,0
1553635441.838,-197.754,127.441,26.367,9.277,19.043,0
1553635441.842,-221.680,122.559,22.949,4.395,18.555,0
1553635441.846,-223.633,122.559,17.090,3.906,17.090,0
1553635441.850,-209.473,128.906,18.555,-1.953,24.902,0
1553635441.854,-203.613,124.023,29.297,21.973,13.672,0
1553635441.858,-202.637,119.141,26.855,21.973,22.949,0
1553635441.862,-208.496,119.141,20.996,6.348,39.062,0
1553635441.865,-197.754,125.977,22.461,10.254,77.637,0
1553635441.869,-188.477,123.535,22.461,14.648,82.520,0
1553635441.873,-186.523,123.535,19.531,13.184,38.086,0
1553635441.877,-177.246,115.723,21.973,22.949,69.824,0
1553635441.881,-182.617,104.980,29.785,24.414,26.367,0
1553635441.885,-185.547,119.629,25.391,17.578,-22.461,0
1553635441.889,-177.246,119.629,22.461,20.020,25.879,0
1553635441.893,-174.316,114.746,22.461,8.301,-9.766,0
1553635441.897,-189.453,112.793,23.926,9.766,-69.336,0
1553635441.901,-190.918,113.281,25.391,25.879,-40.039,0
1553635441.905,-193.359,113.770,23.926,11.719,-17.578,0
1553635441.908,-195.801,108.398,25.391,11.719,26.855,0
1553635441.912,-179.688,103.516,24.414,45.898,53.223,0
1553635441.916,-190.430,108.887,24.902,33.203,18.066,0
1553635441.920,-195.312,105.957,23.438,8.789,21.973,0
1553635441.924,-179.199,97.168,20.996,10.254,61.523,0
1553635441.928,-185.059,114.258,21.484,13.672,27.344,0
1553635441.932,-194.824,108.887,28.320,32.227,-31.250,0
1553635441.936,-177.734,89.355,31.738,35.645,-22.461,0
1553635441.940,-174.805,93.262,31.250,38.574,23.438,0
1553635441.944,-192.383,104.980,34.668,42.480,13.672,0
1553635441.947,-193.359,107.422,29.785,25.391,-0.488,0
1553635441.951,-177.734,107.910,24.902,23.438,-33.203,0
1553635441.955,-171.387,112.305,25.391,27.344,-73.730,0
1553635441.959,-197.266,104.980,29.785,36.133,-42.480,0
1553635441.963,-206.543,101.562,32.715,38.086,2.441,0
1553635441.967,-183.105,97.656,24.902,18.555,-3.418,0
1553635441.971,-180.176,102.051,15.625,4.395,-19.531,0
1553635441.975,-189.941,113.281,19.531,14.160,29.297,0
1553635441.979,-187.012,102.051,31.250,37.598,94.238,0
1553635441.983,-192.383,97.168,32.715,43.945,31.250,0
1553635441.987,-200.684,106.934,26.367,25.879,42.480,0
1553635441.990,-211.426,103.516,24.414,27.344,73.242,0
1553635441.994,-200.195,90.820,23.926,37.109,38.574,0
1553635441.998,-196.289,94.238,28.320,38.086,17.090,0
1553635442.002,-190.430,105.469,31.738,44.434,-8.789,0
1553635442.006,-179.199,98.633,23.438,46.875,-3.418,0
1553635442.010,-196.777,88.379,19.531,36.621,14.160,0
1553635442.014,-208.008,89.844,24.902,18.066,51.758,0
1553635442.018,-193.848,94.727,28.320,20.996,29.785,0
1553635442.022,-187.988,86.426,27.344,37.598,35.645,0
1553635442.026,-195.801,70.801,28.809,36.133,35.645,0
1553635442.030,-191.895,80.566,28.320,27.832,2.441,0
1553635442.033,-201.660,91.797,32.227,45.898,71.289,0
1553635442.037,-204.102,80.566,34.180,48.340,69.824,0
1553635442.041,-181.152,85.938,20.508,11.230,29.785,0
1553635442.045,-178.711,91.309,18.066,20.508,-5.371,0
1553635442.049,-187.500,83.984,28.809,48.340,-35.645,0
1553635442.053,-189.941,79.590,30.762,35.645,-32.227,0
1553635442.057,-181.152,83.496,26.367,23.926,14.648,0
1553635442.061,-180.176,88.867,21.484,17.578,17.578,0
1553635442.065,-194.336,86.426,22.461,20.996,15.137,0
1553635442.069,-193.848,88.867,23.926,27.832,16.602,0
1553635442.072,-197.266,81.543,28.809,31.738,29.785,0
1553635442.076,-188.477,83.496,29.785,32.227,50.293,0
1553635442.080,-178.223,97.656,22.461,17.090,43.945,0
1553635442.084,-187.012,87.891,24.902,25.879,72.266,0
1553635442.088,-180.176,81.055,25.879,37.109,69.824,0
1553635442.092,-164.551,81.543,24.902,31.250,18.555,0
1553635442.096,-166.992,83.496,26.367,29.297,23.438,0
1553635442.100,-184.082,80.078,28.320,37.598,19.531,0
1553635442.104,-193.848,72.266,32.227,39.062,53.711,0
1553635442.108,-185.547,82.031,30.762,30.762,83.984,0
1553635442.112,-170.410,83.984,27.832,27.344,33.691,0
1553635442.115,-176.270,74.219,25.879,31.738,-6.348,0
1553635442.119,-185.059,80.078,19.043,21.484,8.789,0
1553635442.123,-170.898,82.520,17.578,10.742,16.602,0
1553635442.127,-163.086,72.754,23.438,25.391,21.973,0
1553635442.131,-169.922,72.754,22.461,33.203,25.391,0
1553635442.135,-174.316,74.219,22.461,15.625,31.250,0
1553635442.139,-177.246,74.219,22.461,5.371,15.625,0
1553635442.143,-179.199,75.195,19.531,14.160,62.988,0
1553635442.147,-174.805,65.430,21.484,16.602,84.473,0
1553635442.151,-180.664,72.266,18.555,16.602,39.062,0
1553635442.155,-193.359,84.473,19.043,21.484,75.684,0
1553635442.158,-205.078,70.801,25.879,20.020,81.543,0
1553635442.162,-191.895,59.082,28.809,22.461,38.086,0
1553635442.166,-181.152,67.383,30.273,35.645,22.461,0
1553635442.170,-178.711,72.266,23.926,37.598,8.301,0
1553635442.174,-170.410,68.848,19.043,17.578,39.551,0
1553635442.178,-180.664,67.383,24.902,15.137,31.250,0
1553635442.182,-173.340,65.430,29.785,38.574,-27.832,0
1553635442.186,-145.508,66.895,27.832,42.480,39.062,0
1553635442.190,-157.227,69.336,19.043,17.578,94.727,0
1553635442.194,-179.199,70.801,12.695,7.324,68.848,0
1553635442.197,-160.156,73.730,18.555,40.039,22.949,0
1553635442.201,-145.020,77.637,24.414,71.289,6.836,0
1553635442.205,-137.695,72.266,16.602,61.523,16.602,0
1553635442.209,-158.203,66.406,15.137,41.016,51.758,0
1553635442.213,-159.180,80.078,16.602,40.039,79.590,0
1553635442.217,-116.699,81.055,9.766,59.570,51.758,0
1553635442.221,-110.352,73.242,8.301,65.918,44.922,0
1553635442.225,-130.859,73.242,14.160,50.293,22.949,0
1553635442.229,-123.047,76.172,20.508,54.688,44.434,0
1553635442.233,-107.910,71.289,23.438,66.406,67.871,0
1553635442.237,-106.445,65.430,19.531,55.664,8.789,0
1553635442.240,-111.816,67.871,15.625,51.758,19.043,0
1553635442.244,-114.746,73.242,17.090,51.758,29.785,0
1553635442.248,-114.746,75.195,20.996,53.711,29.785,0
1553635442.252,-116.211,65.430,20.996,50.781,56.152,0
1553635442.256,-138.672,73.730,17.578,39.551,53.711,0
1553635442.260,-146.484,84.961,18.555,50.293,34.180,0
1553635442.264,-141.113,67.383,21.973,55.664,16.602,0
1553635442.268,-139.160,64.941,22.461,35.156,8.301,0
1553635442.272,-158.203,67.871,23.438,44.434,49.805,0
1553635442.276,-175.781,64.453,23.926,46.387,34.180,0
1553635442.280,-160.156,63.965,21.973,39.062,43.457,0
1553635442.283,-147.949,54.688,22.461,47.852,20.996,0
1553635442.287,-149.414,58.105,20.020,45.410,-56.641,0
1553635442.291,-162.109,70.312,18.066,43.945,-18.066,0
1553635442.295,-157.715,63.965,23.926,54.688,5.371,0
1553635442.299,-159.668,63.965,24.414,48.828,-16.602,0
1553635442.303,-184.082,69.336,25.391,34.180,-4.883,0
1553635442.307,-167.480,71.289,25.391,34.180,-28.320,0
1553635442.311,-140.625,69.336,19.531,34.180,-23.926,0
1553635442.315,-147.949,65.430,17.578,38.086,58.105,0
1553635442.319,-176.758,66.406,20.508,35.156,66.895,0
1553635442.322,-183.105,60.547,22.461,32.715,8.789,0
1553635442.326,-168.457,67.383,20.508,34.180,35.645,0
1553635442.330,-159.180,80.078,18.066,33.203,40.527,0
1553635442.334,-166.016,77.148,20.996,26.367,23.438,0
1553635442.338,-172.363,66.895,24.414,24.414,57.129,0
1553635442.342,-166.504,54.688,27.344,29.785,37.109,0
1553635442.346,-165.527,59.570,26.855,26.367,56.152,0
1553635442.350,-166.504,76.660,20.996,22.461,79.590,0
1553635442.354,-169.434,73.242,19.531,31.738,49.805,0
1553635442.358,-166.504,74.219,20.020,32.715,19.531,0
1553635442.362,-164.062,67.871,23.438,31.738,26.367,0
1553635442.365,-165.527,70.801,20.996,33.203,60.059,0
1553635442.369,-175.293,74.219,17.578,25.879,73.242,0
1553635442.373,-172.852,62.012,19.043,30.762,7.324,0
1553635442.377,-171.387,59.082,16.602,24.902,-18.555,0
1553635442.381,-176.270,63.965,18.066,16.113,36.133,0
1553635442.385,-168.457,61.523,20.996,16.113,0.000,0
1553635442.389,-151.367,54.688,19.043,7.324,7.812,0
1553635442.393,-162.598,62.500,18.066,12.207,32.715,0
1553635442.397,-179.688,63.965,20.508,25.391,10.254,0
1553635442.401,-167.480,55.176,21.484,21.484,56.641,0
1553635442.405,-156.250,51.270,20.996,21.484,33.203,0
1553635442.408,-165.527,59.082,22.461,23.438,30.273,0
1553635442.412,-168.945,54.199,25.879,22.461,55.664,0
1553635442.416,-187.988,49.316,27.344,28.809,49.805,0
1553635442.420,-189.941,54.199,20.996,16.113,68.359,0
1553635442.424,-161.621,50.781,20.996,19.043,29.785,0
1553635442.428,-173.828,53.711,23.438,30.762,46.875,0
1553635442.432,-174.805,49.316,21.973,18.066,30.273,0
1553635442.436,-166.016,53.711,24.414,5.371,-37.109,0
1553635442.440,-165.527,67.871,22.461,11.230,2.441,0
1553635442.444,-165.527,57.617,20.996,26.367,51.270,0
1553635442.447,-170.410,50.781,21.484,22.461,54.688,0
1553635442.451,-149.902,56.152,20.020,13.672,57.617,0
1553635442.455,-145.508,54.688,20.508,23.926,62.012,0
1553635442.459,-157.715,45.898,19.043,15.137,56.641,0
1553635442.463,-162.598,48.828,17.090,7.812,27.344,0
1553635442.467,-144.043,56.152,17.090,8.301,7.324,0
1553635442.471,-147.949,54.688,19.043,20.508,15.625,0
1553635442.475,-177.246,53.711,22.461,34.180,37.109,0
1553635442.479,-172.363,51.758,24.414,7.812,93.262,0
1553635442.483,-162.109,54.688,23.926,8.301,39.062,0
1553635442.487,-141.602,63.477,22.461,29.297,29.785,0
1553635442.490,-142.090,48.340,24.414,40.039,59.570,0
1553635442.494,-161.133,51.758,26.367,47.363,2.441,0
1553635442.498,-157.715,68.848,24.902,40.527,41.992,0
1553635442.502,-165.527,60.059,23.438,33.691,33.203,0
1553635442.506,-174.805,52.734,23.926,25.391,20.996,0
1553635442.510,-156.250,53.223,22.949,30.273,31.250,0
1553635442.514,-145.996,61.035,22.949,31.738,-28.320,0
1553635442.518,-168.457,62.500,25.879,36.621,17.578,0
1553635442.522,-167.969,46.875,23.926,32.715,50.293,0
1553635442.526,-167.969,56.641,23.438,11.230,5.859,0
1553635442.530,-177.734,68.848,28.320,23.438,2.441,0
1553635442.533,-169.922,56.152,29.785,19.043,15.625,0
1553635442.537,-151.367,54.199,24.414,13.672,-6.836,0
1553635442.541,-164.062,58.105,24.902,21.484,-8.301,0
1553635442.545,-170.410,58.594,27.832,34.180,-18.066,0
1553635442.549,-171.875,60.547,26.367,31.250,-54.688,0
1553635442.553,-167.480,66.406,25.391,6.836,6.836,0
1553635442.557,-158.203,60.059,23.438,12.207,50.781,0
1553635442.561,-160.645,56.152,19.531,25.391,5.371,0
1553635442.565,-161.133,64.453,16.113,31.738,9.277,0
1553635442.569,-146.973,62.500,12.695,26.855,8.301,0
1553635442.572,-133.789,68.359,8.301,22.461,22.461,0
1553635442.576,-134.766,65.430,20.996,32.227,62.500,0
1553635442.580,-150.391,48.828,41.992,33.691,53.223,0
1553635442.584,-169.922,41.504,44.922,25.391,110.352,0
1553635442.588,-173.340,37.109,45.410,24.902,82.520,0
1553635442.592,-187.500,13.672,53.711,22.461,-4.395,0
1553635442.596,-207.520,-0.488,60.059,-3.906,-0.488,0
1553635442.600,-223.633,-4.883,62.012,-21.973,34.668,0
1553635442.604,-227.539,-13.184,62.012,-30.273,18.066,0
1553635442.608,-235.840,-27.344,70.801,-35.645,16.602,0
1553635442.612,-266.113,-42.969,80.078,-43.457,-1.953,0
1553635442.615,-280.762,-42.969,85.449,-56.641,-47.363,0
1553635442.619,-287.109,-46.875,89.355,-56.641,-17.090,0
1553635442.623,-294.922,-53.711,92.773,-58.594,3.906,0
1553635442.627,-301.270,-67.383,90.820,-67.871,-9.766,0
1553635442.631,-297.852,-61.035,90.332,-70.312,29.785,0
1553635442.635,-308.105,-50.781,92.285,-95.215,25.879,0
1553635442.639,-307.617,-68.359,96.191,-87.891,-23.438,0
1553635442.643,-297.363,-74.707,99.609,-69.824,14.160,0
1553635442.647,-277.832,-71.777,97.168,-61.035,55.664,0
1553635442.651,-282.715,-74.707,97.656,-41.992,22.949,0
1553635442.655,-293.945,-72.754,92.285,-33.691,41.016,0
1553635442.658,-271.973,-72.754,82.520,-36.133,52.734,0
1553635442.662,-231.934,-64.453,80.566,-31.738,-19.531,0
1553635442.666,-209.473,-44.434,77.637,-13.672,27.832,0
1553635442.670,-227.051,-46.875,71.777,-7.812,19.531,0
1553635442.674,-241.211,-52.734,71.289,-0.488,-18.066,0
1553635442.678,-222.656,-34.180,65.918,10.742,18.066,0
1553635442.682,-208.496,-22.949,57.617,15.625,13.672,0
1553635442.686,-191.895,-28.320,53.223,9.277,77.637,0
1553635442.690,-184.082,-26.367,56.152,27.832,52.246,0
1553635442.694,-170.898,-11.719,54.688,39.551,-5.859,0
1553635442.697,-178.711,-9.277,49.316,17.090,30.762,0
1553635442.701,-185.547,-9.766,49.805,21.484,5.859,0
1553635442.705,-165.527,-6.836,47.852,41.016,16.602,0
1553635442.709,-167.480,-8.789,46.875,33.691,60.059,0
1553635442.713,-163.086,-0.488,47.852,42.480,33.691,0
1553635442.717,-173.828,0.977,44.434,62.012,36.621,0
1553635442.721,-182.129,4.395,38.086,42.969,25.879,0
1553635442.725,-159.180,21.484,35.645,30.762,25.391,0
1553635442.729,-153.809,17.578,38.574,52.246,62.500,0
1553635442.733,-156.250,15.137,39.551,56.152,25.391,0
1553635442.737,-149.414,19.531,42.480,48.340,27.832,0
1553635442.740,-144.531,19.043,43.945,64.453,51.270,0
1553635442.744,-146.973,14.160,42.969,52.734,47.363,0
1553635442.748,-169.922,20.508,43.457,37.109,73.242,0
1553635442.752,-167.480,23.926,40.527,42.969,37.598,0
1553635442.756,-157.227,23.926,38.574,41.504,37.109,0
1553635442.760,-152.832,23.438,37.598,48.340,58.594,0
1553635442.764,-148.438,19.043,35.645,56.641,5.859,0
1553635442.768,-160.156,34.668,37.109,51.758,48.340,0
1553635442.772,-164.062,39.551,38.574,49.805,76.172,0
1553635442.776,-165.527,28.809,33.203,57.129,69.824,0
1553635442.780,-164.551,35.156,29.297,54.199,60.059,0
1553635442.783,-161.133,41.504,34.180,40.527,85.449,0
1553635442.787,-156.738,27.832,37.598,43.945,63.965,0
1553635442.791,-153.320,22.461,34.668,51.758,20.020,0
1553635442.795,-163.574,32.227,34.180,55.664,46.387,0
1553635442.799,-175.781,38.086,31.250,43.945,6.836,0
1553635442.803,-153.809,40.039,31.250,39.551,-20.020,0
1553635442.807,-141.602,32.715,34.668,51.270,45.898,0
1553635442.811,-159.180,37.109,32.715,46.387,38.574,0
1553635442.815,-154.785,48.340,33.691,54.688,18.555,0
1553635442.819,-153.320,40.527,31.250,53.711,-4.883,0
1553635442.822,-153.320,44.434,25.391,30.762,-14.160,0
1553635442.826,-150.879,46.875,30.762,38.086,38.086,0
1553635442.830,-165.039,43.457,33.203,54.199,53.711,0
1553635442.834,-176.758,45.898,32.227,47.363,47.852,0
1553635442.838,-158.203,43.945,34.180,46.875,74.219,0
1553635442.842,-155.273,47.363,32.227,46.387,22.949,0
1553635442.846,-168.457,45.410,30.762,46.875,11.719,0
1553635442.850,-176.758,39.062,31.250,52.246,41.504,0
1553635442.854,-163.086,39.551,33.203,33.203,75.195,0
1553635442.858,-153.809,44.434,28.320,13.184,47.363,0
1553635442.862,-152.344,49.805,22.949,25.391,20.020,0
1553635442.865,-153.320,45.410,27.344,42.480,46.387,0
1553635442.869,-154.785,48.340,25.391,40.527,8.301,0
1553635442.873,-142.090,46.875,21.973,35.645,39.551,0
1553635442.877,-137.207,39.551,25.391,37.109,53.223,0
1553635442.881,-151.855,41.016,28.320,28.320,28.809,0
1553635442.885,-154.785,47.852,27.344,34.180,46.387,0
1553635442.889,-141.113,45.898,27.832,30.762,34.180,0
1553635442.893,-140.625,41.504,27.832,31.738,13.672,0
1553635442.897,-150.391,38.574,26.367,26.855,45.898,0
1553635442.901,-164.551,41.504,28.809,11.719,54.688,0
1553635442.905,-147.949,51.758,30.762,28.320,43.945,0
1553635442.908,-151.855,53.711,32.227,33.203,81.055,0
1553635442.912,-161.621,45.410,30.762,13.184,40.527,0
1553635442.916,-126.953,51.758,21.973,16.602,7.324,0
1553635442.920,-126.465,54.199,22.949,18.066,40.527,0
1553635442.924,-147.461,41.504,34.668,26.367,4.883,0
1553635442.928,-141.602,36.133,40.039,38.086,51.270,0
1553635442.932,-126.465,36.133,36.621,26.367,70.312,0
1553635442.936,-113.281,32.227,35.645,35.645,1.465,0
1553635442.940,-108.398,20.020,42.480,71.289,-25.879,0
1553635442.944,-92.285,10.742,46.387,91.309,18.066,0
1553635442.947,-80.566,12.695,47.363,99.121,10.742,0
1553635442.951,-67.871,22.461,44.434,123.535,3.418,0
1553635442.955,-39.551,7.324,45.410,134.766,41.504,0
1553635442.959,-33.691,2.441,47.363,138.672,37.598,0
1553635442.963,-29.297,23.926,47.363,165.527,46.387,0
1553635442.967,-7.812,22.461,43.945,154.785,36.621,0
1553635442.971,11.719,12.695,41.016,167.480,25.391,0
1553635442.975,30.273,19.531,44.922,202.637,14.648,0
1553635442.979,40.527,31.250,50.293,226.562,0.488,0
1553635442.983,52.734,35.645,50.293,245.605,-12.695,0
1553635442.987,75.684,31.250,46.875,228.516,-12.695,0
1553635442.990,50.293,30.762,46.875,219.727,-41.016,0
1553635442.994,51.270,45.410,45.898,238.281,-17.090,0
1553635442.998,77.148,53.711,46.387,264.160,37.598,0
1553635443.002,94.238,45.410,44.922,264.160,24.414,0
1553635443.006,78.613,49.805,42.480,243.652,10.742,0
1553635443.010,46.387,64.941,41.016,252.930,46.387,0
1553635443.014,67.871,54.199,42.969,259.766,34.180,0
1553635443.018,78.125,52.246,42.480,243.164,-6.348,0
1553635443.022,62.500,60.547,38.086,234.863,15.625,0
1553635443.026,36.133,58.594,34.180,219.238,15.137,0
1553635443.030,14.160,57.129,33.691,215.332,27.832,0
1553635443.033,10.742,56.641,34.668,219.727,38.574,0
1553635443.037,-3.906,54.688,35.156,215.332,-26.367,0
1553635443.041,-16.602,63.965,34.668,198.242,17.090,0
1553635443.045,-12.695,58.105,33.691,171.387,69.336,0
1553635443.049,-22.461,44.922,37.598,151.855,53.711,0
1553635443.053,-40.039,60.547,39.551,150.879,24.902,0
1553635443.057,-46.875,62.012,37.109,160.645,47.852,0
1553635443.061,-67.383,51.270,39.551,161.133,89.844,0
1553635443.065,-75.195,58.594,37.598,161.133,67.871,0
1553635443.069,-72.754,68.359,33.691,146.484,57.617,0
1553635443.072,-83.496,58.105,36.621,131.348,24.902,0
1553635443.076,-87.402,58.105,37.109,122.559,29.297,0
1553635443.080,-96.680,64.941,32.715,120.605,23.926,0
1553635443.084,-111.816,62.500,32.227,118.164,21.484,0
1553635443.088,-120.117,62.500,33.691,117.676,19.531,0
1553635443.092,-118.164,55.176,32.715,107.422,15.137,0
1553635443.096,-109.375,58.594,33.203,112.793,-10.742,0
1553635443.100,-124.512,72.266,33.691,113.770,-43.457,0
1553635443.104,-151.367,64.453,35.156,114.258,-35.156,0
1553635443.108,-151.855,64.453,35.156,109.863,-54.688,0
1553635443.112,-145.996,76.172,33.203,97.168,-2.441,0
1553635443.115,-144.531,72.754,34.180,98.145,4.395,0
1553635443.119,-157.227,68.359,34.180,94.238,-8.301,0
1553635443.123,-186.035,69.824,34.668,97.656,-10.254,0
1553635443.127,-188.477,70.801,36.621,94.238,6.836,0
1553635443.131,-176.758,71.289,35.156,80.078,32.715,0
1553635443.135,-175.293,74.219,32.227,81.055,79.590,0
1553635443.139,-166.992,67.383,39.062,86.914,68.359,0
1553635443.143,-183.105,77.148,42.480,68.848,45.898,0
1553635443.147,-187.012,80.566,38.086,72.266,57.129,0
1553635443.151,-175.293,69.336,39.062,67.383,70.801,0
1553635443.155,-182.617,67.383,39.062,47.852,98.633,0
1553635443.158,-180.176,72.754,40.039,74.219,78.613,0
1553635443.162,-180.176,76.172,38.574,88.867,55.664,0
1553635443.166,-194.336,72.266,38.574,97.656,62.988,0
1553635443.170,-177.734,76.172,37.109,96.680,49.316,0
1553635443.174,-181.152,79.590,35.156,74.219,6.348,0
1553635443.178,-202.637,79.590,34.668,76.172,40.039,0
1553635443.182,-198.242,73.730,36.133,86.426,62.988,0
1553635443.186,-186.035,78.613,34.668,90.820,27.344,0
1553635443.190,-176.270,88.867,33.691,77.637,27.344,0
1553635443.194,-188.965,80.078,36.133,74.707,-7.324,0
1553635443.197,-187.988,83.984,35.645,75.195,-19.531,0
1553635443.201,-199.707,87.402,34.180,61.035,-5.859,0
1553635443.205,-213.379,83.008,35.645,66.406,16.602,0
1553635443.209,-190.918,79.102,35.645,70.312,49.805,0
1553635443.213,-193.359,78.125,31.738,54.199,75.195,0
1553635443.217,-199.219,79.102,29.785,44.922,96.191,0
1553635443.221,-204.590,67.871,30.273,45.410,26.367,0
1553635443.225,-196.777,64.453,33.203,46.875,-46.387,0
1553635443.229,-179.688,71.777,35.156,43.457,12.207,0
1553635443.233,-190.918,86.426,30.273,39.551,18.555,0
1553635443.237,-210.938,87.402,29.785,38.574,-2.930,0
1553635443.240,-203.125,74.219,31.250,46.387,-4.395,0
1553635443.244,-194.824,74.707,30.273,43.457,44.922,0
1553635443.248,-191.895,79.590,33.203,46.875,72.266,0
1553635443.252,-192.871,68.848,34.668,56.152,44.922,0
1553635443.256,-198.730,68.848,35.645,56.152,8.789,0
1553635443.260,-185.547,82.520,34.668,53.223,4.395,0
1553635443.264,-183.594,81.543,33.203,48.340,-33.691,0
1553635443.268,-196.289,83.008,34.180,58.594,-5.859,0
1553635443.272,-192.383,69.336,34.180,72.754,22.461,0
1553635443.276,-184.082,74.707,35.645,54.199,-33.691,0
1553635443.280,-194.824,92.773,33.691,40.527,-1.953,0
1553635443.283,-198.730,87.402,35.156,55.664,13.672,0
1553635443.287,-205.566,86.914,39.551,50.293,-15.137,0
1553635443.291,-212.402,89.844,35.645,25.391,-21.484,0
1553635443.295,-195.312,89.844,36.133,43.457,8.301,0
1553635443.299,-185.059,89.844,36.133,44.434,40.527,0
1553635443.303,-191.406,88.379,31.250,41.016,2.930,0
1553635443.307,-189.453,87.402,33.203,34.668,26.367,0
1553635443.311,-179.199,81.543,34.180,47.363,15.625,0
1553635443.315,-193.359,83.496,32.227,59.082,9.277,0
1553635443.319,-206.055,86.914,32.715,46.387,66.895,0
1553635443.322,-197.266,91.309,29.785,38.574,28.320,0
1553635443.326,-199.707,96.680,28.320,37.598,49.316,0
1553635443.330,-176.270,88.867,28.320,31.250,73.242,0
1553635443.334,-181.152,87.402,27.832,26.367,95.215,0
1553635443.338,-201.660,92.285,30.762,39.062,94.727,0
1553635443.342,-188.477,83.496,33.691,54.199,36.133,0
1553635443.346,-197.754,82.520,32.715,55.664,17.578,0
1553635443.350,-191.895,87.891,32.227,29.785,66.406,0
1553635443.354,-184.082,87.891,31.250,44.434,95.703,0
1553635443.358,-192.871,88.379,32.715,54.199,110.352,0
1553635443.362,-198.730,82.031,37.109,34.668,89.355,0
1553635443.365,-201.660,85.449,35.645,31.738,81.055,0
1553635443.369,-200.684,87.891,33.691,22.949,84.473,0
1553635443.373,-195.312,86.914,32.715,29.297,46.875,0
1553635443.377,-184.082,79.590,35.645,40.039,24.902,0
1553635443.381,-194.824,80.078,38.086,32.715,21.973,0
1553635443.385,-216.797,92.773,33.203,31.250,24.414,0
1553635443.389,-210.938,83.984,31.250,39.062,38.086,0
1553635443.393,-181.152,85.938,34.668,38.086,12.695,0
1553635443.397,-184.570,87.891,31.738,32.227,23.926,0
1553635443.401,-199.219,84.473,29.785,32.715,-22.461,0
1553635443.405,-209.961,91.797,31.738,44.434,-48.828,0
1553635443.408,-211.914,89.355,30.762,32.715,52.734,0
1553635443.412,-193.359,93.262,29.785,26.855,-1.953,0
1553635443.416,-179.688,100.098,33.203,29.297,-38.086,0
1553635443.420,-190.918,88.867,33.203,11.230,3.906,0
1553635443.424,-207.520,75.684,32.227,25.391,8.789,0
1553635443.428,-198.730,82.520,34.180,35.645,86.426,0
1553635443.432,-181.152,87.891,28.320,45.410,91.797,0
1553635443.436,-186.523,80.566,24.414,39.551,44.434,0
1553635443.440,-202.148,80.078,29.297,26.855,17.090,0
1553635443.444,-202.148,85.449,29.785,16.113,12.207,0
1553635443.447,-205.078,80.078,27.832,6.348,69.336,0
1553635443.451,-214.844,69.824,27.344,7.324,40.039,0
1553635443.455,-209.961,65.430,27.832,24.414,-45.898,0
1553635443.459,-195.801,64.453,25.879,25.391,8.301,0
1553635443.463,-178.711,70.801,24.902,-7.324,56.641,0
1553635443.467,-177.734,64.941,24.414,3.906,77.637,0
1553635443.471,-193.848,65.918,25.391,17.090,92.285,0
1553635443.475,-196.289,72.754,25.391,19.531,79.590,0
1553635443.479,-187.500,60.547,23.438,25.879,48.340,0
1553635443.483,-186.035,61.523,24.902,21.973,17.578,0
1553635443.487,-180.664,62.500,25.879,18.555,15.137,0
1553635443.490,-176.758,54.688,25.879,5.859,56.641,0
1553635443.494,-179.688,50.781,26.367,22.949,21.484,0
1553635443.498,-183.105,59.082,25.879,32.715,-17.578,0
1553635443.502,-188.965,59.570,26.367,14.648,-13.184,0
1553635443.506,-187.988,56.641,28.809,21.484,27.344,0
1553635443.510,-187.988,54.199,35.645,45.410,99.121,0
1553635443.514,-187.500,50.781,35.645,32.715,81.055,0
1553635443.518,-172.852,63.477,30.762,19.531,82.031,0
1553635443.522,-166.016,60.059,33.691,35.156,83.008,0
1553635443.526,-176.758,46.875,35.645,23.438,39.551,0
1553635443.530,-171.387,52.246,34.668,11.230,-0.488,0
1553635443.533,-178.223,64.941,33.691,18.555,16.113,0
1553635443.537,-186.035,57.617,33.691,25.879,42.480,0
1553635443.541,-171.875,51.758,34.180,32.227,26.855,0
1553635443.545,-162.109,59.082,30.762,27.832,24.414,0
1553635443.549,-158.691,52.734,31.250,18.066,58.105,0
1553635443.553,-170.898,55.664,31.250,25.391,50.293,0
1553635443.557,-176.758,55.176,32.715,51.758,33.203,0
1553635443.561,-180.176,56.152,36.133,32.715,22.461,0
1553635443.565,-166.992,73.242,36.133,-3.906,-0.488,0
1553635443.569,-147.461,65.918,38.086,27.832,33.203,0
1553635443.572,-162.109,56.641,35.645,39.062,33.691,0
1553635443.576,-167.480,60.059,30.273,28.809,8.301,0
1553635443.580,-160.645,62.012,32.715,35.645,84.473,0
1553635443.584,-163.574,57.617,30.273,28.809,68.848,0
1553635443.588,-172.363,54.688,27.344,22.461,3.418,0
1553635443.592,-160.156,56.641,31.738,33.691,-31.738,0
1553635443.596,-157.227,61.523,34.668,39.062,-15.625,0
1553635443.600,-173.828,56.152,35.156,25.879,53.711,0
1553635443.604,-179.688,51.270,34.180,26.855,31.250,0
1553635443.608,-165.527,60.547,34.180,32.715,-3.906,0
1553635443.612,-152.832,62.012,35.645,36.133,8.789,0
1553635443.615,-162.598,54.199,36.621,35.156,4.883,0
1553635443.619,-152.344,54.688,37.109,36.621,-22.949,0
1553635443.623,-151.367,61.523,31.738,32.715,21.973,0
1553635443.627,-158.203,59.570,27.832,26.855,40.527,0
1553635443.631,-147.949,55.176,31.738,20.508,55.176,0
1553635443.635,-163.086,61.523,31.738,26.367,69.336,0
1553635443.639,-169.434,64.453,30.762,34.668,42.480,0
1553635443.643,-162.598,58.105,32.227,40.527,48.340,0
1553635443.647,-160.645,46.875,31.738,26.367,92.285,0
1553635443.651,-163.086,53.223,28.809,14.648,32.715,0
1553635443.655,-146.484,62.988,27.344,27.344,13.184,0
1553635443.658,-138.672,47.852,30.273,46.875,36.621,0
1553635443.662,-161.621,49.805,34.668,32.227,-14.648,0
1553635443.666,-181.641,59.082,37.109,10.254,33.203,0
1553635443.670,-208.496,57.129,32.227,-31.738,76.660,0
1553635443.674,-236.328,51.270,31.250,-63.477,21.484,0
1553635443.678,-260.254,53.223,32.227,-82.520,2.930,0
1553635443.682,-302.246,61.523,29.785,-113.281,14.160,0
1553635443.686,-313.477,62.500,27.344,-127.441,31.738,0
1553635443.690,-334.473,61.035,24.902,-155.273,61.523,0
1553635443.694,-358.887,59.082,23.438,-179.199,64.453,0
1553635443.697,-377.930,63.965,23.438,-187.012,41.016,0
1553635443.701,-384.277,68.359,20.996,-200.684,51.270,0
1553635443.705,-370.605,55.176,19.531,-202.148,34.668,0
1553635443.709,-386.230,50.293,22.461,-198.242,5.371,0
1553635443.713,-371.094,64.941,22.461,-192.871,10.254,0
1553635443.717,-326.660,66.406,19.043,-175.293,-3.418,0
1553635443.721,-319.824,56.641,22.949,-153.809,7.324,0
1553635443.725,-324.707,56.152,23.926,-134.766,18.066,0
1553635443.729,-314.453,66.406,21.484,-120.605,19.531,0
1553635443.733,-297.363,70.312,23.926,-115.723,59.082,0
1553635443.737,-287.598,63.965,22.949,-112.305,74.219,0
1553635443.740,-273.926,60.547,19.043,-98.145,78.613,0
1553635443.744,-257.324,64.453,20.020,-87.891,60.059,0
1553635443.748,-254.395,71.777,20.508,-82.520,36.621,0
1553635443.752,-255.371,61.523,20.508,-88.867,7.812,0
1553635443.756,-243.164,63.477,21.484,-85.449,-8.301,0
1553635443.760,-232.910,79.102,23.926,-58.105,49.316,0
1553635443.764,-224.609,69.336,22.949,-51.270,64.453,0
1553635443.768,-226.074,64.941,24.414,-45.410,83.984,0
1553635443.772,-231.445,67.871,27.344,-28.809,3.906,0
1553635443.776,-214.355,72.266,27.344,-29.785,-5.859,0
1553635443.780,-189.941,68.848,28.809,-14.648,71.289,0
1553635443.783,-193.848,65.918,30.273,-6.836,26.855,0
1553635443.787,-200.684,68.848,25.879,-24.414,26.367,0
1553635443.791,-192.871,66.406,27.344,-13.672,36.133,0
1553635443.795,-199.219,66.895,28.809,2.441,46.387,0
1553635443.799,-186.035,62.500,30.273,4.395,32.227,0
1553635443.803,-165.039,68.848,33.691,5.371,-5.371,0
1553635443.807,-173.828,69.336,34.180,12.207,-10.254,0
1553635443.811,-183.105,58.105,34.668,33.691,39.551,0
1553635443.815,-167.969,63.965,32.715,22.461,56.152,0
1553635443.819,-164.062,70.312,30.762,26.367,1.953,0
1553635443.822,-159.668,65.918,29.785,21.973,14.160,0
1553635443.826,-151.855,61.523,31.250,2.441,20.020,0
1553635443.830,-163.574,62.500,35.156,21.973,11.230,0
1553635443.834,-167.969,62.012,32.715,26.855,49.316,0
1553635443.838,-166.992,62.012,30.273,28.320,53.711,0
1553635443.842,-158.691,56.152,29.297,32.715,44.434,0
1553635443.846,-159.668,57.129,28.320,5.859,37.109,0
1553635443.850,-154.297,71.777,30.762,1.465,17.578,0
1553635443.854,-151.855,65.430,36.621,25.879,78.613,0
1553635443.858,-154.785,61.035,37.598,32.715,68.359,0
1553635443.862,-151.367,71.289,34.180,30.273,15.625,0
1553635443.865,-163.574,74.219,30.762,29.785,-37.598,0
1553635443.869,-150.879,74.219,29.785,39.551,-22.949,0
1553635443.873,-134.766,70.312,31.250,41.016,45.898,0
1553635443.877,-140.137,70.312,31.738,46.387,43.945,0
1553635443.881,-144.531,72.266,31.250,57.129,25.879,0
1553635443.885,-128.418,68.359,34.180,64.941,4.883,0
1553635443.889,-117.676,54.688,36.621,66.406,16.602,0
1553635443.893,-137.695,54.688,36.621,46.875,34.180,0
1553635443.897,-143.555,59.082,34.180,32.715,71.289,0
1553635443.901,-155.762,50.293,32.227,18.066,27.344,0
1553635443.905,-181.152,43.945,34.668,10.742,-61.035,0
1553635443.908,-194.824,51.270,32.715,-4.883,-33.691,0
1553635443.912,-180.176,52.734,31.738,-4.395,-35.645,0
1553635443.916,-175.293,49.805,31.250,4.395,-20.020,0
1553635443.920,-190.430,49.805,34.668,4.883,74.219,0
1553635443.924,-175.293,45.898,36.133,18.555,59.570,0
1553635443.928,-158.691,45.898,32.227,9.766,13.672,0
1553635443.932,-168.457,41.992,35.156,13.184,6.836,0
1553635443.936,-177.246,51.758,32.715,25.391,22.461,0
1553635443.940,-172.363,60.547,31.250,17.578,0.000,0
1553635443.944,-171.387,51.758,30.762,15.625,8.789,0
1553635443.947,-176.758,50.293,30.273,16.602,71.777,0
1553635443.951,-169.922,48.340,32.227,15.137,62.500,0
1553635443.955,-169.922,47.363,35.156,32.227,49.316,0
1553635443.959,-168.457,48.340,36.621,24.902,13.184,0
1553635443.963,-166.016,49.316,33.691,10.254,17.090,0
1553635443.967,-160.156,52.246,31.738,34.668,35.645,0
1553635443.971,-148.438,54.688,32.715,36.621,1.953,0
1553635443.975,-147.949,50.293,33.203,25.879,-7.324,0
1553635443.979,-166.016,44.922,34.180,31.250,28.809,0
1553635443.983,-156.738,56.152,32.715,20.996,86.426,0
1553635443.987,-155.762,58.594,30.762,12.207,61.523,0
1553635443.990,-151.367,45.410,31.738,14.160,29.785,0
1553635443.994,-143.555,48.828,36.133,31.250,42.480,0
1553635443.998,-138.184,55.176,34.668,36.621,56.641,0
1553635444.002,-134.766,51.758,31.250,30.762,-21.973,0
1553635444.006,-142.090,53.711,32.715,39.062,-35.645,0
1553635444.010,-145.020,53.711,32.715,39.551,20.020,0
1553635444.014,-135.254,50.781,34.668,39.062,-5.371,0
1553635444.018,-138.184,51.270,31.250,25.879,-11.719,0
1553635444.022,-162.598,39.551,30.762,26.855,17.090,0
1553635444.026,-149.902,41.016,36.621,44.922,35.645,0
1553635444.030,-140.625,55.664,34.180,37.109,60.059,0
1553635444.033,-150.879,51.758,34.668,29.785,75.684,0
1553635444.037,-156.250,43.457,35.645,31.250,48.828,0
1553635444.041,-147.949,50.781,40.039,37.109,5.859,0
1553635444.045,-140.137,55.176,38.574,31.738,32.715,0
1553635444.049,-136.230,49.805,32.715,34.668,17.578,0
1553635444.053,-147.461,50.293,34.180,51.270,37.109,0
1553635444.057,-147.461,52.246,34.668,56.641,63.965,0
1553635444.061,-114.746,54.688,28.809,35.645,80.078,0
1553635444.065,-130.371,46.387,29.297,28.809,37.598,0
1553635444.069,-158.203,44.434,33.203,35.156,-18.066,0
1553635444.072,-141.113,55.176,34.180,27.832,23.926,0
1553635444.076,-127.441,59.570,30.762,23.438,26.855,0
1553635444.080,-132.324,49.316,31.738,21.973,16.113,0
1553635444.084,-139.160,43.457,34.180,31.250,14.648,0
1553635444.088,-131.348,56.641,33.203,29.297,-8.301,0
1553635444.092,-127.930,56.152,30.273,18.555,-12.695,0
1553635444.096,-144.531,43.945,26.855,2.930,12.207,0
1553635444.100,-151.855,46.387,24.902,6.348,-1.465,0
1553635444.104,-151.855,51.758,25.879,14.648,-4.395,0
1553635444.108,-139.648,40.527,25.879,21.484,13.672,0
1553635444.112,-136.719,37.598,23.926,26.367,62.988,0
1553635444.115,-142.578,35.156,28.320,25.391,59.570,0
1553635444.119,-139.648,36.621,29.297,38.086,9.277,0
1553635444.123,-132.812,38.086,27.832,33.691,17.578,0
1553635444.127,-134.277,26.855,32.227,30.273,19.043,0
1553635444.131,-145.996,36.133,31.738,35.156,66.406,0
1553635444.135,-143.555,46.387,28.320,44.434,38.086,0
1553635444.139,-129.395,35.645,27.344,42.969,-20.508,0
1553635444.143,-146.973,29.297,28.320,26.367,8.789,0
1553635444.147,-144.531,31.250,30.762,39.551,2.930,0
1553635444.151,-125.488,35.645,28.809,41.992,39.551,0
1553635444.155,-139.160,29.785,28.320,24.902,30.762,0
1553635444.158,-136.230,27.832,31.738,25.391,57.129,0
1553635444.162,-122.070,30.273,34.668,38.086,25.391,0
1553635444.166,-126.465,44.922,34.668,40.527,12.207,0
1553635444.170,-126.465,45.898,33.203,43.457,62.500,0
1553635444.174,-129.883,36.621,31.738,46.387,58.594,0
1553635444.178,-120.605,45.898,36.133,56.641,99.121,0
1553635444.182,-120.117,46.387,37.109,43.457,45.410,0
1553635444.186,-132.324,34.668,34.668,45.410,17.578,0
1553635444.190,-127.930,39.062,36.133,73.730,41.504,0
1553635444.194,-148.438,57.129,41.016,41.504,32.715,0
1553635444.197,-171.387,58.105,31.250,6.836,87.402,0
1553635444.201,-191.406,53.711,30.762,-4.395,68.848,0
1553635444.205,-213.867,57.617,36.133,-33.203,13.672,0
1553635444.209,-215.332,62.500,31.250,-59.570,-16.602,0
1553635444.213,-249.023,68.359,33.691,-68.848,23.438,0
1553635444.217,-283.691,64.453,35.156,-90.820,32.227,0
1553635444.221,-294.922,68.359,36.621,-114.746,58.594,0
1553635444.225,-297.852,77.148,35.645,-120.117,83.496,0
1553635444.229,-303.711,75.684,30.762,-143.555,38.574,0
1553635444.233,-329.102,72.754,27.344,-149.902,59.570,0
1553635444.237,-333.984,67.383,24.414,-139.160,72.754,0
1553635444.240,-302.246,65.918,23.438,-115.723,80.078,0
1553635444.244,-272.461,64.453,24.414,-108.398,126.465,0
1553635444.248,-265.625,60.059,24.902,-103.516,45.410,0
1553635444.252,-270.996,59.082,24.902,-74.707,-40.039,0
1553635444.256,-268.066,56.641,25.391,-62.500,22.461,0
1553635444.260,-236.816,53.711,24.902,-42.480,42.480,0
1553635444.264,-198.242,50.293,20.020,-24.902,37.598,0
1553635444.268,-187.988,61.523,16.113,-29.297,-17.090,0
1553635444.272,-207.031,59.082,19.043,-10.742,-4.395,0
1553635444.276,-206.055,40.039,21.484,7.812,-1.465,0
1553635444.280,-182.617,42.969,19.531,6.348,-25.391,0
1553635444.283,-177.246,48.828,17.578,2.930,-51.270,0
1553635444.287,-179.199,44.922,18.066,-8.789,13.184,0
1553635444.291,-176.758,39.062,19.043,5.859,52.734,0
1553635444.295,-176.758,44.922,17.090,15.625,-44.434,0
1553635444.299,-156.738,50.781,18.066,17.090,34.668,0
1553635444.303,-159.668,45.898,21.484,30.762,83.984,0
1553635444.307,-162.598,43.457,21.973,37.109,42.969,0
1553635444.311,-124.512,56.641,20.996,18.066,38.086,0
1553635444.315,-137.695,65.430,24.414,4.883,34.180,0
1553635444.319,-149.414,85.938,23.438,37.598,16.602,0
1553635444.322,-187.500,-83.008,27.832,-6.836,-11.719,0
1553635444.326,-252.930,-215.820,35.645,-144.043,12.695,0
1553635444.330,-214.844,-65.430,30.762,-162.598,16.602,0
1553635444.334,-174.805,17.578,23.926,-114.258,0.000,0
1553635444.338,-170.898,42.969,20.508,-84.961,10.742,0
1553635444.342,-168.457,61.523,23.926,-47.852,-17.090,0
1553635444.346,-157.227,70.801,26.367,-29.785,-3.906,0
1553635444.350,-149.414,70.801,24.902,-32.715,5.371,0
1553635444.354,-145.020,72.266,26.855,-10.254,41.504,0
1553635444.358,-132.812,77.637,27.832,10.254,50.293,0
1553635444.362,-143.066,81.055,27.832,13.184,34.668,0
1553635444.365,-153.320,76.660,27.344,14.648,38.086,0
1553635444.369,-152.344,77.637,26.367,28.320,38.574,0
1553635444.373,-147.461,84.473,29.297,35.156,63.965,0
1553635444.377,-132.324,83.984,29.785,30.273,89.844,0
1553635444.381,-131.836,76.172,28.809,41.016,80.078,0
1553635444.385,-133.301,81.055,29.297,46.875,62.500,0
1553635444.389,-134.766,86.914,29.297,54.199,74.707,0
1553635444.393,-145.020,81.543,30.762,49.805,71.777,0
1553635444.397,-142.578,71.777,28.809,56.152,17.090,0
1553635444.401,-129.395,78.613,26.367,54.688,13.184,0
1553635444.405,-122.070,89.355,27.344,39.062,52.734,0
1553635444.408,-123.535,79.102,27.832,57.129,50.293,0
1553635444.412,-126.953,74.219,28.809,67.871,5.371,0
1553635444.416,-129.395,81.055,28.320,61.035,8.301,0
1553635444.420,-128.418,82.031,29.297,62.988,74.219,0
1553635444.424,-127.930,74.219,29.785,72.266,64.453,0
1553635444.428,-123.535,79.102,30.273,70.801,29.785,0
1553635444.432,-118.164,79.102,30.273,66.895,33.691,0
1553635444.436,-133.789,73.242,30.273,59.570,7.324,0
1553635444.440,-138.184,75.195,27.832,50.293,55.664,0
1553635444.444,-138.184,68.359,28.809,60.547,35.645,0
1553635444.447,-132.324,77.148,29.785,68.848,-27.832,0
1553635444.451,-129.395,84.473,30.762,72.266,28.320,0
1553635444.455,-130.371,69.336,35.156,62.012,69.824,0
1553635444.459,-126.465,62.988,32.227,41.504,62.988,0
1553635444.463,-138.184,78.613,28.320,53.711,5.371,0
1553635444.467,-132.812,79.102,31.738,65.918,29.785,0
1553635444.471,-132.812,67.383,34.668,68.848,59.082,0
1553635444.475,-134.277,69.824,33.203,66.406,27.344,0
1553635444.479,-125.000,76.172,32.227,59.570,65.430,0
1553635444.483,-129.395,73.242,32.227,68.359,92.773,0
1553635444.487,-133.301,68.359,32.715,75.684,31.250,0
1553635444.490,-133.789,65.918,30.762,65.918,28.809,0
1553635444.494,-151.855,72.754,32.227,56.641,52.246,0
1553635444.498,-136.230,77.148,33.203,58.594,72.266,0
1553635444.502,-133.789,67.383,30.273,62.012,72.266,0
1553635444.506,-136.719,67.383,30.273,47.852,10.742,0
1553635444.510,-134.277,76.660,29.785,54.199,53.711,0
1553635444.514,-134.766,70.312,27.344,62.012,151.367,0
1553635444.518,-118.652,72.266,21.973,58.105,96.191,0
1553635444.522,-111.328,71.777,23.438,67.871,-29.785,0
1553635444.526,-122.070,66.895,27.344,56.641,-44.434,0
1553635444.530,-126.465,63.965,24.414,50.781,-10.742,0
1553635444.533,-107.910,66.895,28.320,58.594,57.617,0
1553635444.537,-138.672,65.430,36.133,57.129,118.652,0
1553635444.541,-137.207,59.570,35.645,53.711,41.016,0
1553635444.545,-114.258,59.570,36.133,69.824,38.574,0
1553635444.549,-120.605,45.898,40.527,71.777,24.414,0
1553635444.553,-126.465,56.152,41.016,64.453,16.602,0
1553635444.557,-130.859,60.547,39.551,62.988,48.340,0
1553635444.561,-132.812,48.340,38.086,58.105,-23.926,0
1553635444.565,-127.441,58.105,35.156,49.805,-31.250,0
1553635444.569,-126.953,60.059,32.227,51.270,25.879,0
1553635444.572,-126.953,48.340,34.180,61.523,4.395,0
1553635444.576,-135.254,50.293,32.715,55.176,-26.367,0
1553635444.580,-141.602,56.641,32.715,48.340,-13.672,0
1553635444.584,-140.137,53.711,33.691,50.293,29.785,0
1553635444.588,-147.461,52.246,34.180,52.246,12.207,0
1553635444.592,-131.836,46.875,36.621,53.711,-56.641,0
1553635444.596,-126.953,54.199,35.645,57.617,-22.949,0
1553635444.600,-123.535,66.406,35.645,63.965,35.156,0
1553635444.604,-120.605,59.570,32.227,61.035,50.293,0
1553635444.608,-144.043,54.688,28.809,51.270,32.227,0
1553635444.612,-146.973,57.617,28.320,50.781,-33.691,0
1553635444.615,-134.766,64.453,29.297,54.688,-27.344,0
1553635444.619,-128.418,63.477,30.273,54.688,19.043,0
1553635444.623,-116.699,68.848,27.344,46.387,37.109,0
1553635444.627,-127.441,67.383,28.809,43.945,-4.395,0
1553635444.631,-130.859,64.453,31.250,55.664,17.090,0
1553635444.635,-116.699,67.383,30.762,64.453,32.227,0
1553635444.639,-127.441,60.059,31.738,59.570,11.719,0
1553635444.643,-127.441,65.430,31.738,46.387,38.574,0
1553635444.647,-134.277,65.918,28.320,52.734,37.598,0
1553635444.651,-138.672,58.105,28.320,70.312,15.625,0
1553635444.655,-126.465,57.129,29.785,63.965,61.523,0
1553635444.658,-133.789,57.617,28.809,56.641,73.242,0
1553635444.662,-133.789,58.594,27.344,58.594,70.801,0
1553635444.666,-124.023,55.664,27.832,58.594,15.137,0
1553635444.670,-116.699,60.547,30.762,54.688,-8.301,0
1553635444.674,-113.770,64.941,28.809,47.852,69.824,0
1553635444.678,-134.277,57.617,27.832,51.758,81.543,0
1553635444.682,-136.719,49.805,30.762,46.875,97.168,0
1553635444.686,-123.047,50.781,31.738,50.293,114.258,0
1553635444.690,-133.789,60.059,33.691,57.617,69.336,0
1553635444.694,-125.000,58.105,35.156,42.480,49.805,0
1553635444.697,-124.023,59.570,32.227,36.621,82.520,0
1553635444.701,-135.742,63.477,30.762,39.551,94.238,0
1553635444.705,-127.441,63.965,28.320,45.410,43.945,0
1553635444.709,-123.535,61.523,31.738,41.504,48.340,0
1553635444.713,-128.418,60.059,32.227,38.086,107.422,0
1553635444.717,-131.348,55.664,33.691,42.969,29.785,0
1553635444.721,-142.090,51.270,35.156,40.039,-27.344,0
1553635444.725,-148.438,46.387,29.785,37.109,26.855,0
1553635444.729,-148.926,39.551,31.250,46.875,42.969,0
1553635444.733,-129.883,50.293,32.715,42.969,63.965,0
1553635444.737,-117.676,48.340,33.691,34.180,59.570,0
1553635444.740,-130.371,37.109,32.715,41.992,26.855,0
1553635444.744,-136.719,41.504,29.785,41.504,25.879,0
1553635444.748,-139.648,42.480,27.832,18.555,-25.391,0
1553635444.752,-146.973,38.574,25.879,3.418,-26.855,0
1553635444.756,-162.109,31.738,26.855,6.836,5.859,0
1553635444.760,-147.949,36.133,27.832,20.020,10.742,0
1553635444.764,-134.277,42.480,28.809,29.785,42.969,0
1553635444.768,-145.996,38.574,30.273,34.668,12.695,0
1553635444.772,-143.066,31.738,28.809,37.109,20.508,0
1553635444.776,-137.207,40.527,25.879,41.992,29.297,0
1553635444.780,-137.207,51.758,27.832,41.504,-8.301,0
1553635444.783,-129.883,46.875,26.855,40.527,-40.039,0
1553635444.787,-134.766,43.457,23.438,30.762,22.949,0
1553635444.791,-130.859,39.062,25.879,26.855,16.602,0
1553635444.795,-146.484,39.062,22.949,27.832,-34.668,0
1553635444.799,-162.598,37.109,24.414,32.715,45.898,0
1553635444.803,-129.883,30.273,30.273,57.129,82.031,0
1553635444.807,-131.348,41.992,19.531,52.246,23.926,0
1553635444.811,-151.855,54.688,15.625,16.113,13.672,0
1553635444.815,-136.230,49.805,22.949,29.297,31.250,0
1553635444.819,-132.812,57.129,16.113,37.109,23.926,0
1553635444.822,-154.297,62.500,11.719,13.184,31.250,0
1553635444.826,-144.531,65.430,6.348,3.906,-4.883,0
1553635444.830,-138.184,64.453,3.906,7.324,13.672,0
1553635444.834,-140.625,60.547,7.812,5.371,67.871,0
1553635444.838,-134.277,72.754,6.348,16.113,50.781,0
1553635444.842,-141.602,68.848,8.301,24.902,40.527,0
1553635444.846,-137.207,58.594,11.719,20.996,61.523,0
1553635444.850,-132.812,66.406,12.695,22.949,58.105,0
1553635444.854,-132.812,67.383,15.625,23.438,67.383,0
1553635444.858,-123.535,62.012,16.602,37.598,51.758,0
1553635444.862,-125.977,68.848,16.602,24.414,2.930,0
1553635444.865,-126.465,70.312,15.137,5.859,6.836,0
1553635444.869,-131.836,66.895,12.695,10.742,26.855,0
1553635444.873,-147.461,66.406,14.160,17.578,20.996,0
1553635444.877,-156.250,57.129,17.090,29.297,31.250,0
1553635444.881,-145.996,55.176,19.531,33.203,23.926,0
1553635444.885,-127.441,67.383,21.484,29.297,-21.484,0
1553635444.889,-123.047,63.477,20.020,35.156,-8.789,0
1553635444.893,-137.695,63.477,19.043,38.574,1.953,0
1553635444.897,-149.414,66.895,19.043,30.762,6.836,0
1553635444.901,-136.719,68.359,21.484,38.086,23.438,0
1553635444.905,-119.629,68.359,21.484,41.992,28.320,0
1553635444.908,-125.488,64.453,20.508,38.574,89.844,0
1553635444.912,-143.066,57.617,24.414,48.340,65.918,0
1553635444.916,-142.578,58.594,25.391,49.805,-3.906,0
1553635444.920,-139.648,59.082,22.949,41.504,27.832,0
1553635444.924,-140.625,56.152,20.996,20.020,54.688,0
1553635444.928,-130.859,65.430,20.508,17.090,30.762,0
1553635444.932,-124.023,69.336,16.602,33.691,21.484,0
1553635444.936,-117.188,60.547,18.066,33.203,29.297,0
1553635444.940,-122.070,60.547,24.902,23.926,5.371,0
1553635444.944,-133.789,65.918,23.438,25.879,-4.883,0
1553635444.947,-131.348,59.570,20.996,27.832,-19.043,0
1553635444.951,-124.023,60.059,22.461,30.273,-3.906,0
1553635444.955,-129.395,60.547,24.902,29.297,42.969,0
1553635444.959,-148.926,57.129,25.391,37.109,26.855,0
1553635444.963,-155.273,60.059,23.438,36.621,55.664,0
1553635444.967,-150.391,48.828,21.973,23.926,42.969,0
1553635444.971,-143.066,50.781,23.926,21.973,-0.488,0
1553635444.975,-135.254,62.988,26.367,36.133,-3.906,0
1553635444.979,-152.832,57.617,28.809,38.574,-14.160,0
1553635444.983,-155.273,57.617,29.297,29.297,31.250,0
1553635444.987,-145.020,55.664,24.902,30.273,82.520,0
1553635444.990,-143.555,55.664,23.438,30.273,81.055,0
1553635444.994,-131.348,58.594,21.973,25.391,52.734,0
1553635444.998,-143.555,61.035,21.484,21.973,29.785,0
1553635445.002,-162.598,59.082,21.484,26.367,56.152,0
1553635445.006,-133.789,52.246,20.020,49.316,66.406,0
1553635445.010,-123.047,55.664,23.438,59.570,55.176,0
1553635445.014,-142.578,54.688,28.809,26.367,32.227,0
1553635445.018,-151.855,54.199,27.832,6.348,-1.465,0
1553635445.022,-148.438,49.316,28.809,18.555,20.020,0
1553635445.026,-163.086,39.551,34.668,20.508,69.336,0
1553635445.030,-172.852,31.738,38.574,29.297,64.453,0
1553635445.033,-173.828,28.320,42.480,35.645,49.805,0
1553635445.037,-173.828,32.227,45.898,18.555,34.180,0
1553635445.041,-173.828,34.180,45.410,11.230,64.941,0
1553635445.045,-174.316,33.203,38.574,12.207,40.527,0
1553635445.049,-167.969,33.203,37.109,23.926,-17.090,0
1553635445.053,-155.762,35.645,35.156,28.320,-11.719,0
1553635445.057,-162.109,33.203,29.785,25.879,9.277,0
1553635445.061,-166.992,38.086,30.762,23.926,60.059,0
1553635445.065,-152.344,50.781,33.203,26.855,77.148,0
1553635445.069,-152.344,41.992,32.227,37.109,30.762,0
1553635445.072,-141.113,41.016,30.762,34.668,-9.766,0
1553635445.076,-122.559,45.410,30.273,32.715,-30.273,0
1553635445.080,-131.348,45.410,36.133,29.297,-21.973,0
1553635445.084,-149.414,41.992,39.062,40.527,-20.508,0
1553635445.088,-152.344,41.016,34.668,38.086,16.113,0
1553635445.092,-144.043,34.180,32.227,30.762,20.996,0
1553635445.096,-146.484,38.086,32.227,35.156,-45.898,0
1553635445.100,-142.578,45.410,31.738,42.969,14.648,0
1553635445.104,-128.418,34.668,32.227,39.551,39.551,0
1553635445.108,-134.766,41.504,31.738,32.715,15.625,0
1553635445.112,-136.719,49.805,29.785,37.109,27.832,0
1553635445.115,-133.789,39.551,30.762,39.551,-13.184,0
1553635445.119,-140.625,37.109,29.785,45.410,0.000,0
1553635445.123,-138.672,45.410,28.320,55.664,43.945,0
1553635445.127,-122.559,44.434,28.320,44.922,35.645,0
1553635445.131,-128.418,40.527,28.809,34.668,26.855,0
1553635445.135,-143.066,39.062,31.250,45.898,20.020,0
1553635445.139,-143.066,40.527,30.273,55.664,27.344,0
1553635445.143,-135.742,38.574,28.809,52.246,13.672,0
1553635445.147,-120.117,34.668,29.297,33.203,33.203,0
1553635445.151,-115.234,46.875,26.855,30.273,89.844,0
1553635445.155,-125.488,56.641,27.344,45.410,88.867,0
1553635445.158,-139.648,48.340,31.738,40.039,46.875,0
1553635445.162,-143.555,48.828,32.227,31.738,4.883,0
1553635445.166,-122.070,55.664,28.809,49.316,46.875,0
1553635445.170,-115.723,51.758,25.879,45.410,47.852,0
1553635445.174,-137.695,50.293,27.832,29.297,15.625,0
1553635445.178,-142.578,52.246,30.762,32.227,49.316,0
1553635445.182,-141.602,51.758,33.691,46.387,7.324,0
1553635445.186,-134.766,53.711,36.621,55.176,5.859,0
1553635445.190,-129.883,48.340,34.180,48.340,53.223,0
1553635445.194,-120.605,40.039,34.668,49.805,21.973,0
1553635445.197,-113.770,43.945,35.645,63.965,50.781,0
1553635445.201,-123.047,52.246,33.203,68.359,64.941,0
1553635445.205,-139.648,54.199,24.414,40.527,39.062,0
1553635445.209,-136.719,59.082,20.996,30.273,40.039,0
1553635445.213,-128.418,71.289,20.020,29.297,14.648,0
1553635445.217,-125.000,73.242,19.043,15.137,-17.090,0
1553635445.221,-143.555,65.918,19.531,20.996,20.020,0
1553635445.225,-146.484,66.895,13.672,21.973,13.184,0
1553635445.229,-135.254,73.730,12.207,18.066,23.438,0
1553635445.233,-137.695,65.918,12.695,29.297,61.523,0
1553635445.237,-128.418,60.059,14.160,33.691,19.531,0
1553635445.240,-112.305,61.035,19.043,29.785,17.578,0
1553635445.244,-112.305,60.547,22.461,42.480,41.504,0
1553635445.248,-112.305,67.871,22.461,43.945,37.598,0
1553635445.252,-105.469,61.523,20.996,35.156,72.266,0
1553635445.256,-97.168,59.570,23.438,42.480,72.266,0
1553635445.260,-100.586,68.359,21.484,41.504,88.867,0
1553635445.264,-119.141,57.129,19.043,44.922,58.105,0
1553635445.268,-117.188,55.664,20.020,41.504,-11.230,0
1553635445.272,-109.863,54.199,18.066,36.133,40.527,0
1553635445.276,-112.793,47.363,21.973,59.570,24.414,0
1553635445.280,-118.652,51.270,24.902,59.082,-12.695,0
1553635445.283,-120.605,55.176,26.367,31.738,-4.395,0
1553635445.287,-117.676,54.199,26.855,39.062,25.879,0
1553635445.291,-120.117,57.129,24.902,44.922,24.414,0
1553635445.295,-118.652,55.176,24.902,39.551,21.484,0
1553635445.299,-119.141,49.805,22.949,40.527,35.645,0
1553635445.303,-113.770,57.617,23.926,41.992,28.809,0
1553635445.307,-104.492,57.129,25.391,49.805,37.109,0
1553635445.311,-119.141,45.410,24.414,56.641,40.039,0
1553635445.315,-122.559,48.340,21.973,48.340,0.977,0
1553635445.319,-114.746,54.688,20.996,41.016,-10.742,0
1553635445.322,-126.465,48.828,20.508,41.992,3.906,0
1553635445.326,-121.094,45.898,21.484,39.551,-2.441,0
1553635445.330,-114.258,47.363,21.973,40.527,23.438,0
1553635445.334,-120.117,41.504,23.926,36.621,25.391,0
1553635445.338,-113.281,42.480,23.926,35.156,1.953,0
1553635445.342,-119.629,44.922,25.879,40.527,52.246,0
1553635445.346,-129.395,46.387,25.879,50.293,60.547,0
1553635445.350,-119.141,53.711,21.484,42.480,46.387,0
1553635445.354,-111.816,45.410,22.461,33.691,35.645,0
1553635445.358,-112.793,44.922,23.926,45.898,36.133,0
1553635445.362,-102.051,48.828,24.902,51.270,10.742,0
1553635445.365,-101.074,47.363,28.320,44.434,-37.598,0
1553635445.369,-116.211,46.387,26.367,35.645,7.812,0
1553635445.373,-130.371,46.875,23.438,46.875,38.086,0
1553635445.377,-129.395,44.434,27.344,58.105,5.859,0
1553635445.381,-113.281,41.016,33.203,55.664,19.043,0
1553635445.385,-112.305,46.387,31.738,47.363,34.668,0
1553635445.389,-122.070,39.062,29.297,44.434,41.016,0
1553635445.393,-134.277,43.457,32.227,60.059,25.391,0
1553635445.397,-133.301,55.176,31.250,41.016,26.855,0
1553635445.401,-114.258,49.316,29.297,24.414,93.750,0
1553635445.405,-111.816,44.922,29.785,34.668,58.105,0
1553635445.408,-131.836,45.410,28.809,26.855,91.797,0
1553635445.412,-135.254,38.086,28.320,33.691,135.254,0
1553635445.416,-129.395,36.133,27.832,47.852,7.324,0
1553635445.420,-122.070,42.969,30.273,45.898,-2.930,0
1553635445.424,-116.699,42.480,28.809,55.664,62.012,0
1553635445.428,-127.930,45.898,29.297,50.293,47.363,0
1553635445.432,-125.977,43.457,33.691,37.598,42.480,0
1553635445.436,-121.582,44.922,31.250,51.758,12.207,0
1553635445.440,-120.117,53.711,32.715,48.828,35.156,0
1553635445.444,-116.211,41.992,36.621,48.340,62.500,0
1553635445.447,-126.465,43.457,34.180,50.293,62.012,0
1553635445.451,-131.836,51.758,32.715,47.852,42.480,0
1553635445.455,-131.348,53.223,33.203,57.617,-17.090,0
1553635445.459,-125.000,47.852,31.738,53.223,-4.395,0
1553635445.463,-114.258,49.805,26.855,46.875,38.574,0
1553635445.467,-132.324,48.828,25.879,39.062,55.176,0
1553635445.471,-145.996,36.621,28.809,39.062,34.180,0
1553635445.475,-130.859,35.156,25.391,41.992,-10.254,0
1553635445.479,-130.859,37.109,26.855,35.156,-41.504,0
1553635445.483,-110.352,48.828,27.832,34.668,-23.438,0
1553635445.487,-82.520,48.340,23.438,55.176,-1.465,0
1553635445.490,-98.633,30.273,27.344,71.289,-1.953,0
1553635445.494,-138.672,29.785,37.598,45.410,-1.465,0
1553635445.498,-147.949,32.227,41.992,34.668,-36.621,0
1553635445.502,-126.953,23.926,41.992,51.758,-20.508,0
1553635445.506,-108.887,14.648,41.016,56.641,61.035,0
1553635445.510,-115.723,11.719,47.852,53.223,85.449,0
1553635445.514,-130.371,17.090,50.781,55.176,27.344,0
1553635445.518,-132.812,15.625,50.293,62.500,2.441,0
1553635445.522,-141.113,0.977,52.246,45.898,29.297,0
1553635445.526,-133.789,11.230,47.852,23.926,87.891,0
1553635445.530,-127.441,20.020,42.969,33.203,41.504,0
1553635445.533,-131.348,13.184,46.875,51.758,-8.301,0
1553635445.537,-126.953,18.066,48.340,53.711,95.703,0
1553635445.541,-116.211,20.020,43.945,50.293,140.625,0
1553635445.545,-123.047,19.531,42.969,40.039,99.121,0
1553635445.549,-121.094,21.973,41.992,41.992,19.043,0
1553635445.553,-127.930,31.250,41.504,44.434,-8.789,0
1553635445.557,-145.020,32.715,42.969,54.199,17.578,0
1553635445.561,-137.695,30.273,41.992,54.688,8.789,0
1553635445.565,-116.211,27.344,40.039,40.527,8.301,0
1553635445.569,-112.305,22.461,41.504,39.062,15.625,0
1553635445.572,-120.117,27.832,41.504,38.574,67.383,0
1553635445.576,-128.906,30.273,40.527,32.227,69.824,0
1553635445.580,-136.230,28.320,40.039,39.062,53.711,0
1553635445.584,-121.094,24.902,40.527,45.898,-11.719,0
1553635445.588,-112.793,33.203,41.016,50.781,-80.078,0
1553635445.592,-119.141,39.062,40.039,50.293,12.695,0
1553635445.596,-114.746,28.809,39.551,50.293,101.562,0
1553635445.600,-127.441,30.273,35.645,41.016,71.777,0
1553635445.604,-142.090,34.668,33.203,38.086,105.957,0
1553635445.608,-133.789,22.461,33.203,44.434,113.770,0
1553635445.612,-117.676,26.367,31.250,44.434,35.156,0
1553635445.615,-114.258,36.133,30.762,39.551,46.387,0
1553635445.619,-124.512,37.109,29.785,35.645,42.480,0
1553635445.623,-126.953,38.574,30.273,43.457,32.715,0
1553635445.627,-136.230,28.809,30.762,36.133,48.828,0
1553635445.631,-125.977,36.621,29.785,30.762,40.527,0
1553635445.635,-121.582,47.852,31.738,42.480,68.848,0
1553635445.639,-132.812,37.109,32.227,54.688,60.547,0
1553635445.643,-121.094,35.156,32.227,46.387,32.715,0
1553635445.647,-113.770,38.574,33.691,33.203,28.320,0
1553635445.651,-112.793,38.574,33.691,47.363,35.156,0
1553635445.655,-111.816,35.645,32.715,48.828,22.949,0
1553635445.658,-124.023,34.668,30.273,32.227,35.645,0
1553635445.662,-124.023,36.133,31.738,42.480,-6.348,0
1553635445.666,-120.117,41.992,34.180,46.875,-0.488,0
1553635445.670,-122.070,38.086,35.156,37.598,27.344,0
1553635445.674,-123.535,32.715,36.621,39.551,12.207,0
1553635445.678,-126.953,42.969,34.668,43.945,10.742,0
1553635445.682,-113.770,46.875,31.250,51.758,39.062,0
1553635445.686,-110.352,31.738,32.715,47.363,81.543,0
1553635445.690,-111.816,32.715,35.156,46.875,11.230,0
1553635445.694,-111.816,44.434,35.156,46.875,29.297,0
1553635445.697,-125.488,36.133,36.133,50.781,-1.465,0
1553635445.701,-115.723,41.992,39.551,57.129,-7.324,0
1553635445.705,-97.168,44.922,39.551,66.406,2.441,0
1553635445.709,-119.141,40.039,34.668,53.711,-50.781,0
1553635445.713,-138.184,48.828,32.715,33.691,5.859,0
1553635445.717,-125.000,42.480,35.645,33.203,53.223,0
1553635445.721,-112.305,40.039,33.691,27.832,46.875,0
1553635445.725,-111.816,52.734,31.250,30.762,45.898,0
1553635445.729,-114.258,46.875,31.250,43.457,97.656,0
1553635445.733,-108.398,42.480,27.344,51.270,42.969,0
1553635445.737,-114.746,45.898,27.832,46.387,3.906,0
1553635445.740,-116.211,42.969,31.250,49.316,9.277,0
1553635445.744,-111.816,40.527,31.250,52.246,38.086,0
1553635445.748,-113.770,41.992,33.691,49.805,21.484,0
1553635445.752,-98.633,46.875,35.645,52.734,-12.695,0
1553635445.756,-107.910,44.434,36.621,58.594,34.180,0
1553635445.760,-110.840,43.945,38.574,62.012,-3.906,0
1553635445.764,-102.051,38.574,37.109,60.059,-32.227,0
1553635445.768,-104.492,42.969,41.016,81.055,-44.434,0
1553635445.772,-111.328,59.082,38.574,71.777,-64.941,0
1553635445.776,-134.277,61.523,31.738,34.668,-18.555,0
1553635445.780,-133.301,57.617,31.250,33.203,44.922,0
1553635445.783,-120.117,59.570,28.809,39.551,60.059,0
1553635445.787,-129.883,63.477,19.531,30.273,50.781,0
1553635445.791,-137.207,61.523,12.207,10.742,22.461,0
1553635445.795,-126.465,62.988,9.766,11.230,-13.184,0
1553635445.799,-123.047,70.801,14.648,17.090,19.531,0
1553635445.803,-137.207,62.500,23.438,3.906,23.926,0
1553635445.807,-132.812,52.246,26.855,19.531,14.648,0
1553635445.811,-126.953,56.641,26.367,31.738,29.297,0
1553635445.815,-132.324,69.824,24.902,27.344,52.734,0
1553635445.819,-124.023,61.035,24.902,28.320,30.273,0
1553635445.822,-127.441,55.176,26.855,31.250,25.879,0
1553635445.826,-136.230,56.152,27.344,24.414,61.523,0
1553635445.830,-109.863,62.500,25.879,31.738,61.035,0
1553635445.834,-107.422,61.035,26.367,43.457,34.180,0
1553635445.838,-119.629,54.199,27.344,40.527,15.137,0
1553635445.842,-119.629,54.688,26.367,44.434,29.297,0
1553635445.846,-115.234,53.711,25.879,39.062,51.758,0
1553635445.850,-106.934,50.781,26.367,33.203,79.590,0
1553635445.854,-109.375,50.293,24.414,34.668,62.012,0
1553635445.858,-116.211,60.059,20.508,40.039,56.152,0
1553635445.862,-102.051,62.012,23.438,40.527,56.641,0
1553635445.865,-103.027,55.664,26.855,39.062,72.754,0
1553635445.869,-123.047,55.664,30.273,44.434,69.824,0
1553635445.873,-128.418,57.129,33.691,47.852,73.730,0
1553635445.877,-120.117,49.805,31.738,50.293,95.215,0
1553635445.881,-116.211,40.527,30.762,48.340,41.016,0
1553635445.885,-108.887,47.363,32.227,45.898,2.930,0
1553635445.889,-104.004,59.082,26.855,39.062,7.812,0
1553635445.893,-114.746,60.059,27.344,40.527,46.875,0
1553635445.897,-118.652,46.875,30.273,43.945,74.219,0
1553635445.901,-115.234,57.617,27.344,40.039,47.363,0
1553635445.905,-110.352,65.918,25.879,43.457,68.848,0
1553635445.908,-102.539,44.922,25.879,50.293,48.828,0
1553635445.912,-106.445,48.340,26.855,41.016,25.391,0
1553635445.916,-119.629,56.641,27.344,38.086,0.488,0
1553635445.920,-109.375,56.641,25.879,43.945,-5.859,0
1553635445.924,-111.328,51.758,28.320,49.805,16.113,0
1553635445.928,-115.234,54.199,27.832,46.387,4.883,0
1553635445.932,-106.445,59.082,29.785,44.922,6.348,0
1553635445.936,-108.398,53.711,35.156,54.688,52.734,0
1553635445.940,-101.074,50.293,30.273,57.129,50.293,0
1553635445.944,-88.867,48.828,29.297,58.594,11.230,0
1553635445.947,-87.402,56.641,32.227,63.477,78.613,0
1553635445.951,-95.703,62.500,27.832,51.758,96.680,0
1553635445.955,-110.352,51.270,29.297,52.734,21.973,0
1553635445.959,-116.211,46.387,31.250,60.547,31.738,0
1553635445.963,-121.582,55.176,28.809,35.156,0.488,0
1553635445.967,-118.164,52.246,31.738,39.551,-27.832,0
1553635445.971,-106.445,40.527,32.715,52.734,-6.836,0
1553635445.975,-106.934,41.992,27.832,38.574,8.301,0
1553635445.979,-115.234,56.152,30.762,38.574,23.438,0
1553635445.983,-132.324,57.129,36.133,25.879,-3.906,0
1553635445.987,-136.719,45.410,37.109,17.090,-24.414,0
1553635445.990,-137.207,45.410,36.621,16.602,-11.719,0
1553635445.994,-148.926,46.387,33.691,9.766,8.789,0
1553635445.998,-149.414,48.828,33.203,13.184,40.039,0
1553635446.002,-140.625,39.551,33.691,4.883,72.266,0
1553635446.006,-144.531,38.574,30.762,12.207,80.078,0
1553635446.010,-147.461,48.340,32.227,21.484,55.176,0
1553635446.014,-128.418,45.410,35.156,20.508,-23.438,0
1553635446.018,-129.883,48.828,28.809,25.391,21.484,0
1553635446.022,-132.324,42.969,27.344,19.043,36.133,0
1553635446.026,-121.094,43.945,32.227,24.902,-37.598,0
1553635446.030,-120.605,48.828,32.715,30.762,27.344,0
1553635446.033,-130.371,39.551,32.227,22.949,0.488,0
1553635446.037,-126.953,40.527,34.180,35.645,-4.395,0
1553635446.041,-122.559,45.898,33.691,46.875,11.230,0
1553635446.045,-120.117,43.945,33.691,32.227,14.648,0
1553635446.049,-110.840,39.551,36.621,32.715,11.230,0
1553635446.053,-121.094,44.922,39.062,42.480,-1.465,0
1553635446.057,-126.953,46.875,39.551,46.387,-14.160,0
1553635446.061,-102.051,37.598,34.180,45.898,-7.324,0
1553635446.065,-99.121,38.574,31.738,33.203,-6.836,0
1553635446.069,-112.305,45.410,32.227,35.645,11.230,0
1553635446.072,-112.305,43.457,28.809,42.969,-35.156,0
1553635446.076,-111.816,43.457,28.809,43.945,-39.551,0
1553635446.080,-101.074,43.457,31.250,46.875,45.898,0
1553635446.084,-120.605,39.551,31.250,47.852,62.500,0
1553635446.088,-129.395,41.016,32.715,50.293,28.809,0
1553635446.092,-108.887,36.133,33.203,41.504,19.531,0
1553635446.096,-106.445,40.527,31.250,32.227,50.781,0
1553635446.100,-103.027,46.875,30.762,37.598,48.828,0
1553635446.104,-108.887,35.645,33.691,42.969,17.578,0
1553635446.108,-111.816,42.969,30.762,50.293,87.402,0
1553635446.112,-119.141,39.551,29.785,42.969,111.328,0
1553635446.115,-113.281,31.250,32.715,41.016,28.320,0
1553635446.119,-111.816,36.133,32.227,46.387,10.742,0
1553635446.123,-112.793,38.086,30.762,45.898,46.387,0
1553635446.127,-110.840,38.574,29.785,53.223,62.988,0
1553635446.131,-112.305,36.621,27.832,41.016,65.430,0
1553635446.135,-93.262,33.691,30.762,35.156,32.715,0
1553635446.139,-100.098,33.691,32.227,41.016,42.480,0
1553635446.143,-118.652,46.387,27.344,33.203,78.125,0
1553635446.147,-113.770,48.828,26.855,31.250,66.406,0
1553635446.151,-112.305,41.992,27.344,35.645,33.203,0
1553635446.155,-105.957,47.852,22.461,41.016,42.969,0
1553635446.158,-86.914,49.805,18.066,55.176,36.133,0
1553635446.162,-105.957,44.922,25.879,43.945,8.789,0
1553635446.166,-132.812,39.551,33.691,24.414,59.082,0
1553635446.170,-128.418,35.645,33.691,28.320,55.664,0
1553635446.174,-109.863,32.715,35.156,34.668,83.984,0
1553635446.178,-99.121,22.949,40.527,44.922,111.328,0
1553635446.182,-101.562,20.508,41.016,53.711,99.121,0
1553635446.186,-98.633,25.879,40.039,46.875,45.410,0
1553635446.190,-104.980,36.621,36.621,33.203,13.184,0
1553635446.194,-114.746,34.180,36.133,45.410,82.520,0
1553635446.197,-112.793,33.203,37.598,57.617,46.875,0
1553635446.201,-105.469,40.527,36.133,58.594,-0.977,0
1553635446.205,-98.633,37.109,37.598,42.969,-14.648,0
1553635446.209,-108.398,34.668,40.527,44.922,-35.645,0
1553635446.213,-102.539,42.969,37.598,54.688,26.367,0
1553635446.217,-104.004,38.574,38.086,41.992,53.711,0
1553635446.221,-98.145,31.738,36.621,46.875,-25.391,0
1553635446.225,-92.773,34.668,33.203,49.805,-44.922,0
1553635446.229,-93.262,37.109,33.203,47.363,17.090,0
1553635446.233,-97.168,41.016,32.227,41.504,9.766,0
1553635446.237,-108.887,40.039,32.715,45.410,-19.043,0
1553635446.240,-113.281,32.227,34.180,58.594,14.648,0
1553635446.244,-103.516,30.762,32.227,58.594,33.203,0
1553635446.248,-88.379,37.109,28.809,51.270,15.625,0
1553635446.252,-83.496,37.598,33.203,50.293,-6.348,0
1553635446.256,-95.215,33.203,34.180,54.199,8.301,0
1553635446.260,-90.820,36.621,27.344,55.176,47.852,0
1553635446.264,-77.637,42.969,26.855,45.898,16.113,0
1553635446.268,-90.820,41.504,30.273,44.922,29.785,0
1553635446.272,-114.746,28.320,30.273,41.016,33.203,0
1553635446.276,-107.422,36.133,29.297,35.156,5.859,0
1553635446.280,-87.891,48.340,31.738,35.156,38.086,0
1553635446.283,-98.145,40.527,33.203,39.551,21.973,0
1553635446.287,-96.191,39.551,33.691,40.527,0.488,0
1553635446.291,-93.262,35.156,32.715,54.199,7.812,0
1553635446.295,-85.938,35.645,28.320,69.824,8.301,0
1553635446.299,-85.449,40.527,31.250,55.176,55.176,0
1553635446.303,-104.980,43.457,33.691,42.969,48.340,0
1553635446.307,-91.309,43.945,29.297,54.199,68.359,0
1553635446.311,-71.777,36.133,30.273,66.895,34.180,0
1553635446.315,-68.848,33.203,29.297,76.172,-8.301,0
1553635446.319,-58.105,26.855,27.344,92.285,33.203,0
1553635446.322,-55.664,30.762,27.832,91.797,18.555,0
1553635446.326,-41.992,36.621,27.832,96.680,-4.395,0
1553635446.330,-26.855,30.762,27.832,115.723,19.043,0
1553635446.334,-25.879,29.785,32.715,119.629,18.066,0
1553635446.338,-11.719,39.062,33.203,135.254,-38.574,0
1553635446.342,-13.184,40.527,31.738,148.926,-27.344,0
1553635446.346,-5.371,38.086,32.227,145.996,33.203,0
1553635446.350,20.020,41.504,30.273,152.344,17.578,0
1553635446.354,-2.441,47.363,29.785,145.020,10.254,0
1553635446.358,0.488,39.062,36.133,151.367,34.668,0
1553635446.362,5.371,38.574,33.203,152.344,45.410,0
1553635446.365,5.371,44.434,30.762,143.066,77.637,0
1553635446.369,29.785,47.363,36.621,145.020,76.660,0
1553635446.373,8.301,51.270,34.180,134.277,-2.441,0
1553635446.377,-12.695,42.480,39.551,133.789,24.414,0
1553635446.381,6.836,50.781,40.527,132.324,102.051,0
1553635446.385,4.883,65.430,35.156,122.070,116.699,0
1553635446.389,-25.879,52.734,36.621,120.605,90.820,0
1553635446.393,-44.922,52.246,38.086,121.094,63.965,0
1553635446.397,-37.598,57.617,40.039,115.723,68.359,0
1553635446.401,-37.598,55.664,39.062,92.773,36.133,0
1553635446.405,-42.480,54.199,38.086,92.285,-13.184,0
1553635446.408,-46.387,48.828,34.668,96.680,7.812,0
1553635446.412,-56.641,47.852,35.645,93.262,70.312,0
1553635446.416,-54.688,54.688,36.133,89.355,46.875,0
1553635446.420,-40.527,59.082,31.738,88.379,40.039,0
1553635446.424,-54.688,44.922,32.227,92.773,14.160,0
1553635446.428,-68.848,53.223,32.715,74.219,-50.781,0
1553635446.432,-61.523,61.035,33.691,64.941,3.418,0
1553635446.436,-52.734,45.898,33.203,73.730,46.875,0
1553635446.440,-61.523,44.434,33.691,73.242,35.645,0
1553635446.444,-80.566,53.223,32.227,75.195,20.996,0
1553635446.447,-74.219,53.223,34.668,77.148,-28.809,0
1553635446.451,-75.684,52.246,38.574,84.473,-10.254,0
1553635446.455,-80.078,49.316,34.180,87.402,-5.371,0
1553635446.459,-84.961,48.828,33.691,70.312,-43.945,0
1553635446.463,-84.473,61.523,34.180,65.430,-4.883,0
1553635446.467,-70.801,41.992,34.668,63.965,35.156,0
1553635446.471,-60.059,21.484,35.645,49.316,61.035,0
1553635446.475,-79.102,44.434,35.156,47.852,56.641,0
1553635446.479,-104.492,46.387,34.180,55.664,36.621,0
1553635446.483,-100.098,43.945,31.250,55.176,20.996,0
1553635446.487,-89.844,48.828,30.273,35.645,39.551,0
1553635446.490,-88.867,51.270,32.227,41.016,28.320,0
1553635446.494,-88.867,50.781,31.738,53.711,63.477,0
1553635446.498,-100.098,45.898,30.273,58.594,78.613,0
1553635446.502,-95.703,41.504,31.250,52.734,24.902,0
1553635446.506,-87.891,40.527,32.715,55.664,5.859,0
1553635446.510,-97.168,43.457,33.691,62.500,12.695,0
1553635446.514,-92.773,40.527,36.133,47.363,41.016,0
1553635446.518,-92.773,48.828,36.621,53.711,79.102,0
1553635446.522,-90.820,50.293,36.133,77.148,62.500,0
1553635446.526,-102.051,44.434,37.109,62.012,46.387,0
1553635446.530,-126.465,49.805,39.062,28.809,29.297,0
1553635446.533,-139.648,61.523,35.156,1.465,52.246,0
1553635446.537,-176.270,56.152,35.156,-22.461,77.637,0
1553635446.541,-204.102,42.480,37.109,-34.668,-24.902,0
1553635446.545,-215.332,57.129,32.227,-58.105,26.855,0
1553635446.549,-238.770,58.105,30.273,-94.727,62.500,0
1553635446.553,-242.676,52.246,29.297,-109.863,-24.414,0
1553635446.557,-239.258,51.270,27.344,-120.605,11.719,0
1553635446.561,-283.203,56.152,27.344,-140.625,37.109,0
1553635446.565,-312.500,67.383,25.391,-150.391,45.410,0
1553635446.569,-300.781,55.176,26.855,-156.738,20.508,0
1553635446.572,-298.340,57.617,27.344,-163.574,20.508,0
1553635446.576,-300.293,57.617,25.879,-160.156,32.227,0
1553635446.580,-289.062,54.688,24.902,-153.320,14.648,0
1553635446.584,-269.043,53.711,23.926,-140.137,19.043,0
1553635446.588,-281.250,51.270,27.344,-128.906,23.926,0
1553635446.592,-283.691,50.293,27.832,-114.746,27.344,0
1553635446.596,-244.141,48.340,23.438,-102.051,5.371,0
1553635446.600,-215.820,55.664,25.391,-93.262,27.344,0
1553635446.604,-207.520,50.781,29.297,-84.961,31.738,0
1553635446.608,-198.242,55.664,25.391,-77.637,-23.926,0
1553635446.612,-198.730,59.570,24.414,-56.641,-30.273,0
1553635446.615,-198.242,50.781,27.832,-35.645,35.156,0
1553635446.619,-187.988,54.688,26.367,-46.875,25.879,0
1553635446.623,-179.688,61.523,24.902,-40.527,-24.414,0
1553635446.627,-174.805,57.617,25.391,-33.691,-34.180,0
1553635446.631,-168.457,52.734,24.902,-31.738,54.688,0
1553635446.635,-163.574,47.852,24.414,-24.414,103.516,0
1553635446.639,-158.691,47.363,24.902,-20.996,41.016,0
1553635446.643,-153.320,48.828,24.902,-18.066,32.715,0
1553635446.647,-155.273,40.039,23.926,-16.113,10.254,0
1553635446.651,-149.414,46.387,23.926,-10.742,-3.418,0
1553635446.655,-148.438,54.199,25.391,-14.160,5.859,0
1553635446.658,-152.344,44.434,26.367,-12.695,20.508,0
1553635446.662,-148.926,41.504,22.461,-0.977,45.898,0
1553635446.666,-140.625,45.410,22.949,-6.348,46.875,0
1553635446.670,-133.789,43.945,26.367,-3.418,29.297,0
1553635446.674,-133.301,43.945,28.809,8.789,-17.090,0
1553635446.678,-131.836,49.316,28.320,15.137,0.000,0
1553635446.682,-121.094,50.781,30.273,24.414,53.223,0
1553635446.686,-115.723,46.387,31.250,26.855,46.875,0
1553635446.690,-129.883,40.527,28.809,26.367,31.738,0
1553635446.694,-123.047,39.062,27.344,29.297,58.594,0
1553635446.697,-117.676,40.527,26.367,29.785,53.223,0
1553635446.701,-118.652,46.387,28.320,22.949,46.875,0
1553635446.705,-103.027,45.898,28.809,18.066,94.727,0
1553635446.709,-87.891,44.434,27.832,27.832,89.355,0
1553635446.713,-100.586,57.617,24.902,34.180,79.590,0
1553635446.717,-96.680,57.129,22.461,34.668,84.961,0
1553635446.721,-93.262,41.016,24.414,40.039,72.754,0
1553635446.725,-113.770,38.086,24.902,48.340,18.066,0
1553635446.729,-102.051,49.316,22.949,51.270,12.695,0
1553635446.733,-98.633,44.922,23.926,46.875,13.184,0
1553635446.737,-98.633,38.086,27.832,54.688,1.953,0
1553635446.740,-92.285,35.645,28.809,55.176,-4.883,0
1553635446.744,-90.332,44.922,29.297,50.781,39.551,0
1553635446.748,-78.125,50.781,31.738,52.246,89.844,0
1553635446.752,-84.473,36.133,31.250,57.617,42.969,0
1553635446.756,-90.820,40.039,28.809,63.477,12.207,0
1553635446.760,-87.402,52.246,27.832,58.105,37.109,0
1553635446.764,-80.566,42.969,26.855,50.781,83.496,0
1553635446.768,-84.961,41.504,25.879,53.223,51.758,0
1553635446.772,-92.773,43.457,24.902,59.570,27.832,0
1553635446.776,-90.332,41.016,23.438,60.059,48.828,0
1553635446.780,-93.262,44.434,22.949,46.387,23.438,0
1553635446.783,-87.891,44.922,25.879,37.598,37.109,0
1553635446.787,-83.496,42.969,28.809,51.270,80.566,0
1553635446.791,-70.801,38.574,35.156,76.660,76.660,0
1553635446.795,-67.383,38.086,35.156,82.520,58.594,0
1553635446.799,-90.820,47.852,24.414,48.828,12.207,0
1553635446.803,-102.051,58.105,21.484,32.227,28.809,0
1553635446.807,-94.238,56.641,21.484,50.293,73.242,0
1553635446.811,-104.980,51.270,16.113,34.668,76.172,0
1553635446.815,-111.816,51.270,12.695,22.461,52.246,0
1553635446.819,-97.656,59.082,14.160,21.973,58.594,0
1553635446.822,-111.816,57.129,18.066,20.020,38.574,0
1553635446.826,-114.258,51.758,19.531,26.367,5.371,0
1553635446.830,-86.426,54.688,20.020,29.785,63.477,0
1553635446.834,-87.402,49.316,24.414,32.715,72.754,0
1553635446.838,-101.562,46.875,22.949,31.250,19.531,0
1553635446.842,-93.750,44.922,21.973,39.551,1.465,0
1553635446.846,-91.797,52.246,23.438,40.527,7.812,0
1553635446.850,-97.656,64.453,21.484,36.621,23.438,0
1553635446.854,-93.750,53.223,21.973,54.199,44.434,0
1553635446.858,-100.586,48.340,23.926,46.387,28.809,0
1553635446.862,-105.957,54.199,26.367,31.250,-10.742,0
1553635446.865,-94.727,60.059,26.367,37.598,45.410,0
1553635446.869,-93.750,55.176,23.438,43.945,89.355,0
1553635446.873,-93.262,46.387,21.484,43.945,25.879,0
1553635446.877,-80.566,53.711,21.973,32.715,18.555,0
1553635446.881,-83.984,48.828,20.020,40.039,9.766,0
1553635446.885,-83.008,44.434,18.066,54.688,-16.602,0
1553635446.889,-84.961,41.992,22.461,49.805,10.254,0
1553635446.893,-92.285,49.805,27.344,50.781,22.949,0
1553635446.897,-77.148,57.617,28.320,67.383,45.898,0
1553635446.901,-75.195,43.945,28.809,63.477,-38.086,0
1553635446.905,-86.914,44.922,31.250,53.223,-48.340,0
1553635446.908,-88.379,48.340,30.762,53.223,56.152,0
1553635446.912,-78.125,46.387,27.344,49.805,17.578,0
1553635446.916,-70.312,47.852,27.832,42.969,1.465,0
1553635446.920,-74.219,48.340,29.297,50.293,62.988,0
1553635446.924,-84.961,45.898,27.344,50.293,84.961,0
1553635446.928,-83.984,38.574,27.344,44.434,30.273,0
1553635446.932,-82.520,32.227,31.738,41.992,-2.930,0
1553635446.936,-95.703,41.992,29.297,26.367,36.621,0
1553635446.940,-98.633,52.246,26.855,31.738,15.625,0
1553635446.944,-95.215,44.922,28.320,44.434,-30.273,0
1553635446.947,-88.379,49.805,29.785,37.109,-14.160,0
1553635446.951,-86.914,51.270,31.250,29.297,18.066,0
1553635446.955,-99.121,45.410,29.785,34.180,-13.184,0
1553635446.959,-95.703,48.828,28.320,38.574,41.016,0
1553635446.963,-80.566,41.504,26.855,34.180,53.711,0
1553635446.967,-76.172,40.527,25.391,37.598,18.066,0
1553635446.971,-97.656,41.016,27.344,47.363,10.742,0
1553635446.975,-102.051,36.621,30.762,42.969,6.348,0
1553635446.979,-81.543,39.551,29.297,34.668,37.109,0
1553635446.983,-80.078,51.270,31.738,41.016,45.410,0
1553635446.987,-94.238,51.270,34.668,39.062,54.199,0
1553635446.990,-98.145,41.016,30.273,28.320,67.871,0
1553635446.994,-85.449,43.457,28.320,43.457,61.523,0
1553635446.998,-80.078,48.828,31.250,45.898,50.781,0
1553635447.002,-88.867,46.875,29.297,29.297,39.062,0
1553635447.006,-86.914,40.039,29.297,32.715,30.762,0
1553635447.010,-80.078,43.945,28.809,43.945,50.293,0
1553635447.014,-81.543,51.758,28.809,46.875,47.363,0
1553635447.018,-79.102,43.457,31.738,29.297,21.973,0
1553635447.022,-83.984,29.785,30.273,32.715,14.160,0
1553635447.026,-88.867,39.551,31.738,48.340,20.996,0
1553635447.030,-90.332,55.176,31.738,47.363,67.383,0
1553635447.033,-77.637,45.898,25.879,46.875,37.598,0
1553635447.037,-64.941,41.016,25.391,56.641,25.391,0
1553635447.041,-82.520,39.062,36.621,56.641,54.199,0
1553635447.045,-100.586,34.668,46.387,38.086,35.156,0
1553635447.049,-100.098,26.367,47.852,37.598,37.109,0
1553635447.053,-93.262,19.531,47.852,47.363,76.660,0
1553635447.057,-93.262,14.160,50.781,44.434,54.688,0
1553635447.061,-91.309,10.742,54.199,41.992,34.180,0
1553635447.065,-86.914,2.930,56.152,47.363,50.293,0
1553635447.069,-91.797,-0.977,55.176,52.734,17.090,0
1553635447.072,-90.332,11.230,52.246,53.223,-0.977,0
1553635447.076,-97.168,19.531,48.340,39.062,16.113,0
1553635447.080,-101.562,13.184,44.434,42.969,45.410,0
1553635447.084,-85.938,9.766,42.969,29.785,40.039,0
1553635447.088,-98.633,20.996,44.922,16.602,14.648,0
1553635447.092,-111.816,21.484,44.434,28.320,-16.602,0
1553635447.096,-102.051,17.090,43.945,50.781,-4.395,0
1553635447.100,-83.496,23.926,42.969,57.129,53.223,0
1553635447.104,-88.379,30.762,41.016,47.363,63.965,0
1553635447.108,-95.215,24.414,42.969,44.434,38.574,0
1553635447.112,-83.496,21.973,45.410,48.828,-39.551,0
1553635447.115,-100.098,31.738,42.480,48.340,-22.949,0
1553635447.119,-100.098,37.598,40.527,41.504,63.477,0
1553635447.123,-90.332,38.086,39.551,53.711,83.496,0
1553635447.127,-84.961,31.738,38.086,53.223,66.895,0
1553635447.131,-79.590,36.133,39.062,30.273,83.984,0
1553635447.135,-92.773,45.898,37.598,35.645,91.797,0
1553635447.139,-90.820,39.062,32.715,50.781,79.102,0
1553635447.143,-83.984,37.598,33.203,34.668,44.434,0
1553635447.147,-82.520,40.527,34.180,28.809,40.039,0
1553635447.151,-72.754,38.086,32.715,41.016,-11.719,0
1553635447.155,-75.684,38.574,35.645,43.457,-30.273,0
1553635447.158,-79.102,38.574,35.645,39.551,63.965,0
1553635447.162,-96.680,39.062,33.691,49.805,58.105,0
1553635447.166,-110.840,43.945,32.715,41.504,51.758,0
1553635447.170,-85.938,38.574,33.691,32.227,24.414,0
1553635447.174,-73.730,32.227,35.156,50.781,-27.344,0
1553635447.178,-78.125,48.340,36.621,42.480,35.156,0
1553635447.182,-76.660,50.781,38.574,33.203,61.523,0
1553635447.186,-70.801,37.598,37.109,41.016,23.438,0
1553635447.190,-73.242,36.621,36.133,39.551,4.883,0
1553635447.194,-77.637,42.480,35.156,43.945,41.992,0
1553635447.197,-75.684,44.922,30.762,31.738,100.586,0
1553635447.201,-76.660,39.062,31.250,30.762,74.219,0
1553635447.205,-83.008,38.086,32.227,38.574,60.547,0
1553635447.209,-85.449,37.598,27.344,24.414,90.332,0
1553635447.213,-85.449,43.457,31.250,26.367,41.016,0
1553635447.217,-94.727,43.945,34.180,35.645,7.812,0
1553635447.221,-85.938,44.434,31.738,28.809,36.133,0
1553635447.225,-78.613,51.270,33.203,35.645,47.363,0
1553635447.229,-84.961,39.551,32.715,50.781,16.113,0
1553635447.233,-81.055,41.016,27.832,28.320,-10.254,0
1553635447.237,-77.637,46.875,26.367,15.625,-26.367,0
1553635447.240,-89.844,43.945,27.832,27.832,-17.090,0
1553635447.244,-100.098,38.574,24.414,32.227,32.715,0
1553635447.248,-100.098,35.645,27.344,33.203,11.719,0
1553635447.252,-104.980,36.133,30.762,30.762,-7.812,0
1553635447.256,-99.609,37.598,27.832,26.855,10.254,0
1553635447.260,-78.613,36.133,31.738,40.039,40.039,0
1553635447.264,-91.309,29.785,35.156,41.504,33.691,0
1553635447.268,-104.980,40.039,32.715,34.668,7.324,0
1553635447.272,-101.074,43.457,31.738,37.109,18.555,0
1553635447.276,-93.750,34.668,29.785,27.344,9.766,0
1553635447.280,-89.355,33.691,26.855,21.484,3.418,0
1553635447.283,-104.004,40.039,28.809,28.809,-9.766,0
1553635447.287,-113.281,43.945,30.273,33.691,30.762,0
1553635447.291,-101.074,37.598,33.203,33.203,55.664,0
1553635447.295,-86.426,34.180,41.504,53.711,-12.207,0
1553635447.299,-79.590,43.457,37.598,61.035,-7.324,0
1553635447.303,-96.191,54.199,26.855,29.297,4.883,0
1553635447.307,-112.305,56.152,21.484,17.090,-36.621,0
1553635447.311,-94.727,63.477,16.602,21.973,-7.324,0
1553635447.315,-83.496,75.195,14.648,26.367,10.742,0
1553635447.319,-85.449,73.730,13.184,26.855,41.992,0
1553635447.322,-80.078,75.195,9.766,26.367,65.918,0
1553635447.326,-83.008,77.148,8.301,27.344,63.477,0
1553635447.330,-100.586,79.102,14.160,32.227,51.270,0
1553635447.334,-94.238,72.754,19.043,31.250,90.820,0
1553635447.338,-83.496,66.895,20.020,29.297,75.195,0
1553635447.342,-83.984,70.801,20.508,41.016,77.637,0
1553635447.346,-78.125,65.918,22.461,42.480,138.672,0
1553635447.350,-86.426,56.152,20.508,36.621,115.723,0
1553635447.354,-83.008,51.270,21.973,35.156,81.055,0
1553635447.358,-78.125,61.035,22.949,30.762,116.699,0
1553635447.362,-78.613,64.453,19.043,36.621,79.102,0
1553635447.365,-83.984,57.617,21.973,40.039,18.555,0
1553635447.369,-94.727,56.641,25.391,34.180,10.254,0
1553635447.373,-96.680,59.082,24.902,29.785,5.859,0
1553635447.377,-80.078,57.617,23.926,25.879,15.137,0
1553635447.381,-70.312,52.734,23.438,35.156,28.320,0
1553635447.385,-88.379,54.688,25.879,38.574,38.086,0
1553635447.389,-80.566,58.105,26.855,36.621,12.207,0
1553635447.393,-73.242,58.105,25.879,41.992,6.348,0
1553635447.397,-92.285,49.316,27.344,45.898,46.875,0
1553635447.401,-95.215,53.711,27.832,52.246,53.711,0
1553635447.405,-85.449,63.965,29.297,47.363,15.625,0
1553635447.408,-77.148,55.176,28.320,50.781,-10.254,0
1553635447.412,-80.078,55.176,28.320,44.434,13.672,0
1553635447.416,-84.961,58.105,30.273,26.367,21.484,0
1553635447.420,-79.102,52.734,30.762,32.715,61.523,0
1553635447.424,-82.520,46.875,28.809,27.832,25.391,0
1553635447.428,-92.285,47.363,28.320,26.367,-24.902,0
1553635447.432,-94.727,49.805,27.832,26.367,36.621,0
1553635447.436,-89.355,48.340,26.855,25.879,21.973,0
1553635447.440,-76.172,48.340,28.320,34.180,34.668,0
1553635447.444,-76.172,45.898,30.762,34.668,25.879,0
1553635447.447,-83.984,46.387,30.762,32.227,-40.039,0
1553635447.451,-78.125,48.828,30.762,37.109,-25.391,0
1553635447.455,-82.520,41.504,30.762,38.086,-5.859,0
1553635447.459,-82.520,40.039,32.715,40.039,5.371,0
1553635447.463,-80.078,48.828,36.133,47.852,14.648,0
1553635447.467,-88.379,40.527,31.738,39.062,17.090,0
1553635447.471,-83.496,35.156,31.250,30.762,-25.391,0
1553635447.475,-83.984,44.922,33.691,39.551,-13.184,0
1553635447.479,-83.008,48.828,28.320,42.969,51.270,0
1553635447.483,-80.078,45.410,28.809,48.340,77.637,0
1553635447.487,-81.543,38.574,32.227,45.898,124.023,0
1553635447.490,-81.055,36.621,28.809,47.363,79.590,0
1553635447.494,-75.195,45.898,28.320,47.852,29.297,0
1553635447.498,-71.289,47.852,30.273,44.922,-19.043,0
1553635447.502,-67.871,38.574,29.785,43.945,-16.602,0
1553635447.506,-69.336,38.086,29.297,41.992,2.441,0
1553635447.510,-79.102,48.828,31.738,54.688,0.488,0
1553635447.514,-83.008,45.410,32.227,50.781,49.316,0
1553635447.518,-78.125,41.016,31.250,46.387,41.992,0
1553635447.522,-83.496,39.551,37.109,51.270,57.129,0
1553635447.526,-88.867,33.691,37.598,44.434,55.176,0
1553635447.530,-82.520,35.156,34.668,45.410,-18.066,0
1553635447.533,-80.566,40.527,35.645,44.434,14.160,0
1553635447.537,-76.660,38.086,34.180,50.781,73.730,0
1553635447.541,-72.754,40.039,30.273,60.547,55.664,0
1553635447.545,-78.125,38.086,33.203,60.547,-16.602,0
1553635447.549,-73.730,34.180,33.203,61.523,-47.852,0
1553635447.553,-68.359,48.340,31.738,57.617,-8.789,0
1553635447.557,-83.496,46.875,33.691,57.129,41.992,0
1553635447.561,-76.660,35.645,33.691,58.105,30.762,0
1553635447.565,-65.430,42.969,31.738,61.523,65.918,0
1553635447.569,-84.473,47.363,30.273,53.223,77.148,0
1553635447.572,-75.684,43.457,27.344,38.086,43.945,0
1553635447.576,-60.547,38.574,25.391,38.574,86.914,0
1553635447.580,-71.777,39.551,25.879,39.062,101.074,0
1553635447.584,-88.867,41.992,25.391,26.367,65.430,0
1553635447.588,-90.820,41.992,24.902,27.832,74.219,0
1553635447.592,-84.473,38.574,27.344,41.992,64.941,0
1553635447.596,-80.566,37.598,29.297,48.340,43.945,0
1553635447.600,-67.383,45.898,27.344,43.945,-9.277,0
1553635447.604,-70.801,42.969,28.809,42.969,8.301,0
1553635447.608,-71.289,41.992,32.227,42.480,35.645,0
1553635447.612,-66.406,44.434,30.762,31.738,20.020,0
1553635447.615,-70.312,42.480,26.855,35.156,11.719,0
1553635447.619,-81.543,39.551,23.926,40.527,59.570,0
1553635447.623,-87.402,41.016,26.367,30.762,78.613,0
1553635447.627,-84.473,42.969,24.902,35.645,55.176,0
1553635447.631,-63.965,40.527,23.438,52.246,12.695,0
1553635447.635,-71.777,44.434,25.879,39.062,25.879,0
1553635447.639,-93.750,37.598,28.320,24.414,30.273,0
1553635447.643,-93.262,41.504,30.273,20.996,46.875,0
1553635447.647,-94.238,41.016,28.809,26.855,66.895,0
1553635447.651,-83.008,32.715,27.832,25.879,-37.109,0
1553635447.655,-82.520,33.691,30.762,33.691,-19.531,0
1553635447.658,-67.383,39.551,32.715,41.016,88.867,0
1553635447.662,-60.547,36.621,35.156,30.273,84.961,0
1553635447.666,-74.219,29.297,35.645,41.016,32.715,0
1553635447.670,-86.914,31.738,33.691,57.129,17.578,0
1553635447.674,-101.074,35.645,31.738,45.410,3.906,0
1553635447.678,-85.938,34.668,29.785,37.598,38.574,0
1553635447.682,-93.262,28.809,29.297,47.363,32.715,0
1553635447.686,-100.586,35.156,31.738,51.270,15.137,0
1553635447.690,-83.984,44.434,32.227,38.086,23.438,0
1553635447.694,-82.520,40.039,31.738,32.227,-6.348,0
1553635447.697,-69.824,40.527,33.691,40.527,-0.977,0
1553635447.701,-65.430,43.457,33.203,38.086,-2.930,0
1553635447.705,-76.172,36.621,33.691,39.551,-0.488,0
1553635447.709,-86.914,37.598,34.180,39.062,13.184,0
1553635447.713,-86.426,44.434,33.203,39.062,36.133,0
1553635447.717,-76.172,45.410,29.785,39.551,26.367,0
1553635447.721,-74.707,42.480,30.273,47.363,25.391,0
1553635447.725,-79.102,41.992,31.250,45.410,-25.879,0
1553635447.729,-80.566,46.875,27.832,35.645,-13.184,0
1553635447.733,-62.012,55.176,27.344,47.363,30.273,0
1553635447.737,-57.617,55.176,25.391,56.152,49.316,0
1553635447.740,-73.242,42.480,32.715,53.223,69.336,0
1553635447.744,-80.566,35.645,40.039,47.363,-6.348,0
1553635447.748,-69.336,41.504,39.062,53.711,-8.789,0
1553635447.752,-63.477,37.109,41.992,59.082,64.453,0
1553635447.756,-57.617,24.902,45.410,62.012,27.832,0
1553635447.760,-60.059,22.949,46.387,63.965,-19.043,0
1553635447.764,-83.984,25.879,42.969,62.500,2.441,0
1553635447.768,-84.473,26.855,39.551,51.270,23.926,0
1553635447.772,-84.473,19.531,39.551,46.387,-4.395,0
1553635447.776,-80.566,28.320,40.527,57.129,11.719,0
1553635447.780,-64.453,41.992,41.016,62.012,55.176,0
1553635447.783,-62.012,36.621,41.504,60.547,63.477,0
1553635447.787,-69.336,31.738,41.992,60.059,54.688,0
1553635447.791,-73.242,30.273,44.922,62.988,17.578,0
1553635447.795,-75.684,34.668,42.969,61.035,11.719,0
1553635447.799,-70.801,32.227,39.551,62.012,91.309,0
1553635447.803,-71.289,32.227,39.062,61.523,129.395,0
1553635447.807,-78.125,33.203,37.109,49.805,103.516,0
1553635447.811,-73.730,35.156,39.551,51.270,42.480,0
1553635447.815,-83.008,39.551,40.039,53.711,56.152,0
1553635447.819,-85.938,39.551,38.574,53.711,75.195,0
1553635447.822,-80.566,39.062,37.598,61.035,6.348,0
1553635447.826,-68.848,41.992,36.621,58.105,-36.621,0
1553635447.830,-69.824,42.480,34.180,58.105,3.906,0
1553635447.834,-74.707,35.645,33.691,64.941,36.133,0
1553635447.838,-66.895,45.410,36.133,66.406,24.414,0
1553635447.842,-69.336,44.922,37.109,63.477,43.457,0
1553635447.846,-75.195,36.133,37.598,60.059,25.879,0
1553635447.850,-75.195,41.992,36.133,56.152,18.555,0
1553635447.854,-75.195,40.527,36.133,51.758,-3.906,0
1553635447.858,-87.402,37.598,39.551,53.223,3.418,0
1553635447.862,-83.984,37.598,37.109,49.805,65.430,0
1553635447.865,-77.148,38.574,32.227,42.480,0.488,0
1553635447.869,-78.613,47.363,31.738,40.039,-12.207,0
1553635447.873,-74.707,47.363,33.691,47.852,23.926,0
1553635447.877,-84.473,36.133,35.645,54.688,62.988,0
1553635447.881,-78.613,37.109,33.203,49.316,50.293,0
1553635447.885,-76.660,48.828,34.668,50.293,29.297,0
1553635447.889,-82.520,44.434,35.645,43.945,57.617,0
1553635447.893,-88.379,42.480,34.668,42.480,47.363,0
1553635447.897,-97.656,47.363,34.668,47.363,19.043,0
1553635447.901,-96.680,51.270,34.668,40.527,62.500,0
1553635447.905,-90.820,47.363,33.691,44.434,64.453,0
1553635447.908,-86.914,41.992,35.156,47.852,33.691,0
1553635447.912,-81.543,45.410,34.180,34.668,36.621,0
1553635447.916,-91.309,48.340,28.809,26.855,54.199,0
1553635447.920,-97.168,41.504,31.250,37.109,59.082,0
1553635447.924,-81.543,34.180,31.738,38.574,8.789,0
1553635447.928,-86.914,47.363,29.785,29.297,-53.223,0
1553635447.932,-97.168,54.199,34.180,33.203,-53.223,0
1553635447.936,-99.609,42.480,32.227,36.133,-17.090,0
1553635447.940,-90.820,38.574,28.809,40.039,36.621,0
1553635447.944,-92.773,45.410,31.250,45.410,21.973,0
1553635447.947,-92.773,53.711,27.832,35.156,-18.066,0
1553635447.951,-86.426,44.922,27.832,32.227,-10.254,0
1553635447.955,-92.773,41.504,30.273,41.992,-3.418,0
1553635447.959,-93.262,44.922,32.227,41.992,25.391,0
1553635447.963,-90.820,47.363,32.715,32.227,33.203,0
1553635447.967,-88.867,39.062,30.273,33.203,38.574,0
1553635447.971,-89.844,38.086,29.297,38.086,56.641,0
1553635447.975,-102.539,50.781,29.297,28.320,45.898,0
1553635447.979,-99.609,44.922,28.320,24.414,57.617,0
1553635447.983,-90.332,42.969,25.391,23.438,22.461,0
1553635447.987,-83.008,46.387,26.855,25.879,6.836,0
1553635447.990,-84.473,45.898,25.879,30.273,24.414,0
1553635447.994,-86.914,45.410,25.879,29.297,0.488,0
1553635447.998,-78.613,44.434,28.320,35.156,9.277,0
1553635448.002,-72.754,43.457,26.367,42.480,-35.156,0
1553635448.006,-82.031,47.852,26.367,46.387,14.160,0
1553635448.010,-90.332,46.387,27.832,41.016,34.180,0
1553635448.014,-82.031,41.016,25.391,32.227,-28.320,0
1553635448.018,-72.266,49.805,22.949,34.180,22.461,0
1553635448.022,-71.289,52.246,21.973,36.133,65.918,0
1553635448.026,-64.941,44.922,21.973,38.574,53.223,0
1553635448.030,-56.641,43.945,21.973,50.781,80.078,0
1553635448.033,-79.590,45.898,30.273,38.574,66.895,0
1553635448.037,-97.656,40.039,36.133,20.996,1.953,0
1553635448.041,-75.195,33.203,30.762,26.367,-7.812,0
1553635448.045,-72.266,32.715,33.691,31.738,11.230,0
1553635448.049,-97.168,35.156,35.645,36.133,37.109,0
1553635448.053,-88.867,31.738,36.621,37.109,62.012,0
1553635448.057,-76.660,23.438,37.598,30.273,35.645,0
1553635448.061,-80.078,25.391,34.180,34.180,-2.441,0
1553635448.065,-76.172,44.434,33.203,38.574,-14.160,0
1553635448.069,-74.707,41.504,33.203,44.434,17.578,0
1553635448.072,-60.547,34.668,32.715,54.199,-2.441,0
1553635448.076,-55.664,38.574,30.762,49.805,0.977,0
1553635448.080,-62.500,34.668,31.250,50.781,-12.695,0
1553635448.084,-58.594,30.273,33.691,58.105,-0.488,0
1553635448.088,-61.035,33.203,31.250,44.434,37.598,0
1553635448.092,-73.730,35.645,33.203,47.852,52.246,0
1553635448.096,-74.219,31.250,37.598,53.223,60.547,0
1553635448.100,-72.266,27.832,34.180,44.434,41.016,0
1553635448.104,-75.195,27.344,31.738,39.062,47.363,0
1553635448.108,-66.406,34.668,32.227,47.852,81.055,0
1553635448.112,-61.035,40.039,32.227,56.641,60.059,0
1553635448.115,-47.852,35.156,32.715,54.199,15.625,0
1553635448.119,-50.781,27.344,29.785,57.129,32.227,0
1553635448.123,-48.340,32.715,32.227,62.012,57.129,0
1553635448.127,-43.945,39.551,38.086,61.523,82.520,0
1553635448.131,-56.641,32.715,37.598,55.176,46.387,0
1553635448.135,-59.570,33.203,38.574,59.570,46.875,0
1553635448.139,-63.965,37.598,36.133,59.082,61.035,0
1553635448.143,-64.453,35.156,34.668,59.570,36.133,0
1553635448.147,-65.430,25.391,35.645,62.012,44.922,0
1553635448.151,-57.617,33.203,32.715,51.270,33.203,0
1553635448.155,-54.199,44.922,32.227,44.434,-27.344,0
1553635448.158,-66.895,36.621,34.668,48.828,-33.203,0
1553635448.162,-66.895,34.668,34.668,50.781,37.598,0
1553635448.166,-66.895,35.645,35.156,41.016,38.086,0
1553635448.170,-68.359,34.180,40.039,43.945,12.207,0
1553635448.174,-72.754,30.273,38.574,42.969,6.348,0
1553635448.178,-78.613,27.344,34.180,34.180,24.902,0
1553635448.182,-65.918,33.203,36.133,36.621,57.617,0
1553635448.186,-61.523,39.551,35.156,39.551,55.176,0
1553635448.190,-69.336,34.180,37.109,45.410,32.227,0
1553635448.194,-59.082,33.691,37.598,51.758,4.395,0
1553635448.197,-63.477,39.551,38.574,47.852,12.695,0
1553635448.201,-65.430,43.945,40.527,49.316,41.992,0
1553635448.205,-62.012,34.180,37.109,53.223,65.918,0
1553635448.209,-73.730,24.902,39.062,50.781,14.648,0
1553635448.213,-70.801,41.992,37.109,50.781,8.301,0
1553635448.217,-52.734,45.898,35.156,55.176,85.449,0
1553635448.221,-52.246,31.738,38.086,53.711,45.898,0
1553635448.225,-66.895,33.203,36.621,50.293,1.465,0
1553635448.229,-69.824,40.527,35.156,47.852,37.109,0
1553635448.233,-68.848,39.062,34.668,41.504,19.043,0
1553635448.237,-59.570,36.621,33.203,40.039,-16.602,0
1553635448.240,-50.781,29.297,37.598,43.945,18.555,0
1553635448.244,-40.527,29.297,41.016,54.688,40.039,0
1553635448.248,-38.086,45.898,32.715,48.828,-0.488,0
1553635448.252,-59.082,47.852,26.855,21.484,51.758,0
1553635448.256,-62.012,45.410,23.438,21.484,49.805,0
1553635448.260,-47.363,63.965,19.531,20.020,9.766,0
1553635448.264,-58.105,61.035,22.461,12.207,31.738,0
1553635448.268,-64.453,59.082,18.066,9.766,43.945,0
1553635448.272,-76.660,61.035,12.695,0.488,44.922,0
1553635448.276,-83.008,54.688,18.555,10.254,15.625,0
1553635448.280,-75.684,56.152,20.020,6.348,11.230,0
1553635448.283,-69.824,52.246,20.020,8.789,64.941,0
1553635448.287,-50.293,44.434,22.949,15.137,38.086,0
1553635448.291,-46.387,45.898,23.438,6.836,50.293,0
1553635448.295,-51.270,46.387,21.973,11.719,39.062,0
1553635448.299,-59.082,41.016,22.949,15.137,-11.230,0
1553635448.303,-69.336,49.316,23.438,13.184,34.668,0
1553635448.307,-56.641,49.805,20.020,16.113,47.363,0
