timestamps,TP9,AF7,AF8,TP10,Right AUX,Marker0
1542737509.069,25.879,38.574,33.203,18.066,-11.719,0
1542737509.073,34.668,30.762,31.738,15.625,8.301,0
1542737509.076,28.809,16.113,30.762,32.227,-17.090,0
1542737509.080,36.621,8.301,31.738,48.828,-1.953,0
1542737509.084,33.203,20.996,27.832,34.180,43.457,0
1542737509.088,20.020,37.598,20.020,31.738,6.348,0
1542737509.092,11.719,38.086,21.973,29.297,15.137,0
1542737509.096,33.203,42.969,22.461,3.418,15.137,0
1542737509.100,38.574,36.621,24.902,15.137,23.926,0
1542737509.104,15.137,30.762,30.762,20.508,32.715,0
1542737509.108,8.789,32.227,33.691,10.742,30.273,0
1542737509.112,11.719,33.203,32.227,6.348,77.148,0
1542737509.116,11.230,39.062,41.504,14.160,78.613,0
1542737509.119,18.555,29.297,53.223,26.855,49.316,0
1542737509.123,25.879,20.996,41.016,39.062,25.879,0
1542737509.127,22.461,22.949,38.574,40.527,-3.906,0
1542737509.131,27.344,13.672,47.363,35.156,-12.207,0
1542737509.135,39.062,10.254,46.875,23.926,34.668,0
1542737509.139,28.809,21.484,40.039,15.625,23.926,0
1542737509.143,13.184,24.902,37.109,0.977,26.367,0
1542737509.147,17.090,32.227,39.062,7.812,25.879,0
1542737509.151,16.113,29.785,37.598,2.441,-39.551,0
1542737509.155,17.578,23.438,37.109,14.648,27.832,0
1542737509.158,6.348,24.414,39.551,5.371,55.176,0
1542737509.162,-4.395,26.367,37.598,-11.719,30.273,0
1542737509.166,1.953,27.832,39.062,13.184,67.383,0
1542737509.170,10.742,28.320,38.086,20.508,41.016,0
1542737509.174,6.836,27.344,33.691,19.531,7.812,0
1542737509.178,10.254,29.297,34.668,37.109,-15.137,0
1542737509.182,27.832,28.809,37.109,49.316,-25.879,0
1542737509.186,31.738,27.832,33.691,25.879,-10.742,0
1542737509.190,32.227,34.668,37.598,10.254,26.367,0
1542737509.194,41.016,37.109,41.504,29.297,43.457,0
1542737509.198,37.598,33.203,35.156,31.738,6.348,0
1542737509.201,41.992,25.391,31.738,31.250,-26.367,0
1542737509.205,33.691,35.156,30.762,42.969,-20.020,0
1542737509.209,15.625,40.039,28.809,28.320,-20.996,0
1542737509.213,24.414,33.691,28.809,42.969,-41.504,0
1542737509.217,25.879,34.668,29.297,40.039,10.254,0
1542737509.221,29.785,30.273,24.414,20.996,16.602,0
1542737509.225,33.203,31.738,27.832,39.062,33.691,0
1542737509.229,25.879,29.785,33.691,40.039,34.668,0
1542737509.233,31.250,39.062,36.621,37.598,38.086,0
1542737509.237,44.922,39.551,39.551,41.504,71.289,0
1542737509.241,41.016,30.762,37.109,47.363,36.621,0
1542737509.244,31.250,32.715,30.273,32.227,24.414,0
1542737509.248,35.645,33.691,25.391,32.715,33.203,0
1542737509.252,44.434,27.344,32.227,35.156,16.113,0
1542737509.256,30.273,27.344,33.203,40.039,-9.277,0
1542737509.260,26.367,45.410,22.461,36.621,46.387,0
1542737509.264,51.758,50.781,21.973,15.137,30.762,0
1542737509.268,64.941,40.527,28.320,18.555,6.836,0
1542737509.272,38.574,35.156,30.762,23.926,20.020,0
1542737509.276,21.973,37.109,32.715,21.484,12.207,0
1542737509.280,22.949,38.086,36.621,10.254,26.367,0
1542737509.283,19.531,35.156,32.715,13.184,-31.738,0
1542737509.287,16.602,26.855,28.320,38.086,-26.367,0
1542737509.291,48.340,26.367,33.691,50.293,39.551,0
1542737509.295,61.035,40.039,32.227,40.039,62.012,0
1542737509.299,8.789,34.180,21.484,14.648,44.922,0
1542737509.303,9.277,27.832,23.438,0.000,24.902,0
1542737509.307,32.227,40.527,35.645,22.461,95.703,0
1542737509.311,28.320,39.551,24.414,26.855,144.043,0
1542737509.315,12.695,34.180,8.301,10.742,48.828,0
1542737509.319,-2.930,55.176,11.719,-3.906,-8.301,0
1542737509.323,13.672,67.871,21.973,-0.977,15.137,0
1542737509.326,-6.348,48.828,22.949,-18.555,31.250,0
1542737509.330,-15.137,29.297,17.578,-33.203,27.832,0
1542737509.334,21.973,32.227,20.508,4.883,-8.789,0
1542737509.338,20.020,48.828,22.949,21.484,-9.766,0
1542737509.342,-0.977,48.828,17.090,12.207,30.273,0
1542737509.346,-8.301,28.809,9.766,-5.371,73.242,0
1542737509.350,-8.789,18.555,11.719,-4.395,66.406,0
1542737509.354,2.441,26.855,12.207,0.977,44.922,0
1542737509.358,9.277,29.785,12.207,22.949,33.203,0
1542737509.362,12.695,32.715,18.066,32.227,27.832,0
1542737509.366,14.648,37.109,21.973,1.465,45.898,0
1542737509.369,22.461,36.133,22.461,9.277,32.227,0
1542737509.373,23.438,38.086,22.461,25.391,57.129,0
1542737509.377,11.230,31.738,24.414,32.715,46.875,0
1542737509.381,21.484,31.250,24.414,16.113,-3.418,0
1542737509.385,27.832,35.645,25.391,21.973,3.906,0
1542737509.389,29.297,33.203,27.832,49.805,9.277,0
1542737509.393,37.109,33.203,27.344,47.363,-0.488,0
1542737509.397,32.715,33.203,26.367,47.852,-18.066,0
1542737509.401,41.504,33.691,26.367,13.184,-74.219,0
1542737509.405,28.809,36.133,24.414,-11.719,-65.918,0
1542737509.408,9.766,32.227,23.926,8.301,-20.020,0
1542737509.412,40.039,34.668,25.391,16.602,16.113,0
1542737509.416,46.387,38.086,25.879,8.789,48.340,0
1542737509.420,28.809,35.156,25.879,9.766,17.090,0
1542737509.424,39.551,33.203,26.855,25.879,6.348,0
1542737509.428,41.504,27.344,27.344,46.875,2.930,0
1542737509.432,26.367,33.203,23.926,22.949,-9.277,0
1542737509.436,18.555,38.086,24.902,16.113,12.207,0
1542737509.440,28.320,31.738,30.762,49.316,7.324,0
1542737509.444,50.781,33.691,25.391,44.434,3.418,0
1542737509.448,55.176,36.621,23.926,28.809,-35.645,0
1542737509.451,43.457,25.879,31.738,35.156,-51.758,0
1542737509.455,27.832,23.926,32.227,40.527,-57.617,0
1542737509.459,18.555,35.156,29.297,18.555,-44.922,0
1542737509.463,20.020,44.922,31.738,23.926,35.156,0
1542737509.467,40.527,42.969,33.691,34.668,45.410,0
1542737509.471,61.035,34.180,32.227,25.879,41.504,0
1542737509.475,28.809,30.762,29.785,19.043,17.578,0
1542737509.479,21.973,35.156,26.367,24.414,22.461,0
1542737509.483,25.879,33.691,20.508,32.227,9.277,0
1542737509.487,12.695,33.691,20.508,12.695,29.785,0
1542737509.491,22.949,36.133,26.367,14.160,51.270,0
1542737509.494,28.809,31.250,30.762,38.086,83.984,0
1542737509.498,26.367,29.297,34.668,30.273,74.219,0
1542737509.502,20.508,27.344,32.715,12.207,36.133,0
1542737509.506,31.738,20.996,29.297,18.555,6.348,0
1542737509.510,25.391,27.832,29.785,21.973,23.926,0
1542737509.514,17.090,35.645,31.738,24.902,58.594,0
1542737509.518,39.551,28.809,29.297,19.043,46.875,0
1542737509.522,45.898,26.367,26.855,14.160,13.672,0
1542737509.526,42.480,36.621,27.832,37.598,40.039,0
1542737509.530,49.316,34.180,24.902,25.391,58.105,0
1542737509.533,40.527,26.855,23.438,18.066,36.133,0
1542737509.537,40.527,30.273,29.297,42.480,4.395,0
1542737509.541,44.434,33.691,33.691,35.156,-17.578,0
1542737509.545,29.785,27.832,29.297,22.461,-18.555,0
1542737509.549,17.578,23.438,25.391,31.738,-17.090,0
1542737509.553,21.484,24.902,25.391,23.926,39.062,0
1542737509.557,33.691,20.996,22.461,28.809,36.621,0
1542737509.561,31.250,26.855,23.438,73.242,-14.160,0
1542737509.565,30.273,43.457,27.832,57.129,-12.695,0
1542737509.569,36.133,41.016,30.273,35.156,18.555,0
1542737509.573,26.367,27.344,28.320,37.109,6.836,0
1542737509.576,17.090,23.438,25.879,7.324,-1.953,0
1542737509.580,20.996,29.785,27.832,3.906,35.645,0
1542737509.584,16.602,32.227,27.344,30.762,1.465,0
1542737509.588,28.320,27.832,25.391,39.062,-34.668,0
1542737509.592,35.156,26.367,29.785,34.668,0.000,0
1542737509.596,40.527,32.715,31.250,25.391,11.230,0
1542737509.600,34.668,38.574,26.367,18.555,5.859,0
1542737509.604,29.785,35.645,19.531,21.973,26.367,0
1542737509.608,40.527,25.391,27.832,14.648,90.820,0
1542737509.612,53.223,28.809,42.480,24.902,62.988,0
1542737509.616,44.922,33.691,36.621,34.668,36.133,0
1542737509.619,22.461,36.133,30.273,35.645,1.465,0
1542737509.623,16.602,36.621,28.809,16.113,28.809,0
1542737509.627,20.996,41.016,27.344,20.508,23.926,0
1542737509.631,18.066,39.551,29.297,36.621,-6.836,0
1542737509.635,16.113,30.273,21.973,26.855,15.137,0
1542737509.639,24.414,33.691,17.578,48.828,15.137,0
1542737509.643,31.738,35.156,20.508,36.621,60.059,0
1542737509.647,43.457,35.156,21.484,17.090,45.410,0
1542737509.651,33.203,32.715,28.809,14.648,1.953,0
1542737509.655,12.695,35.156,38.574,13.672,83.496,0
1542737509.658,22.949,35.645,35.645,14.160,77.637,0
1542737509.662,18.555,33.203,29.297,19.531,23.438,0
1542737509.666,14.648,31.738,28.320,36.621,0.488,0
1542737509.670,26.367,34.668,28.320,21.973,29.297,0
1542737509.674,25.879,38.086,23.438,-4.395,51.270,0
1542737509.678,33.203,33.691,23.438,23.926,-9.766,0
1542737509.682,29.297,36.621,28.809,40.527,27.344,0
1542737509.686,14.160,34.668,22.461,22.461,52.734,0
1542737509.690,39.062,23.926,23.438,30.762,3.418,0
1542737509.694,50.293,21.973,25.879,35.156,43.457,0
1542737509.698,35.645,45.410,28.320,27.832,46.387,0
1542737509.701,43.457,58.594,30.273,52.734,4.395,0
1542737509.705,41.992,54.688,21.973,35.156,58.105,0
1542737509.709,10.742,45.410,19.043,-12.695,71.289,0
1542737509.713,-3.906,32.715,20.508,-18.555,44.922,0
1542737509.717,10.254,33.203,21.973,-3.906,29.785,0
1542737509.721,9.766,35.156,20.996,3.418,18.066,0
1542737509.725,1.465,32.227,17.090,10.742,15.625,0
1542737509.729,29.785,33.691,22.461,40.527,66.895,0
1542737509.733,42.969,36.133,29.297,32.715,108.398,0
1542737509.737,30.762,38.574,34.668,33.691,85.449,0
1542737509.741,40.039,35.645,35.156,56.152,17.090,0
1542737509.744,36.621,26.367,27.344,21.484,11.230,0
1542737509.748,22.949,31.250,23.926,18.066,59.570,0
1542737509.752,12.207,30.273,26.855,27.344,69.824,0
1542737509.756,19.043,28.809,28.809,17.090,35.156,0
1542737509.760,26.367,36.621,28.809,17.578,44.434,0
1542737509.764,27.344,38.574,24.414,30.762,68.848,0
1542737509.768,20.508,32.715,19.531,49.805,23.926,0
1542737509.772,21.484,27.832,27.832,25.879,25.879,0
1542737509.776,21.973,34.180,33.203,9.277,37.109,0
1542737509.780,33.691,28.320,30.762,26.367,-1.465,0
1542737509.783,32.715,23.438,31.738,33.691,15.137,0
1542737509.787,48.340,38.574,28.320,41.016,23.926,0
1542737509.791,54.199,37.598,25.879,45.410,7.812,0
1542737509.795,31.738,23.926,35.156,52.734,14.648,0
1542737509.799,18.066,20.020,31.738,42.480,20.996,0
1542737509.803,11.230,31.738,20.508,6.348,19.043,0
1542737509.807,6.836,40.527,20.020,15.137,1.953,0
1542737509.811,0.977,35.645,25.391,27.832,10.254,0
1542737509.815,4.395,31.250,30.273,15.625,13.184,0
1542737509.819,20.996,33.691,29.297,25.879,33.691,0
1542737509.823,27.832,34.668,31.738,21.484,12.207,0
1542737509.826,18.066,26.855,32.227,21.973,12.207,0
1542737509.830,19.531,27.344,28.809,32.715,61.523,0
1542737509.834,33.203,31.250,30.273,45.410,51.758,0
1542737509.838,32.715,30.762,33.691,41.992,-26.367,0
1542737509.842,35.645,35.645,33.203,40.039,0.977,0
1542737509.846,33.203,36.133,31.250,40.039,0.977,0
1542737509.850,25.391,31.250,27.344,27.832,-32.227,0
1542737509.854,26.367,33.691,21.484,29.297,25.391,0
1542737509.858,26.855,34.668,22.461,35.156,31.738,0
1542737509.862,37.109,33.691,25.879,21.484,33.203,0
1542737509.866,31.738,31.738,30.273,10.742,21.973,0
1542737509.869,15.625,20.508,34.180,52.734,2.930,0
1542737509.873,24.414,26.367,34.668,70.312,9.277,0
1542737509.877,27.832,33.691,31.250,31.250,25.879,0
1542737509.881,27.832,27.832,27.832,22.461,44.922,0
1542737509.885,23.438,30.273,27.344,9.766,71.777,0
1542737509.889,20.508,34.668,32.227,0.488,68.359,0
1542737509.893,26.367,30.762,34.180,25.391,80.078,0
1542737509.897,38.086,28.320,33.691,31.250,54.199,0
1542737509.901,43.457,20.020,30.762,27.344,40.039,0
1542737509.905,38.086,14.648,26.855,47.363,64.453,0
1542737509.908,35.645,29.297,31.250,55.176,75.195,0
1542737509.912,43.945,39.551,29.297,45.410,123.047,0
1542737509.916,43.945,39.062,20.508,32.227,144.531,0
1542737509.920,26.367,41.016,26.367,26.367,141.602,0
1542737509.924,20.996,36.133,24.902,22.949,165.039,0
1542737509.928,19.531,32.227,22.461,15.625,231.445,0
1542737509.932,18.066,27.832,27.344,22.949,240.234,0
1542737509.936,21.973,22.461,26.855,15.137,230.957,0
1542737509.940,16.602,15.137,23.926,16.113,267.090,0
1542737509.944,12.207,17.578,24.902,24.902,296.387,0
1542737509.948,21.484,26.367,28.320,16.113,325.195,0
1542737509.951,34.668,32.715,31.250,20.996,341.309,0
1542737509.955,25.879,38.574,31.738,20.508,344.727,0
1542737509.959,16.602,34.180,27.832,11.719,381.348,0
1542737509.963,26.855,36.133,30.273,9.277,427.734,0
1542737509.967,30.273,34.668,28.320,14.160,449.707,0
1542737509.971,27.344,33.203,25.391,27.832,467.773,0
1542737509.975,32.715,40.039,32.715,40.527,481.934,0
1542737509.979,35.156,39.551,37.109,46.387,511.719,0
1542737509.983,39.062,33.691,34.180,37.109,534.668,0
1542737509.987,46.875,36.133,35.156,29.785,576.660,0
1542737509.991,32.227,33.691,27.344,28.809,643.555,0
1542737509.994,28.809,30.273,25.391,49.805,690.430,0
1542737509.998,31.738,21.484,34.668,61.035,741.211,0
1542737510.002,12.695,20.996,29.297,33.691,805.664,0
1542737510.006,2.930,31.250,27.344,22.461,864.258,0
1542737510.010,11.230,32.227,28.809,23.438,886.230,0
1542737510.014,21.484,30.273,26.855,15.137,913.574,0
1542737510.018,25.391,31.250,30.273,0.488,936.035,0
1542737510.022,38.574,35.645,31.738,27.832,936.523,0
1542737510.026,58.105,37.109,29.785,51.758,906.738,0
1542737510.030,49.316,36.621,33.203,41.016,889.648,0
1542737510.033,35.645,34.668,32.715,38.086,922.852,0
1542737510.037,38.086,34.180,31.250,20.996,931.641,0
1542737510.041,7.324,26.367,32.715,5.859,884.277,0
1542737510.045,5.859,24.414,30.762,25.391,816.406,0
1542737510.049,46.875,44.434,39.551,37.598,775.879,0
1542737510.053,57.617,47.852,38.574,44.434,690.918,0
1542737510.057,49.316,26.855,29.297,28.809,588.379,0
1542737510.061,40.039,15.625,27.344,33.203,553.711,0
1542737510.065,36.621,24.414,27.344,44.434,530.273,0
1542737510.069,33.203,33.203,25.879,20.020,450.195,0
1542737510.073,11.230,31.250,27.832,13.672,366.699,0
1542737510.076,12.695,35.156,31.738,2.441,346.680,0
1542737510.080,30.762,33.203,30.762,-3.906,324.707,0
1542737510.084,37.109,40.527,31.738,25.391,296.387,0
1542737510.088,49.805,41.504,35.156,54.199,249.512,0
1542737510.092,34.180,26.367,35.645,32.227,184.082,0
1542737510.096,19.043,30.762,30.273,19.531,125.977,0
1542737510.100,31.738,34.180,29.785,22.949,75.195,0
1542737510.104,35.156,29.785,35.156,18.066,0.000,0
1542737510.108,31.738,22.949,31.738,12.207,-66.895,0
1542737510.112,22.949,24.902,29.785,15.137,-115.234,0
1542737510.116,21.973,27.344,27.832,47.363,-180.664,0
1542737510.119,18.555,29.785,26.855,46.875,-262.207,0
1542737510.123,20.508,33.203,30.762,12.207,-320.312,0
1542737510.127,24.414,28.320,29.785,31.738,-355.957,0
1542737510.131,27.832,32.715,32.227,25.391,-395.996,0
1542737510.135,34.668,43.945,36.621,4.395,-441.406,0
1542737510.139,23.438,33.691,31.250,13.184,-459.473,0
1542737510.143,29.785,26.855,22.461,20.996,-413.574,0
1542737510.147,44.434,38.574,21.484,37.598,-422.363,0
1542737510.151,41.016,38.086,26.367,39.062,-447.754,0
1542737510.155,36.621,20.996,26.855,38.086,-432.617,0
1542737510.158,30.762,12.207,32.715,49.805,-450.684,0
1542737510.162,44.434,21.973,42.969,35.645,-455.078,0
1542737510.166,49.805,27.344,38.086,36.621,-466.309,0
1542737510.170,38.086,34.180,25.879,46.387,-470.703,0
1542737510.174,31.250,40.527,23.438,19.531,-447.266,0
1542737510.178,33.203,37.109,29.297,5.859,-451.660,0
1542737510.182,34.668,36.621,31.738,13.672,-447.754,0
1542737510.186,36.621,30.762,29.785,23.438,-428.223,0
1542737510.190,34.180,20.996,25.391,28.809,-420.898,0
1542737510.194,20.508,24.902,26.367,32.715,-434.570,0
1542737510.198,17.578,31.250,32.227,38.574,-449.219,0
1542737510.201,22.949,25.879,31.250,24.902,-437.012,0
1542737510.205,29.297,25.879,28.320,10.254,-443.359,0
1542737510.209,9.766,18.555,30.762,20.996,-461.426,0
1542737510.213,0.977,19.043,34.180,41.992,-464.844,0
1542737510.217,2.930,25.879,31.738,26.367,-465.820,0
1542737510.221,4.395,28.320,29.785,9.277,-486.816,0
1542737510.225,16.602,29.785,32.715,19.043,-496.094,0
1542737510.229,19.043,27.344,30.762,14.648,-442.871,0
1542737510.233,25.879,39.062,26.367,10.254,-428.711,0
1542737510.237,31.250,48.340,27.344,15.137,-450.684,0
1542737510.241,37.109,39.551,31.738,20.508,-463.867,0
1542737510.244,27.832,37.109,32.715,44.922,-452.148,0
1542737510.248,15.137,34.668,31.250,38.086,-437.500,0
1542737510.252,27.832,31.738,29.297,16.602,-439.941,0
1542737510.256,37.109,36.133,28.320,32.227,-432.129,0
1542737510.260,15.137,33.203,27.832,25.391,-437.500,0
1542737510.264,8.789,22.461,24.902,21.484,-433.594,0
1542737510.268,23.926,23.438,33.203,54.688,-421.387,0
1542737510.272,33.691,28.809,33.203,50.781,-382.812,0
1542737510.276,31.738,32.715,29.785,24.902,-339.844,0
1542737510.280,27.344,34.180,32.715,34.668,-337.402,0
1542737510.283,21.973,32.715,32.227,12.207,-319.824,0
1542737510.287,10.742,26.855,30.273,-10.254,-312.500,0
1542737510.291,18.066,34.180,32.227,14.648,-300.781,0
1542737510.295,25.391,42.969,34.668,22.461,-276.855,0
1542737510.299,17.578,35.156,29.785,5.371,-263.672,0
1542737510.303,14.648,31.738,26.367,3.418,-267.578,0
1542737510.307,20.996,34.668,26.855,11.230,-276.855,0
1542737510.311,28.320,35.645,28.809,22.461,-240.723,0
1542737510.315,31.250,26.367,30.762,25.391,-191.406,0
1542737510.319,26.367,19.043,30.273,20.996,-185.547,0
1542737510.323,37.109,24.902,34.180,34.668,-163.574,0
1542737510.326,47.852,29.785,39.551,53.711,-156.250,0
1542737510.330,44.434,33.203,39.551,46.875,-153.809,0
1542737510.334,54.199,38.574,38.086,52.734,-118.652,0
1542737510.338,52.734,41.504,37.109,50.293,-130.859,0
1542737510.342,46.387,47.852,33.203,38.086,-117.188,0
1542737510.346,47.363,46.875,23.438,36.621,-119.629,0
1542737510.350,30.273,37.598,21.973,21.484,-136.230,0
1542737510.354,15.137,30.762,28.320,19.531,-88.379,0
1542737510.358,8.789,22.461,32.715,11.230,-149.414,0
1542737510.362,13.184,28.809,32.227,9.766,-95.703,0
1542737510.366,20.996,30.762,31.250,16.113,-38.574,0
1542737510.369,24.414,29.785,33.691,17.578,-86.914,0
1542737510.373,30.273,31.738,32.227,19.531,-73.242,0
1542737510.377,18.555,29.785,30.273,27.832,-77.148,0
1542737510.381,11.230,36.133,32.227,38.574,-133.301,0
1542737510.385,32.227,45.410,32.715,25.879,-119.141,0
1542737510.389,45.410,47.363,28.809,10.254,-14.160,0
1542737510.393,36.621,38.086,22.461,12.207,-0.488,0
1542737510.397,28.320,30.762,27.344,17.090,-58.105,0
1542737510.401,27.344,34.668,34.180,19.043,-34.668,0
1542737510.405,28.320,34.180,32.715,20.020,1.465,0
1542737510.408,32.227,28.320,27.344,19.531,-88.379,0
1542737510.412,34.180,32.715,25.391,21.973,-56.152,0
1542737510.416,31.250,35.645,23.926,18.555,-18.555,0
1542737510.420,30.762,41.992,28.809,20.020,-43.945,0
1542737510.424,31.250,46.387,31.250,26.367,-42.969,0
1542737510.428,33.691,35.645,20.508,32.227,-62.012,0
1542737510.432,58.594,32.715,22.949,59.570,-50.781,0
1542737510.436,56.152,44.922,31.738,53.711,-13.672,0
1542737510.440,33.691,42.969,27.832,21.484,8.789,0
1542737510.444,28.809,37.598,20.996,23.438,13.184,0
1542737510.448,30.762,38.574,20.508,10.254,33.203,0
1542737510.451,51.270,42.969,22.949,28.809,51.758,0
1542737510.455,63.965,46.387,26.367,54.688,8.789,0
1542737510.459,52.246,37.109,25.879,39.551,6.836,0
1542737510.463,43.457,36.621,21.484,39.062,49.805,0
1542737510.467,49.805,49.316,25.879,48.340,-6.348,0
1542737510.471,55.664,44.922,26.855,42.969,-28.320,0
1542737510.475,54.688,34.668,23.926,36.133,-1.953,0
1542737510.479,47.852,36.133,25.879,47.852,17.578,0
1542737510.483,49.805,37.109,27.344,50.781,38.574,0
1542737510.487,58.105,36.621,27.832,29.297,58.105,0
1542737510.491,51.270,38.574,25.391,38.086,94.727,0
1542737510.494,50.781,39.551,27.832,45.410,43.945,0
1542737510.498,56.152,34.668,31.250,33.691,-15.137,0
1542737510.502,47.363,30.273,28.320,41.504,47.363,0
1542737510.506,50.293,33.691,28.320,41.992,54.199,0
1542737510.510,49.316,38.086,30.273,38.574,-12.207,0
1542737510.514,34.668,35.156,28.809,45.898,11.719,0
1542737510.518,28.320,36.133,26.855,46.387,33.203,0
1542737510.522,41.992,42.969,28.809,44.922,11.230,0
1542737510.526,45.898,42.969,22.949,48.828,8.301,0
1542737510.530,40.039,37.598,18.555,40.527,-11.230,0
1542737510.533,35.156,32.227,24.902,35.156,48.828,0
1542737510.537,35.645,34.180,27.344,25.879,66.406,0
1542737510.541,48.340,35.645,26.855,31.250,29.785,0
1542737510.545,61.035,34.180,28.320,37.598,21.484,0
1542737510.549,65.918,34.180,34.668,39.551,1.465,0
1542737510.553,58.594,34.668,38.574,44.922,-45.898,0
1542737510.557,51.270,34.668,37.109,46.387,-42.480,0
1542737510.561,50.781,35.156,32.715,39.062,2.441,0
1542737510.565,41.992,32.715,25.879,35.645,-34.180,0
1542737510.569,44.434,34.668,26.855,42.969,-50.293,0
1542737510.573,48.340,41.504,31.738,41.016,-21.484,0
1542737510.576,29.297,39.062,33.691,38.086,-40.527,0
1542737510.580,27.344,39.062,30.273,31.250,-49.805,0
1542737510.584,35.156,41.992,26.855,36.133,-27.832,0
1542737510.588,32.227,37.598,26.367,34.668,-23.438,0
1542737510.592,34.180,26.855,22.949,41.504,16.113,0
1542737510.596,48.828,25.391,26.855,41.504,15.137,0
1542737510.600,37.109,35.645,36.621,19.043,-19.531,0
1542737510.604,28.320,41.992,34.668,11.230,-15.625,0
1542737510.608,32.715,34.180,29.785,24.902,21.973,0
1542737510.612,29.785,29.785,30.273,17.090,46.387,0
1542737510.616,34.180,33.203,34.180,17.578,25.879,0
1542737510.619,29.297,32.715,33.203,22.949,7.324,0
1542737510.623,22.949,33.203,27.832,15.137,-10.254,0
1542737510.627,31.250,35.156,29.785,20.020,-26.855,0
1542737510.631,47.363,37.598,30.762,29.297,7.324,0
1542737510.635,32.227,36.133,32.715,49.316,-12.695,0
1542737510.639,22.461,38.086,36.621,47.363,-15.625,0
1542737510.643,24.902,37.598,32.715,24.902,12.207,0
1542737510.647,18.066,32.227,29.297,22.461,-10.742,0
1542737510.651,26.855,31.250,29.785,15.625,6.836,0
1542737510.655,31.738,31.250,29.297,18.555,6.836,0
1542737510.658,31.250,33.203,29.785,26.367,39.062,0
1542737510.662,31.738,35.645,34.180,49.316,12.695,0
1542737510.666,36.133,34.668,35.645,61.035,-33.691,0
1542737510.670,41.992,31.250,33.691,34.668,3.418,0
1542737510.674,54.688,32.227,30.273,27.344,3.418,0
1542737510.678,48.828,31.250,28.809,30.762,-8.789,0
1542737510.682,29.785,31.250,32.227,20.020,29.785,0
1542737510.686,28.809,22.949,34.668,12.207,90.332,0
1542737510.690,31.250,23.438,33.691,28.320,45.410,0
1542737510.694,24.414,39.551,30.273,31.250,-16.113,0
1542737510.698,15.625,35.156,24.902,21.973,-2.441,0
1542737510.701,21.973,28.809,25.879,17.578,48.828,0
1542737510.705,10.254,29.297,31.738,17.090,35.156,0
1542737510.709,10.742,29.297,33.691,32.227,14.648,0
1542737510.713,30.762,32.227,27.832,45.410,52.246,0
1542737510.717,41.992,35.156,30.762,49.805,53.711,0
1542737510.721,40.039,27.832,31.738,52.734,24.902,0
1542737510.725,34.180,34.180,22.461,39.551,27.344,0
1542737510.729,38.086,40.527,30.273,21.484,74.707,0
1542737510.733,25.391,32.715,35.645,26.367,14.648,0
1542737510.737,10.254,29.785,33.691,18.066,-59.082,0
1542737510.741,36.133,27.344,32.227,21.973,13.184,0
1542737510.744,54.199,29.785,35.645,31.250,73.730,0
1542737510.748,22.461,29.297,40.039,22.461,75.684,0
1542737510.752,-1.953,29.785,34.180,6.836,52.734,0
1542737510.756,-2.441,27.832,27.832,-1.953,20.020,0
1542737510.760,5.371,25.391,28.809,-5.371,-0.977,0
1542737510.764,8.789,27.832,27.344,-2.441,-10.254,0
1542737510.768,0.977,32.715,25.391,14.160,-7.812,0
1542737510.772,5.859,46.875,31.250,9.277,29.785,0
1542737510.776,0.977,39.551,31.250,6.836,37.598,0
1542737510.780,16.113,30.273,26.855,4.395,41.504,0
1542737510.783,27.344,39.551,28.809,12.207,50.293,0
1542737510.787,-3.418,26.855,29.297,-2.930,26.367,0
1542737510.791,-12.695,15.137,24.414,-25.391,49.805,0
1542737510.795,-5.371,23.926,25.879,2.930,-12.207,0
1542737510.799,4.395,30.762,33.203,19.043,-7.812,0
1542737510.803,0.488,24.414,32.715,-0.977,25.391,0
1542737510.807,4.883,24.414,28.809,3.418,7.324,0
1542737510.811,0.977,27.832,26.855,8.789,-8.789,0
1542737510.815,2.930,25.391,30.273,1.465,10.254,0
1542737510.819,27.344,31.738,31.738,22.949,74.707,0
1542737510.823,20.996,41.016,32.715,21.484,46.387,0
1542737510.826,7.812,37.598,32.715,20.508,31.738,0
1542737510.830,27.832,30.273,32.715,32.227,1.953,0
1542737510.834,19.043,36.621,33.691,16.602,-35.156,0
1542737510.838,2.441,40.039,31.250,14.160,10.254,0
1542737510.842,17.090,33.203,25.879,14.648,-5.859,0
1542737510.846,18.555,36.133,23.438,7.812,-27.344,0
1542737510.850,21.484,38.086,24.902,4.883,8.301,0
1542737510.854,35.645,37.598,30.273,10.742,-2.930,0
1542737510.858,36.621,32.227,29.785,13.184,-58.105,0
1542737510.862,20.996,22.949,20.996,11.719,4.395,0
1542737510.866,19.531,22.461,21.973,20.508,27.832,0
1542737510.869,21.484,24.414,24.902,14.648,-20.996,0
1542737510.873,22.461,16.602,28.809,15.137,-1.953,0
1542737510.877,24.902,18.066,34.668,31.738,6.836,0
1542737510.881,10.742,30.762,34.668,24.414,7.324,0
1542737510.885,-8.789,25.391,26.855,-5.371,-2.930,0
1542737510.889,1.465,42.969,31.738,2.930,-1.465,0
1542737510.893,12.207,52.246,36.133,29.785,-9.277,0
1542737510.897,8.789,34.668,18.066,13.184,-10.254,0
1542737510.901,17.090,27.832,15.625,2.930,-5.859,0
1542737510.905,-0.977,28.320,22.461,-7.324,-6.348,0
1542737510.908,1.465,34.180,29.785,-0.977,5.859,0
1542737510.912,35.156,38.574,38.574,24.902,50.781,0
1542737510.916,31.250,37.598,36.621,32.227,71.289,0
1542737510.920,10.742,41.504,28.809,28.809,39.062,0
1542737510.924,11.230,42.480,26.855,21.973,0.000,0
1542737510.928,18.066,34.180,30.273,15.625,9.766,0
1542737510.932,20.508,35.156,27.832,3.906,6.348,0
1542737510.936,15.625,38.574,25.879,-9.277,-23.926,0
1542737510.940,-5.371,36.133,19.531,-23.438,15.625,0
1542737510.944,0.000,37.598,17.578,0.000,40.039,0
1542737510.948,33.203,41.016,22.949,17.090,46.875,0
1542737510.951,22.461,28.320,28.320,23.438,49.316,0
1542737510.955,9.277,22.949,31.738,29.297,22.949,0
1542737510.959,18.555,29.785,32.227,8.301,18.555,0
1542737510.963,20.996,35.156,33.203,20.996,33.691,0
1542737510.967,29.297,28.809,26.855,26.367,38.574,0
1542737510.971,17.578,28.809,25.391,22.461,-9.277,0
1542737510.975,2.930,35.156,28.320,16.113,19.531,0
1542737510.979,10.742,39.062,28.320,8.789,43.457,0
1542737510.983,24.414,44.434,31.250,31.250,-19.043,0
1542737510.987,36.621,49.316,36.621,62.500,4.395,0
1542737510.991,23.438,44.922,38.086,54.688,49.316,0
1542737510.994,-0.488,18.066,28.809,41.992,74.707,0
1542737510.998,-1.953,17.578,25.391,22.461,44.434,0
1542737511.002,11.719,35.645,32.227,-15.625,50.293,0
1542737511.006,11.719,36.621,34.668,-8.301,49.316,0
1542737511.010,20.020,41.016,32.227,16.113,11.230,0
1542737511.014,28.320,35.645,32.227,24.414,20.996,0
1542737511.018,26.367,20.508,29.297,33.203,-2.930,0
1542737511.022,32.715,21.973,28.320,18.066,8.301,0
1542737511.026,27.344,23.926,24.902,-10.254,39.062,0
1542737511.030,4.395,23.438,20.508,-15.137,27.344,0
1542737511.033,2.441,33.691,28.809,2.441,3.906,0
1542737511.037,5.859,43.945,33.203,11.230,20.996,0
1542737511.041,0.000,37.109,28.320,30.762,84.961,0
1542737511.045,13.184,29.297,27.344,28.320,55.664,0
1542737511.049,28.320,29.785,31.250,6.348,19.043,0
1542737511.053,24.902,35.156,35.156,29.297,18.555,0
1542737511.057,1.953,34.668,30.273,41.992,56.641,0
1542737511.061,8.301,34.180,27.344,43.457,36.621,0
1542737511.065,27.832,31.738,31.250,36.133,63.965,0
1542737511.069,22.461,28.320,27.344,28.809,65.918,0
1542737511.073,24.902,38.086,32.715,13.184,53.711,0
1542737511.076,28.809,42.480,39.551,-5.371,57.617,0
1542737511.080,33.691,41.504,30.762,-2.930,-59.570,0
1542737511.084,21.973,35.645,23.438,5.371,-27.832,0
1542737511.088,19.531,36.621,28.320,16.113,60.547,0
1542737511.092,28.809,37.109,32.715,21.973,24.902,0
1542737511.096,28.809,28.320,33.691,22.949,3.906,0
1542737511.100,39.062,28.809,35.156,29.297,-36.133,0
1542737511.104,30.273,36.621,33.691,30.762,-24.414,0
1542737511.108,10.254,36.621,27.344,7.324,2.441,0
1542737511.112,4.883,31.250,29.297,-11.230,-27.344,0
1542737511.116,2.441,34.180,35.156,17.578,-23.438,0
1542737511.119,11.230,33.203,34.180,40.527,-0.977,0
1542737511.123,16.113,35.645,32.227,41.992,-9.277,0
1542737511.127,21.484,41.016,32.715,26.367,13.184,0
1542737511.131,40.527,31.738,38.574,30.762,34.180,0
1542737511.135,31.738,33.691,39.551,45.410,50.781,0
1542737511.139,23.438,42.969,36.133,44.434,32.227,0
1542737511.143,20.508,35.156,33.203,27.832,36.133,0
1542737511.147,17.578,23.926,33.691,9.766,65.918,0
1542737511.151,14.648,30.273,33.203,10.254,109.375,0
1542737511.155,8.301,42.480,33.203,10.742,79.102,0
1542737511.158,14.160,42.480,33.203,22.461,75.195,0
1542737511.162,24.414,40.039,27.344,41.504,36.621,0
1542737511.166,27.832,50.781,30.273,32.715,5.371,0
1542737511.170,36.621,52.246,40.039,25.879,63.965,0
1542737511.174,27.832,36.621,34.668,30.762,26.855,0
1542737511.178,26.855,44.434,32.227,31.738,7.812,0
1542737511.182,40.527,46.875,44.434,53.711,6.348,0
1542737511.186,40.039,38.574,43.457,55.176,60.059,0
1542737511.190,20.020,34.180,25.391,25.879,94.727,0
1542737511.194,4.395,30.762,20.996,3.906,21.973,0
1542737511.198,7.324,33.203,29.785,1.953,-8.301,0
1542737511.201,16.113,38.086,32.227,5.371,-20.020,0
1542737511.205,21.484,42.480,32.227,23.438,-35.645,0
1542737511.209,14.648,41.504,34.668,37.109,-57.617,0
1542737511.213,21.973,44.922,36.133,35.156,-10.742,0
1542737511.217,38.086,43.457,29.297,37.109,70.312,0
1542737511.221,55.664,42.480,31.250,38.574,-2.930,0
1542737511.225,57.129,45.410,38.086,38.574,-69.336,0
1542737511.229,15.625,38.574,32.715,42.969,-13.672,0
1542737511.233,2.441,43.457,26.855,32.715,32.715,0
1542737511.237,20.020,43.945,28.320,18.555,44.922,0
1542737511.241,21.973,41.992,32.715,23.926,26.367,0
1542737511.244,16.113,37.598,33.203,9.766,16.113,0
1542737511.248,27.832,28.320,32.227,29.297,53.223,0
1542737511.252,47.852,27.832,33.691,44.434,50.293,0
1542737511.256,33.203,30.273,34.180,20.996,-6.348,0
1542737511.260,4.883,37.109,34.180,25.879,-38.086,0
1542737511.264,12.695,40.527,34.668,37.598,-13.184,0
1542737511.268,24.902,44.434,41.016,24.902,18.555,0
1542737511.272,34.668,50.293,43.457,18.555,-17.090,0
1542737511.276,44.434,49.316,37.598,28.809,-21.973,0
1542737511.280,49.805,39.062,32.715,36.621,-17.578,0
1542737511.283,60.059,35.156,33.691,44.922,-12.207,0
1542737511.287,47.363,49.805,36.621,52.246,13.672,0
1542737511.291,38.086,54.199,35.645,49.805,-1.953,0
1542737511.295,35.645,29.785,27.832,43.457,-35.156,0
1542737511.299,31.250,12.207,27.344,21.973,6.836,0
1542737511.303,36.621,24.902,38.086,1.953,-5.371,0
1542737511.307,23.926,38.086,35.645,2.930,-35.156,0
1542737511.311,19.043,41.992,26.367,26.855,-21.484,0
1542737511.315,15.137,44.922,25.391,26.855,31.738,0
1542737511.319,4.395,40.527,28.320,14.648,22.461,0
1542737511.323,15.137,37.109,33.203,30.762,-24.902,0
1542737511.326,35.156,34.668,33.691,37.598,36.621,0
1542737511.330,21.484,37.109,29.297,27.832,50.781,0
1542737511.334,16.113,42.480,27.832,25.879,-43.945,0
1542737511.338,12.207,37.598,31.738,41.992,-44.434,0
1542737511.342,20.508,36.621,31.250,37.109,-11.230,0
1542737511.346,38.574,37.109,30.762,31.250,-64.941,0
1542737511.350,27.832,35.645,33.691,17.090,-73.242,0
1542737511.354,17.578,32.227,27.344,0.977,-1.465,0
1542737511.358,19.531,24.414,21.973,19.043,20.996,0
1542737511.362,36.133,26.367,25.391,28.320,59.570,0
1542737511.366,40.527,27.832,25.879,37.598,18.066,0
1542737511.369,31.738,28.809,28.809,53.223,-31.250,0
1542737511.373,43.945,36.621,31.250,26.855,12.695,0
1542737511.377,40.039,39.551,30.273,2.930,-5.371,0
1542737511.381,49.316,43.457,35.156,28.809,-2.930,0
1542737511.385,50.781,37.598,32.227,37.598,27.832,0
1542737511.389,29.297,23.438,26.367,28.320,33.691,0
1542737511.393,22.949,22.949,24.902,34.180,31.250,0
1542737511.397,12.695,18.555,25.391,31.250,-12.695,0
1542737511.401,8.301,24.414,25.391,34.180,-7.812,0
1542737511.405,31.738,41.016,21.484,59.082,18.066,0
1542737511.408,38.574,41.992,25.391,50.293,-25.879,0
1542737511.412,21.973,37.109,30.762,35.156,19.043,0
1542737511.416,24.902,32.227,26.855,30.762,46.875,0
1542737511.420,34.668,35.156,27.344,4.395,-16.113,0
1542737511.424,41.992,33.691,26.855,13.184,6.836,0
1542737511.428,29.785,28.320,26.367,35.645,51.270,0
1542737511.432,35.645,26.367,25.391,44.434,29.297,0
1542737511.436,37.598,27.344,24.902,38.086,-15.625,0
1542737511.440,34.668,35.645,32.227,16.113,-26.367,0
1542737511.444,47.363,41.016,32.227,7.812,-47.852,0
1542737511.448,42.480,31.738,21.484,34.180,-0.977,0
1542737511.451,40.039,36.621,19.043,38.086,64.453,0
1542737511.455,33.203,41.504,26.367,40.527,60.059,0
1542737511.459,31.738,41.016,32.715,37.109,63.477,0
1542737511.463,33.203,47.363,28.320,41.016,34.668,0
1542737511.467,20.996,35.645,19.531,28.809,12.695,0
1542737511.471,18.066,25.391,22.461,8.301,-5.371,0
1542737511.475,27.344,28.809,27.832,26.855,-27.832,0
1542737511.479,26.855,30.762,19.531,37.598,-12.695,0
1542737511.483,22.949,31.738,15.625,23.926,47.852,0
1542737511.487,29.785,32.715,21.484,15.625,68.359,0
1542737511.491,33.691,30.273,25.391,20.508,46.387,0
1542737511.494,41.504,36.133,22.461,27.832,-30.273,0
1542737511.498,42.969,47.363,26.855,54.688,-9.277,0
1542737511.502,54.688,45.410,34.668,53.711,61.523,0
1542737511.506,67.383,34.180,33.691,40.527,9.766,0
1542737511.510,73.730,32.715,31.250,48.340,19.043,0
1542737511.514,36.133,40.039,24.414,22.949,78.125,0
1542737511.518,15.137,28.809,21.973,2.930,102.051,0
1542737511.522,28.320,18.555,21.484,17.090,86.426,0
1542737511.526,27.344,25.391,24.902,18.555,11.230,0
1542737511.530,28.320,39.551,27.832,3.906,-20.996,0
1542737511.533,19.531,41.992,27.344,19.043,-1.953,0
1542737511.537,20.508,36.621,25.879,35.156,2.441,0
1542737511.541,25.879,38.574,22.461,25.879,5.371,0
1542737511.545,23.438,42.480,27.832,52.246,23.926,0
1542737511.549,18.555,38.574,33.203,60.059,20.996,0
1542737511.553,17.578,35.156,28.320,13.672,43.457,0
1542737511.557,16.113,37.109,28.809,8.789,16.602,0
1542737511.561,21.973,37.109,31.250,32.715,68.359,0
1542737511.565,27.344,40.527,29.297,27.832,83.984,0
1542737511.569,51.270,42.480,25.391,52.734,33.691,0
1542737511.573,66.895,37.598,24.414,56.152,38.086,0
1542737511.576,31.250,31.738,27.344,27.344,20.996,0
1542737511.580,9.277,25.391,27.344,7.812,26.367,0
1542737511.584,32.715,27.344,24.902,14.648,31.250,0
1542737511.588,36.621,28.809,28.320,29.297,62.012,0
1542737511.592,31.738,30.762,29.785,44.922,41.992,0
1542737511.596,24.414,32.227,19.043,40.527,27.832,0
1542737511.600,18.555,31.738,16.113,7.324,28.320,0
1542737511.604,17.090,30.762,21.973,-0.977,58.105,0
1542737511.608,7.324,23.438,24.414,14.648,120.117,0
1542737511.612,14.160,20.020,25.391,20.996,61.035,0
1542737511.616,29.297,32.715,30.273,21.973,20.020,0
1542737511.619,24.414,39.551,27.832,17.090,-3.418,0
1542737511.623,17.090,37.598,22.949,11.230,-11.719,0
1542737511.627,22.949,35.156,23.926,5.371,8.301,0
1542737511.631,38.574,36.621,26.855,13.672,-17.090,0
1542737511.635,40.039,41.016,27.344,16.602,17.578,0
1542737511.639,35.156,40.527,28.320,11.230,86.426,0
1542737511.643,32.227,32.715,25.391,41.992,20.020,0
1542737511.647,32.715,21.484,19.531,44.922,1.465,0
1542737511.651,37.598,20.020,24.902,34.180,39.062,0
1542737511.655,40.527,27.344,33.691,43.457,13.184,0
1542737511.658,49.316,26.855,27.344,47.852,19.531,0
1542737511.662,38.574,28.809,21.973,20.996,62.500,0
1542737511.666,40.039,41.504,26.855,14.160,57.129,0
1542737511.670,49.805,41.504,22.949,39.062,31.738,0
1542737511.674,42.480,37.598,21.973,35.156,44.434,0
1542737511.678,31.250,36.133,16.602,5.859,57.129,0
1542737511.682,7.812,26.855,13.672,-0.977,6.836,0
1542737511.686,-15.137,19.043,21.973,4.883,29.785,0
1542737511.690,-16.602,21.973,28.320,3.418,105.469,0
1542737511.694,11.719,26.855,32.715,19.043,112.793,0
1542737511.698,22.461,22.461,23.438,12.207,91.309,0
1542737511.701,11.230,28.809,19.531,14.160,81.055,0
1542737511.705,12.695,34.668,26.367,30.273,122.070,0
1542737511.709,22.461,29.297,24.902,10.254,145.508,0
1542737511.713,28.809,29.785,20.508,6.836,171.875,0
1542737511.717,18.066,34.668,22.461,18.555,187.988,0
1542737511.721,18.555,28.320,26.855,29.785,180.176,0
1542737511.725,19.043,22.949,27.832,25.391,173.340,0
1542737511.729,32.715,26.855,29.785,19.043,168.457,0
1542737511.733,39.551,34.668,34.668,55.176,191.406,0
1542737511.737,22.461,30.273,27.344,51.758,202.637,0
1542737511.741,23.438,19.531,16.602,33.203,209.473,0
1542737511.744,22.949,24.902,20.508,24.414,232.910,0
1542737511.748,18.555,28.809,25.391,6.348,211.914,0
1542737511.752,32.715,30.762,29.785,5.859,190.430,0
1542737511.756,47.852,44.434,35.645,17.578,213.867,0
1542737511.760,62.988,47.363,37.109,25.391,218.262,0
1542737511.764,62.500,33.203,32.227,25.879,188.477,0
1542737511.768,20.996,31.250,21.973,7.324,150.879,0
1542737511.772,16.602,38.086,17.578,9.766,128.418,0
1542737511.776,43.457,31.250,19.531,22.949,143.555,0
1542737511.780,40.527,25.879,18.066,30.273,107.910,0
1542737511.783,51.270,36.621,25.391,56.641,90.332,0
1542737511.787,63.965,29.785,27.832,61.035,89.844,0
1542737511.791,27.344,19.043,20.508,36.133,59.570,0
1542737511.795,17.090,28.320,23.926,28.320,32.715,0
1542737511.799,10.742,23.438,27.832,4.883,-3.906,0
1542737511.803,0.000,17.578,22.461,-2.930,-39.551,0
1542737511.807,15.137,26.367,24.902,38.086,-63.477,0
1542737511.811,26.367,31.738,27.832,47.852,-76.660,0
1542737511.815,21.484,30.762,22.461,16.113,-100.098,0
1542737511.819,11.719,26.855,25.879,20.996,-102.539,0
1542737511.823,21.973,30.762,24.414,41.504,-87.891,0
1542737511.826,30.762,30.762,22.949,31.250,-102.051,0
1542737511.830,23.926,26.367,30.273,26.855,-128.418,0
1542737511.834,28.320,30.762,33.203,52.246,-95.703,0
1542737511.838,36.133,33.203,28.320,45.410,-69.336,0
1542737511.842,44.434,29.297,34.668,30.762,-119.141,0
1542737511.846,40.039,26.855,36.621,48.340,-79.590,0
1542737511.850,26.855,26.855,26.367,41.504,-67.383,0
1542737511.854,30.273,24.902,22.949,33.691,-90.332,0
1542737511.858,21.484,17.578,26.855,40.527,-89.844,0
1542737511.862,30.762,24.902,27.344,18.066,-87.402,0
1542737511.866,29.297,33.691,21.484,17.090,-72.266,0
1542737511.869,35.156,35.645,25.391,33.203,-112.793,0
1542737511.873,34.668,29.297,27.344,29.785,-121.094,0
1542737511.877,27.344,23.926,28.320,30.273,-107.910,0
1542737511.881,20.020,23.926,28.320,29.297,-87.891,0
1542737511.885,16.602,27.344,23.926,27.832,-69.336,0
1542737511.889,25.879,38.086,23.438,30.762,-73.242,0
1542737511.893,31.738,38.574,24.902,28.320,-76.660,0
1542737511.897,19.531,30.273,25.391,22.949,-62.012,0
1542737511.901,22.949,37.598,29.785,22.461,27.344,0
1542737511.905,32.227,38.086,30.273,25.391,27.344,0
1542737511.908,30.273,30.762,26.855,31.738,-24.902,0
1542737511.912,35.156,32.227,30.273,12.695,-27.832,0
1542737511.916,35.156,24.902,26.855,2.930,-51.270,0
1542737511.920,26.855,19.531,16.113,22.461,-71.289,0
1542737511.924,34.668,26.855,22.461,28.809,-44.434,0
1542737511.928,34.180,27.344,31.250,21.484,-42.480,0
1542737511.932,26.855,20.508,30.273,39.551,6.348,0
1542737511.936,40.527,21.484,34.668,70.312,52.734,0
1542737511.940,48.828,19.531,31.738,68.848,-35.156,0
1542737511.944,24.414,27.832,24.414,41.992,-50.293,0
1542737511.948,20.020,48.340,23.438,12.207,-47.363,0
1542737511.951,33.691,47.852,23.926,-1.465,-31.250,0
1542737511.955,19.531,42.969,24.414,1.465,-52.246,0
1542737511.959,21.484,41.016,27.832,-13.184,-78.125,0
1542737511.963,1.465,28.320,25.391,-3.418,-13.672,0
1542737511.967,6.348,13.184,23.438,2.930,-35.156,0
1542737511.971,26.855,17.090,25.879,17.578,-55.664,0
1542737511.975,19.531,29.297,29.297,28.809,-21.973,0
1542737511.979,16.113,34.180,29.785,29.297,12.207,0
1542737511.983,28.320,38.574,31.738,54.199,9.277,0
1542737511.987,50.781,24.902,26.855,32.715,-21.973,0
1542737511.991,32.227,14.160,20.996,11.230,-12.207,0
1542737511.994,19.531,24.902,24.414,17.578,25.391,0
1542737511.998,35.156,33.691,32.227,28.320,36.621,0
1542737512.002,45.410,40.527,37.598,30.762,55.176,0
1542737512.006,22.949,36.133,21.973,23.926,38.574,0
1542737512.010,20.508,36.133,20.508,20.508,-14.648,0
1542737512.014,38.574,40.527,29.785,26.367,-11.230,0
1542737512.018,26.855,37.109,26.855,27.344,18.066,0
1542737512.022,21.484,35.645,21.484,23.926,17.090,0
1542737512.026,40.527,32.227,16.602,28.320,-9.766,0
1542737512.030,26.367,29.297,21.484,30.762,-4.395,0
1542737512.033,19.043,29.297,26.855,34.180,-45.898,0
1542737512.037,39.062,35.156,28.320,31.250,-64.453,0
1542737512.041,37.109,40.527,34.668,42.969,-21.484,0
1542737512.045,22.461,32.715,23.926,30.762,0.488,0
1542737512.049,32.715,33.203,22.461,7.812,26.855,0
1542737512.053,46.387,35.156,31.738,30.762,-10.254,0
1542737512.057,35.645,20.508,24.414,23.438,-20.020,0
1542737512.061,25.879,23.438,21.484,6.348,57.129,0
1542737512.065,23.438,29.297,24.414,19.531,49.316,0
1542737512.069,25.391,26.855,25.879,13.184,36.621,0
1542737512.073,22.461,41.504,29.785,22.949,23.438,0
1542737512.076,18.555,42.969,25.879,29.785,-32.715,0
1542737512.080,16.602,24.902,19.531,20.508,-69.336,0
1542737512.084,9.277,21.973,19.531,21.484,-41.016,0
1542737512.088,16.113,29.297,23.926,62.012,-27.832,0
1542737512.092,13.184,26.367,29.297,77.148,-61.035,0
1542737512.096,16.602,30.762,29.297,40.527,-36.133,0
1542737512.100,30.273,36.621,24.902,15.625,-8.301,0
1542737512.104,21.973,31.250,25.879,25.391,11.719,0
1542737512.108,21.484,29.297,32.227,4.395,53.223,0
1542737512.112,30.273,27.832,31.250,-33.691,5.859,0
1542737512.116,30.762,25.879,25.391,-19.531,-39.551,0
1542737512.119,35.645,20.996,29.297,14.648,-20.020,0
1542737512.123,34.180,18.555,25.879,6.348,30.273,0
1542737512.127,49.316,23.438,19.531,-6.348,75.684,0
1542737512.131,48.340,21.484,24.414,13.184,97.168,0
1542737512.135,18.066,24.902,20.996,30.762,15.625,0
1542737512.139,20.020,37.109,20.020,35.645,-12.695,0
1542737512.143,29.785,32.227,24.414,32.227,29.785,0
1542737512.147,37.109,31.738,24.414,21.484,-4.883,0
1542737512.151,40.527,33.203,29.297,25.879,-20.996,0
1542737512.155,27.344,30.273,29.297,20.020,11.719,0
1542737512.158,32.227,38.574,29.785,33.203,-11.230,0
1542737512.162,34.668,45.898,30.762,40.527,-8.301,0
1542737512.166,16.602,34.180,25.391,23.926,32.715,0
1542737512.170,11.230,25.879,25.879,26.367,12.695,0
1542737512.174,16.602,29.297,27.344,23.438,29.785,0
1542737512.178,20.508,20.020,26.367,20.508,79.102,0
1542737512.182,31.250,12.207,26.855,30.762,51.270,0
1542737512.186,31.250,22.461,31.738,45.410,44.922,0
1542737512.190,18.555,30.273,22.949,30.273,43.457,0
1542737512.194,28.320,33.203,16.113,25.391,18.555,0
1542737512.198,43.457,40.039,31.738,44.434,20.996,0
1542737512.201,41.504,49.805,34.668,36.133,-41.992,0
1542737512.205,35.156,36.621,29.297,25.391,-21.484,0
1542737512.209,23.438,20.020,24.902,16.602,34.668,0
1542737512.213,-4.395,18.555,16.113,0.000,27.344,0
1542737512.217,-12.695,18.066,19.531,7.324,6.836,0
1542737512.221,-10.254,26.855,22.461,5.859,8.789,0
1542737512.225,-3.418,24.902,25.391,20.020,23.438,0
1542737512.229,20.020,24.902,29.297,41.504,28.809,0
1542737512.233,21.484,32.227,26.855,36.133,34.668,0
1542737512.237,17.090,30.762,22.949,0.000,49.316,0
1542737512.241,27.832,31.738,23.926,-12.695,24.414,0
1542737512.244,34.668,32.227,24.414,3.418,-34.668,0
1542737512.248,44.922,32.715,24.902,1.953,-34.668,0
1542737512.252,42.480,37.109,28.320,11.719,17.578,0
1542737512.256,29.785,32.715,23.926,30.273,34.668,0
1542737512.260,38.574,32.227,26.367,24.902,45.898,0
1542737512.264,64.453,46.387,39.551,30.273,32.227,0
1542737512.268,50.781,45.410,38.574,42.969,27.832,0
1542737512.272,25.879,29.297,26.367,39.062,-18.066,0
1542737512.276,28.809,26.855,23.438,40.527,-47.363,0
1542737512.280,19.043,20.996,20.020,23.926,12.695,0
1542737512.283,14.160,22.461,22.461,29.785,24.902,0
1542737512.287,6.348,32.715,28.320,27.832,1.465,0
1542737512.291,2.441,37.598,26.367,27.832,-18.555,0
1542737512.295,8.301,35.645,23.926,43.945,15.625,0
1542737512.299,13.672,23.926,21.484,38.086,11.719,0
1542737512.303,22.949,24.414,21.973,40.527,-26.855,0
1542737512.307,18.066,32.715,21.973,5.859,8.789,0
1542737512.311,18.066,31.738,21.973,-8.301,34.668,0
1542737512.315,28.320,32.715,22.461,27.344,16.602,0
1542737512.319,35.645,41.992,24.414,24.414,43.457,0
1542737512.323,36.621,41.992,27.832,-4.395,52.246,0
1542737512.326,29.297,36.621,27.832,2.441,15.137,0
1542737512.330,34.668,31.250,27.832,13.184,37.598,0
1542737512.334,39.551,29.297,25.879,38.086,46.875,0
1542737512.338,20.996,34.180,23.926,35.645,40.527,0
1542737512.342,7.812,42.969,20.996,14.160,4.883,0
1542737512.346,22.949,43.945,26.855,35.645,38.574,0
1542737512.350,36.621,31.738,32.227,68.848,39.551,0
1542737512.354,35.156,32.715,24.902,59.570,6.348,0
1542737512.358,38.574,41.504,23.438,33.691,20.996,0
1542737512.362,23.926,44.434,24.414,15.137,62.500,0
1542737512.366,2.930,33.691,20.020,-2.930,125.977,0
1542737512.369,20.508,19.043,21.484,32.715,84.961,0
1542737512.373,25.391,24.902,22.461,31.738,36.621,0
1542737512.377,21.973,38.574,13.672,-0.977,27.344,0
1542737512.381,20.996,35.645,13.184,-17.090,12.207,0
1542737512.385,20.020,25.879,23.438,-11.230,-10.742,0
1542737512.389,10.254,20.020,26.855,6.348,-11.230,0
1542737512.393,6.348,24.414,24.414,11.230,13.184,0
1542737512.397,30.273,32.715,28.809,7.324,50.781,0
1542737512.401,25.879,40.527,28.320,4.395,47.852,0
1542737512.405,19.043,41.504,22.461,7.812,69.824,0
1542737512.408,21.973,38.086,22.949,19.043,35.645,0
1542737512.412,20.996,31.738,22.949,32.227,-19.043,0
1542737512.416,6.348,28.320,21.973,31.738,-2.441,0
1542737512.420,3.418,31.738,20.020,29.785,30.762,0
1542737512.424,22.949,32.715,17.090,25.879,48.828,0
1542737512.428,26.367,25.879,19.531,21.484,18.066,0
1542737512.432,48.828,29.785,30.273,37.598,40.039,0
1542737512.436,73.242,42.480,31.250,45.410,45.898,0
1542737512.440,50.293,36.621,21.973,28.809,9.766,0
1542737512.444,29.785,28.809,20.508,20.020,22.461,0
1542737512.448,39.062,34.180,24.414,33.203,-10.742,0
1542737512.451,34.180,30.273,24.902,34.668,8.301,0
1542737512.455,36.133,42.969,26.367,21.484,86.426,0
1542737512.459,39.062,41.504,31.250,28.320,83.496,0
1542737512.463,26.367,22.461,29.785,16.113,60.547,0
1542737512.467,26.367,28.320,23.926,6.836,11.719,0
1542737512.471,22.949,32.227,19.531,55.176,18.555,0
1542737512.475,26.855,28.809,24.902,62.988,42.480,0
1542737512.479,29.297,22.461,26.855,20.508,0.977,0
1542737512.483,33.691,25.391,24.414,17.090,-8.789,0
1542737512.487,18.066,29.785,22.949,11.230,0.000,0
1542737512.491,-1.953,22.461,23.926,-14.160,13.672,0
1542737512.494,14.648,22.949,25.391,-16.113,55.664,0
1542737512.498,33.203,33.691,25.391,13.672,59.570,0
1542737512.502,41.992,42.969,26.855,48.340,-59.570,0
1542737512.506,46.387,42.480,25.391,58.594,-33.203,0
1542737512.510,32.227,35.645,18.555,25.879,29.297,0
1542737512.514,22.949,38.086,22.949,25.391,-50.781,0
1542737512.518,29.297,40.039,32.227,49.805,-68.848,0
1542737512.522,25.879,30.273,28.320,26.367,8.789,0
1542737512.526,20.020,28.320,27.832,23.438,12.695,0
1542737512.530,17.578,31.738,28.809,23.926,33.691,0
1542737512.533,24.902,26.855,25.879,36.621,23.926,0
1542737512.537,23.438,24.902,27.832,40.527,-3.906,0
1542737512.541,20.020,31.738,30.273,28.809,-19.043,0
1542737512.545,28.809,46.387,29.785,44.922,13.184,0
1542737512.549,27.832,49.805,25.879,15.137,23.926,0
1542737512.553,18.555,41.504,25.879,7.812,-20.020,0
1542737512.557,12.207,34.668,27.344,21.973,-3.906,0
1542737512.561,20.020,34.180,26.855,33.691,30.762,0
1542737512.565,22.461,36.133,24.414,38.086,60.547,0
1542737512.569,30.762,39.551,25.879,45.898,39.551,0
1542737512.573,49.316,34.668,32.715,60.059,-17.090,0
1542737512.576,42.969,24.902,29.297,30.762,9.766,0
1542737512.580,34.668,30.762,26.855,24.414,20.508,0
1542737512.584,37.598,35.156,26.855,37.598,14.160,0
1542737512.588,37.109,34.180,22.949,22.949,33.691,0
1542737512.592,28.320,26.367,20.508,19.043,17.090,0
1542737512.596,24.414,22.949,19.043,8.789,39.551,0
1542737512.600,21.973,29.297,26.855,30.273,20.996,0
1542737512.604,22.949,25.391,24.902,47.852,-36.621,0
1542737512.608,24.902,29.297,20.996,50.293,23.438,0
1542737512.612,30.762,41.016,26.855,39.551,84.473,0
1542737512.616,24.902,43.457,25.391,33.691,59.570,0
1542737512.619,22.949,43.457,27.832,46.387,10.742,0
1542737512.623,26.855,40.039,35.156,26.855,-10.254,0
1542737512.627,33.203,38.086,35.645,25.391,39.551,0
1542737512.631,41.504,37.598,30.762,41.992,-6.836,0
1542737512.635,28.809,31.250,24.414,51.758,-70.312,0
1542737512.639,24.902,26.855,20.996,38.086,-2.441,0
1542737512.643,30.762,25.879,21.484,-0.488,23.438,0
1542737512.647,24.414,35.156,25.391,2.930,-16.113,0
1542737512.651,28.809,40.527,28.320,24.902,27.344,0
1542737512.655,57.129,34.180,26.367,40.039,66.406,0
1542737512.658,63.965,33.203,24.902,35.156,31.250,0
1542737512.662,32.715,22.949,22.949,10.742,81.543,0
1542737512.666,25.879,11.719,25.879,14.160,28.809,0
1542737512.670,35.645,13.672,31.738,23.926,-49.316,0
1542737512.674,22.949,21.484,28.809,30.762,28.320,0
1542737512.678,18.066,28.809,26.855,38.574,39.551,0
1542737512.682,33.203,35.156,34.180,42.969,14.160,0
1542737512.686,30.273,37.109,29.297,23.438,32.227,0
1542737512.690,20.508,37.109,21.484,3.418,33.203,0
1542737512.694,33.691,39.551,30.273,19.043,20.508,0
1542737512.698,34.668,31.250,36.133,26.855,-23.438,0
1542737512.701,26.855,18.066,29.297,28.809,-23.926,0
1542737512.705,28.320,21.973,20.508,51.270,-5.859,0
1542737512.709,21.973,31.738,22.949,38.086,-4.883,0
1542737512.713,31.738,30.762,27.344,36.621,-43.945,0
1542737512.717,32.227,22.461,25.879,40.527,-54.688,0
1542737512.721,23.438,22.949,22.949,28.320,-6.836,0
1542737512.725,20.996,32.715,21.484,42.969,64.453,0
1542737512.729,31.738,40.527,24.902,29.785,83.984,0
1542737512.733,35.156,36.621,28.320,-8.301,21.484,0
1542737512.737,22.949,35.645,24.414,-5.859,3.418,0
1542737512.741,32.715,36.621,24.902,12.695,22.461,0
1542737512.744,38.574,28.809,30.273,8.301,7.812,0
1542737512.748,32.227,24.414,31.250,18.555,-30.762,0
1542737512.752,39.551,29.785,30.273,45.898,-9.277,0
1542737512.756,40.527,36.133,25.879,30.273,-7.812,0
1542737512.760,34.180,35.645,21.973,30.762,-4.395,0
1542737512.764,44.922,22.461,24.414,42.480,45.410,0
1542737512.768,46.387,29.297,28.809,37.109,37.109,0
1542737512.772,27.832,45.898,24.414,46.387,43.945,0
1542737512.776,35.645,35.645,19.531,37.109,-13.184,0
1542737512.780,34.668,34.180,22.949,43.457,-42.480,0
1542737512.783,37.109,45.410,27.344,39.551,40.039,0
1542737512.787,41.016,35.156,28.809,2.441,51.758,0
1542737512.791,23.926,29.297,21.484,5.371,19.043,0
1542737512.795,34.668,31.738,21.484,25.391,24.902,0
1542737512.799,34.180,23.926,25.391,41.504,5.371,0
1542737512.803,23.438,22.949,25.879,65.430,-21.484,0
1542737512.807,43.945,29.297,30.762,47.363,8.789,0
1542737512.811,54.688,35.156,35.156,52.734,42.480,0
1542737512.815,59.570,34.668,30.273,46.875,16.113,0
1542737512.819,48.340,32.227,28.320,46.875,19.043,0
1542737512.823,43.457,28.320,28.320,47.852,47.363,0
1542737512.826,52.246,27.832,26.367,54.199,22.461,0
1542737512.830,43.457,29.785,27.344,46.875,30.273,0
1542737512.834,48.340,22.461,25.879,17.090,59.082,0
1542737512.838,54.688,19.043,25.391,35.645,79.590,0
1542737512.842,57.617,28.809,23.926,42.480,83.984,0
1542737512.846,51.270,38.574,26.367,31.250,29.785,0
1542737512.850,53.223,44.434,33.203,40.527,-25.391,0
1542737512.854,63.965,37.598,32.227,53.223,11.719,0
1542737512.858,73.730,32.227,24.902,41.016,51.758,0
1542737512.862,51.270,36.621,29.297,48.828,45.898,0
1542737512.866,30.273,31.250,35.156,60.059,19.043,0
1542737512.869,36.621,25.879,29.297,36.133,-32.715,0
1542737512.873,26.367,29.785,21.973,27.344,-25.879,0
1542737512.877,20.996,24.414,25.391,29.297,17.578,0
1542737512.881,32.227,24.414,28.320,47.363,69.824,0
1542737512.885,23.926,26.367,22.949,63.965,41.016,0
1542737512.889,25.391,27.344,25.391,50.781,48.828,0
1542737512.893,37.109,32.227,27.344,48.340,59.570,0
1542737512.897,27.832,27.832,26.367,49.805,11.230,0
1542737512.901,24.414,26.367,26.367,54.688,18.066,0
1542737512.905,23.438,29.785,25.391,56.641,20.996,0
1542737512.908,38.574,36.133,26.367,52.246,6.348,0
1542737512.912,40.527,39.551,29.785,44.922,-7.812,0
1542737512.916,35.156,36.133,30.762,14.160,-21.484,0
1542737512.920,37.109,33.203,30.273,27.344,10.742,0
1542737512.924,33.203,26.855,33.691,32.227,42.480,0
1542737512.928,29.785,27.344,27.832,-22.949,10.254,0
1542737512.932,24.414,32.227,17.578,-11.719,-3.418,0
1542737512.936,48.828,35.645,23.438,19.043,-35.156,0
1542737512.940,53.711,40.039,31.250,6.836,-2.441,0
1542737512.944,21.973,35.645,26.855,2.930,37.598,0
1542737512.948,18.066,28.809,23.926,15.625,-26.855,0
1542737512.951,32.227,25.879,29.785,28.320,-10.742,0
1542737512.955,35.645,24.414,32.227,24.414,11.230,0
1542737512.959,17.090,26.367,28.320,23.926,7.324,0
1542737512.963,11.719,29.785,23.438,31.250,9.277,0
1542737512.967,27.344,39.551,22.461,27.344,31.738,0
1542737512.971,37.598,49.316,27.832,38.086,38.086,0
1542737512.975,36.621,43.945,27.832,60.547,38.574,0
1542737512.979,16.602,26.855,24.414,54.199,19.531,0
1542737512.983,20.996,19.043,21.973,45.410,-19.531,0
1542737512.987,22.949,30.273,25.391,52.246,-41.504,0
1542737512.991,30.273,33.691,29.297,21.973,-81.055,0
1542737512.994,59.082,26.855,27.344,24.414,-2.930,0
1542737512.998,34.668,31.738,32.715,14.648,46.387,0
1542737513.002,24.414,42.480,33.203,-1.465,-8.301,0
1542737513.006,26.855,33.691,25.879,9.766,8.301,0
1542737513.010,4.883,19.043,24.414,-10.742,49.316,0
1542737513.014,3.418,32.715,28.320,-21.973,3.418,0
1542737513.018,19.043,45.410,35.156,0.000,2.930,0
1542737513.022,15.137,46.875,42.480,44.922,26.855,0
1542737513.026,-8.789,45.898,28.809,26.855,-7.812,0
1542737513.030,-26.855,20.996,10.742,-17.578,29.297,0
1542737513.033,-20.020,17.090,17.090,-18.555,21.484,0
1542737513.037,13.184,33.203,29.297,-2.441,-25.391,0
1542737513.041,-0.488,27.832,23.438,-21.484,-0.977,0
1542737513.045,-3.906,22.461,26.367,-27.832,-9.766,0
1542737513.049,15.625,28.320,30.273,-12.207,-33.691,0
1542737513.053,24.902,35.645,26.367,-8.789,-9.766,0
1542737513.057,22.949,37.598,25.391,-3.418,47.363,0
1542737513.061,26.855,36.133,29.297,13.184,14.160,0
1542737513.065,30.273,34.180,29.785,51.758,-62.988,0
1542737513.069,18.066,24.902,32.715,43.457,1.953,0
1542737513.073,14.160,22.949,35.156,36.621,17.090,0
1542737513.076,8.301,26.367,25.391,46.875,-14.160,0
1542737513.080,2.441,20.020,20.020,28.320,-11.230,0
1542737513.084,18.555,29.297,23.926,20.508,-39.551,0
1542737513.088,44.434,42.480,28.809,32.227,-19.531,0
1542737513.092,32.227,32.227,31.738,52.246,19.043,0
1542737513.096,13.184,33.691,26.855,50.781,20.996,0
1542737513.100,13.672,34.668,20.020,31.738,40.039,0
1542737513.104,25.879,31.738,20.996,3.418,70.801,0
1542737513.108,23.926,35.645,19.043,-3.906,58.105,0
1542737513.112,15.625,31.738,21.484,21.484,-9.766,0
1542737513.116,32.715,28.320,30.273,30.273,4.395,0
1542737513.119,43.945,37.109,33.203,30.273,34.180,0
1542737513.123,49.316,39.551,34.180,31.738,-16.113,0
1542737513.127,43.457,31.738,30.762,9.277,-7.324,0
1542737513.131,26.367,33.691,24.414,10.254,-4.883,0
1542737513.135,30.762,39.551,23.438,20.508,21.973,0
1542737513.139,22.461,41.016,21.973,21.973,91.309,0
1542737513.143,15.625,34.668,22.461,44.922,78.613,0
1542737513.147,31.250,31.250,24.902,73.730,16.602,0
1542737513.151,25.879,28.320,29.785,93.262,-9.277,0
1542737513.155,9.766,23.926,35.645,149.414,34.180,0
1542737513.158,-5.371,27.344,37.598,147.461,66.406,0
1542737513.162,-1.465,25.391,34.668,134.766,76.172,0
1542737513.166,15.137,21.973,23.438,96.680,43.945,0
1542737513.170,31.250,28.320,15.625,-20.996,-30.273,0
1542737513.174,61.523,32.227,17.090,-48.828,9.277,0
1542737513.178,94.727,37.109,24.414,-15.137,66.406,0
1542737513.182,114.258,31.250,15.137,-38.086,14.160,0
1542737513.186,96.191,28.320,14.160,-102.539,3.906,0
1542737513.190,24.902,33.691,26.367,62.500,57.617,0
1542737513.194,7.324,30.273,27.832,236.816,36.621,0
1542737513.198,42.480,25.391,23.926,300.781,11.230,0
1542737513.201,68.848,27.832,13.184,345.703,-2.930,0
1542737513.205,75.195,25.879,22.461,162.598,2.441,0
1542737513.209,21.484,20.996,35.156,24.902,47.852,0
1542737513.213,-11.719,33.691,30.762,-72.754,47.852,0
1542737513.217,-29.297,37.109,20.020,-141.602,-3.418,0
1542737513.221,-23.926,33.203,18.555,-80.078,-3.418,0
1542737513.225,-42.480,30.273,29.785,-45.410,27.832,0
1542737513.229,-135.254,30.762,41.992,-134.766,24.902,0
1542737513.233,-203.613,26.855,51.758,-258.301,23.438,0
1542737513.237,-240.234,24.414,60.059,-311.523,28.320,0
1542737513.241,-243.164,34.668,74.707,-263.672,37.598,0
1542737513.244,-280.273,41.504,84.473,-237.305,57.617,0
1542737513.248,-310.547,31.250,76.660,-227.051,65.430,0
1542737513.252,-329.590,14.648,67.871,-201.660,75.195,0
1542737513.256,-286.621,22.461,94.727,-187.012,29.297,0
1542737513.260,-195.312,22.461,97.656,-116.211,40.527,0
1542737513.264,-158.203,12.695,85.449,-57.617,44.922,0
1542737513.268,-154.785,12.207,125.000,-60.547,38.086,0
1542737513.272,-204.590,-3.906,126.953,-49.805,63.965,0
1542737513.276,-222.656,-0.977,96.191,-21.973,58.594,0
1542737513.280,-178.223,36.621,109.863,-18.066,8.789,0
1542737513.283,-183.594,15.625,110.840,-39.551,17.578,0
1542737513.287,-201.660,0.488,106.445,-54.688,62.500,0
1542737513.291,-169.922,32.715,109.863,-48.340,105.957,0
1542737513.295,-149.414,-9.277,104.004,-82.520,69.824,0
1542737513.299,-150.879,-44.434,108.887,-72.754,8.789,0
1542737513.303,-133.301,-40.039,116.211,-60.547,67.383,0
1542737513.307,-93.750,-33.691,111.816,-28.809,34.668,0
1542737513.311,-44.922,-43.945,104.980,12.695,7.324,0
1542737513.315,-36.133,-49.316,95.215,25.879,34.180,0
1542737513.319,-18.066,-7.324,103.516,89.844,-1.953,0
1542737513.323,32.227,-10.254,115.723,170.898,-19.531,0
1542737513.326,34.668,-25.879,105.469,145.508,22.949,0
1542737513.330,56.152,-16.113,115.723,167.480,70.312,0
1542737513.334,58.105,-1.953,119.629,206.543,42.480,0
1542737513.338,75.195,-14.160,105.957,185.059,28.809,0
1542737513.342,110.840,-34.180,117.188,162.598,30.762,0
1542737513.346,121.094,-46.387,115.234,166.016,4.395,0
1542737513.350,93.750,-65.918,104.492,247.070,73.730,0
1542737513.354,83.496,-59.570,107.422,188.477,126.465,0
1542737513.358,161.621,-59.570,112.793,116.699,97.656,0
1542737513.362,168.457,-68.848,106.445,125.977,94.727,0
1542737513.366,117.188,-84.473,104.492,104.004,60.059,0
1542737513.369,140.625,-84.961,104.980,98.633,76.660,0
1542737513.373,208.496,-57.617,103.516,105.957,55.664,0
1542737513.377,261.230,-21.973,106.934,75.195,35.156,0
1542737513.381,218.750,-44.922,108.398,51.758,84.961,0
1542737513.385,163.086,-81.055,114.258,98.633,23.926,0
1542737513.389,213.379,-91.309,122.070,162.109,-44.434,0
1542737513.393,248.535,-79.590,125.977,187.500,-2.930,0
1542737513.397,195.312,-60.059,119.141,137.207,11.230,0
1542737513.401,227.539,-39.551,99.609,129.883,-21.484,0
1542737513.405,327.148,17.578,86.426,138.184,0.000,0
1542737513.408,338.867,40.527,92.773,165.527,-14.160,0
1542737513.412,258.301,43.945,91.797,143.555,-20.020,0
1542737513.416,198.730,57.129,80.566,50.293,4.395,0
1542737513.420,235.352,59.082,81.055,39.062,16.113,0
1542737513.424,264.648,54.199,73.730,75.195,59.082,0
1542737513.428,280.762,66.895,72.266,101.074,11.719,0
1542737513.432,294.434,72.754,75.684,57.617,-49.805,0
1542737513.436,256.348,46.387,69.336,23.926,19.043,0
1542737513.440,197.754,22.461,62.012,-9.277,74.707,0
1542737513.444,213.867,47.852,69.336,25.879,15.625,0
1542737513.448,250.977,59.082,66.406,79.590,24.414,0
1542737513.451,225.098,29.785,55.176,44.922,65.430,0
1542737513.455,202.637,20.996,51.758,10.742,-32.227,0
1542737513.459,211.914,39.551,62.988,29.297,-55.176,0
1542737513.463,223.145,55.176,66.895,61.523,8.301,0
1542737513.467,227.051,65.430,62.500,99.609,30.273,0
1542737513.471,194.824,39.551,55.176,114.258,11.230,0
1542737513.475,140.625,2.441,40.039,109.375,18.555,0
1542737513.479,144.531,6.836,47.363,127.441,6.836,0
1542737513.483,161.133,24.414,46.387,73.242,-5.371,0
1542737513.487,188.965,53.223,48.828,22.949,-2.441,0
1542737513.491,206.543,58.105,59.082,-14.160,-17.090,0
1542737513.494,154.785,28.320,44.434,-71.289,-4.395,0
1542737513.498,86.426,17.090,41.016,-62.012,35.156,0
1542737513.502,86.426,21.973,52.734,-47.363,32.715,0
1542737513.506,99.121,25.879,46.387,-33.203,7.324,0
1542737513.510,93.262,27.832,38.086,-9.766,-14.648,0
1542737513.514,100.586,9.766,46.875,16.113,4.883,0
1542737513.518,120.117,9.766,49.805,35.645,-2.930,0
1542737513.522,114.258,49.805,47.363,33.203,-41.504,0
1542737513.526,75.684,45.898,47.852,10.254,-10.742,0
1542737513.530,79.590,38.086,43.945,9.277,12.695,0
1542737513.533,94.727,38.574,42.480,41.992,-4.883,0
1542737513.537,83.008,19.043,48.340,43.945,16.113,0
1542737513.541,61.035,11.719,45.898,8.789,24.414,0
1542737513.545,61.035,9.766,34.180,2.930,8.301,0
1542737513.549,56.152,3.418,23.926,24.414,1.465,0
1542737513.553,37.109,4.395,29.297,27.832,9.277,0
1542737513.557,24.902,15.137,40.039,20.020,-9.766,0
1542737513.561,32.715,22.949,41.504,-3.906,20.996,0
1542737513.565,62.012,40.527,36.133,5.859,76.172,0
1542737513.569,58.594,32.227,19.531,16.602,22.461,0
1542737513.573,36.621,3.418,25.391,-13.672,24.414,0
1542737513.576,48.340,6.348,41.016,-12.207,57.129,0
1542737513.580,79.590,28.809,43.945,13.184,80.078,0
1542737513.584,70.312,22.949,38.086,43.945,46.387,0
1542737513.588,12.695,-6.348,37.598,68.848,11.230,0
1542737513.592,18.555,-6.836,41.016,70.312,3.418,0
1542737513.596,63.965,22.949,39.551,23.926,-28.320,0
1542737513.600,40.527,41.016,28.320,23.438,22.461,0
1542737513.604,28.320,38.086,15.137,114.258,47.363,0
1542737513.608,50.293,28.320,35.645,117.676,-11.719,0
1542737513.612,49.316,29.297,53.223,-34.668,-0.488,0
1542737513.616,43.457,17.090,44.434,-145.996,30.762,0
1542737513.619,8.789,13.672,42.969,-118.652,31.250,0
1542737513.623,13.184,37.109,32.715,-50.293,27.344,0
1542737513.627,36.133,11.230,27.344,-21.973,18.066,0
1542737513.631,13.672,4.395,39.551,-15.625,45.410,0
1542737513.635,-2.441,24.414,41.016,-17.578,31.738,0
1542737513.639,-0.488,23.926,47.363,-35.156,3.418,0
1542737513.643,-4.883,25.879,44.434,-29.785,-19.531,0
1542737513.647,-3.906,35.645,40.039,9.766,-30.273,0
1542737513.651,5.859,25.391,54.688,9.766,23.438,0
1542737513.655,-0.488,11.719,61.035,-5.371,6.348,0
1542737513.658,-9.766,21.973,52.246,-19.043,-1.953,0
1542737513.662,0.977,20.996,51.758,-18.066,-20.996,0
1542737513.666,11.719,25.879,54.199,7.812,-18.066,0
1542737513.670,2.930,31.738,48.828,24.902,19.043,0
1542737513.674,-14.648,33.203,43.457,10.254,39.551,0
1542737513.678,12.695,29.785,43.457,13.184,62.500,0
1542737513.682,20.508,25.391,41.992,15.625,43.945,0
1542737513.686,1.465,31.738,40.039,0.977,20.508,0
1542737513.690,25.879,31.250,39.551,8.789,52.246,0
1542737513.694,16.113,28.809,38.086,15.137,93.262,0
1542737513.698,20.020,34.668,35.645,17.578,54.199,0
1542737513.701,42.969,28.320,41.016,23.438,11.719,0
1542737513.705,31.738,18.066,36.621,23.438,-13.672,0
1542737513.709,28.320,21.973,33.691,28.320,-34.668,0
1542737513.713,-6.348,14.160,33.691,0.977,4.883,0
1542737513.717,-2.930,2.441,33.691,-3.906,26.855,0
1542737513.721,33.691,12.207,30.762,16.602,-54.199,0
1542737513.725,14.160,25.879,20.020,-21.484,-76.660,0
1542737513.729,-37.598,15.625,17.578,-76.172,-14.160,0
1542737513.733,-54.199,13.184,15.625,-90.820,-17.578,0
1542737513.737,-65.918,13.184,16.113,-97.656,-30.273,0
1542737513.741,-97.656,-3.906,16.113,-98.145,44.434,0
1542737513.744,-107.910,-30.762,10.742,-98.145,0.977,0
1542737513.748,-135.742,-50.293,-0.977,-138.184,-41.504,0
1542737513.752,-139.160,-44.434,-10.742,-151.367,-22.949,0
1542737513.756,-125.000,-32.227,-20.508,-160.645,-13.184,0
1542737513.760,-146.484,-18.555,-24.414,-166.992,21.973,0
1542737513.764,-159.668,-11.719,-27.832,-181.152,7.812,0
1542737513.768,-161.133,0.000,-34.180,-186.523,5.859,0
1542737513.772,-127.930,33.691,-43.457,-160.156,-53.223,0
1542737513.776,-104.492,43.457,-53.711,-169.434,-52.246,0
1542737513.780,-107.422,41.992,-54.688,-168.457,54.199,0
1542737513.783,-65.918,65.430,-44.922,-132.324,85.449,0
1542737513.787,-81.543,60.059,-48.828,-110.352,50.781,0
1542737513.791,-106.445,47.852,-61.523,-132.812,5.371,0
1542737513.795,-95.703,55.664,-59.570,-143.066,1.953,0
1542737513.799,-113.281,74.219,-66.895,-120.605,46.875,0
1542737513.803,-68.359,83.496,-74.219,-85.449,61.035,0
1542737513.807,-50.781,78.613,-71.289,-65.430,20.996,0
1542737513.811,-38.574,91.797,-71.289,-55.176,40.039,0
1542737513.815,4.883,86.426,-65.430,-64.941,50.781,0
1542737513.819,-3.906,87.891,-65.430,-85.938,42.969,0
1542737513.823,-16.602,109.375,-75.195,-57.129,52.246,0
1542737513.826,7.324,122.559,-73.730,-32.227,53.223,0
1542737513.830,53.223,124.023,-76.172,-52.734,52.734,0
1542737513.834,84.961,112.793,-80.078,-42.969,15.625,0
1542737513.838,83.496,111.328,-74.707,8.301,-41.504,0
1542737513.842,51.270,116.211,-70.312,19.531,-24.902,0
1542737513.846,54.199,122.070,-80.078,7.324,40.527,0
1542737513.850,72.754,112.305,-83.496,18.555,23.926,0
1542737513.854,75.684,105.957,-78.613,40.527,-22.949,0
1542737513.858,83.008,118.652,-75.195,67.871,6.836,0
1542737513.862,94.727,128.418,-65.918,90.820,14.648,0
1542737513.866,111.816,135.742,-62.012,85.938,-3.906,0
1542737513.869,140.625,137.695,-60.547,72.754,-15.137,0
1542737513.873,160.156,127.441,-52.734,94.727,3.906,0
1542737513.877,171.875,124.512,-49.316,125.000,20.508,0
1542737513.881,195.801,140.137,-47.363,125.977,-49.316,0
1542737513.885,226.074,137.695,-41.992,131.836,-41.504,0
1542737513.889,235.352,132.324,-38.574,149.414,25.391,0
1542737513.893,205.078,135.254,-39.551,153.320,9.277,0
1542737513.897,154.297,146.484,-41.504,142.578,-27.832,0
1542737513.901,192.871,145.508,-37.598,183.594,21.484,0
1542737513.905,251.953,126.465,-37.109,193.848,50.781,0
1542737513.908,239.258,131.348,-23.438,200.684,11.719,0
1542737513.912,197.754,129.395,-24.902,223.145,-16.602,0
1542737513.916,159.180,105.469,-34.668,187.012,20.020,0
1542737513.920,127.930,96.680,-20.996,149.414,22.461,0
1542737513.924,132.812,102.539,-16.113,148.438,10.254,0
1542737513.928,135.254,94.727,-14.648,143.555,57.617,0
1542737513.932,113.281,84.961,-5.859,125.977,28.809,0
1542737513.936,114.746,79.590,2.930,107.422,-26.367,0
1542737513.940,111.816,68.359,9.277,99.609,21.973,0
1542737513.944,103.027,63.477,8.301,123.047,0.000,0
1542737513.948,124.512,61.523,9.766,121.094,22.949,0
1542737513.951,139.648,62.012,12.207,113.281,36.133,0
1542737513.955,138.184,53.711,14.160,134.766,-2.930,0
1542737513.959,132.324,47.363,18.066,126.465,12.207,0
1542737513.963,121.582,43.945,22.949,112.305,5.859,0
1542737513.967,120.117,40.527,24.414,134.766,-15.137,0
1542737513.971,128.418,40.527,25.391,131.348,-7.324,0
1542737513.975,120.117,34.668,25.879,110.352,3.418,0
1542737513.979,126.465,28.320,25.879,109.863,-2.930,0
1542737513.983,111.328,20.996,25.391,126.465,-13.184,0
1542737513.987,79.590,19.531,23.926,103.027,-4.395,0
1542737513.991,84.473,21.973,23.438,69.336,20.996,0
1542737513.994,111.328,27.832,22.461,74.219,-15.625,0
1542737513.998,95.703,21.484,22.461,70.312,-38.086,0
1542737514.002,58.105,15.625,21.484,73.730,0.000,0
1542737514.006,91.309,20.508,20.508,81.543,15.137,0
1542737514.010,101.562,12.207,17.090,66.895,22.461,0
1542737514.014,74.219,3.906,6.348,54.688,-8.789,0
1542737514.018,71.289,12.207,12.207,47.363,-11.719,0
1542737514.022,64.453,24.414,28.809,68.359,0.488,0
1542737514.026,54.688,13.672,28.320,83.008,-3.418,0
1542737514.030,25.879,-6.836,17.090,59.082,46.875,0
1542737514.033,6.836,-3.906,18.555,31.250,23.438,0
1542737514.037,-17.090,5.859,24.902,35.156,10.742,0
1542737514.041,-8.789,14.648,20.508,46.875,47.363,0
1542737514.045,26.367,9.766,18.066,41.992,49.805,0
1542737514.049,27.832,4.395,14.648,40.039,51.270,0
1542737514.053,19.043,18.555,9.766,2.441,10.742,0
1542737514.057,33.203,31.250,8.789,-20.996,-21.973,0
1542737514.061,28.320,23.438,0.977,-3.418,15.625,0
1542737514.065,14.160,12.695,1.953,3.418,24.902,0
1542737514.069,20.020,27.832,5.371,-32.715,-2.441,0
1542737514.073,2.930,38.574,-3.418,-54.688,19.531,0
1542737514.076,-4.883,34.668,3.418,-23.438,57.129,0
1542737514.080,-4.883,27.344,9.766,-9.277,41.992,0
1542737514.084,-13.672,23.438,8.301,-27.344,27.832,0
1542737514.088,-18.555,29.297,12.207,-28.809,-1.953,0
1542737514.092,-5.859,40.527,16.602,-6.836,15.625,0
1542737514.096,-1.465,41.016,19.531,10.742,86.914,0
1542737514.100,-17.090,37.598,20.996,10.254,38.086,0
1542737514.104,-19.531,33.691,28.320,20.020,31.738,0
1542737514.108,10.742,37.109,36.621,48.340,93.750,0
1542737514.112,20.020,47.852,34.180,14.648,81.543,0
1542737514.116,-9.277,49.316,28.320,-20.508,21.973,0
1542737514.119,-4.395,48.340,30.762,17.090,47.363,0
1542737514.123,15.137,44.434,32.227,24.902,19.531,0
1542737514.127,5.371,41.016,31.738,21.973,-16.602,0
1542737514.131,16.602,46.387,27.344,28.320,-30.273,0
1542737514.135,32.715,42.480,27.832,11.719,-54.199,0
1542737514.139,37.109,39.062,33.203,24.902,7.324,0
1542737514.143,28.809,34.180,30.762,32.227,67.383,0
1542737514.147,23.438,29.785,25.391,27.344,20.020,0
1542737514.151,38.086,27.344,22.949,46.387,24.414,0
1542737514.155,35.156,21.484,23.926,29.297,52.246,0
1542737514.158,32.715,25.879,23.926,35.645,52.246,0
1542737514.162,22.461,21.973,26.367,40.039,40.527,0
1542737514.166,15.625,19.043,30.273,40.527,-36.133,0
1542737514.170,10.742,28.809,26.367,56.641,40.527,0
1542737514.174,21.973,30.273,28.320,26.367,87.891,0
1542737514.178,27.344,28.809,32.227,22.949,13.184,0
1542737514.182,21.484,24.414,30.273,41.504,30.762,0
1542737514.186,32.227,14.648,32.227,34.180,66.406,0
1542737514.190,36.133,16.602,33.691,43.457,64.941,0
1542737514.194,39.062,23.438,30.273,52.734,66.895,0
1542737514.198,30.762,18.555,29.785,35.156,21.973,0
1542737514.201,30.762,22.461,32.227,21.484,-43.945,0
1542737514.205,26.855,28.320,35.645,8.789,-22.461,0
1542737514.209,19.531,25.879,38.086,26.367,8.789,0
1542737514.213,44.922,29.785,40.527,55.664,5.371,0
1542737514.217,35.645,29.785,37.598,39.551,18.555,0
1542737514.221,15.625,28.320,36.621,28.320,-8.301,0
1542737514.225,22.949,25.391,41.992,37.109,41.016,0
1542737514.229,23.438,25.391,45.410,47.363,55.664,0
1542737514.233,30.273,22.461,46.387,48.828,31.250,0
1542737514.237,24.414,22.461,43.457,41.016,30.273,0
1542737514.241,23.926,31.738,41.992,63.477,11.719,0
1542737514.244,14.648,36.621,41.504,80.566,29.785,0
1542737514.248,16.602,33.203,39.551,74.707,-14.648,0
1542737514.252,32.227,24.902,38.574,102.539,-50.293,0
1542737514.256,37.598,24.414,34.180,119.141,-2.930,0
1542737514.260,45.410,34.668,34.180,73.242,64.941,0
1542737514.264,44.434,32.227,38.574,41.992,34.668,0
1542737514.268,46.387,14.160,38.574,66.895,8.301,0
1542737514.272,34.668,16.113,34.180,67.871,68.359,0
1542737514.276,23.926,35.156,30.762,66.895,42.969,0
1542737514.280,46.387,41.992,31.250,9.766,24.902,0
1542737514.283,60.059,30.273,31.250,-53.711,61.035,0
1542737514.287,55.664,28.320,30.762,4.883,5.859,0
1542737514.291,29.297,35.156,29.297,34.180,-25.391,0
1542737514.295,30.273,35.156,29.297,7.812,6.836,0
1542737514.299,54.688,32.227,34.668,40.039,6.836,0
1542737514.303,78.613,35.645,34.668,18.555,24.902,0
1542737514.307,72.754,42.969,30.273,-14.160,45.410,0
1542737514.311,38.086,43.457,29.297,17.090,-37.109,0
1542737514.315,36.621,36.621,30.762,42.969,-4.883,0
1542737514.319,43.945,28.809,31.250,46.387,26.855,0
1542737514.323,38.086,31.250,27.832,40.527,15.625,0
1542737514.326,14.160,33.691,28.320,56.641,57.617,0
1542737514.330,4.395,37.598,29.297,57.129,43.945,0
1542737514.334,27.832,41.016,31.738,55.176,-29.785,0
1542737514.338,30.762,37.598,32.227,57.617,-14.160,0
1542737514.342,39.062,31.738,29.297,92.285,14.648,0
1542737514.346,47.852,27.344,29.297,98.145,5.859,0
1542737514.350,50.293,27.832,26.855,66.895,5.859,0
1542737514.354,54.688,32.227,27.832,41.992,1.465,0
1542737514.358,56.641,31.250,31.738,26.367,20.508,0
1542737514.362,61.035,30.273,32.715,37.109,-16.602,0
1542737514.366,48.340,32.715,35.156,48.828,-43.945,0
1542737514.369,55.176,30.273,32.715,57.129,-13.672,0
1542737514.373,55.664,27.832,32.715,67.871,0.488,0
1542737514.377,50.781,28.320,36.621,84.473,-5.859,0
1542737514.381,65.430,38.574,40.527,103.027,50.293,0
1542737514.385,70.312,33.691,40.039,101.562,80.078,0
1542737514.389,57.129,17.090,30.273,59.082,77.148,0
1542737514.393,49.805,26.855,24.414,32.715,-8.789,0
1542737514.397,56.641,40.039,20.996,59.082,-7.324,0
1542737514.401,58.105,41.016,21.973,107.910,61.035,0
1542737514.405,58.594,45.410,29.297,101.074,18.066,0
1542737514.408,76.660,50.293,29.785,55.664,10.742,0
1542737514.412,88.379,48.828,25.879,29.785,-16.602,0
1542737514.416,58.105,38.574,27.344,9.766,-3.418,0
1542737514.420,55.176,31.738,27.344,9.277,-6.836,0
1542737514.424,57.617,42.480,23.926,16.113,-7.812,0
1542737514.428,49.805,54.199,24.902,27.832,41.016,0
1542737514.432,68.848,48.340,24.902,35.156,-14.160,0
1542737514.436,67.383,33.691,24.414,41.504,5.859,0
1542737514.440,60.547,37.109,26.367,54.688,28.320,0
1542737514.444,62.988,43.457,27.832,38.086,-7.812,0
1542737514.448,68.359,39.062,24.414,44.434,20.996,0
1542737514.451,59.570,32.227,20.508,69.824,9.766,0
1542737514.455,52.246,34.668,23.926,56.152,-7.812,0
1542737514.459,61.035,41.992,30.762,49.805,2.441,0
1542737514.463,59.082,39.551,32.715,36.621,-1.953,0
1542737514.467,32.715,29.785,29.785,32.227,53.711,0
1542737514.471,40.039,25.391,27.832,57.617,63.477,0
1542737514.475,50.781,20.996,29.785,66.406,19.043,0
1542737514.479,45.898,22.949,28.320,54.199,22.949,0
1542737514.483,58.105,33.203,28.320,73.730,0.977,0
1542737514.487,63.965,35.156,36.133,125.977,1.465,0
1542737514.491,45.898,29.785,38.574,131.836,16.113,0
1542737514.494,18.555,26.855,33.691,129.395,18.555,0
1542737514.498,21.973,32.715,25.879,57.129,85.938,0
1542737514.502,34.668,25.391,25.391,-7.324,121.094,0
1542737514.506,41.992,8.789,29.785,34.668,27.344,0
1542737514.510,48.340,17.578,27.344,31.250,-5.859,0
1542737514.514,42.480,24.902,28.809,47.363,1.953,0
1542737514.518,37.598,18.066,24.902,41.016,13.672,0
1542737514.522,44.922,29.297,19.531,-44.922,45.898,0
1542737514.526,55.664,32.715,20.508,-39.551,36.133,0
1542737514.530,57.129,30.273,23.926,3.906,55.176,0
1542737514.533,70.801,28.320,31.250,20.996,60.059,0
1542737514.537,69.336,17.090,34.180,46.875,59.570,0
1542737514.541,61.523,16.602,30.762,60.547,63.477,0
1542737514.545,62.500,28.320,29.297,41.016,50.293,0
1542737514.549,59.082,35.156,26.855,48.340,54.199,0
1542737514.553,65.430,20.508,27.344,104.980,45.410,0
1542737514.557,59.082,11.719,27.832,103.516,46.387,0
1542737514.561,55.176,26.367,26.367,79.590,39.551,0
1542737514.565,51.758,33.203,28.809,105.957,5.371,0
1542737514.569,60.059,28.320,29.785,83.008,33.203,0
1542737514.573,70.312,27.832,27.832,60.059,22.461,0
1542737514.576,51.758,31.738,18.066,63.965,-15.625,0
1542737514.580,63.477,26.367,16.602,80.078,32.715,0
1542737514.584,83.008,21.973,27.832,84.961,32.227,0
1542737514.588,76.172,23.926,24.902,51.270,18.066,0
1542737514.592,81.543,22.949,16.113,13.184,40.527,0
1542737514.596,79.590,19.043,19.043,16.113,29.297,0
1542737514.600,73.242,13.184,26.367,83.496,23.926,0
1542737514.604,80.566,14.648,29.297,99.121,26.367,0
1542737514.608,69.824,36.621,25.879,30.273,15.137,0
1542737514.612,60.547,41.992,23.438,-28.320,-26.855,0
1542737514.616,57.129,31.738,24.414,4.395,5.859,0
1542737514.619,40.527,24.414,23.926,44.922,53.223,0
1542737514.623,48.340,20.020,21.973,57.617,12.695,0
1542737514.627,45.410,20.996,22.461,109.863,25.391,0
1542737514.631,45.898,21.973,17.578,105.469,20.508,0
1542737514.635,66.406,27.344,13.672,55.664,-3.906,0
1542737514.639,60.547,36.133,14.160,41.016,54.199,0
1542737514.643,48.828,28.320,19.043,68.359,43.945,0
1542737514.647,45.410,26.367,14.160,102.539,-20.020,0
1542737514.651,54.199,36.621,11.230,153.320,-15.137,0
1542737514.655,54.199,32.715,25.391,168.457,-41.992,0
1542737514.658,45.410,34.180,24.902,-27.344,-65.918,0
1542737514.662,24.902,39.551,18.555,-150.879,18.066,0
1542737514.666,-4.883,47.363,20.508,-109.375,78.125,0
1542737514.670,-13.184,41.992,31.738,-89.355,34.668,0
1542737514.674,-21.973,38.086,42.480,-56.152,18.066,0
1542737514.678,-44.434,36.133,47.363,-11.230,15.625,0
1542737514.682,-73.730,41.992,41.504,-37.598,-0.977,0
1542737514.686,-75.684,41.992,36.621,-1.953,17.090,0
1542737514.690,-78.125,31.738,48.828,-28.320,20.508,0
1542737514.694,-67.383,49.316,67.871,-123.535,13.184,0
1542737514.698,-56.152,42.969,95.215,-69.824,19.531,0
1542737514.701,-103.027,11.230,94.727,-89.355,2.930,0
1542737514.705,-100.586,22.949,75.195,-124.512,52.246,0
1542737514.709,-71.289,31.738,85.938,-79.102,79.102,0
1542737514.713,-85.449,32.715,112.305,-61.035,30.273,0
1542737514.717,-168.457,11.719,87.402,-166.016,-6.348,0
1542737514.721,-241.211,-32.715,60.059,-211.914,-3.906,0
1542737514.725,-179.688,-20.020,72.266,-127.441,12.207,0
1542737514.729,-143.066,-14.648,83.984,-123.047,30.762,0
1542737514.733,-156.250,-50.293,74.707,-140.137,10.742,0
1542737514.737,-141.113,-54.688,90.332,-130.371,21.484,0
1542737514.741,-112.305,-50.781,96.191,-50.293,28.320,0
1542737514.744,-83.496,-53.711,82.520,14.160,-2.441,0
1542737514.748,-9.277,-7.812,99.121,71.289,-27.832,0
1542737514.752,70.312,11.719,89.355,95.703,8.301,0
1542737514.756,0.488,-75.195,67.871,-36.621,62.012,0
1542737514.760,-58.105,-100.586,73.730,-67.871,25.879,0
1542737514.764,-22.461,-68.359,73.242,-34.180,24.414,0
1542737514.768,26.855,-51.758,65.430,-12.207,48.340,0
1542737514.772,38.086,-41.016,58.105,13.184,20.996,0
1542737514.776,32.715,-34.180,56.152,43.457,30.273,0
1542737514.780,55.664,-27.344,50.781,73.242,0.000,0
1542737514.783,100.586,-21.484,50.293,72.754,-14.648,0
1542737514.787,101.562,-20.508,53.223,61.035,34.180,0
1542737514.791,90.332,-23.438,51.758,56.641,50.293,0
1542737514.795,106.445,-21.973,47.363,88.379,48.340,0
1542737514.799,102.051,-18.555,41.016,109.375,11.230,0
1542737514.803,88.867,-14.648,34.668,80.566,-5.371,0
1542737514.807,81.055,-8.301,31.738,89.355,21.484,0
1542737514.811,103.516,-3.906,36.133,98.145,-16.113,0
1542737514.815,81.543,0.000,35.156,81.055,-29.297,0
1542737514.819,71.777,2.930,34.668,101.562,30.762,0
1542737514.823,86.426,7.812,35.645,80.566,17.578,0
1542737514.826,89.844,6.836,28.809,56.152,20.020,0
1542737514.830,101.562,8.789,21.973,80.078,58.594,0
1542737514.834,98.633,0.977,23.438,84.473,36.621,0
1542737514.838,145.020,-5.371,30.273,77.637,17.578,0
1542737514.842,151.855,-12.207,18.066,50.781,7.812,0
1542737514.846,106.445,-22.461,-1.953,41.504,10.742,0
1542737514.850,111.816,-22.461,0.000,57.617,6.348,0
1542737514.854,119.629,-13.672,1.953,49.316,-1.953,0
1542737514.858,97.656,-2.930,1.465,45.898,-22.949,0
1542737514.862,60.059,-2.930,7.812,44.434,-20.508,0
1542737514.866,50.781,5.371,1.953,25.391,14.160,0
1542737514.869,35.645,4.395,0.977,20.996,-48.340,0
1542737514.873,23.438,0.000,7.812,-3.906,-31.250,0
1542737514.877,21.484,-0.977,6.836,-30.762,12.695,0
1542737514.881,26.367,-0.977,3.906,-22.949,12.207,0
1542737514.885,3.906,4.395,7.324,-51.270,20.508,0
1542737514.889,-29.785,5.371,11.719,-80.566,7.812,0
1542737514.893,-31.738,11.719,11.230,-103.516,-13.184,0
1542737514.897,-66.895,21.484,4.395,-123.535,18.066,0
1542737514.901,-95.215,26.367,0.977,-120.605,36.621,0
1542737514.905,-116.211,33.203,0.488,-149.902,6.348,0
1542737514.908,-108.398,40.527,-1.953,-140.625,21.973,0
1542737514.912,-78.125,48.828,-1.465,-123.535,-9.766,0
1542737514.916,-57.617,33.203,1.465,-104.492,80.566,0
1542737514.920,-29.785,24.902,-7.324,-90.820,134.277,0
1542737514.924,-6.348,46.387,-20.020,-106.445,43.945,0
1542737514.928,-27.344,47.852,-29.297,-93.262,-8.301,0
1542737514.932,-32.715,41.016,-44.922,-98.145,6.348,0
1542737514.936,11.230,41.504,-58.105,-83.008,20.996,0
1542737514.940,31.250,45.410,-53.223,-47.363,41.016,0
1542737514.944,51.270,47.852,-51.758,-12.207,31.250,0
1542737514.948,90.332,44.434,-49.316,23.926,19.531,0
1542737514.951,101.074,30.762,-49.316,27.344,7.324,0
1542737514.955,97.168,24.902,-53.711,44.922,-12.207,0
1542737514.959,115.234,20.020,-53.223,65.430,-2.930,0
1542737514.963,155.762,19.043,-56.641,102.051,21.484,0
1542737514.967,162.598,18.066,-56.152,135.254,21.973,0
1542737514.971,176.270,17.578,-57.617,157.715,12.207,0
1542737514.975,182.129,18.066,-57.617,180.664,78.613,0
1542737514.979,202.637,11.719,-52.734,188.477,79.102,0
1542737514.983,214.844,11.230,-53.223,180.176,43.457,0
1542737514.987,219.238,18.066,-54.688,152.832,50.293,0
1542737514.991,239.746,22.461,-55.176,101.074,74.219,0
1542737514.994,240.234,27.832,-53.711,85.938,20.508,0
1542737514.998,237.793,27.832,-52.734,116.211,-77.637,0
1542737515.002,214.844,27.344,-52.246,123.047,-33.691,0
1542737515.006,201.172,29.297,-52.734,119.629,6.348,0
1542737515.010,204.590,20.508,-49.805,132.324,1.465,0
1542737515.014,201.172,20.996,-42.480,143.555,43.457,0
1542737515.018,187.500,28.320,-36.133,132.812,45.410,0
1542737515.022,172.363,30.762,-33.691,132.812,25.391,0
1542737515.026,173.340,36.621,-31.738,145.508,-5.859,0
1542737515.030,167.480,29.297,-29.785,143.555,-78.613,0
1542737515.033,154.297,18.555,-26.367,145.020,-5.859,0
1542737515.037,141.602,20.508,-18.555,158.691,21.973,0
1542737515.041,133.301,28.320,-13.184,173.828,-34.180,0
1542737515.045,128.418,18.066,-5.859,186.035,9.277,0
1542737515.049,123.047,8.301,-6.348,165.527,42.969,0
1542737515.053,111.328,12.695,-11.230,116.211,10.742,0
1542737515.057,112.793,16.602,-7.324,97.168,15.625,0
1542737515.061,132.812,9.766,-1.465,92.773,-3.418,0
1542737515.065,121.582,18.555,-2.930,55.176,23.438,0
1542737515.069,110.352,32.715,-3.906,33.203,53.223,0
1542737515.073,118.652,31.738,-3.418,27.832,27.344,0
1542737515.076,118.652,23.438,-4.395,32.715,-4.883,0
1542737515.080,101.562,15.625,-4.883,55.664,-9.277,0
1542737515.084,82.031,9.766,-0.977,46.875,39.062,0
1542737515.088,75.684,7.324,5.859,62.988,20.020,0
1542737515.092,67.871,5.859,11.230,75.684,-13.184,0
1542737515.096,49.805,12.695,13.184,55.176,13.672,0
1542737515.100,47.363,17.578,14.160,64.453,-12.207,0
1542737515.104,56.641,18.066,12.207,82.031,-2.930,0
1542737515.108,61.523,26.855,11.230,97.656,46.875,0
1542737515.112,60.059,19.043,15.625,101.562,40.039,0
1542737515.116,56.152,-0.488,15.137,77.637,-0.488,0
1542737515.119,67.383,1.465,13.184,54.688,-54.199,0
1542737515.123,89.844,11.719,16.113,51.270,5.859,0
1542737515.127,96.680,15.137,20.996,66.406,48.828,0
1542737515.131,75.195,15.137,22.461,67.383,-39.062,0
1542737515.135,78.125,18.066,22.949,54.688,-12.207,0
1542737515.139,70.312,16.602,20.020,46.875,62.012,0
1542737515.143,34.668,14.648,16.602,28.809,-15.137,0
1542737515.147,26.855,12.695,14.648,29.297,-43.945,0
1542737515.151,21.973,6.348,14.648,44.434,-1.465,0
1542737515.155,28.320,5.859,18.555,43.457,-17.090,0
1542737515.158,41.016,6.348,16.602,66.895,-5.371,0
1542737515.162,42.480,12.207,15.137,84.961,36.621,0
1542737515.166,38.574,12.207,18.066,91.309,21.484,0
1542737515.170,29.297,8.301,19.531,88.867,1.465,0
1542737515.174,37.109,13.184,19.531,98.145,5.859,0
1542737515.178,74.219,10.742,20.996,107.910,-6.348,0
1542737515.182,66.406,-5.859,28.320,45.410,17.090,0
1542737515.186,30.273,-9.766,31.738,40.039,26.855,0
1542737515.190,12.207,-2.441,30.762,67.383,4.883,0
1542737515.194,20.508,0.000,29.785,40.527,24.902,0
1542737515.198,37.598,-5.859,32.715,-4.883,71.289,0
1542737515.201,42.969,-17.578,43.945,-41.016,41.504,0
1542737515.205,26.367,-28.320,51.758,-18.555,14.160,0
1542737515.209,15.137,-23.926,47.363,21.484,51.758,0
1542737515.213,37.109,-20.020,49.805,40.039,14.648,0
1542737515.217,48.340,-23.438,53.223,-0.488,27.344,0
1542737515.221,51.758,-23.438,49.805,4.395,18.066,0
1542737515.225,39.551,-28.320,51.758,39.551,-28.320,0
1542737515.229,7.324,-36.133,51.758,49.805,-54.688,0
1542737515.233,0.977,-35.645,51.758,38.574,11.230,0
1542737515.237,10.254,-27.832,51.758,42.480,26.855,0
1542737515.241,19.043,-23.438,47.852,56.152,-33.691,0
1542737515.244,20.508,-27.344,44.922,45.410,-27.832,0
1542737515.248,14.648,-25.391,45.410,52.734,-38.086,0
1542737515.252,12.207,-24.414,48.340,54.688,-1.953,0
1542737515.256,-8.301,-28.809,46.875,62.988,30.273,0
1542737515.260,-3.418,-26.367,43.945,73.730,-26.367,0
1542737515.264,31.250,-24.414,44.434,52.246,-6.348,0
1542737515.268,37.598,-22.949,39.062,39.062,9.277,0
1542737515.272,19.531,-21.973,34.668,38.574,13.184,0
1542737515.276,17.578,-20.020,37.109,44.434,25.391,0
1542737515.280,30.273,-22.461,41.504,41.992,16.602,0
1542737515.283,29.297,-17.090,41.016,42.969,20.996,0
1542737515.287,25.879,-5.371,36.621,40.527,70.801,0
1542737515.291,25.879,-3.418,33.691,36.621,35.156,0
1542737515.295,24.414,-4.883,29.785,21.484,4.883,0
1542737515.299,17.090,-3.906,25.879,31.738,39.551,0
1542737515.303,15.137,-0.977,26.367,66.895,49.316,0
1542737515.307,20.996,-0.977,28.320,60.547,35.156,0
1542737515.311,29.785,-0.977,26.367,84.473,-34.668,0
1542737515.315,44.434,-3.418,25.879,86.426,1.465,0
1542737515.319,42.480,-1.465,21.973,58.594,20.508,0
1542737515.323,41.016,1.465,22.461,46.875,-18.555,0
1542737515.326,40.039,4.395,24.414,0.977,-13.672,0
1542737515.330,26.855,6.348,21.973,-15.137,-19.531,0
1542737515.334,35.156,0.488,23.438,-5.859,11.230,0
1542737515.338,47.363,4.395,22.461,-2.441,13.672,0
1542737515.342,41.016,15.137,22.949,3.418,3.906,0
1542737515.346,34.668,14.648,27.832,18.555,-48.828,0
1542737515.350,28.320,4.395,25.879,9.277,-57.129,0
1542737515.354,17.578,2.930,22.949,26.855,-10.742,0
1542737515.358,13.184,8.789,24.414,51.758,-31.738,0
1542737515.362,25.391,8.789,21.973,27.832,-3.418,0
1542737515.366,21.973,9.277,19.531,39.551,-4.395,0
1542737515.369,28.320,10.254,19.531,46.387,-36.621,0
1542737515.373,39.062,19.043,22.949,9.766,41.504,0
1542737515.377,34.180,25.391,27.832,23.926,38.574,0
1542737515.381,28.320,11.719,29.297,39.062,-54.199,0
1542737515.385,21.973,9.766,29.785,32.227,-28.809,0
1542737515.389,23.438,11.230,29.785,46.875,51.270,0
1542737515.393,26.367,10.254,26.367,71.777,78.613,0
1542737515.397,21.484,16.602,24.414,78.613,38.086,0
1542737515.401,20.020,14.648,24.902,77.637,-9.277,0
1542737515.405,33.203,10.742,22.461,45.410,12.695,0
1542737515.408,33.203,13.184,20.996,-7.324,58.594,0
1542737515.412,30.273,13.672,20.996,-25.391,25.391,0
1542737515.416,29.785,10.742,17.090,0.977,-1.465,0
1542737515.420,22.461,16.113,17.090,16.113,39.062,0
1542737515.424,44.434,22.461,22.461,17.090,11.230,0
1542737515.428,67.871,14.648,24.902,14.648,9.277,0
1542737515.432,41.504,8.301,25.391,8.789,69.336,0
1542737515.436,22.461,8.301,28.320,20.508,69.336,0
1542737515.440,20.508,10.742,24.902,31.738,57.617,0
1542737515.444,19.043,17.090,21.973,13.184,20.996,0
1542737515.448,19.043,16.602,23.926,30.762,2.930,0
1542737515.451,24.902,6.348,23.438,43.945,10.742,0
1542737515.455,13.184,8.301,20.996,10.254,0.488,0
1542737515.459,17.090,16.113,21.973,0.488,19.043,0
1542737515.463,38.574,13.184,23.926,23.926,54.199,0
1542737515.467,36.133,16.602,23.926,35.156,-13.184,0
1542737515.471,42.969,19.043,23.438,27.832,-11.230,0
1542737515.475,44.922,18.555,24.902,44.434,-9.277,0
1542737515.479,30.273,23.438,19.531,48.340,-23.926,0
1542737515.483,40.527,19.043,19.043,43.457,28.809,0
1542737515.487,36.621,13.672,24.414,43.945,53.223,0
1542737515.491,28.809,16.113,23.438,22.461,34.180,0
1542737515.494,36.621,6.836,21.484,15.625,-5.859,0
1542737515.498,22.949,9.766,20.508,23.926,-4.883,0
1542737515.502,14.648,24.902,21.973,20.020,27.832,0
1542737515.506,21.484,21.973,29.297,25.879,-15.137,0
1542737515.510,-5.859,15.137,33.203,21.484,26.367,0
1542737515.514,-18.555,13.184,29.297,13.184,35.156,0
1542737515.518,4.883,15.625,26.367,4.395,-3.418,0
1542737515.522,1.953,16.602,27.832,8.301,27.344,0
1542737515.526,-8.301,15.137,22.949,18.066,55.176,0
1542737515.530,6.836,19.531,18.066,10.742,66.406,0
1542737515.533,20.996,24.902,26.367,27.344,37.109,0
1542737515.537,6.836,23.438,31.250,40.039,38.086,0
1542737515.541,4.883,17.578,33.203,21.973,75.684,0
1542737515.545,18.555,16.602,31.250,6.836,27.344,0
1542737515.549,17.578,23.438,27.344,19.531,3.418,0
1542737515.553,12.695,22.461,28.320,33.203,33.203,0
1542737515.557,21.484,17.578,28.320,32.227,64.453,0
1542737515.561,37.109,18.066,28.320,34.668,82.520,0
1542737515.565,31.250,28.320,27.832,30.762,14.648,0
1542737515.569,19.043,35.645,25.879,12.207,0.000,0
1542737515.573,23.926,32.715,22.461,5.859,63.477,0
1542737515.576,18.555,31.738,18.555,21.484,40.527,0
1542737515.580,52.734,38.574,13.184,27.832,-12.695,0
1542737515.584,71.777,41.016,8.789,26.855,32.715,0
1542737515.588,49.805,40.039,8.301,2.930,53.223,0
1542737515.592,71.777,39.062,5.859,20.996,24.902,0
1542737515.596,76.172,39.551,1.953,39.551,-30.762,0
1542737515.600,71.777,38.086,2.441,44.434,-0.488,0
1542737515.604,86.426,33.691,4.395,77.148,27.344,0
1542737515.608,60.059,34.180,4.395,58.105,63.477,0
1542737515.612,39.551,35.645,4.395,29.785,83.008,0
1542737515.616,51.758,37.598,9.277,28.809,35.645,0
1542737515.619,49.316,41.016,15.137,17.578,7.324,0
1542737515.623,47.363,43.457,13.184,31.738,19.043,0
1542737515.627,49.316,37.109,10.742,39.062,40.527,0
1542737515.631,60.547,29.297,12.695,15.137,25.879,0
1542737515.635,62.012,27.344,14.648,8.789,46.875,0
1542737515.639,49.805,22.949,14.160,21.973,83.496,0
1542737515.643,51.758,21.973,11.719,31.250,60.547,0
1542737515.647,37.109,25.391,15.625,32.715,29.297,0
1542737515.651,10.742,21.484,19.043,30.762,7.812,0
1542737515.655,15.137,22.949,20.996,20.508,31.738,0
1542737515.658,27.832,25.391,23.438,9.277,44.434,0
1542737515.662,20.996,20.996,22.461,20.020,23.926,0
1542737515.666,13.184,22.949,20.020,37.109,66.406,0
1542737515.670,17.578,20.996,21.973,39.062,60.547,0
1542737515.674,-3.906,17.578,23.438,35.156,-23.926,0
1542737515.678,-12.207,20.508,23.926,24.902,-14.648,0
1542737515.682,5.859,19.531,22.949,4.883,14.160,0
1542737515.686,-5.371,16.602,18.555,0.488,10.254,0
1542737515.690,-8.789,20.508,18.555,5.371,40.039,0
1542737515.694,11.230,20.020,24.902,17.578,-8.301,0
1542737515.698,24.902,19.043,27.344,26.367,-8.301,0
1542737515.701,26.367,14.648,23.926,13.672,15.625,0
1542737515.705,-0.488,13.184,24.414,14.648,-3.906,0
1542737515.709,-1.465,13.184,28.809,11.230,18.066,0
1542737515.713,-3.906,8.789,26.367,6.348,37.109,0
1542737515.717,-10.254,10.254,24.414,28.809,44.434,0
1542737515.721,-6.348,13.184,27.832,22.949,-9.277,0
1542737515.725,1.953,10.254,29.297,23.438,-8.789,0
1542737515.729,7.812,5.859,27.832,19.531,10.742,0
1542737515.733,7.324,10.742,29.785,16.113,15.137,0
1542737515.737,5.371,10.742,27.832,15.137,41.992,0
1542737515.741,4.395,5.859,26.367,-0.488,50.293,0
1542737515.744,5.371,5.859,29.297,22.461,50.781,0
1542737515.748,12.207,6.836,25.391,29.297,11.230,0
1542737515.752,1.465,9.277,22.461,26.367,-13.184,0
1542737515.756,-5.859,12.207,24.414,31.250,-12.207,0
1542737515.760,7.324,11.719,25.879,5.859,72.266,0
1542737515.764,13.672,6.836,30.273,12.695,60.547,0
1542737515.768,24.414,8.789,33.691,30.762,-18.066,0
1542737515.772,32.715,16.602,36.621,34.180,-13.184,0
1542737515.776,22.949,18.066,34.180,34.668,24.414,0
1542737515.780,0.488,7.812,30.762,30.762,23.926,0
1542737515.783,29.785,10.254,39.551,36.133,-32.227,0
1542737515.787,32.227,15.137,41.504,28.809,-45.410,0
1542737515.791,12.695,11.230,38.574,27.344,-13.184,0
1542737515.795,26.855,6.836,39.551,36.133,45.898,0
1542737515.799,28.320,4.883,41.504,25.391,41.016,0
1542737515.803,15.625,10.742,41.016,16.113,50.293,0
1542737515.807,8.789,8.301,39.062,33.691,64.941,0
1542737515.811,13.184,7.324,37.598,24.902,9.277,0
1542737515.815,9.277,6.836,41.504,27.344,-3.418,0
1542737515.819,-4.395,0.977,41.504,35.645,61.523,0
1542737515.823,-21.484,6.348,38.086,13.672,39.551,0
1542737515.826,-19.043,4.883,36.133,20.996,-7.812,0
1542737515.830,8.789,8.301,34.180,27.832,15.625,0
1542737515.834,7.812,17.090,31.250,22.461,22.461,0
1542737515.838,9.766,18.066,30.762,15.137,-29.785,0
1542737515.842,0.000,16.602,32.227,-0.488,9.766,0
1542737515.846,0.977,8.301,29.297,-6.348,54.688,0
1542737515.850,14.160,11.230,31.738,11.719,2.441,0
1542737515.854,18.066,17.090,35.645,15.137,2.930,0
1542737515.858,32.227,18.555,34.668,8.301,39.062,0
1542737515.862,12.207,16.602,33.203,16.602,39.551,0
1542737515.866,11.719,14.648,32.715,25.391,17.578,0
1542737515.869,29.785,19.531,35.645,27.344,15.625,0
1542737515.873,27.832,17.090,35.645,38.574,39.551,0
1542737515.877,13.672,8.301,28.809,52.734,31.738,0
1542737515.881,-9.277,6.836,25.879,4.883,-11.230,0
1542737515.885,8.301,10.254,28.809,-4.395,-30.273,0
1542737515.889,26.855,11.719,33.203,25.879,-21.484,0
1542737515.893,16.113,2.441,28.320,6.836,20.996,0
1542737515.897,19.531,-0.977,28.809,16.113,39.062,0
1542737515.901,10.742,2.441,35.156,38.086,42.969,0
1542737515.905,-15.625,9.766,33.203,24.414,25.879,0
1542737515.908,-3.418,22.461,29.785,24.902,37.109,0
1542737515.912,6.836,19.531,29.297,21.484,-1.953,0
1542737515.916,13.672,18.066,34.180,-7.812,-49.805,0
1542737515.920,18.066,17.090,33.691,-8.301,7.324,0
1542737515.924,20.996,13.672,23.926,10.254,50.293,0
1542737515.928,31.250,21.484,24.414,30.273,48.828,0
1542737515.932,28.809,19.043,28.320,13.672,31.250,0
1542737515.936,29.297,5.371,23.926,-5.859,-12.207,0
1542737515.940,22.949,9.766,18.066,-11.230,-1.953,0
1542737515.944,15.625,23.438,19.043,-16.113,26.855,0
1542737515.948,33.203,23.438,22.949,3.418,-12.207,0
1542737515.951,41.504,20.996,21.484,14.160,2.930,0
1542737515.955,32.227,20.020,19.531,21.973,26.855,0
1542737515.959,40.039,20.020,23.926,7.812,11.230,0
1542737515.963,35.156,20.996,24.414,-7.324,18.066,0
1542737515.967,27.832,20.508,24.414,3.906,63.477,0
1542737515.971,33.203,20.508,27.344,11.719,54.688,0
1542737515.975,35.156,18.066,24.414,-2.930,43.945,0
1542737515.979,39.062,16.602,21.484,-6.348,78.125,0
1542737515.983,41.992,14.648,21.973,-0.488,41.992,0
1542737515.987,45.898,12.207,23.438,13.184,-29.785,0
1542737515.991,41.016,7.324,25.391,16.602,-10.742,0
1542737515.994,35.645,11.719,25.391,12.207,-2.441,0
1542737515.998,44.922,18.555,25.391,41.504,1.953,0
1542737516.002,62.012,19.531,21.973,41.016,41.992,0
1542737516.006,67.383,20.020,20.508,6.348,43.945,0
1542737516.010,56.641,0.488,23.926,23.438,11.719,0
1542737516.014,59.570,-5.371,25.391,36.133,16.113,0
1542737516.018,54.199,9.277,22.461,0.977,44.434,0
1542737516.022,57.129,10.254,18.555,14.160,121.094,0
1542737516.026,80.078,16.602,18.066,51.270,102.539,0
1542737516.030,58.594,20.508,15.137,25.879,25.391,0
1542737516.033,51.270,23.438,12.695,-1.465,8.789,0
1542737516.037,58.105,20.020,12.695,1.953,-19.043,0
1542737516.041,64.941,25.879,13.184,32.715,8.789,0
1542737516.045,65.918,36.133,12.207,49.805,-28.320,0
1542737516.049,66.895,33.203,6.836,37.598,-71.777,0
1542737516.053,67.383,36.621,3.906,12.207,-37.109,0
1542737516.057,56.641,35.645,4.395,14.160,-14.648,0
1542737516.061,67.871,28.809,6.836,43.457,-16.113,0
1542737516.065,74.219,25.879,9.277,48.828,14.160,0
1542737516.069,72.266,30.762,9.277,29.297,73.242,0
1542737516.073,68.848,31.738,5.371,35.645,93.750,0
1542737516.076,64.453,22.949,6.836,31.738,101.074,0
1542737516.080,65.430,23.438,9.277,11.719,70.312,0
1542737516.084,65.430,29.297,8.789,27.832,-5.371,0
1542737516.088,70.312,27.832,8.789,41.016,-49.805,0
1542737516.092,74.707,26.367,9.277,41.016,-20.996,0
1542737516.096,72.754,25.391,11.719,40.527,19.531,0
1542737516.100,73.730,24.902,16.113,35.156,18.555,0
1542737516.104,60.547,24.902,15.625,34.180,-37.598,0
1542737516.108,53.223,24.414,9.277,37.109,-4.883,0
1542737516.112,69.824,22.949,5.371,28.320,33.691,0
1542737516.116,65.918,24.414,8.789,15.625,31.250,0
1542737516.119,63.477,25.879,10.742,23.926,22.461,0
1542737516.123,67.383,21.973,8.789,28.320,38.086,0
1542737516.127,49.316,24.414,8.301,23.438,63.965,0
1542737516.131,59.570,24.414,5.371,41.504,18.555,0
1542737516.135,56.152,26.367,8.789,40.039,23.438,0
1542737516.139,35.156,24.414,12.207,32.715,7.812,0
1542737516.143,40.527,17.578,12.695,21.973,-19.043,0
1542737516.147,28.320,18.555,15.137,28.320,-0.488,0
1542737516.151,27.832,18.555,15.625,25.879,25.391,0
1542737516.155,40.039,25.879,15.137,34.668,58.105,0
1542737516.158,25.879,31.250,16.113,62.012,49.805,0
1542737516.162,29.297,31.250,15.625,51.758,47.363,0
1542737516.166,35.156,29.297,17.578,56.641,33.691,0
1542737516.170,41.016,24.414,14.648,62.012,-6.836,0
1542737516.174,37.598,26.367,9.766,30.762,18.066,0
1542737516.178,42.969,28.809,13.672,44.922,34.668,0
1542737516.182,62.988,28.809,17.090,53.711,6.836,0
1542737516.186,59.082,25.879,16.602,19.531,20.020,0
1542737516.190,45.898,24.902,13.672,-21.973,46.875,0
1542737516.194,44.434,27.344,15.625,-36.621,8.301,0
1542737516.198,41.992,32.715,17.578,-0.488,39.551,0
1542737516.201,26.855,26.855,13.184,2.930,61.035,0
1542737516.205,28.320,19.531,10.254,-20.020,19.043,0
1542737516.209,25.391,18.066,14.648,-0.488,22.461,0
1542737516.213,30.762,24.902,15.137,15.137,21.973,0
1542737516.217,33.203,27.344,10.742,21.973,53.711,0
1542737516.221,16.113,20.020,11.719,5.371,14.160,0
1542737516.225,15.137,26.855,15.625,0.977,3.418,0
1542737516.229,33.203,28.809,19.531,17.578,40.039,0
1542737516.233,34.668,27.832,15.137,17.090,-1.953,0
1542737516.237,11.719,34.668,11.719,29.297,5.859,0
1542737516.241,17.578,34.668,15.625,30.273,20.508,0
1542737516.244,27.832,33.203,16.602,27.344,27.832,0
1542737516.248,31.738,32.715,19.043,26.855,63.965,0
1542737516.252,30.273,33.203,20.508,36.133,97.168,0
1542737516.256,33.691,32.715,21.484,34.668,32.715,0
1542737516.260,48.828,28.320,24.414,30.762,-39.551,0
1542737516.264,67.871,29.785,23.438,68.359,-2.930,0
1542737516.268,52.734,27.832,28.809,60.547,47.363,0
1542737516.272,16.113,26.855,26.855,12.695,51.758,0
1542737516.276,22.461,20.020,23.926,13.672,7.324,0
1542737516.280,27.832,12.695,31.738,18.555,24.414,0
1542737516.283,16.602,16.113,33.203,26.855,3.906,0
1542737516.287,17.090,8.789,35.156,56.641,-21.484,0
1542737516.291,24.902,4.883,37.598,43.457,17.090,0
1542737516.295,42.480,18.555,38.086,61.523,78.125,0
1542737516.299,37.598,17.578,39.551,35.156,67.871,0
1542737516.303,31.738,4.883,37.598,-2.930,42.969,0
1542737516.307,25.879,6.348,36.621,16.113,47.852,0
1542737516.311,17.578,8.789,36.133,26.855,90.332,0
1542737516.315,20.020,4.883,34.180,58.105,104.492,0
1542737516.319,18.066,16.113,31.250,60.059,35.156,0
1542737516.323,25.879,11.230,31.738,63.477,28.320,0
1542737516.326,38.574,4.883,32.715,65.918,47.363,0
1542737516.330,17.578,12.695,27.832,62.012,41.504,0
1542737516.334,22.949,18.555,28.320,51.270,35.156,0
1542737516.338,34.180,25.879,31.738,24.902,33.203,0
1542737516.342,30.273,23.926,28.320,20.020,25.879,0
1542737516.346,44.434,22.461,24.414,20.508,19.043,0
1542737516.350,30.273,18.066,19.043,34.668,1.953,0
1542737516.354,36.621,18.066,15.625,27.344,-11.719,0
1542737516.358,49.316,24.414,19.043,15.625,0.977,0
1542737516.362,49.805,30.762,19.043,9.766,-11.719,0
1542737516.366,55.664,29.785,19.531,-1.465,-27.832,0
1542737516.369,56.641,30.273,20.996,15.137,-9.766,0
1542737516.373,50.781,33.691,20.020,50.781,50.293,0
1542737516.377,43.457,23.926,25.391,58.105,12.207,0
1542737516.381,53.711,23.926,27.832,39.551,-11.719,0
1542737516.385,41.016,28.320,25.391,49.316,15.625,0
1542737516.389,28.320,25.391,24.414,60.547,38.086,0
1542737516.393,57.129,33.203,25.879,63.965,15.137,0
1542737516.397,62.012,34.180,26.855,49.805,-10.742,0
1542737516.401,43.945,25.879,27.344,53.711,0.488,0
1542737516.405,42.480,29.297,30.273,61.035,-34.180,0
1542737516.408,34.180,21.484,31.738,56.641,-4.395,0
1542737516.412,33.203,19.043,29.785,75.684,27.344,0
1542737516.416,44.922,27.832,26.855,78.613,-18.066,0
1542737516.420,39.551,33.203,25.879,49.805,-30.762,0
1542737516.424,40.039,29.297,28.809,30.273,-12.207,0
1542737516.428,28.320,18.555,35.645,47.363,-7.812,0
1542737516.432,23.438,22.461,37.109,68.359,18.066,0
1542737516.436,34.180,25.391,34.180,67.871,25.879,0
1542737516.440,43.945,14.160,35.156,57.617,6.348,0
1542737516.444,40.527,14.648,29.785,42.969,1.465,0
1542737516.448,39.062,28.320,27.832,48.340,34.668,0
1542737516.451,42.480,32.227,32.227,44.434,-31.738,0
1542737516.455,22.461,30.762,30.762,48.828,-23.438,0
1542737516.459,15.625,35.156,24.414,42.969,48.340,0
1542737516.463,39.551,40.527,20.020,46.875,17.090,0
1542737516.467,61.523,48.340,17.090,40.527,0.488,0
1542737516.471,35.156,50.293,10.742,24.902,38.086,0
1542737516.475,23.438,44.922,10.742,45.898,39.062,0
1542737516.479,34.180,41.504,12.695,81.543,22.949,0
1542737516.483,43.945,50.293,12.207,62.988,-4.395,0
1542737516.487,49.316,56.641,12.207,39.551,-37.598,0
1542737516.491,51.270,37.598,14.648,72.266,-3.906,0
1542737516.494,51.270,35.645,13.672,58.594,-11.230,0
1542737516.498,45.410,44.434,16.113,31.250,-17.090,0
1542737516.502,45.898,40.039,15.137,32.715,21.484,0
1542737516.506,56.152,40.527,7.812,34.668,30.273,0
1542737516.510,45.898,40.527,9.277,-0.977,25.391,0
1542737516.514,44.434,43.457,8.789,-1.953,11.719,0
1542737516.518,32.227,46.387,6.836,30.273,16.602,0
1542737516.522,10.742,39.551,14.160,30.273,5.859,0
1542737516.526,18.555,36.621,14.648,20.996,30.762,0
1542737516.530,38.086,43.457,11.230,28.809,87.402,0
1542737516.533,62.012,52.734,10.742,45.898,28.320,0
1542737516.537,57.129,46.387,13.184,62.500,-10.254,0
1542737516.541,31.250,34.668,17.578,44.434,8.301,0
1542737516.545,21.484,44.922,19.043,37.598,6.348,0
1542737516.549,23.926,55.176,17.578,55.176,9.277,0
1542737516.553,28.320,56.152,14.160,41.016,19.531,0
1542737516.557,20.020,51.758,12.695,51.758,17.090,0
1542737516.561,7.324,43.945,14.160,54.688,-15.137,0
1542737516.565,34.180,46.875,17.578,56.641,-15.625,0
1542737516.569,57.617,55.664,20.508,47.363,-22.949,0
1542737516.573,46.387,57.617,9.766,-40.039,0.977,0
1542737516.576,85.938,46.387,3.906,-29.785,83.984,0
1542737516.580,137.695,43.945,3.418,81.055,76.172,0
1542737516.584,67.871,53.711,3.906,38.574,18.555,0
1542737516.588,0.000,59.570,17.090,-37.109,27.344,0
1542737516.592,64.941,72.266,34.180,38.574,21.484,0
1542737516.596,50.293,62.012,18.066,21.973,-23.438,0
1542737516.600,-25.879,76.172,8.301,-14.648,21.484,0
1542737516.604,-64.453,93.262,28.809,-40.527,6.348,0
1542737516.608,-131.836,48.828,16.602,-180.664,-49.805,0
1542737516.612,-176.270,31.738,15.137,-256.836,-16.113,0
1542737516.616,-175.293,32.227,16.602,-204.590,1.953,0
1542737516.619,-149.414,41.016,13.672,-146.973,26.855,0
1542737516.623,-169.434,33.203,19.043,-213.867,52.734,0
1542737516.627,-188.965,9.277,25.879,-201.172,-7.324,0
1542737516.631,-157.715,2.441,30.273,-132.812,-18.555,0
1542737516.635,-109.375,6.348,22.949,-114.258,13.184,0
1542737516.639,-87.402,31.250,20.508,-83.496,1.465,0
1542737516.643,-79.102,44.922,39.062,-95.215,15.137,0
1542737516.647,-56.152,30.762,52.734,-91.797,-7.324,0
1542737516.651,-54.199,17.578,49.316,-63.477,5.371,0
1542737516.655,-92.285,12.695,52.246,-63.965,20.020,0
1542737516.658,-72.754,16.113,53.223,-30.762,-20.020,0
1542737516.662,-4.395,28.320,54.199,-22.461,29.785,0
1542737516.666,5.859,22.949,58.594,-15.625,38.086,0
1542737516.670,0.977,22.461,55.176,21.973,51.758,0
1542737516.674,9.277,28.809,50.781,-22.949,52.246,0
1542737516.678,25.879,24.414,51.270,-6.348,23.438,0
1542737516.682,26.367,25.879,48.828,-18.555,10.742,0
1542737516.686,41.992,28.809,51.270,-28.320,-17.578,0
1542737516.690,67.383,22.461,55.176,58.594,-14.648,0
1542737516.694,68.359,23.926,47.852,55.664,-19.043,0
1542737516.698,45.898,31.250,36.621,19.043,-19.531,0
1542737516.701,51.758,18.066,38.574,28.809,-33.691,0
1542737516.705,77.148,7.324,38.574,60.547,-87.402,0
1542737516.709,67.871,20.996,39.062,30.762,-32.715,0
1542737516.713,83.984,34.668,40.039,35.156,-38.574,0
1542737516.717,96.680,20.996,25.879,79.102,-50.781,0
1542737516.721,103.516,19.043,19.043,83.008,27.344,0
1542737516.725,119.141,17.578,29.785,96.191,2.930,0
1542737516.729,98.145,2.441,41.504,81.543,41.992,0
1542737516.733,79.102,29.785,39.062,68.359,52.734,0
1542737516.737,23.926,25.879,17.090,38.574,5.371,0
1542737516.741,-11.230,16.602,1.465,20.508,39.551,0
1542737516.744,18.555,41.016,8.301,-4.883,92.285,0
1542737516.748,37.598,31.738,14.160,-34.668,62.500,0
1542737516.752,16.602,13.672,13.184,-19.043,27.832,0
1542737516.756,-4.395,4.883,14.160,-26.855,42.480,0
1542737516.760,16.113,8.789,17.090,2.930,42.969,0
1542737516.764,27.832,16.113,14.648,32.227,18.066,0
1542737516.768,11.719,18.066,14.648,14.160,6.836,0
1542737516.772,9.277,27.832,20.508,9.766,40.527,0
1542737516.776,49.805,25.391,24.902,24.414,-9.766,0
1542737516.780,68.848,16.113,18.555,54.199,-49.316,0
1542737516.783,41.016,19.531,15.137,39.551,2.930,0
1542737516.787,28.809,17.090,22.461,-18.555,0.000,0
1542737516.791,34.180,20.020,24.902,0.488,9.766,0
1542737516.795,18.066,24.414,23.438,7.324,32.227,0
1542737516.799,16.113,13.184,26.855,14.648,11.230,0
1542737516.803,19.531,14.160,25.391,55.176,17.090,0
1542737516.807,24.902,20.020,20.508,55.664,68.848,0
1542737516.811,35.156,19.531,20.020,34.180,87.891,0
1542737516.815,25.391,30.273,14.648,54.199,38.574,0
1542737516.819,29.785,23.438,13.672,60.547,-4.883,0
1542737516.823,33.203,10.742,13.184,20.508,-6.348,0
1542737516.826,28.320,8.301,7.324,-7.812,1.953,0
1542737516.830,25.391,27.344,8.301,21.973,-3.906,0
1542737516.834,25.879,37.109,12.695,51.758,4.395,0
1542737516.838,47.852,15.625,16.602,49.805,-3.906,0
1542737516.842,44.922,-1.953,18.066,58.594,-14.160,0
1542737516.846,10.742,-9.766,13.672,37.109,29.785,0
1542737516.850,29.297,-4.395,7.812,23.438,63.965,0
1542737516.854,55.176,3.418,6.836,22.461,29.785,0
1542737516.858,43.457,10.742,11.230,27.344,1.465,0
1542737516.862,47.852,12.207,11.230,27.344,-0.977,0
1542737516.866,71.777,3.906,7.324,22.949,5.859,0
1542737516.869,79.102,0.488,4.883,34.180,36.621,0
1542737516.873,71.289,-2.930,4.883,48.340,18.555,0
1542737516.877,57.617,-5.859,10.254,18.066,-0.488,0
1542737516.881,60.059,1.953,11.719,21.484,-10.254,0
1542737516.885,53.711,3.418,11.719,43.457,-2.441,0
1542737516.889,29.297,3.418,19.043,57.617,28.809,0
1542737516.893,43.945,10.254,19.043,83.496,8.789,0
1542737516.897,52.734,-7.812,8.789,50.781,-6.836,0
1542737516.901,41.504,-18.066,11.719,43.945,4.883,0
1542737516.905,44.922,-5.859,18.555,44.434,34.668,0
1542737516.908,31.738,9.277,13.672,26.367,2.441,0
1542737516.912,16.113,11.719,14.648,47.363,-44.922,0
1542737516.916,23.438,3.906,20.996,51.758,10.742,0
1542737516.920,48.828,4.883,20.996,23.926,49.805,0
1542737516.924,62.012,6.348,14.160,12.207,54.688,0
1542737516.928,50.293,11.230,15.625,24.414,70.312,0
1542737516.932,35.645,20.508,24.414,31.250,115.234,0
1542737516.936,36.133,20.996,23.438,47.852,41.016,0
1542737516.940,39.062,15.137,19.043,42.969,-40.527,0
1542737516.944,37.598,17.090,23.926,31.738,3.418,0
1542737516.948,60.547,16.113,31.738,52.246,-4.883,0
1542737516.951,68.359,3.906,31.250,68.848,4.395,0
1542737516.955,48.828,5.371,13.184,52.246,-27.344,0
1542737516.959,66.895,18.555,1.953,30.762,7.812,0
1542737516.963,38.574,13.184,7.324,0.000,74.707,0
1542737516.967,17.090,13.184,16.113,-0.488,50.781,0
1542737516.971,29.297,18.066,23.926,27.344,14.160,0
1542737516.975,42.969,14.160,25.391,14.648,5.371,0
1542737516.979,68.848,12.207,28.320,31.250,12.695,0
1542737516.983,70.801,13.184,30.273,29.785,-5.859,0
1542737516.987,66.895,20.020,30.762,20.996,-18.066,0
1542737516.991,52.246,23.438,26.855,55.664,-5.859,0
1542737516.994,42.480,31.738,20.996,46.875,18.066,0
1542737516.998,31.250,30.273,22.949,38.574,5.371,0
1542737517.002,38.086,22.949,30.762,44.922,-2.441,0
1542737517.006,40.527,33.203,33.203,60.547,38.086,0
1542737517.010,44.922,35.645,32.227,62.500,53.223,0
1542737517.014,53.223,4.883,25.879,58.594,20.020,0
1542737517.018,48.828,6.348,17.578,45.410,39.551,0
1542737517.022,62.012,28.809,17.090,55.176,23.438,0
1542737517.026,46.387,30.762,21.484,59.570,0.488,0
1542737517.030,39.551,31.250,26.367,52.246,2.441,0
1542737517.033,54.199,38.574,26.855,60.059,9.766,0
1542737517.037,55.176,22.949,19.531,24.414,15.625,0
1542737517.041,22.949,34.180,16.602,-8.789,12.207,0
1542737517.045,31.250,29.297,20.020,-33.691,43.945,0
1542737517.049,55.176,7.324,22.949,-9.766,60.547,0
1542737517.053,40.527,17.090,28.320,36.133,22.949,0
1542737517.057,48.340,20.996,28.809,45.410,47.363,0
1542737517.061,59.082,20.996,26.367,21.484,-2.930,0
1542737517.065,73.730,19.043,27.344,28.809,15.137,0
1542737517.069,76.172,18.066,31.738,43.457,98.145,0
1542737517.073,81.543,13.184,29.785,52.734,18.555,0
1542737517.076,80.078,23.438,24.902,56.641,-20.508,0
1542737517.080,52.246,26.855,23.438,67.871,20.508,0
1542737517.084,53.223,24.414,21.484,82.031,2.930,0
1542737517.088,80.566,31.250,26.855,39.551,20.996,0
1542737517.092,49.805,37.109,23.438,13.672,25.391,0
1542737517.096,57.129,20.996,24.414,44.922,-5.859,0
1542737517.100,58.594,4.395,29.297,76.660,-12.695,0
1542737517.104,28.320,17.090,22.949,63.477,15.625,0
1542737517.108,37.598,28.809,20.020,33.691,14.648,0
1542737517.112,23.926,32.227,22.461,0.000,45.410,0
1542737517.116,8.301,27.344,24.902,35.156,26.367,0
1542737517.119,34.668,30.762,29.297,78.125,-9.277,0
1542737517.123,43.945,27.832,31.738,41.504,4.883,0
1542737517.127,25.391,16.602,29.297,0.977,-13.184,0
1542737517.131,23.926,11.719,24.902,-5.859,13.672,0
1542737517.135,6.836,11.719,25.879,-6.836,0.977,0
1542737517.139,-2.930,22.461,24.414,8.301,-13.672,0
1542737517.143,19.531,27.832,22.949,9.766,12.695,0
1542737517.147,35.156,30.273,27.344,29.297,-7.324,0
1542737517.151,29.297,25.879,25.391,19.531,-28.809,0
1542737517.155,38.086,21.484,21.484,3.906,-17.090,0
1542737517.158,54.688,25.391,20.996,-0.977,-22.461,0
1542737517.162,-1.953,24.902,15.625,-7.324,-9.766,0
1542737517.166,2.930,46.875,13.184,3.418,-2.441,0
1542737517.170,41.992,41.992,24.902,26.367,57.617,0
1542737517.174,-9.277,27.344,25.391,-5.859,76.172,0
1542737517.178,30.762,30.273,14.648,-10.742,66.406,0
1542737517.182,66.406,30.762,13.672,24.902,67.871,0
1542737517.186,2.930,19.043,26.367,18.555,62.012,0
1542737517.190,45.410,10.742,25.879,61.523,92.285,0
1542737517.194,90.332,41.016,15.137,70.801,82.520,0
1542737517.198,53.223,39.551,18.555,35.156,28.809,0
1542737517.201,56.641,45.410,21.484,50.781,-5.371,0
1542737517.205,76.660,45.898,27.832,82.031,27.344,0
1542737517.209,69.336,20.996,32.715,38.574,45.898,0
1542737517.213,59.570,24.902,28.320,14.160,16.602,0
1542737517.217,58.105,23.926,28.809,56.641,30.762,0
1542737517.221,51.270,20.996,26.367,62.012,10.254,0
1542737517.225,63.965,21.973,25.391,65.430,26.855,0
1542737517.229,85.449,26.367,25.879,62.988,33.203,0
1542737517.233,74.219,36.621,25.879,46.387,-21.973,0
1542737517.237,81.543,22.949,30.273,84.473,-29.785,0
1542737517.241,76.172,45.410,26.855,57.617,-1.953,0
1542737517.244,84.473,42.969,23.926,54.199,31.250,0
1542737517.248,129.883,13.184,33.691,133.789,28.320,0
1542737517.252,126.465,26.367,33.691,125.488,16.602,0
1542737517.256,116.699,19.531,32.227,74.219,5.859,0
1542737517.260,109.375,21.484,33.203,68.848,34.180,0
1542737517.264,129.883,22.949,27.832,56.152,49.805,0
1542737517.268,140.625,31.250,25.391,60.059,36.621,0
1542737517.272,144.531,28.320,26.367,94.238,44.922,0
1542737517.276,137.695,23.438,27.344,88.379,3.906,0
1542737517.280,123.535,29.297,22.949,68.359,47.852,0
1542737517.283,116.211,30.762,23.438,74.219,64.941,0
1542737517.287,117.676,17.578,22.949,44.434,28.809,0
1542737517.291,114.746,23.438,20.020,48.828,33.691,0
1542737517.295,114.258,34.668,24.414,73.242,25.879,0
1542737517.299,116.211,25.879,29.297,33.203,16.602,0
1542737517.303,113.281,29.785,31.250,57.129,37.109,0
1542737517.307,85.938,38.086,26.855,26.855,54.199,0
1542737517.311,96.680,39.551,21.973,20.508,14.648,0
1542737517.315,107.422,43.945,17.578,61.523,39.551,0
1542737517.319,75.684,32.715,24.902,43.945,14.648,0
1542737517.323,77.637,42.480,24.902,39.551,29.297,0
1542737517.326,102.051,46.875,21.973,37.598,57.129,0
1542737517.330,89.355,32.227,28.320,60.059,-15.625,0
1542737517.334,72.754,34.668,26.855,42.480,-69.824,0
1542737517.338,73.730,35.645,25.879,13.672,-73.242,0
1542737517.342,76.660,30.762,33.203,41.992,-8.789,0
1542737517.346,64.941,24.414,34.668,55.176,41.504,0
1542737517.350,69.336,26.367,30.273,63.477,28.320,0
1542737517.354,68.359,30.762,30.273,49.316,16.113,0
1542737517.358,83.496,26.367,30.762,34.668,41.016,0
1542737517.362,83.008,21.973,38.574,83.496,13.184,0
1542737517.366,57.129,20.020,37.109,57.617,-1.465,0
1542737517.369,63.477,20.508,27.832,28.809,26.855,0
1542737517.373,46.387,25.879,26.367,18.066,0.488,0
1542737517.377,59.082,34.668,27.344,9.277,37.598,0
1542737517.381,55.664,35.156,31.250,38.086,-16.602,0
1542737517.385,41.016,28.320,33.691,44.922,-67.871,0
1542737517.389,57.129,29.297,33.203,21.484,-50.293,0
1542737517.393,70.312,31.738,32.715,17.578,-52.734,0
1542737517.397,58.105,26.855,34.180,13.184,-12.695,0
1542737517.401,48.828,25.879,33.691,23.438,-16.602,0
1542737517.405,51.758,34.180,34.668,61.523,24.414,0
1542737517.408,60.059,34.668,36.621,75.684,44.922,0
1542737517.412,73.730,26.855,32.227,52.246,20.508,0
1542737517.416,68.359,22.461,30.273,13.184,32.227,0
1542737517.420,37.598,19.043,31.738,16.602,57.129,0
1542737517.424,28.809,19.531,28.809,22.949,-12.695,0
1542737517.428,33.691,24.414,29.297,8.301,27.832,0
1542737517.432,24.902,28.809,28.809,6.348,85.938,0
1542737517.436,53.711,27.832,26.855,37.598,6.348,0
1542737517.440,78.613,24.414,32.715,43.457,-16.602,0
1542737517.444,56.641,24.902,35.645,-3.906,48.828,0
1542737517.448,41.504,22.949,37.109,36.621,100.098,0
1542737517.451,58.594,18.555,40.039,100.098,27.832,0
1542737517.455,70.801,20.020,35.156,78.613,-41.992,0
1542737517.459,85.449,19.043,35.156,48.340,4.395,0
1542737517.463,90.332,16.113,36.133,9.277,27.344,0
1542737517.467,88.379,16.602,35.645,42.480,7.812,0
1542737517.471,104.980,18.555,40.039,65.918,-19.043,0
1542737517.475,116.211,23.438,40.039,70.801,-18.555,0
1542737517.479,126.465,18.555,41.016,83.496,-2.930,0
1542737517.483,128.418,18.066,42.480,74.707,47.363,0
1542737517.487,126.465,18.555,41.504,64.941,89.844,0
1542737517.491,102.051,8.789,42.969,59.570,48.828,0
1542737517.494,97.168,10.742,40.527,65.430,20.508,0
1542737517.498,91.797,18.555,36.621,87.402,1.953,0
1542737517.502,87.402,21.973,37.598,81.055,2.930,0
1542737517.506,104.492,12.695,36.621,70.801,-2.441,0
1542737517.510,103.516,3.906,36.621,102.051,-19.531,0
1542737517.514,92.773,5.371,40.039,84.473,-9.277,0
1542737517.518,79.590,13.184,41.016,64.941,-5.859,0
1542737517.522,76.172,22.461,40.527,68.359,-20.508,0
1542737517.526,65.430,17.578,39.062,65.918,-15.625,0
1542737517.530,46.875,17.090,37.109,64.453,4.883,0
1542737517.533,51.270,17.090,36.621,62.988,8.301,0
1542737517.537,79.102,10.742,31.250,34.668,7.324,0
1542737517.541,68.359,16.602,28.809,31.250,14.160,0
1542737517.545,64.453,27.832,32.715,38.574,11.230,0
1542737517.549,64.941,36.133,33.691,17.090,23.926,0
1542737517.553,73.730,38.574,30.273,13.672,-44.922,0
1542737517.557,79.102,31.738,28.320,41.992,-61.035,0
1542737517.561,58.594,25.391,30.762,29.785,-37.109,0
1542737517.565,70.312,24.414,37.598,23.926,-36.133,0
1542737517.569,73.730,24.902,41.504,60.547,4.395,0
1542737517.573,86.426,31.738,38.086,48.340,14.648,0
1542737517.576,71.777,27.344,34.668,46.387,21.973,0
1542737517.580,40.039,26.855,28.809,45.410,-0.488,0
1542737517.584,53.223,32.227,32.227,45.898,6.836,0
1542737517.588,55.176,27.832,34.668,47.363,55.664,0
1542737517.592,38.086,25.391,32.715,44.434,22.461,0
1542737517.596,36.133,21.973,36.133,42.969,-19.043,0
1542737517.600,28.809,29.785,37.598,18.555,19.531,0
1542737517.604,21.484,31.250,35.156,12.207,47.363,0
1542737517.608,38.086,24.414,35.156,24.902,29.785,0
1542737517.612,33.691,30.762,37.109,16.113,9.766,0
1542737517.616,26.367,31.738,37.109,51.270,-16.602,0
1542737517.619,12.695,29.297,36.621,31.250,7.812,0
1542737517.623,16.602,36.133,37.109,22.461,44.922,0
1542737517.627,48.828,38.086,36.621,56.641,53.223,0
1542737517.631,47.363,30.762,37.598,49.316,-4.883,0
1542737517.635,34.180,26.367,38.086,34.180,-3.418,0
1542737517.639,37.109,25.879,32.715,17.578,42.480,0
1542737517.643,36.133,20.996,28.809,21.484,55.664,0
1542737517.647,43.457,24.902,30.762,31.250,91.309,0
1542737517.651,59.570,37.109,43.457,37.598,84.473,0
1542737517.655,71.777,30.762,44.434,50.293,18.555,0
1542737517.658,65.918,30.273,25.391,59.570,5.859,0
1542737517.662,37.109,36.621,20.020,22.949,84.473,0
1542737517.666,43.945,36.133,27.344,-11.230,45.410,0
1542737517.670,52.734,40.527,31.738,-14.160,-49.805,0
1542737517.674,55.176,41.504,31.738,0.488,8.301,0
1542737517.678,55.664,38.574,30.273,6.836,89.355,0
1542737517.682,34.668,37.109,32.715,-7.324,97.168,0
1542737517.686,45.410,37.598,36.133,20.508,28.809,0
1542737517.690,34.180,39.062,39.062,45.898,21.484,0
1542737517.694,-0.488,38.086,38.574,19.531,28.809,0
1542737517.698,20.996,34.668,35.645,21.484,-55.176,0
1542737517.701,46.875,36.621,34.180,26.855,18.066,0
1542737517.705,50.781,39.551,35.645,26.855,68.359,0
1542737517.709,58.594,36.621,35.645,41.992,40.527,0
1542737517.713,57.617,27.344,35.156,20.996,76.172,0
1542737517.717,49.805,24.414,34.180,23.438,23.926,0
1542737517.721,50.293,35.156,31.738,24.414,10.742,0
1542737517.725,51.758,43.457,35.645,23.926,10.742,0
1542737517.729,41.016,39.551,34.668,59.570,-5.859,0
1542737517.733,18.066,33.203,33.203,73.730,0.977,0
1542737517.737,23.438,33.203,41.016,49.316,-0.977,0
1542737517.741,48.828,29.785,40.527,5.859,45.898,0
1542737517.744,38.574,31.738,33.203,9.277,94.727,0
1542737517.748,28.809,37.109,32.227,9.277,4.883,0
1542737517.752,41.992,33.203,36.621,20.508,12.207,0
1542737517.756,70.312,35.156,37.109,63.477,116.699,0
1542737517.760,52.246,40.039,35.645,59.082,77.637,0
1542737517.764,23.438,34.668,29.785,17.578,45.898,0
1542737517.768,37.109,35.156,27.344,-0.488,73.730,0
1542737517.772,46.387,48.828,21.973,29.297,82.520,0
1542737517.776,36.133,55.176,16.602,41.016,93.750,0
1542737517.780,46.875,56.152,18.555,29.297,182.617,0
1542737517.783,62.500,62.988,13.672,39.062,267.578,0
1542737517.787,71.777,56.641,16.602,23.438,309.570,0
1542737517.791,77.148,53.711,22.461,39.062,286.133,0
1542737517.795,58.105,59.570,17.578,81.055,243.164,0
1542737517.799,55.176,57.617,14.160,83.496,250.488,0
1542737517.803,48.340,54.199,18.066,61.035,270.508,0
1542737517.807,44.922,47.363,19.531,56.152,261.719,0
1542737517.811,77.148,44.434,19.043,35.645,250.000,0
1542737517.815,80.566,47.852,21.973,20.020,217.773,0
1542737517.819,58.105,48.828,22.949,36.133,184.082,0
1542737517.823,56.641,41.992,24.414,37.109,160.645,0
1542737517.826,57.617,38.574,24.902,23.926,115.723,0
1542737517.830,49.316,48.340,27.344,11.230,84.961,0
1542737517.834,39.551,48.828,28.809,19.043,70.801,0
1542737517.838,53.711,47.363,26.855,37.598,35.156,0
1542737517.842,75.684,48.340,27.344,46.387,3.906,0
1542737517.846,62.500,45.410,27.344,49.316,-24.414,0
1542737517.850,65.918,43.945,27.344,21.484,-41.992,0
1542737517.854,68.359,39.551,28.320,26.855,-63.965,0
1542737517.858,60.547,35.645,29.785,68.359,-122.559,0
1542737517.862,47.363,41.504,26.855,65.430,-84.961,0
1542737517.866,22.461,38.086,28.320,45.898,-43.457,0
1542737517.869,36.621,37.109,31.738,39.062,-83.008,0
1542737517.873,61.035,33.203,31.738,22.949,-95.703,0
1542737517.877,54.688,27.832,31.250,48.828,-118.164,0
1542737517.881,41.016,43.457,23.926,68.359,-113.770,0
1542737517.885,45.410,47.363,20.020,64.941,-78.125,0
1542737517.889,50.293,41.504,25.391,27.832,-82.520,0
1542737517.893,45.410,44.922,27.344,24.902,-101.074,0
1542737517.897,55.176,44.922,27.832,45.898,-62.012,0
1542737517.901,51.758,38.086,30.273,54.199,-23.438,0
1542737517.905,34.668,39.551,31.250,46.387,-8.301,0
1542737517.908,35.156,40.527,32.715,12.695,-67.383,0
1542737517.912,44.922,39.062,33.691,11.719,-87.402,0
1542737517.916,49.805,37.109,34.668,54.688,-68.359,0
1542737517.920,45.898,36.621,35.645,55.664,-54.199,0
1542737517.924,40.527,36.621,31.250,34.668,-32.227,0
1542737517.928,45.898,34.668,30.273,59.082,-60.547,0
1542737517.932,49.805,39.551,34.668,62.012,-19.531,0
1542737517.936,45.410,44.434,32.227,50.781,-22.949,0
1542737517.940,31.738,40.527,29.297,46.387,-94.727,0
1542737517.944,45.898,33.691,31.738,39.062,-21.973,0
1542737517.948,44.922,37.598,37.109,36.133,1.465,0
1542737517.951,34.180,34.668,40.527,32.715,-55.664,0
1542737517.955,53.223,33.203,34.668,40.527,-71.289,0
1542737517.959,45.410,44.922,29.785,41.016,-21.973,0
1542737517.963,26.855,40.039,34.180,36.621,-16.602,0
1542737517.967,20.996,39.551,33.203,26.855,-15.137,0
1542737517.971,31.738,47.852,27.832,16.602,21.484,0
1542737517.975,35.645,43.945,28.809,58.105,-27.832,0
1542737517.979,36.133,42.480,33.691,90.820,-113.281,0
1542737517.983,39.551,36.133,35.156,65.918,-119.141,0
1542737517.987,24.414,30.762,33.203,49.805,-80.566,0
1542737517.991,14.648,40.527,32.227,82.031,-24.414,0
1542737517.994,22.949,39.551,33.203,70.312,-62.012,0
1542737517.998,38.574,37.598,33.691,26.855,-94.238,0
1542737518.002,46.387,45.410,29.785,2.930,-15.137,0
1542737518.006,50.781,42.480,30.273,-1.953,22.461,0
1542737518.010,50.781,48.340,35.156,-6.348,-9.277,0
