timestamps,TP9,AF7,AF8,TP10,Right AUX,Marker0
1542735070.124,56.152,27.832,42.480,86.426,101.562,0
1542735070.128,58.594,27.344,35.645,72.754,126.465,0
1542735070.132,19.531,24.414,37.598,48.828,94.238,0
1542735070.135,21.484,31.250,32.227,53.223,56.152,0
1542735070.139,34.668,35.156,27.832,70.801,42.969,0
1542735070.143,37.598,28.809,33.203,73.242,20.020,0
1542735070.147,61.035,26.367,33.203,61.035,8.301,0
1542735070.151,26.855,24.902,38.086,55.664,-2.930,0
1542735070.155,-7.812,24.414,31.250,44.434,37.598,0
1542735070.159,22.949,29.297,19.043,43.945,75.684,0
1542735070.163,33.203,30.762,24.902,54.199,89.355,0
1542735070.167,24.414,26.367,29.785,48.828,47.852,0
1542735070.171,19.043,21.484,29.785,47.363,25.879,0
1542735070.175,23.438,21.484,37.109,46.387,46.875,0
1542735070.178,43.457,27.832,32.227,35.156,72.266,0
1542735070.182,21.484,29.785,17.578,23.926,37.598,0
1542735070.186,7.324,22.461,28.320,37.598,9.277,0
1542735070.190,24.414,19.531,39.062,45.898,24.414,0
1542735070.194,43.945,25.391,32.227,28.320,48.828,0
1542735070.198,38.574,22.461,31.738,23.926,78.125,0
1542735070.202,21.973,21.973,33.203,44.434,52.246,0
1542735070.206,21.484,30.273,27.344,22.461,71.777,0
1542735070.210,11.719,24.414,25.391,16.602,43.457,0
1542735070.214,46.387,20.508,27.344,20.020,19.531,0
1542735070.217,66.406,25.391,18.555,21.973,13.672,0
1542735070.221,32.227,23.438,18.555,32.715,-13.184,0
1542735070.225,14.648,20.996,32.715,30.762,45.898,0
1542735070.229,24.414,22.461,35.156,29.785,16.602,0
1542735070.233,22.461,22.949,33.691,18.555,15.625,0
1542735070.237,31.738,26.367,29.297,22.949,41.992,0
1542735070.241,55.664,30.762,27.832,43.945,43.945,0
1542735070.245,49.805,27.832,32.715,35.645,35.645,0
1542735070.249,45.410,29.297,34.668,10.254,47.852,0
1542735070.253,62.988,33.203,32.227,33.691,100.098,0
1542735070.257,37.109,30.762,31.250,47.852,37.109,0
1542735070.260,57.617,29.297,28.320,21.484,42.480,0
1542735070.264,73.730,30.273,34.668,1.953,21.484,0
1542735070.268,41.504,36.133,38.086,26.855,32.227,0
1542735070.272,54.688,37.109,29.297,34.180,39.551,0
1542735070.276,52.734,35.645,24.414,28.320,14.648,0
1542735070.280,49.805,32.715,34.180,47.852,15.137,0
1542735070.284,63.965,33.203,31.250,44.434,62.500,0
1542735070.288,64.941,34.668,20.508,33.203,63.965,0
1542735070.292,43.457,32.715,29.785,51.758,37.598,0
1542735070.296,60.547,35.156,36.133,50.293,37.109,0
1542735070.300,79.590,36.621,36.621,29.297,2.930,0
1542735070.303,34.668,37.598,35.645,29.785,21.973,0
1542735070.307,32.715,31.738,33.203,28.320,25.879,0
1542735070.311,65.918,30.273,25.391,37.109,27.344,0
1542735070.315,75.195,38.086,17.090,51.270,76.172,0
1542735070.319,60.547,39.062,25.391,44.434,24.414,0
1542735070.323,35.645,34.180,40.527,43.457,-38.574,0
1542735070.327,34.668,35.645,41.504,41.016,15.625,0
1542735070.331,43.457,36.621,36.133,35.156,20.508,0
1542735070.335,46.387,34.180,34.180,35.156,-11.719,0
1542735070.339,48.340,36.621,34.668,44.434,48.828,0
1542735070.342,60.547,41.992,37.598,45.898,80.078,0
1542735070.346,56.152,44.434,32.227,46.875,45.410,0
1542735070.350,49.805,40.039,27.832,42.969,67.871,0
1542735070.354,66.895,38.574,31.250,44.922,64.453,0
1542735070.358,56.641,40.527,26.367,54.688,29.297,0
1542735070.362,25.391,34.668,18.555,28.809,55.664,0
1542735070.366,26.367,29.297,23.438,26.855,15.625,0
1542735070.370,46.387,33.691,33.691,42.969,12.695,0
1542735070.374,28.320,34.180,42.480,32.715,39.551,0
1542735070.378,27.344,37.598,40.039,42.480,56.641,0
1542735070.382,47.363,39.551,35.645,59.570,91.309,0
1542735070.385,55.664,42.480,35.645,51.758,6.348,0
1542735070.389,43.457,43.457,33.203,26.855,-10.254,0
1542735070.393,33.203,39.062,35.645,18.555,65.430,0
1542735070.397,45.898,42.969,38.574,17.578,34.668,0
1542735070.401,52.246,46.875,30.762,18.066,34.668,0
1542735070.405,53.223,37.109,29.785,18.555,29.785,0
1542735070.409,56.641,34.668,38.574,37.598,65.430,0
1542735070.413,35.645,40.039,36.621,36.133,95.703,0
1542735070.417,31.250,40.527,38.086,27.832,11.230,0
1542735070.421,59.570,35.645,40.039,41.504,20.996,0
1542735070.425,68.359,36.133,35.645,44.922,59.570,0
1542735070.428,39.062,39.551,46.387,50.781,69.336,0
1542735070.432,34.180,35.156,52.246,41.016,92.773,0
1542735070.436,51.758,32.715,52.734,46.875,59.570,0
1542735070.440,65.918,38.086,55.176,39.551,97.168,0
1542735070.444,74.219,42.969,50.781,1.465,64.941,0
1542735070.448,63.477,43.945,47.363,39.551,30.273,0
1542735070.452,65.430,46.387,45.898,56.641,96.680,0
1542735070.456,46.387,42.480,42.969,41.016,60.547,0
1542735070.460,56.152,40.039,46.875,51.270,11.230,0
1542735070.464,62.500,47.852,51.758,69.824,19.043,0
1542735070.467,45.898,51.270,50.781,83.008,33.691,0
1542735070.471,52.734,47.363,50.781,78.613,32.227,0
1542735070.475,72.754,47.363,53.223,53.223,58.105,0
1542735070.479,115.723,51.270,41.992,34.668,128.418,0
1542735070.483,120.605,41.992,39.551,90.332,108.887,0
1542735070.487,97.656,36.621,51.270,104.492,58.105,0
1542735070.491,72.754,49.805,48.340,52.734,42.969,0
1542735070.495,61.035,54.688,39.062,76.172,-19.043,0
1542735070.499,104.492,51.270,27.832,106.445,-3.906,0
1542735070.503,131.348,51.270,21.973,88.867,67.383,0
1542735070.507,134.277,53.711,21.973,105.469,45.410,0
1542735070.510,141.602,51.270,18.555,134.277,2.930,0
1542735070.514,130.371,52.246,4.883,140.625,-18.555,0
1542735070.518,133.789,59.082,16.602,158.691,-1.953,0
1542735070.522,151.367,60.059,29.297,172.363,14.648,0
1542735070.526,143.555,55.664,26.367,154.297,9.277,0
1542735070.530,126.465,50.293,27.832,137.207,19.043,0
1542735070.534,145.996,48.340,33.691,139.648,3.906,0
1542735070.538,181.152,51.758,33.203,175.293,5.371,0
1542735070.542,186.523,54.688,32.227,177.246,47.363,0
1542735070.546,172.852,59.082,35.156,153.809,52.246,0
1542735070.550,155.762,59.082,36.621,129.883,102.051,0
1542735070.553,145.508,51.758,44.922,127.441,88.379,0
1542735070.557,136.230,54.199,42.480,133.789,34.668,0
1542735070.561,158.691,67.383,33.203,115.234,36.133,0
1542735070.565,158.691,68.848,35.156,103.516,7.812,0
1542735070.569,156.250,62.500,44.434,124.023,16.113,0
1542735070.573,153.320,59.570,47.363,114.746,-15.137,0
1542735070.577,116.211,54.688,48.828,109.863,22.949,0
1542735070.581,134.766,58.594,56.152,143.066,37.598,0
1542735070.585,157.715,63.477,52.734,163.574,-9.277,0
1542735070.589,159.668,69.824,44.922,145.508,16.113,0
1542735070.592,144.043,71.289,48.340,123.535,6.348,0
1542735070.596,150.391,68.359,52.246,151.367,-26.855,0
1542735070.600,158.691,72.754,48.340,191.406,20.020,0
1542735070.604,142.578,68.848,48.828,166.016,34.668,0
1542735070.608,131.348,63.965,50.781,152.832,-12.207,0
1542735070.612,113.770,68.848,43.457,153.320,19.043,0
1542735070.616,91.309,70.801,45.898,125.977,46.875,0
1542735070.620,46.387,65.430,56.641,114.746,4.395,0
1542735070.624,63.477,68.848,53.223,96.191,8.789,0
1542735070.628,120.605,73.730,41.504,70.801,11.230,0
1542735070.632,68.848,69.336,44.922,63.477,-21.484,0
1542735070.635,8.789,59.570,55.664,67.383,24.414,0
1542735070.639,13.184,64.941,54.199,68.359,43.457,0
1542735070.643,13.672,76.172,44.922,73.730,29.297,0
1542735070.647,-5.859,71.777,43.945,71.289,59.570,0
1542735070.651,0.488,62.500,50.293,81.543,103.027,0
1542735070.655,17.578,62.012,44.922,78.125,78.125,0
1542735070.659,-3.906,64.453,39.062,51.270,59.082,0
1542735070.663,-43.457,60.059,44.922,38.086,64.453,0
1542735070.667,-49.805,55.664,48.340,28.320,78.613,0
1542735070.671,-24.414,62.988,41.016,47.852,88.867,0
1542735070.675,-44.922,70.801,43.457,87.402,22.461,0
1542735070.678,-62.012,70.312,43.945,88.867,1.953,0
1542735070.682,-48.340,66.895,37.109,79.590,-8.301,0
1542735070.686,-24.902,65.918,42.969,79.590,17.090,0
1542735070.690,-26.367,67.383,47.363,56.152,40.527,0
1542735070.694,-59.082,64.941,46.387,54.199,38.086,0
1542735070.698,-72.754,64.941,45.410,56.641,37.598,0
1542735070.702,-41.504,69.824,42.969,45.898,58.594,0
1542735070.706,-38.574,66.406,36.133,41.504,83.984,0
1542735070.710,-57.617,57.129,37.598,22.949,30.762,0
1542735070.714,-30.762,52.246,47.852,4.883,7.324,0
1542735070.717,-12.207,57.129,50.293,-2.930,11.719,0
1542735070.721,-6.836,62.988,44.922,-11.719,29.297,0
1542735070.725,-13.184,63.965,39.062,-0.488,33.691,0
1542735070.729,-17.090,59.082,39.551,-1.465,25.879,0
1542735070.733,15.625,55.664,39.062,-10.254,25.879,0
1542735070.737,27.344,57.617,40.527,12.695,51.270,0
1542735070.741,60.547,58.594,47.852,33.203,57.617,0
1542735070.745,95.703,55.176,47.363,-0.488,44.922,0
1542735070.749,64.941,51.758,49.805,-26.855,25.391,0
1542735070.753,36.621,49.316,52.246,18.555,21.484,0
1542735070.757,54.199,51.270,51.758,37.109,50.293,0
1542735070.760,72.266,57.617,51.270,7.812,57.129,0
1542735070.764,74.707,55.176,48.828,12.207,44.434,0
1542735070.768,59.082,54.199,45.898,37.109,12.695,0
1542735070.772,59.570,57.617,47.363,42.480,13.672,0
1542735070.776,72.754,59.082,42.480,44.922,23.926,0
1542735070.780,68.359,51.758,38.086,13.672,35.156,0
1542735070.784,70.801,45.898,44.434,-1.465,62.988,0
1542735070.788,78.125,45.410,40.039,8.789,48.340,0
1542735070.792,66.406,43.457,37.109,21.484,22.461,0
1542735070.796,68.359,49.316,41.992,36.621,21.484,0
1542735070.800,71.289,51.270,40.527,28.320,25.391,0
1542735070.803,92.773,49.316,38.574,36.621,30.762,0
1542735070.807,98.633,47.852,33.691,35.645,63.965,0
1542735070.811,91.309,45.410,32.227,30.762,90.332,0
1542735070.815,101.074,45.410,37.109,48.828,47.363,0
1542735070.819,82.520,45.898,31.738,49.805,-30.762,0
1542735070.823,91.309,41.992,33.203,48.340,3.418,0
1542735070.827,87.891,39.062,32.715,89.844,30.273,0
1542735070.831,69.336,42.969,31.738,101.074,85.938,0
1542735070.835,90.820,39.062,34.668,61.035,102.539,0
1542735070.839,111.328,39.551,30.273,71.289,41.504,0
1542735070.842,105.957,42.480,28.809,59.570,8.301,0
1542735070.846,87.891,40.527,28.320,51.270,-13.672,0
1542735070.850,70.801,37.598,28.809,71.289,1.953,0
1542735070.854,107.422,35.645,36.133,83.008,59.082,0
1542735070.858,110.840,38.086,38.574,83.008,28.809,0
1542735070.862,87.891,39.551,32.227,69.336,-1.465,0
1542735070.866,121.582,42.969,28.320,75.684,67.871,0
1542735070.870,145.996,39.551,29.297,82.520,94.238,0
1542735070.874,127.441,37.598,30.762,87.891,45.898,0
1542735070.878,130.371,41.992,30.762,100.098,-26.367,0
1542735070.882,142.090,42.969,29.785,115.234,-2.930,0
1542735070.885,124.023,44.922,29.297,108.887,40.039,0
1542735070.889,104.492,42.480,31.738,69.336,52.246,0
1542735070.893,108.398,39.551,30.273,70.312,45.898,0
1542735070.897,119.141,48.828,25.879,97.168,64.941,0
1542735070.901,138.184,53.711,24.902,85.449,125.000,0
1542735070.905,129.395,47.852,24.902,80.078,79.102,0
1542735070.909,120.117,46.387,32.715,114.746,32.227,0
1542735070.913,145.020,51.758,37.109,101.562,42.969,0
1542735070.917,125.000,51.270,38.574,46.875,6.348,0
1542735070.921,97.656,48.828,43.457,41.992,-0.977,0
1542735070.925,107.910,54.199,39.062,60.059,52.734,0
1542735070.928,106.445,49.805,37.109,54.688,89.355,0
1542735070.932,106.445,45.410,40.527,46.875,37.109,0
1542735070.936,93.262,48.828,40.039,50.293,5.859,0
1542735070.940,88.379,41.016,35.156,90.332,36.133,0
1542735070.944,138.184,36.133,36.133,114.258,20.996,0
1542735070.948,97.656,46.387,40.527,75.684,6.348,0
1542735070.952,53.711,45.898,39.062,29.785,6.836,0
1542735070.956,80.566,46.387,35.645,32.227,31.250,0
1542735070.960,85.938,46.387,25.879,57.129,11.719,0
1542735070.964,90.820,45.410,16.602,56.641,-20.508,0
1542735070.967,104.980,50.293,11.230,54.199,25.879,0
1542735070.971,130.859,49.316,3.906,67.383,30.273,0
1542735070.975,154.297,42.969,8.789,72.754,-8.301,0
1542735070.979,180.664,44.922,11.230,76.172,-3.906,0
1542735070.983,201.660,49.805,7.324,79.590,-18.066,0
1542735070.987,195.801,48.340,11.230,73.730,23.926,0
1542735070.991,182.617,48.828,20.996,80.566,82.520,0
1542735070.995,189.941,43.457,22.949,65.918,57.617,0
1542735070.999,229.980,44.922,24.902,62.500,35.156,0
1542735071.003,245.605,56.152,25.879,82.520,2.930,0
1542735071.007,242.188,56.152,18.555,84.961,-43.457,0
1542735071.010,255.859,50.293,14.160,87.402,-5.371,0
1542735071.014,270.508,51.758,25.391,92.285,61.035,0
1542735071.018,276.367,55.664,38.086,104.004,91.797,0
1542735071.022,266.602,56.152,41.992,122.559,12.207,0
1542735071.026,280.273,52.246,43.457,125.000,-1.465,0
1542735071.030,310.059,53.711,41.016,116.699,25.391,0
1542735071.034,345.215,58.594,40.527,127.930,17.090,0
1542735071.038,364.746,56.641,43.457,140.625,9.277,0
1542735071.042,366.211,59.082,40.039,149.902,-1.953,0
1542735071.046,399.414,68.848,36.621,157.715,34.668,0
1542735071.050,409.668,71.777,38.086,166.992,62.500,0
1542735071.053,413.574,67.383,36.133,164.062,31.738,0
1542735071.057,429.688,66.895,35.156,168.457,27.344,0
1542735071.061,432.129,63.477,32.715,182.129,8.789,0
1542735071.065,424.805,61.035,32.715,187.500,69.336,0
1542735071.069,452.148,59.570,32.715,183.594,82.520,0
1542735071.073,482.422,59.082,27.344,173.340,31.250,0
1542735071.077,467.773,55.176,30.762,203.125,20.020,0
1542735071.081,439.453,53.223,31.738,221.680,11.719,0
1542735071.085,443.848,59.570,26.855,221.191,68.359,0
1542735071.089,453.125,59.082,30.273,239.258,29.297,0
1542735071.092,434.082,58.105,34.668,267.578,43.457,0
1542735071.096,400.391,53.711,32.227,282.227,70.312,0
1542735071.100,374.023,48.340,33.691,299.316,45.410,0
1542735071.104,409.180,50.293,39.062,314.453,83.496,0
1542735071.108,387.695,52.734,33.691,313.965,95.703,0
1542735071.112,306.152,46.387,30.762,331.543,69.336,0
1542735071.116,285.645,44.922,34.180,364.746,75.195,0
1542735071.120,257.324,47.852,34.180,386.719,74.707,0
1542735071.124,253.418,44.434,36.133,395.996,55.176,0
1542735071.128,227.539,36.133,39.551,378.906,76.660,0
1542735071.132,282.715,40.527,35.156,386.719,71.289,0
1542735071.135,703.125,52.734,30.273,689.941,41.504,0
1542735071.139,-992.676,77.637,20.508,991.211,45.898,0
1542735071.143,990.723,112.793,2.930,996.582,132.324,0
1542735071.147,994.629,102.539,7.812,993.164,248.535,0
1542735071.151,-999.023,75.195,20.020,-999.023,291.016,0
1542735071.155,999.512,63.965,21.973,999.512,328.125,0
1542735071.159,999.512,50.293,29.297,999.512,328.125,0
1542735071.163,999.512,43.945,34.180,999.512,319.336,0
1542735071.167,999.512,41.504,33.691,999.512,266.602,0
1542735071.171,999.512,32.227,41.992,999.512,245.605,0
1542735071.175,999.512,23.438,49.805,998.047,252.441,0
1542735071.178,995.605,24.414,45.410,997.559,245.117,0
1542735071.182,-995.117,34.668,41.016,997.070,237.793,0
1542735071.186,960.449,33.203,41.504,917.969,222.168,0
1542735071.190,851.074,24.414,38.574,789.551,193.359,0
1542735071.194,758.789,29.297,36.621,705.078,241.211,0
1542735071.198,668.457,30.762,39.551,670.410,268.555,0
1542735071.202,561.523,28.809,40.039,651.855,221.680,0
1542735071.206,444.824,28.809,37.598,583.496,180.176,0
1542735071.210,385.742,33.203,35.156,523.926,157.227,0
1542735071.214,322.266,35.645,40.039,471.680,193.359,0
1542735071.217,243.652,31.738,41.504,440.430,181.641,0
1542735071.221,168.457,34.668,38.574,424.805,157.715,0
1542735071.225,111.328,33.691,37.598,393.555,189.941,0
1542735071.229,92.285,29.785,41.016,367.676,195.801,0
1542735071.233,36.621,30.273,47.363,371.582,151.855,0
1542735071.237,18.555,29.785,42.969,344.238,118.164,0
1542735071.241,-9.277,36.133,38.086,301.758,115.234,0
1542735071.245,-75.195,36.621,41.504,305.176,142.090,0
1542735071.249,-97.168,29.297,41.992,285.645,167.480,0
1542735071.253,-134.766,31.250,40.039,250.000,128.418,0
1542735071.257,-159.180,38.574,35.645,235.352,123.535,0
1542735071.260,-174.316,33.691,36.621,211.426,141.113,0
1542735071.264,-259.766,30.273,40.039,147.949,151.367,0
1542735071.268,-388.184,30.273,37.598,68.848,151.367,0
1542735071.272,-442.871,30.762,41.504,40.039,125.000,0
1542735071.276,-438.477,38.086,48.828,39.551,127.930,0
1542735071.280,-455.078,35.645,47.852,27.832,189.941,0
1542735071.284,-480.957,35.156,44.922,8.301,170.898,0
1542735071.288,-458.496,33.691,42.480,7.324,97.656,0
1542735071.292,-455.566,34.668,39.062,7.324,140.137,0
1542735071.296,-457.520,38.086,34.180,-24.902,150.879,0
1542735071.300,-395.020,39.062,30.762,-31.738,79.102,0
1542735071.303,-400.879,41.016,35.645,-13.672,71.777,0
1542735071.307,-451.172,35.645,39.551,-26.855,78.613,0
1542735071.311,-476.562,30.762,39.062,-64.941,73.242,0
1542735071.315,-471.191,31.738,41.016,-65.918,89.844,0
1542735071.319,-424.316,35.156,43.457,-61.035,104.004,0
1542735071.323,-393.555,35.645,34.180,-52.734,105.957,0
1542735071.327,-366.211,37.109,27.344,-55.664,70.801,0
1542735071.331,-364.258,37.598,34.668,-80.566,46.875,0
1542735071.335,-381.836,38.086,37.109,-79.590,49.316,0
1542735071.339,-363.770,39.062,34.180,-85.449,-1.465,0
1542735071.342,-348.633,36.621,33.203,-123.047,41.016,0
1542735071.346,-337.402,34.180,36.133,-106.445,125.488,0
1542735071.350,-334.473,36.133,38.574,-71.289,121.582,0
1542735071.354,-324.707,41.016,37.109,-95.703,52.246,0
1542735071.358,-314.453,38.574,32.715,-112.793,4.395,0
1542735071.362,-304.688,35.156,32.715,-122.559,43.457,0
1542735071.366,-299.316,35.156,36.133,-96.680,45.898,0
1542735071.370,-271.484,42.969,37.598,-81.543,58.105,0
1542735071.374,-223.145,51.758,36.133,-84.473,56.641,0
1542735071.378,-166.992,46.875,34.668,-66.895,23.926,0
1542735071.382,-184.082,40.527,36.133,-111.816,73.242,0
1542735071.385,-219.727,43.457,33.203,-135.254,74.707,0
1542735071.389,-182.129,49.316,36.133,-117.676,32.227,0
1542735071.393,-182.617,48.828,39.551,-92.773,36.133,0
1542735071.397,-181.641,47.852,31.250,-66.406,35.645,0
1542735071.401,-185.547,48.340,28.809,-86.914,41.504,0
1542735071.405,-186.035,43.457,33.203,-109.375,26.367,0
1542735071.409,-180.664,41.992,34.180,-106.445,30.762,0
1542735071.413,-198.242,41.504,33.203,-105.469,46.387,0
1542735071.417,-209.961,42.480,32.227,-90.332,42.480,0
1542735071.421,-191.895,42.969,32.715,-80.078,20.508,0
1542735071.425,-218.750,38.574,38.086,-109.863,-3.906,0
1542735071.428,-258.789,42.480,36.133,-110.352,54.688,0
1542735071.432,-246.582,44.434,34.668,-98.145,70.312,0
1542735071.436,-278.320,39.062,35.645,-118.652,49.316,0
1542735071.440,-303.711,46.387,26.855,-136.230,75.684,0
1542735071.444,-294.434,48.340,27.832,-105.469,82.031,0
1542735071.448,-328.613,41.992,30.762,-102.539,66.406,0
1542735071.452,-312.500,40.527,27.832,-117.676,15.625,0
1542735071.456,-297.852,42.969,31.250,-124.023,16.113,0
1542735071.460,-347.168,43.457,30.273,-164.062,18.555,0
1542735071.464,-324.219,43.945,23.926,-194.824,15.137,0
1542735071.467,-311.523,45.410,26.855,-192.871,17.090,0
1542735071.471,-314.453,44.922,31.738,-216.797,-0.488,0
1542735071.475,-289.062,44.434,25.879,-245.117,3.418,0
1542735071.479,-281.250,36.621,26.367,-248.047,4.883,0
1542735071.483,-270.996,32.715,29.785,-236.328,1.465,0
1542735071.487,-239.746,38.574,26.855,-233.887,-8.301,0
1542735071.491,-241.211,38.086,28.809,-232.422,-65.918,0
1542735071.495,-249.512,35.156,35.156,-244.141,-123.535,0
1542735071.499,-196.777,37.598,30.273,-261.719,-91.797,0
1542735071.503,-156.738,35.156,29.297,-241.699,-19.531,0
1542735071.507,-162.109,31.738,40.039,-230.469,2.930,0
1542735071.510,-128.906,32.227,39.062,-248.047,2.441,0
1542735071.514,-96.680,36.621,29.297,-250.977,-2.441,0
1542735071.518,-78.125,33.203,34.668,-228.027,18.066,0
1542735071.522,-49.805,37.109,36.621,-225.586,53.223,0
1542735071.526,-17.090,44.434,27.832,-238.281,18.066,0
1542735071.530,-20.020,38.086,36.133,-225.098,4.395,0
1542735071.534,-26.367,43.457,39.551,-207.520,37.598,0
1542735071.538,-10.742,43.457,40.039,-179.688,21.484,0
1542735071.542,-11.719,43.945,38.574,-150.391,-2.930,0
1542735071.546,-25.391,48.340,32.227,-142.578,-7.324,0
1542735071.550,-32.715,39.551,37.598,-128.906,-70.801,0
1542735071.553,-12.695,37.598,41.992,-110.352,-43.457,0
1542735071.557,-24.902,41.504,37.598,-132.324,14.160,0
1542735071.561,-42.480,46.387,31.738,-155.762,-28.809,0
1542735071.565,-71.289,45.410,30.762,-158.691,-35.645,0
1542735071.569,-107.422,37.109,35.645,-150.879,-15.625,0
1542735071.573,-81.055,33.203,34.668,-171.875,-56.152,0
1542735071.577,-99.609,35.645,35.156,-189.453,-46.875,0
1542735071.581,-155.762,43.945,35.645,-186.523,-48.828,0
1542735071.585,-161.621,49.316,29.785,-181.152,-40.527,0
1542735071.589,-179.688,35.156,31.250,-215.332,-30.762,0
1542735071.592,-187.500,26.855,33.691,-255.859,-77.148,0
1542735071.596,-203.613,35.156,28.809,-251.953,-67.871,0
1542735071.600,-268.066,40.039,25.391,-271.484,-22.461,0
1542735071.604,-288.574,41.992,23.926,-319.824,-32.715,0
1542735071.608,-322.266,35.156,22.949,-364.258,-91.797,0
1542735071.612,-384.277,30.273,30.762,-401.855,-101.562,0
1542735071.616,-413.086,35.156,33.203,-396.484,-60.547,0
1542735071.620,-453.613,32.715,20.996,-432.617,-94.238,0
1542735071.624,-452.637,30.273,14.648,-443.359,-115.723,0
1542735071.628,-424.805,38.574,18.066,-415.527,-59.082,0
1542735071.632,-399.414,44.434,19.043,-409.180,-4.883,0
1542735071.635,-353.516,34.668,16.602,-362.305,-11.719,0
1542735071.639,-330.078,28.320,18.555,-335.938,-93.750,0
1542735071.643,-328.125,32.715,20.020,-339.844,-52.734,0
1542735071.647,-286.133,35.645,16.113,-319.336,-37.598,0
1542735071.651,-263.672,38.574,15.137,-319.336,-101.074,0
1542735071.655,-237.305,39.551,20.996,-300.781,-74.707,0
1542735071.659,-203.125,39.062,22.461,-284.180,-72.754,0
1542735071.663,-178.223,45.410,18.555,-260.254,-59.082,0
1542735071.667,-151.855,44.434,18.066,-240.234,-12.695,0
1542735071.671,-122.559,40.527,17.578,-247.559,-20.020,0
1542735071.675,-77.637,41.504,19.043,-205.078,-71.777,0
1542735071.678,-73.730,37.109,13.184,-192.383,-45.898,0
1542735071.682,-81.543,41.016,9.766,-211.914,16.113,0
1542735071.686,-30.762,48.828,14.160,-175.781,-22.461,0
1542735071.690,15.137,48.828,13.672,-151.367,-33.203,0
1542735071.694,-16.113,44.922,9.766,-184.082,-33.203,0
1542735071.698,-45.410,38.086,12.207,-177.734,-20.508,0
1542735071.702,-7.324,43.945,15.625,-157.715,-16.113,0
1542735071.706,29.297,48.340,15.137,-142.578,-27.832,0
1542735071.710,28.320,46.875,19.043,-148.926,-9.277,0
1542735071.714,11.719,46.875,18.066,-133.789,-30.273,0
1542735071.717,4.883,47.363,12.695,-123.047,-20.508,0
1542735071.721,25.879,50.293,15.137,-140.625,-22.461,0
1542735071.725,16.602,45.410,14.648,-115.723,-22.949,0
1542735071.729,17.090,45.410,12.695,-109.863,-46.387,0
1542735071.733,-8.301,55.176,15.625,-135.742,-47.363,0
1542735071.737,-7.812,55.176,21.973,-114.258,4.395,0
1542735071.741,27.344,56.152,27.832,-109.375,-5.859,0
1542735071.745,-12.207,52.734,17.090,-122.070,-10.254,0
1542735071.749,-35.645,49.805,7.324,-125.000,-32.715,0
1542735071.753,5.859,55.176,8.301,-108.887,-65.430,0
1542735071.757,24.414,58.105,12.207,-64.941,43.945,0
1542735071.760,20.020,60.059,14.160,-83.984,64.941,0
1542735071.764,-1.465,57.129,13.184,-81.543,-10.254,0
1542735071.768,-3.906,48.828,13.672,-62.500,0.488,0
1542735071.772,10.742,45.898,14.160,-87.891,-10.254,0
1542735071.776,35.156,50.781,17.578,-57.617,18.555,0
1542735071.780,42.969,53.223,21.484,-20.996,-2.441,0
1542735071.784,44.922,48.828,20.996,-41.504,-18.066,0
1542735071.788,20.020,54.688,16.602,-28.320,32.227,0
1542735071.792,0.000,57.617,18.555,8.301,-4.395,0
1542735071.796,27.344,51.758,26.855,-1.465,-30.762,0
1542735071.800,49.316,50.293,23.926,-6.836,57.617,0
1542735071.803,36.621,51.270,19.043,-0.488,54.688,0
1542735071.807,26.367,51.758,23.438,34.668,-3.906,0
1542735071.811,50.293,48.828,24.902,12.207,25.391,0
1542735071.815,52.246,47.852,22.461,3.418,25.391,0
1542735071.819,23.438,48.828,20.996,47.363,-8.301,0
1542735071.823,11.230,51.758,23.438,77.637,37.598,0
1542735071.827,20.508,56.641,28.809,90.820,38.086,0
1542735071.831,17.090,61.035,22.461,54.199,11.230,0
1542735071.835,11.719,51.270,25.879,32.227,29.297,0
1542735071.839,16.113,38.086,33.203,31.250,49.316,0
1542735071.842,17.090,42.969,26.855,44.434,38.086,0
1542735071.846,26.367,51.270,24.414,63.477,66.895,0
1542735071.850,13.672,47.852,22.461,78.613,36.621,0
1542735071.854,9.277,44.922,23.438,88.379,13.672,0
1542735071.858,13.672,43.945,25.879,65.430,85.938,0
1542735071.862,27.344,44.922,24.902,27.344,75.195,0
1542735071.866,28.320,39.551,26.367,33.691,30.273,0
1542735071.870,25.391,36.621,23.926,64.941,7.324,0
1542735071.874,58.594,42.969,19.531,56.641,33.203,0
1542735071.878,64.453,41.504,18.066,66.406,42.969,0
1542735071.882,63.965,33.203,16.602,111.816,-39.551,0
1542735071.885,93.750,33.691,22.949,117.676,14.160,0
1542735071.889,90.332,38.086,34.180,99.121,76.660,0
1542735071.893,95.703,34.668,33.203,110.352,82.520,0
1542735071.897,96.680,36.621,27.344,132.324,81.055,0
1542735071.901,92.285,39.062,31.250,125.000,65.430,0
1542735071.905,143.066,28.809,36.133,116.211,29.785,0
1542735071.909,154.297,21.973,38.086,128.906,57.617,0
1542735071.913,134.766,20.020,38.086,115.723,62.500,0
1542735071.917,159.180,24.902,26.855,86.426,-5.371,0
1542735071.921,177.734,30.762,22.461,99.609,68.848,0
1542735071.925,187.012,27.832,28.809,110.840,87.891,0
1542735071.928,178.711,31.250,24.902,97.168,65.430,0
1542735071.932,183.105,26.367,25.391,100.098,86.426,0
1542735071.936,202.637,21.973,27.344,81.543,77.637,0
1542735071.940,176.270,14.160,25.879,69.336,67.383,0
1542735071.944,157.715,8.789,30.273,69.336,32.715,0
1542735071.948,192.871,20.996,34.180,77.148,32.715,0
1542735071.952,165.527,18.555,35.156,111.816,45.410,0
1542735071.956,135.254,13.184,36.621,98.145,79.102,0
1542735071.960,124.023,15.137,32.227,60.547,66.895,0
1542735071.964,104.492,17.090,28.809,36.133,32.227,0
1542735071.967,131.348,10.254,34.668,16.602,10.742,0
1542735071.971,127.441,7.324,34.668,53.711,8.789,0
1542735071.975,119.629,20.996,28.809,59.082,38.574,0
1542735071.979,145.508,26.367,28.809,33.691,0.977,0
1542735071.983,95.703,17.090,35.645,2.441,-20.508,0
1542735071.987,24.414,9.766,36.621,-3.906,20.508,0
1542735071.991,50.293,19.531,35.645,9.766,-2.441,0
1542735071.995,81.055,27.832,35.156,-11.230,3.418,0
1542735071.999,70.312,25.879,36.621,-15.137,33.691,0
1542735072.003,92.285,29.785,28.320,-8.789,73.730,0
1542735072.007,127.441,34.668,25.391,0.488,77.637,0
1542735072.010,123.047,34.668,36.133,-12.695,28.320,0
1542735072.014,56.641,34.180,38.574,-24.414,1.953,0
1542735072.018,33.203,35.156,35.645,-22.461,25.391,0
1542735072.022,34.180,29.785,33.203,-68.359,70.801,0
1542735072.026,20.508,21.973,38.086,-75.195,23.438,0
1542735072.030,7.812,22.949,38.086,-52.246,8.789,0
1542735072.034,-3.418,29.785,31.738,-50.781,64.453,0
1542735072.038,-24.414,38.574,29.297,-57.617,65.430,0
1542735072.042,-41.016,35.645,34.180,-62.500,30.762,0
1542735072.046,-38.574,22.461,37.598,-35.156,-17.578,0
1542735072.050,-58.594,29.785,35.156,-57.129,-20.996,0
1542735072.053,-104.004,36.621,34.180,-100.586,33.691,0
1542735072.057,-118.164,35.156,29.785,-89.355,16.113,0
1542735072.061,-126.953,31.250,31.738,-83.496,-21.484,0
1542735072.065,-130.371,23.926,38.086,-81.543,2.441,0
1542735072.069,-134.277,23.926,37.109,-73.242,20.020,0
1542735072.073,-155.273,23.926,32.715,-77.148,36.133,0
1542735072.077,-171.875,20.020,32.715,-105.957,67.871,0
1542735072.081,-160.156,23.438,30.762,-141.602,3.418,0
1542735072.085,-163.086,27.344,24.902,-145.508,-29.297,0
1542735072.089,-172.852,24.902,31.250,-143.066,29.297,0
1542735072.092,-145.508,26.367,33.691,-123.047,42.969,0
1542735072.096,-151.367,30.762,29.297,-136.230,-11.230,0
1542735072.100,-173.828,34.180,34.668,-154.785,-10.742,0
1542735072.104,-179.199,37.109,36.621,-150.391,23.438,0
1542735072.108,-148.926,38.086,32.227,-145.020,30.273,0
1542735072.112,-138.672,32.715,37.109,-128.906,11.230,0
1542735072.116,-173.340,32.715,35.645,-122.559,21.973,0
1542735072.120,-163.086,36.621,27.344,-134.277,32.227,0
1542735072.124,-115.723,39.551,25.391,-132.812,22.461,0
1542735072.128,-115.723,37.109,27.344,-122.559,-10.254,0
1542735072.132,-153.809,28.320,28.809,-132.812,20.508,0
1542735072.135,-125.000,30.273,29.785,-142.578,28.320,0
1542735072.139,-75.195,33.203,30.273,-116.699,-21.973,0
1542735072.143,-76.172,29.297,33.691,-92.285,13.672,0
1542735072.147,-75.195,34.668,31.738,-92.285,40.527,0
1542735072.151,-59.570,40.527,29.297,-90.820,65.430,0
1542735072.155,-42.480,42.480,28.809,-82.520,69.824,0
1542735072.159,-43.457,43.945,23.438,-64.453,37.598,0
1542735072.163,-59.082,36.133,29.297,-67.383,24.414,0
1542735072.167,-43.457,35.645,32.227,-64.941,17.578,0
1542735072.171,-4.883,41.992,22.949,-42.480,-8.301,0
1542735072.175,27.832,37.598,27.344,-22.949,13.672,0
1542735072.178,37.109,38.574,31.738,-0.977,19.531,0
1542735072.182,47.852,41.016,29.297,-21.484,9.766,0
1542735072.186,50.293,38.574,30.273,-41.504,23.926,0
1542735072.190,53.223,33.691,26.855,-3.418,16.113,0
1542735072.194,34.180,34.668,28.809,7.324,-37.598,0
1542735072.198,35.156,40.039,32.227,6.348,-25.391,0
1542735072.202,88.379,41.504,24.902,46.875,-10.742,0
1542735072.206,120.605,44.434,28.809,32.715,0.000,0
1542735072.210,67.871,38.574,46.875,14.160,60.547,0
1542735072.214,66.895,36.621,52.246,21.484,54.199,0
1542735072.217,85.938,48.828,52.734,9.277,25.391,0
1542735072.221,22.949,47.363,60.547,30.762,69.336,0
1542735072.225,41.992,37.598,62.012,34.180,34.668,0
1542735072.229,57.617,33.203,62.500,26.367,2.441,0
1542735072.233,53.223,28.320,74.707,50.781,8.789,0
1542735072.237,42.480,20.508,74.219,48.340,-3.418,0
1542735072.241,16.113,16.113,62.988,9.766,28.809,0
1542735072.245,39.551,21.484,58.594,5.371,28.809,0
1542735072.249,13.672,14.160,61.523,4.883,33.691,0
1542735072.253,-34.180,0.488,57.617,-20.020,67.871,0
1542735072.257,7.324,5.859,43.457,12.207,16.602,0
1542735072.260,27.344,19.043,37.598,38.574,8.789,0
1542735072.264,4.883,23.926,35.645,48.828,32.715,0
1542735072.268,46.387,11.230,38.086,81.055,24.902,0
1542735072.272,66.406,-0.977,42.480,101.562,49.805,0
1542735072.276,29.297,1.465,40.527,114.746,49.316,0
1542735072.280,55.176,9.277,33.691,88.379,25.391,0
1542735072.284,67.383,10.254,32.227,83.496,18.555,0
1542735072.288,33.691,6.836,32.227,160.645,56.641,0
1542735072.292,43.457,7.324,32.227,164.062,50.293,0
1542735072.296,68.359,10.254,35.645,109.375,21.484,0
1542735072.300,77.637,12.207,35.156,125.977,66.895,0
1542735072.303,66.895,13.672,32.227,170.898,81.543,0
1542735072.307,94.238,17.090,26.855,169.434,29.785,0
1542735072.311,107.422,17.090,30.762,145.020,44.434,0
1542735072.315,98.145,17.090,33.691,162.598,81.055,0
1542735072.319,105.957,22.949,27.344,180.664,67.871,0
1542735072.323,115.723,27.344,26.855,176.270,102.539,0
1542735072.327,122.070,25.879,25.879,179.688,81.055,0
1542735072.331,114.258,26.367,20.996,176.270,58.105,0
1542735072.335,131.836,27.344,25.879,182.617,18.066,0
1542735072.339,179.199,24.902,37.598,183.594,-0.488,0
1542735072.342,171.387,23.926,40.527,198.730,76.660,0
1542735072.346,187.988,30.273,32.715,203.613,118.164,0
1542735072.350,210.449,39.062,26.367,182.129,46.875,0
1542735072.354,217.773,36.133,33.691,214.844,38.574,0
1542735072.358,251.953,23.438,40.039,226.562,56.641,0
1542735072.362,262.207,18.555,36.133,208.008,63.965,0
1542735072.366,278.809,23.926,35.156,201.660,79.590,0
1542735072.370,278.809,23.926,38.086,223.145,55.664,0
1542735072.374,292.969,21.973,33.203,251.465,66.406,0
1542735072.378,296.387,23.926,31.250,255.859,92.285,0
1542735072.382,317.383,28.320,29.785,257.324,98.145,0
1542735072.385,347.656,32.715,25.391,250.977,50.781,0
1542735072.389,316.895,29.785,31.738,246.094,54.688,0
1542735072.393,289.551,23.926,38.086,263.184,60.059,0
1542735072.397,281.738,28.320,34.668,231.445,22.949,0
1542735072.401,283.203,32.715,32.715,201.172,63.965,0
1542735072.405,279.297,27.832,31.738,215.332,97.168,0
1542735072.409,257.324,31.250,27.832,220.703,27.832,0
1542735072.413,275.879,40.039,28.809,219.238,13.672,0
1542735072.417,264.648,41.504,32.715,218.750,50.293,0
1542735072.421,248.535,36.133,40.039,202.637,54.688,0
1542735072.425,255.859,35.156,39.062,192.383,50.781,0
1542735072.428,220.703,33.691,35.156,204.590,103.027,0
1542735072.432,196.777,28.320,30.273,184.082,50.293,0
1542735072.436,200.684,26.855,25.879,146.973,8.301,0
1542735072.440,217.773,28.809,31.738,150.879,37.598,0
1542735072.444,217.773,22.949,33.691,159.668,68.359,0
1542735072.448,209.961,20.508,23.926,141.602,51.270,0
1542735072.452,229.980,19.043,18.555,141.602,60.059,0
1542735072.456,243.164,18.066,23.438,166.992,10.742,0
1542735072.460,195.312,34.180,27.344,160.156,5.371,0
1542735072.464,162.109,36.133,21.973,153.809,74.707,0
1542735072.467,191.406,26.855,16.602,157.227,13.672,0
1542735072.471,215.332,28.320,5.371,157.715,9.766,0
1542735072.475,204.102,26.367,-6.836,172.852,33.691,0
1542735072.479,183.105,29.297,-10.254,179.688,55.664,0
1542735072.483,197.266,34.180,-8.789,159.180,119.629,0
1542735072.487,217.285,35.156,-10.742,140.137,48.828,0
1542735072.491,199.219,34.180,-5.859,165.527,37.109,0
1542735072.495,172.363,29.297,-0.488,159.668,75.195,0
1542735072.499,174.316,36.621,-2.930,128.906,30.273,0
1542735072.503,162.598,42.480,3.906,129.883,64.941,0
1542735072.507,144.531,39.551,9.766,130.371,79.590,0
1542735072.510,141.602,42.969,5.371,121.094,36.133,0
1542735072.514,130.371,45.410,8.301,122.559,57.617,0
1542735072.518,106.934,40.039,12.695,131.348,78.125,0
1542735072.522,75.195,35.156,16.113,103.027,43.457,0
1542735072.526,46.875,37.109,19.531,83.984,71.777,0
1542735072.530,42.969,36.133,20.020,54.688,71.777,0
1542735072.534,10.254,32.715,16.602,14.160,13.184,0
1542735072.538,-8.789,31.250,16.602,32.227,10.254,0
1542735072.542,-7.812,32.715,18.555,52.246,8.789,0
1542735072.546,4.395,41.016,14.648,40.527,33.203,0
1542735072.550,29.297,45.410,10.742,26.367,42.480,0
1542735072.553,7.324,44.922,17.090,34.668,62.012,0
1542735072.557,-30.762,43.457,27.344,25.391,94.727,0
1542735072.561,-27.832,44.434,26.855,-16.113,61.523,0
1542735072.565,-18.066,43.945,25.879,-30.273,38.574,0
1542735072.569,-20.508,44.434,24.902,-7.812,18.555,0
1542735072.573,-6.836,43.945,22.949,-24.414,-6.836,0
1542735072.577,-26.367,45.898,19.043,-65.918,7.324,0
1542735072.581,-38.086,47.363,20.020,-65.918,-5.859,0
1542735072.585,-29.785,42.969,26.367,-36.133,-24.902,0
1542735072.589,-24.414,43.457,26.855,-19.531,47.852,0
1542735072.592,-22.461,44.922,24.902,-31.738,46.387,0
1542735072.596,-44.922,45.898,20.508,-78.613,-8.301,0
1542735072.600,-38.574,51.270,16.113,-66.406,-3.418,0
1542735072.604,-18.066,50.293,27.344,-21.973,29.297,0
1542735072.608,-34.668,49.316,33.691,-53.223,53.223,0
1542735072.612,-62.988,49.316,31.738,-76.660,62.012,0
1542735072.616,-68.848,49.316,30.273,-86.426,40.527,0
1542735072.620,-66.406,49.316,28.809,-91.309,34.180,0
1542735072.624,-52.734,51.758,26.855,-73.242,23.926,0
1542735072.628,-76.660,52.734,23.438,-94.727,41.992,0
1542735072.632,-95.703,49.805,29.785,-132.812,44.434,0
1542735072.635,-39.551,63.477,37.109,-120.605,12.695,0
1542735072.639,-37.109,68.848,36.621,-110.840,-9.766,0
1542735072.643,-63.477,62.500,36.133,-132.324,2.930,0
1542735072.647,-44.434,65.430,44.434,-143.555,46.387,0
1542735072.651,1.465,72.754,44.922,-112.793,-21.973,0
1542735072.655,10.742,74.707,39.062,-110.840,-27.344,0
1542735072.659,-15.625,68.359,40.039,-154.297,23.438,0
1542735072.663,-38.574,65.918,41.992,-137.207,42.480,0
1542735072.667,-41.992,61.523,43.945,-114.746,9.277,0
1542735072.671,-24.414,60.547,45.410,-113.281,-26.855,0
1542735072.675,15.137,64.941,47.363,-73.242,22.949,0
1542735072.678,36.133,63.477,47.852,-42.480,59.082,0
1542735072.682,25.391,64.453,43.457,-27.832,0.977,0
1542735072.686,-8.789,65.918,41.504,-35.645,22.949,0
1542735072.690,-14.648,63.965,40.527,-62.012,88.379,0
1542735072.694,20.996,62.988,41.992,-50.781,65.918,0
1542735072.698,15.625,63.965,44.922,-27.344,26.855,0
1542735072.702,-18.066,60.059,43.945,-23.926,-1.953,0
1542735072.706,-20.020,58.105,42.480,4.883,55.664,0
1542735072.710,0.000,56.152,39.062,-3.906,72.266,0
1542735072.714,-4.395,57.617,36.133,-43.945,50.293,0
1542735072.717,-30.273,62.988,40.039,-31.738,42.480,0
1542735072.721,-40.527,60.059,46.387,-28.809,-14.160,0
1542735072.725,-55.664,57.617,46.875,8.789,-8.301,0
1542735072.729,-59.570,61.523,42.480,-0.488,26.855,0
1542735072.733,-60.059,57.617,39.551,-69.336,6.348,0
1542735072.737,-57.617,49.805,41.016,-71.777,-5.859,0
1542735072.741,-66.406,57.617,39.062,-72.266,4.883,0
1542735072.745,-82.031,59.570,37.109,-84.473,33.691,0
1542735072.749,-85.938,59.082,31.250,-95.215,27.832,0
1542735072.753,-69.336,55.664,31.738,-68.848,31.738,0
1542735072.757,-35.645,48.828,33.203,-26.855,28.320,0
1542735072.760,-38.574,51.270,31.250,-56.152,54.688,0
1542735072.764,-60.547,50.293,35.156,-61.035,38.574,0
1542735072.768,-57.129,48.340,33.691,-28.809,7.812,0
1542735072.772,-25.879,51.270,31.738,-54.688,41.992,0
1542735072.776,-7.812,54.688,32.227,-59.082,76.660,0
1542735072.780,17.578,44.434,38.086,-44.922,67.383,0
1542735072.784,12.207,38.086,42.969,-28.809,25.879,0
1542735072.788,-6.348,46.875,37.109,5.371,47.852,0
1542735072.792,-9.766,41.992,34.668,-0.488,79.590,0
1542735072.796,-22.461,37.598,35.156,-7.812,7.812,0
1542735072.800,1.953,43.945,30.273,-14.160,-8.301,0
1542735072.803,-11.230,42.480,30.273,9.277,54.199,0
1542735072.807,-21.484,37.598,39.062,9.766,41.504,0
1542735072.811,35.645,35.156,36.621,-3.418,2.930,0
1542735072.815,25.391,37.109,30.762,-1.465,30.762,0
1542735072.819,0.000,35.645,32.715,-1.465,68.848,0
1542735072.823,33.203,32.715,32.227,7.324,20.508,0
1542735072.827,45.410,34.180,29.785,5.371,13.672,0
1542735072.831,2.441,37.109,28.320,-9.277,-1.465,0
1542735072.835,-15.137,40.039,30.762,-14.160,28.320,0
1542735072.839,3.418,38.086,33.691,-13.672,72.266,0
1542735072.842,-10.742,35.156,27.832,-13.184,49.316,0
1542735072.846,-31.250,36.133,29.785,-26.367,26.855,0
1542735072.850,-25.879,35.156,31.250,-51.758,31.738,0
1542735072.854,-17.578,33.691,28.809,-49.316,78.613,0
1542735072.858,-12.207,41.016,25.879,-36.621,77.148,0
1542735072.862,-36.133,40.527,22.461,-58.594,3.418,0
1542735072.866,-51.270,38.086,23.438,-63.477,-9.277,0
1542735072.870,-62.500,33.691,27.344,-51.758,-10.742,0
1542735072.874,-78.613,32.227,30.762,-68.359,1.465,0
1542735072.878,-78.613,41.992,31.250,-74.219,1.953,0
1542735072.882,-98.145,39.551,32.227,-93.262,13.184,0
1542735072.885,-118.652,31.250,35.156,-99.121,51.758,0
1542735072.889,-101.562,35.156,33.691,-91.797,56.152,0
1542735072.893,-109.863,41.504,24.902,-74.219,93.262,0
1542735072.897,-142.090,37.598,27.832,-71.777,107.422,0
1542735072.901,-112.793,33.691,32.227,-78.613,81.543,0
1542735072.905,-82.031,35.645,29.785,-70.312,48.340,0
1542735072.909,-113.281,34.668,27.832,-54.199,23.438,0
1542735072.913,-132.324,29.785,21.973,-44.434,29.785,0
1542735072.917,-105.469,31.738,25.391,-62.500,26.855,0
1542735072.921,-97.168,32.227,33.691,-41.504,27.344,0
1542735072.925,-118.652,24.902,38.086,-25.391,44.922,0
1542735072.928,-122.070,28.809,33.203,-42.969,17.090,0
1542735072.932,-104.004,30.762,27.832,-70.801,4.883,0
1542735072.936,-92.773,32.715,28.320,-95.703,14.160,0
1542735072.940,-75.684,38.574,34.668,-61.523,65.918,0
1542735072.944,-57.129,36.621,30.762,-60.547,46.875,0
1542735072.948,-41.504,34.668,26.855,-43.457,-17.578,0
1542735072.952,-42.969,37.109,26.855,-35.645,29.785,0
1542735072.956,-95.703,34.668,25.391,-80.566,58.105,0
1542735072.960,-115.723,29.785,26.367,-83.984,27.832,0
1542735072.964,-83.984,27.832,25.391,-59.082,27.344,0
1542735072.967,-62.500,29.297,28.320,-45.410,65.430,0
1542735072.971,-61.523,24.902,32.227,-57.129,110.352,0
1542735072.975,-66.895,22.461,28.809,-53.223,75.195,0
1542735072.979,-92.773,29.785,20.020,-72.266,54.199,0
1542735072.983,-78.613,28.809,25.391,-85.938,19.531,0
1542735072.987,-93.750,27.832,29.785,-100.098,0.488,0
1542735072.991,-163.574,32.715,27.832,-108.398,37.598,0
1542735072.995,-190.918,30.273,26.855,-115.723,60.059,0
1542735072.999,-224.609,24.902,28.809,-126.465,58.594,0
1542735073.003,-290.527,21.973,35.156,-143.555,31.738,0
1542735073.007,-370.117,24.414,33.203,-197.266,13.184,0
1542735073.010,-422.852,28.320,29.785,-245.605,2.930,0
1542735073.014,-441.895,26.367,29.785,-264.160,7.324,0
1542735073.018,-444.824,28.320,25.391,-282.227,4.395,0
1542735073.022,-429.688,28.320,26.367,-272.949,-22.461,0
1542735073.026,-391.113,32.227,30.273,-235.352,10.254,0
1542735073.030,-374.023,36.133,26.367,-222.656,22.461,0
1542735073.034,-365.723,35.156,23.926,-223.633,0.977,0
1542735073.038,-334.473,37.598,25.879,-206.055,27.832,0
1542735073.042,-338.379,33.203,29.297,-188.965,-7.812,0
1542735073.046,-318.848,29.297,30.762,-196.289,-23.926,0
1542735073.050,-299.805,30.273,24.414,-200.195,0.977,0
1542735073.053,-275.879,37.109,21.484,-192.383,-18.066,0
1542735073.057,-240.723,42.969,26.367,-183.105,39.062,0
1542735073.061,-208.496,40.527,28.320,-157.715,56.641,0
1542735073.065,-187.012,33.691,35.156,-124.023,51.270,0
1542735073.069,-150.879,36.133,34.180,-74.707,26.367,0
1542735073.073,-112.793,39.062,32.715,-76.172,13.184,0
1542735073.077,-108.398,37.109,33.203,-65.918,31.250,0
1542735073.081,-97.168,40.039,24.414,-43.945,10.742,0
1542735073.085,-46.875,36.133,25.391,-41.992,11.230,0
1542735073.089,-22.461,32.715,29.297,-30.273,20.020,0
1542735073.092,-8.789,33.691,22.461,4.883,-0.488,0
1542735073.096,28.809,35.645,25.391,34.180,5.371,0
1542735073.100,32.227,37.598,28.320,32.227,-11.719,0
1542735073.104,21.973,35.156,27.832,56.152,53.711,0
1542735073.108,42.480,34.668,26.855,52.734,53.223,0
1542735073.112,42.969,40.039,23.926,9.277,-37.598,0
1542735073.116,28.809,47.363,20.508,24.902,17.090,0
1542735073.120,73.730,44.434,16.602,43.457,61.523,0
1542735073.124,94.238,36.621,19.531,32.227,105.957,0
1542735073.128,72.266,36.133,19.043,27.344,97.168,0
1542735073.132,80.566,41.504,19.531,42.969,10.254,0
1542735073.135,94.727,45.410,16.113,58.594,14.160,0
1542735073.139,110.352,41.504,12.695,64.453,64.453,0
1542735073.143,113.770,33.203,18.066,88.867,32.715,0
1542735073.147,103.027,32.227,24.414,87.402,-12.207,0
1542735073.151,82.520,34.668,27.344,74.707,34.668,0
1542735073.155,70.801,30.762,23.438,71.289,36.133,0
1542735073.159,94.727,30.762,21.484,77.637,43.945,0
1542735073.163,118.652,36.133,22.461,88.867,100.098,0
1542735073.167,98.145,39.062,23.926,95.215,45.410,0
1542735073.171,84.961,43.945,22.949,106.445,15.137,0
1542735073.175,121.094,44.434,23.926,121.094,71.289,0
1542735073.178,124.023,35.156,30.273,102.051,57.129,0
1542735073.182,111.328,33.203,31.738,69.336,13.672,0
1542735073.186,113.281,41.504,29.785,70.312,2.930,0
1542735073.190,90.332,38.574,28.809,64.941,8.301,0
1542735073.194,93.262,40.039,23.438,72.266,7.324,0
1542735073.198,113.281,39.551,28.320,80.566,46.387,0
1542735073.202,95.215,29.785,34.180,62.988,87.402,0
1542735073.206,99.609,36.133,29.297,71.289,8.301,0
1542735073.210,110.352,37.598,26.367,80.078,-13.184,0
1542735073.214,108.398,33.691,29.785,61.523,54.199,0
1542735073.217,117.188,31.250,33.203,70.801,18.555,0
1542735073.221,121.582,34.668,29.785,52.246,-11.230,0
1542735073.225,73.730,38.086,26.855,4.883,19.531,0
1542735073.229,53.711,35.645,27.344,1.465,-3.418,0
1542735073.233,92.285,41.992,25.391,34.180,-42.480,0
1542735073.237,101.074,41.016,26.367,50.781,-27.832,0
1542735073.241,71.777,34.180,33.691,28.320,-5.859,0
1542735073.245,39.551,32.227,31.738,0.488,64.453,0
1542735073.249,20.508,31.250,27.344,-28.809,74.707,0
1542735073.253,36.133,41.504,25.391,-25.879,61.035,0
1542735073.257,40.527,45.898,20.508,-14.648,69.336,0
1542735073.260,17.090,38.086,20.508,-14.648,16.602,0
1542735073.264,22.949,32.715,26.855,9.766,38.086,0
1542735073.268,2.930,37.598,28.320,31.250,80.078,0
1542735073.272,-16.113,41.504,27.344,12.695,52.246,0
1542735073.276,-20.020,42.969,27.344,-1.953,45.410,0
1542735073.280,-41.504,43.457,26.855,20.508,9.766,0
1542735073.284,-18.555,43.457,27.832,22.461,-17.578,0
1542735073.288,-35.156,42.480,28.320,12.695,31.738,0
1542735073.292,-36.621,44.922,28.320,1.465,12.695,0
1542735073.296,3.418,47.363,33.203,43.457,25.879,0
1542735073.300,-2.441,44.434,37.598,61.035,88.867,0
1542735073.303,-35.156,40.527,34.180,33.203,58.105,0
1542735073.307,-58.594,37.598,30.273,53.711,1.465,0
1542735073.311,-46.387,37.598,32.227,34.668,20.020,0
1542735073.315,-34.668,38.086,29.297,4.883,33.691,0
1542735073.319,-7.812,40.039,25.391,10.254,49.316,0
1542735073.323,-1.465,40.039,27.832,16.113,36.133,0
1542735073.327,-25.879,41.504,29.297,20.020,21.973,0
1542735073.331,-47.852,41.016,30.273,31.250,62.500,0
1542735073.335,-78.125,38.574,28.809,22.949,51.758,0
1542735073.339,-63.965,42.480,25.879,7.324,24.902,0
1542735073.342,-79.590,45.898,30.762,-3.418,32.227,0
1542735073.346,-82.520,41.992,36.621,-0.488,41.504,0
1542735073.350,-64.453,41.992,28.809,2.441,69.336,0
1542735073.354,-79.590,43.457,25.391,-34.668,68.359,0
1542735073.358,-84.473,46.875,26.855,-57.129,40.039,0
1542735073.362,-98.633,41.504,31.250,-41.504,65.918,0
1542735073.366,-96.680,41.992,31.738,-20.020,20.508,0
1542735073.370,-110.352,46.387,23.926,-24.902,-59.082,0
1542735073.374,-136.230,40.039,25.879,-65.430,9.766,0
1542735073.378,-133.789,38.574,31.738,-102.051,68.359,0
1542735073.382,-147.949,39.062,32.227,-117.676,56.152,0
1542735073.385,-156.250,40.527,31.738,-147.949,52.734,0
1542735073.389,-166.504,39.551,28.809,-138.184,74.219,0
1542735073.393,-208.008,37.598,29.297,-135.254,72.266,0
1542735073.397,-241.699,37.598,31.738,-174.316,140.137,0
1542735073.401,-236.328,39.062,26.855,-195.801,99.121,0
1542735073.405,-256.348,37.598,28.320,-224.121,-34.180,0
1542735073.409,-306.152,33.203,33.203,-262.695,-9.766,0
1542735073.413,-342.773,30.273,36.133,-289.551,14.160,0
1542735073.417,-309.570,34.180,34.668,-295.898,19.043,0
1542735073.421,-315.430,31.738,33.691,-301.270,61.035,0
1542735073.425,-353.516,27.832,35.156,-261.230,40.527,0
1542735073.428,-351.562,30.762,32.715,-240.723,0.000,0
1542735073.432,-367.188,30.762,31.250,-280.273,-11.719,0
1542735073.436,-370.605,29.297,29.297,-324.219,22.949,0
1542735073.440,-392.578,28.320,27.832,-338.379,28.320,0
1542735073.444,-393.066,31.250,27.832,-307.617,-53.711,0
1542735073.448,-372.070,31.738,29.297,-331.055,-17.578,0
1542735073.452,-377.930,29.297,30.273,-364.258,44.922,0
1542735073.456,-380.371,27.344,31.250,-340.820,-17.090,0
1542735073.460,-365.723,29.297,26.855,-361.816,-35.645,0
1542735073.464,-351.074,32.715,24.414,-358.887,21.973,0
1542735073.467,-337.402,31.250,25.879,-346.680,17.090,0
1542735073.471,-320.312,25.879,26.367,-354.492,25.391,0
1542735073.475,-305.176,24.414,33.203,-338.379,3.906,0
1542735073.479,-279.297,28.809,31.738,-322.266,-11.230,0
1542735073.483,-270.996,29.785,28.320,-308.594,16.602,0
1542735073.487,-289.062,29.297,29.785,-316.895,19.531,0
1542735073.491,-270.996,27.344,28.809,-312.500,-17.090,0
1542735073.495,-248.047,24.414,27.344,-277.832,-9.277,0
1542735073.499,-242.676,25.879,25.391,-290.527,92.285,0
1542735073.503,-215.332,28.809,24.414,-288.574,71.777,0
1542735073.507,-170.898,32.715,25.879,-227.051,-10.742,0
1542735073.510,-147.949,35.645,26.367,-185.547,29.297,0
1542735073.514,-152.344,32.227,24.902,-175.293,41.992,0
1542735073.518,-145.996,28.809,23.438,-113.281,43.945,0
1542735073.522,-112.305,29.785,21.973,-82.031,61.035,0
1542735073.526,-45.898,30.273,23.438,-71.289,7.324,0
1542735073.530,-33.691,25.879,29.785,-12.695,-8.789,0
1542735073.534,-14.160,31.250,30.762,19.043,-11.230,0
1542735073.538,13.672,41.016,23.926,18.555,39.062,0
1542735073.542,47.852,36.133,17.090,32.227,29.297,0
1542735073.546,84.961,33.203,16.602,55.664,1.953,0
1542735073.550,30.273,35.156,17.578,42.969,52.734,0
1542735073.553,34.668,39.551,16.113,61.523,54.688,0
1542735073.557,81.543,38.086,17.578,98.633,102.051,0
1542735073.561,106.445,33.691,22.949,83.496,114.746,0
1542735073.565,134.277,33.691,21.973,107.910,56.641,0
1542735073.569,173.828,35.645,20.020,143.555,22.949,0
1542735073.573,235.840,36.621,18.555,162.109,10.742,0
1542735073.577,212.402,31.738,20.020,156.738,83.008,0
1542735073.581,209.473,35.156,21.973,145.508,102.539,0
1542735073.585,269.043,44.922,19.043,150.879,2.441,0
1542735073.589,275.391,42.480,19.531,177.246,12.207,0
1542735073.592,245.117,34.668,20.508,196.777,59.570,0
1542735073.596,245.605,38.574,19.043,194.336,60.059,0
1542735073.600,290.527,41.992,18.555,204.102,79.590,0
1542735073.604,285.156,38.086,23.926,201.660,49.805,0
1542735073.608,273.926,37.109,24.902,215.820,36.133,0
1542735073.612,298.340,34.668,27.344,228.516,37.109,0
1542735073.616,302.246,37.598,30.762,205.566,59.570,0
1542735073.620,311.523,38.086,27.832,197.754,43.945,0
1542735073.624,314.453,35.645,23.926,217.773,4.883,0
1542735073.628,309.082,36.621,28.320,211.914,31.738,0
1542735073.632,284.180,32.227,38.574,186.523,52.246,0
1542735073.635,217.285,33.691,38.086,200.195,32.715,0
1542735073.639,205.078,34.668,32.227,195.801,35.645,0
1542735073.643,208.496,35.156,32.227,133.301,48.828,0
1542735073.647,155.762,35.156,33.203,103.027,0.488,0
1542735073.651,142.578,34.668,35.645,114.746,7.812,0
1542735073.655,137.207,35.645,39.062,69.336,43.457,0
1542735073.659,115.234,34.180,35.156,31.250,22.949,0
1542735073.663,96.680,31.738,29.785,62.012,32.227,0
1542735073.667,73.242,32.715,31.738,24.902,68.359,0
1542735073.671,80.078,31.738,32.715,-3.418,95.703,0
1542735073.675,38.574,24.414,32.715,13.672,-3.906,0
1542735073.678,-13.672,20.996,29.297,-4.395,-53.223,0
1542735073.682,-20.508,15.625,21.973,-9.766,9.277,0
1542735073.686,-36.133,15.625,21.973,-37.598,32.715,0
1542735073.690,-68.848,24.414,21.484,-53.711,72.754,0
1542735073.694,-97.168,26.855,21.484,-61.035,18.066,0
1542735073.698,-123.535,19.043,21.973,-56.152,-30.762,0
1542735073.702,-141.602,19.531,22.949,-57.617,56.641,0
1542735073.706,-158.691,22.461,27.832,-46.875,47.363,0
1542735073.710,-181.152,15.625,29.785,-56.152,2.930,0
1542735073.714,-176.270,21.973,26.855,-114.258,49.316,0
1542735073.717,-144.531,28.320,23.438,-104.004,56.152,0
1542735073.721,-135.742,30.273,21.973,-93.262,84.961,0
1542735073.725,-108.887,38.086,30.762,-74.219,75.684,0
1542735073.729,-80.566,42.480,51.758,-45.410,50.293,0
1542735073.733,-89.844,49.805,46.387,-58.594,59.082,0
1542735073.737,-74.219,57.129,52.734,-60.059,91.797,0
1542735073.741,-46.875,51.270,63.965,-24.414,82.031,0
1542735073.745,-73.242,54.688,48.828,-76.660,39.062,0
1542735073.749,-97.168,66.895,62.500,-100.586,80.078,0
1542735073.753,-80.566,92.773,92.773,-78.613,76.660,0
1542735073.757,-107.910,124.023,119.141,-113.770,16.602,0
1542735073.760,-137.695,143.555,128.906,-157.227,24.902,0
1542735073.764,-157.227,163.574,138.184,-221.191,91.797,0
1542735073.768,-178.223,186.035,168.457,-251.953,111.816,0
1542735073.772,-195.801,201.660,202.148,-258.301,14.648,0
1542735073.776,-239.746,215.820,228.027,-276.855,30.762,0
1542735073.780,-300.293,219.727,244.141,-335.938,59.570,0
1542735073.784,-332.520,215.820,263.672,-398.438,5.859,0
1542735073.788,-332.520,212.402,273.926,-368.652,-54.199,0
1542735073.792,-312.988,219.727,268.555,-345.215,-121.094,0
1542735073.796,-277.832,220.215,261.230,-354.492,-55.664,0
1542735073.800,-270.996,208.496,252.930,-326.172,6.836,0
1542735073.803,-251.465,204.102,235.840,-250.977,59.082,0
1542735073.807,-221.680,202.637,212.891,-232.422,39.062,0
1542735073.811,-185.059,190.430,190.430,-228.027,64.941,0
1542735073.815,-154.785,167.480,167.480,-167.480,58.594,0
1542735073.819,-122.559,147.949,154.297,-127.930,12.207,0
1542735073.823,-115.723,138.184,132.324,-86.426,29.785,0
1542735073.827,-82.031,125.488,112.305,-44.434,67.871,0
1542735073.831,-37.109,111.328,93.750,-60.547,71.777,0
1542735073.835,-37.109,95.215,63.965,-57.617,-3.418,0
1542735073.839,-6.836,80.078,54.199,-10.254,27.832,0
1542735073.842,41.016,67.383,48.340,22.461,24.902,0
1542735073.846,41.504,48.828,33.203,55.664,-35.156,0
1542735073.850,50.293,37.109,20.996,47.852,25.879,0
1542735073.854,80.566,31.250,11.230,28.320,42.480,0
1542735073.858,90.332,23.926,3.906,61.035,61.035,0
1542735073.862,109.863,15.137,-3.906,93.262,37.109,0
1542735073.866,130.859,15.137,-16.602,92.285,-2.930,0
1542735073.870,134.277,13.184,-25.879,96.191,22.461,0
1542735073.874,146.484,5.371,-29.785,93.750,54.688,0
1542735073.878,153.809,-2.441,-34.668,98.145,88.379,0
1542735073.882,140.137,-8.789,-38.574,122.559,59.570,0
1542735073.885,117.188,-9.277,-37.598,107.422,-3.418,0
1542735073.889,109.863,-11.230,-40.039,83.496,-12.207,0
1542735073.893,112.305,-14.160,-42.969,70.312,25.879,0
1542735073.897,107.910,-14.648,-45.410,112.793,56.641,0
1542735073.901,125.488,-12.207,-47.363,128.906,32.715,0
1542735073.905,100.098,-13.672,-52.734,108.398,50.781,0
1542735073.909,73.242,-10.742,-57.129,94.727,31.738,0
1542735073.913,112.305,-1.953,-57.129,62.988,-1.465,0
1542735073.917,133.301,-5.371,-58.105,88.379,53.711,0
1542735073.921,100.586,-9.277,-57.617,114.258,15.625,0
1542735073.925,41.504,-11.230,-57.617,87.891,-5.859,0
1542735073.928,40.527,-13.672,-58.105,63.965,16.113,0
1542735073.932,54.688,-13.672,-55.664,83.984,73.730,0
1542735073.936,38.574,-15.137,-59.082,85.938,41.016,0
1542735073.940,50.781,-11.719,-62.988,69.824,11.719,0
1542735073.944,63.965,-6.836,-61.523,77.148,51.758,0
1542735073.948,69.336,-4.395,-59.082,66.406,55.664,0
1542735073.952,55.664,-5.371,-56.152,51.758,37.598,0
1542735073.956,28.809,-7.324,-56.152,46.875,-4.395,0
1542735073.960,29.785,-8.789,-54.199,35.645,45.410,0
1542735073.964,37.598,-11.719,-54.688,39.062,39.062,0
1542735073.967,40.039,-14.648,-50.781,40.039,-11.719,0
1542735073.971,44.922,-10.742,-43.945,31.738,27.832,0
1542735073.975,62.988,-7.324,-41.992,20.020,36.621,0
1542735073.979,62.012,-13.184,-41.992,4.883,37.109,0
1542735073.983,24.414,-16.602,-42.969,0.488,3.418,0
1542735073.987,43.945,-19.043,-34.668,6.348,-5.371,0
1542735073.991,68.848,-17.090,-23.438,69.336,64.453,0
1542735073.995,39.062,-14.648,-20.996,65.430,26.367,0
1542735073.999,32.227,-11.230,-19.043,36.133,-38.574,0
1542735074.003,40.039,-8.789,-18.555,63.965,22.461,0
1542735074.007,21.973,-13.184,-24.414,54.199,45.898,0
1542735074.010,27.832,-20.020,-24.902,56.152,26.367,0
1542735074.014,55.664,-20.020,-15.137,69.336,20.508,0
1542735074.018,51.270,-12.695,-10.254,61.035,11.719,0
1542735074.022,54.688,-7.324,-13.184,67.871,37.109,0
1542735074.026,77.148,-7.324,-13.184,87.402,24.414,0
1542735074.030,61.035,-4.395,-11.230,52.734,9.277,0
1542735074.034,73.730,0.488,-9.277,51.758,33.691,0
1542735074.038,99.121,-1.465,-7.812,99.121,50.781,0
1542735074.042,72.754,-4.395,-6.836,74.707,73.242,0
1542735074.046,74.219,-0.488,-6.836,57.617,91.797,0
1542735074.050,104.980,-0.488,-2.930,49.805,22.949,0
1542735074.053,97.656,-3.418,5.859,32.227,4.395,0
1542735074.057,75.195,-3.418,13.184,62.988,37.109,0
1542735074.061,101.562,3.906,11.230,84.473,28.809,0
1542735074.065,106.445,6.348,8.789,69.336,25.879,0
1542735074.069,80.078,4.883,12.695,60.059,79.590,0
1542735074.073,111.816,4.883,16.602,75.195,89.355,0
1542735074.077,123.535,0.977,17.578,95.703,79.102,0
1542735074.081,110.352,0.000,14.160,80.566,38.086,0
1542735074.085,99.609,-0.488,10.254,62.012,-26.855,0
1542735074.089,106.934,4.395,8.789,57.617,-46.875,0
1542735074.092,117.676,7.324,10.742,87.402,19.043,0
1542735074.096,141.602,7.812,7.324,101.562,120.605,0
1542735074.100,163.574,14.160,3.906,82.520,57.617,0
1542735074.104,111.816,16.602,7.812,85.449,71.777,0
1542735074.108,99.609,11.719,9.766,82.520,35.156,0
1542735074.112,116.211,5.371,15.137,62.012,-6.348,0
1542735074.116,112.793,4.883,14.160,67.383,61.523,0
1542735074.120,121.582,8.301,9.277,90.332,45.410,0
1542735074.124,122.070,7.812,17.578,95.215,19.531,0
1542735074.128,112.305,6.836,22.949,93.262,66.895,0
1542735074.132,92.285,6.836,23.438,101.074,91.797,0
1542735074.135,103.027,9.277,21.484,78.613,45.410,0
1542735074.139,117.188,12.207,18.555,53.711,41.992,0
1542735074.143,110.840,11.719,19.531,76.172,27.832,0
1542735074.147,103.516,12.695,27.344,90.332,1.953,0
1542735074.151,108.887,12.207,30.762,82.031,39.551,0
1542735074.155,113.770,8.301,29.785,97.168,44.434,0
1542735074.159,75.684,7.324,31.250,79.590,23.926,0
1542735074.163,80.078,11.230,29.297,49.316,79.102,0
1542735074.167,92.285,17.578,25.391,41.016,80.078,0
1542735074.171,111.328,19.531,17.090,37.109,64.453,0
1542735074.175,99.609,17.090,13.184,57.617,75.684,0
1542735074.178,74.707,8.789,18.066,69.824,38.086,0
1542735074.182,91.309,13.672,15.625,28.320,27.832,0
1542735074.186,76.172,19.531,13.672,22.949,65.430,0
1542735074.190,52.734,14.160,14.648,75.195,86.426,0
1542735074.194,52.246,16.113,8.789,43.457,3.418,0
1542735074.198,69.824,20.020,7.812,13.672,-7.812,0
1542735074.202,87.402,17.578,9.277,81.055,34.180,0
1542735074.206,74.707,20.996,13.672,76.660,73.730,0
1542735074.210,46.387,19.531,20.508,39.551,101.562,0
1542735074.214,33.203,19.043,21.484,45.898,95.703,0
1542735074.217,58.594,19.531,25.879,38.086,66.406,0
1542735074.221,58.594,19.043,28.320,55.176,94.238,0
1542735074.225,24.414,15.625,30.273,80.566,105.469,0
1542735074.229,53.223,11.230,27.344,74.219,47.852,0
1542735074.233,84.961,9.766,23.438,46.387,-0.488,0
1542735074.237,45.898,8.789,26.855,59.082,-30.762,0
1542735074.241,46.875,13.184,22.949,50.293,-31.250,0
1542735074.245,75.684,18.555,20.508,34.180,-26.855,0
1542735074.249,43.945,19.531,29.785,55.664,-2.930,0
1542735074.253,41.504,20.020,33.203,45.410,28.320,0
1542735074.257,55.176,20.508,30.273,39.062,26.855,0
1542735074.260,73.730,21.484,28.809,48.340,64.941,0
1542735074.264,50.781,21.484,27.832,32.227,48.340,0
1542735074.268,25.391,17.090,29.785,18.555,48.828,0
1542735074.272,41.992,12.207,32.715,55.176,47.852,0
1542735074.276,44.434,17.090,33.691,57.617,-14.160,0
1542735074.280,19.043,18.066,32.715,27.832,-21.973,0
1542735074.284,33.691,23.926,22.461,31.250,26.855,0
1542735074.288,55.176,27.344,19.531,26.855,82.031,0
1542735074.292,35.156,20.508,24.902,32.715,83.984,0
1542735074.296,22.461,23.438,24.902,34.668,80.566,0
1542735074.300,30.762,24.414,23.926,32.227,26.855,0
1542735074.303,31.250,18.555,23.438,41.504,-6.836,0
1542735074.307,9.277,19.531,20.996,24.902,50.781,0
1542735074.311,-6.348,19.043,22.949,7.812,48.340,0
1542735074.315,13.672,17.090,28.320,18.066,28.809,0
1542735074.319,24.414,22.461,24.902,25.879,16.602,0
1542735074.323,15.137,21.973,20.996,18.555,28.320,0
1542735074.327,33.691,20.996,18.555,11.719,48.340,0
1542735074.331,47.852,25.879,21.484,27.832,66.895,0
1542735074.335,59.082,25.879,22.949,55.664,36.133,0
1542735074.339,70.801,24.902,19.043,47.363,13.184,0
1542735074.342,53.223,27.832,20.508,57.129,57.617,0
1542735074.346,37.598,26.855,20.996,50.781,64.941,0
1542735074.350,44.434,20.508,19.043,11.719,32.227,0
1542735074.354,74.707,17.578,19.531,17.090,32.715,0
1542735074.358,73.242,18.066,20.020,30.273,32.227,0
1542735074.362,48.828,14.648,14.648,31.738,62.012,0
1542735074.366,58.594,13.672,18.066,53.223,63.477,0
1542735074.370,52.734,20.020,23.926,62.012,-31.250,0
1542735074.374,42.480,23.438,22.461,57.129,-26.855,0
1542735074.378,65.918,23.438,23.438,31.738,40.527,0
1542735074.382,72.754,23.926,23.926,38.574,59.570,0
1542735074.385,74.707,22.949,25.879,59.082,85.449,0
1542735074.389,60.059,22.949,23.926,38.574,110.840,0
1542735074.393,54.199,19.531,25.391,26.367,38.574,0
1542735074.397,64.453,18.555,27.832,32.715,26.855,0
1542735074.401,58.105,23.438,23.926,49.805,41.016,0
1542735074.405,65.918,21.484,26.367,43.945,43.945,0
1542735074.409,55.664,20.996,27.832,56.641,71.289,0
1542735074.413,51.270,25.391,24.902,55.176,91.309,0
1542735074.417,69.824,26.855,23.438,27.344,121.094,0
1542735074.421,66.406,30.273,21.484,6.836,74.707,0
1542735074.425,32.715,27.832,27.832,26.855,-24.414,0
1542735074.428,33.203,27.344,31.250,49.316,-42.969,0
1542735074.432,36.133,30.762,25.391,21.484,5.859,0
1542735074.436,30.273,26.855,25.879,4.395,18.555,0
1542735074.440,41.992,20.508,29.297,4.395,-29.297,0
1542735074.444,58.594,20.996,29.785,32.227,-8.789,0
1542735074.448,57.617,23.438,28.809,39.551,20.996,0
1542735074.452,50.781,29.297,27.832,37.109,32.227,0
1542735074.456,55.664,30.273,33.691,43.457,51.758,0
1542735074.460,66.895,24.414,32.715,33.691,55.664,0
1542735074.464,62.988,23.438,27.344,36.621,59.082,0
1542735074.467,83.496,28.809,27.832,50.293,1.953,0
1542735074.471,97.656,28.809,29.297,59.082,-18.555,0
1542735074.475,97.168,24.902,28.809,38.086,10.254,0
1542735074.479,110.352,27.832,27.344,55.176,42.480,0
1542735074.483,99.121,25.391,31.738,65.430,30.273,0
1542735074.487,109.375,19.043,33.203,60.059,34.180,0
1542735074.491,109.375,18.066,23.926,80.078,44.922,0
1542735074.495,105.957,24.414,22.461,74.219,22.461,0
1542735074.499,124.512,29.297,27.832,68.359,30.273,0
1542735074.503,130.371,27.832,27.344,75.684,69.336,0
1542735074.507,123.535,24.414,30.273,73.242,88.867,0
1542735074.510,107.910,24.414,28.809,46.387,101.074,0
1542735074.514,117.676,25.879,24.902,46.387,62.012,0
1542735074.518,114.258,26.855,24.902,62.012,40.527,0
1542735074.522,91.309,20.996,23.438,50.293,35.156,0
1542735074.526,79.590,18.066,25.879,43.457,55.176,0
1542735074.530,104.492,26.367,24.902,62.500,97.656,0
1542735074.534,127.930,29.297,19.531,108.887,90.332,0
1542735074.538,104.980,27.832,23.438,94.727,41.016,0
1542735074.542,72.754,32.227,24.414,41.992,17.090,0
1542735074.546,76.172,31.250,24.414,24.902,71.289,0
1542735074.550,57.617,24.414,30.273,36.133,90.820,0
1542735074.553,63.477,24.902,26.367,59.082,66.406,0
1542735074.557,90.820,26.855,21.973,76.172,44.434,0
1542735074.561,81.543,22.461,24.902,78.125,20.996,0
1542735074.565,66.895,20.020,26.367,67.383,36.621,0
1542735074.569,78.613,22.949,25.391,78.125,85.449,0
1542735074.573,94.238,27.344,26.855,94.727,75.684,0
1542735074.577,81.543,28.320,20.996,83.496,42.480,0
1542735074.581,82.031,25.879,17.090,56.641,33.691,0
1542735074.585,98.145,26.367,23.926,71.777,73.242,0
1542735074.589,99.121,23.438,28.320,97.656,29.297,0
1542735074.592,94.727,22.461,27.344,61.035,0.488,0
1542735074.596,80.078,27.344,21.973,41.504,56.152,0
1542735074.600,63.477,29.297,20.020,55.664,6.348,0
1542735074.604,75.195,30.273,16.602,58.105,8.789,0
1542735074.608,90.332,23.438,12.695,61.035,48.340,0
1542735074.612,64.453,15.137,20.996,87.402,24.902,0
1542735074.616,86.914,20.996,24.414,75.195,6.348,0
1542735074.620,104.004,24.902,12.695,31.738,-19.043,0
1542735074.624,70.801,25.879,11.719,49.316,45.410,0
1542735074.628,61.523,28.809,19.043,76.660,51.270,0
1542735074.632,63.965,26.367,17.090,65.918,-20.996,0
1542735074.635,53.223,21.973,14.648,51.758,5.859,0
1542735074.639,56.641,23.438,15.137,59.082,35.156,0
1542735074.643,59.570,27.832,11.230,40.527,59.570,0
1542735074.647,38.086,27.832,17.090,64.453,73.242,0
1542735074.651,58.105,28.320,21.484,100.098,45.898,0
1542735074.655,41.504,25.391,17.578,80.078,4.395,0
1542735074.659,34.668,24.902,16.113,58.594,46.387,0
1542735074.663,70.312,30.762,14.648,53.223,47.852,0
1542735074.667,66.895,24.902,20.020,68.359,-3.418,0
1542735074.671,56.641,21.973,23.926,58.105,-12.207,0
1542735074.675,42.480,30.273,20.508,49.805,12.207,0
1542735074.678,42.969,34.180,24.414,69.824,10.254,0
1542735074.682,49.805,31.250,24.902,73.242,74.219,0
1542735074.686,48.828,31.250,22.461,59.570,94.238,0
1542735074.690,52.734,25.879,28.809,73.242,21.484,0
1542735074.694,51.758,20.508,32.715,86.426,45.898,0
1542735074.698,53.711,23.438,28.809,74.707,82.520,0
1542735074.702,43.945,25.879,26.855,68.359,53.711,0
1542735074.706,51.758,31.738,26.367,46.387,31.738,0
1542735074.710,56.641,31.250,23.926,27.832,50.293,0
1542735074.714,48.828,24.902,20.996,31.250,53.711,0
1542735074.717,74.219,25.879,18.066,59.082,31.738,0
1542735074.721,62.988,27.344,23.438,56.152,38.574,0
1542735074.725,53.711,24.902,26.367,46.387,42.480,0
1542735074.729,61.035,26.367,26.855,63.965,45.898,0
1542735074.733,51.758,28.809,24.902,72.754,48.828,0
1542735074.737,43.945,30.273,21.973,56.641,57.617,0
1542735074.741,84.473,30.273,18.555,61.035,23.438,0
1542735074.745,82.520,24.902,23.438,92.773,29.297,0
1542735074.749,26.367,25.391,27.832,68.848,118.164,0
1542735074.753,47.363,22.461,24.902,50.781,51.270,0
1542735074.757,87.402,15.625,26.855,68.848,-4.395,0
1542735074.760,75.195,24.414,29.785,60.547,21.973,0
1542735074.764,47.363,36.621,21.484,58.105,41.504,0
1542735074.768,47.852,39.551,8.789,40.039,71.289,0
1542735074.772,39.551,36.621,14.648,45.410,24.414,0
1542735074.776,59.082,31.738,18.066,55.176,34.180,0
1542735074.780,87.891,30.762,8.301,51.270,3.906,0
1542735074.784,67.383,33.203,7.324,62.012,-24.902,0
1542735074.788,55.664,28.320,16.113,69.824,31.738,0
1542735074.792,76.172,27.344,19.043,72.754,54.199,0
1542735074.796,63.477,34.180,7.812,53.223,40.527,0
1542735074.800,49.316,31.738,5.371,39.062,-2.930,0
1542735074.803,39.062,27.344,12.695,34.668,21.973,0
1542735074.807,57.129,31.250,18.555,29.297,8.789,0
1542735074.811,68.848,30.762,21.973,44.922,-3.418,0
1542735074.815,45.898,26.367,20.996,57.129,20.508,0
1542735074.819,50.293,29.297,19.531,45.410,50.293,0
1542735074.823,59.570,30.273,17.090,33.691,69.336,0
1542735074.827,43.457,28.809,17.578,21.484,80.078,0
1542735074.831,42.969,29.785,18.066,34.668,96.191,0
1542735074.835,41.504,25.879,18.066,44.922,62.500,0
1542735074.839,49.805,28.320,13.672,55.664,65.918,0
1542735074.842,55.664,32.227,13.672,74.707,51.758,0
1542735074.846,23.926,30.273,16.602,48.828,55.664,0
1542735074.850,20.996,31.250,7.324,32.715,45.410,0
1542735074.854,46.875,28.809,-1.465,34.180,29.297,0
1542735074.858,32.715,20.996,1.465,49.316,1.953,0
1542735074.862,-14.160,10.742,4.395,49.805,-24.414,0
1542735074.866,-19.531,3.418,4.883,28.320,-9.277,0
1542735074.870,11.719,4.883,-4.395,11.230,35.645,0
1542735074.874,8.789,2.441,-7.812,22.461,35.645,0
1542735074.878,-34.180,-9.766,-13.184,28.320,47.852,0
1542735074.882,-38.574,-18.066,-34.668,7.324,30.762,0
1542735074.885,-10.742,-18.066,-37.598,-23.926,3.906,0
1542735074.889,-16.602,-22.461,-31.250,-37.598,72.754,0
1542735074.893,-61.035,-32.715,-28.320,-1.465,63.965,0
1542735074.897,-61.523,-30.273,-26.367,0.977,44.922,0
1542735074.901,-36.621,-23.926,-33.203,-31.738,47.852,0
1542735074.905,-29.785,-28.809,-37.598,-9.766,58.105,0
1542735074.909,-36.621,-30.762,-35.156,9.277,39.551,0
1542735074.913,-39.062,-35.645,-32.227,-20.508,5.859,0
1542735074.917,-22.949,-29.785,-37.598,-13.672,55.176,0
1542735074.921,9.277,-26.367,-39.062,14.160,47.852,0
1542735074.925,0.977,-26.367,-32.715,-18.066,42.969,0
1542735074.928,-56.152,-18.066,-34.180,-43.457,44.922,0
1542735074.932,-49.316,-11.719,-37.109,-5.371,-2.441,0
1542735074.936,-34.180,-5.371,-29.785,-1.953,41.504,0
1542735074.940,-47.363,-2.930,-27.344,-53.711,67.383,0
1542735074.944,-44.434,-0.977,-30.273,-58.594,26.367,0
1542735074.948,-23.926,9.766,-38.574,-44.922,-9.766,0
1542735074.952,-24.414,17.578,-38.574,-52.246,29.785,0
1542735074.956,-19.531,17.578,-44.922,-37.109,52.734,0
1542735074.960,-25.391,17.090,-53.711,-17.578,48.828,0
1542735074.964,-40.039,18.066,-31.738,-5.859,108.887,0
1542735074.967,-32.715,17.090,-21.973,-12.207,32.715,0
1542735074.971,-10.742,11.230,-22.461,-18.555,-49.805,0
1542735074.975,1.465,10.742,-15.137,-40.039,-8.301,0
1542735074.979,-21.973,16.602,-13.184,-54.199,53.223,0
1542735074.983,-20.996,13.184,-16.113,-42.969,56.641,0
1542735074.987,-4.883,11.230,-18.555,-49.316,49.316,0
1542735074.991,-6.348,16.602,-17.578,-48.340,101.562,0
1542735074.995,-9.766,10.254,-14.160,-24.414,75.195,0
1542735074.999,-13.184,11.719,-11.230,-15.137,-3.418,0
1542735075.003,-14.648,17.090,-13.672,-42.969,3.418,0
1542735075.007,3.906,11.230,-10.254,-43.457,35.156,0
1542735075.010,15.137,8.301,-2.441,3.906,81.543,0
1542735075.014,17.578,9.277,0.488,2.441,37.109,0
1542735075.018,24.414,14.160,0.000,-24.902,0.000,0
1542735075.022,3.418,14.160,3.418,-23.438,11.719,0
1542735075.026,19.043,15.625,5.371,3.906,20.020,0
1542735075.030,3.418,18.066,2.930,15.625,21.973,0
1542735075.034,-1.953,20.020,1.953,-11.719,-0.488,0
1542735075.038,44.434,24.414,2.930,2.930,48.828,0
1542735075.042,42.969,12.695,12.695,46.875,95.703,0
1542735075.046,20.020,15.625,6.836,27.832,102.539,0
1542735075.050,12.207,25.879,-2.441,-29.785,81.055,0
1542735075.053,2.441,22.461,8.789,-32.715,62.500,0
1542735075.057,-2.930,18.066,12.695,-14.160,66.406,0
1542735075.061,-3.418,13.184,7.324,-20.508,31.250,0
1542735075.065,-0.977,13.672,8.301,-32.227,5.371,0
1542735075.069,4.883,15.625,13.672,-19.531,18.066,0
1542735075.073,16.113,17.578,5.859,-7.324,66.406,0
1542735075.077,-1.953,18.555,3.418,-9.766,51.270,0
1542735075.081,-14.648,16.602,16.113,3.418,15.137,0
1542735075.085,14.648,20.508,16.113,18.066,57.617,0
1542735075.089,32.715,22.461,11.719,14.648,46.387,0
1542735075.092,8.789,19.531,13.184,26.367,-4.395,0
1542735075.096,-6.348,17.578,10.254,10.742,29.297,0
1542735075.100,13.184,7.812,4.395,-26.367,80.566,0
1542735075.104,1.465,8.301,4.883,-7.812,36.621,0
1542735075.108,-33.691,17.578,16.113,8.301,-6.836,0
1542735075.112,-32.715,17.578,20.996,3.906,20.508,0
1542735075.116,-19.531,17.090,19.043,23.438,101.074,0
1542735075.120,-14.160,17.090,20.020,45.410,77.637,0
1542735075.124,13.184,20.508,11.230,36.133,41.016,0
1542735075.128,36.133,25.879,9.766,35.645,48.828,0
1542735075.132,22.949,21.484,23.438,23.926,9.277,0
1542735075.135,-3.906,19.043,23.926,-15.137,17.578,0
1542735075.139,0.977,26.855,23.438,3.418,84.961,0
1542735075.143,7.324,28.809,21.484,19.043,53.711,0
1542735075.147,-10.742,21.973,16.602,34.668,-23.438,0
1542735075.151,-0.488,22.949,19.043,61.035,22.949,0
1542735075.155,14.648,24.414,18.555,32.227,38.574,0
1542735075.159,19.043,24.902,21.484,24.414,21.484,0
1542735075.163,33.203,24.414,24.414,43.945,23.926,0
1542735075.167,29.297,24.414,17.090,39.551,43.457,0
1542735075.171,41.016,28.320,14.648,34.180,29.785,0
1542735075.175,35.156,23.438,20.020,3.906,3.418,0
1542735075.178,11.230,24.414,21.973,-6.348,-11.719,0
1542735075.182,30.762,27.832,21.484,24.414,-3.906,0
1542735075.186,49.316,25.391,25.391,41.016,-25.391,0
1542735075.190,69.824,23.926,27.344,50.293,-26.855,0
1542735075.194,78.613,24.414,21.973,78.613,-60.059,0
1542735075.198,53.711,22.949,16.602,79.590,-80.566,0
1542735075.202,47.852,28.320,14.648,9.277,12.695,0
1542735075.206,41.504,29.297,15.625,-9.766,75.684,0
1542735075.210,45.898,19.531,24.902,1.465,25.391,0
1542735075.214,62.500,24.414,29.785,-4.395,-10.254,0
1542735075.217,81.543,39.551,35.156,30.273,51.270,0
1542735075.221,86.426,43.945,48.340,48.828,111.816,0
1542735075.225,95.215,62.500,61.035,44.922,77.148,0
1542735075.229,83.984,64.453,60.059,38.574,52.246,0
1542735075.233,30.273,39.551,43.945,26.855,39.062,0
1542735075.237,9.766,47.363,45.410,38.086,24.414,0
1542735075.241,18.555,72.754,70.312,2.930,63.477,0
1542735075.245,-20.508,95.703,96.680,-63.965,12.695,0
1542735075.249,-78.125,117.676,114.258,-104.980,14.160,0
1542735075.253,-94.238,142.578,129.395,-120.605,81.543,0
1542735075.257,-136.230,158.203,139.648,-168.457,74.707,0
1542735075.260,-190.430,172.363,167.969,-242.188,33.691,0
1542735075.264,-237.305,191.406,193.359,-285.645,-12.695,0
1542735075.268,-291.504,204.102,219.727,-331.543,-14.648,0
1542735075.272,-309.082,203.125,244.141,-347.168,19.043,0
1542735075.276,-309.082,202.637,250.977,-337.891,-0.977,0
1542735075.280,-310.059,198.730,250.977,-332.520,17.578,0
1542735075.284,-311.523,189.941,242.676,-332.031,21.484,0
1542735075.288,-294.922,180.664,238.281,-320.801,-10.254,0
1542735075.292,-272.461,173.340,218.262,-282.715,39.551,0
1542735075.296,-267.090,158.203,195.801,-250.000,78.613,0
1542735075.300,-243.164,130.859,195.801,-234.863,30.762,0
1542735075.303,-212.891,115.234,175.781,-210.938,24.414,0
1542735075.307,-187.500,104.492,149.902,-179.199,40.039,0
1542735075.311,-157.227,90.820,133.789,-139.648,22.949,0
1542735075.315,-129.883,71.289,116.699,-101.562,18.066,0
1542735075.319,-98.145,52.246,114.258,-86.914,70.312,0
1542735075.323,-62.012,44.434,105.469,-59.082,49.316,0
1542735075.327,-36.133,32.227,88.867,-26.855,68.848,0
1542735075.331,-9.277,19.531,79.102,-11.230,129.395,0
1542735075.335,13.184,7.812,68.848,11.230,58.105,0
1542735075.339,6.348,-0.977,55.664,35.645,0.488,0
1542735075.342,-5.859,-12.207,42.480,49.805,-4.883,0
1542735075.346,6.348,-15.625,24.414,42.480,-3.418,0
1542735075.350,36.133,-16.113,15.625,46.875,22.461,0
1542735075.354,57.129,-20.508,11.719,71.289,42.480,0
1542735075.358,59.082,-22.461,0.000,86.426,35.156,0
1542735075.362,80.566,-21.484,-5.371,99.609,-5.859,0
1542735075.366,88.867,-24.414,-6.348,90.820,-11.719,0
1542735075.370,98.145,-26.367,-11.230,73.242,-19.043,0
1542735075.374,114.258,-31.738,-17.578,86.914,-1.953,0
1542735075.378,112.793,-36.621,-19.043,131.836,56.641,0
1542735075.382,125.977,-35.156,-24.902,129.395,33.691,0
1542735075.385,152.832,-29.297,-37.109,128.906,59.082,0
1542735075.389,168.457,-29.297,-46.387,158.691,91.797,0
1542735075.393,146.973,-34.668,-36.621,123.535,34.668,0
1542735075.397,120.117,-38.574,-26.367,107.422,30.273,0
1542735075.401,146.484,-38.086,-28.320,132.812,64.941,0
1542735075.405,177.734,-34.180,-34.668,159.180,35.156,0
1542735075.409,184.570,-31.738,-42.969,170.410,11.230,0
1542735075.413,194.824,-23.438,-39.551,152.832,70.312,0
1542735075.417,215.820,-23.926,-33.203,146.973,63.965,0
1542735075.421,217.773,-26.367,-32.227,151.367,17.578,0
1542735075.425,230.957,-23.926,-35.645,187.012,8.789,0
1542735075.428,232.910,-22.461,-33.691,212.891,8.301,0
1542735075.432,215.332,-24.414,-26.855,192.871,52.246,0
1542735075.436,254.395,-26.367,-26.855,195.801,21.484,0
1542735075.440,287.598,-17.090,-27.832,222.656,11.230,0
1542735075.444,286.621,-16.602,-25.879,228.516,57.129,0
1542735075.448,311.523,-23.926,-30.762,230.469,50.293,0
1542735075.452,324.219,-23.926,-27.832,250.000,29.297,0
1542735075.456,340.820,-12.207,-16.113,267.578,54.688,0
1542735075.460,397.461,-7.324,-13.672,284.180,61.035,0
1542735075.464,418.945,-10.254,-14.648,293.457,75.684,0
1542735075.467,457.520,-9.277,-13.184,309.082,55.176,0
1542735075.471,490.234,-4.395,-14.160,347.656,32.227,0
1542735075.475,481.934,3.418,-15.137,383.301,66.406,0
1542735075.479,483.398,-2.441,-13.184,397.949,66.895,0
1542735075.483,510.742,-6.348,-13.184,405.762,27.832,0
1542735075.487,546.875,0.977,-10.742,401.855,34.668,0
1542735075.491,577.148,5.859,-14.160,410.156,51.758,0
1542735075.495,567.383,3.418,-14.160,430.664,51.270,0
1542735075.499,573.242,-0.977,-4.883,447.754,55.176,0
1542735075.503,586.426,2.441,2.441,442.383,36.133,0
1542735075.507,565.430,6.836,7.812,422.363,51.270,0
1542735075.510,559.570,5.859,5.371,422.363,27.832,0
1542735075.514,559.570,4.395,5.859,430.176,53.711,0
1542735075.518,541.504,6.836,3.418,395.996,77.148,0
1542735075.522,539.551,10.742,-0.977,387.207,-9.766,0
1542735075.526,516.113,10.742,-1.953,397.949,1.953,0
1542735075.530,493.164,12.207,-2.441,372.559,43.457,0
1542735075.534,482.910,16.113,3.906,366.699,84.961,0
1542735075.538,462.402,13.184,8.301,378.418,116.699,0
1542735075.542,430.664,9.766,12.695,351.074,57.617,0
1542735075.546,430.664,12.695,15.625,306.641,29.297,0
1542735075.550,419.434,8.301,15.137,295.410,24.902,0
1542735075.553,415.039,4.395,13.672,333.496,20.020,0
1542735075.557,388.672,13.184,7.324,345.703,34.180,0
1542735075.561,335.938,17.090,9.277,291.504,19.043,0
1542735075.565,328.125,13.672,9.766,247.070,34.180,0
1542735075.569,274.902,14.160,8.789,212.891,85.449,0
1542735075.573,226.074,20.020,20.508,189.941,97.656,0
1542735075.577,197.266,24.902,17.090,179.688,48.340,0
1542735075.581,153.809,18.555,7.812,162.109,-27.344,0
1542735075.585,141.602,9.277,16.113,158.691,8.789,0
1542735075.589,140.137,9.277,21.973,153.320,13.184,0
1542735075.592,109.863,13.184,18.555,133.301,40.527,0
1542735075.596,59.082,15.625,14.160,84.473,61.523,0
1542735075.600,51.270,15.625,16.113,64.453,2.441,0
1542735075.604,71.777,14.160,18.555,104.492,60.059,0
1542735075.608,91.309,14.648,20.020,141.602,73.242,0
1542735075.612,80.078,19.531,23.926,105.469,32.715,0
1542735075.616,72.754,22.949,21.484,70.312,16.113,0
1542735075.620,73.730,22.949,21.484,87.402,28.320,0
1542735075.624,73.242,24.414,22.949,103.027,11.719,0
1542735075.628,93.750,22.949,14.648,113.281,-18.555,0
1542735075.632,77.148,24.414,14.160,109.863,7.324,0
1542735075.635,47.852,27.344,30.762,105.957,38.086,0
1542735075.639,43.945,25.391,33.203,93.750,52.734,0
1542735075.643,34.180,20.996,25.879,102.539,-2.930,0
1542735075.647,16.113,27.344,21.484,93.262,15.137,0
1542735075.651,9.277,34.668,22.461,70.801,61.035,0
1542735075.655,-17.578,34.668,28.320,60.059,47.363,0
1542735075.659,-12.695,42.969,24.902,30.762,39.062,0
1542735075.663,-18.066,47.363,20.508,24.902,10.742,0
1542735075.667,-34.668,55.176,10.742,46.875,-15.625,0
1542735075.671,-37.109,62.988,0.488,70.312,2.930,0
1542735075.675,-48.340,55.176,1.465,56.152,56.641,0
1542735075.678,-27.344,50.781,4.395,25.879,41.504,0
1542735075.682,-16.113,50.293,5.859,22.949,53.223,0
1542735075.686,-46.387,45.410,3.906,24.414,54.199,0
1542735075.690,-46.387,45.898,3.418,22.461,49.805,0
1542735075.694,-35.156,49.316,2.930,22.461,46.875,0
1542735075.698,-51.270,44.434,-2.930,36.621,-13.672,0
1542735075.702,-52.246,43.945,-9.766,42.969,10.742,0
1542735075.706,-49.805,42.969,-2.930,17.090,90.332,0
1542735075.710,-62.500,40.527,11.719,-1.465,86.914,0
1542735075.714,-60.059,40.527,17.578,3.418,75.684,0
1542735075.717,-37.598,38.574,15.625,27.832,62.012,0
1542735075.721,-8.301,34.668,9.766,14.648,46.875,0
1542735075.725,-41.992,37.109,4.883,9.766,72.754,0
1542735075.729,-59.570,39.062,9.277,45.898,46.875,0
1542735075.733,-45.410,29.785,14.160,49.316,42.969,0
1542735075.737,-49.805,29.297,14.648,22.461,38.086,0
1542735075.741,-1.465,43.457,9.766,23.438,-14.648,0
1542735075.745,28.809,45.898,11.719,52.246,5.859,0
1542735075.749,18.066,43.945,18.066,55.664,71.289,0
1542735075.753,29.785,42.969,17.090,85.938,46.387,0
1542735075.757,123.047,47.852,7.812,130.371,23.438,0
1542735075.760,194.336,52.246,10.254,161.133,25.391,0
1542735075.764,229.980,47.363,23.926,208.008,1.465,0
1542735075.768,300.781,40.039,25.391,242.676,24.414,0
1542735075.772,322.754,39.062,18.066,284.180,65.918,0
1542735075.776,338.379,43.457,17.090,280.273,61.035,0
1542735075.780,375.000,47.363,20.020,275.391,26.367,0
1542735075.784,412.109,44.922,26.367,307.129,-13.184,0
1542735075.788,464.355,41.016,29.297,326.660,10.254,0
1542735075.792,474.121,38.574,23.438,349.121,70.801,0
1542735075.796,479.492,41.992,18.066,342.773,20.020,0
1542735075.800,471.191,51.270,18.555,295.410,-15.625,0
1542735075.803,416.016,50.781,21.484,269.043,5.371,0
1542735075.807,357.422,48.828,20.508,269.043,0.977,0
1542735075.811,339.844,48.340,21.484,252.441,64.453,0
1542735075.815,329.102,40.527,25.391,226.074,0.000,0
1542735075.819,302.734,41.016,24.414,203.125,-6.348,0
1542735075.823,274.902,39.062,24.902,192.383,67.383,0
1542735075.827,223.633,35.156,20.508,180.176,35.156,0
1542735075.831,184.082,38.086,20.508,165.039,2.930,0
1542735075.835,151.367,41.504,31.250,113.281,-0.977,0
1542735075.839,148.926,42.480,35.645,87.891,59.570,0
1542735075.842,127.930,49.316,32.227,74.707,106.934,0
1542735075.846,70.801,49.805,23.438,26.855,85.938,0
1542735075.850,27.832,39.062,24.414,-3.906,33.203,0
1542735075.854,-14.160,33.691,30.762,-15.625,0.000,0
1542735075.858,-29.785,33.691,28.809,-21.973,3.418,0
1542735075.862,-31.738,37.598,22.949,-37.109,48.828,0
1542735075.866,-46.875,40.039,22.949,-31.250,43.457,0
1542735075.870,-43.457,36.133,28.809,-23.926,49.316,0
1542735075.874,-21.484,34.668,30.273,-20.996,90.820,0
1542735075.878,-5.859,34.180,28.809,4.395,80.078,0
1542735075.882,36.133,35.645,26.367,32.715,37.598,0
1542735075.885,76.172,40.039,22.949,49.316,35.156,0
1542735075.889,99.609,40.527,21.973,65.918,62.500,0
1542735075.893,130.371,47.363,15.625,87.891,44.434,0
1542735075.897,160.645,42.480,16.602,122.070,17.578,0
1542735075.901,190.918,38.086,20.020,130.371,38.086,0
1542735075.905,235.352,44.434,25.391,159.180,80.078,0
1542735075.909,264.648,37.598,34.668,181.152,86.426,0
1542735075.913,257.812,39.551,29.785,186.035,100.098,0
1542735075.917,274.902,42.969,30.762,208.008,86.914,0
1542735075.921,328.613,39.551,33.691,234.375,59.082,0
1542735075.925,377.930,43.945,28.809,246.094,56.152,0
1542735075.928,341.309,44.434,31.738,226.562,53.223,0
1542735075.932,300.293,38.574,36.133,222.656,51.270,0
1542735075.936,333.496,39.551,33.691,228.516,56.641,0
1542735075.940,341.309,37.109,30.762,249.512,25.879,0
1542735075.944,328.125,36.133,30.762,234.863,7.324,0
1542735075.948,329.590,46.387,35.156,205.078,4.395,0
1542735075.952,335.449,53.223,28.320,229.492,36.133,0
1542735075.956,310.059,48.828,23.438,223.145,69.824,0
1542735075.960,293.457,42.480,39.062,201.172,36.621,0
1542735075.964,267.090,38.574,42.969,204.590,45.410,0
1542735075.967,234.863,37.598,40.039,184.082,64.453,0
1542735075.971,246.094,38.086,39.062,163.574,51.758,0
1542735075.975,270.020,41.504,40.039,185.059,55.664,0
1542735075.979,245.605,42.969,43.945,193.359,52.734,0
1542735075.983,210.938,43.457,46.875,201.172,45.410,0
1542735075.987,205.566,39.062,50.781,180.664,40.527,0
1542735075.991,198.730,38.086,52.734,138.184,54.199,0
1542735075.995,202.148,46.875,45.410,136.230,74.219,0
1542735075.999,179.688,46.875,41.016,162.598,83.984,0
1542735076.003,151.367,41.504,41.504,191.895,80.078,0
1542735076.007,125.000,38.086,40.527,164.551,54.199,0
1542735076.010,118.652,35.156,44.922,148.438,-3.906,0
1542735076.014,116.699,35.645,44.434,152.832,-22.949,0
1542735076.018,109.375,31.250,38.574,162.109,-9.766,0
1542735076.022,137.695,37.109,35.645,148.926,52.246,0
1542735076.026,128.418,38.086,40.527,131.348,85.938,0
1542735076.030,77.148,27.344,44.434,129.883,81.055,0
1542735076.034,81.055,29.785,36.133,117.676,30.273,0
1542735076.038,117.676,35.156,31.250,125.000,11.230,0
1542735076.042,85.938,37.598,35.645,117.676,45.410,0
1542735076.046,56.641,36.621,41.016,101.562,18.555,0
1542735076.050,48.340,30.273,48.828,110.840,20.508,0
1542735076.053,45.410,31.738,46.875,86.914,63.477,0
1542735076.057,54.199,29.785,39.062,73.242,29.785,0
1542735076.061,42.480,28.320,38.574,57.617,61.523,0
1542735076.065,29.785,28.320,42.480,41.504,101.562,0
1542735076.069,9.277,29.297,33.691,22.949,120.605,0
1542735076.073,-17.090,29.297,24.902,-23.438,91.309,0
1542735076.077,-18.066,25.879,31.250,-21.484,67.383,0
1542735076.081,-22.461,30.762,41.016,-17.578,39.062,0
1542735076.085,-28.809,32.227,43.457,-19.043,57.129,0
1542735076.089,-43.457,28.809,44.922,-27.832,121.094,0
1542735076.092,-84.961,23.438,41.504,-62.500,86.914,0
1542735076.096,-121.582,24.902,38.086,-67.871,49.805,0
1542735076.100,-121.582,31.738,43.945,-74.219,59.082,0
1542735076.104,-120.117,31.250,49.316,-95.215,62.988,0
1542735076.108,-147.461,32.715,41.992,-117.188,40.039,0
1542735076.112,-207.520,35.645,32.227,-132.812,-1.465,0
1542735076.116,-222.656,32.227,25.391,-132.812,56.641,0
1542735076.120,-225.586,26.367,24.414,-142.090,74.219,0
1542735076.124,-274.414,25.879,33.691,-166.504,40.527,0
1542735076.128,-334.961,23.926,44.922,-222.168,70.312,0
1542735076.132,-365.234,17.090,49.316,-257.324,37.109,0
1542735076.135,-354.980,7.812,50.781,-256.836,41.016,0
1542735076.139,-338.867,-1.465,58.105,-231.934,24.414,0
1542735076.143,-343.262,-9.277,69.336,-206.055,26.855,0
1542735076.147,-310.547,-12.695,72.266,-196.777,15.137,0
1542735076.151,-217.773,-9.277,75.684,-182.129,27.344,0
1542735076.155,-195.312,-9.277,73.730,-168.457,29.785,0
1542735076.159,-215.332,-7.812,62.988,-172.852,-18.555,0
1542735076.163,-194.336,1.953,61.035,-157.715,7.812,0
1542735076.167,-177.734,0.488,58.105,-167.480,41.992,0
1542735076.171,-175.293,-0.488,55.664,-161.133,35.156,0
1542735076.175,-152.344,0.000,50.781,-131.836,12.207,0
1542735076.178,-164.551,-1.953,52.246,-135.742,33.691,0
1542735076.182,-159.668,-0.488,56.152,-121.582,-8.789,0
1542735076.186,-104.492,7.812,50.293,-100.586,-20.996,0
1542735076.190,-96.680,12.207,59.570,-92.773,33.203,0
1542735076.194,-90.820,14.160,59.082,-101.562,51.758,0
1542735076.198,-76.172,16.113,47.852,-112.305,6.836,0
1542735076.202,-85.938,16.113,51.270,-88.867,21.484,0
1542735076.206,-73.242,21.484,46.387,-96.191,62.988,0
1542735076.210,-57.129,20.508,44.922,-100.098,24.902,0
1542735076.214,-75.195,20.020,52.734,-79.102,18.555,0
1542735076.217,-63.965,24.414,51.758,-81.543,42.480,0
1542735076.221,-61.035,29.297,43.945,-83.496,42.480,0
1542735076.225,-54.688,28.809,41.992,-64.453,21.484,0
1542735076.229,-33.203,33.203,40.527,-40.039,45.898,0
1542735076.233,-33.691,33.203,39.062,-24.902,26.855,0
1542735076.237,16.602,28.809,42.480,-19.043,13.672,0
1542735076.241,33.203,32.715,37.109,3.418,44.434,0
1542735076.245,9.766,32.227,33.691,2.441,39.062,0
1542735076.249,19.043,29.297,47.363,-6.836,38.574,0
1542735076.253,60.547,35.156,46.387,10.254,66.895,0
1542735076.257,97.168,35.156,42.969,42.969,73.242,0
1542735076.260,122.559,28.809,45.410,95.703,15.625,0
1542735076.264,166.016,34.180,36.621,130.859,20.996,0
1542735076.268,198.730,34.668,30.762,125.488,11.230,0
1542735076.272,209.473,28.320,37.598,122.070,6.836,0
1542735076.276,221.680,33.203,38.086,125.977,52.246,0
1542735076.280,257.812,35.645,32.715,142.578,-0.977,0
1542735076.284,296.387,33.691,39.551,179.688,-28.320,0
1542735076.288,300.781,28.809,43.457,191.406,16.602,0
1542735076.292,296.875,26.367,41.504,196.289,32.227,0
1542735076.296,295.898,31.250,34.180,198.730,11.719,0
1542735076.300,292.969,25.879,32.715,191.406,33.691,0
1542735076.303,274.414,20.508,37.598,205.078,17.578,0
1542735076.307,269.531,25.879,36.621,168.457,54.199,0
1542735076.311,266.602,31.738,40.527,158.691,100.098,0
1542735076.315,261.719,31.738,43.945,171.875,69.824,0
1542735076.319,218.750,29.297,39.551,158.691,84.961,0
1542735076.323,187.012,34.668,34.180,157.715,102.539,0
1542735076.327,183.105,38.574,36.621,114.258,56.641,0
1542735076.331,184.570,35.156,41.016,117.676,21.973,0
1542735076.335,203.613,33.203,34.180,161.621,16.602,0
1542735076.339,203.125,34.180,33.203,166.504,22.461,0
1542735076.342,231.445,26.855,52.246,193.359,45.410,0
1542735076.346,261.230,17.578,52.734,209.961,-8.301,0
1542735076.350,301.270,10.742,47.852,240.723,-28.320,0
1542735076.354,348.145,8.301,49.805,283.203,28.809,0
1542735076.358,383.789,11.230,52.734,293.945,74.219,0
1542735076.362,396.973,11.719,52.246,300.293,103.516,0
1542735076.366,438.477,14.160,49.805,309.082,101.562,0
1542735076.370,430.176,20.996,42.480,342.773,56.152,0
1542735076.374,406.250,25.391,30.273,346.680,51.758,0
1542735076.378,426.758,19.531,31.250,317.383,42.480,0
1542735076.382,415.527,15.137,37.598,340.332,47.852,0
1542735076.385,457.520,19.531,47.363,373.535,104.004,0
1542735076.389,513.672,20.508,47.852,359.375,108.398,0
1542735076.393,523.926,16.602,39.062,355.957,110.840,0
1542735076.397,532.227,15.625,50.781,374.512,125.977,0
1542735076.401,591.797,21.484,64.941,425.293,143.555,0
1542735076.405,625.000,24.902,55.176,485.840,123.535,0
1542735076.409,673.340,24.902,38.574,542.969,114.746,0
1542735076.413,766.113,22.461,45.898,589.844,131.348,0
1542735076.417,903.320,29.297,48.340,625.977,143.555,0
1542735076.421,-999.023,37.598,39.062,726.074,234.863,0
1542735076.425,997.070,36.133,48.828,829.102,252.441,0
1542735076.428,997.559,38.086,56.641,903.809,251.465,0
1542735076.432,-1000.000,39.062,40.527,951.172,278.320,0
1542735076.436,999.512,38.574,27.344,965.332,223.145,0
1542735076.440,999.512,36.133,41.504,964.844,271.973,0
1542735076.444,999.512,31.738,53.223,957.031,313.477,0
1542735076.448,999.512,31.250,60.059,934.082,292.969,0
1542735076.452,999.512,21.973,61.523,914.551,321.289,0
1542735076.456,999.512,23.438,52.734,887.695,341.309,0
1542735076.460,995.605,27.344,46.387,850.586,271.973,0
1542735076.464,-996.582,21.484,47.363,818.359,243.652,0
1542735076.467,952.637,20.020,52.734,750.488,284.668,0
1542735076.471,836.914,20.996,44.922,663.086,271.484,0
1542735076.475,702.637,21.484,39.062,579.102,242.676,0
1542735076.479,553.711,15.625,45.410,502.930,188.477,0
1542735076.483,453.613,18.555,43.945,420.898,184.082,0
1542735076.487,439.941,21.484,34.180,386.719,196.777,0
1542735076.491,463.867,19.043,45.898,405.762,209.473,0
1542735076.495,463.867,24.902,53.223,400.391,246.582,0
1542735076.499,467.285,30.762,53.223,426.270,236.816,0
1542735076.503,476.074,26.855,50.293,434.082,233.887,0
1542735076.507,484.863,28.809,33.691,408.691,271.973,0
1542735076.510,458.496,27.832,35.645,401.855,275.391,0
1542735076.514,462.891,23.438,47.363,372.559,194.824,0
1542735076.518,424.805,28.320,39.551,366.699,140.137,0
1542735076.522,356.934,27.344,40.527,347.168,139.648,0
1542735076.526,337.891,30.762,45.898,297.852,113.281,0
1542735076.530,287.109,31.250,46.875,290.527,94.238,0
1542735076.534,253.906,31.738,44.434,260.742,69.824,0
1542735076.538,250.000,40.527,38.086,200.684,115.234,0
1542735076.542,171.875,36.621,46.387,182.617,160.156,0
1542735076.546,98.633,26.367,50.781,149.414,96.191,0
1542735076.550,69.824,22.461,49.316,116.699,53.223,0
1542735076.553,27.344,30.273,42.480,96.191,65.430,0
1542735076.557,-24.902,33.691,25.391,33.203,81.055,0
1542735076.561,-111.816,32.227,40.039,-28.809,102.051,0
1542735076.565,-187.012,34.668,53.711,-71.289,100.586,0
1542735076.569,-257.812,32.227,51.270,-122.070,53.711,0
1542735076.573,-298.340,31.738,47.852,-170.898,75.684,0
1542735076.577,-373.047,28.809,38.574,-198.242,26.855,0
1542735076.581,-409.668,24.902,38.574,-230.957,0.000,0
1542735076.585,-383.301,30.273,41.016,-260.254,41.992,0
1542735076.589,-381.836,36.621,38.574,-264.648,9.766,0
1542735076.592,-413.574,31.738,38.086,-298.828,-38.086,0
1542735076.596,-451.660,28.320,40.039,-338.867,-40.039,0
1542735076.600,-472.168,32.227,43.457,-339.844,-43.457,0
1542735076.604,-446.777,38.086,41.504,-351.074,-9.766,0
1542735076.608,-416.992,35.156,38.086,-344.238,-48.340,0
1542735076.612,-445.312,30.762,40.039,-349.609,-111.328,0
1542735076.616,-414.551,33.203,38.086,-365.723,-40.039,0
1542735076.620,-408.203,29.297,38.574,-342.285,-28.809,0
1542735076.624,-454.102,26.367,39.062,-321.777,-35.156,0
1542735076.628,-451.660,33.691,36.133,-352.539,-25.879,0
1542735076.632,-463.867,31.250,31.738,-403.809,-66.895,0
1542735076.635,-491.211,27.832,32.715,-416.016,-107.910,0
1542735076.639,-505.371,31.250,32.227,-405.273,-68.359,0
1542735076.643,-527.832,29.297,31.738,-415.527,-75.684,0
1542735076.647,-549.316,29.785,34.668,-425.781,-78.613,0
1542735076.651,-595.703,27.344,39.062,-401.855,-71.777,0
1542735076.655,-656.738,24.902,36.621,-445.312,-86.426,0
1542735076.659,-710.449,29.785,28.809,-458.984,-112.305,0
1542735076.663,-756.836,35.645,26.367,-496.094,-132.324,0
1542735076.667,-812.012,26.367,34.180,-580.078,-141.113,0
1542735076.671,-869.629,24.902,49.805,-603.516,-155.273,0
1542735076.675,-919.922,32.227,42.969,-625.977,-192.383,0
1542735076.678,-970.215,33.691,30.762,-683.594,-161.621,0
1542735076.682,-971.191,27.344,39.062,-718.262,-159.180,0
1542735076.686,-970.215,29.785,38.086,-702.148,-219.727,0
1542735076.690,-970.703,40.527,31.738,-672.852,-167.480,0
1542735076.694,-969.727,40.527,34.668,-666.016,-159.180,0
1542735076.698,-973.145,41.016,27.344,-621.094,-167.969,0
1542735076.702,-923.340,27.832,26.855,-631.836,-113.770,0
1542735076.706,-845.703,22.949,35.156,-663.086,-117.676,0
1542735076.710,-818.359,32.227,31.250,-660.645,-161.621,0
1542735076.714,-807.617,30.273,32.227,-647.461,-188.965,0
1542735076.717,-774.902,41.504,23.438,-586.914,-163.086,0
1542735076.721,-749.023,43.457,14.648,-561.035,-136.230,0
1542735076.725,-719.238,38.086,23.438,-562.500,-107.422,0
1542735076.729,-671.875,41.992,28.809,-509.277,-102.051,0
1542735076.733,-631.348,44.922,37.598,-507.812,-102.539,0
1542735076.737,-601.562,44.922,38.086,-499.512,-84.473,0
1542735076.741,-570.801,41.504,34.180,-443.359,-62.500,0
1542735076.745,-520.020,29.297,31.250,-406.250,-47.363,0
1542735076.749,-458.984,41.016,23.926,-392.578,-73.242,0
1542735076.753,-451.172,51.270,31.250,-403.809,-49.805,0
1542735076.757,-432.617,28.809,33.203,-353.027,-61.523,0
1542735076.760,-388.184,36.621,21.973,-288.086,-78.613,0
1542735076.764,-315.430,46.387,19.043,-263.184,-61.523,0
1542735076.768,-306.641,37.109,21.973,-283.203,-48.828,0
1542735076.772,-345.215,43.945,22.949,-256.348,-2.441,0
1542735076.776,-284.668,66.406,21.484,-244.141,0.488,0
1542735076.780,-233.887,71.777,17.090,-241.211,-34.668,0
1542735076.784,-239.258,67.871,11.230,-215.820,-1.953,0
1542735076.788,-221.680,72.266,0.000,-206.055,-8.301,0
1542735076.792,-200.195,79.102,-10.742,-164.551,-86.426,0
1542735076.796,-196.777,88.867,-14.160,-172.852,-9.277,0
1542735076.800,-225.586,92.773,-10.742,-217.773,105.469,0
1542735076.803,-210.449,95.703,-20.996,-196.777,31.250,0
1542735076.807,-211.426,90.332,-36.133,-174.805,-39.062,0
1542735076.811,-250.488,98.145,-28.320,-176.270,-28.320,0
1542735076.815,-238.281,100.586,-10.742,-198.730,12.207,0
1542735076.819,-228.027,70.801,-10.254,-208.984,-4.883,0
1542735076.823,-249.023,80.078,-9.277,-202.148,-22.461,0
1542735076.827,-259.766,90.820,-5.859,-233.887,16.602,0
1542735076.831,-221.191,82.520,-31.738,-246.582,-19.531,0
1542735076.835,-252.930,63.477,-18.555,-197.266,-24.902,0
1542735076.839,-279.785,55.176,14.648,-190.430,13.672,0
1542735076.842,-298.340,65.918,4.395,-203.125,26.367,0
1542735076.846,-300.781,81.055,4.395,-207.520,15.625,0
1542735076.850,-220.703,92.773,-2.930,-275.879,-5.371,0
1542735076.854,-238.770,82.031,-2.441,-277.832,-15.625,0
1542735076.858,-247.559,68.848,1.953,-246.094,13.672,0
1542735076.862,-218.750,81.055,2.930,-238.281,22.949,0
1542735076.866,-218.262,81.055,3.906,-235.840,-6.836,0
1542735076.870,-172.852,84.961,-15.625,-236.328,-20.020,0
1542735076.874,-151.367,94.727,-6.348,-241.699,-12.207,0
1542735076.878,-155.273,88.867,6.348,-337.891,3.418,0
1542735076.882,-110.840,96.680,-3.418,-297.363,19.043,0
1542735076.885,-119.629,96.680,-8.301,-209.473,-37.598,0
1542735076.889,-95.703,84.473,-15.137,-257.324,-60.059,0
1542735076.893,-88.867,74.707,-13.184,-264.648,-18.555,0
1542735076.897,-83.496,83.496,-9.277,-203.613,-22.461,0
1542735076.901,-27.344,89.355,-17.090,-171.875,14.160,0
1542735076.905,16.113,81.543,-10.742,-191.895,6.836,0
1542735076.909,33.203,89.844,-9.766,-187.988,-8.789,0
1542735076.913,37.109,102.051,-13.672,-177.246,52.734,0
1542735076.917,11.719,90.820,-3.418,-153.320,73.242,0
1542735076.921,21.973,98.145,-12.695,-108.398,44.434,0
1542735076.925,43.457,111.816,-18.066,-70.312,53.223,0
1542735076.928,43.457,106.934,-9.766,-61.035,53.711,0
1542735076.932,10.742,91.797,0.488,15.137,32.227,0
1542735076.936,-13.672,102.051,-6.836,24.414,13.672,0
1542735076.940,-9.277,115.234,-13.672,-26.855,13.672,0
1542735076.944,-83.984,99.609,-4.395,37.598,27.344,0
1542735076.948,-120.117,111.328,-3.906,76.660,61.035,0
1542735076.952,-119.629,109.863,-1.953,110.840,62.500,0
1542735076.956,-152.832,102.539,-2.441,111.816,20.508,0
1542735076.960,-188.965,113.281,-7.812,82.031,14.160,0
1542735076.964,-214.355,113.281,-8.301,59.570,14.160,0
1542735076.967,-210.449,107.910,8.301,109.375,7.324,0
1542735076.971,-189.453,115.723,9.766,110.352,52.246,0
1542735076.975,-205.078,119.141,-6.348,148.926,54.199,0
1542735076.979,-250.977,119.629,-3.418,136.719,47.852,0
1542735076.983,-255.859,120.117,0.000,85.938,61.035,0
1542735076.987,-231.934,116.211,3.418,65.918,15.137,0
1542735076.991,-213.867,123.047,1.953,27.344,38.086,0
1542735076.995,-243.164,123.047,0.488,25.391,100.098,0
1542735076.999,-252.441,116.211,13.672,3.418,69.824,0
1542735077.003,-208.496,121.582,10.742,-13.184,-2.930,0
1542735077.007,-216.309,124.512,3.418,-33.691,50.293,0
1542735077.010,-238.770,122.559,7.324,-99.121,97.168,0
1542735077.014,-215.820,124.023,10.254,-123.047,1.465,0
1542735077.018,-167.969,122.559,4.883,-117.188,-8.789,0
1542735077.022,-124.023,116.699,1.953,-140.625,43.457,0
1542735077.026,-171.387,108.887,-3.906,-173.828,39.551,0
1542735077.030,-203.125,116.699,2.930,-187.988,31.738,0
1542735077.034,-180.664,112.793,18.066,-204.590,10.742,0
1542735077.038,-170.898,106.445,12.695,-181.641,-16.602,0
1542735077.042,-149.902,112.793,-3.906,-180.176,1.465,0
1542735077.046,-145.020,113.770,0.977,-177.246,47.363,0
1542735077.050,-135.254,112.793,2.930,-205.566,5.859,0
1542735077.053,-156.250,114.258,-2.930,-267.090,-26.367,0
1542735077.057,-198.730,102.539,10.742,-207.031,-18.555,0
1542735077.061,-152.832,90.332,13.184,-207.520,-3.906,0
1542735077.065,-125.000,95.703,19.531,-235.352,-10.742,0
1542735077.069,-158.691,85.449,19.043,-151.367,-20.508,0
1542735077.073,-120.605,88.379,9.277,-149.414,4.395,0
1542735077.077,-145.020,82.520,13.672,-165.039,16.602,0
1542735077.081,-122.070,66.895,19.043,-163.574,10.742,0
1542735077.085,-60.547,72.266,23.926,-125.977,-12.695,0
1542735077.089,-44.434,73.242,24.902,-116.699,10.742,0
1542735077.092,-39.551,74.219,20.996,-92.773,79.590,0
1542735077.096,-54.199,67.871,18.555,-41.016,85.938,0
1542735077.100,-36.133,70.312,16.113,-82.520,3.906,0
1542735077.104,-46.387,69.824,18.066,-93.262,-3.418,0
1542735077.108,-17.090,59.570,31.250,-64.941,40.039,0
1542735077.112,41.016,72.266,28.809,-26.855,105.469,0
1542735077.116,30.762,71.777,16.113,-11.719,90.332,0
1542735077.120,-15.137,53.223,32.227,44.434,1.953,0
1542735077.124,-3.418,63.477,37.109,61.523,2.441,0
1542735077.128,17.090,62.988,26.855,-4.395,3.906,0
1542735077.132,17.578,64.453,26.855,-27.344,-1.953,0
1542735077.135,9.766,62.500,25.391,13.672,9.766,0
1542735077.139,24.902,54.199,20.996,48.340,8.789,0
1542735077.143,-19.043,69.336,24.414,16.113,13.672,0
1542735077.147,-12.695,75.684,21.484,31.738,36.621,0
1542735077.151,37.109,77.637,10.742,58.594,40.039,0
1542735077.155,41.016,76.172,20.508,70.801,-33.203,0
1542735077.159,-15.625,50.293,34.668,62.500,-64.453,0
1542735077.163,-50.781,27.832,12.207,119.141,11.719,0
1542735077.167,24.902,62.988,23.926,155.273,42.480,0
1542735077.171,24.902,82.031,30.762,90.820,63.477,0
1542735077.175,-11.230,78.125,26.855,113.281,88.867,0
1542735077.178,9.766,75.195,39.551,190.430,39.551,0
1542735077.182,24.902,64.941,28.809,168.945,25.391,0
1542735077.186,30.762,67.383,21.484,147.949,7.812,0
1542735077.190,39.062,63.477,34.668,188.477,-13.184,0
1542735077.194,17.090,65.430,44.922,147.461,6.348,0
1542735077.198,-44.922,52.734,30.762,101.074,-1.465,0
1542735077.202,-39.062,47.363,24.902,132.324,18.066,0
1542735077.206,-28.320,61.035,25.391,148.438,12.207,0
1542735077.210,-39.062,57.617,26.855,62.012,47.363,0
1542735077.214,-63.965,48.340,29.297,73.242,56.641,0
1542735077.217,-68.359,46.875,17.578,79.590,14.160,0
1542735077.221,-86.426,43.457,23.438,14.160,9.766,0
1542735077.225,-59.570,29.785,40.527,29.297,15.137,0
1542735077.229,-36.621,36.621,31.250,18.555,39.551,0
1542735077.233,-52.246,43.945,18.066,-0.488,64.941,0
1542735077.237,-16.113,43.945,21.973,-39.062,74.219,0
1542735077.241,-33.691,48.828,20.996,-54.199,77.637,0
1542735077.245,-71.289,46.875,17.578,-52.734,49.316,0
1542735077.249,-28.809,44.922,21.484,-83.496,59.082,0
1542735077.253,-2.930,41.504,22.949,-66.406,54.199,0
1542735077.257,-10.254,32.715,41.992,0.000,25.879,0
1542735077.260,-35.645,27.832,51.270,-14.648,42.969,0
1542735077.264,-18.066,25.391,46.387,-104.492,13.184,0
1542735077.268,-28.320,14.648,55.664,-74.707,18.066,0
1542735077.272,-21.484,10.742,48.828,-4.883,35.156,0
1542735077.276,-11.230,11.230,55.176,-1.465,46.875,0
1542735077.280,-4.395,5.859,79.590,-25.391,125.488,0
1542735077.284,35.645,3.418,79.102,-9.277,72.266,0
1542735077.288,82.520,18.066,70.801,66.895,23.926,0
1542735077.292,68.848,7.324,61.523,48.828,13.184,0
1542735077.296,-5.371,4.883,59.570,-20.020,31.250,0
1542735077.300,41.992,24.902,64.941,18.555,45.410,0
1542735077.303,82.520,22.461,49.316,83.496,33.691,0
1542735077.307,87.402,27.832,54.199,81.543,60.059,0
1542735077.311,79.102,13.672,61.035,45.410,41.992,0
1542735077.315,53.711,6.348,43.457,36.621,64.453,0
1542735077.319,76.660,29.785,37.598,73.730,20.020,0
1542735077.323,80.566,35.156,56.641,101.074,-25.879,0
1542735077.327,58.594,20.996,60.059,77.637,27.832,0
1542735077.331,82.031,13.672,39.551,39.062,40.527,0
1542735077.335,89.844,9.277,40.039,82.520,29.785,0
1542735077.339,43.945,6.348,52.734,62.988,45.898,0
1542735077.342,52.246,20.996,40.039,-5.859,51.270,0
1542735077.346,70.801,32.227,31.738,54.688,33.691,0
1542735077.350,107.910,36.621,28.320,62.012,6.836,0
1542735077.354,109.863,19.043,31.738,0.000,30.273,0
1542735077.358,44.922,7.812,39.062,-0.977,24.902,0
1542735077.362,61.035,14.648,43.457,63.477,-8.789,0
1542735077.366,81.055,24.902,38.574,33.203,-10.254,0
1542735077.370,88.867,34.180,22.461,-29.785,59.570,0
1542735077.374,82.520,22.461,27.344,-13.672,67.871,0
1542735077.378,79.102,9.766,43.457,23.438,6.836,0
1542735077.382,94.727,20.020,34.180,4.395,13.184,0
1542735077.385,98.145,34.180,20.508,-4.883,56.641,0
1542735077.389,55.176,23.926,28.809,23.926,50.293,0
1542735077.393,50.293,33.203,30.762,-22.461,28.320,0
1542735077.397,62.988,29.297,36.133,15.137,39.062,0
1542735077.401,80.566,11.230,33.203,35.156,45.898,0
1542735077.405,71.777,12.207,25.879,31.250,45.898,0
1542735077.409,71.777,32.715,25.879,-17.090,54.688,0
1542735077.413,82.031,36.133,35.156,-3.418,53.223,0
1542735077.417,58.105,15.625,40.039,58.105,15.137,0
1542735077.421,95.703,35.156,32.715,47.852,20.508,0
1542735077.425,82.031,31.250,14.648,29.785,59.082,0
1542735077.428,23.438,3.418,12.207,24.414,41.504,0
1542735077.432,32.715,26.855,35.156,47.852,17.090,0
1542735077.436,80.566,28.320,39.551,18.066,51.758,0
1542735077.440,92.285,17.578,32.715,41.504,60.547,0
1542735077.444,48.340,33.691,25.879,95.703,28.809,0
1542735077.448,39.062,37.598,28.809,82.031,-4.883,0
1542735077.452,59.082,29.297,32.227,85.938,37.109,0
1542735077.456,112.793,32.227,15.625,67.871,89.844,0
1542735077.460,56.152,15.625,18.555,74.219,84.473,0
1542735077.464,21.484,17.090,32.227,91.309,46.875,0
1542735077.467,79.590,39.062,31.250,60.059,38.086,0
1542735077.471,90.332,34.180,30.273,73.730,83.984,0
1542735077.475,105.469,20.996,23.438,86.914,21.484,0
1542735077.479,109.863,20.508,23.926,25.879,28.809,0
1542735077.483,75.684,24.902,31.250,41.992,88.867,0
1542735077.487,82.031,35.645,11.719,87.402,31.250,0
1542735077.491,73.242,37.109,5.371,72.266,24.902,0
1542735077.495,93.262,28.809,19.043,90.332,94.238,0
1542735077.499,119.141,24.902,20.996,99.121,95.215,0
1542735077.503,56.641,21.484,22.949,103.516,-28.320,0
1542735077.507,50.781,16.113,14.160,51.270,0.488,0
1542735077.510,102.051,14.160,8.301,12.695,90.820,0
1542735077.514,71.777,25.391,22.461,52.246,60.547,0
1542735077.518,27.832,22.461,16.113,43.457,13.672,0
1542735077.522,67.383,21.973,9.277,37.598,30.273,0
1542735077.526,53.711,25.879,20.996,67.871,62.500,0
1542735077.530,-9.766,15.137,21.973,81.543,28.320,0
1542735077.534,0.000,15.137,20.020,2.930,40.527,0
1542735077.538,13.672,25.391,10.742,-36.621,25.391,0
1542735077.542,39.062,35.156,13.672,-8.789,28.320,0
1542735077.546,26.367,22.461,26.855,33.203,20.508,0
1542735077.550,16.113,17.090,23.926,104.980,-31.738,0
1542735077.553,40.039,35.645,13.672,75.195,16.602,0
1542735077.557,20.508,38.574,7.324,-34.668,108.887,0
1542735077.561,-1.465,22.949,14.648,4.883,47.363,0
1542735077.565,18.555,14.648,26.367,45.898,-20.508,0
1542735077.569,41.992,23.438,21.973,-13.672,48.340,0
1542735077.573,17.578,32.227,14.648,-27.832,78.125,0
1542735077.577,-2.930,25.391,14.648,34.668,37.109,0
1542735077.581,-20.996,-2.930,-7.324,49.316,44.434,0
1542735077.585,-11.719,11.719,7.324,25.879,36.621,0
1542735077.589,-2.930,44.922,26.367,20.508,1.465,0
1542735077.592,16.113,41.992,19.531,28.320,35.156,0
1542735077.596,-1.465,25.391,23.438,34.668,-0.977,0
1542735077.600,0.488,21.973,22.949,49.805,-7.324,0
1542735077.604,33.203,23.926,18.066,65.918,10.742,0
1542735077.608,-11.230,26.367,18.555,24.902,12.695,0
1542735077.612,6.836,16.113,28.320,69.336,22.949,0
1542735077.616,18.555,25.391,17.090,39.551,23.438,0
1542735077.620,-3.906,33.203,30.273,-0.977,60.059,0
1542735077.624,-14.160,10.254,43.457,44.434,13.672,0
1542735077.628,-58.594,2.930,36.621,44.434,22.461,0
1542735077.632,-53.711,2.930,38.574,38.086,64.453,0
1542735077.635,-8.789,4.395,39.551,30.762,62.012,0
1542735077.639,-23.438,0.000,35.156,19.531,34.668,0
1542735077.643,-41.992,3.418,34.668,-17.090,26.855,0
1542735077.647,-23.926,10.254,37.109,13.672,40.527,0
1542735077.651,-38.574,8.789,36.621,13.672,30.762,0
1542735077.655,-55.664,-9.277,42.969,14.160,31.250,0
1542735077.659,-51.270,4.395,35.156,24.902,58.594,0
1542735077.663,-35.156,19.531,18.066,-23.438,45.898,0
1542735077.667,1.953,8.789,27.832,-14.160,-12.695,0
1542735077.671,13.672,7.812,26.855,-19.531,48.828,0
1542735077.675,-6.348,13.184,20.020,-0.488,79.590,0
1542735077.678,-33.691,11.230,34.180,48.340,20.508,0
1542735077.682,-41.992,12.207,31.738,34.668,84.961,0
1542735077.686,-5.859,13.672,28.809,10.742,140.625,0
1542735077.690,35.645,8.789,27.832,20.996,106.934,0
1542735077.694,34.668,18.555,22.949,-3.906,30.273,0
1542735077.698,39.551,21.484,30.273,29.785,-3.906,0
1542735077.702,39.551,27.832,33.203,6.836,41.016,0
1542735077.706,41.992,29.297,27.832,-36.621,62.500,0
1542735077.710,75.195,10.742,20.996,-59.570,65.918,0
1542735077.714,41.992,10.742,34.668,-40.039,64.941,0
1542735077.717,6.836,33.691,31.250,-2.930,36.133,0
1542735077.721,43.457,22.461,23.926,-18.555,23.438,0
1542735077.725,63.965,17.090,31.250,-21.973,45.410,0
1542735077.729,37.109,16.113,19.043,-12.695,50.293,0
1542735077.733,67.871,18.066,13.184,25.391,22.461,0
1542735077.737,68.359,23.926,22.461,-12.207,-5.371,0
1542735077.741,10.254,16.602,31.738,-103.516,-8.301,0
1542735077.745,-20.508,20.020,21.484,-112.305,9.766,0
1542735077.749,-10.742,22.461,17.090,-94.238,55.664,0
1542735077.753,29.297,24.902,20.996,-62.988,72.266,0
1542735077.757,52.734,18.555,17.578,-32.227,46.387,0
1542735077.760,41.992,18.555,19.531,-67.383,15.625,0
1542735077.764,19.531,13.184,32.227,-39.062,32.227,0
1542735077.768,12.695,12.207,34.668,-0.488,70.312,0
1542735077.772,66.406,33.691,13.184,-42.969,11.719,0
1542735077.776,72.266,41.504,6.836,-78.125,17.090,0
1542735077.780,-0.488,48.340,13.672,-20.508,9.766,0
1542735077.784,35.645,63.477,-4.395,-15.137,-1.465,0
1542735077.788,55.664,66.406,-16.113,-26.855,70.801,0
1542735077.792,15.625,62.012,-18.555,-39.062,35.156,0
1542735077.796,66.895,81.543,-28.809,-81.543,11.230,0
1542735077.800,69.824,81.055,-36.621,-106.934,46.875,0
1542735077.803,30.273,64.453,-32.715,-51.758,57.129,0
1542735077.807,16.602,71.289,-22.461,4.883,27.832,0
1542735077.811,11.719,78.613,-24.902,-53.711,12.695,0
1542735077.815,37.109,62.988,-23.926,-15.137,41.504,0
1542735077.819,31.738,54.688,-10.742,70.312,65.918,0
1542735077.823,9.766,69.824,-10.254,-0.488,58.594,0
1542735077.827,20.508,66.406,-14.648,-57.617,44.434,0
1542735077.831,23.926,65.918,-14.648,-2.441,26.855,0
1542735077.835,50.781,64.941,-19.531,9.277,39.551,0
1542735077.839,37.109,61.523,-8.789,13.184,29.785,0
1542735077.842,43.945,75.195,-0.488,63.965,5.859,0
1542735077.846,38.086,69.824,-12.207,21.973,-29.785,0
1542735077.850,39.062,61.035,-14.648,5.859,-32.715,0
1542735077.854,77.637,54.199,0.488,33.203,-14.648,0
1542735077.858,24.902,49.805,2.930,56.152,-9.766,0
1542735077.862,-22.949,62.500,0.977,40.527,45.410,0
1542735077.866,25.879,53.711,9.277,9.277,65.430,0
1542735077.870,21.484,38.574,10.254,43.945,44.434,0
1542735077.874,48.340,59.570,9.766,84.473,26.855,0
1542735077.878,20.508,60.547,10.254,75.684,-16.113,0
1542735077.882,-21.973,48.828,3.906,2.441,0.000,0
1542735077.885,4.883,47.363,10.254,2.441,44.434,0
1542735077.889,14.160,52.246,6.348,18.555,11.719,0
1542735077.893,12.207,47.363,6.836,16.602,-24.414,0
1542735077.897,-3.418,41.504,24.902,-5.859,28.809,0
1542735077.901,-8.301,41.016,19.043,-9.766,48.340,0
1542735077.905,29.785,34.668,6.348,7.812,18.066,0
1542735077.909,-1.953,38.086,15.137,-10.742,68.848,0
1542735077.913,-65.430,34.180,19.531,-44.434,35.645,0
1542735077.917,-54.199,35.156,15.137,-67.383,11.719,0
1542735077.921,-37.109,42.969,12.207,-28.320,46.387,0
1542735077.925,-45.410,47.852,7.324,-18.066,34.180,0
1542735077.928,-74.707,44.922,4.395,-46.875,29.297,0
1542735077.932,-68.848,26.855,16.602,-59.082,-2.441,0
1542735077.936,-50.781,37.109,17.578,-51.270,35.156,0
1542735077.940,-57.617,42.969,10.742,-44.922,42.969,0
1542735077.944,-45.898,44.434,8.789,-46.387,59.570,0
1542735077.948,-14.648,41.016,15.625,-52.734,82.031,0
1542735077.952,-10.742,29.785,22.949,-27.344,52.734,0
1542735077.956,-48.340,40.527,20.996,-4.395,6.836,0
1542735077.960,-60.547,40.039,20.508,-57.617,-16.113,0
1542735077.964,-5.859,35.645,19.531,-84.473,34.668,0
1542735077.967,7.324,28.320,19.043,-87.891,77.637,0
1542735077.971,-22.949,36.133,11.719,-92.285,99.609,0
1542735077.975,-21.484,38.574,12.695,-69.824,54.688,0
1542735077.979,-7.324,27.344,16.602,12.207,-19.043,0
1542735077.983,5.859,24.414,22.461,-23.438,2.930,0
1542735077.987,2.930,19.531,18.555,-127.441,58.594,0
1542735077.991,-21.973,28.809,12.695,-93.750,35.156,0
1542735077.995,10.742,30.273,16.602,-56.152,12.695,0
1542735077.999,-8.789,19.531,20.508,-55.664,-15.625,0
1542735078.003,-31.738,32.715,16.602,-108.887,18.066,0
1542735078.007,-16.113,30.273,21.484,-95.703,55.664,0
1542735078.010,-1.465,31.250,28.320,-48.340,38.574,0
1542735078.014,0.488,29.785,20.508,-29.785,44.434,0
1542735078.018,-29.785,28.320,5.371,-29.785,14.648,0
1542735078.022,-40.527,32.227,6.348,0.000,-26.367,0
1542735078.026,-45.410,32.715,19.043,-37.598,0.000,0
1542735078.030,-62.012,24.414,28.320,-99.609,-6.348,0
1542735078.034,-57.129,31.738,28.809,-97.168,29.297,0
1542735078.038,-45.410,37.598,14.160,-49.805,75.684,0
1542735078.042,-45.410,28.809,14.648,4.395,-3.906,0
1542735078.046,-50.781,34.180,15.625,-23.438,8.789,0
1542735078.050,-59.082,38.574,17.090,-47.363,15.625,0
1542735078.053,-50.781,34.180,30.273,-42.969,-26.367,0
1542735078.057,-66.895,25.879,22.461,-59.082,42.969,0
1542735078.061,-60.059,31.250,16.113,-37.109,41.016,0
1542735078.065,-29.297,51.758,15.137,-54.688,18.066,0
1542735078.069,-96.191,43.945,16.113,-79.590,15.137,0
1542735078.073,-85.938,40.039,16.602,-68.359,5.371,0
1542735078.077,-36.133,39.062,22.949,-86.914,29.785,0
1542735078.081,-48.340,42.480,28.809,-99.609,11.230,0
1542735078.085,-80.078,48.340,20.020,-87.402,21.973,0
1542735078.089,-100.098,40.039,21.484,-103.027,54.688,0
1542735078.092,-64.453,45.898,20.508,-104.980,1.465,0
1542735078.096,-2.441,40.039,21.484,-109.375,-25.879,0
1542735078.100,-40.039,30.273,34.180,-105.957,44.922,0
1542735078.104,-62.988,43.457,26.367,-75.195,96.191,0
1542735078.108,-38.086,47.852,20.508,-50.293,104.004,0
1542735078.112,-29.785,38.574,21.484,-107.422,73.730,0
1542735078.116,-48.828,41.504,22.461,-123.535,33.203,0
1542735078.120,-53.223,41.016,22.949,-72.266,29.785,0
1542735078.124,-8.301,40.527,12.695,-109.863,45.410,0
1542735078.128,-11.719,39.551,5.859,-91.309,26.367,0
1542735078.132,-43.945,32.715,21.484,-47.852,0.488,0
1542735078.135,-22.461,37.109,31.738,-61.035,34.668,0
1542735078.139,20.996,35.156,30.762,-66.406,70.801,0
1542735078.143,22.949,35.645,37.109,-84.473,77.637,0
1542735078.147,0.000,36.133,35.156,-43.457,91.797,0
1542735078.151,-1.953,34.180,26.855,-42.969,116.211,0
1542735078.155,-31.738,38.086,29.297,-62.012,94.238,0
1542735078.159,-16.113,40.527,22.949,-75.684,12.695,0
1542735078.163,3.418,38.086,24.414,-90.332,-8.789,0
1542735078.167,-56.641,30.273,34.180,-46.875,50.293,0
1542735078.171,-44.434,36.621,29.297,-53.711,38.086,0
1542735078.175,-31.250,41.504,32.227,-75.195,2.441,0
1542735078.178,-50.781,41.016,32.715,-69.336,-11.719,0
1542735078.182,-45.898,41.504,28.809,-103.516,64.941,0
1542735078.186,-65.430,36.621,26.855,-136.719,54.199,0
1542735078.190,-79.102,39.551,27.832,-122.070,48.828,0
1542735078.194,-131.348,34.668,30.762,-95.703,93.262,0
1542735078.198,-146.973,27.344,18.555,-132.324,43.457,0
1542735078.202,-125.488,37.598,21.973,-186.523,25.391,0
1542735078.206,-125.488,37.109,38.086,-175.781,57.129,0
1542735078.210,-181.641,36.133,33.691,-119.629,104.492,0
1542735078.214,-245.117,43.457,25.391,-165.039,42.969,0
1542735078.217,-256.348,43.945,26.367,-248.535,31.250,0
1542735078.221,-254.883,35.645,31.738,-242.188,30.273,0
1542735078.225,-289.551,30.762,40.527,-238.770,-13.184,0
1542735078.229,-310.059,26.855,38.086,-262.207,-24.902,0
1542735078.233,-319.336,36.621,19.531,-266.602,-20.996,0
1542735078.237,-375.000,42.480,35.645,-267.578,31.738,0
1542735078.241,-450.684,19.043,56.152,-300.293,38.086,0
1542735078.245,-469.727,12.695,40.527,-380.859,14.648,0
1542735078.249,-475.098,16.602,49.316,-442.383,39.062,0
1542735078.253,-514.648,17.090,65.430,-448.242,60.059,0
1542735078.257,-570.801,18.066,64.453,-440.430,55.664,0
1542735078.260,-617.676,5.859,66.406,-481.934,74.707,0
1542735078.264,-618.652,-3.418,72.754,-512.207,100.586,0
1542735078.268,-643.555,0.977,71.289,-550.293,71.289,0
1542735078.272,-681.641,-10.742,76.172,-625.977,63.477,0
1542735078.276,-680.664,-6.836,77.637,-618.652,88.867,0
1542735078.280,-709.473,3.906,69.336,-618.652,48.340,0
1542735078.284,-770.508,2.441,64.453,-690.918,34.668,0
1542735078.288,-751.953,8.301,62.988,-789.551,58.594,0
1542735078.292,-707.031,5.859,58.594,-916.992,33.203,0
1542735078.296,-662.598,-2.930,48.828,-975.586,15.625,0
1542735078.300,-592.285,-1.465,55.176,-965.820,42.480,0
1542735078.303,-531.738,11.230,48.340,-961.914,33.203,0
1542735078.307,-453.125,7.812,39.062,-850.586,0.488,0
1542735078.311,-351.074,8.301,48.828,-721.191,62.988,0
1542735078.315,-312.500,10.254,44.922,-611.816,27.344,0
1542735078.319,-270.996,12.695,37.598,-496.094,-20.996,0
1542735078.323,-204.102,14.160,34.668,-436.523,26.367,0
1542735078.327,-143.555,15.137,23.438,-339.844,49.805,0
1542735078.331,-138.672,22.461,23.438,-248.047,43.457,0
1542735078.335,-100.098,16.113,33.691,-219.238,12.695,0
1542735078.339,-32.715,15.137,40.527,-163.086,2.930,0
1542735078.342,-43.457,21.484,45.898,-118.164,33.203,0
1542735078.346,-23.438,22.949,45.898,-112.793,43.945,0
1542735078.350,-34.668,20.508,36.621,-123.047,15.137,0
1542735078.354,-36.621,25.391,34.180,-100.098,-17.578,0
1542735078.358,1.953,34.668,34.668,-53.223,-11.230,0
1542735078.362,63.477,29.785,24.902,20.996,39.062,0
1542735078.366,62.500,37.109,26.855,10.254,36.621,0
1542735078.370,-15.625,42.969,33.691,-34.180,15.625,0
1542735078.374,39.551,37.109,31.738,13.672,7.324,0
1542735078.378,53.223,41.016,31.738,20.996,10.254,0
1542735078.382,38.086,41.992,36.133,36.621,12.207,0
1542735078.385,73.730,40.527,36.621,82.031,8.301,0
1542735078.389,95.703,36.133,37.598,86.426,-2.930,0
1542735078.393,57.129,28.809,33.691,50.293,5.859,0
1542735078.397,33.691,38.086,20.996,95.215,37.109,0
1542735078.401,94.727,47.363,20.020,150.879,34.180,0
1542735078.405,127.441,32.227,25.879,114.746,9.277,0
1542735078.409,101.074,22.461,36.621,99.121,-14.160,0
1542735078.413,94.238,38.086,34.668,70.801,10.254,0
1542735078.417,112.305,44.922,25.879,101.562,24.414,0
1542735078.421,131.836,35.156,27.832,157.227,60.059,0
1542735078.425,100.586,25.391,40.527,156.250,66.895,0
1542735078.428,94.238,24.902,44.434,131.836,48.828,0
1542735078.432,128.906,31.738,41.504,110.352,47.363,0
1542735078.436,128.906,40.527,38.574,139.160,12.207,0
1542735078.440,144.043,39.551,40.039,187.988,-6.348,0
1542735078.444,139.160,36.133,39.062,192.871,8.301,0
1542735078.448,139.648,41.504,37.598,179.688,56.152,0
1542735078.452,124.512,47.852,40.527,126.465,66.895,0
1542735078.456,139.160,49.805,36.133,83.008,33.203,0
1542735078.460,156.738,44.434,37.109,105.469,80.566,0
1542735078.464,111.816,33.691,49.805,168.945,77.148,0
1542735078.467,144.531,42.480,48.828,189.941,41.992,0
1542735078.471,158.203,47.852,47.363,123.047,36.621,0
1542735078.475,131.348,45.410,57.129,153.320,71.289,0
1542735078.479,138.672,59.570,56.152,159.668,68.359,0
1542735078.483,129.883,66.406,64.941,110.840,54.688,0
1542735078.487,80.566,54.199,67.871,128.418,34.668,0
1542735078.491,74.707,54.199,47.363,144.043,46.387,0
1542735078.495,71.289,80.078,44.434,87.402,75.684,0
1542735078.499,45.410,104.492,63.965,26.367,27.832,0
1542735078.503,22.949,132.812,94.727,-8.301,-5.371,0
1542735078.507,-19.043,169.434,118.652,-50.293,-36.621,0
1542735078.510,-62.012,190.918,129.883,-73.730,30.762,0
1542735078.514,-80.566,191.406,144.531,-121.582,78.125,0
1542735078.518,-118.652,192.383,166.016,-164.062,48.340,0
1542735078.522,-177.246,194.336,197.754,-189.941,13.672,0
1542735078.526,-199.707,191.895,208.496,-236.328,6.348,0
1542735078.530,-211.426,192.871,210.938,-245.605,25.879,0
1542735078.534,-198.730,183.105,217.773,-230.469,35.156,0
1542735078.538,-184.570,170.898,217.773,-207.031,17.090,0
1542735078.542,-186.523,163.086,212.891,-213.379,11.230,0
1542735078.546,-182.129,162.598,191.895,-181.152,73.730,0
1542735078.550,-135.742,157.227,174.316,-109.863,34.668,0
1542735078.553,-71.289,141.113,167.480,-94.238,-5.859,0
1542735078.557,-60.059,133.789,146.484,-76.172,43.945,0
1542735078.561,-68.359,123.535,119.629,-64.453,29.785,0
1542735078.565,-51.758,104.492,106.445,-71.289,22.949,0
1542735078.569,5.859,97.656,100.098,-21.973,55.176,0
1542735078.573,33.691,100.098,84.961,56.152,26.855,0
1542735078.577,39.062,86.426,65.918,62.500,11.719,0
1542735078.581,88.379,68.848,54.688,75.195,64.941,0
1542735078.585,110.352,56.641,29.785,126.953,88.379,0
1542735078.589,87.891,44.922,23.438,115.234,97.168,0
1542735078.592,80.566,30.273,27.832,104.492,80.566,0
1542735078.596,134.277,19.531,20.020,135.254,93.750,0
1542735078.600,177.734,20.996,8.301,170.410,73.242,0
1542735078.604,191.895,21.484,0.000,180.176,-1.953,0
1542735078.608,212.402,15.137,-6.836,223.145,46.875,0
1542735078.612,215.820,2.441,-8.301,233.887,66.895,0
1542735078.616,232.910,-7.324,-13.184,223.145,-7.812,0
1542735078.620,223.633,-9.277,-29.297,208.008,37.598,0
1542735078.624,214.844,-9.766,-33.203,233.887,94.238,0
1542735078.628,228.516,-7.812,-33.691,250.977,12.695,0
1542735078.632,241.211,-18.066,-36.133,259.766,14.160,0
1542735078.635,234.375,-23.438,-29.785,304.199,41.016,0
1542735078.639,215.332,-18.066,-38.086,245.605,55.664,0
1542735078.643,228.027,-22.461,-36.133,227.051,75.195,0
1542735078.647,242.676,-24.902,-29.297,227.051,33.203,0
1542735078.651,257.324,-23.438,-42.480,252.930,-2.930,0
1542735078.655,254.883,-27.344,-48.828,289.551,-8.789,0
1542735078.659,263.184,-30.273,-31.738,278.320,37.109,0
1542735078.663,272.949,-20.996,-32.715,252.930,93.750,0
1542735078.667,259.766,-19.531,-40.039,264.160,80.566,0
1542735078.671,287.598,-26.855,-42.969,309.570,21.484,0
1542735078.675,235.840,-30.273,-43.945,281.738,90.332,0
1542735078.678,186.035,-34.180,-47.852,286.621,130.859,0
1542735078.682,232.910,-25.879,-46.875,260.742,26.855,0
1542735078.686,235.352,-21.973,-38.086,219.238,-7.812,0
1542735078.690,230.469,-21.973,-36.621,248.047,48.340,0
1542735078.694,226.562,-18.066,-36.621,265.137,67.871,0
1542735078.698,228.516,-23.926,-33.691,264.648,38.086,0
1542735078.702,221.191,-29.785,-24.902,241.211,-9.766,0
1542735078.706,238.770,-22.949,-23.438,250.977,6.836,0
1542735078.710,213.379,-11.719,-34.180,264.648,31.250,0
1542735078.714,176.270,-14.648,-32.715,258.301,-10.742,0
1542735078.717,195.801,-28.320,-18.066,278.320,8.301,0
1542735078.721,197.266,-19.043,-20.996,229.004,44.922,0
1542735078.725,197.754,-10.742,-23.438,206.543,65.918,0
1542735078.729,178.223,-10.742,-20.996,195.312,46.387,0
1542735078.733,187.500,-6.836,-21.973,190.918,-14.160,0
1542735078.737,167.480,-10.254,-17.578,238.281,17.090,0
1542735078.741,166.504,-6.836,-20.996,194.336,-5.371,0
1542735078.745,184.570,-4.883,-16.113,172.363,-5.371,0
1542735078.749,157.715,-3.418,-9.277,196.777,43.457,0
1542735078.753,157.715,-4.883,-12.207,184.082,-17.090,0
1542735078.757,161.133,-7.812,-12.207,180.664,14.648,0
1542735078.760,150.879,-0.488,-11.719,158.691,68.848,0
1542735078.764,146.484,-2.930,-5.859,138.672,43.457,0
1542735078.768,130.371,0.488,-7.324,149.902,21.973,0
1542735078.772,103.027,5.859,-14.648,139.648,23.926,0
1542735078.776,118.164,0.977,-3.418,172.363,-8.301,0
1542735078.780,133.789,5.371,10.254,189.941,34.180,0
1542735078.784,175.781,6.348,11.230,186.035,43.945,0
1542735078.788,183.594,12.695,4.883,146.973,38.574,0
1542735078.792,107.910,10.254,-2.930,84.961,70.801,0
1542735078.796,68.359,-1.465,-4.883,91.309,24.414,0
1542735078.800,123.047,2.930,-6.348,119.141,33.691,0
1542735078.803,129.395,7.324,-3.906,135.742,25.879,0
1542735078.807,96.680,8.301,-1.953,124.512,-26.367,0
1542735078.811,78.125,9.277,-2.441,100.586,17.578,0
1542735078.815,46.875,7.812,1.953,126.953,20.508,0
1542735078.819,100.586,7.812,10.742,117.676,3.906,0
1542735078.823,141.602,7.812,11.719,103.027,67.383,0
1542735078.827,97.656,10.742,13.184,83.496,68.848,0
1542735078.831,65.430,17.578,14.160,101.562,75.195,0
1542735078.835,71.777,20.020,13.184,104.980,42.969,0
1542735078.839,66.895,10.254,15.625,77.148,42.969,0
