timestamps,TP9,AF7,AF8,TP10,Right AUX,Marker0
1542738227.246,-2.930,58.594,88.867,37.598,43.945,0
1542738227.250,-8.789,48.828,91.309,35.156,9.766,0
1542738227.254,-3.906,0.000,78.613,36.621,25.879,0
1542738227.258,6.836,-11.230,87.402,48.340,69.336,0
1542738227.262,0.000,-4.395,94.727,40.527,61.035,0
1542738227.266,8.789,12.695,90.332,37.109,32.715,0
1542738227.270,12.207,29.785,90.332,35.645,26.367,0
1542738227.274,11.230,18.066,90.332,31.250,53.223,0
1542738227.278,25.391,13.672,90.820,48.828,68.848,0
1542738227.282,16.602,17.578,88.379,62.012,23.438,0
1542738227.285,20.508,39.551,90.332,66.895,-9.766,0
1542738227.289,32.715,55.176,101.074,63.477,-7.324,0
1542738227.293,9.277,20.508,87.891,45.410,14.648,0
1542738227.297,3.906,-7.812,73.242,40.039,33.203,0
1542738227.301,9.766,-0.488,76.660,47.363,16.113,0
1542738227.305,16.602,14.648,79.102,51.758,61.035,0
1542738227.309,27.832,24.414,80.078,55.176,66.406,0
1542738227.313,29.297,31.738,80.566,60.059,31.738,0
1542738227.317,37.109,34.180,84.473,60.547,28.320,0
1542738227.321,36.621,29.297,83.496,41.016,25.879,0
1542738227.324,37.598,49.805,90.820,55.664,78.125,0
1542738227.328,37.598,66.895,95.703,74.219,47.363,0
1542738227.332,28.809,33.203,78.613,48.828,6.348,0
1542738227.336,29.785,10.742,71.289,41.016,-5.859,0
1542738227.340,27.832,11.230,79.102,58.594,16.602,0
1542738227.344,28.809,18.066,80.078,61.035,33.203,0
1542738227.348,30.762,27.344,74.219,44.434,9.766,0
1542738227.352,28.320,29.297,74.707,46.387,18.066,0
1542738227.356,26.367,31.250,73.730,58.105,-30.762,0
1542738227.360,25.391,26.855,72.754,62.500,-43.945,0
1542738227.364,33.203,34.180,80.078,66.406,41.992,0
1542738227.367,42.969,60.059,82.031,58.105,63.965,0
1542738227.371,20.996,45.410,69.336,41.992,31.738,0
1542738227.375,2.930,18.555,60.547,36.621,26.855,0
1542738227.379,2.441,12.207,59.082,31.250,83.496,0
1542738227.383,8.301,20.996,55.176,38.574,62.500,0
1542738227.387,8.789,21.973,57.129,43.457,19.531,0
1542738227.391,-2.930,12.207,59.082,26.367,2.441,0
1542738227.395,-9.277,20.020,53.711,14.648,8.301,0
1542738227.399,0.488,33.203,47.363,19.043,22.461,0
1542738227.403,4.395,28.809,41.504,24.414,4.395,0
1542738227.407,-7.812,15.625,38.574,26.367,43.457,0
1542738227.410,-0.488,35.156,47.852,39.062,73.730,0
1542738227.414,16.113,54.199,51.758,41.016,42.480,0
1542738227.418,24.902,36.133,36.133,43.457,9.766,0
1542738227.422,1.953,15.625,44.922,23.438,2.441,0
1542738227.426,-37.109,5.371,57.617,-13.184,22.949,0
1542738227.430,-10.254,9.766,62.012,20.508,21.484,0
1542738227.434,7.324,21.484,65.918,43.457,-6.348,0
1542738227.438,1.953,17.578,62.988,23.438,6.348,0
1542738227.442,8.789,8.789,56.152,22.949,41.992,0
1542738227.446,2.930,15.137,45.898,29.297,43.945,0
1542738227.449,12.207,23.438,46.875,36.621,48.828,0
1542738227.453,9.766,23.438,51.758,49.316,29.785,0
1542738227.457,18.555,41.016,62.500,62.988,41.504,0
1542738227.461,24.902,47.852,62.988,61.523,34.180,0
1542738227.465,4.883,27.344,55.176,27.344,9.277,0
1542738227.469,8.301,18.066,51.270,15.137,86.426,0
1542738227.473,15.625,15.137,46.387,31.738,88.867,0
1542738227.477,8.301,17.090,47.852,30.273,20.020,0
1542738227.481,4.883,19.043,51.758,30.273,-10.742,0
1542738227.485,19.043,30.762,52.246,43.945,40.039,0
1542738227.489,25.879,38.086,50.293,58.105,85.449,0
1542738227.492,20.508,32.227,50.293,44.922,17.578,0
1542738227.496,17.090,29.785,43.457,30.762,-5.371,0
1542738227.500,20.996,47.363,48.340,46.387,25.879,0
1542738227.504,20.020,57.129,47.852,50.293,48.828,0
1542738227.508,8.301,33.203,31.738,32.227,45.898,0
1542738227.512,23.926,16.602,32.715,34.180,13.672,0
1542738227.516,21.484,8.301,35.156,44.922,-6.348,0
1542738227.520,15.625,12.695,38.086,47.852,14.160,0
1542738227.524,24.414,28.809,44.434,56.641,69.824,0
1542738227.528,24.414,37.109,48.340,51.270,54.688,0
1542738227.532,20.508,41.016,40.527,36.133,7.324,0
1542738227.535,22.949,38.574,34.668,43.945,25.879,0
1542738227.539,28.809,34.668,38.086,54.688,23.926,0
1542738227.543,19.043,35.645,41.504,54.688,-11.719,0
1542738227.547,17.578,38.086,42.480,58.105,0.977,0
1542738227.551,29.297,56.152,44.434,55.664,12.695,0
1542738227.555,18.555,47.852,40.527,39.062,20.996,0
1542738227.559,11.230,14.160,28.320,44.434,30.762,0
1542738227.563,21.484,5.371,27.832,57.129,15.137,0
1542738227.567,14.648,14.160,34.668,43.945,1.465,0
1542738227.571,15.137,23.438,41.992,42.480,9.277,0
1542738227.574,19.531,32.227,38.574,44.434,46.875,0
1542738227.578,20.508,31.738,30.762,39.551,68.359,0
1542738227.582,20.508,31.738,26.855,33.203,34.668,0
1542738227.586,1.953,29.297,29.785,24.414,-3.906,0
1542738227.590,12.695,3.906,39.551,56.152,-14.160,0
1542738227.594,58.105,17.578,43.457,105.469,-9.277,0
1542738227.598,33.691,62.988,31.250,55.664,34.668,0
1542738227.602,-11.719,52.246,13.184,-3.418,56.641,0
1542738227.606,-10.742,36.621,2.930,-0.488,34.668,0
1542738227.610,10.742,42.480,0.000,14.648,25.879,0
1542738227.614,39.551,53.223,-10.742,36.621,59.570,0
1542738227.617,40.527,62.988,-17.578,36.133,85.449,0
1542738227.621,26.855,67.383,-9.766,27.344,67.871,0
1542738227.625,18.066,62.012,-5.859,37.109,83.984,0
1542738227.629,16.602,50.781,-0.488,31.738,4.395,0
1542738227.633,26.367,49.316,-1.465,22.461,-21.484,0
1542738227.637,20.996,54.688,-2.930,30.762,66.895,0
1542738227.641,20.020,47.852,3.418,28.320,59.570,0
1542738227.645,30.273,44.434,4.883,28.320,18.555,0
1542738227.649,34.180,42.969,2.441,32.227,25.391,0
1542738227.653,36.133,50.293,2.441,42.969,64.453,0
1542738227.657,33.691,72.266,4.395,43.945,83.984,0
1542738227.660,27.344,62.988,4.395,33.203,-8.301,0
1542738227.664,23.926,36.621,-2.441,37.109,-22.461,0
1542738227.668,18.066,26.855,-13.184,28.809,26.367,0
1542738227.672,9.766,28.320,-17.578,16.602,12.695,0
1542738227.676,12.695,27.832,-12.695,20.020,24.902,0
1542738227.680,16.113,34.180,-3.906,26.367,87.891,0
1542738227.684,20.020,32.715,0.977,28.320,39.062,0
1542738227.688,21.484,31.250,4.883,29.297,-15.137,0
1542738227.692,19.043,29.785,0.000,29.297,13.672,0
1542738227.696,29.297,47.852,1.465,41.992,41.504,0
1542738227.699,29.785,69.336,8.789,43.457,57.129,0
1542738227.703,17.578,42.969,5.859,18.555,20.020,0
1542738227.707,13.672,18.066,7.812,13.672,68.359,0
1542738227.711,4.395,25.391,12.207,20.508,45.898,0
1542738227.715,9.766,38.086,17.578,20.020,12.207,0
1542738227.719,11.230,41.504,19.043,22.461,72.266,0
1542738227.723,10.254,38.574,17.578,19.531,47.852,0
1542738227.727,11.230,33.203,20.508,14.648,77.637,0
1542738227.731,6.348,29.785,20.020,14.160,78.125,0
1542738227.735,11.230,32.227,21.973,27.832,3.418,0
1542738227.739,8.789,41.504,24.902,23.438,-18.555,0
1542738227.742,11.719,56.152,32.715,19.043,1.465,0
1542738227.746,12.207,71.289,39.062,25.391,6.348,0
1542738227.750,7.324,58.105,32.227,12.207,37.109,0
1542738227.754,-4.883,36.621,29.297,-0.488,87.402,0
1542738227.758,-8.789,25.391,27.344,5.859,63.477,0
1542738227.762,3.418,25.879,38.574,22.949,-16.113,0
1542738227.766,-0.977,37.598,45.898,19.043,-14.160,0
1542738227.770,6.348,56.641,58.105,20.020,83.984,0
1542738227.774,3.418,67.871,58.105,15.625,57.617,0
1542738227.778,-8.789,71.777,55.176,13.184,-1.465,0
1542738227.782,-34.668,74.219,60.059,-14.160,-4.395,0
1542738227.785,-80.566,75.195,58.594,-65.430,0.488,0
1542738227.789,-105.957,105.957,83.984,-84.961,23.438,0
1542738227.793,-140.625,146.973,111.816,-134.766,36.133,0
1542738227.797,-199.219,160.156,122.070,-184.082,62.500,0
1542738227.801,-248.047,164.062,130.371,-219.727,87.402,0
1542738227.805,-288.574,179.199,136.719,-283.203,52.734,0
1542738227.809,-325.195,206.543,140.137,-318.848,8.789,0
1542738227.813,-343.262,222.656,146.484,-325.684,27.832,0
1542738227.817,-352.539,225.098,160.645,-341.797,47.363,0
1542738227.821,-353.027,231.445,160.645,-350.586,21.973,0
1542738227.824,-330.566,233.887,155.762,-323.242,-28.320,0
1542738227.828,-313.477,229.004,157.715,-292.480,14.160,0
1542738227.832,-294.922,224.609,160.156,-277.344,53.711,0
1542738227.836,-277.344,208.496,160.645,-261.719,28.320,0
1542738227.840,-260.742,208.496,160.645,-240.234,26.367,0
1542738227.844,-239.746,201.660,155.273,-222.656,27.344,0
1542738227.848,-216.309,161.621,146.484,-193.359,3.906,0
1542738227.852,-193.359,132.324,140.625,-165.527,15.625,0
1542738227.856,-174.316,115.723,132.324,-142.578,20.996,0
1542738227.860,-141.113,99.121,127.441,-98.145,57.129,0
1542738227.864,-95.215,94.238,123.047,-61.523,116.211,0
1542738227.867,-66.406,90.820,104.980,-51.758,86.426,0
1542738227.871,-61.035,62.988,83.496,-34.180,59.570,0
1542738227.875,-28.809,40.039,80.566,2.441,17.578,0
1542738227.879,9.277,29.297,74.219,41.016,-2.441,0
1542738227.883,9.766,15.625,58.105,41.504,50.293,0
1542738227.887,33.203,19.043,50.781,67.383,86.426,0
1542738227.891,62.500,14.160,38.086,100.098,55.664,0
1542738227.895,54.199,-21.973,28.809,96.191,57.129,0
1542738227.899,71.777,-42.969,21.973,117.676,53.711,0
1542738227.903,93.262,-50.781,7.324,140.137,47.852,0
1542738227.907,95.703,-60.059,-3.418,133.789,47.363,0
1542738227.910,116.699,-60.547,-10.742,148.438,76.172,0
1542738227.914,135.254,-52.246,-18.066,170.410,72.754,0
1542738227.918,139.160,-48.828,-23.438,174.316,20.508,0
1542738227.922,149.414,-38.574,-19.531,184.082,26.855,0
1542738227.926,161.621,-25.391,-15.625,193.359,39.062,0
1542738227.930,155.273,-46.387,-27.344,195.801,43.457,0
1542738227.934,161.133,-68.848,-31.738,203.613,27.832,0
1542738227.938,166.016,-64.941,-25.879,190.918,6.348,0
1542738227.942,161.133,-59.082,-25.879,179.688,26.855,0
1542738227.946,159.668,-54.199,-28.320,195.801,32.227,0
1542738227.949,151.367,-50.781,-24.414,194.336,7.324,0
1542738227.953,150.879,-52.734,-14.648,196.777,60.547,0
1542738227.957,162.109,-44.922,-14.160,200.195,58.105,0
1542738227.961,158.203,-41.992,-17.578,193.848,15.137,0
1542738227.965,161.133,-39.551,-10.742,198.242,24.414,0
1542738227.969,174.316,-17.578,-7.324,207.031,-9.277,0
1542738227.973,157.715,-15.137,-12.207,200.684,-31.250,0
1542738227.977,146.484,-31.250,-12.207,199.219,13.672,0
1542738227.981,152.832,-46.387,-7.812,188.965,35.645,0
1542738227.985,149.902,-49.316,-7.812,171.387,37.109,0
1542738227.989,149.414,-36.621,-8.301,169.922,14.160,0
1542738227.992,141.113,-37.598,-4.395,163.574,-44.922,0
1542738227.996,134.766,-36.621,-2.930,166.992,-15.625,0
1542738228.000,128.418,-31.738,-5.371,172.363,54.199,0
1542738228.004,134.277,-9.766,-1.465,176.270,37.109,0
1542738228.008,139.160,5.859,5.371,182.617,31.250,0
1542738228.012,135.254,-11.719,3.906,163.086,24.902,0
1542738228.016,134.277,-32.715,-2.930,142.578,67.383,0
1542738228.020,127.441,-31.738,-0.488,145.996,135.742,0
1542738228.024,127.930,-19.531,8.301,149.902,64.941,0
1542738228.028,120.117,-14.160,12.207,137.207,36.133,0
1542738228.032,108.887,-10.742,20.020,136.230,41.504,0
1542738228.035,107.910,-7.812,22.461,137.695,26.367,0
1542738228.039,97.656,-12.695,16.602,124.023,11.719,0
1542738228.043,94.238,8.301,18.555,126.953,24.902,0
1542738228.047,107.422,35.156,26.367,132.324,60.059,0
1542738228.051,92.285,18.066,25.391,120.117,49.805,0
1542738228.055,70.801,-14.160,25.391,105.957,44.922,0
1542738228.059,74.219,-18.066,26.367,97.656,43.945,0
1542738228.063,77.148,-8.301,23.926,97.656,63.477,0
1542738228.067,71.289,-4.395,23.926,90.332,66.406,0
1542738228.071,61.035,4.883,27.344,87.891,33.691,0
1542738228.074,62.012,4.395,29.297,88.867,24.902,0
1542738228.078,70.801,23.438,32.227,89.844,42.969,0
1542738228.082,64.453,48.340,36.133,91.309,34.668,0
1542738228.086,54.688,22.949,34.668,85.449,39.551,0
1542738228.090,56.152,-5.371,30.273,86.914,40.527,0
1542738228.094,64.941,-3.418,21.484,97.656,33.691,0
1542738228.098,45.410,4.883,22.949,69.336,-15.137,0
1542738228.102,18.555,7.324,37.109,37.598,-25.391,0
1542738228.106,28.809,10.254,50.781,60.059,17.578,0
1542738228.110,36.133,21.973,58.594,75.195,13.672,0
1542738228.114,26.367,28.809,51.270,60.547,-38.574,0
1542738228.117,25.879,10.254,40.527,58.594,22.949,0
1542738228.121,39.551,25.391,39.551,74.219,106.445,0
1542738228.125,41.504,50.293,39.062,76.172,12.695,0
1542738228.129,35.156,26.855,40.039,67.383,-13.184,0
1542738228.133,25.879,5.371,36.621,55.176,-4.395,0
1542738228.137,29.785,13.184,39.062,54.199,49.316,0
1542738228.141,38.086,22.949,48.828,68.359,72.266,0
1542738228.145,25.391,28.320,43.945,53.711,15.625,0
1542738228.149,27.344,37.109,35.645,45.898,-22.949,0
1542738228.153,40.039,48.340,42.480,62.012,-20.996,0
1542738228.157,34.180,42.480,43.457,62.012,59.570,0
1542738228.160,32.227,19.531,38.574,62.012,16.602,0
1542738228.164,30.273,12.695,35.645,51.758,-24.902,0
1542738228.168,29.297,17.578,40.039,44.434,14.648,0
1542738228.172,23.438,17.090,43.945,39.551,78.125,0
1542738228.176,20.020,33.691,45.898,43.457,88.867,0
1542738228.180,32.715,50.781,43.457,60.059,55.176,0
1542738228.184,26.855,39.062,42.480,55.176,-0.977,0
1542738228.188,24.902,33.691,49.316,49.805,12.207,0
1542738228.192,42.480,59.082,50.781,62.988,67.871,0
1542738228.196,41.504,60.547,46.387,48.828,89.355,0
1542738228.199,25.391,33.203,51.758,39.551,65.918,0
1542738228.203,18.066,22.949,51.270,48.828,90.332,0
1542738228.207,24.902,35.645,51.758,45.898,90.820,0
1542738228.211,28.809,39.062,55.176,46.387,20.020,0
1542738228.215,27.344,36.133,52.246,39.551,26.367,0
1542738228.219,19.531,33.691,55.664,35.645,62.988,0
1542738228.223,22.949,34.180,52.734,50.781,49.805,0
1542738228.227,27.344,39.551,50.293,46.387,21.973,0
1542738228.231,27.344,43.945,57.617,41.016,63.965,0
1542738228.235,38.574,62.500,62.988,50.781,33.203,0
1542738228.239,35.156,65.430,57.129,51.758,8.301,0
1542738228.242,29.297,41.016,50.293,50.293,47.363,0
1542738228.246,31.738,34.668,58.594,46.875,10.254,0
1542738228.250,23.438,41.504,63.477,47.852,-28.320,0
1542738228.254,16.113,30.762,53.711,50.781,-11.230,0
1542738228.258,19.043,23.438,47.363,39.062,19.043,0
1542738228.262,32.227,31.250,49.805,36.133,35.645,0
1542738228.266,32.227,37.598,54.199,46.875,82.520,0
1542738228.270,13.672,38.574,52.246,48.828,63.965,0
1542738228.274,25.879,61.523,50.781,49.316,2.441,0
1542738228.278,36.621,70.801,57.129,51.758,29.297,0
1542738228.282,20.996,46.875,44.922,51.758,38.086,0
1542738228.285,23.438,21.973,38.574,43.457,70.801,0
1542738228.289,26.367,0.977,42.969,34.668,79.590,0
1542738228.293,20.996,12.695,41.504,37.598,32.715,0
1542738228.297,19.043,35.156,40.527,42.480,32.227,0
1542738228.301,21.973,42.480,41.992,50.293,61.035,0
1542738228.305,20.508,33.691,43.457,47.852,83.496,0
1542738228.309,20.508,46.387,45.898,46.875,44.922,0
1542738228.313,20.508,62.988,43.945,39.551,9.766,0
1542738228.317,11.230,34.180,37.598,21.973,40.039,0
1542738228.321,6.348,15.625,41.992,29.785,37.598,0
1542738228.324,15.137,26.855,48.340,43.945,7.812,0
1542738228.328,17.090,26.367,39.551,45.898,-6.836,0
1542738228.332,9.277,19.531,33.691,55.176,30.762,0
1542738228.336,16.602,21.484,39.062,42.969,58.594,0
1542738228.340,23.438,27.344,41.504,34.180,49.316,0
1542738228.344,22.461,33.203,47.852,46.387,15.137,0
1542738228.348,20.508,38.086,57.129,55.176,65.430,0
1542738228.352,19.043,39.062,52.734,48.340,63.965,0
1542738228.356,17.090,50.781,45.898,41.016,0.000,0
1542738228.360,17.090,60.059,51.270,44.922,0.488,0
1542738228.364,13.672,36.621,42.969,27.832,26.855,0
1542738228.367,7.324,15.137,35.645,20.020,48.340,0
1542738228.371,1.465,12.695,39.062,31.738,22.949,0
1542738228.375,10.254,25.879,47.363,39.062,13.184,0
1542738228.379,11.230,32.715,48.828,41.504,36.133,0
1542738228.383,5.371,30.762,43.945,38.574,20.020,0
1542738228.387,11.230,40.527,50.781,41.016,47.852,0
1542738228.391,9.766,39.062,47.852,41.504,57.617,0
1542738228.395,8.301,33.691,46.387,37.109,55.176,0
1542738228.399,17.090,55.176,52.246,43.457,50.293,0
1542738228.403,20.020,55.176,44.434,47.363,64.453,0
1542738228.407,18.555,36.133,43.945,43.457,40.527,0
1542738228.410,12.695,22.461,44.434,37.109,-30.273,0
1542738228.414,16.113,27.344,41.016,41.504,31.250,0
1542738228.418,26.855,33.691,43.457,45.410,16.113,0
1542738228.422,28.809,39.551,47.852,54.688,3.906,0
1542738228.426,19.531,38.574,46.387,43.457,37.598,0
1542738228.430,14.648,25.879,41.504,28.809,11.230,0
1542738228.434,24.414,48.340,40.527,41.992,18.066,0
1542738228.438,23.438,49.316,40.527,55.176,58.105,0
1542738228.442,30.273,1.465,39.551,76.172,44.434,0
1542738228.446,13.184,-0.488,37.598,43.945,35.156,0
1542738228.449,-41.016,31.250,34.180,-22.461,49.805,0
1542738228.453,-45.410,40.527,27.344,-24.414,60.059,0
1542738228.457,-53.223,48.828,22.461,-34.668,21.484,0
1542738228.461,-45.898,51.270,27.344,-35.645,29.785,0
1542738228.465,-34.180,50.293,30.762,-19.531,22.461,0
1542738228.469,-41.992,70.312,27.344,-25.391,8.301,0
1542738228.473,-24.414,89.844,14.648,-10.254,60.547,0
1542738228.477,-20.508,59.570,16.602,-0.488,49.316,0
1542738228.481,-13.184,27.832,28.320,0.488,39.062,0
1542738228.485,-3.418,26.855,24.414,14.648,73.242,0
1542738228.489,0.000,38.086,23.438,27.832,69.824,0
1542738228.492,-0.488,32.227,24.414,24.902,48.340,0
1542738228.496,-11.719,18.555,18.066,10.742,21.484,0
1542738228.500,-10.254,27.344,23.926,18.066,23.926,0
1542738228.504,8.789,42.480,31.738,27.832,89.844,0
1542738228.508,7.812,39.062,27.832,5.859,58.105,0
1542738228.512,-5.371,39.551,28.809,5.371,-11.230,0
1542738228.516,9.277,64.941,33.203,25.879,-7.812,0
1542738228.520,4.395,54.688,35.156,22.461,25.879,0
1542738228.524,-7.324,30.273,40.527,22.949,37.598,0
1542738228.528,-2.930,26.367,38.574,21.484,26.855,0
1542738228.532,0.000,18.555,35.156,17.090,29.785,0
1542738228.535,3.906,23.438,34.668,21.973,14.648,0
1542738228.539,-3.418,33.691,30.273,19.043,39.062,0
1542738228.543,-13.184,34.668,23.438,16.602,62.012,0
1542738228.547,-2.441,37.109,28.809,20.020,36.133,0
1542738228.551,8.789,36.133,39.062,22.949,-10.742,0
1542738228.555,12.207,46.875,37.598,27.832,32.227,0
1542738228.559,12.207,58.594,38.574,28.320,25.879,0
1542738228.563,0.977,38.574,38.574,24.902,-7.324,0
1542738228.567,-0.977,22.461,39.551,31.738,24.414,0
1542738228.571,7.812,23.926,40.527,24.414,22.949,0
1542738228.574,3.418,28.809,38.086,21.973,66.406,0
1542738228.578,0.000,33.203,35.645,21.484,20.508,0
1542738228.582,4.395,32.715,38.086,20.996,-17.578,0
1542738228.586,2.441,28.320,36.133,25.391,3.906,0
1542738228.590,6.348,37.598,40.039,33.691,-21.973,0
1542738228.594,11.719,56.152,51.270,38.086,-2.930,0
1542738228.598,19.043,38.574,51.758,50.293,17.090,0
1542738228.602,28.809,20.508,47.363,58.105,-1.465,0
1542738228.606,-0.488,39.551,33.691,17.090,3.418,0
1542738228.610,-16.602,61.523,27.832,-1.465,54.688,0
1542738228.614,9.277,67.383,22.949,20.020,62.988,0
1542738228.617,27.344,57.617,12.695,39.062,19.531,0
1542738228.621,16.113,47.852,17.578,30.273,19.043,0
1542738228.625,3.418,45.898,25.391,21.484,33.203,0
1542738228.629,9.277,46.875,26.855,28.809,50.293,0
1542738228.633,21.973,50.781,27.832,32.715,48.828,0
1542738228.637,29.297,68.359,35.156,41.504,15.137,0
1542738228.641,29.297,75.684,38.086,41.992,46.387,0
1542738228.645,27.344,56.641,27.344,42.480,54.199,0
1542738228.649,21.484,37.598,20.020,49.316,60.547,0
1542738228.653,18.066,32.227,20.020,37.109,62.500,0
1542738228.657,22.949,40.527,31.738,41.504,-12.695,0
1542738228.660,28.320,43.945,39.062,41.504,40.039,0
1542738228.664,26.855,42.480,32.715,36.621,56.152,0
1542738228.668,32.715,53.223,33.691,41.992,18.555,0
1542738228.672,36.133,74.707,37.598,44.434,46.875,0
1542738228.676,25.391,68.359,33.203,42.480,38.086,0
1542738228.680,24.414,45.898,23.926,36.133,30.273,0
1542738228.684,27.832,30.273,26.855,25.391,28.320,0
1542738228.688,27.832,26.855,35.645,33.203,10.742,0
1542738228.692,27.832,30.273,40.039,42.969,27.344,0
1542738228.696,24.414,31.738,40.527,44.922,32.227,0
1542738228.699,25.879,34.668,39.551,47.363,13.184,0
1542738228.703,34.668,41.016,38.574,44.434,23.926,0
1542738228.707,28.809,39.551,31.738,40.039,68.848,0
1542738228.711,32.715,55.176,37.598,49.316,48.828,0
1542738228.715,26.855,67.871,49.805,47.852,16.602,0
1542738228.719,15.625,48.340,47.363,37.109,74.707,0
1542738228.723,27.832,34.180,48.340,45.410,68.848,0
1542738228.727,21.484,18.066,48.828,47.852,35.156,0
1542738228.731,24.902,17.090,47.363,55.664,52.734,0
1542738228.735,21.484,30.762,50.293,53.223,-14.160,0
1542738228.739,15.625,38.086,49.316,34.668,-28.809,0
1542738228.742,19.531,39.551,49.316,32.715,33.691,0
1542738228.746,21.484,60.059,49.316,44.434,13.672,0
1542738228.750,22.461,62.012,42.480,40.039,1.953,0
1542738228.754,9.277,34.180,39.551,27.344,49.316,0
1542738228.758,1.953,17.090,37.598,30.273,34.180,0
1542738228.762,7.324,13.184,33.203,29.785,21.484,0
1542738228.766,11.230,25.879,36.133,34.668,69.824,0
1542738228.770,16.113,35.156,41.992,35.156,26.367,0
1542738228.774,24.414,35.645,42.969,35.156,12.695,0
1542738228.778,29.297,44.922,36.621,39.551,10.254,0
1542738228.782,27.832,67.871,38.574,38.574,25.879,0
1542738228.785,41.016,55.176,29.297,61.523,32.715,0
1542738228.789,46.387,35.156,25.391,65.918,44.922,0
1542738228.793,2.441,28.809,47.852,25.391,81.543,0
1542738228.797,-28.809,31.738,63.477,3.906,22.461,0
1542738228.801,-19.531,33.691,68.359,17.090,14.648,0
1542738228.805,-1.953,21.973,69.824,39.062,7.324,0
1542738228.809,3.418,14.160,70.801,46.387,-3.418,0
1542738228.813,8.789,29.785,66.895,28.320,31.738,0
1542738228.817,0.000,35.156,52.734,21.973,2.930,0
1542738228.821,-11.230,16.602,41.992,32.227,-3.418,0
1542738228.824,11.230,8.301,53.711,26.855,21.973,0
1542738228.828,13.184,18.555,60.059,30.762,22.461,0
1542738228.832,-2.441,24.902,57.129,37.109,0.977,0
1542738228.836,8.301,26.367,60.059,51.758,-28.320,0
1542738228.840,11.719,20.996,52.246,45.410,-3.418,0
1542738228.844,5.371,20.020,54.199,39.551,78.613,0
1542738228.848,13.184,42.480,61.035,52.246,83.008,0
1542738228.852,8.789,40.527,48.828,40.039,60.059,0
1542738228.856,6.348,16.602,39.062,35.645,53.223,0
1542738228.860,8.789,7.324,38.574,36.133,50.293,0
1542738228.864,11.230,15.137,35.156,20.508,28.809,0
1542738228.867,19.043,24.414,35.645,26.367,-1.465,0
1542738228.871,23.438,33.203,38.086,35.156,-26.367,0
1542738228.875,7.324,28.809,33.203,32.715,33.203,0
1542738228.879,12.207,43.945,41.992,51.270,39.062,0
1542738228.883,21.973,58.594,43.945,53.223,10.742,0
1542738228.887,1.953,24.414,34.668,30.762,28.809,0
1542738228.891,13.672,3.906,37.109,41.016,59.082,0
1542738228.895,20.996,13.184,45.898,51.270,85.449,0
1542738228.899,13.672,21.484,50.781,41.504,85.938,0
1542738228.903,20.996,32.227,49.805,48.340,44.922,0
1542738228.907,20.996,38.086,45.898,41.504,1.465,0
1542738228.910,7.324,28.320,40.527,29.785,-10.742,0
1542738228.914,9.766,22.949,41.504,38.086,47.852,0
1542738228.918,24.414,39.551,49.316,50.781,102.051,0
1542738228.922,25.879,60.547,52.246,41.992,54.688,0
1542738228.926,7.324,43.457,40.527,23.926,91.309,0
1542738228.930,-5.859,15.137,34.668,28.809,97.168,0
1542738228.934,-7.812,7.324,35.156,31.738,60.059,0
1542738228.938,-0.977,19.043,37.109,27.832,15.137,0
1542738228.942,11.230,30.273,47.363,37.598,-19.043,0
1542738228.946,3.418,25.391,48.828,30.273,-58.594,0
1542738228.949,12.207,43.457,45.898,36.133,-62.012,0
1542738228.953,21.973,55.176,41.504,43.945,27.832,0
1542738228.957,9.277,27.344,33.203,41.016,46.875,0
1542738228.961,-0.977,10.254,33.691,33.691,25.391,0
1542738228.965,-3.906,15.137,35.645,22.949,36.621,0
1542738228.969,6.348,27.832,34.668,29.297,38.574,0
1542738228.973,3.906,28.320,27.344,23.926,-10.254,0
1542738228.977,-6.348,26.367,26.367,30.273,11.230,0
1542738228.981,1.953,29.297,30.762,42.969,72.754,0
1542738228.985,2.930,32.227,35.645,37.109,42.969,0
1542738228.989,-1.465,46.387,41.016,33.203,16.602,0
1542738228.992,-7.324,45.410,27.832,26.367,56.641,0
1542738228.996,-5.859,9.277,18.066,18.066,-5.371,0
1542738229.000,-6.836,-4.395,22.461,17.578,-28.809,0
1542738229.004,-8.301,10.254,28.320,23.438,19.043,0
1542738229.008,-7.324,22.949,34.180,22.949,46.387,0
1542738229.012,-5.371,28.320,36.621,25.391,40.527,0
1542738229.016,0.977,30.762,39.551,35.645,43.945,0
1542738229.020,2.930,26.855,33.203,34.668,39.062,0
1542738229.024,7.324,45.410,32.715,29.785,36.133,0
1542738229.028,-2.930,41.016,30.273,23.438,59.570,0
1542738229.032,-4.883,11.230,30.762,28.809,22.949,0
1542738229.035,3.418,6.348,35.645,21.484,49.316,0
1542738229.039,-8.789,12.695,32.715,3.906,70.312,0
1542738229.043,-15.625,20.996,36.133,11.719,45.410,0
1542738229.047,-1.465,21.484,37.598,19.531,7.812,0
1542738229.051,1.465,15.137,34.180,27.832,-17.578,0
1542738229.055,16.113,19.531,39.062,52.246,21.973,0
1542738229.059,17.578,30.273,45.410,47.363,73.730,0
1542738229.063,-8.301,54.688,39.062,14.160,29.297,0
1542738229.067,-23.438,64.453,30.273,-9.766,41.992,0
1542738229.071,-4.395,45.410,22.461,11.230,55.664,0
1542738229.074,6.836,37.598,16.602,21.973,46.387,0
1542738229.078,1.465,41.016,17.578,19.043,98.633,0
1542738229.082,20.020,43.457,25.391,22.461,36.621,0
1542738229.086,9.766,44.922,31.738,18.066,4.395,0
1542738229.090,0.488,48.828,31.250,18.066,33.691,0
1542738229.094,17.578,52.734,27.344,26.855,40.039,0
1542738229.098,25.879,54.688,24.902,32.715,47.363,0
1542738229.102,12.207,44.434,28.320,19.043,80.566,0
1542738229.106,17.578,58.105,35.645,26.367,54.688,0
1542738229.110,22.949,68.848,35.645,38.574,70.801,0
1542738229.114,8.789,42.969,32.227,25.391,135.254,0
1542738229.117,6.348,23.438,24.902,25.879,48.828,0
1542738229.121,19.043,31.250,23.926,29.785,-19.043,0
1542738229.125,30.762,55.664,30.273,38.574,39.062,0
1542738229.129,29.297,56.641,32.715,50.781,62.012,0
1542738229.133,29.785,46.875,33.203,47.852,3.906,0
1542738229.137,21.484,38.086,29.297,44.434,2.441,0
1542738229.141,23.926,39.062,30.273,31.738,31.738,0
1542738229.145,34.180,61.523,37.598,29.297,60.059,0
1542738229.149,20.996,54.688,36.133,26.855,106.445,0
1542738229.153,16.113,32.715,27.344,31.738,35.156,0
1542738229.157,23.438,30.762,27.344,43.945,-35.156,0
1542738229.160,32.715,35.156,35.156,39.062,16.113,0
1542738229.164,34.180,36.621,41.016,37.598,27.832,0
1542738229.168,26.367,45.898,39.551,39.062,-13.184,0
1542738229.172,29.785,43.945,44.434,54.199,13.184,0
1542738229.176,20.020,29.297,52.246,51.270,26.367,0
1542738229.180,25.879,43.457,49.316,46.875,67.871,0
1542738229.184,42.969,65.918,47.852,54.688,92.773,0
1542738229.188,35.645,55.664,39.062,42.480,73.242,0
1542738229.192,34.180,37.598,42.969,37.598,23.926,0
1542738229.196,20.020,34.180,51.270,38.574,-10.254,0
1542738229.199,15.625,46.875,46.387,33.203,46.875,0
1542738229.203,23.926,46.875,50.293,44.434,70.801,0
1542738229.207,29.297,40.039,48.340,50.781,90.332,0
1542738229.211,22.461,39.551,40.039,43.457,82.520,0
1542738229.215,10.742,36.133,39.551,38.574,66.895,0
1542738229.219,13.184,45.410,44.434,36.133,58.594,0
1542738229.223,27.344,75.684,52.246,41.504,-5.371,0
1542738229.227,27.832,70.312,54.199,40.527,2.441,0
1542738229.231,20.020,41.992,49.805,36.621,55.664,0
1542738229.235,17.090,32.227,41.504,41.016,40.039,0
1542738229.239,22.949,30.762,43.945,43.945,42.480,0
1542738229.242,26.855,34.668,47.852,40.039,56.641,0
1542738229.246,23.926,38.086,47.363,41.504,29.297,0
1542738229.250,25.391,31.738,50.781,34.668,3.418,0
1542738229.254,32.715,49.805,54.688,38.574,20.996,0
1542738229.258,26.855,74.219,56.641,54.688,52.246,0
1542738229.262,18.555,51.758,49.316,38.574,-10.254,0
1542738229.266,15.625,28.320,39.062,26.367,4.883,0
1542738229.270,4.883,25.879,35.645,26.855,36.621,0
1542738229.274,24.902,29.297,52.246,53.711,27.832,0
1542738229.278,37.598,38.574,57.617,63.965,64.941,0
1542738229.282,13.672,49.805,41.992,23.438,88.379,0
1542738229.285,9.277,61.035,41.992,20.020,85.449,0
1542738229.289,21.973,71.289,37.109,44.434,47.852,0
1542738229.293,37.109,85.938,38.086,58.105,27.344,0
1542738229.297,37.109,82.031,44.922,65.918,64.453,0
1542738229.301,21.973,55.664,41.504,48.340,40.039,0
1542738229.305,26.855,41.504,42.480,34.668,-35.156,0
1542738229.309,31.738,46.387,44.434,37.109,-10.742,0
1542738229.313,28.320,51.270,44.922,36.621,-12.695,0
1542738229.317,35.156,43.457,43.945,54.688,-38.086,0
1542738229.321,44.922,46.875,43.945,55.176,17.578,0
1542738229.324,35.645,52.734,43.945,42.969,13.672,0
1542738229.328,38.574,66.406,41.504,45.410,-11.230,0
1542738229.332,34.180,77.637,41.504,42.480,47.852,0
1542738229.336,21.973,53.223,35.645,37.109,28.809,0
1542738229.340,11.719,26.367,26.367,23.438,17.578,0
1542738229.344,13.184,21.973,38.086,24.414,51.758,0
1542738229.348,27.832,36.133,40.527,41.992,40.527,0
1542738229.352,20.996,38.086,31.738,33.691,40.527,0
1542738229.356,19.043,35.645,32.715,31.738,36.133,0
1542738229.360,22.461,41.992,31.250,33.691,48.340,0
1542738229.364,15.137,38.086,36.621,43.945,30.762,0
1542738229.367,8.301,36.133,39.551,41.504,43.945,0
1542738229.371,14.648,49.805,45.898,38.086,101.562,0
1542738229.375,20.508,62.988,44.434,46.387,85.938,0
1542738229.379,19.043,51.270,38.574,41.992,18.066,0
1542738229.383,13.184,33.203,38.574,37.109,-30.762,0
1542738229.387,16.602,21.484,34.668,21.973,9.277,0
1542738229.391,22.461,22.461,33.203,20.996,2.441,0
1542738229.395,16.113,26.855,37.109,34.180,38.086,0
1542738229.399,19.043,33.691,46.387,46.387,22.461,0
1542738229.403,21.973,45.898,42.480,43.945,-26.367,0
1542738229.407,27.832,62.500,40.527,39.551,29.785,0
1542738229.410,27.344,64.453,44.922,53.223,59.570,0
1542738229.414,10.254,36.621,45.898,40.039,114.258,0
1542738229.418,7.812,17.090,36.621,38.574,112.305,0
1542738229.422,5.371,15.625,31.738,36.133,49.805,0
1542738229.426,10.254,20.020,35.156,26.855,23.438,0
1542738229.430,23.438,29.785,35.645,33.691,49.316,0
1542738229.434,27.832,43.457,36.133,38.574,61.035,0
1542738229.438,22.949,39.062,39.062,41.992,15.625,0
1542738229.442,20.020,38.086,42.480,49.805,12.695,0
1542738229.446,25.391,56.152,48.340,57.617,-16.602,0
1542738229.449,31.250,53.223,53.711,54.688,9.766,0
1542738229.453,19.531,34.180,45.898,47.363,9.766,0
1542738229.457,20.020,21.973,34.668,54.199,8.301,0
1542738229.461,51.270,22.949,30.762,62.500,20.996,0
1542738229.465,34.668,32.715,43.457,36.133,41.504,0
1542738229.469,-12.207,30.762,55.176,2.441,7.812,0
1542738229.473,-6.348,28.320,56.641,13.672,-0.977,0
1542738229.477,26.855,55.664,66.895,38.574,84.961,0
1542738229.481,19.043,55.176,60.547,29.785,32.715,0
1542738229.485,-2.441,13.672,48.340,27.832,-7.812,0
1542738229.489,-0.488,0.000,48.340,28.320,51.270,0
1542738229.492,14.160,12.695,48.340,37.598,46.875,0
1542738229.496,22.461,20.996,56.641,43.945,11.230,0
1542738229.500,17.578,20.996,51.758,31.250,-13.672,0
1542738229.504,15.625,29.785,39.551,31.738,0.977,0
1542738229.508,18.066,38.574,45.410,35.156,30.762,0
1542738229.512,21.484,41.016,47.852,39.062,21.973,0
1542738229.516,25.391,51.758,50.293,51.758,54.688,0
1542738229.520,29.297,57.129,62.012,60.059,118.652,0
1542738229.524,22.949,41.016,60.547,53.711,73.730,0
1542738229.528,17.578,24.414,50.781,42.969,37.109,0
1542738229.532,15.625,9.766,50.781,49.316,12.695,0
1542738229.535,18.066,14.648,52.246,51.270,11.719,0
1542738229.539,21.484,33.691,44.434,43.457,64.453,0
1542738229.543,28.809,40.527,45.898,53.711,100.586,0
1542738229.547,28.320,42.969,46.875,56.152,63.965,0
1542738229.551,16.602,35.156,40.039,50.781,52.734,0
1542738229.555,24.414,42.969,44.922,50.781,43.945,0
1542738229.559,17.090,47.363,41.992,30.762,63.965,0
1542738229.563,3.418,20.508,30.273,22.949,62.012,0
1542738229.567,13.184,6.348,27.344,33.691,9.277,0
1542738229.571,22.949,15.625,34.668,45.410,12.207,0
1542738229.574,19.043,25.879,45.410,48.828,32.227,0
1542738229.578,10.742,29.297,41.016,35.645,12.695,0
1542738229.582,20.020,36.621,36.621,31.250,19.043,0
1542738229.586,20.020,31.250,38.574,27.344,55.176,0
1542738229.590,19.043,35.156,37.109,29.297,80.566,0
1542738229.594,14.648,48.340,38.574,37.598,19.531,0
1542738229.598,-1.465,33.691,38.086,32.715,6.836,0
1542738229.602,8.789,17.578,32.227,26.855,46.387,0
1542738229.606,24.414,8.301,25.879,30.273,37.109,0
1542738229.610,20.508,17.090,27.344,30.762,48.340,0
1542738229.614,12.207,27.832,29.785,37.109,7.812,0
1542738229.617,14.160,31.738,33.203,49.316,-29.297,0
1542738229.621,23.438,31.738,46.387,47.852,-20.508,0
1542738229.625,16.602,27.832,46.875,35.645,65.430,0
1542738229.629,16.113,34.180,38.574,27.832,43.457,0
1542738229.633,23.438,55.176,38.086,39.062,-20.996,0
1542738229.637,8.789,45.410,30.273,39.551,-13.184,0
1542738229.641,4.395,14.160,20.020,26.855,28.809,0
1542738229.645,23.438,7.812,25.391,35.645,44.922,0
1542738229.649,28.809,21.973,31.738,38.086,42.480,0
1542738229.653,22.461,26.367,31.250,41.016,41.504,0
1542738229.657,25.391,25.391,29.785,45.898,0.977,0
1542738229.660,33.203,30.762,33.691,41.992,36.133,0
1542738229.664,23.438,23.438,38.574,41.992,68.848,0
1542738229.668,30.762,30.273,39.551,49.805,82.520,0
1542738229.672,42.969,46.387,38.086,45.410,78.125,0
1542738229.676,46.875,31.250,28.809,42.480,76.172,0
1542738229.680,66.895,18.066,23.438,72.266,23.926,0
1542738229.684,26.855,21.484,42.969,56.152,-32.227,0
1542738229.688,-21.973,10.742,48.828,7.812,8.789,0
1542738229.692,-22.949,-4.883,44.434,11.719,57.129,0
1542738229.696,-13.672,-5.859,52.734,40.039,83.496,0
1542738229.699,0.977,-10.742,57.129,47.363,120.117,0
1542738229.703,17.578,16.113,62.500,44.922,131.836,0
1542738229.707,13.672,47.363,59.082,40.039,52.734,0
1542738229.711,2.930,21.973,49.805,30.762,-3.906,0
1542738229.715,5.371,-3.418,46.875,29.785,4.883,0
1542738229.719,11.719,-10.254,48.340,29.785,-9.277,0
1542738229.723,15.625,-8.301,52.734,39.062,-10.254,0
1542738229.727,17.578,0.000,53.223,52.246,46.387,0
1542738229.731,20.020,16.602,47.852,54.199,32.227,0
1542738229.735,24.902,38.086,46.387,58.105,-29.297,0
1542738229.739,16.602,40.527,48.340,52.734,-49.805,0
1542738229.742,12.695,22.461,41.504,38.086,22.461,0
1542738229.746,26.855,11.230,44.434,45.898,54.688,0
1542738229.750,12.207,3.906,45.410,39.062,16.113,0
1542738229.754,-2.441,1.465,35.156,30.762,77.148,0
1542738229.758,5.371,7.812,36.621,37.109,97.656,0
1542738229.762,6.348,10.742,40.527,31.250,31.250,0
1542738229.766,6.348,16.113,42.969,31.250,52.734,0
1542738229.770,17.578,45.410,47.363,53.223,48.340,0
1542738229.774,18.555,51.758,40.527,59.082,36.133,0
1542738229.778,8.789,14.160,29.785,44.922,58.594,0
1542738229.782,6.348,-4.395,31.738,41.992,53.711,0
1542738229.785,6.836,4.883,36.621,44.922,36.621,0
1542738229.789,5.371,9.277,34.180,47.363,33.691,0
1542738229.793,15.137,34.180,33.203,49.316,21.973,0
1542738229.797,5.859,43.945,33.203,39.551,48.828,0
1542738229.801,2.441,8.301,29.297,20.020,101.562,0
1542738229.805,12.207,-8.789,30.273,18.555,40.527,0
1542738229.809,8.789,15.137,43.945,38.086,-11.719,0
1542738229.813,-5.371,32.715,43.945,38.574,-24.902,0
1542738229.817,-13.672,16.602,27.344,26.855,27.832,0
1542738229.821,2.930,11.230,23.438,23.438,100.586,0
1542738229.824,17.090,41.992,28.809,19.531,37.109,0
1542738229.828,12.207,47.852,32.227,26.855,6.348,0
1542738229.832,4.395,22.949,26.855,31.250,31.250,0
1542738229.836,8.301,14.648,29.297,32.227,17.090,0
1542738229.840,7.324,17.090,38.086,40.527,57.129,0
1542738229.844,16.602,23.438,36.133,38.086,-0.488,0
1542738229.848,22.949,32.715,32.715,39.551,-34.180,0
1542738229.852,21.484,38.574,37.598,54.199,26.367,0
1542738229.856,19.531,41.504,35.156,46.875,51.270,0
1542738229.860,6.836,27.344,31.250,41.016,20.020,0
1542738229.864,10.742,31.250,36.621,37.109,37.109,0
1542738229.867,23.438,58.594,40.527,32.227,69.336,0
1542738229.871,16.113,52.734,37.598,32.227,19.043,0
1542738229.875,19.043,29.297,31.250,31.738,42.969,0
1542738229.879,15.137,17.578,27.344,21.484,113.770,0
1542738229.883,8.789,21.973,34.180,27.832,81.543,0
1542738229.887,23.438,41.016,43.945,38.574,32.715,0
1542738229.891,24.902,41.992,44.922,39.062,57.129,0
1542738229.895,15.625,27.832,40.039,29.785,44.922,0
1542738229.899,23.926,47.852,44.434,37.109,39.062,0
1542738229.903,33.203,61.523,50.781,53.711,40.527,0
1542738229.907,19.043,39.062,42.969,39.551,11.719,0
1542738229.910,11.719,18.555,39.551,36.133,-16.113,0
1542738229.914,10.254,8.789,41.504,45.898,-3.418,0
1542738229.918,9.277,25.391,44.922,43.945,0.977,0
1542738229.922,8.301,34.668,45.410,40.039,-37.598,0
1542738229.926,10.742,32.715,38.574,40.039,7.812,0
1542738229.930,23.926,43.457,36.133,36.621,48.828,0
1542738229.934,36.621,65.918,42.480,43.945,50.293,0
1542738229.938,22.949,54.688,48.340,37.109,21.484,0
1542738229.942,16.113,22.949,50.781,32.715,9.766,0
1542738229.946,17.090,18.066,46.387,48.340,29.785,0
1542738229.949,8.301,26.855,39.062,43.457,-39.062,0
1542738229.953,21.973,36.133,39.551,36.133,-7.324,0
1542738229.957,28.809,48.828,49.316,46.875,46.387,0
1542738229.961,15.625,55.664,47.852,39.062,1.953,0
1542738229.965,21.973,41.992,39.062,33.691,72.754,0
1542738229.969,51.758,34.668,32.715,50.781,72.754,0
1542738229.973,52.246,51.758,37.109,58.594,90.820,0
1542738229.977,2.441,64.453,58.105,32.715,135.254,0
1542738229.981,-21.973,38.574,56.152,9.766,64.941,0
1542738229.985,-10.742,8.301,51.270,13.184,37.109,0
1542738229.989,8.301,-2.930,57.617,25.879,-1.953,0
1542738229.992,7.324,3.418,62.500,33.203,-20.508,0
1542738229.996,-10.742,16.602,57.129,25.879,7.812,0
1542738230.000,-12.695,23.438,51.270,27.344,15.625,0
1542738230.004,-0.488,32.715,47.363,29.785,38.086,0
1542738230.008,7.812,26.367,43.945,21.973,-4.395,0
1542738230.012,13.184,35.156,53.711,41.016,9.277,0
1542738230.016,13.672,41.504,56.152,45.410,41.992,0
1542738230.020,15.137,23.438,44.434,34.668,14.648,0
1542738230.024,13.672,9.766,39.551,39.551,62.988,0
1542738230.028,17.578,17.578,38.574,47.363,86.914,0
1542738230.032,21.973,24.902,46.387,47.363,88.379,0
1542738230.035,9.766,18.555,52.734,41.504,64.453,0
1542738230.039,6.836,33.691,49.805,37.598,28.809,0
1542738230.043,13.672,51.758,48.340,35.156,70.801,0
1542738230.047,8.301,34.180,47.852,29.297,68.848,0
1542738230.051,10.742,11.719,42.480,30.273,76.660,0
1542738230.055,15.137,5.859,43.945,40.039,71.289,0
1542738230.059,14.648,13.672,45.898,35.645,5.371,0
1542738230.063,23.926,27.832,49.805,40.527,28.809,0
1542738230.067,24.902,37.109,54.199,45.898,44.922,0
1542738230.071,24.902,49.316,54.688,43.457,0.977,0
1542738230.074,39.551,59.082,58.105,57.129,45.898,0
1542738230.078,43.457,60.059,62.500,64.453,77.637,0
1542738230.082,32.227,55.664,56.152,47.363,41.504,0
1542738230.086,19.043,29.785,42.480,32.715,9.277,0
1542738230.090,10.254,11.719,38.086,34.668,15.137,0
1542738230.094,19.043,30.273,43.945,44.434,14.648,0
1542738230.098,27.344,42.480,46.875,49.805,-25.391,0
1542738230.102,14.160,42.480,45.410,46.875,-44.434,0
1542738230.106,2.930,37.598,40.527,43.457,-6.348,0
1542738230.110,20.996,55.176,46.387,46.387,48.828,0
1542738230.114,29.785,68.359,48.340,56.152,29.785,0
1542738230.117,11.719,35.645,41.992,52.734,19.531,0
1542738230.121,10.254,27.344,45.410,42.969,43.457,0
1542738230.125,19.043,30.762,45.898,50.293,7.812,0
1542738230.129,18.066,30.273,41.504,62.012,-8.301,0
1542738230.133,17.090,35.156,41.504,51.758,21.973,0
1542738230.137,25.879,41.504,46.387,50.781,21.973,0
1542738230.141,26.855,46.387,50.781,43.945,76.660,0
1542738230.145,31.738,66.406,55.664,41.016,113.281,0
1542738230.149,33.203,79.102,57.129,50.781,8.789,0
1542738230.153,18.555,46.875,42.480,39.062,4.883,0
1542738230.157,25.879,31.738,35.156,38.086,58.105,0
1542738230.160,30.762,28.809,41.504,47.852,35.645,0
1542738230.164,27.832,29.297,44.922,59.082,29.297,0
1542738230.168,36.133,42.969,50.781,57.617,45.898,0
1542738230.172,42.969,52.246,55.176,61.523,34.180,0
1542738230.176,47.852,54.688,55.664,66.895,-28.320,0
1542738230.180,45.410,53.711,51.758,45.410,-12.207,0
1542738230.184,47.363,79.102,53.223,51.758,98.633,0
1542738230.188,39.551,79.102,54.199,58.105,90.332,0
1542738230.192,25.879,39.551,47.363,40.527,60.059,0
1542738230.196,30.762,29.297,45.410,47.363,32.227,0
1542738230.199,36.621,37.598,46.875,58.105,-7.324,0
1542738230.203,30.762,40.039,48.340,47.363,5.859,0
1542738230.207,23.926,37.109,42.969,46.875,-19.043,0
1542738230.211,28.809,48.340,45.410,54.688,-2.441,0
1542738230.215,26.367,52.246,51.758,44.434,5.859,0
1542738230.219,38.574,35.645,57.129,61.035,2.930,0
1542738230.223,77.637,45.898,66.895,116.699,55.176,0
1542738230.227,62.988,70.801,50.781,83.496,38.086,0
1542738230.231,12.695,68.848,27.832,8.301,17.090,0
1542738230.235,17.090,51.758,26.367,16.113,50.293,0
1542738230.239,28.809,57.617,17.578,30.273,41.504,0
1542738230.242,20.996,63.477,0.000,19.531,5.859,0
1542738230.246,44.922,73.242,-12.695,33.691,-23.438,0
1542738230.250,54.199,83.496,-19.531,41.504,26.855,0
1542738230.254,45.410,78.125,-16.113,29.297,34.180,0
1542738230.258,45.410,90.820,-1.953,38.086,5.371,0
1542738230.262,47.363,94.238,3.906,51.758,28.320,0
1542738230.266,57.129,61.035,-2.441,47.363,4.395,0
1542738230.270,61.523,35.645,-7.812,42.480,29.297,0
1542738230.274,54.688,41.016,-10.254,42.969,103.027,0
1542738230.278,53.711,49.316,-4.883,54.688,62.012,0
1542738230.282,46.387,47.363,-5.371,46.875,46.875,0
1542738230.285,43.457,55.176,-1.465,48.828,30.273,0
1542738230.289,54.688,54.199,6.836,58.594,27.344,0
1542738230.293,64.453,63.477,3.418,60.547,73.730,0
1542738230.297,70.801,90.820,7.812,70.312,60.547,0
1542738230.301,54.199,72.754,8.789,56.152,-7.324,0
1542738230.305,44.922,37.598,8.301,48.340,-9.277,0
1542738230.309,59.570,31.738,17.578,67.383,24.902,0
1542738230.313,62.500,38.086,21.973,65.918,24.902,0
1542738230.317,69.336,44.434,15.137,57.617,35.645,0
1542738230.321,62.988,45.898,10.254,59.082,73.730,0
1542738230.324,48.828,55.176,17.090,63.477,70.312,0
1542738230.328,55.664,58.594,21.973,58.105,83.984,0
1542738230.332,62.988,59.082,31.250,66.406,39.062,0
1542738230.336,51.270,55.664,35.645,61.523,-12.695,0
1542738230.340,33.691,26.367,16.113,36.621,71.777,0
1542738230.344,42.969,22.949,15.625,41.504,30.762,0
1542738230.348,42.969,37.109,28.809,53.711,-43.457,0
1542738230.352,45.410,44.434,33.203,56.152,5.859,0
1542738230.356,42.480,46.387,30.273,48.340,46.387,0
1542738230.360,39.551,44.434,27.832,49.805,41.504,0
1542738230.364,44.922,67.871,30.762,61.523,-10.742,0
1542738230.367,45.898,64.941,29.785,56.641,-5.371,0
1542738230.371,33.203,21.484,25.391,55.176,24.414,0
1542738230.375,39.551,16.602,22.461,50.781,20.020,0
1542738230.379,37.109,33.203,23.926,38.086,43.457,0
1542738230.383,23.926,35.645,22.461,37.598,73.730,0
1542738230.387,41.504,39.551,20.508,35.645,59.570,0
1542738230.391,31.250,38.574,20.996,34.668,30.273,0
1542738230.395,15.625,30.273,23.926,33.691,53.223,0
1542738230.399,17.090,20.996,20.996,36.621,76.660,0
1542738230.403,27.344,38.574,19.043,45.410,53.223,0
1542738230.407,40.039,63.965,30.273,47.363,35.645,0
1542738230.410,35.156,50.781,36.133,52.734,35.645,0
1542738230.414,19.043,22.461,28.809,41.992,41.016,0
1542738230.418,25.391,14.160,9.766,33.203,113.281,0
1542738230.422,67.871,34.668,11.230,62.500,108.887,0
1542738230.426,53.223,49.316,41.504,64.941,-3.906,0
1542738230.430,-6.348,33.203,53.711,18.066,-14.160,0
1542738230.434,-25.879,13.184,56.641,-0.488,10.742,0
1542738230.438,-9.766,2.930,53.223,22.461,29.785,0
1542738230.442,10.742,15.137,50.781,41.504,41.016,0
1542738230.446,12.207,28.320,54.199,40.527,22.949,0
1542738230.449,6.836,14.648,41.992,35.156,16.113,0
1542738230.453,12.207,7.812,41.504,31.250,-0.488,0
1542738230.457,13.184,16.113,46.387,28.320,-22.461,0
1542738230.461,5.371,19.043,40.039,28.320,39.062,0
1542738230.465,6.348,10.742,39.062,29.297,45.410,0
1542738230.469,19.531,28.809,49.316,35.645,24.902,0
1542738230.473,13.184,42.480,56.152,38.086,43.457,0
1542738230.477,-6.348,19.531,46.875,27.832,29.785,0
1542738230.481,6.348,1.465,41.504,19.531,49.316,0
1542738230.485,16.113,7.812,39.551,14.648,69.824,0
1542738230.489,12.695,19.043,39.551,24.902,45.410,0
1542738230.492,16.113,25.879,42.480,32.715,-14.160,0
1542738230.496,23.438,40.039,48.340,36.133,17.578,0
1542738230.500,33.203,45.410,52.734,53.223,70.312,0
1542738230.504,30.273,30.273,39.551,41.992,62.012,0
1542738230.508,25.391,41.504,42.480,40.039,91.309,0
1542738230.512,23.926,49.805,56.152,52.734,70.801,0
1542738230.516,11.230,17.090,45.410,46.875,35.645,0
1542738230.520,9.277,2.930,40.039,38.574,18.555,0
1542738230.524,23.438,20.020,46.387,31.250,20.020,0
1542738230.528,22.461,34.668,45.410,36.133,42.480,0
1542738230.532,12.207,26.367,34.180,43.945,60.547,0
1542738230.535,12.695,18.555,25.879,35.645,43.457,0
1542738230.539,20.020,30.762,34.180,27.344,21.484,0
1542738230.543,22.461,55.664,48.340,44.922,1.465,0
1542738230.547,14.648,42.480,46.387,43.945,-23.926,0
1542738230.551,16.602,10.254,37.109,34.668,29.297,0
1542738230.555,15.625,0.488,33.691,38.086,19.531,0
1542738230.559,11.719,19.043,30.273,29.785,-15.625,0
1542738230.563,11.719,31.250,28.320,28.320,23.438,0
1542738230.567,21.973,30.273,34.668,27.344,90.332,0
1542738230.571,24.902,33.203,35.645,25.879,46.875,0
1542738230.574,5.859,26.367,25.879,21.973,36.621,0
1542738230.578,9.766,41.016,28.809,26.855,55.176,0
1542738230.582,19.531,54.199,34.180,20.020,30.762,0
1542738230.586,14.160,33.203,26.855,3.906,7.324,0
1542738230.590,20.020,17.578,33.203,21.973,16.113,0
1542738230.594,19.531,20.020,39.551,33.691,38.574,0
1542738230.598,19.043,25.879,33.691,33.691,54.688,0
1542738230.602,31.250,35.156,35.156,27.344,27.832,0
1542738230.606,20.020,36.133,34.668,25.391,24.902,0
1542738230.610,10.742,28.809,38.574,35.156,47.363,0
1542738230.614,25.879,32.227,48.340,40.527,63.477,0
1542738230.617,22.461,34.180,46.387,34.180,108.887,0
1542738230.621,14.160,40.039,49.316,33.203,79.590,0
1542738230.625,23.438,50.293,54.688,47.852,50.781,0
1542738230.629,21.484,43.457,45.898,36.621,40.527,0
1542738230.633,13.672,35.645,40.527,17.578,25.879,0
1542738230.637,14.648,28.320,43.457,26.855,8.301,0
1542738230.641,10.742,32.715,38.574,32.715,12.207,0
1542738230.645,2.930,32.227,38.574,30.762,40.527,0
1542738230.649,9.277,26.855,43.457,36.621,45.410,0
1542738230.653,56.641,37.109,51.758,74.707,53.223,0
1542738230.657,62.500,38.574,46.875,63.965,60.547,0
1542738230.660,12.207,43.945,27.344,7.324,77.148,0
1542738230.664,-14.648,50.781,25.391,-12.207,63.965,0
1542738230.668,0.000,54.199,18.555,1.953,16.602,0
1542738230.672,23.438,58.594,3.906,25.879,-13.672,0
1542738230.676,8.301,59.570,10.742,22.461,-2.930,0
1542738230.680,5.859,59.082,26.855,20.996,32.715,0
1542738230.684,21.484,59.082,30.762,35.156,15.625,0
1542738230.688,26.367,72.754,38.574,46.875,0.000,0
1542738230.692,36.621,72.754,39.551,54.199,54.688,0
1542738230.696,29.785,43.945,20.508,39.551,57.617,0
1542738230.699,29.785,30.273,20.508,32.715,31.250,0
1542738230.703,30.762,38.086,24.902,25.879,-9.277,0
1542738230.707,24.902,42.480,12.207,26.855,-7.324,0
1542738230.711,36.133,48.340,13.672,54.688,15.137,0
1542738230.715,28.809,49.316,17.090,48.340,51.758,0
1542738230.719,30.762,63.965,28.320,41.992,114.258,0
1542738230.723,42.969,71.777,37.109,51.758,109.375,0
1542738230.727,29.785,35.156,29.785,45.410,74.707,0
1542738230.731,25.391,14.648,30.273,42.969,4.395,0
1542738230.735,32.715,26.367,29.785,46.875,-2.930,0
1542738230.739,32.227,37.109,29.785,44.922,70.312,0
1542738230.742,28.809,37.109,27.832,44.434,83.984,0
1542738230.746,23.926,37.109,29.297,46.875,3.906,0
1542738230.750,28.809,44.434,35.156,49.316,-13.672,0
1542738230.754,36.621,46.875,35.156,53.711,-19.531,0
1542738230.758,39.551,52.246,39.062,57.129,38.574,0
1542738230.762,33.203,51.270,40.527,55.664,25.391,0
1542738230.766,6.348,24.414,32.227,43.457,-36.133,0
1542738230.770,3.906,14.160,31.738,42.480,8.301,0
1542738230.774,20.996,26.855,32.715,40.039,0.977,0
1542738230.778,22.949,31.250,32.715,25.391,19.043,0
1542738230.782,9.277,29.297,34.668,31.250,34.668,0
1542738230.785,10.742,39.062,37.109,34.668,80.566,0
1542738230.789,21.973,68.359,41.504,41.504,66.895,0
1542738230.793,16.602,64.941,36.621,48.340,-12.695,0
1542738230.797,9.277,26.367,35.156,38.574,47.852,0
1542738230.801,9.277,9.277,30.273,27.832,27.832,0
1542738230.805,12.207,18.066,24.414,30.762,-34.180,0
1542738230.809,16.602,32.715,33.203,36.621,10.254,0
1542738230.813,14.648,38.086,37.109,35.645,-32.715,0
1542738230.817,21.484,39.062,34.668,38.086,-21.973,0
1542738230.821,19.043,26.367,35.156,32.715,19.531,0
1542738230.824,10.254,17.578,34.668,29.297,16.602,0
1542738230.828,18.555,34.180,35.645,37.598,22.461,0
1542738230.832,32.227,53.223,37.598,46.875,22.461,0
1542738230.836,20.996,37.109,32.227,33.691,38.086,0
1542738230.840,6.836,13.184,29.297,19.043,22.461,0
1542738230.844,16.602,17.578,33.203,23.926,3.418,0
1542738230.848,18.555,25.391,39.062,32.715,-4.883,0
1542738230.852,17.090,23.926,41.016,39.551,35.156,0
1542738230.856,18.555,39.551,34.668,33.691,32.715,0
1542738230.860,20.996,51.270,32.227,39.551,-6.836,0
1542738230.864,22.461,48.340,38.574,52.246,50.781,0
1542738230.867,22.461,52.734,40.527,46.875,59.082,0
1542738230.871,14.160,38.574,30.762,34.668,51.270,0
1542738230.875,12.695,20.020,32.227,23.926,38.574,0
1542738230.879,22.949,20.020,41.992,35.156,25.879,0
1542738230.883,8.789,22.461,35.645,38.086,41.504,0
1542738230.887,0.000,20.996,34.180,20.996,51.758,0
1542738230.891,12.695,22.949,45.410,33.203,88.379,0
1542738230.895,27.832,32.227,48.828,42.969,10.254,0
1542738230.899,20.020,37.598,42.480,36.133,-17.578,0
1542738230.903,10.254,51.270,41.504,38.574,-2.930,0
1542738230.907,42.969,59.570,32.715,55.664,-57.129,0
1542738230.910,80.078,29.297,18.555,89.844,20.996,0
1542738230.914,38.574,7.324,33.203,57.617,67.383,0
1542738230.918,-20.996,11.230,54.199,12.695,16.113,0
1542738230.922,-26.367,15.137,62.012,23.926,63.477,0
1542738230.926,-12.695,0.000,64.453,34.668,74.707,0
1542738230.930,20.020,-13.184,69.824,65.918,39.062,0
1542738230.934,29.785,-4.883,66.406,71.777,30.273,0
1542738230.938,20.996,5.859,61.035,58.105,5.859,0
1542738230.942,34.180,21.973,63.477,79.102,-3.418,0
1542738230.946,33.691,19.531,56.152,81.543,46.875,0
1542738230.949,36.133,6.836,49.805,64.941,75.195,0
1542738230.953,42.480,4.883,49.805,68.359,56.152,0
1542738230.957,28.320,-2.930,46.387,68.848,-8.789,0
1542738230.961,25.879,-0.488,44.922,72.754,4.395,0
1542738230.965,33.691,7.324,48.828,82.031,-3.418,0
1542738230.969,32.227,13.184,51.270,72.266,-44.434,0
1542738230.973,43.945,41.992,54.688,74.219,37.598,0
1542738230.977,54.199,56.641,57.617,71.289,110.352,0
1542738230.981,39.062,26.367,47.852,68.848,56.641,0
1542738230.985,28.809,2.441,37.109,66.895,-10.742,0
1542738230.989,35.645,6.836,37.109,69.336,15.625,0
1542738230.992,50.781,19.531,38.086,78.125,37.109,0
1542738230.996,44.922,26.367,40.527,73.242,24.902,0
1542738231.000,36.621,24.414,49.316,69.824,16.602,0
1542738231.004,40.527,30.273,50.781,73.730,62.500,0
1542738231.008,34.180,36.621,48.340,70.312,73.242,0
1542738231.012,26.367,19.043,41.016,66.895,59.082,0
1542738231.016,33.203,35.156,39.551,76.660,49.316,0
1542738231.020,41.992,55.664,51.270,76.660,48.828,0
1542738231.024,35.156,29.785,52.246,60.059,59.082,0
1542738231.028,25.391,15.625,39.551,51.758,-3.418,0
1542738231.032,34.180,20.996,39.062,54.199,31.250,0
1542738231.035,42.480,27.344,44.434,65.918,64.941,0
1542738231.039,41.504,39.062,47.363,59.082,48.828,0
1542738231.043,35.645,48.828,50.293,54.688,89.355,0
1542738231.047,28.809,29.297,44.434,63.965,76.172,0
1542738231.051,36.133,39.551,44.922,70.801,31.250,0
1542738231.055,32.715,56.641,43.945,62.988,20.996,0
1542738231.059,25.391,36.621,41.992,43.457,56.152,0
1542738231.063,32.227,29.785,48.340,55.664,66.406,0
1542738231.067,35.645,37.109,47.363,57.129,60.547,0
1542738231.071,34.668,39.551,48.340,50.781,23.926,0
1542738231.074,36.621,40.039,47.852,60.059,-1.465,0
1542738231.078,36.621,42.969,49.316,59.082,37.598,0
1542738231.082,35.156,39.062,56.641,65.430,24.902,0
1542738231.086,42.969,56.641,58.594,75.195,-9.766,0
1542738231.090,35.645,65.430,49.316,60.059,20.020,0
1542738231.094,23.438,40.039,41.992,48.828,1.953,0
1542738231.098,32.715,27.344,47.363,48.828,35.156,0
1542738231.102,37.598,27.344,50.781,51.758,87.402,0
1542738231.106,33.203,32.227,48.340,59.570,71.289,0
1542738231.110,22.461,36.133,51.270,56.152,39.062,0
1542738231.114,25.391,44.434,45.410,48.828,13.672,0
1542738231.117,38.574,55.176,40.527,44.922,-0.488,0
1542738231.121,34.180,38.086,36.621,48.340,61.035,0
1542738231.125,30.762,25.879,26.855,41.992,43.457,0
1542738231.129,22.461,36.133,25.879,37.598,29.785,0
1542738231.133,33.203,60.059,34.180,41.016,40.527,0
1542738231.137,33.691,57.617,35.156,48.340,43.945,0
1542738231.141,22.461,33.691,36.133,46.387,114.258,0
1542738231.145,29.297,34.180,44.434,37.109,66.895,0
1542738231.149,35.645,38.574,43.457,42.969,84.473,0
1542738231.153,34.668,29.785,42.480,40.039,47.852,0
1542738231.157,34.668,28.320,44.922,39.062,-45.898,0
1542738231.160,33.203,36.621,42.969,38.574,23.438,0
1542738231.164,20.996,42.480,40.527,32.227,57.617,0
1542738231.168,24.902,36.133,41.016,34.180,18.066,0
1542738231.172,31.250,47.852,46.387,43.457,18.066,0
1542738231.176,29.297,56.641,46.387,45.410,30.273,0
1542738231.180,26.855,34.180,41.504,43.457,80.566,0
1542738231.184,24.414,26.367,41.504,41.992,28.809,0
1542738231.188,28.320,27.832,47.363,35.645,-0.488,0
1542738231.192,17.090,18.555,47.852,36.621,78.125,0
1542738231.196,14.160,22.949,41.992,45.410,76.660,0
1542738231.199,20.996,36.133,40.527,48.828,58.594,0
1542738231.203,30.762,37.109,46.875,48.340,39.551,0
1542738231.207,32.715,43.945,41.504,36.621,25.391,0
1542738231.211,45.898,68.359,39.062,44.434,36.133,0
1542738231.215,41.504,52.734,33.203,38.574,49.805,0
1542738231.219,24.902,31.738,27.832,30.762,4.883,0
1542738231.223,25.879,30.273,34.180,43.457,14.648,0
1542738231.227,18.066,23.926,30.273,39.551,37.109,0
1542738231.231,18.555,25.391,31.250,35.156,21.484,0
1542738231.235,28.320,27.344,39.551,35.645,17.090,0
1542738231.239,31.738,25.391,39.551,38.086,7.324,0
1542738231.242,20.020,25.879,36.621,33.691,3.418,0
1542738231.246,19.043,27.344,30.762,35.156,16.602,0
1542738231.250,23.438,32.227,27.832,42.480,89.844,0
1542738231.254,25.391,54.688,40.039,48.828,145.508,0
1542738231.258,24.902,54.688,41.504,39.551,87.402,0
1542738231.262,20.020,29.785,30.762,26.367,72.754,0
1542738231.266,18.066,17.090,37.109,33.203,62.500,0
1542738231.270,14.648,19.043,38.086,21.484,10.254,0
1542738231.274,15.137,25.391,31.738,18.555,71.777,0
1542738231.278,21.484,30.762,34.180,28.809,59.082,0
1542738231.282,25.879,32.227,44.434,46.875,12.695,0
1542738231.285,20.508,38.574,44.434,33.691,19.043,0
1542738231.289,59.570,60.059,34.668,49.805,10.254,0
1542738231.293,74.707,57.129,36.133,87.891,18.066,0
1542738231.297,18.555,38.574,58.105,43.945,34.668,0
1542738231.301,-19.531,31.738,71.289,-2.441,20.996,0
1542738231.305,-21.973,9.766,73.730,3.418,18.066,0
1542738231.309,-13.184,-3.906,84.961,31.738,17.578,0
1542738231.313,-23.438,-3.418,92.285,36.621,36.133,0
1542738231.317,-17.090,3.906,99.609,39.062,19.043,0
1542738231.321,4.395,3.906,101.074,44.922,-13.672,0
1542738231.324,4.883,-0.977,91.309,44.434,5.859,0
1542738231.328,15.137,32.715,95.703,59.082,5.371,0
1542738231.332,15.625,42.969,89.355,45.898,0.000,0
1542738231.336,0.488,12.207,67.871,27.344,-3.906,0
1542738231.340,2.930,-7.324,64.453,42.969,-5.859,0
1542738231.344,10.254,-13.184,59.570,46.875,23.926,0
1542738231.348,17.578,-1.953,54.199,35.645,55.176,0
1542738231.352,15.137,8.301,61.035,36.133,46.875,0
1542738231.356,15.625,12.207,62.988,39.062,56.152,0
1542738231.360,7.812,7.324,62.988,42.480,62.500,0
1542738231.364,18.066,29.785,69.336,49.805,28.809,0
1542738231.367,35.156,62.012,70.801,55.176,20.020,0
1542738231.371,13.672,36.133,55.664,37.109,20.996,0
1542738231.375,16.113,0.488,49.316,26.367,0.977,0
1542738231.379,20.020,0.488,54.199,39.551,17.578,0
1542738231.383,11.719,4.395,57.617,50.781,13.184,0
1542738231.387,17.090,8.789,53.711,47.363,5.371,0
1542738231.391,18.066,17.578,56.641,52.246,4.883,0
1542738231.395,19.043,21.973,64.941,44.922,3.906,0
1542738231.399,21.973,25.391,66.895,38.574,32.227,0
1542738231.403,22.461,31.250,62.012,49.316,33.691,0
1542738231.407,18.555,35.645,57.617,41.992,41.992,0
1542738231.410,20.020,35.156,59.082,36.621,58.105,0
1542738231.414,21.484,45.898,64.453,37.598,70.801,0
1542738231.418,9.277,39.551,60.059,37.109,88.379,0
1542738231.422,7.324,20.508,49.805,37.598,32.227,0
1542738231.426,9.766,7.324,46.875,30.762,-40.039,0
1542738231.430,7.324,8.789,41.016,31.250,-6.348,0
1542738231.434,7.324,12.695,40.039,31.738,62.012,0
1542738231.438,4.395,18.066,44.434,29.785,34.668,0
1542738231.442,-0.977,26.367,40.527,31.738,-3.418,0
1542738231.446,9.766,29.297,41.016,26.367,39.062,0
1542738231.449,7.324,34.668,47.363,29.297,-11.719,0
1542738231.453,3.418,31.738,44.434,29.785,-5.371,0
1542738231.457,7.812,21.484,40.527,23.926,24.902,0
1542738231.461,27.832,40.527,42.480,33.691,6.836,0
1542738231.465,27.344,47.852,39.062,40.039,68.359,0
1542738231.469,-0.977,27.832,35.645,24.414,40.527,0
1542738231.473,0.000,9.766,37.109,24.902,41.992,0
1542738231.477,14.160,9.766,37.598,33.203,74.219,0
1542738231.481,15.137,22.949,43.945,39.551,40.527,0
1542738231.485,19.531,35.156,41.504,46.875,23.438,0
1542738231.489,25.879,44.434,37.109,41.992,61.523,0
1542738231.492,15.137,32.715,39.062,41.992,62.988,0
1542738231.496,22.461,48.340,42.480,52.734,20.996,0
1542738231.500,33.203,69.336,44.922,52.734,18.555,0
1542738231.504,25.879,42.969,38.086,41.016,72.754,0
1542738231.508,29.785,21.973,32.227,35.156,52.246,0
1542738231.512,33.203,15.625,32.715,34.668,8.301,0
1542738231.516,29.785,30.273,36.621,35.645,35.156,0
1542738231.520,23.438,29.297,40.527,37.109,52.246,0
1542738231.524,14.160,26.855,35.645,45.410,62.500,0
1542738231.528,9.766,28.809,23.926,48.828,37.598,0
1542738231.532,26.367,19.531,23.926,51.758,-8.301,0
1542738231.535,28.809,28.320,24.902,43.457,0.000,0
1542738231.539,17.578,48.340,32.715,45.898,81.543,0
1542738231.543,24.414,58.594,42.480,48.828,102.539,0
1542738231.547,20.508,30.762,29.297,22.949,36.621,0
1542738231.551,12.695,5.859,21.484,20.020,-9.277,0
1542738231.555,5.371,5.859,22.461,32.715,13.672,0
1542738231.559,18.555,-0.977,31.738,51.758,7.324,0
1542738231.563,50.781,-4.883,38.574,84.961,-0.977,0
1542738231.567,14.648,29.297,24.902,42.480,6.348,0
1542738231.571,-36.133,50.293,19.531,-18.555,50.293,0
1542738231.574,-20.996,50.293,19.043,-9.277,69.824,0
1542738231.578,-23.926,67.871,6.836,-18.555,4.395,0
1542738231.582,-20.020,104.980,-2.441,-30.273,-4.395,0
1542738231.586,-20.508,109.375,-18.066,-39.551,48.340,0
1542738231.590,-43.457,69.336,-37.109,-60.547,55.176,0
1542738231.594,-27.344,53.223,-34.668,-40.039,-8.301,0
1542738231.598,-22.461,69.824,-20.020,-29.297,4.395,0
1542738231.602,-24.902,55.664,-11.719,-30.273,26.855,0
1542738231.606,-8.789,45.898,-3.418,-5.371,67.871,0
1542738231.610,-6.836,56.152,-10.254,1.953,74.219,0
1542738231.614,0.488,51.270,-21.973,6.836,17.578,0
1542738231.617,17.578,69.336,-13.184,20.996,25.391,0
1542738231.621,0.977,62.500,-10.742,11.230,41.992,0
1542738231.625,-4.883,30.273,-10.742,1.953,39.062,0
1542738231.629,0.000,18.555,-11.719,8.789,73.730,0
1542738231.633,-4.395,28.320,-9.277,9.277,100.586,0
1542738231.637,7.812,35.645,0.977,7.812,89.844,0
1542738231.641,8.301,38.574,5.371,17.090,48.340,0
1542738231.645,0.000,42.480,1.953,14.160,-6.836,0
1542738231.649,7.324,45.410,4.883,16.602,17.578,0
1542738231.653,16.602,62.988,8.789,36.621,22.461,0
1542738231.657,16.113,74.707,15.137,39.062,-3.906,0
1542738231.660,2.930,49.316,12.695,20.996,-4.395,0
1542738231.664,0.977,25.879,11.719,16.113,-12.695,0
1542738231.668,9.766,29.297,19.043,25.879,54.688,0
1542738231.672,4.395,38.086,20.508,19.043,67.383,0
1542738231.676,-0.488,39.062,14.648,9.766,52.734,0
1542738231.680,3.418,36.621,15.625,28.320,65.430,0
1542738231.684,5.859,43.457,20.508,37.109,18.066,0
1542738231.688,9.277,53.711,23.926,39.062,13.184,0
1542738231.692,12.207,39.551,26.855,32.227,50.781,0
1542738231.696,18.066,48.340,30.762,28.320,25.879,0
1542738231.699,21.484,68.359,35.156,42.480,32.227,0
1542738231.703,9.766,55.176,34.180,50.781,0.977,0
1542738231.707,12.207,34.668,36.133,46.387,-7.812,0
1542738231.711,10.742,22.949,29.785,35.156,83.496,0
1542738231.715,7.812,27.832,25.879,34.668,91.797,0
1542738231.719,9.277,36.621,22.949,40.039,32.715,0
1542738231.723,-2.930,44.434,19.043,43.457,14.648,0
1542738231.727,6.836,42.480,26.367,32.715,42.480,0
1542738231.731,25.879,54.199,32.715,32.227,108.887,0
1542738231.735,18.066,68.359,35.156,43.945,95.703,0
1542738231.739,11.230,47.363,35.645,44.434,61.035,0
1542738231.742,6.836,21.973,35.156,40.527,76.172,0
1542738231.746,4.395,17.578,29.785,36.133,73.242,0
1542738231.750,0.977,16.602,27.344,46.875,39.062,0
1542738231.754,20.996,14.160,37.598,69.336,15.137,0
1542738231.758,22.461,28.320,34.180,43.945,50.781,0
1542738231.762,-10.254,47.852,27.832,8.301,40.527,0
1542738231.766,-6.836,62.012,24.414,12.695,8.789,0
1542738231.770,11.719,68.848,11.719,24.902,47.363,0
1542738231.774,3.418,57.129,14.648,24.414,65.430,0
1542738231.778,5.371,69.824,35.645,30.762,21.484,0
1542738231.782,12.695,84.473,31.738,35.645,14.160,0
1542738231.785,10.254,62.012,21.973,26.855,36.133,0
1542738231.789,12.207,39.062,22.949,27.344,67.383,0
1542738231.793,8.789,30.762,19.531,30.762,108.398,0
1542738231.797,12.695,37.109,27.344,37.109,146.484,0
1542738231.801,9.766,38.574,23.926,37.109,86.914,0
1542738231.805,3.906,36.133,19.531,35.156,-19.043,0
1542738231.809,5.371,34.180,23.926,25.879,-62.500,0
1542738231.813,6.348,41.016,31.250,24.902,-3.906,0
1542738231.817,12.695,70.312,39.062,34.668,-33.691,0
1542738231.821,8.789,58.594,35.645,32.227,-63.477,0
1542738231.824,-3.418,25.879,36.621,19.531,6.348,0
1542738231.828,0.977,15.137,32.715,21.973,34.668,0
1542738231.832,0.977,16.113,25.391,26.367,35.156,0
1542738231.836,6.348,29.297,31.250,29.785,39.551,0
1542738231.840,18.066,41.016,31.738,40.039,48.828,0
1542738231.844,6.836,41.016,32.227,30.273,27.832,0
1542738231.848,2.930,35.156,36.621,24.414,6.836,0
1542738231.852,9.277,29.297,31.738,26.367,17.578,0
1542738231.856,16.602,43.457,36.133,47.363,29.297,0
1542738231.860,21.484,60.547,46.875,49.805,41.992,0
1542738231.864,10.254,43.945,40.527,16.113,6.348,0
1542738231.867,6.836,26.367,30.762,14.160,14.160,0
1542738231.871,4.395,26.367,31.738,15.625,75.684,0
1542738231.875,8.789,40.039,42.480,25.391,35.645,0
1542738231.879,13.672,41.504,48.340,34.668,-37.598,0
1542738231.883,10.254,35.156,43.945,44.922,-22.949,0
1542738231.887,17.578,30.762,32.715,43.945,18.555,0
1542738231.891,21.484,46.387,34.180,40.527,73.730,0
1542738231.895,20.508,62.500,43.945,49.805,82.520,0
1542738231.899,14.160,45.410,34.668,40.039,51.270,0
1542738231.903,15.625,31.738,29.785,25.879,58.105,0
1542738231.907,23.438,32.715,39.551,34.668,15.625,0
1542738231.910,18.555,34.668,44.922,40.039,-19.043,0
1542738231.914,21.973,33.203,37.598,35.645,19.531,0
1542738231.918,17.578,37.109,35.156,44.922,13.184,0
1542738231.922,9.277,39.062,37.598,41.504,33.691,0
1542738231.926,18.555,59.570,43.945,38.086,75.195,0
1542738231.930,12.695,54.199,37.598,37.109,60.547,0
1542738231.934,7.812,21.484,30.762,26.855,34.668,0
1542738231.938,6.348,17.090,34.180,25.879,15.625,0
1542738231.942,15.625,23.438,27.832,37.598,43.457,0
1542738231.946,42.480,29.297,26.855,64.941,62.988,0
1542738231.949,24.902,36.621,44.922,48.340,15.137,0
1542738231.953,-18.555,30.762,52.734,-1.953,-20.508,0
1542738231.957,-12.207,21.973,46.387,9.277,43.945,0
1542738231.961,-7.324,27.832,44.434,25.879,56.152,0
1542738231.965,-4.883,24.902,48.828,21.484,50.293,0
1542738231.969,26.367,44.922,58.105,38.574,-1.953,0
1542738231.973,20.020,59.082,54.199,39.551,-47.363,0
1542738231.977,6.836,30.762,44.434,21.973,32.227,0
1542738231.981,9.766,25.391,49.805,29.785,22.461,0
1542738231.985,2.441,36.133,49.805,32.715,16.602,0
1542738231.989,7.324,29.785,44.434,30.273,46.387,0
1542738231.992,15.625,29.785,47.363,40.527,28.320,0
1542738231.996,19.531,35.645,51.270,46.387,49.316,0
1542738232.000,12.695,38.086,45.410,41.992,78.613,0
1542738232.004,4.395,54.688,43.945,45.898,84.961,0
1542738232.008,11.719,55.664,40.527,30.273,66.406,0
1542738232.012,6.836,27.832,33.691,18.555,25.879,0
1542738232.016,-1.465,20.508,33.691,20.508,53.711,0
1542738232.020,-0.977,27.832,29.297,21.484,61.035,0
1542738232.024,6.836,25.391,31.738,37.109,5.859,0
1542738232.028,11.230,24.902,43.945,38.086,19.043,0
1542738232.032,3.418,27.832,39.062,37.598,76.172,0
1542738232.035,15.137,38.574,37.109,42.969,50.293,0
1542738232.039,22.949,60.547,40.527,38.574,-18.555,0
1542738232.043,11.230,57.129,39.551,34.668,18.555,0
1542738232.047,2.441,32.715,32.227,37.598,27.344,0
1542738232.051,8.789,14.648,22.461,41.016,24.414,0
1542738232.055,10.742,22.461,25.391,40.527,47.363,0
1542738232.059,12.695,28.809,32.715,41.992,29.785,0
1542738232.063,29.785,34.180,42.480,54.688,57.129,0
1542738232.067,20.508,44.434,48.340,51.270,74.219,0
1542738232.071,14.160,40.527,51.270,42.480,68.359,0
1542738232.074,21.973,36.133,42.480,49.316,77.637,0
1542738232.078,12.207,37.109,32.227,40.039,26.367,0
1542738232.082,18.555,54.688,41.016,42.480,-13.672,0
1542738232.086,23.438,61.523,49.805,39.551,-1.953,0
1542738232.090,6.348,31.738,44.434,30.273,54.688,0
1542738232.094,2.441,13.672,33.691,37.598,43.945,0
1542738232.098,7.812,19.043,30.762,32.715,60.547,0
1542738232.102,16.113,28.809,36.133,34.180,74.219,0
1542738232.106,29.297,27.344,44.922,43.945,34.668,0
1542738232.110,14.648,27.344,44.922,38.574,13.672,0
1542738232.114,7.324,33.203,33.691,33.203,56.152,0
1542738232.117,14.648,38.574,37.598,31.738,66.895,0
1542738232.121,20.996,34.668,43.457,34.668,92.285,0
1542738232.125,19.531,45.410,40.039,37.109,61.523,0
1542738232.129,20.996,63.965,44.922,35.156,-30.273,0
1542738232.133,23.926,53.223,45.410,39.062,37.598,0
1542738232.137,26.367,39.062,40.527,47.363,95.215,0
1542738232.141,27.832,27.344,43.945,41.016,25.879,0
1542738232.145,14.160,20.996,41.504,34.668,-5.859,0
1542738232.149,18.555,26.367,39.551,35.645,14.160,0
1542738232.153,16.113,36.133,40.527,38.086,11.230,0
1542738232.157,16.113,35.156,35.645,30.273,34.180,0
1542738232.160,34.180,51.270,44.434,34.180,52.246,0
1542738232.164,29.785,59.570,41.016,39.062,17.090,0
1542738232.168,18.555,47.363,25.879,43.457,-6.836,0
1542738232.172,17.090,25.391,22.949,47.363,-17.090,0
1542738232.176,20.508,16.602,20.508,27.832,26.367,0
1542738232.180,11.719,26.855,20.508,30.762,59.570,0
1542738232.184,4.395,29.297,19.531,30.762,60.059,0
1542738232.188,21.973,33.203,23.438,36.133,66.895,0
1542738232.192,30.273,38.574,30.273,57.129,34.668,0
1542738232.196,10.742,37.598,24.414,46.875,16.602,0
1542738232.199,11.230,53.223,28.320,28.809,51.758,0
1542738232.203,15.137,59.570,28.809,23.438,29.297,0
1542738232.207,3.906,34.180,18.555,6.836,12.207,0
1542738232.211,6.348,24.414,27.832,8.789,1.953,0
1542738232.215,11.719,37.598,41.992,26.855,13.184,0
1542738232.219,10.742,42.480,42.969,35.645,7.324,0
1542738232.223,9.766,29.297,35.645,46.387,-6.348,0
1542738232.227,14.648,35.156,32.227,43.457,-3.906,0
1542738232.231,6.348,30.762,28.809,18.555,-11.719,0
1542738232.235,-7.324,10.742,28.809,8.301,10.742,0
1542738232.239,8.301,40.527,40.527,21.973,26.855,0
1542738232.242,19.531,66.895,48.828,30.273,16.602,0
1542738232.246,14.160,44.434,42.969,28.320,36.133,0
1542738232.250,11.719,26.367,34.668,34.668,62.500,0
1542738232.254,17.090,25.879,38.574,30.273,37.598,0
1542738232.258,13.672,29.297,43.457,31.738,13.672,0
1542738232.262,3.418,30.762,44.922,28.320,33.203,0
1542738232.266,3.906,29.297,38.086,16.602,80.078,0
1542738232.270,9.277,32.227,31.250,21.973,55.176,0
1542738232.274,20.020,51.270,40.527,29.297,4.883,0
1542738232.278,17.578,54.199,39.551,37.598,-18.555,0
1542738232.282,0.977,34.668,28.320,24.902,-1.465,0
1542738232.285,-1.953,19.043,29.297,7.324,0.000,0
1542738232.289,-0.488,9.277,36.133,11.719,23.438,0
1542738232.293,10.742,18.555,42.480,23.926,54.199,0
1542738232.297,6.836,23.926,41.992,24.414,24.414,0
1542738232.301,7.324,27.832,37.109,22.461,25.391,0
1542738232.305,12.695,32.227,36.621,26.367,28.320,0
1542738232.309,17.578,45.898,37.598,31.250,29.297,0
1542738232.313,23.926,57.617,41.504,40.527,46.875,0
1542738232.317,9.277,43.945,39.551,35.645,62.988,0
1542738232.321,11.230,30.762,42.969,31.738,57.617,0
1542738232.324,11.719,23.438,44.434,39.551,57.129,0
1542738232.328,14.160,27.344,41.016,38.086,14.160,0
1542738232.332,17.578,34.668,43.457,32.715,5.859,0
1542738232.336,17.578,41.016,44.434,31.738,71.777,0
1542738232.340,14.648,35.645,38.574,16.602,69.824,0
1542738232.344,4.395,25.879,33.691,16.602,5.859,0
1542738232.348,12.695,47.363,41.504,36.621,0.000,0
1542738232.352,29.297,76.660,54.688,51.270,28.809,0
1542738232.356,16.602,50.781,42.480,33.203,49.316,0
1542738232.360,0.488,10.254,26.367,16.602,97.656,0
1542738232.364,7.812,7.324,31.250,28.320,89.844,0
1542738232.367,8.301,21.973,37.109,36.621,47.852,0
1542738232.371,12.207,29.297,38.574,34.180,59.082,0
1542738232.375,18.066,30.273,33.203,34.180,70.801,0
1542738232.379,14.648,33.691,37.109,39.551,58.105,0
1542738232.383,17.090,36.621,40.527,43.945,14.160,0
1542738232.387,22.949,36.133,34.668,34.180,19.531,0
1542738232.391,18.066,36.133,33.203,17.578,22.949,0
1542738232.395,27.832,47.852,44.434,34.180,0.488,0
1542738232.399,41.992,54.199,48.340,55.176,24.902,0
1542738232.403,19.531,32.715,42.480,41.504,28.809,0
1542738232.407,11.230,11.230,43.945,34.180,-9.766,0
1542738232.410,41.504,-0.488,43.945,74.707,-8.789,0
1542738232.414,44.434,16.602,41.504,71.289,46.387,0
1542738232.418,-14.648,40.527,38.086,-2.441,55.664,0
1542738232.422,-18.066,48.340,33.691,-5.371,30.273,0
1542738232.426,-5.371,48.828,24.902,9.277,23.438,0
1542738232.430,-0.977,51.758,25.391,6.836,39.551,0
1542738232.434,0.000,56.152,20.996,7.324,37.109,0
1542738232.438,-9.277,53.223,11.719,7.812,35.156,0
1542738232.442,14.160,68.359,15.625,35.645,44.922,0
1542738232.446,25.391,59.082,19.043,42.969,61.523,0
1542738232.449,19.531,31.250,14.648,30.273,52.734,0
1542738232.453,24.902,30.762,8.789,34.668,66.406,0
1542738232.457,28.320,37.109,15.625,45.898,18.066,0
1542738232.461,20.996,44.922,17.578,41.016,11.719,0
1542738232.465,18.555,55.176,17.090,32.227,73.730,0
1542738232.469,19.043,49.316,25.391,44.922,11.230,0
1542738232.473,28.809,62.988,27.344,54.688,21.484,0
1542738232.477,35.156,72.754,20.996,41.016,34.180,0
1542738232.481,24.414,47.363,20.996,34.180,40.527,0
1542738232.485,29.785,34.668,25.879,42.969,46.875,0
1542738232.489,39.551,35.156,21.484,41.016,48.828,0
1542738232.492,38.086,43.457,26.855,41.504,52.246,0
1542738232.496,49.805,58.105,36.133,53.711,35.156,0
1542738232.500,40.527,53.711,26.855,48.828,48.340,0
1542738232.504,26.367,49.316,25.391,43.945,31.738,0
1542738232.508,37.109,62.500,39.062,52.246,30.273,0
1542738232.512,29.297,49.805,31.738,44.922,37.109,0
1542738232.516,16.602,26.367,21.484,36.133,10.742,0
1542738232.520,26.855,16.602,21.484,38.086,58.594,0
1542738232.524,41.504,33.691,25.391,52.734,58.105,0
1542738232.528,36.621,49.316,27.832,61.035,-25.391,0
1542738232.532,29.297,46.875,32.715,52.246,8.789,0
1542738232.535,36.621,41.504,37.109,38.086,74.707,0
1542738232.539,29.785,47.852,25.391,33.203,47.852,0
1542738232.543,26.367,70.801,22.949,42.480,10.254,0
1542738232.547,38.574,71.289,35.645,48.828,12.695,0
1542738232.551,33.203,44.434,30.762,46.875,57.617,0
1542738232.555,30.762,22.461,21.484,46.387,11.719,0
1542738232.559,33.691,20.020,29.785,51.270,-38.574,0
1542738232.563,30.273,30.273,30.762,51.758,30.762,0
1542738232.567,28.809,45.898,34.180,48.828,27.832,0
1542738232.571,27.344,45.410,41.992,41.504,28.809,0
1542738232.574,25.879,36.133,34.180,37.109,52.246,0
1542738232.578,31.738,53.223,27.832,41.504,-2.441,0
1542738232.582,31.738,66.895,32.227,51.270,33.203,0
1542738232.586,22.461,40.527,31.250,41.992,65.918,0
1542738232.590,18.066,20.996,29.785,37.109,73.242,0
1542738232.594,19.043,25.391,35.156,50.781,58.105,0
1542738232.598,26.367,32.715,41.016,48.828,42.969,0
1542738232.602,27.344,36.133,41.992,50.781,39.062,0
1542738232.606,25.391,38.574,39.062,53.711,20.508,0
1542738232.610,23.926,33.691,38.086,38.086,15.137,0
1542738232.614,14.160,23.438,38.574,32.715,20.996,0
1542738232.617,19.531,48.340,49.805,43.457,39.062,0
1542738232.621,28.320,63.965,48.828,54.199,24.902,0
1542738232.625,21.484,28.809,31.738,43.945,18.066,0
1542738232.629,17.578,10.742,35.645,37.598,42.480,0
1542738232.633,21.484,15.137,40.039,46.875,52.246,0
1542738232.637,25.391,30.273,42.969,48.828,58.105,0
1542738232.641,23.926,42.480,43.945,47.852,62.988,0
1542738232.645,20.996,37.598,44.434,46.875,52.246,0
1542738232.649,20.020,26.855,46.875,57.129,35.645,0
1542738232.653,20.508,30.273,38.574,51.270,91.309,0
1542738232.657,21.973,38.086,34.180,30.762,77.148,0
1542738232.660,29.785,36.133,37.109,40.527,55.176,0
1542738232.664,36.621,52.246,42.480,50.781,28.320,0
1542738232.668,33.203,69.824,47.363,43.457,24.414,0
1542738232.672,20.508,48.828,43.457,34.180,81.543,0
1542738232.676,11.230,30.273,32.227,29.297,81.055,0
1542738232.680,28.320,25.879,33.691,43.945,33.203,0
1542738232.684,18.555,26.367,42.480,44.434,-2.930,0
1542738232.688,-19.531,30.273,45.410,17.578,27.344,0
1542738232.692,-17.578,27.832,51.270,17.090,22.461,0
1542738232.696,5.371,22.949,57.129,38.574,20.020,0
1542738232.699,25.391,37.598,62.500,53.223,24.902,0
1542738232.703,19.531,45.410,53.711,47.363,27.344,0
1542738232.707,9.277,37.598,45.898,42.480,20.020,0
1542738232.711,18.066,59.082,54.199,52.246,21.484,0
1542738232.715,22.949,61.523,56.641,49.316,48.340,0
1542738232.719,17.090,32.227,52.246,43.945,24.902,0
1542738232.723,17.578,28.320,60.059,47.852,-6.836,0
1542738232.727,18.555,41.992,61.035,46.875,-8.301,0
1542738232.731,20.508,41.992,55.664,54.688,0.977,0
1542738232.735,22.949,43.945,50.293,55.664,18.066,0
1542738232.739,26.855,55.176,45.898,52.246,1.465,0
1542738232.742,21.973,48.828,46.875,41.016,-20.020,0
1542738232.746,21.973,48.828,54.688,41.992,15.137,0
1542738232.750,32.715,71.777,62.988,54.199,99.609,0
1542738232.754,18.555,59.082,55.176,43.945,72.754,0
1542738232.758,5.859,29.297,48.828,36.621,-35.156,0
1542738232.762,21.973,33.203,51.758,44.922,1.465,0
1542738232.766,27.344,37.598,51.270,49.805,58.105,0
1542738232.770,27.832,39.062,52.246,53.711,41.992,0
1542738232.774,39.062,46.875,54.688,62.012,7.324,0
1542738232.778,27.832,43.945,36.133,51.270,15.625,0
1542738232.782,19.043,43.945,25.879,39.062,10.742,0
1542738232.785,26.855,33.203,26.367,47.363,35.645,0
1542738232.789,35.645,49.805,26.367,60.547,74.219,0
1542738232.793,32.715,71.289,33.203,50.781,30.762,0
1542738232.797,16.113,50.781,27.832,32.715,15.137,0
1542738232.801,10.742,38.574,19.043,33.691,26.855,0
1542738232.805,19.043,30.762,24.414,43.945,59.082,0
1542738232.809,26.855,28.809,27.344,39.551,55.176,0
1542738232.813,27.344,39.062,26.367,37.109,-0.977,0
1542738232.817,29.297,40.039,23.926,38.574,-25.879,0
1542738232.821,27.344,48.340,34.180,47.852,-57.129,0
1542738232.824,23.438,61.523,43.945,53.223,16.602,0
1542738232.828,20.020,40.527,29.297,35.156,65.430,0
1542738232.832,15.625,17.578,22.949,35.645,36.133,0
1542738232.836,10.742,16.113,22.949,41.016,34.668,0
1542738232.840,9.277,29.785,29.297,40.527,80.078,0
1542738232.844,4.395,25.879,31.250,45.898,76.660,0
1542738232.848,34.180,19.043,18.066,58.594,79.590,0
1542738232.852,37.598,34.668,20.020,45.410,44.922,0
1542738232.856,-5.371,26.855,37.109,10.254,-1.953,0
1542738232.860,-7.812,25.879,46.387,21.484,67.383,0
1542738232.864,-2.441,39.551,49.805,40.527,121.094,0
1542738232.867,-5.371,15.137,46.875,33.203,111.816,0
1542738232.871,0.488,0.977,46.387,33.203,73.242,0
1542738232.875,-3.418,4.395,45.898,32.227,79.590,0
1542738232.879,-3.906,13.184,41.504,24.902,24.414,0
1542738232.883,4.883,13.672,33.203,22.461,0.977,0
1542738232.887,1.465,6.836,28.809,21.484,35.156,0
1542738232.891,-6.836,3.906,29.785,28.320,59.570,0
1542738232.895,-1.953,4.883,29.785,25.391,39.551,0
1542738232.899,3.906,12.207,30.762,15.625,45.898,0
1542738232.903,7.324,33.203,37.598,27.832,86.426,0
1542738232.907,14.648,39.062,36.621,31.738,13.184,0
1542738232.910,14.648,20.020,27.344,30.762,20.020,0
1542738232.914,6.836,10.254,24.414,29.785,111.328,0
1542738232.918,-1.465,0.000,22.461,21.973,115.234,0
1542738232.922,3.906,14.160,20.996,27.344,113.281,0
1542738232.926,0.977,14.160,26.367,23.926,106.934,0
1542738232.930,-6.348,3.906,29.297,23.438,85.449,0
1542738232.934,7.812,13.184,25.391,24.902,65.430,0
1542738232.938,23.926,38.574,38.574,36.621,108.887,0
1542738232.942,23.926,54.688,49.316,49.805,35.645,0
1542738232.946,12.207,27.344,29.297,33.691,-74.707,0
1542738232.949,14.160,12.207,23.926,31.738,-33.203,0
1542738232.953,13.672,16.602,31.250,34.180,31.738,0
1542738232.957,5.859,9.277,24.902,25.391,27.344,0
1542738232.961,10.254,8.301,28.809,25.391,2.930,0
1542738232.965,12.207,13.672,31.738,27.832,9.766,0
1542738232.969,3.906,12.207,32.227,30.273,44.922,0
1542738232.973,9.277,44.434,36.133,45.898,50.293,0
1542738232.977,19.531,50.293,39.551,48.340,34.180,0
1542738232.981,20.020,20.996,38.086,41.992,5.859,0
1542738232.985,17.578,13.672,32.227,39.062,-33.691,0
1542738232.989,6.348,18.066,25.879,28.320,7.324,0
1542738232.992,9.277,20.020,24.902,31.250,9.277,0
1542738232.996,20.020,11.230,29.785,43.945,-8.301,0
1542738233.000,30.273,30.762,34.668,53.223,18.066,0
1542738233.004,28.809,56.152,42.480,50.781,21.973,0
1542738233.008,7.324,29.785,34.668,35.156,-9.766,0
1542738233.012,16.113,6.836,26.367,26.367,-13.184,0
1542738233.016,19.531,10.742,34.668,40.527,24.414,0
1542738233.020,13.184,16.602,40.039,47.363,30.762,0
1542738233.024,15.625,18.066,44.922,44.922,3.906,0
1542738233.028,19.531,29.297,46.387,45.898,17.090,0
1542738233.032,12.207,38.574,39.551,37.598,49.805,0
1542738233.035,20.020,70.801,44.434,47.852,54.688,0
1542738233.039,20.996,51.758,34.180,50.293,-11.719,0
1542738233.043,5.859,-5.371,26.367,34.180,-19.043,0
1542738233.047,14.648,17.090,32.715,27.344,10.742,0
1542738233.051,16.113,44.922,41.016,38.574,-17.090,0
1542738233.055,-2.930,7.812,32.227,35.645,0.000,0
1542738233.059,-2.441,2.441,22.949,33.691,39.551,0
1542738233.063,9.766,23.926,27.832,37.598,6.348,0
1542738233.067,6.836,31.250,35.645,34.668,-20.508,0
1542738233.071,7.324,36.621,36.133,23.926,15.137,0
1542738233.074,17.578,43.945,36.133,41.504,63.477,0
1542738233.078,15.625,54.688,41.992,64.941,22.949,0
1542738233.082,17.578,39.551,26.367,47.363,-1.953,0
1542738233.086,35.645,28.320,16.602,55.664,18.066,0
1542738233.090,20.508,37.598,31.738,42.969,6.348,0
1542738233.094,-14.160,30.273,43.457,4.883,12.695,0
1542738233.098,-34.668,12.695,53.223,14.160,45.410,0
1542738233.102,-38.086,9.277,62.500,24.902,67.871,0
1542738233.106,-15.625,11.719,64.453,27.832,27.344,0
1542738233.110,2.930,20.996,67.871,40.527,25.391,0
1542738233.114,2.441,23.926,65.918,37.109,61.523,0
1542738233.117,-3.418,37.109,56.641,27.344,59.570,0
1542738233.121,1.465,63.477,54.688,35.645,77.637,0
1542738233.125,0.000,42.480,46.875,36.621,67.871,0
1542738233.129,-4.883,8.301,33.203,34.668,31.738,0
1542738233.133,2.441,4.883,30.273,39.551,-26.367,0
1542738233.137,10.254,15.625,37.598,36.621,-33.203,0
1542738233.141,6.836,24.414,41.016,36.621,48.340,0
1542738233.145,4.883,27.344,40.039,32.227,53.223,0
1542738233.149,7.324,33.203,41.016,33.691,25.391,0
1542738233.153,8.789,41.016,46.875,48.340,77.637,0
1542738233.157,14.648,37.109,44.922,39.551,35.156,0
1542738233.160,6.836,23.438,37.109,22.949,18.066,0
1542738233.164,12.695,42.969,41.504,28.320,45.410,0
1542738233.168,14.160,58.594,37.109,37.109,30.762,0
1542738233.172,0.488,30.273,36.133,37.598,53.711,0
1542738233.176,0.977,12.695,41.504,38.574,36.133,0
1542738233.180,8.789,16.113,35.156,34.668,0.000,0
1542738233.184,13.672,22.949,37.109,36.621,50.293,0
1542738233.188,8.789,28.320,42.969,40.039,82.031,0
1542738233.192,20.996,34.180,41.992,40.039,36.133,0
1542738233.196,27.344,36.621,40.527,37.598,36.621,0
1542738233.199,30.273,47.363,41.504,40.527,45.410,0
1542738233.203,34.668,60.059,43.945,46.387,19.531,0
1542738233.207,17.090,46.387,40.039,45.410,26.855,0
1542738233.211,13.672,24.414,36.133,51.270,54.199,0
1542738233.215,21.973,15.625,39.062,54.199,65.918,0
1542738233.219,26.855,24.902,37.109,41.992,58.594,0
1542738233.223,25.391,34.180,37.598,38.574,38.574,0
1542738233.227,28.809,38.086,39.062,41.992,22.949,0
1542738233.231,28.809,40.527,40.527,42.480,49.805,0
1542738233.235,20.020,42.969,37.598,37.109,64.453,0
1542738233.239,18.066,42.969,39.062,38.574,58.105,0
1542738233.242,33.691,62.012,50.293,58.105,35.645,0
1542738233.246,36.621,59.082,51.270,46.387,7.812,0
1542738233.250,22.949,21.484,46.387,29.785,21.484,0
1542738233.254,20.508,11.230,41.504,26.367,25.391,0
1542738233.258,10.254,17.090,35.645,26.367,17.578,0
1542738233.262,9.277,24.902,39.551,29.785,62.500,0
1542738233.266,12.207,31.250,42.480,31.250,4.395,0
1542738233.270,16.602,36.621,39.062,28.320,8.789,0
1542738233.274,18.555,35.645,42.480,27.832,41.504,0
1542738233.278,17.090,31.250,34.668,28.809,16.113,0
1542738233.282,16.113,37.598,28.320,29.297,18.555,0
1542738233.285,19.531,55.176,38.086,29.785,7.324,0
1542738233.289,17.090,48.828,29.785,27.832,41.992,0
1542738233.293,9.277,26.367,22.949,32.227,57.617,0
1542738233.297,29.785,22.461,25.879,53.223,62.500,0
1542738233.301,25.879,30.273,25.879,43.945,11.230,0
1542738233.305,-11.230,24.902,36.621,0.977,47.852,0
1542738233.309,-12.695,9.277,41.016,0.000,46.875,0
1542738233.313,4.395,13.672,31.738,24.902,6.836,0
1542738233.317,9.277,16.113,33.691,20.020,-0.488,0
1542738233.321,16.113,33.691,38.574,15.137,45.898,0
1542738233.324,28.320,52.734,41.016,32.227,61.035,0
1542738233.328,18.066,32.227,37.109,26.855,41.016,0
1542738233.332,-1.953,6.348,27.832,20.020,50.781,0
1542738233.336,18.066,4.395,28.320,33.203,3.906,0
1542738233.340,32.227,20.996,36.621,41.016,-38.574,0
1542738233.344,17.090,20.508,35.645,49.316,-19.043,0
1542738233.348,20.020,18.066,25.391,41.504,16.602,0
1542738233.352,28.320,25.391,31.250,32.227,19.043,0
1542738233.356,38.086,48.828,38.086,49.805,36.133,0
1542738233.360,40.527,58.594,32.227,46.875,50.781,0
1542738233.364,25.391,29.297,35.645,34.668,14.648,0
1542738233.367,20.020,6.836,36.133,44.922,-14.160,0
1542738233.371,17.578,8.301,33.691,36.621,16.113,0
1542738233.375,27.344,24.414,34.668,33.203,-19.043,0
1542738233.379,27.344,19.531,29.785,33.203,5.371,0
1542738233.383,23.926,29.785,36.133,42.969,72.754,0
1542738233.387,25.391,56.641,40.527,57.129,65.918,0
1542738233.391,17.090,35.156,34.668,47.852,57.617,0
1542738233.395,16.113,6.836,33.203,40.527,11.719,0
1542738233.399,13.672,9.277,32.715,40.527,7.324,0
1542738233.403,18.555,22.949,34.668,35.645,20.996,0
1542738233.407,18.555,25.391,37.109,39.551,13.672,0
1542738233.410,14.160,28.320,37.598,42.480,59.570,0
1542738233.414,20.508,30.273,35.156,31.738,60.547,0
1542738233.418,30.762,37.598,36.621,37.598,40.527,0
1542738233.422,28.320,47.363,45.410,54.688,40.527,0
1542738233.426,23.926,43.945,39.062,33.691,46.387,0
1542738233.430,28.320,57.617,34.180,20.508,39.062,0
1542738233.434,27.344,63.477,36.133,35.156,41.016,0
1542738233.438,22.949,39.551,30.273,26.855,60.059,0
1542738233.442,19.531,19.043,26.855,23.438,51.270,0
1542738233.446,12.695,11.719,25.879,29.297,29.785,0
1542738233.449,13.672,22.461,30.762,30.273,5.859,0
1542738233.453,26.367,38.574,38.086,36.621,8.789,0
1542738233.457,29.785,48.828,33.203,41.992,21.973,0
1542738233.461,14.648,24.902,30.762,38.086,-0.488,0
1542738233.465,33.691,-6.348,41.016,57.617,-21.484,0
1542738233.469,63.477,20.020,43.945,76.660,10.254,0
1542738233.473,37.598,56.641,32.227,45.410,39.062,0
1542738233.477,15.137,79.102,29.297,20.996,30.762,0
1542738233.481,23.926,91.309,18.555,24.414,29.785,0
1542738233.485,25.879,74.707,-4.395,-13.184,32.227,0
1542738233.489,21.484,68.359,-13.672,-19.531,52.734,0
1542738233.492,51.270,63.477,-19.043,36.621,66.406,0
1542738233.496,66.895,72.266,-26.855,32.715,41.016,0
1542738233.500,47.852,79.590,-17.578,20.020,29.785,0
1542738233.504,41.504,66.406,-0.977,40.527,52.246,0
1542738233.508,41.016,60.059,-1.465,33.691,48.828,0
1542738233.512,41.992,59.570,-2.441,30.762,44.434,0
1542738233.516,58.594,49.316,0.000,41.016,54.688,0
1542738233.520,65.430,64.453,-2.441,43.945,25.391,0
1542738233.524,57.617,82.031,-3.418,36.133,3.418,0
1542738233.528,53.223,64.941,-1.953,32.715,71.289,0
1542738233.532,60.547,54.688,3.906,49.805,30.762,0
1542738233.535,60.059,50.781,1.953,52.246,37.598,0
1542738233.539,47.363,45.410,-1.465,40.039,78.125,0
1542738233.543,43.945,33.203,3.418,49.805,45.898,0
1542738233.547,52.246,35.645,9.277,57.617,45.410,0
1542738233.551,49.805,48.828,12.207,46.387,53.223,0
1542738233.555,51.758,65.430,24.414,46.875,51.758,0
1542738233.559,43.945,67.871,26.367,43.457,21.973,0
1542738233.563,24.902,43.457,14.160,30.273,51.270,0
1542738233.567,24.414,29.785,12.207,29.297,22.949,0
1542738233.571,29.785,40.527,15.137,33.203,4.395,0
1542738233.574,33.203,38.574,13.184,43.457,3.418,0
1542738233.578,33.691,33.691,19.043,40.039,-19.531,0
1542738233.582,29.785,40.039,20.508,31.250,-7.324,0
1542738233.586,25.879,37.109,20.020,24.414,7.812,0
1542738233.590,24.414,36.621,25.391,24.902,27.344,0
1542738233.594,20.996,57.617,30.273,44.922,31.250,0
1542738233.598,25.391,69.336,28.809,44.434,-20.996,0
1542738233.602,30.273,56.641,23.926,34.668,-17.090,0
1542738233.606,15.625,30.762,21.484,23.438,19.531,0
1542738233.610,6.348,15.137,13.672,16.602,31.250,0
1542738233.614,18.066,22.949,17.090,17.090,21.484,0
1542738233.617,22.949,28.809,22.949,25.391,-0.977,0
1542738233.621,20.996,31.738,18.555,29.785,15.625,0
1542738233.625,11.719,37.598,20.996,36.621,44.434,0
1542738233.629,20.020,61.035,30.273,33.691,40.039,0
1542738233.633,22.461,50.781,31.250,32.715,35.156,0
1542738233.637,3.906,24.902,27.344,28.809,62.988,0
1542738233.641,-3.418,16.113,22.949,20.996,108.887,0
1542738233.645,2.441,29.785,23.926,25.391,63.477,0
1542738233.649,4.883,46.387,28.320,24.902,15.137,0
1542738233.653,-1.953,35.645,30.762,24.414,-1.465,0
1542738233.657,6.836,31.738,29.297,16.602,11.719,0
1542738233.660,7.812,35.156,28.809,23.438,-20.996,0
1542738233.664,8.301,40.527,22.949,31.250,-45.410,0
1542738233.668,22.949,54.199,27.832,35.645,-31.738,0
1542738233.672,15.625,62.012,35.645,42.480,-19.043,0
1542738233.676,9.277,44.434,24.902,32.715,69.824,0
1542738233.680,13.184,28.809,29.297,22.949,41.992,0
1542738233.684,26.855,29.785,41.504,34.668,-4.395,0
1542738233.688,40.527,32.715,31.250,62.988,56.152,0
1542738233.692,26.855,30.273,31.250,51.270,33.691,0
1542738233.696,2.441,33.203,46.875,22.949,23.438,0
1542738233.699,-1.465,23.926,45.410,28.809,16.602,0
1542738233.703,4.883,14.160,43.945,39.551,19.531,0
1542738233.707,19.531,41.016,47.363,43.457,22.949,0
1542738233.711,18.066,59.082,34.180,36.621,-3.906,0
1542738233.715,2.930,31.250,29.297,28.320,46.875,0
1542738233.719,-0.488,14.648,36.621,38.086,64.941,0
1542738233.723,11.230,25.879,32.227,35.645,33.203,0
1542738233.727,14.648,34.668,31.250,32.715,61.523,0
1542738233.731,9.766,44.922,41.504,37.109,104.004,0
1542738233.735,6.836,44.922,42.969,26.367,87.402,0
1542738233.739,-2.441,24.414,36.133,22.949,30.762,0
1542738233.742,-7.324,16.602,32.227,29.297,72.266,0
1542738233.746,10.742,45.410,40.527,46.387,43.457,0
1542738233.750,26.855,68.848,51.758,48.828,45.898,0
1542738233.754,10.742,47.852,51.270,26.855,69.336,0
1542738233.758,14.160,39.062,46.387,32.227,-23.926,0
1542738233.762,18.555,33.203,37.598,25.879,-4.395,0
1542738233.766,14.160,25.391,37.598,45.898,28.809,0
1542738233.770,12.695,37.109,38.574,58.105,41.504,0
1542738233.774,23.438,51.758,43.457,37.598,5.371,0
1542738233.778,31.738,49.316,47.363,48.828,8.301,0
1542738233.782,29.297,38.574,40.039,48.828,50.781,0
1542738233.785,36.621,61.523,44.434,58.594,42.969,0
1542738233.789,34.668,76.172,47.363,59.570,34.180,0
1542738233.793,25.391,49.316,39.551,36.621,-9.766,0
1542738233.797,26.367,28.320,45.898,38.086,50.781,0
1542738233.801,24.414,30.762,46.387,52.734,82.520,0
1542738233.805,27.344,49.316,50.781,64.453,-6.836,0
1542738233.809,19.043,43.945,51.758,51.270,-2.930,0
1542738233.813,7.324,32.227,36.621,28.320,42.480,0
1542738233.817,12.695,29.297,35.645,30.762,17.578,0
1542738233.821,19.043,47.852,40.039,42.480,-27.832,0
1542738233.824,23.926,61.523,36.133,49.805,16.113,0
1542738233.828,7.812,36.133,33.691,36.133,70.801,0
1542738233.832,7.324,22.461,32.715,30.762,43.457,0
1542738233.836,13.184,29.785,33.691,32.715,35.645,0
1542738233.840,9.766,31.738,35.156,22.949,67.383,0
1542738233.844,5.859,28.809,33.203,29.785,59.570,0
1542738233.848,3.418,31.738,31.250,45.410,33.691,0
1542738233.852,1.953,30.273,26.855,28.809,43.945,0
1542738233.856,8.789,40.039,28.809,29.297,57.129,0
1542738233.860,21.973,61.035,29.785,41.992,65.918,0
1542738233.864,15.625,44.922,21.484,35.645,66.895,0
1542738233.867,7.812,21.484,27.832,36.133,35.645,0
1542738233.871,20.508,27.832,41.016,35.156,0.000,0
1542738233.875,21.973,26.855,34.668,35.645,21.484,0
1542738233.879,14.160,16.602,35.156,45.898,73.242,0
1542738233.883,14.648,19.531,36.133,38.574,37.109,0
1542738233.887,9.766,15.137,31.738,25.879,17.578,0
1542738233.891,20.508,30.273,40.039,29.785,-3.906,0
1542738233.895,30.273,49.805,41.992,41.504,-27.344,0
1542738233.899,17.090,35.645,35.156,36.621,3.418,0
1542738233.903,23.438,16.602,24.414,35.645,8.301,0
1542738233.907,56.152,21.973,13.672,60.547,24.902,0
1542738233.910,48.340,33.203,29.785,74.219,34.668,0
1542738233.914,-8.301,20.996,50.781,39.062,49.805,0
1542738233.918,-32.715,13.184,64.453,-0.488,67.871,0
1542738233.922,-11.230,13.184,70.801,24.414,48.828,0
1542738233.926,0.488,10.254,76.660,46.875,56.641,0
1542738233.930,5.371,1.465,88.379,42.480,61.035,0
1542738233.934,12.695,14.648,87.891,41.992,69.336,0
1542738233.938,10.254,33.691,77.148,27.344,60.059,0
1542738233.942,6.348,15.625,63.965,30.762,31.738,0
1542738233.946,11.719,-0.977,57.617,39.551,40.527,0
1542738233.949,0.000,5.859,59.570,30.273,52.246,0
1542738233.953,1.953,12.207,58.594,39.551,26.367,0
1542738233.957,7.324,9.277,53.711,39.551,11.719,0
1542738233.961,2.441,4.883,55.176,37.109,21.484,0
1542738233.965,12.207,3.906,61.523,45.410,-6.348,0
1542738233.969,19.043,22.949,58.105,45.410,-2.441,0
1542738233.973,22.461,52.246,57.617,44.922,107.422,0
1542738233.977,18.066,35.645,50.781,37.109,143.066,0
1542738233.981,5.859,8.301,43.945,33.203,28.320,0
1542738233.985,8.789,8.789,49.316,41.992,10.254,0
1542738233.989,14.648,19.043,45.410,45.898,22.461,0
1542738233.992,7.324,17.578,43.945,34.668,-0.488,0
1542738233.996,7.324,12.695,44.922,37.598,20.508,0
1542738234.000,5.371,9.277,36.133,30.273,8.789,0
1542738234.004,13.184,16.602,38.574,27.344,-15.137,0
1542738234.008,14.160,45.410,55.176,31.250,19.043,0
1542738234.012,11.230,38.574,55.176,29.297,44.434,0
1542738234.016,18.555,14.648,43.945,33.691,47.363,0
1542738234.020,17.090,15.625,41.504,28.809,52.246,0
1542738234.024,4.883,11.230,39.062,20.508,50.293,0
1542738234.028,4.395,18.066,30.273,35.156,31.250,0
1542738234.032,7.812,22.461,38.574,36.133,66.406,0
1542738234.035,10.742,12.695,43.945,20.020,95.703,0
1542738234.039,3.906,23.926,39.551,21.484,74.219,0
1542738234.043,0.488,51.758,44.922,33.203,39.062,0
1542738234.047,6.836,39.551,48.340,38.086,41.016,0
1542738234.051,3.906,15.625,43.945,34.180,96.680,0
1542738234.055,-1.953,12.695,38.574,30.762,80.566,0
1542738234.059,1.465,15.625,32.227,29.297,55.176,0
1542738234.063,13.184,19.531,34.180,30.762,39.551,0
1542738234.067,6.836,28.320,44.922,32.227,-0.488,0
1542738234.071,6.836,26.367,43.945,26.367,43.457,0
1542738234.074,19.043,18.555,40.039,33.691,58.105,0
1542738234.078,4.395,15.625,35.156,29.785,47.852,0
1542738234.082,3.906,36.621,38.086,37.109,53.711,0
1542738234.086,21.973,60.547,41.504,41.016,48.340,0
1542738234.090,9.277,41.992,38.086,18.066,31.738,0
1542738234.094,4.883,27.832,33.691,18.066,35.156,0
1542738234.098,9.277,20.020,27.832,29.785,69.824,0
1542738234.102,16.113,15.137,24.414,38.086,65.918,0
1542738234.106,41.016,18.555,31.250,57.129,21.973,0
1542738234.110,27.344,37.109,39.551,39.551,23.438,0
1542738234.114,3.906,48.340,31.738,10.254,15.625,0
1542738234.117,21.484,35.156,18.066,25.391,26.855,0
1542738234.121,15.625,35.156,21.973,38.574,45.410,0
1542738234.125,-5.371,41.504,31.250,28.809,48.340,0
1542738234.129,0.000,59.570,28.320,26.855,33.203,0
1542738234.133,1.953,48.828,19.043,26.367,-6.348,0
1542738234.137,-7.324,6.836,17.090,23.438,17.090,0
1542738234.141,-4.395,4.883,16.113,27.344,22.949,0
1542738234.145,1.465,18.555,17.578,25.879,32.715,0
1542738234.149,0.488,23.438,21.484,38.086,56.152,0
1542738234.153,4.395,25.391,20.508,36.621,64.453,0
1542738234.157,-3.906,28.809,25.879,28.320,95.215,0
1542738234.160,10.254,36.133,33.691,28.320,77.637,0
1542738234.164,27.344,35.645,34.668,41.992,19.531,0
1542738234.168,23.926,45.410,39.551,31.738,-6.836,0
1542738234.172,15.625,38.086,35.156,17.578,-4.883,0
1542738234.176,10.742,14.648,25.879,46.875,-4.395,0
1542738234.180,15.137,10.742,26.367,53.223,-30.273,0
1542738234.184,12.695,18.555,32.227,28.809,-20.996,0
1542738234.188,28.320,29.785,44.922,33.691,47.363,0
1542738234.192,27.344,32.227,45.410,55.176,68.359,0
1542738234.196,37.598,22.461,32.715,51.758,42.969,0
1542738234.199,34.668,23.438,35.156,52.734,34.180,0
1542738234.203,29.297,31.738,40.527,43.945,2.441,0
1542738234.207,36.133,31.250,35.645,43.457,-3.418,0
1542738234.211,41.016,43.457,36.133,55.176,27.344,0
1542738234.215,42.480,61.523,43.945,57.129,18.066,0
1542738234.219,28.809,43.945,43.457,43.945,64.453,0
1542738234.223,20.996,19.531,38.574,46.875,69.336,0
1542738234.227,21.484,16.602,34.180,46.387,24.902,0
1542738234.231,12.207,27.832,29.297,27.344,71.777,0
1542738234.235,15.137,31.738,28.809,23.438,60.547,0
1542738234.239,19.531,32.715,31.250,38.086,39.551,0
1542738234.242,24.414,28.809,31.250,45.898,54.199,0
1542738234.246,38.574,47.852,39.062,52.246,-5.371,0
1542738234.250,24.902,61.035,39.551,52.734,-1.953,0
1542738234.254,4.883,36.133,31.738,41.016,52.734,0
1542738234.258,11.719,15.137,30.273,41.992,12.207,0
1542738234.262,21.484,7.812,32.227,44.922,63.477,0
1542738234.266,14.648,18.066,35.156,39.551,79.590,0
1542738234.270,15.625,34.180,40.527,40.039,-9.277,0
1542738234.274,20.508,47.363,43.457,43.945,-4.883,0
1542738234.278,18.555,50.293,45.898,44.922,24.902,0
1542738234.282,15.137,43.945,53.223,40.527,31.250,0
1542738234.285,6.348,59.570,54.688,23.926,43.457,0
1542738234.289,-4.395,99.609,66.406,18.555,62.988,0
1542738234.293,-50.293,96.680,68.359,-24.414,20.020,0
1542738234.297,-93.262,94.727,89.844,-64.941,13.184,0
1542738234.301,-140.137,114.258,96.680,-119.141,54.199,0
1542738234.305,-196.777,145.020,99.121,-169.922,32.715,0
1542738234.309,-259.766,181.641,139.160,-239.258,-6.348,0
1542738234.313,-314.453,211.426,179.199,-307.617,-11.230,0
1542738234.317,-349.121,234.863,201.172,-331.543,13.184,0
1542738234.321,-376.953,241.211,221.680,-367.676,20.508,0
1542738234.324,-397.461,242.676,240.234,-384.277,-3.906,0
1542738234.328,-406.250,251.953,251.953,-377.930,-20.508,0
1542738234.332,-403.320,270.020,260.254,-370.605,46.875,0
1542738234.336,-408.203,252.441,254.395,-378.418,75.684,0
1542738234.340,-379.883,218.262,249.023,-357.910,57.129,0
1542738234.344,-354.492,207.520,247.559,-327.637,23.438,0
1542738234.348,-328.125,192.871,233.398,-292.969,-25.879,0
1542738234.352,-278.320,176.270,211.426,-268.555,37.598,0
1542738234.356,-239.746,182.617,198.242,-245.117,72.266,0
1542738234.360,-207.520,155.273,178.223,-197.754,-7.324,0
1542738234.364,-156.250,137.695,152.832,-145.996,-19.043,0
1542738234.367,-122.559,130.371,133.301,-104.492,-3.418,0
1542738234.371,-101.074,91.309,104.980,-76.660,10.742,0
1542738234.375,-56.641,63.477,83.496,-45.898,38.574,0
1542738234.379,-37.109,33.691,72.266,-18.066,64.941,0
1542738234.383,-17.090,20.996,54.688,1.953,24.414,0
1542738234.387,10.742,19.531,31.738,15.137,19.043,0
1542738234.391,20.020,13.672,22.949,30.273,83.496,0
1542738234.395,36.621,4.883,14.648,45.898,133.301,0
1542738234.399,69.336,25.391,8.789,72.754,46.875,0
1542738234.403,84.473,26.855,3.418,87.891,31.738,0
1542738234.407,89.355,-11.719,-17.578,93.262,69.336,0
1542738234.410,102.051,-25.879,-32.227,104.492,26.367,0
1542738234.414,110.840,-36.621,-35.645,124.512,65.430,0
1542738234.418,119.141,-56.152,-37.598,144.043,39.062,0
1542738234.422,136.230,-56.641,-44.922,152.832,23.926,0
1542738234.426,147.949,-37.598,-52.246,153.320,44.434,0
1542738234.430,142.578,-34.180,-49.316,156.250,29.297,0
1542738234.434,146.484,-41.504,-49.805,180.664,35.645,0
1542738234.438,165.527,-15.137,-51.758,194.824,68.848,0
1542738234.442,171.875,-6.836,-51.758,180.176,60.059,0
1542738234.446,167.969,-36.621,-54.199,174.805,64.941,0
1542738234.449,158.691,-60.059,-62.012,167.480,77.148,0
1542738234.453,158.691,-63.477,-62.500,173.340,40.039,0
1542738234.457,168.457,-49.316,-52.734,186.523,-1.465,0
1542738234.461,171.875,-48.340,-57.129,178.711,-5.371,0
1542738234.465,164.062,-52.246,-60.059,180.664,43.457,0
1542738234.469,164.062,-43.945,-54.688,193.848,18.555,0
1542738234.473,169.922,-19.531,-45.410,199.707,-27.344,0
1542738234.477,164.062,-13.672,-46.875,190.430,64.453,0
1542738234.481,151.855,-26.855,-45.898,185.059,31.250,0
1542738234.485,152.344,-43.945,-41.016,179.199,4.883,0
1542738234.489,149.902,-43.457,-47.363,171.387,88.867,0
1542738234.492,154.297,-37.109,-55.176,168.457,43.945,0
1542738234.496,158.203,-38.574,-49.316,171.387,6.836,0
1542738234.500,157.715,-27.344,-36.621,171.875,40.039,0
1542738234.504,159.668,-23.926,-28.320,177.246,40.039,0
1542738234.508,149.902,-26.855,-22.949,184.082,35.645,0
1542738234.512,154.785,-0.977,-21.484,173.828,60.059,0
1542738234.516,149.902,19.043,-17.090,170.410,43.457,0
1542738234.520,135.254,-5.371,-20.996,157.715,42.969,0
1542738234.524,130.859,-31.738,-23.926,151.367,36.621,0
1542738234.528,124.023,-33.691,-17.578,150.391,-9.277,0
1542738234.532,122.559,-22.949,-8.301,147.461,-10.254,0
1542738234.535,131.348,-16.602,-7.812,144.043,23.438,0
1542738234.539,127.930,-12.695,-12.207,134.277,57.129,0
1542738234.543,125.488,9.277,-3.418,149.414,58.594,0
1542738234.547,119.141,20.508,5.371,151.855,55.664,0
1542738234.551,107.910,-7.812,1.465,129.395,31.250,0
1542738234.555,105.469,-23.926,-4.395,129.395,37.598,0
1542738234.559,112.305,-12.695,-3.418,131.836,71.289,0
1542738234.563,111.328,-2.441,-2.441,129.883,69.336,0
1542738234.567,103.027,3.418,4.395,140.137,0.000,0
1542738234.571,99.121,2.441,5.859,128.418,-47.363,0
1542738234.574,94.238,1.465,1.953,104.004,-28.320,0
1542738234.578,95.215,20.020,10.742,112.305,48.828,0
1542738234.582,84.473,31.250,15.137,112.305,56.152,0
1542738234.586,73.242,20.508,15.625,98.145,7.812,0
1542738234.590,68.848,5.371,8.789,90.332,4.883,0
1542738234.594,65.918,-12.695,4.883,82.520,-2.441,0
1542738234.598,76.660,-11.719,10.254,97.656,-10.742,0
1542738234.602,75.195,8.789,16.113,110.840,-17.578,0
1542738234.606,74.707,23.438,24.414,102.539,47.852,0
1542738234.610,70.801,30.273,29.785,104.980,51.758,0
1542738234.614,67.383,26.855,30.273,109.375,31.250,0
1542738234.617,101.074,22.949,40.039,118.652,51.758,0
1542738234.621,89.844,31.250,45.410,105.957,46.387,0
1542738234.625,52.246,31.250,22.461,65.918,32.227,0
1542738234.629,58.594,20.020,7.324,61.035,-15.625,0
1542738234.633,59.570,20.020,2.930,61.523,8.789,0
1542738234.637,43.457,30.762,12.695,51.758,79.590,0
1542738234.641,44.434,30.762,30.762,65.430,55.664,0
1542738234.645,58.105,35.645,31.738,86.914,62.012,0
1542738234.649,46.875,31.250,26.855,72.266,32.715,0
1542738234.653,47.363,25.879,32.227,66.895,-13.672,0
1542738234.657,52.734,24.902,29.785,67.871,27.832,0
1542738234.660,49.316,24.902,27.344,58.594,65.430,0
1542738234.664,40.039,35.645,27.344,61.035,84.473,0
1542738234.668,22.461,23.926,23.438,56.152,45.410,0
1542738234.672,27.344,8.789,30.762,56.152,20.508,0
1542738234.676,38.574,13.672,31.250,50.781,22.461,0
1542738234.680,36.621,26.855,23.926,42.480,37.598,0
1542738234.684,34.180,26.367,21.973,43.457,17.578,0
1542738234.688,40.527,26.855,24.414,47.852,37.598,0
1542738234.692,47.363,38.574,36.621,65.430,64.453,0
1542738234.696,53.223,57.129,44.434,71.289,70.801,0
1542738234.699,54.688,64.453,36.621,62.500,59.082,0
1542738234.703,39.551,39.062,29.785,49.316,25.391,0
1542738234.707,26.367,12.207,31.738,43.945,9.277,0
1542738234.711,34.180,12.207,35.645,54.688,27.832,0
1542738234.715,41.016,24.414,31.250,58.105,-15.625,0
1542738234.719,30.762,23.926,27.344,58.105,-50.781,0
1542738234.723,39.062,33.203,39.551,60.547,6.836,0
1542738234.727,41.504,40.527,43.945,45.898,50.293,0
1542738234.731,19.531,35.645,40.039,32.715,57.617,0
1542738234.735,20.508,52.734,44.434,38.574,-28.809,0
1542738234.739,22.949,52.734,39.062,41.504,-8.789,0
1542738234.742,18.555,25.879,34.180,41.992,71.289,0
1542738234.746,16.602,12.695,37.109,51.758,20.996,0
1542738234.750,26.855,17.090,37.598,49.316,2.441,0
1542738234.754,35.645,21.484,32.715,37.598,45.410,0
1542738234.758,26.367,26.855,32.715,38.086,70.801,0
1542738234.762,21.484,36.621,38.086,40.527,83.984,0
1542738234.766,19.043,42.480,43.945,45.410,71.289,0
1542738234.770,11.230,23.438,33.203,39.551,35.156,0
1542738234.774,13.184,31.738,32.715,40.527,27.344,0
1542738234.778,20.508,49.316,40.039,46.387,30.762,0
1542738234.782,12.207,34.180,28.809,45.410,-2.441,0
1542738234.785,8.301,24.902,28.809,44.434,1.465,0
1542738234.789,17.578,21.973,36.621,45.898,14.160,0
1542738234.793,10.742,22.949,37.598,40.039,25.391,0
1542738234.797,11.719,24.414,35.156,31.738,18.555,0
1542738234.801,22.949,32.715,41.504,39.062,5.371,0
1542738234.805,21.973,33.203,47.852,33.691,62.012,0
1542738234.809,31.250,23.438,36.621,37.109,80.078,0
1542738234.813,50.293,42.969,31.738,74.219,46.387,0
1542738234.817,30.762,57.617,42.480,51.758,62.012,0
1542738234.821,-4.883,33.203,48.340,17.578,96.191,0
1542738234.824,-12.695,12.207,48.340,25.391,33.691,0
1542738234.828,-11.719,5.859,51.270,34.668,-8.789,0
1542738234.832,-3.906,17.090,55.176,38.086,28.809,0
1542738234.836,8.789,20.020,53.711,37.598,45.898,0
1542738234.840,5.371,16.602,47.852,31.738,68.359,0
1542738234.844,0.977,24.902,38.086,20.020,35.645,0
1542738234.848,4.395,41.992,37.598,43.457,-19.531,0
1542738234.852,-1.953,43.945,40.039,32.227,-7.324,0
1542738234.856,-7.812,16.602,33.203,4.883,11.230,0
1542738234.860,9.766,6.836,29.785,13.184,10.742,0
1542738234.864,2.930,13.672,26.855,-8.301,26.855,0
1542738234.867,-0.977,9.766,28.320,16.602,53.223,0
1542738234.871,19.531,15.625,36.133,57.617,39.062,0
1542738234.875,10.254,21.484,35.645,49.316,70.801,0
1542738234.879,1.465,17.090,36.621,31.250,83.496,0
1542738234.883,20.020,14.648,36.621,33.691,59.082,0
1542738234.887,13.672,16.602,27.832,36.133,72.266,0
1542738234.891,3.418,30.273,30.273,44.434,79.102,0
1542738234.895,25.879,51.758,38.086,54.688,71.777,0
1542738234.899,30.762,44.922,34.668,48.828,68.359,0
1542738234.903,21.973,24.902,30.762,39.062,45.410,0
1542738234.907,24.414,16.113,35.645,39.062,25.879,0
1542738234.910,30.273,26.367,42.969,54.688,36.133,0
1542738234.914,30.273,38.086,38.574,58.105,16.113,0
1542738234.918,25.879,23.926,29.297,42.969,22.461,0
1542738234.922,36.621,34.180,35.645,50.293,57.617,0
1542738234.926,53.223,60.547,47.852,64.453,72.266,0
1542738234.930,38.574,37.598,47.363,49.805,37.109,0
1542738234.934,18.066,15.625,34.668,32.227,3.906,0
1542738234.938,29.297,17.578,30.273,49.805,50.781,0
1542738234.942,36.133,22.461,31.738,52.246,70.312,0
1542738234.946,27.832,26.855,36.621,39.551,34.668,0
1542738234.949,20.508,31.738,44.922,48.828,35.645,0
1542738234.953,27.344,41.016,49.316,56.152,34.668,0
1542738234.957,59.570,40.527,54.199,80.566,-30.762,0
1542738234.961,46.387,29.297,40.039,66.406,-57.617,0
1542738234.965,-8.789,25.879,24.414,12.695,-10.254,0
1542738234.969,-0.977,30.762,23.438,1.953,31.250,0
1542738234.973,10.742,46.387,20.508,14.648,-3.418,0
1542738234.977,1.953,61.035,2.930,14.160,29.297,0
1542738234.981,29.297,71.777,-6.348,29.297,58.105,0
1542738234.985,43.945,73.730,-5.371,26.855,-0.488,0
1542738234.989,42.480,69.336,-1.465,29.297,17.090,0
1542738234.992,37.598,60.547,8.789,34.180,22.949,0
1542738234.996,33.691,51.270,14.160,27.832,5.371,0
1542738235.000,38.574,66.895,18.555,36.133,25.879,0
1542738235.004,37.598,65.918,15.625,41.992,52.734,0
1542738235.008,33.203,42.969,13.184,39.062,23.438,0
1542738235.012,30.762,34.668,13.672,33.203,42.969,0
1542738235.016,29.785,31.738,14.648,37.598,76.172,0
1542738235.020,28.809,36.621,18.066,47.852,22.461,0
1542738235.024,34.668,40.527,18.066,48.828,30.273,0
1542738235.028,31.250,38.574,21.973,30.273,59.570,0
1542738235.032,22.461,40.039,25.391,28.809,28.809,0
1542738235.035,14.160,45.410,20.020,28.809,47.852,0
1542738235.039,25.391,43.457,23.438,34.180,67.871,0
1542738235.043,33.691,51.270,30.762,42.480,48.340,0
1542738235.047,44.434,60.547,33.691,47.363,33.203,0
1542738235.051,41.016,46.875,36.133,41.504,57.129,0
1542738235.055,28.320,36.621,28.320,29.785,49.316,0
1542738235.059,32.715,30.762,26.855,30.273,3.906,0
1542738235.063,24.902,30.762,31.738,32.715,41.992,0
1542738235.067,17.090,29.785,27.344,36.133,50.781,0
1542738235.071,27.344,51.270,37.598,51.270,41.504,0
1542738235.074,38.086,67.871,45.898,50.781,34.668,0
1542738235.078,28.809,43.457,30.762,20.020,21.484,0
1542738235.082,15.625,21.973,23.438,18.555,48.828,0
1542738235.086,23.438,20.508,24.414,42.969,79.102,0
1542738235.090,20.020,19.043,24.902,37.109,63.477,0
1542738235.094,22.949,30.273,28.320,28.809,62.012,0
1542738235.098,25.879,39.551,33.203,35.645,130.859,0
1542738235.102,35.645,50.781,44.434,38.574,59.082,0
1542738235.106,43.945,71.777,46.875,40.039,-13.184,0
1542738235.110,23.926,48.340,26.855,27.344,-20.508,0
1542738235.114,15.625,13.672,15.625,25.879,31.250,0
1542738235.117,26.855,10.742,21.973,33.203,92.285,0
1542738235.121,26.367,20.996,29.785,28.809,83.008,0
1542738235.125,23.926,33.203,28.809,30.273,95.703,0
1542738235.129,31.250,41.016,33.691,41.504,63.965,0
1542738235.133,30.762,37.109,37.598,42.480,-16.113,0
1542738235.137,26.855,33.203,30.273,35.645,-14.160,0
1542738235.141,18.555,35.156,26.367,26.367,50.781,0
1542738235.145,30.273,54.688,35.156,31.250,16.113,0
1542738235.149,39.551,66.895,43.945,47.852,-23.438,0
1542738235.153,15.625,36.621,39.551,40.039,-12.207,0
1542738235.157,16.602,22.461,37.109,34.668,35.645,0
1542738235.160,24.902,38.086,38.574,26.855,69.824,0
1542738235.164,35.156,36.621,38.086,23.438,55.664,0
1542738235.168,40.039,32.227,40.527,28.320,106.445,0
1542738235.172,15.625,39.062,40.039,37.598,105.469,0
1542738235.176,9.277,39.551,36.621,40.039,37.109,0
1542738235.180,16.602,34.180,38.086,28.320,38.086,0
1542738235.184,23.438,47.363,41.992,35.645,13.184,0
1542738235.188,20.020,67.383,41.992,39.551,30.762,0
1542738235.192,11.719,47.363,43.457,28.320,68.848,0
1542738235.196,7.812,20.508,42.480,20.996,60.059,0
1542738235.199,13.672,24.902,41.504,29.785,2.930,0
1542738235.203,16.113,30.762,40.527,50.293,-33.691,0
1542738235.207,15.625,23.926,40.039,46.387,5.859,0
1542738235.211,12.695,31.250,44.922,20.508,41.504,0
1542738235.215,15.137,37.598,46.875,16.602,93.750,0
1542738235.219,27.832,39.062,47.852,29.785,107.910,0
1542738235.223,25.391,37.109,42.480,23.926,24.902,0
1542738235.227,19.531,40.039,40.039,24.902,-1.953,0
1542738235.231,13.184,32.227,41.016,27.344,16.602,0
1542738235.235,13.184,43.945,44.922,20.020,38.086,0
1542738235.239,19.043,68.359,42.480,14.160,41.016,0
1542738235.242,-0.488,44.922,29.785,0.488,47.363,0
1542738235.246,26.367,16.113,19.043,43.945,65.430,0
1542738235.250,64.453,16.113,25.879,73.730,68.359,0
1542738235.254,20.020,24.902,45.898,18.555,72.266,0
1542738235.258,-22.461,27.344,60.547,-8.301,62.012,0
1542738235.262,-22.949,23.926,65.918,-2.441,51.758,0
1542738235.266,-12.207,10.742,67.383,26.855,57.617,0
1542738235.270,1.953,20.020,78.613,44.922,38.086,0
1542738235.274,13.184,41.016,90.332,46.387,6.836,0
1542738235.278,11.230,36.133,79.590,32.715,74.219,0
1542738235.282,0.977,29.297,66.406,14.160,54.688,0
1542738235.285,0.488,9.766,53.223,28.809,-6.348,0
1542738235.289,6.348,2.930,41.504,37.109,21.973,0
1542738235.293,10.254,17.090,47.852,37.598,58.105,0
1542738235.297,0.488,13.672,50.293,19.043,69.336,0
1542738235.301,1.953,0.000,48.828,11.719,23.438,0
1542738235.305,25.391,32.715,60.547,44.434,-17.090,0
1542738235.309,26.367,57.617,61.523,43.945,23.926,0
1542738235.313,11.230,30.273,43.457,25.391,53.223,0
1542738235.317,7.324,9.277,41.504,36.133,0.977,0
1542738235.321,6.348,2.930,44.922,31.738,30.762,0
1542738235.324,14.160,10.742,44.434,34.668,79.590,0
1542738235.328,17.578,20.996,45.898,46.387,81.543,0
1542738235.332,11.230,21.484,49.316,41.992,137.207,0
1542738235.336,16.602,24.414,50.293,32.227,67.871,0
1542738235.340,18.555,26.855,45.410,28.809,-32.715,0
1542738235.344,20.996,40.039,49.316,31.738,-23.438,0
1542738235.348,14.160,51.270,48.828,39.551,30.273,0
1542738235.352,-0.977,35.156,42.969,35.156,13.184,0
1542738235.356,6.836,16.113,44.434,28.320,-49.805,0
1542738235.360,15.625,7.324,40.527,22.461,-38.574,0
1542738235.364,17.578,16.113,35.156,16.602,29.297,0
1542738235.367,6.836,24.414,39.551,27.344,33.691,0
1542738235.371,-4.883,18.066,39.551,33.691,50.293,0
1542738235.375,16.113,25.391,41.992,33.691,79.102,0
1542738235.379,29.785,33.691,45.410,37.598,38.086,0
1542738235.383,34.180,29.785,43.945,45.410,38.086,0
1542738235.387,35.156,22.949,38.086,29.785,37.598,0
1542738235.391,29.785,40.527,39.062,38.574,12.695,0
1542738235.395,18.066,55.176,42.480,57.129,0.488,0
1542738235.399,9.277,31.738,33.203,29.785,-8.301,0
1542738235.403,7.324,9.277,33.203,22.461,-2.930,0
1542738235.407,4.883,10.254,30.273,26.855,14.648,0
1542738235.410,14.648,25.391,29.297,19.531,79.590,0
1542738235.414,13.672,32.715,35.645,30.273,53.711,0
1542738235.418,9.766,44.922,39.062,47.363,32.715,0
1542738235.422,12.207,44.434,41.504,39.551,37.598,0
1542738235.426,9.766,23.438,38.574,27.832,-16.602,0
1542738235.430,-6.348,11.719,33.691,22.461,-19.531,0
1542738235.434,-0.488,8.789,32.227,27.344,7.812,0
1542738235.438,10.742,17.578,36.133,33.691,12.695,0
1542738235.442,19.531,36.133,40.039,31.250,29.785,0
1542738235.446,20.020,37.109,36.621,32.227,22.949,0
1542738235.449,4.395,22.949,30.762,35.645,25.391,0
1542738235.453,0.977,12.695,28.809,29.785,19.043,0
1542738235.457,7.812,39.551,42.480,33.691,50.781,0
1542738235.461,2.930,50.293,36.133,33.203,36.621,0
1542738235.465,-7.812,17.578,19.531,13.184,14.160,0
1542738235.469,-7.324,6.836,30.273,20.508,71.289,0
1542738235.473,-3.906,13.184,32.715,22.949,31.738,0
1542738235.477,2.441,19.531,30.762,16.602,16.602,0
1542738235.481,7.812,29.785,27.832,24.414,70.312,0
1542738235.485,12.695,34.668,26.367,19.043,79.590,0
1542738235.489,9.277,20.996,26.855,25.879,59.570,0
1542738235.492,10.254,25.391,30.273,33.691,14.648,0
1542738235.496,4.883,38.086,33.203,30.762,24.902,0
1542738235.500,10.742,36.133,33.691,23.438,8.789,0
1542738235.504,29.297,52.246,35.645,21.973,2.930,0
1542738235.508,46.875,53.711,22.949,51.270,-0.977,0
1542738235.512,38.574,22.949,24.414,59.082,31.738,0
1542738235.516,-1.465,17.578,57.129,22.949,85.449,0
1542738235.520,-32.715,28.320,68.359,3.418,56.152,0
1542738235.524,-35.156,18.066,62.500,6.836,50.293,0
1542738235.528,-18.555,1.465,67.383,15.137,-0.977,0
1542738235.532,-1.465,-2.441,76.660,30.273,20.020,0
1542738235.535,5.371,0.488,74.219,34.668,94.238,0
1542738235.539,3.418,32.227,76.172,37.109,44.922,0
1542738235.543,1.953,48.828,73.730,39.062,55.664,0
1542738235.547,-0.977,16.602,55.176,22.461,71.777,0
1542738235.551,-3.418,-4.395,47.363,23.926,64.453,0
1542738235.555,4.395,10.254,46.387,29.297,68.359,0
1542738235.559,6.348,18.555,50.781,32.227,50.293,0
1542738235.563,11.230,19.043,56.641,40.039,62.988,0
1542738235.567,11.719,16.113,52.246,30.762,42.480,0
1542738235.571,0.000,18.555,51.270,38.086,-68.359,0
1542738235.574,12.695,31.250,58.105,46.875,7.812,0
1542738235.578,1.953,30.273,54.688,30.762,111.328,0
1542738235.582,9.766,47.363,52.734,39.551,53.711,0
1542738235.586,20.996,49.316,54.688,43.457,11.719,0
1542738235.590,-1.465,23.926,50.781,23.926,-16.113,0
1542738235.594,9.277,19.043,50.781,32.227,-15.625,0
1542738235.598,16.113,20.996,51.758,45.410,7.324,0
1542738235.602,18.555,17.090,47.363,49.805,-9.277,0
1542738235.606,21.973,20.020,46.875,40.527,-15.625,0
1542738235.610,19.043,33.203,49.805,35.156,6.836,0
1542738235.614,15.625,31.250,47.852,36.133,45.410,0
1542738235.617,16.113,30.273,43.945,34.180,18.066,0
1542738235.621,20.020,57.617,54.688,50.293,1.953,0
1542738235.625,15.625,53.223,57.129,52.734,28.320,0
1542738235.629,-1.465,30.273,38.574,40.527,64.941,0
1542738235.633,11.719,21.484,34.668,30.762,21.973,0
1542738235.637,35.156,20.996,46.387,37.109,24.414,0
1542738235.641,36.621,30.762,50.781,51.270,28.320,0
1542738235.645,29.785,33.691,45.410,42.480,38.574,0
1542738235.649,29.785,30.273,41.504,41.504,58.594,0
1542738235.653,45.410,45.410,44.922,53.223,26.367,0
1542738235.657,48.340,51.758,50.293,50.293,30.273,0
1542738235.660,27.344,61.035,49.805,44.922,16.602,0
1542738235.664,20.020,59.570,44.922,39.551,-22.949,0
1542738235.668,12.207,29.785,40.527,41.016,-8.301,0
1542738235.672,23.926,14.160,43.457,56.152,37.109,0
1542738235.676,32.715,20.020,45.898,50.293,11.719,0
1542738235.680,29.785,31.738,41.504,40.039,1.953,0
1542738235.684,29.785,36.621,39.551,59.570,53.223,0
1542738235.688,31.738,33.203,41.504,59.570,34.668,0
1542738235.692,36.133,34.180,37.598,40.527,34.668,0
1542738235.696,30.762,33.691,38.574,47.363,88.379,0
1542738235.699,30.273,40.527,47.363,53.711,100.098,0
1542738235.703,40.039,51.758,57.617,59.082,60.059,0
1542738235.707,45.410,65.430,56.152,59.082,26.367,0
1542738235.711,32.227,69.336,51.758,60.547,44.434,0
1542738235.715,28.320,43.457,50.781,50.293,-3.906,0
1542738235.719,27.832,15.625,47.852,36.621,1.953,0
1542738235.723,21.484,14.648,42.969,47.852,62.012,0
1542738235.727,22.949,32.715,42.480,48.828,35.645,0
1542738235.731,30.273,40.039,45.410,49.316,14.648,0
1542738235.735,25.391,36.133,42.969,44.922,58.594,0
1542738235.739,18.066,35.645,41.016,39.062,73.730,0
1542738235.742,20.508,35.156,34.668,44.434,51.758,0
1542738235.746,27.832,54.688,40.039,43.945,44.434,0
1542738235.750,30.762,43.945,45.410,53.711,53.711,0
1542738235.754,20.996,15.625,39.062,59.570,56.641,0
1542738235.758,-3.906,19.531,37.109,17.578,60.059,0
1542738235.762,-2.441,27.832,26.367,2.441,91.309,0
1542738235.766,22.461,44.434,14.648,19.531,69.336,0
1542738235.770,20.996,57.617,13.672,29.297,-6.348,0
1542738235.774,6.836,56.152,18.066,30.273,14.160,0
1542738235.778,8.301,48.828,25.879,25.391,43.945,0
1542738235.782,20.996,62.500,34.668,34.668,33.691,0
1542738235.785,22.461,83.496,40.527,39.551,12.207,0
1542738235.789,18.066,67.871,34.668,41.016,36.133,0
1542738235.793,11.719,33.203,18.555,35.156,69.824,0
1542738235.797,10.254,19.531,8.789,23.926,-4.883,0
1542738235.801,14.648,35.156,19.531,33.203,-48.340,0
1542738235.805,6.836,48.340,28.809,32.227,-14.160,0
1542738235.809,6.348,42.969,23.438,15.625,31.250,0
1542738235.813,11.719,32.227,18.555,17.578,21.973,0
1542738235.817,14.160,45.410,20.508,25.879,14.648,0
1542738235.821,19.531,71.777,28.320,40.527,-5.371,0
1542738235.824,12.695,59.570,26.855,41.992,-36.621,0
1542738235.828,18.555,39.062,21.973,36.133,24.902,0
1542738235.832,19.531,34.180,21.973,39.551,33.203,0
1542738235.836,9.277,31.738,8.789,19.531,50.293,0
1542738235.840,16.602,32.715,5.859,26.855,46.387,0
1542738235.844,12.207,36.621,9.766,41.016,0.488,0
1542738235.848,2.441,32.227,6.836,32.715,21.484,0
1542738235.852,11.230,25.391,3.906,37.598,50.293,0
1542738235.856,8.789,30.273,0.000,30.762,76.172,0
1542738235.860,2.930,39.062,0.488,18.555,64.941,0
1542738235.864,16.602,59.082,10.254,38.574,79.590,0
1542738235.867,2.930,52.734,12.207,29.785,44.922,0
1542738235.871,2.930,16.113,4.883,23.438,56.152,0
1542738235.875,40.527,-6.836,12.695,66.406,79.590,0
1542738235.879,45.898,21.973,15.137,67.383,-12.695,0
1542738235.883,14.648,67.383,3.418,16.113,-6.836,0
1542738235.887,-8.301,72.754,-2.930,-11.719,53.711,0
1542738235.891,7.812,57.129,-12.695,-11.230,-18.066,0
1542738235.895,36.621,58.594,-24.414,9.766,-26.367,0
1542738235.899,23.438,53.711,-25.879,20.020,24.414,0
1542738235.903,25.879,69.824,-15.137,22.949,80.566,0
1542738235.907,27.344,90.332,-10.254,31.250,57.129,0
1542738235.910,15.625,63.965,-17.090,23.438,3.906,0
1542738235.914,35.156,45.410,-14.160,22.461,17.578,0
1542738235.918,37.598,46.875,-12.207,28.809,41.992,0
1542738235.922,37.109,48.828,-16.113,25.879,48.828,0
1542738235.926,41.504,41.504,-8.301,43.945,34.668,0
1542738235.930,46.387,53.223,3.418,64.941,29.785,0
1542738235.934,42.480,62.500,-3.418,45.410,-16.113,0
1542738235.938,36.133,44.922,-10.254,38.574,-10.254,0
1542738235.942,39.062,57.129,-4.883,46.387,30.762,0
1542738235.946,52.246,75.684,-0.488,43.457,11.230,0
1542738235.949,48.828,50.781,0.488,44.434,20.996,0
1542738235.953,36.621,31.738,6.348,43.945,74.707,0
1542738235.957,33.203,24.414,11.719,41.016,82.031,0
1542738235.961,39.551,31.250,10.742,58.105,59.570,0
1542738235.965,53.711,41.016,12.695,66.406,63.477,0
1542738235.969,52.246,40.039,13.184,57.129,42.480,0
1542738235.973,46.387,37.109,9.766,45.898,-0.488,0
1542738235.977,48.340,39.551,9.766,44.922,18.555,0
1542738235.981,52.246,42.969,11.230,53.711,65.918,0
1542738235.985,58.105,58.105,18.555,58.594,47.363,0
1542738235.989,52.734,72.266,22.461,61.523,96.191,0
1542738235.992,41.504,48.828,14.648,56.152,114.746,0
1542738235.996,40.039,15.137,12.207,52.246,20.020,0
1542738236.000,32.715,14.648,9.766,46.875,22.949,0
1542738236.004,30.273,30.273,12.695,47.363,-10.742,0
1542738236.008,36.621,42.480,24.902,52.734,13.672,0
1542738236.012,31.250,46.875,26.855,52.734,84.473,0
1542738236.016,32.715,36.621,19.043,54.688,29.785,0
1542738236.020,41.992,40.527,16.113,44.434,30.762,0
1542738236.024,39.062,47.363,26.855,45.410,55.664,0
1542738236.028,41.504,47.852,37.598,54.199,-0.977,0
1542738236.032,36.621,33.691,34.180,42.480,37.109,0
1542738236.035,29.297,41.016,35.156,43.457,59.570,0
1542738236.039,32.227,54.199,33.203,45.898,61.035,0
1542738236.043,20.508,32.715,22.461,42.969,36.133,0
1542738236.047,2.441,18.066,23.438,37.598,19.531,0
1542738236.051,18.555,33.203,33.691,41.992,36.621,0
1542738236.055,32.715,37.109,38.086,40.527,49.805,0
1542738236.059,41.992,22.949,35.156,54.688,92.773,0
1542738236.063,39.062,27.344,34.668,60.059,67.383,0
1542738236.067,7.324,36.133,32.227,29.297,17.578,0
1542738236.071,6.836,41.016,23.438,24.414,25.391,0
1542738236.074,20.020,38.574,16.113,30.273,25.391,0
1542738236.078,30.762,60.547,26.855,45.410,11.230,0
1542738236.082,20.996,61.523,28.809,41.504,-2.930,0
1542738236.086,14.648,24.902,20.508,35.156,63.965,0
1542738236.090,26.855,17.090,32.227,44.922,97.656,0
1542738236.094,28.809,32.227,43.945,42.480,5.859,0
1542738236.098,35.645,42.969,41.016,45.410,13.672,0
1542738236.102,28.809,40.039,31.738,46.387,50.781,0
1542738236.106,21.484,40.527,39.551,44.922,-17.090,0
1542738236.110,26.855,36.621,41.992,49.805,12.207,0
1542738236.114,22.461,28.809,31.738,43.457,22.949,0
1542738236.117,19.531,33.691,34.180,42.969,18.555,0
1542738236.121,20.996,41.504,38.086,57.617,16.602,0
1542738236.125,22.949,49.805,44.434,48.828,-50.293,0
1542738236.129,40.527,79.590,49.805,44.434,2.441,0
1542738236.133,37.109,68.848,39.062,47.363,16.602,0
1542738236.137,27.344,32.715,35.156,35.156,27.344,0
1542738236.141,33.203,22.461,40.527,34.668,41.992,0
1542738236.145,34.180,23.926,43.945,48.828,9.277,0
1542738236.149,27.344,35.156,50.293,55.176,91.797,0
1542738236.153,21.973,41.016,50.293,47.363,69.336,0
1542738236.157,29.785,43.945,46.387,42.480,13.672,0
1542738236.160,34.668,43.457,43.457,46.875,15.625,0
1542738236.164,28.320,39.062,51.270,51.270,1.953,0
1542738236.168,32.715,46.875,58.105,60.059,36.133,0
1542738236.172,42.969,61.523,57.129,65.918,55.176,0
1542738236.176,38.574,56.641,52.246,58.594,-11.230,0
1542738236.180,30.273,34.668,49.316,48.340,-64.453,0
1542738236.184,29.785,24.414,48.828,44.922,-27.832,0
1542738236.188,34.668,35.156,54.688,46.875,18.066,0
1542738236.192,36.133,42.969,62.500,60.547,60.547,0
1542738236.196,23.438,36.621,56.641,56.641,39.551,0
1542738236.199,18.555,40.527,52.734,42.969,-21.484,0
1542738236.203,19.531,34.668,50.293,42.969,32.227,0
1542738236.207,14.160,26.367,46.387,43.457,14.648,0
1542738236.211,39.062,54.688,45.410,62.988,17.578,0
1542738236.215,77.148,61.523,30.762,98.633,57.617,0
1542738236.219,46.875,33.691,38.086,72.266,42.969,0
1542738236.223,-25.391,15.137,65.430,15.625,23.926,0
1542738236.227,-46.387,13.184,77.637,-8.301,50.781,0
1542738236.231,-45.410,11.719,83.984,-13.672,78.125,0
1542738236.235,-36.133,14.648,93.750,6.836,69.336,0
1542738236.239,-39.062,8.789,99.121,11.719,34.180,0
1542738236.242,-35.156,1.465,105.469,20.020,55.176,0
