timestamps,TP9,AF7,AF8,TP10,Right AUX,Marker0
1553805885.794,38.574,35.156,22.461,52.246,38.086,0
1553805885.798,37.598,37.598,34.180,61.523,-23.438,0
1553805885.802,22.949,26.367,29.297,58.105,15.625,0
1553805885.806,-3.906,34.180,22.949,35.645,43.457,0
1553805885.810,31.738,37.598,23.438,54.199,81.543,0
1553805885.813,40.527,41.016,23.926,82.031,88.379,0
1553805885.817,35.645,43.457,26.367,63.965,32.227,0
1553805885.821,37.598,50.781,25.391,56.641,69.336,0
1553805885.825,22.949,51.758,25.879,73.730,64.941,0
1553805885.829,10.742,55.176,27.832,45.898,19.043,0
1553805885.833,29.785,64.453,34.668,36.133,49.316,0
1553805885.837,22.949,61.035,34.180,14.160,15.137,0
1553805885.841,24.414,52.246,37.109,44.922,-45.898,0
1553805885.845,12.695,59.570,37.598,55.176,31.250,0
1553805885.849,6.348,67.383,32.715,45.898,56.152,0
1553805885.853,35.156,69.336,32.227,73.242,-8.301,0
1553805885.856,3.418,69.824,34.180,65.430,10.254,0
1553805885.860,-7.812,78.125,28.809,28.809,59.082,0
1553805885.864,23.926,77.637,31.250,42.480,68.848,0
1553805885.868,17.578,68.359,34.668,57.129,47.363,0
1553805885.872,-7.812,63.965,40.527,25.879,13.672,0
1553805885.876,-0.488,77.637,38.574,14.648,3.418,0
1553805885.880,20.020,90.332,33.691,40.527,-47.363,0
1553805885.884,18.555,73.242,34.180,33.203,-18.066,0
1553805885.888,9.766,84.473,31.250,45.898,82.520,0
1553805885.892,8.301,99.121,35.645,41.016,41.992,0
1553805885.896,-7.812,93.750,31.738,27.832,-27.832,0
1553805885.899,1.465,92.773,31.250,29.785,47.363,0
1553805885.903,-3.418,89.844,34.180,4.883,73.242,0
1553805885.907,-5.371,85.449,33.691,21.973,-1.465,0
1553805885.911,6.348,80.566,36.133,47.852,29.785,0
1553805885.915,16.113,82.031,44.922,36.621,60.059,0
1553805885.919,-18.066,98.633,38.574,25.391,54.199,0
1553805885.923,-32.715,82.520,41.992,47.852,65.430,0
1553805885.927,15.625,55.664,47.852,57.129,63.965,0
1553805885.931,15.137,79.590,28.809,15.137,26.367,0
1553805885.935,3.906,95.215,32.715,8.789,-34.668,0
1553805885.938,-10.254,84.961,37.598,-4.883,23.926,0
1553805885.942,3.418,73.242,38.086,6.348,89.844,0
1553805885.946,30.273,88.379,34.180,26.855,47.363,0
1553805885.950,-0.977,103.516,26.367,43.945,94.727,0
1553805885.954,-7.812,92.773,29.297,13.672,59.082,0
1553805885.958,4.883,96.191,24.414,1.465,34.180,0
1553805885.962,-14.160,101.074,24.414,14.160,53.711,0
1553805885.966,-8.789,94.727,30.273,5.371,14.160,0
1553805885.970,4.395,84.961,31.250,21.484,54.199,0
1553805885.974,-5.859,75.195,37.109,20.020,54.199,0
1553805885.978,9.766,81.055,40.039,37.598,24.414,0
1553805885.981,15.625,98.633,29.785,20.996,28.809,0
1553805885.985,8.789,90.820,35.156,13.672,11.230,0
1553805885.989,-7.812,75.195,41.992,29.297,95.215,0
1553805885.993,-18.066,77.637,37.109,24.902,58.594,0
1553805885.997,-11.719,83.496,29.297,26.367,28.809,0
1553805886.001,-9.766,94.238,25.391,55.176,41.016,0
1553805886.005,-21.973,87.891,33.691,5.859,38.574,0
1553805886.009,-20.508,75.195,39.551,-24.902,47.363,0
1553805886.013,-21.484,84.473,29.785,21.484,41.504,0
1553805886.017,-28.320,89.355,24.414,-5.859,-36.621,0
1553805886.021,-14.160,83.008,34.668,-31.738,5.371,0
1553805886.024,-22.461,79.590,46.875,28.320,28.809,0
1553805886.028,-41.016,85.938,35.156,29.297,-5.859,0
1553805886.032,-62.500,79.102,26.855,-12.207,35.645,0
1553805886.036,-95.215,74.707,39.551,-21.484,58.105,0
1553805886.040,-25.879,57.129,44.434,4.395,74.707,0
1553805886.044,68.359,54.199,34.668,75.195,47.852,0
1553805886.048,10.254,79.590,33.203,31.250,84.473,0
1553805886.052,-13.184,78.125,38.574,20.508,128.418,0
1553805886.056,24.414,83.008,34.668,59.082,48.828,0
1553805886.060,20.508,81.055,29.785,42.480,39.062,0
1553805886.063,32.715,54.688,38.086,61.035,28.320,0
1553805886.067,56.641,55.176,38.574,75.195,-4.395,0
1553805886.071,24.414,67.383,21.973,13.672,12.207,0
1553805886.075,23.438,67.383,25.879,30.273,17.578,0
1553805886.079,40.527,59.570,38.574,54.688,28.320,0
1553805886.083,29.785,56.641,35.645,52.734,15.625,0
1553805886.087,11.230,56.641,30.273,53.711,-2.441,0
1553805886.091,8.789,53.711,33.691,62.012,42.969,0
1553805886.095,38.574,46.387,39.062,58.594,95.215,0
1553805886.099,21.973,58.594,36.621,64.941,30.273,0
1553805886.103,-17.578,54.199,46.875,38.574,-0.977,0
1553805886.106,-7.812,41.504,46.387,24.414,36.621,0
1553805886.110,-2.930,62.500,38.574,46.387,35.156,0
1553805886.114,21.484,70.801,40.527,19.043,48.828,0
1553805886.118,-16.602,65.918,37.598,3.418,60.059,0
1553805886.122,-61.523,59.082,40.039,39.062,40.527,0
1553805886.126,-13.184,55.664,43.457,55.664,44.434,0
1553805886.130,0.977,59.082,40.039,37.598,78.125,0
1553805886.134,-12.207,73.730,31.250,16.602,55.176,0
1553805886.138,-12.695,70.801,35.645,6.836,69.336,0
1553805886.142,-5.371,43.945,40.527,3.418,63.965,0
1553805886.146,-2.441,59.082,37.109,20.020,45.898,0
1553805886.149,1.465,62.012,38.574,52.246,58.594,0
1553805886.153,23.438,58.594,29.785,27.832,75.684,0
1553805886.157,-6.348,61.523,39.062,1.465,67.871,0
1553805886.161,-59.082,68.359,48.828,-18.066,11.719,0
1553805886.165,-0.977,59.082,44.922,21.484,1.465,0
1553805886.169,11.230,40.527,48.340,54.199,24.902,0
1553805886.173,-46.875,57.129,47.852,18.066,2.930,0
1553805886.177,-16.602,59.082,50.293,46.875,-3.418,0
1553805886.181,41.992,43.457,47.363,76.172,71.777,0
1553805886.185,30.273,54.688,44.922,68.848,55.664,0
1553805886.188,31.738,56.152,47.852,75.684,57.129,0
1553805886.192,30.273,61.035,48.340,83.984,59.082,0
1553805886.196,31.738,70.312,42.480,92.773,52.734,0
1553805886.200,47.852,62.988,43.457,83.008,78.125,0
1553805886.204,58.105,63.965,46.387,55.664,79.102,0
1553805886.208,41.016,73.730,44.922,57.129,1.465,0
1553805886.212,48.340,70.801,45.898,79.590,-43.945,0
1553805886.216,39.062,70.801,49.805,63.965,34.668,0
1553805886.220,-7.812,58.594,49.805,55.176,38.086,0
1553805886.224,-7.324,42.480,62.012,61.523,49.805,0
1553805886.228,5.371,61.035,57.129,39.551,74.707,0
1553805886.231,24.414,88.867,39.062,53.223,-11.230,0
1553805886.235,33.691,82.520,41.016,85.449,-20.020,0
1553805886.239,9.277,64.453,42.969,45.410,25.879,0
1553805886.243,37.598,53.223,43.945,74.219,39.551,0
1553805886.247,30.762,78.613,51.758,53.223,47.852,0
1553805886.251,3.906,90.820,47.852,21.484,38.086,0
1553805886.255,34.668,55.176,45.898,82.520,70.312,0
1553805886.259,29.297,55.664,49.805,65.918,82.031,0
1553805886.263,16.113,55.664,53.711,62.012,104.492,0
1553805886.267,32.715,59.082,56.152,85.449,63.965,0
1553805886.271,26.855,59.570,43.945,38.086,-43.945,0
1553805886.274,16.602,69.336,42.969,28.809,-23.926,0
1553805886.278,-7.324,59.082,97.168,33.691,29.297,0
1553805886.282,12.207,37.109,70.801,25.879,17.578,0
1553805886.286,58.594,60.059,28.809,69.336,-11.719,0
1553805886.290,56.641,68.848,47.852,74.707,15.137,0
1553805886.294,48.828,68.848,37.598,59.570,57.617,0
1553805886.298,38.574,63.965,42.480,77.148,36.621,0
1553805886.302,24.902,60.547,35.645,60.547,12.695,0
1553805886.306,23.438,83.008,42.969,22.461,47.363,0
1553805886.310,44.434,76.172,40.039,58.105,44.922,0
1553805886.313,60.059,35.156,70.801,61.035,45.410,0
1553805886.317,12.695,43.457,64.453,33.691,70.312,0
1553805886.321,11.719,54.199,24.902,62.988,22.461,0
1553805886.325,36.133,62.988,45.410,41.016,32.227,0
1553805886.329,33.691,64.941,48.340,47.363,44.922,0
1553805886.333,48.828,60.059,35.645,86.426,19.043,0
1553805886.337,61.035,62.012,37.598,68.359,42.969,0
1553805886.341,47.363,65.918,45.898,37.598,40.039,0
1553805886.345,13.672,54.688,41.504,40.527,-6.348,0
1553805886.349,25.879,39.062,40.039,67.871,-20.996,0
1553805886.353,40.527,54.199,47.363,74.219,49.316,0
1553805886.356,-0.977,78.125,49.805,-2.441,39.062,0
1553805886.360,-61.523,61.035,57.129,-37.598,3.418,0
1553805886.364,-74.707,51.758,50.781,-44.434,38.574,0
1553805886.368,-56.641,69.336,46.387,-49.316,27.344,0
1553805886.372,-75.684,51.758,66.406,-51.270,12.207,0
1553805886.376,-88.379,37.598,56.152,-66.406,-14.648,0
1553805886.380,-104.492,67.383,56.641,-86.426,44.434,0
1553805886.384,-140.625,62.012,68.848,-130.371,54.199,0
1553805886.388,-129.395,21.973,70.312,-114.258,-1.465,0
1553805886.392,-100.098,38.086,47.852,-72.754,44.922,0
1553805886.396,-109.863,41.992,46.387,-81.543,60.059,0
1553805886.399,-93.750,39.062,43.457,-64.453,59.082,0
1553805886.403,-76.660,32.715,42.969,-41.992,53.223,0
1553805886.407,-21.484,34.668,45.410,-9.277,51.270,0
1553805886.411,-28.320,37.109,42.969,-13.184,33.691,0
1553805886.415,-67.383,21.484,46.875,-12.207,61.523,0
1553805886.419,-40.527,29.785,43.457,-16.113,64.941,0
1553805886.423,-35.645,25.391,46.875,-25.879,44.922,0
1553805886.427,-16.113,25.391,40.039,-2.930,63.965,0
1553805886.431,17.578,37.109,40.527,36.133,13.672,0
1553805886.435,-13.184,31.738,51.758,50.293,2.930,0
1553805886.438,-38.574,43.457,42.969,-8.301,17.090,0
1553805886.442,-22.949,40.527,42.480,-23.926,81.543,0
1553805886.446,-13.672,20.508,47.852,7.324,76.660,0
1553805886.450,0.000,39.551,41.016,36.133,9.277,0
1553805886.454,-0.977,40.039,37.598,45.898,80.078,0
1553805886.458,15.625,33.691,43.457,31.738,47.852,0
1553805886.462,20.020,41.504,46.875,53.711,-41.504,0
1553805886.466,14.160,35.645,41.016,27.832,0.977,0
1553805886.470,8.301,49.316,52.734,-9.277,41.992,0
1553805886.474,-14.160,53.711,50.293,3.418,25.879,0
1553805886.478,-21.973,24.414,42.480,9.766,-1.465,0
1553805886.481,-18.066,33.203,41.504,2.930,43.457,0
1553805886.485,-19.043,43.945,40.039,9.766,62.012,0
1553805886.489,4.883,40.527,42.969,27.832,5.371,0
1553805886.493,19.043,51.270,46.875,16.113,-14.648,0
1553805886.497,-1.465,54.199,36.621,7.812,-10.254,0
1553805886.501,-28.320,43.945,35.645,15.625,13.184,0
1553805886.505,-41.992,45.410,43.457,6.836,54.199,0
1553805886.509,-26.855,53.223,44.434,19.043,66.406,0
1553805886.513,6.348,61.035,44.922,30.273,53.223,0
1553805886.517,8.301,42.969,48.340,-25.391,11.230,0
1553805886.521,28.809,39.551,43.457,0.488,36.133,0
1553805886.524,45.898,42.480,37.109,59.082,42.969,0
1553805886.528,6.348,39.551,41.016,18.555,12.207,0
1553805886.532,-21.484,53.711,43.945,0.488,70.312,0
1553805886.536,-2.441,54.688,40.527,16.602,22.949,0
1553805886.540,14.160,54.688,37.598,10.254,-10.742,0
1553805886.544,-0.488,56.152,39.551,26.855,59.570,0
1553805886.548,-15.625,40.039,41.504,14.160,57.617,0
1553805886.552,-7.812,35.156,44.922,-7.324,25.879,0
1553805886.556,20.996,42.969,41.016,19.531,36.133,0
1553805886.560,26.855,26.367,35.156,44.434,9.277,0
1553805886.563,-8.789,36.133,30.273,15.137,8.789,0
1553805886.567,-26.855,56.641,30.273,6.348,86.426,0
1553805886.571,-12.695,54.199,37.109,-0.977,42.480,0
1553805886.575,6.836,57.129,37.598,-20.996,-29.297,0
1553805886.579,28.320,46.875,37.598,18.066,45.898,0
1553805886.583,5.859,27.832,38.574,18.555,94.727,0
1553805886.587,-11.719,39.551,36.133,10.254,17.090,0
1553805886.591,3.906,52.734,32.715,5.371,68.359,0
1553805886.595,-6.348,42.480,42.480,-0.488,112.305,0
1553805886.599,-2.930,44.434,41.992,-5.859,38.086,0
1553805886.603,8.789,43.945,37.598,22.461,25.879,0
1553805886.606,-17.090,36.621,41.992,37.109,41.016,0
1553805886.610,-20.508,38.574,40.039,20.508,70.312,0
1553805886.614,-19.043,41.504,35.156,12.695,40.527,0
1553805886.618,0.977,36.133,32.715,21.484,50.293,0
1553805886.622,2.930,29.297,34.668,24.902,136.230,0
1553805886.626,-2.441,29.297,37.109,9.277,92.285,0
1553805886.630,4.395,29.297,38.574,1.953,-0.977,0
1553805886.634,-3.418,25.391,41.016,45.410,41.016,0
1553805886.638,-16.113,22.461,36.133,15.625,56.641,0
1553805886.642,-25.879,27.344,30.762,-11.230,62.012,0
1553805886.646,-18.555,34.180,26.367,39.062,61.523,0
1553805886.649,-8.301,25.879,26.855,40.527,42.969,0
1553805886.653,-16.602,22.461,38.086,29.785,34.668,0
1553805886.657,14.648,30.273,39.062,11.719,1.465,0
1553805886.661,37.109,32.715,29.785,26.367,23.926,0
1553805886.665,-1.465,27.832,32.715,44.922,82.031,0
1553805886.669,-34.668,25.391,42.480,4.883,107.910,0
1553805886.673,-29.785,13.672,45.898,13.184,62.012,0
1553805886.677,-22.461,6.836,48.828,6.836,50.781,0
1553805886.681,-24.414,18.066,41.992,-20.508,41.504,0
1553805886.685,-12.207,14.160,38.574,5.371,19.531,0
1553805886.688,-22.461,16.602,43.457,25.879,35.645,0
1553805886.692,-33.691,27.832,40.039,33.691,8.789,0
1553805886.696,-23.438,28.809,30.762,32.715,50.293,0
1553805886.700,13.184,15.625,35.645,33.691,-46.875,0
1553805886.704,-3.418,1.953,42.969,26.855,-71.289,0
1553805886.708,-12.695,5.859,38.574,-4.883,41.504,0
1553805886.712,1.465,22.461,39.062,-0.977,94.238,0
1553805886.716,-18.555,41.016,38.574,-2.441,59.082,0
1553805886.720,3.906,18.066,44.434,12.207,-29.297,0
1553805886.724,8.789,-11.719,51.270,30.273,12.207,0
1553805886.728,1.465,5.371,42.969,37.109,67.871,0
1553805886.731,0.977,22.949,42.969,24.902,18.555,0
1553805886.735,-5.859,17.090,41.016,22.461,-61.523,0
1553805886.739,0.977,12.207,38.086,55.664,26.367,0
1553805886.743,-7.324,14.648,40.527,34.668,52.734,0
1553805886.747,-20.996,-2.441,43.457,26.367,9.277,0
1553805886.751,-23.438,-17.578,42.969,43.945,53.711,0
1553805886.755,-9.766,-15.137,41.992,25.879,73.730,0
1553805886.759,-20.020,-17.090,41.016,2.930,70.801,0
1553805886.763,-25.879,-16.113,38.086,11.230,51.758,0
1553805886.767,-7.324,11.719,34.180,20.020,44.434,0
1553805886.771,-15.137,27.344,24.902,17.578,88.379,0
1553805886.774,-5.371,13.184,31.250,34.668,104.492,0
1553805886.778,22.949,-9.277,44.434,49.805,18.555,0
1553805886.782,9.766,-22.949,43.457,55.664,-27.832,0
1553805886.786,-22.461,-13.672,40.039,33.203,28.320,0
1553805886.790,-20.996,-18.555,40.527,11.230,11.719,0
1553805886.794,-2.441,-11.719,33.203,29.297,-7.324,0
1553805886.798,-5.371,-5.859,31.738,36.621,18.066,0
1553805886.802,5.859,-1.953,35.645,20.020,-14.648,0
1553805886.806,19.043,8.301,38.086,20.508,7.324,0
1553805886.810,-3.906,-8.789,39.062,28.320,41.016,0
1553805886.813,7.812,-19.043,40.527,31.250,10.254,0
1553805886.817,-0.977,-12.695,41.016,12.695,72.266,0
1553805886.821,-17.090,-20.020,41.016,17.090,66.406,0
1553805886.825,-6.836,-28.809,29.297,27.832,-9.766,0
1553805886.829,-15.137,-20.508,18.555,30.273,83.984,0
1553805886.833,-14.648,-18.555,24.414,19.043,73.730,0
1553805886.837,0.000,-27.344,32.227,24.902,44.922,0
1553805886.841,9.766,-40.039,40.527,47.852,103.027,0
1553805886.845,7.812,-40.039,37.109,11.719,34.668,0
1553805886.849,0.488,-18.555,34.668,14.160,6.836,0
1553805886.853,3.418,-28.320,41.016,50.781,94.727,0
1553805886.856,-7.324,-50.293,38.574,45.898,26.367,0
1553805886.860,5.371,-28.809,35.156,18.066,-21.973,0
1553805886.864,12.695,-20.020,34.668,16.602,77.637,0
1553805886.868,-11.719,-27.344,35.156,28.320,62.500,0
1553805886.872,-9.766,-43.945,38.086,22.461,-2.441,0
1553805886.876,-16.113,-44.434,39.062,34.668,44.922,0
1553805886.880,-1.953,-24.414,38.574,39.062,13.672,0
1553805886.884,4.883,-29.297,39.062,18.066,13.184,0
1553805886.888,-11.230,-35.645,35.645,33.203,50.781,0
1553805886.892,-1.953,-39.062,36.621,40.527,72.754,0
1553805886.896,22.461,-36.621,39.062,23.926,-14.648,0
1553805886.899,12.695,-22.949,37.598,42.969,-9.766,0
1553805886.903,-14.160,-30.273,34.180,27.832,67.383,0
1553805886.907,-28.809,-26.855,22.949,-11.230,59.082,0
1553805886.911,-21.484,-29.297,25.879,15.137,90.820,0
1553805886.915,0.488,-25.879,36.133,41.992,5.859,0
1553805886.919,23.926,-25.879,29.785,40.039,0.977,0
1553805886.923,12.695,-34.180,29.297,34.668,-3.906,0
1553805886.927,13.672,-45.410,38.086,46.875,26.855,0
1553805886.931,45.898,-52.246,36.621,73.730,46.387,0
1553805886.935,-3.906,-30.273,32.227,29.785,24.902,0
1553805886.938,-51.758,-21.484,32.715,-38.574,58.594,0
1553805886.942,-35.645,-27.344,32.227,-21.484,27.832,0
1553805886.946,-34.668,-35.645,28.320,-7.812,46.875,0
1553805886.950,-18.555,-45.410,29.297,-23.926,77.637,0
1553805886.954,-26.367,-30.273,34.180,-19.043,29.297,0
1553805886.958,-39.062,-23.926,24.902,-20.996,21.484,0
1553805886.962,-9.277,-35.156,23.438,-6.836,64.941,0
1553805886.966,-16.602,-31.250,32.227,18.555,67.871,0
1553805886.970,-25.391,-32.227,29.785,-4.883,65.918,0
1553805886.974,-14.648,-37.598,26.367,-4.395,43.457,0
1553805886.978,-1.465,-26.367,23.926,26.367,40.527,0
1553805886.981,5.371,-31.738,25.391,13.672,63.477,0
1553805886.985,0.000,-30.762,27.344,15.625,44.922,0
1553805886.989,-19.043,-22.949,29.785,32.227,39.551,0
1553805886.993,-20.508,-25.391,26.367,13.672,67.871,0
1553805886.997,-23.926,-24.902,20.508,-4.395,57.129,0
1553805887.001,-22.461,-27.832,23.438,6.348,101.562,0
1553805887.005,-13.672,-40.527,27.344,4.395,67.871,0
1553805887.009,-21.973,-41.992,35.156,18.555,-3.418,0
1553805887.013,-27.832,-24.414,35.156,-8.789,42.480,0
1553805887.017,-24.414,-28.809,25.391,-4.395,-1.953,0
1553805887.021,-12.207,-37.598,26.855,16.602,-12.207,0
1553805887.024,9.277,-26.367,30.273,16.113,71.289,0
1553805887.028,24.414,-23.926,28.809,36.133,84.473,0
1553805887.032,-15.625,-31.738,26.855,25.391,3.906,0
1553805887.036,-13.184,-29.785,24.902,36.133,-20.996,0
1553805887.040,17.090,-43.457,24.902,40.039,-11.719,0
1553805887.044,-14.648,-50.293,28.320,7.324,21.973,0
1553805887.048,-20.020,-15.625,29.297,15.625,48.828,0
1553805887.052,5.859,-4.883,20.996,18.066,52.246,0
1553805887.056,0.000,-19.043,20.508,18.555,40.039,0
1553805887.060,12.207,-17.578,30.273,14.160,16.113,0
1553805887.063,7.812,-8.789,29.785,25.391,27.344,0
1553805887.067,-24.414,-5.371,23.438,17.578,0.488,0
1553805887.071,-5.371,-8.301,27.344,-3.418,-15.137,0
1553805887.075,-10.254,-9.766,30.762,10.742,1.465,0
1553805887.079,-15.137,-6.348,30.762,19.531,24.414,0
1553805887.083,0.977,-13.672,28.809,14.160,53.711,0
1553805887.087,9.766,-27.344,32.227,23.926,60.547,0
1553805887.091,15.137,-15.625,30.273,29.785,21.484,0
1553805887.095,30.762,-8.301,13.672,39.062,11.230,0
1553805887.099,-0.977,-6.836,21.973,19.043,-2.441,0
1553805887.103,-33.203,-2.441,38.574,-5.371,-5.371,0
1553805887.106,-21.484,-8.301,38.574,31.738,42.480,0
1553805887.110,10.254,-6.348,39.551,52.246,83.008,0
1553805887.114,10.742,-13.184,33.203,22.949,36.133,0
1553805887.118,-2.930,-22.949,27.344,26.367,-4.395,0
1553805887.122,23.926,-10.742,31.250,42.480,45.898,0
1553805887.126,18.555,-15.137,33.691,36.133,2.930,0
1553805887.130,-4.883,-12.695,32.227,24.414,42.969,0
1553805887.134,7.812,-8.301,31.250,-0.977,83.496,0
1553805887.138,10.742,-14.160,29.297,21.484,8.789,0
1553805887.142,6.348,-12.695,29.785,57.129,31.250,0
1553805887.146,18.555,-24.902,22.949,35.156,60.547,0
1553805887.149,16.113,-13.672,20.996,15.625,50.293,0
1553805887.153,25.391,0.977,36.621,40.527,-7.324,0
1553805887.157,14.160,-12.695,35.156,39.551,20.508,0
1553805887.161,-14.648,-2.441,25.879,31.250,49.316,0
1553805887.165,-3.418,-5.859,36.621,47.852,9.766,0
1553805887.169,16.113,-25.391,43.457,29.785,-4.883,0
1553805887.173,20.020,0.977,26.367,32.227,12.695,0
1553805887.177,13.672,16.602,12.207,31.250,52.734,0
1553805887.181,11.230,11.719,25.391,23.438,83.984,0
1553805887.185,13.184,14.160,41.504,13.184,72.266,0
1553805887.188,20.996,3.906,40.039,22.461,26.367,0
1553805887.192,11.230,4.395,34.180,40.527,55.176,0
1553805887.196,5.371,-7.812,39.062,32.715,86.914,0
1553805887.200,26.855,-16.602,38.086,40.527,45.410,0
1553805887.204,32.715,-0.977,32.715,40.527,82.031,0
1553805887.208,20.996,-3.906,38.574,40.527,82.520,0
1553805887.212,16.602,-14.160,38.574,42.480,69.336,0
1553805887.216,6.348,-12.207,34.180,34.180,64.453,0
1553805887.220,-3.418,2.930,35.156,13.184,33.691,0
1553805887.224,12.207,9.766,28.320,11.230,73.242,0
1553805887.228,15.137,3.906,32.715,20.508,69.336,0
1553805887.231,11.230,-25.391,39.551,23.926,32.715,0
1553805887.235,-6.836,-30.273,21.973,17.578,73.242,0
1553805887.239,-6.836,-2.930,19.043,20.996,66.406,0
1553805887.243,18.555,5.371,35.645,38.086,9.277,0
1553805887.247,13.672,-0.488,44.922,28.320,-23.926,0
1553805887.251,1.953,-5.371,42.969,9.766,81.055,0
1553805887.255,6.836,2.441,39.062,16.602,105.469,0
1553805887.259,2.441,4.395,37.598,33.691,19.043,0
1553805887.263,-2.441,-10.254,38.086,30.273,-29.297,0
1553805887.267,-2.441,-8.789,40.527,4.395,-16.113,0
1553805887.271,-7.812,-4.395,36.133,16.113,44.922,0
1553805887.274,-5.371,-11.230,33.203,37.598,62.012,0
1553805887.278,-0.977,-29.297,37.598,25.879,47.852,0
1553805887.282,-4.883,-37.598,36.133,7.812,54.688,0
1553805887.286,22.461,-24.902,22.949,33.691,105.469,0
1553805887.290,36.621,-9.277,30.273,47.363,46.387,0
1553805887.294,-7.324,-1.465,45.898,1.465,44.434,0
1553805887.298,-7.812,-9.277,39.062,0.977,62.988,0
1553805887.302,-0.977,-19.043,35.156,12.207,-20.020,0
1553805887.306,0.000,-21.484,37.598,9.766,-35.156,0
1553805887.310,4.395,-21.973,39.062,15.625,48.828,0
1553805887.313,-20.508,-16.602,31.738,16.602,66.406,0
1553805887.317,-0.977,-7.324,29.785,6.348,41.504,0
1553805887.321,19.043,-10.742,37.598,18.555,56.152,0
1553805887.325,20.508,-20.020,38.086,31.738,34.668,0
1553805887.329,19.531,-10.742,35.156,14.648,20.508,0
1553805887.333,7.812,-5.371,32.715,16.602,68.848,0
1553805887.337,-14.648,-13.184,27.832,28.809,52.246,0
1553805887.341,-23.438,-14.160,24.902,30.273,33.691,0
1553805887.345,-16.602,-11.719,32.227,32.227,115.723,0
1553805887.349,-4.395,-3.418,35.645,38.574,94.727,0
1553805887.353,3.906,-6.836,36.133,26.367,-0.977,0
1553805887.356,2.441,-20.996,38.086,14.648,-24.902,0
1553805887.360,-5.371,-16.113,34.668,33.691,2.441,0
1553805887.364,-20.996,-14.648,30.273,32.227,33.691,0
1553805887.368,-13.184,-31.250,31.738,14.648,34.180,0
1553805887.372,-8.301,-24.902,31.738,22.949,104.492,0
1553805887.376,-12.695,2.930,30.273,22.949,27.832,0
1553805887.380,6.348,7.812,29.785,-5.859,-28.809,0
1553805887.384,-7.812,2.930,32.715,-17.578,58.594,0
1553805887.388,-29.785,-4.395,35.156,5.859,49.316,0
1553805887.392,-5.371,-0.488,24.414,-1.953,37.598,0
1553805887.396,-2.930,-6.836,20.508,-3.906,46.387,0
1553805887.399,-8.301,-17.578,30.273,19.043,67.383,0
1553805887.403,-5.371,-16.602,28.320,25.391,86.426,0
1553805887.407,-18.555,-11.719,18.555,21.973,68.359,0
1553805887.411,-20.508,-14.160,19.043,-2.930,49.805,0
1553805887.415,-3.906,-10.742,27.832,-0.977,47.852,0
1553805887.419,-3.418,-12.207,32.227,4.883,67.871,0
1553805887.423,-10.254,-1.465,28.809,1.465,12.207,0
1553805887.427,-1.953,11.230,27.832,11.230,-2.441,0
1553805887.431,9.766,-0.977,25.879,33.691,17.090,0
1553805887.435,10.254,-6.348,23.438,22.949,24.902,0
1553805887.438,-2.441,-16.602,13.672,-3.418,32.715,0
1553805887.442,-1.953,-28.809,4.395,6.348,22.949,0
1553805887.446,-6.348,-16.113,5.371,8.301,21.973,0
1553805887.450,-17.578,-12.207,5.371,18.066,6.348,0
1553805887.454,-12.695,-12.207,2.930,21.973,57.129,0
1553805887.458,-3.906,2.441,-2.930,-0.977,101.074,0
1553805887.462,11.230,0.977,-5.371,14.648,125.000,0
1553805887.466,5.371,-5.859,-6.836,20.020,83.984,0
1553805887.470,13.184,-23.438,-9.277,28.320,-15.625,0
1553805887.474,13.184,-20.996,0.000,29.297,-10.254,0
1553805887.478,-34.180,-4.883,12.207,-23.438,43.457,0
1553805887.481,-25.879,-2.930,11.230,-25.391,41.016,0
1553805887.485,11.719,-5.859,17.578,13.184,22.461,0
1553805887.489,7.324,-20.508,18.555,15.625,62.988,0
1553805887.493,13.672,-27.344,13.184,17.090,60.059,0
1553805887.497,-5.859,-23.926,11.230,28.809,65.918,0
1553805887.501,-31.250,-16.602,7.324,15.625,57.129,0
1553805887.505,1.953,-14.160,9.277,-12.695,20.020,0
1553805887.509,-1.953,-10.742,12.207,-16.113,84.961,0
1553805887.513,-14.160,-3.906,13.672,2.930,75.195,0
1553805887.517,0.977,-10.254,4.883,20.508,8.789,0
1553805887.521,1.465,-16.602,-1.953,18.555,27.832,0
1553805887.524,2.441,-6.836,10.742,2.441,57.617,0
1553805887.528,-13.184,1.465,21.973,11.719,34.668,0
1553805887.532,-13.184,-7.324,18.066,22.461,11.719,0
1553805887.536,3.418,-11.719,7.324,6.836,18.066,0
1553805887.540,-0.488,-13.184,8.301,10.742,82.520,0
1553805887.544,2.930,-10.254,16.602,17.090,106.934,0
1553805887.548,20.020,-4.395,15.625,8.789,42.969,0
1553805887.552,4.883,-16.113,20.996,2.930,-38.574,0
1553805887.556,-14.648,-8.301,23.438,7.812,-20.508,0
1553805887.560,-6.348,6.348,16.602,2.441,-15.137,0
1553805887.563,-13.184,3.418,14.648,-20.996,41.992,0
1553805887.567,-4.395,-2.930,15.625,2.441,110.352,0
1553805887.571,2.930,-6.836,16.602,13.672,89.844,0
1553805887.575,6.836,-4.395,14.160,10.742,98.633,0
1553805887.579,16.602,-6.836,16.113,24.414,60.059,0
1553805887.583,21.973,-23.438,16.113,28.320,55.664,0
1553805887.587,15.625,-15.625,16.113,13.672,89.844,0
1553805887.591,-15.625,6.348,15.625,-13.184,63.965,0
1553805887.595,-27.344,-6.836,12.207,-11.230,53.711,0
1553805887.599,-15.625,-11.230,8.301,-23.926,95.215,0
1553805887.603,-9.766,0.488,8.789,-6.836,53.223,0
1553805887.606,2.441,-1.465,11.719,23.438,22.461,0
1553805887.610,-4.395,-7.324,9.766,7.324,89.844,0
1553805887.614,-7.812,-5.859,7.324,1.465,100.098,0
1553805887.618,19.531,-15.625,12.207,53.223,58.594,0
1553805887.622,12.695,-5.859,21.484,34.180,37.109,0
1553805887.626,-17.090,16.113,28.320,0.000,47.852,0
1553805887.630,-9.766,7.812,23.926,-10.254,45.410,0
1553805887.634,-9.766,19.043,15.625,-30.762,7.324,0
1553805887.638,-10.254,38.086,14.160,-8.301,-7.812,0
1553805887.642,-3.418,28.809,8.789,-14.160,-0.488,0
1553805887.646,-4.395,26.367,-2.930,-7.812,0.000,0
1553805887.649,-17.578,20.020,0.000,5.371,28.809,0
1553805887.653,-20.020,17.090,3.906,-17.578,44.434,0
1553805887.657,3.906,18.555,1.465,-3.418,29.297,0
1553805887.661,0.977,14.160,6.836,20.508,12.207,0
1553805887.665,-6.348,3.418,1.953,25.391,-1.953,0
1553805887.669,1.465,4.395,1.953,9.766,13.184,0
1553805887.673,12.207,16.113,8.301,-12.695,24.902,0
1553805887.677,8.301,17.090,5.859,12.207,38.574,0
1553805887.681,0.000,12.695,8.789,27.832,7.812,0
1553805887.685,16.602,1.465,13.672,17.090,-52.246,0
1553805887.688,16.602,5.371,11.719,8.789,-9.277,0
1553805887.692,16.113,18.066,8.789,7.812,56.152,0
1553805887.696,13.672,15.625,8.301,21.973,53.223,0
1553805887.700,4.395,10.742,5.371,4.395,85.938,0
1553805887.704,2.930,4.883,9.277,-0.488,104.980,0
1553805887.708,8.301,9.766,13.672,8.789,49.805,0
1553805887.712,12.695,9.766,11.230,11.719,3.418,0
1553805887.716,11.230,1.465,12.207,5.859,79.102,0
1553805887.720,7.812,6.348,10.254,-20.020,97.656,0
1553805887.724,8.789,4.395,8.789,-6.836,36.133,0
1553805887.728,4.883,12.207,10.742,25.879,50.293,0
1553805887.731,0.488,22.949,16.113,33.691,35.645,0
1553805887.735,6.836,22.461,16.113,29.785,30.762,0
1553805887.739,5.371,23.438,7.324,23.926,82.520,0
1553805887.743,15.137,17.090,12.207,37.598,47.852,0
1553805887.747,21.484,11.719,21.484,28.809,44.434,0
1553805887.751,14.648,12.207,18.555,-0.977,71.289,0
1553805887.755,8.301,8.301,20.020,24.414,58.105,0
1553805887.759,12.695,0.977,21.973,23.438,57.129,0
1553805887.763,27.832,4.883,21.973,11.719,36.133,0
1553805887.767,36.621,11.719,18.555,55.176,20.020,0
1553805887.771,6.348,6.836,17.578,37.598,0.488,0
1553805887.774,0.488,-0.488,17.090,-11.230,-56.152,0
1553805887.778,7.324,5.371,15.625,-8.789,-6.836,0
1553805887.782,0.000,11.719,17.578,-5.859,81.055,0
1553805887.786,-2.930,5.859,22.461,17.578,52.246,0
1553805887.790,-10.254,4.883,25.391,11.719,62.988,0
1553805887.794,2.441,2.441,16.602,-0.977,62.500,0
1553805887.798,54.199,0.488,6.348,53.223,50.781,0
1553805887.802,35.645,4.883,26.855,57.129,18.555,0
1553805887.806,-20.996,9.277,43.457,2.441,-2.930,0
1553805887.810,-20.508,1.465,39.551,1.465,40.039,0
1553805887.813,11.719,-9.277,41.504,41.016,44.922,0
1553805887.817,3.906,-9.277,40.039,28.320,36.621,0
1553805887.821,-34.180,-16.602,39.062,-7.812,13.672,0
1553805887.825,-28.320,-19.043,43.945,-9.766,29.297,0
1553805887.829,-9.766,-20.020,49.805,3.418,30.762,0
1553805887.833,0.000,-31.250,48.828,23.438,39.062,0
1553805887.837,7.324,-27.832,45.898,30.273,51.270,0
1553805887.841,-2.441,-24.902,43.945,10.254,38.086,0
1553805887.845,-13.184,-24.414,39.062,-1.953,69.824,0
1553805887.849,-11.230,-15.137,35.645,25.391,30.273,0
1553805887.853,-8.789,-10.742,41.016,37.109,12.695,0
1553805887.856,-0.977,-5.371,37.598,29.297,42.969,0
1553805887.860,11.719,-9.277,34.180,30.273,54.688,0
1553805887.864,0.000,-12.207,36.621,23.926,22.461,0
1553805887.868,-7.812,-5.859,32.715,31.738,23.438,0
1553805887.872,4.883,-20.996,30.273,30.273,52.246,0
1553805887.876,0.000,-25.879,35.156,6.348,50.781,0
1553805887.880,1.465,-12.207,39.062,-4.883,43.945,0
1553805887.884,-3.418,3.418,32.715,6.348,16.602,0
1553805887.888,-20.996,0.977,34.180,23.438,40.039,0
1553805887.892,3.906,0.000,38.574,38.086,33.203,0
1553805887.896,18.555,24.414,36.133,30.273,23.438,0
1553805887.899,9.277,19.043,29.785,13.672,70.312,0
1553805887.903,3.418,8.301,31.250,20.996,56.152,0
1553805887.907,1.953,-1.953,38.086,25.879,3.906,0
1553805887.911,3.906,-9.277,32.715,30.273,-14.648,0
1553805887.915,7.324,-1.953,26.367,20.020,37.598,0
1553805887.919,23.926,-5.371,35.156,20.996,83.008,0
1553805887.923,29.297,-10.742,38.574,18.555,69.824,0
1553805887.927,14.160,-7.324,34.668,0.000,75.195,0
1553805887.931,13.672,-0.488,34.180,6.836,88.867,0
1553805887.935,18.555,12.695,37.109,10.742,61.035,0
1553805887.938,-4.883,18.066,38.574,16.113,20.508,0
1553805887.942,11.719,16.113,38.574,38.086,23.926,0
1553805887.946,11.719,17.578,48.828,40.039,2.441,0
1553805887.950,-25.879,24.414,44.434,24.414,39.551,0
1553805887.954,-34.180,32.227,37.109,-13.672,41.016,0
1553805887.958,-49.805,39.551,43.457,-15.137,0.488,0
1553805887.962,-81.055,57.129,45.898,-22.461,41.504,0
1553805887.966,-102.539,58.105,51.758,-74.707,67.871,0
1553805887.970,-132.812,75.195,57.129,-106.445,50.293,0
1553805887.974,-194.336,111.328,58.105,-171.875,125.977,0
1553805887.978,-239.746,140.137,62.012,-244.141,133.301,0
1553805887.981,-273.438,166.016,67.871,-261.230,66.406,0
1553805887.985,-339.844,186.523,66.406,-313.477,61.523,0
1553805887.989,-350.098,205.566,90.820,-352.539,34.180,0
1553805887.993,-373.047,230.469,93.750,-358.398,30.273,0
1553805887.997,-423.828,238.770,102.539,-381.348,54.199,0
1553805888.001,-397.461,217.285,116.211,-360.840,83.008,0
1553805888.005,-374.512,212.402,109.863,-341.309,11.719,0
1553805888.009,-370.117,230.957,120.605,-357.422,-2.441,0
1553805888.013,-354.980,236.816,131.836,-357.422,-4.395,0
1553805888.017,-350.586,231.445,116.699,-329.102,-13.184,0
1553805888.021,-333.984,216.309,110.840,-294.922,26.367,0
1553805888.024,-292.480,201.172,114.746,-274.414,9.277,0
1553805888.028,-274.902,181.152,116.211,-234.375,30.273,0
1553805888.032,-236.328,175.781,100.098,-218.262,66.895,0
1553805888.036,-182.617,135.742,85.449,-180.176,89.355,0
1553805888.040,-177.734,101.074,78.613,-157.227,57.129,0
1553805888.044,-150.879,95.215,64.941,-152.344,72.754,0
1553805888.048,-113.770,76.172,72.754,-110.840,51.758,0
1553805888.052,-98.633,80.566,73.730,-86.914,30.273,0
1553805888.056,-70.801,49.805,63.477,-62.500,7.324,0
1553805888.060,-52.734,21.484,43.945,-51.758,26.367,0
1553805888.063,-43.457,26.367,30.273,-14.160,68.359,0
1553805888.067,-11.230,19.043,25.879,9.277,20.020,0
1553805888.071,13.184,6.836,8.789,33.691,65.918,0
1553805888.075,51.270,-3.906,0.488,45.410,103.027,0
1553805888.079,68.848,-27.344,2.930,59.082,88.379,0
1553805888.083,64.941,-35.156,-1.465,100.098,37.598,0
1553805888.087,87.891,-26.367,-12.695,94.727,-6.348,0
1553805888.091,104.004,-21.973,-20.996,100.586,28.320,0
1553805888.095,117.676,-31.250,-20.996,124.512,96.680,0
1553805888.099,131.836,-37.598,-19.043,116.699,65.918,0
1553805888.103,113.770,-36.621,-15.137,119.629,-15.137,0
1553805888.106,118.652,-43.945,-14.160,144.043,-23.438,0
1553805888.110,141.113,-39.551,-15.137,146.484,-43.457,0
1553805888.114,134.766,-33.203,-16.113,142.090,-62.012,0
1553805888.118,141.113,-41.016,-17.090,150.879,6.348,0
1553805888.122,142.578,-42.969,-14.648,122.070,43.945,0
1553805888.126,145.020,-43.945,-12.695,136.719,-0.977,0
1553805888.130,146.484,-46.387,-18.555,173.828,25.879,0
1553805888.134,134.277,-51.270,-19.531,147.949,49.805,0
1553805888.138,127.441,-40.527,-17.578,136.230,29.785,0
1553805888.142,131.348,-28.320,-14.648,135.742,70.801,0
1553805888.146,136.230,-33.691,-5.859,134.766,23.438,0
1553805888.149,142.578,-37.598,-3.906,138.184,-7.812,0
1553805888.153,149.902,-40.527,-2.441,130.371,34.668,0
1553805888.157,136.719,-46.387,4.883,143.066,-12.207,0
1553805888.161,129.883,-46.387,7.812,153.320,29.297,0
1553805888.165,136.230,-41.992,6.836,154.785,82.520,0
1553805888.169,121.094,-41.016,8.301,129.883,57.129,0
1553805888.173,118.164,-33.203,10.254,98.145,52.734,0
1553805888.177,121.094,-34.180,8.789,88.867,64.453,0
1553805888.181,88.379,-34.668,10.254,92.773,-6.836,0
1553805888.185,100.098,-36.621,13.672,114.258,-44.434,0
1553805888.188,125.488,-42.969,13.184,119.141,6.836,0
1553805888.192,96.191,-31.738,13.672,107.422,54.688,0
1553805888.196,81.055,-28.809,18.555,102.051,65.918,0
1553805888.200,83.008,-27.344,20.996,99.121,5.371,0
1553805888.204,91.309,-8.789,15.137,105.469,13.184,0
1553805888.208,91.797,-7.324,13.672,105.469,43.457,0
1553805888.212,89.355,-15.137,17.090,91.797,8.789,0
1553805888.216,107.910,-10.254,20.020,84.961,21.484,0
1553805888.220,88.379,-17.578,13.184,80.078,50.293,0
1553805888.224,84.961,-27.832,11.230,84.473,4.395,0
1553805888.228,77.637,-18.066,22.949,85.938,3.906,0
1553805888.231,82.031,-29.297,24.902,94.727,20.020,0
1553805888.235,73.730,-33.203,20.020,82.031,46.387,0
1553805888.239,41.992,-6.348,14.648,67.383,38.574,0
1553805888.243,42.969,7.812,13.672,67.383,20.508,0
1553805888.247,53.711,14.648,20.996,55.664,53.223,0
1553805888.251,62.012,0.977,26.367,73.242,31.250,0
1553805888.255,70.312,-13.672,24.414,69.824,20.020,0
1553805888.259,56.152,-2.441,24.902,45.410,42.969,0
1553805888.263,57.617,7.324,22.949,49.805,40.527,0
1553805888.267,60.059,0.488,18.555,61.035,2.441,0
1553805888.271,28.809,-0.977,20.020,51.758,26.367,0
1553805888.274,20.508,7.812,22.949,53.711,87.891,0
1553805888.278,42.969,4.883,25.391,38.574,25.879,0
1553805888.282,44.922,-10.742,29.297,25.879,-22.949,0
1553805888.286,24.902,-6.348,31.738,44.434,52.734,0
1553805888.290,23.438,10.254,21.484,60.547,75.195,0
1553805888.294,33.691,13.672,19.043,46.875,70.312,0
1553805888.298,40.039,4.395,28.809,22.461,49.805,0
1553805888.302,35.156,3.418,32.715,17.090,58.594,0
1553805888.306,25.879,6.836,30.762,11.719,114.258,0
1553805888.310,41.016,12.695,27.832,33.203,50.293,0
1553805888.313,42.480,4.395,28.809,33.691,42.480,0
1553805888.317,23.438,-3.906,25.879,9.766,102.539,0
1553805888.321,20.020,11.230,27.832,30.762,135.742,0
1553805888.325,30.273,9.766,38.086,49.805,96.680,0
1553805888.329,31.738,12.207,35.645,33.691,36.133,0
1553805888.333,30.762,19.043,28.809,23.926,46.875,0
1553805888.337,31.250,21.973,25.879,24.902,61.523,0
1553805888.341,11.230,23.926,25.879,25.879,52.734,0
1553805888.345,3.906,7.812,33.691,35.156,44.922,0
1553805888.349,23.926,5.371,37.598,22.461,36.621,0
1553805888.353,20.996,13.672,35.156,2.441,30.273,0
1553805888.356,18.066,4.395,33.203,6.836,29.297,0
1553805888.360,12.207,-2.441,23.438,12.207,42.969,0
1553805888.364,11.719,0.000,22.949,14.160,60.059,0
1553805888.368,16.113,0.977,32.715,45.410,52.246,0
1553805888.372,18.066,4.883,32.715,33.691,85.938,0
1553805888.376,20.020,1.953,35.645,23.926,94.238,0
1553805888.380,3.418,-6.836,31.738,20.508,16.113,0
1553805888.384,-1.953,-0.488,26.855,-1.465,20.996,0
1553805888.388,3.418,8.789,28.320,-0.488,45.410,0
1553805888.392,8.789,5.859,32.227,9.766,36.621,0
1553805888.396,1.953,4.883,30.762,4.883,55.664,0
1553805888.399,-5.859,5.859,23.926,3.418,53.223,0
1553805888.403,14.160,-15.625,27.832,15.625,49.316,0
1553805888.407,41.504,-22.461,36.621,9.277,47.852,0
1553805888.411,30.762,11.230,31.738,11.719,55.176,0
1553805888.415,-6.836,9.766,25.879,12.207,77.148,0
1553805888.419,-8.789,0.977,25.879,-7.812,60.547,0
1553805888.423,7.812,18.555,29.297,-1.465,92.773,0
1553805888.427,4.883,20.996,25.391,8.301,55.176,0
1553805888.431,-6.348,13.184,22.949,8.301,36.621,0
1553805888.435,7.812,9.277,30.762,6.836,69.336,0
1553805888.438,17.090,15.625,29.785,1.953,117.676,0
1553805888.442,20.508,20.996,27.832,-2.441,166.016,0
1553805888.446,10.254,-0.488,30.762,6.348,35.645,0
1553805888.450,2.441,0.977,32.227,5.859,-23.438,0
1553805888.454,-0.488,19.531,29.785,10.742,29.297,0
1553805888.458,-2.930,13.672,25.879,16.602,42.969,0
1553805888.462,4.395,19.531,25.879,1.465,13.184,0
1553805888.466,3.418,14.160,29.297,0.977,39.062,0
1553805888.470,-14.160,6.836,25.879,10.742,73.730,0
1553805888.474,-17.090,8.789,25.879,8.789,36.133,0
1553805888.478,-6.348,13.672,24.902,-3.906,48.828,0
1553805888.481,-5.371,4.883,21.484,18.066,40.039,0
1553805888.485,-9.766,-0.977,24.902,20.020,57.617,0
1553805888.489,-6.836,10.254,30.762,-3.418,101.562,0
1553805888.493,-2.441,17.578,28.809,12.207,77.637,0
1553805888.497,5.859,25.391,33.203,13.184,30.273,0
1553805888.501,6.836,21.484,33.203,16.602,21.973,0
1553805888.505,7.324,16.113,25.879,25.879,68.359,0
1553805888.509,16.602,18.555,29.297,9.277,41.992,0
1553805888.513,12.695,21.484,29.785,-2.441,-18.555,0
1553805888.517,11.719,9.277,31.250,1.465,-3.418,0
1553805888.521,7.324,1.465,39.062,-1.465,13.184,0
1553805888.524,7.324,24.414,29.785,5.859,18.555,0
1553805888.528,23.438,26.367,25.879,13.184,61.035,0
1553805888.532,1.953,14.160,34.180,6.348,64.453,0
1553805888.536,12.695,28.320,35.156,-7.812,43.945,0
1553805888.540,17.090,25.879,35.156,1.953,18.066,0
1553805888.544,0.000,14.160,38.574,30.762,28.809,0
1553805888.548,19.531,14.160,38.574,33.691,-10.254,0
1553805888.552,12.695,12.207,30.762,19.043,-21.484,0
1553805888.556,-1.465,23.438,25.879,-2.930,37.109,0
1553805888.560,-12.695,19.043,35.156,-15.137,7.812,0
1553805888.563,-20.020,12.207,30.762,-5.371,-8.789,0
1553805888.567,-9.277,10.742,20.996,19.531,59.570,0
1553805888.571,-6.348,3.906,26.367,41.016,48.340,0
1553805888.575,3.418,1.465,31.250,18.066,23.438,0
1553805888.579,0.977,9.277,31.250,1.953,31.738,0
1553805888.583,-13.672,28.320,25.391,-3.906,87.402,0
1553805888.587,-21.973,27.344,27.832,-19.531,74.707,0
1553805888.591,-26.855,26.367,28.320,2.441,-6.348,0
1553805888.595,-30.762,31.250,26.367,13.184,12.695,0
1553805888.599,-21.973,28.809,26.367,0.977,75.195,0
1553805888.603,-16.602,28.320,23.438,9.766,110.840,0
1553805888.606,-4.883,18.066,26.855,1.465,-18.066,0
1553805888.610,-9.277,12.207,28.809,-12.207,-55.176,0
1553805888.614,-14.160,12.207,26.855,0.977,41.016,0
1553805888.618,6.836,11.230,28.320,9.766,12.695,0
1553805888.622,-3.418,12.207,31.738,9.766,33.203,0
1553805888.626,-7.812,31.250,27.344,-1.953,45.410,0
1553805888.630,7.324,42.480,21.973,-20.020,35.156,0
1553805888.634,0.488,35.645,23.926,-5.859,123.535,0
1553805888.638,-0.977,28.809,29.297,14.160,97.168,0
1553805888.642,1.953,28.320,31.250,4.395,6.836,0
1553805888.646,0.000,26.367,26.855,21.484,10.742,0
1553805888.649,-7.812,19.043,27.344,15.625,-18.066,0
1553805888.653,-17.578,17.090,29.785,0.000,11.719,0
1553805888.657,-7.324,16.602,24.414,11.719,57.617,0
1553805888.661,-2.441,16.602,21.484,8.789,51.758,0
1553805888.665,-9.766,19.531,24.902,3.418,35.645,0
1553805888.669,-6.836,25.879,27.832,-11.230,0.000,0
1553805888.673,11.719,27.344,26.367,11.230,-0.488,0
1553805888.677,-9.277,29.785,27.344,29.297,-3.906,0
1553805888.681,-20.020,34.668,33.203,20.020,24.414,0
1553805888.685,16.602,33.691,34.180,28.320,21.484,0
1553805888.688,6.348,33.691,27.832,3.906,-0.977,0
1553805888.692,6.836,24.414,21.484,0.000,81.055,0
1553805888.696,22.949,31.250,25.391,10.254,91.797,0
1553805888.700,3.906,36.621,23.926,-5.371,42.480,0
1553805888.704,-7.324,9.277,25.391,-10.254,25.879,0
1553805888.708,-16.602,11.230,33.691,18.066,38.086,0
1553805888.712,-6.348,18.555,36.133,16.113,36.133,0
1553805888.716,19.043,20.020,33.203,5.371,69.336,0
1553805888.720,13.672,29.297,27.832,-7.812,75.195,0
1553805888.724,-5.371,30.273,25.391,-15.625,49.805,0
1553805888.728,-13.672,31.250,20.508,2.441,64.453,0
1553805888.731,-16.602,32.227,26.855,11.719,48.828,0
1553805888.735,-15.137,40.527,26.855,-4.883,53.223,0
1553805888.739,14.648,43.945,16.113,-3.418,95.703,0
1553805888.743,29.785,20.508,24.414,24.414,7.812,0
1553805888.747,0.977,18.066,26.367,23.438,-40.527,0
1553805888.751,5.859,40.527,24.414,28.809,24.902,0
1553805888.755,6.836,41.992,25.391,26.367,17.090,0
1553805888.759,7.812,41.016,26.367,32.715,8.789,0
1553805888.763,10.254,35.156,37.598,36.621,62.012,0
1553805888.767,16.113,36.133,37.598,21.973,85.449,0
1553805888.771,31.250,31.250,37.598,9.766,38.086,0
1553805888.774,24.902,25.391,39.062,12.695,20.020,0
1553805888.778,-11.230,32.715,31.738,22.949,53.223,0
1553805888.782,-7.324,35.645,22.949,-0.488,89.844,0
1553805888.786,14.160,15.625,24.414,-1.953,52.246,0
1553805888.790,-20.020,21.973,30.762,8.301,14.160,0
1553805888.794,-29.297,48.828,26.367,-3.906,49.316,0
1553805888.798,-6.836,53.711,24.414,10.254,85.449,0
1553805888.802,-2.930,43.457,35.156,25.879,36.621,0
1553805888.806,-18.066,37.598,32.715,12.695,12.207,0
1553805888.810,-23.926,40.039,30.762,6.836,34.180,0
1553805888.813,12.695,39.551,30.762,15.137,79.102,0
1553805888.817,21.973,35.156,27.832,19.531,82.031,0
1553805888.821,-1.465,22.461,27.832,30.273,53.223,0
1553805888.825,-3.906,23.926,29.785,27.344,35.645,0
1553805888.829,-4.395,33.203,34.180,9.277,108.887,0
1553805888.833,8.301,41.016,35.156,14.648,137.207,0
1553805888.837,20.996,40.527,27.832,4.883,78.125,0
1553805888.841,12.695,36.621,22.461,1.465,29.297,0
1553805888.845,18.555,35.645,25.391,20.996,30.273,0
1553805888.849,33.203,36.621,24.414,26.855,27.344,0
1553805888.853,33.203,30.273,28.809,14.160,-17.090,0
1553805888.856,17.090,16.113,29.297,8.301,47.363,0
1553805888.860,20.020,30.762,18.066,55.176,54.199,0
1553805888.864,26.367,58.594,14.648,44.922,44.922,0
1553805888.868,7.324,50.293,26.367,-8.789,20.020,0
1553805888.872,-11.230,43.945,27.344,-15.137,7.812,0
1553805888.876,-21.973,52.734,20.020,1.465,57.129,0
1553805888.880,-18.555,48.828,11.230,10.254,20.020,0
1553805888.884,2.441,50.293,7.324,3.906,8.789,0
1553805888.888,2.441,59.082,8.301,-1.465,30.273,0
1553805888.892,-12.695,57.617,11.230,20.508,54.199,0
1553805888.896,2.930,56.641,18.066,23.926,29.297,0
1553805888.899,9.277,51.270,15.137,11.230,24.414,0
1553805888.903,5.859,43.945,12.207,-1.953,57.129,0
1553805888.907,9.766,44.434,20.996,-5.859,8.789,0
1553805888.911,30.273,33.691,24.414,9.277,-6.348,0
1553805888.915,23.438,36.133,17.578,15.137,48.828,0
1553805888.919,30.762,46.875,19.531,27.344,94.727,0
1553805888.923,35.156,53.223,18.555,23.438,39.551,0
1553805888.927,14.648,48.340,21.973,32.715,-26.367,0
1553805888.931,22.461,45.410,28.320,31.738,34.180,0
1553805888.935,38.086,51.758,25.879,-3.418,96.680,0
1553805888.938,22.461,28.809,20.508,6.836,0.488,0
1553805888.942,4.883,18.555,15.625,25.391,14.160,0
1553805888.946,12.695,42.480,21.484,18.555,82.520,0
1553805888.950,11.719,60.059,27.832,17.090,62.012,0
1553805888.954,20.996,55.176,23.926,19.043,57.617,0
1553805888.958,20.020,47.852,24.902,24.902,32.715,0
1553805888.962,3.906,50.293,22.949,22.949,20.020,0
1553805888.966,8.301,51.758,17.578,19.531,39.551,0
1553805888.970,23.926,41.016,18.555,22.949,8.301,0
1553805888.974,16.602,20.020,27.344,26.367,-7.812,0
1553805888.978,18.555,18.066,28.809,22.949,55.664,0
1553805888.981,25.391,35.645,16.113,17.578,66.895,0
1553805888.985,23.926,48.340,26.367,12.695,-1.465,0
1553805888.989,12.695,47.363,38.086,8.301,78.613,0
1553805888.993,15.137,44.434,31.250,15.137,91.309,0
1553805888.997,21.484,36.621,30.762,21.484,8.789,0
1553805889.001,28.809,36.621,31.738,25.879,49.316,0
1553805889.005,30.273,34.180,31.250,29.785,81.055,0
1553805889.009,19.531,14.160,33.691,1.465,48.828,0
1553805889.013,7.324,29.785,31.738,12.695,41.504,0
1553805889.017,15.137,53.711,25.391,46.875,54.199,0
1553805889.021,27.832,45.410,24.414,33.691,62.012,0
1553805889.024,25.879,38.086,35.156,26.855,47.852,0
1553805889.028,16.602,51.758,31.738,26.367,-18.066,0
1553805889.032,18.066,60.547,27.832,20.020,0.488,0
1553805889.036,16.602,56.152,32.715,21.484,35.156,0
1553805889.040,29.297,50.781,32.715,38.086,-21.973,0
1553805889.044,19.043,38.574,34.180,37.598,-67.871,0
1553805889.048,15.625,22.949,31.738,20.020,8.301,0
1553805889.052,21.973,26.367,29.297,-0.488,73.242,0
1553805889.056,23.438,46.875,36.133,2.930,49.805,0
1553805889.060,23.438,49.316,35.156,30.273,65.430,0
1553805889.063,18.066,37.598,26.367,6.836,68.848,0
1553805889.067,23.926,40.527,31.250,-4.883,31.250,0
1553805889.071,19.043,52.246,30.273,21.973,-27.832,0
1553805889.075,19.043,49.316,32.715,37.598,-50.781,0
1553805889.079,19.531,36.621,32.715,33.691,-19.531,0
1553805889.083,17.578,43.945,26.855,13.672,28.320,0
1553805889.087,15.137,52.246,34.180,9.766,49.316,0
1553805889.091,7.324,47.852,33.691,13.672,36.133,0
1553805889.095,12.207,46.387,39.062,11.719,6.836,0
1553805889.099,19.531,30.762,37.109,3.418,-6.836,0
1553805889.103,20.020,28.320,25.391,0.488,21.973,0
1553805889.106,17.090,53.223,28.809,4.395,1.465,0
1553805889.110,12.207,43.457,31.738,10.254,4.395,0
1553805889.114,4.883,34.180,33.691,13.184,45.898,0
1553805889.118,13.184,45.898,28.809,7.812,26.367,0
1553805889.122,22.949,41.992,31.738,7.812,22.949,0
1553805889.126,15.625,30.762,40.039,19.043,89.355,0
1553805889.130,-4.395,35.645,33.203,27.344,116.699,0
1553805889.134,-1.465,29.297,35.645,17.090,10.742,0
1553805889.138,7.812,21.973,49.805,27.344,-15.137,0
1553805889.142,-14.648,43.457,47.852,21.484,76.660,0
1553805889.146,-34.180,51.270,42.480,8.789,84.473,0
1553805889.149,-16.602,42.480,41.992,14.648,48.828,0
1553805889.153,-4.395,37.598,41.992,19.043,39.551,0
1553805889.157,1.953,32.227,43.945,3.906,14.648,0
1553805889.161,-8.789,32.227,44.434,1.953,-2.441,0
1553805889.165,-11.719,31.738,45.898,23.438,-12.695,0
1553805889.169,-5.371,33.203,48.340,17.578,20.996,0
1553805889.173,-16.113,33.691,42.480,5.859,61.035,0
1553805889.177,-0.977,28.809,41.504,-1.953,28.809,0
1553805889.181,15.625,29.297,53.223,10.254,-20.020,0
1553805889.185,3.906,33.203,53.711,26.855,-22.461,0
1553805889.188,3.906,20.508,51.758,18.555,21.973,0
1553805889.192,5.371,27.832,47.363,-4.883,68.848,0
1553805889.196,2.930,37.109,39.062,4.395,70.801,0
1553805889.200,17.578,20.996,39.062,12.207,61.035,0
1553805889.204,20.020,24.414,54.199,-6.348,101.562,0
1553805889.208,-7.324,45.898,56.152,-8.789,38.086,0
1553805889.212,-22.461,54.688,50.293,-6.836,-20.508,0
1553805889.216,-17.578,41.992,54.688,0.488,39.551,0
1553805889.220,-17.578,37.598,53.711,7.324,60.059,0
1553805889.224,-12.695,44.434,50.293,2.441,67.383,0
1553805889.228,-1.465,33.203,52.246,11.230,63.965,0
1553805889.231,4.883,27.344,55.176,13.184,67.383,0
1553805889.235,-2.930,24.902,56.152,16.113,38.086,0
1553805889.239,-14.648,26.855,58.105,24.414,13.184,0
1553805889.243,-7.812,43.457,58.594,4.395,68.848,0
1553805889.247,-5.859,31.738,60.059,-8.789,29.297,0
1553805889.251,-1.953,22.461,61.035,5.859,36.621,0
1553805889.255,4.883,29.297,53.711,11.230,76.172,0
1553805889.259,5.859,36.621,51.758,6.836,22.461,0
1553805889.263,16.113,37.109,57.617,5.859,0.488,0
1553805889.267,-3.418,35.645,57.129,3.906,-2.441,0
1553805889.271,-9.766,36.133,59.082,8.301,56.641,0
1553805889.274,20.020,26.855,62.500,2.441,66.895,0
1553805889.278,17.090,18.066,62.012,2.441,31.250,0
1553805889.282,-1.953,23.926,61.523,25.391,29.297,0
1553805889.286,0.977,41.504,59.082,37.598,13.672,0
1553805889.290,-7.812,29.785,60.059,-0.488,-13.672,0
1553805889.294,-5.371,23.438,68.359,-11.230,54.199,0
1553805889.298,9.277,26.367,66.895,12.207,64.941,0
1553805889.302,9.766,22.461,64.941,15.625,49.316,0
1553805889.306,-5.371,40.527,63.965,10.742,79.590,0
1553805889.310,-22.949,52.246,65.430,13.184,20.508,0
1553805889.313,-18.555,37.598,81.543,13.184,-10.742,0
1553805889.317,-19.531,30.273,95.215,8.301,37.109,0
1553805889.321,-6.348,43.945,95.215,16.113,4.883,0
1553805889.325,-0.488,30.762,96.680,8.789,23.926,0
1553805889.329,-1.465,10.742,105.469,-2.441,90.820,0
1553805889.333,-4.395,23.926,110.352,-12.695,55.664,0
1553805889.337,-12.695,25.879,109.863,-6.836,73.242,0
1553805889.341,-14.160,32.227,98.633,-2.930,99.609,0
1553805889.345,-19.043,30.762,96.680,-0.977,56.152,0
1553805889.349,6.836,12.695,103.516,8.789,38.086,0
1553805889.353,13.672,30.273,102.051,17.090,85.938,0
1553805889.356,-3.906,49.316,96.680,23.438,102.539,0
1553805889.360,-0.488,53.711,95.703,4.395,67.871,0
1553805889.364,-13.184,44.434,104.004,-0.977,135.254,0
1553805889.368,-19.531,28.320,102.051,-3.906,76.172,0
1553805889.372,3.418,23.438,92.773,16.113,-0.488,0
1553805889.376,27.832,34.180,95.215,34.180,9.277,0
1553805889.380,2.441,36.133,103.027,-1.953,11.230,0
1553805889.384,-5.859,21.973,102.051,7.324,35.156,0
1553805889.388,25.391,36.133,97.656,43.457,50.293,0
1553805889.392,11.230,46.875,114.258,24.414,-2.441,0
1553805889.396,17.090,42.969,149.902,15.137,6.836,0
1553805889.399,35.645,44.434,169.922,28.320,59.570,0
1553805889.403,53.711,39.551,170.410,68.359,113.281,0
1553805889.407,64.453,37.109,167.480,81.055,64.453,0
1553805889.411,59.570,41.016,165.527,62.988,-40.527,0
1553805889.415,67.383,36.133,163.086,72.754,-41.504,0
1553805889.419,86.426,30.273,150.879,70.801,7.324,0
1553805889.423,83.496,29.297,145.508,93.262,90.332,0
1553805889.427,68.848,27.344,147.461,102.051,113.770,0
1553805889.431,89.355,35.156,127.441,83.984,59.082,0
1553805889.435,81.543,40.039,121.094,81.543,-37.109,0
1553805889.438,62.988,35.156,130.371,96.191,-41.504,0
1553805889.442,72.266,21.973,128.906,106.445,13.672,0
1553805889.446,87.402,12.695,123.535,90.332,57.617,0
1553805889.450,69.824,19.531,118.652,80.078,26.855,0
1553805889.454,57.617,38.086,114.746,76.660,11.719,0
1553805889.458,67.871,36.133,112.305,80.078,71.777,0
1553805889.462,67.871,24.902,98.633,96.680,36.133,0
1553805889.466,71.289,30.762,90.820,93.262,20.020,0
1553805889.470,72.754,37.598,100.098,83.496,40.039,0
1553805889.474,70.312,44.434,90.820,74.219,88.379,0
1553805889.478,70.801,40.527,86.426,68.359,50.293,0
1553805889.481,55.664,40.039,91.797,72.754,46.875,0
1553805889.485,68.848,41.504,83.008,72.754,96.680,0
1553805889.489,70.801,36.133,84.473,67.383,83.496,0
1553805889.493,47.852,-1.465,99.609,67.383,26.855,0
1553805889.497,63.965,1.465,95.703,84.961,9.277,0
1553805889.501,56.152,48.828,84.473,77.148,83.496,0
1553805889.505,38.574,41.992,86.914,68.848,86.426,0
1553805889.509,48.340,35.156,88.867,70.801,69.336,0
1553805889.513,51.758,36.621,74.707,61.523,68.848,0
1553805889.517,45.410,20.996,68.359,64.453,55.664,0
1553805889.521,40.527,18.066,65.430,67.383,67.383,0
1553805889.524,44.434,21.973,58.105,68.848,79.102,0
1553805889.528,48.340,48.828,59.570,50.293,96.191,0
1553805889.532,46.875,53.711,65.430,43.945,89.355,0
1553805889.536,25.391,12.207,72.266,47.363,23.438,0
1553805889.540,14.160,40.527,75.195,26.855,29.297,0
1553805889.544,3.906,39.062,84.473,15.625,22.949,0
1553805889.548,-22.461,49.805,65.430,-6.348,17.578,0
1553805889.552,-6.836,92.285,50.781,9.277,34.180,0
1553805889.556,-14.160,86.426,58.105,3.418,33.203,0
1553805889.560,-111.816,132.812,67.383,-98.145,57.129,0
1553805889.563,-183.105,172.363,66.406,-169.434,100.586,0
1553805889.567,-227.051,200.195,50.293,-207.031,113.281,0
1553805889.571,-305.176,218.750,34.668,-272.461,45.898,0
1553805889.575,-316.895,227.051,55.664,-310.547,105.957,0
1553805889.579,-351.562,248.047,87.402,-357.422,90.332,0
1553805889.583,-406.250,229.004,112.793,-395.020,-7.324,0
1553805889.587,-398.926,199.219,120.605,-378.906,3.418,0
1553805889.591,-415.527,220.703,118.164,-398.926,15.625,0
1553805889.595,-398.438,220.703,102.051,-393.066,17.090,0
1553805889.599,-364.258,189.453,101.562,-356.445,-22.949,0
1553805889.603,-364.258,147.461,137.695,-345.703,-14.648,0
1553805889.606,-343.262,157.715,131.348,-304.688,22.949,0
1553805889.610,-311.035,169.922,108.398,-287.598,11.230,0
1553805889.614,-270.996,158.691,84.473,-266.602,36.133,0
1553805889.618,-235.352,127.930,66.895,-222.656,68.848,0
1553805889.622,-191.406,106.445,52.734,-187.012,80.566,0
1553805889.626,-130.859,120.605,37.598,-138.672,53.711,0
1553805889.630,-115.234,93.262,33.691,-98.633,2.441,0
1553805889.634,-111.816,56.152,19.043,-85.938,-4.395,0
1553805889.638,-61.035,40.527,11.719,-55.176,26.367,0
1553805889.642,-35.645,34.180,17.578,-12.695,2.930,0
1553805889.646,-20.020,33.691,9.277,10.254,20.508,0
1553805889.649,10.742,17.578,1.953,26.855,83.984,0
1553805889.653,33.691,3.906,0.977,44.434,46.387,0
1553805889.657,57.617,0.488,-4.883,78.125,0.000,0
1553805889.661,71.777,-19.043,-1.953,98.145,41.992,0
1553805889.665,84.961,-28.809,-3.906,107.422,41.992,0
1553805889.669,109.863,-17.090,-3.906,128.906,-16.602,0
1553805889.673,120.605,-21.973,2.441,137.695,-28.809,0
1553805889.677,129.395,-42.480,3.906,138.184,-46.387,0
1553805889.681,118.164,-33.203,-2.441,139.648,15.137,0
1553805889.685,126.465,-21.973,-3.418,142.578,68.848,0
1553805889.688,126.465,-31.738,3.418,134.277,-10.742,0
1553805889.692,114.746,-30.273,7.812,129.395,-22.461,0
1553805889.696,126.953,-27.832,6.348,139.648,5.859,0
1553805889.700,138.672,-35.156,10.254,141.602,-14.160,0
1553805889.704,144.043,-37.109,14.160,141.113,4.883,0
1553805889.708,150.879,-37.109,12.207,143.066,31.250,0
1553805889.712,130.371,-35.645,8.789,125.977,45.410,0
1553805889.716,123.535,-25.879,11.230,117.676,36.621,0
1553805889.720,127.930,-22.949,17.090,132.324,26.855,0
1553805889.724,129.883,-22.461,18.555,140.625,45.898,0
1553805889.728,132.812,-23.438,18.066,130.859,-10.742,0
1553805889.731,139.648,-26.855,15.625,133.301,40.527,0
1553805889.735,128.418,-28.809,21.484,132.812,43.457,0
1553805889.739,90.332,-26.367,24.414,131.836,23.438,0
1553805889.743,78.613,-19.043,18.555,131.348,20.508,0
1553805889.747,78.125,-13.184,19.531,107.910,47.363,0
1553805889.751,79.102,-10.254,23.438,102.539,128.906,0
1553805889.755,86.426,-10.742,26.855,106.445,69.824,0
1553805889.759,90.332,-7.812,29.297,92.773,44.434,0
1553805889.763,87.402,-4.883,31.738,92.773,79.590,0
1553805889.767,66.406,-1.953,36.133,83.008,75.684,0
1553805889.771,57.129,-3.906,37.109,75.684,31.250,0
1553805889.774,60.059,-1.465,31.250,73.730,70.312,0
1553805889.778,44.922,3.418,26.855,54.688,70.312,0
1553805889.782,58.105,-0.488,25.391,57.617,40.039,0
1553805889.786,56.152,9.277,25.879,62.988,52.246,0
1553805889.790,43.457,22.461,27.344,50.781,60.059,0
1553805889.794,56.152,15.625,30.273,51.270,20.508,0
1553805889.798,57.129,16.602,27.344,61.523,78.125,0
1553805889.802,48.340,19.043,29.785,60.059,55.176,0
1553805889.806,65.430,16.113,41.504,57.617,-63.477,0
1553805889.810,54.688,16.113,42.480,72.754,-46.387,0
1553805889.813,25.879,20.508,37.598,56.641,0.000,0
1553805889.817,34.668,26.367,35.645,43.945,28.320,0
1553805889.821,38.086,27.344,32.227,48.340,26.855,0
1553805889.825,41.016,26.367,34.180,46.387,34.180,0
1553805889.829,32.715,23.926,43.457,42.969,9.277,0
1553805889.833,32.715,19.043,42.480,33.203,97.168,0
1553805889.837,61.523,17.578,32.227,60.059,83.008,0
1553805889.841,34.668,26.855,39.062,52.734,9.277,0
1553805889.845,-10.742,26.855,47.363,1.953,59.082,0
1553805889.849,2.930,20.996,40.039,6.348,86.426,0
1553805889.853,10.742,20.020,42.969,31.250,79.590,0
1553805889.856,-7.812,12.695,47.852,19.043,11.719,0
1553805889.860,-6.836,11.230,48.828,19.531,21.484,0
1553805889.864,12.207,14.160,55.176,41.016,72.266,0
1553805889.868,14.648,19.531,56.641,45.410,19.043,0
1553805889.872,26.855,41.016,59.570,54.688,-6.836,0
1553805889.876,48.340,41.016,60.059,48.828,62.988,0
1553805889.880,26.855,23.926,47.363,35.156,66.406,0
1553805889.884,0.977,23.438,32.227,19.531,16.113,0
1553805889.888,-6.348,29.785,26.855,14.648,33.203,0
1553805889.892,0.000,26.855,27.344,15.137,39.551,0
1553805889.896,7.324,24.414,31.250,12.207,51.270,0
1553805889.899,10.254,32.227,39.062,31.738,88.867,0
1553805889.903,15.625,39.551,39.551,38.574,77.637,0
1553805889.907,15.625,36.133,38.574,34.668,47.363,0
1553805889.911,26.367,32.227,37.598,30.762,71.289,0
1553805889.915,43.945,36.621,40.527,33.691,47.852,0
1553805889.919,28.320,40.039,41.504,26.855,17.578,0
1553805889.923,6.836,41.016,41.016,36.133,11.230,0
1553805889.927,-3.906,39.551,38.086,46.875,35.156,0
1553805889.931,13.184,44.434,37.109,52.246,-14.160,0
1553805889.935,23.926,49.805,40.039,50.781,-4.883,0
1553805889.938,26.367,45.410,46.387,36.621,12.207,0
1553805889.942,24.414,40.527,50.293,26.367,25.879,0
1553805889.946,2.930,38.086,44.922,21.973,24.902,0
1553805889.950,2.441,39.551,38.574,13.672,0.000,0
1553805889.954,20.020,49.316,41.504,22.461,17.578,0
1553805889.958,14.160,42.969,40.039,34.668,9.277,0
1553805889.962,5.371,35.645,37.598,42.480,0.977,0
1553805889.966,11.230,45.410,41.504,50.781,-18.066,0
1553805889.970,14.160,46.875,48.340,34.180,29.785,0
1553805889.974,12.695,58.105,45.898,25.391,41.504,0
1553805889.978,3.906,62.988,36.621,24.902,74.219,0
1553805889.981,3.906,46.875,38.086,18.066,79.102,0
1553805889.985,14.648,36.133,38.086,6.836,29.785,0
1553805889.989,39.551,39.551,32.715,32.715,4.883,0
1553805889.993,26.367,45.898,39.551,39.551,63.477,0
1553805889.997,-21.484,41.504,51.270,3.418,56.152,0
1553805890.001,-19.531,50.781,44.434,9.277,39.551,0
1553805890.005,2.441,58.105,34.180,35.645,83.008,0
1553805890.009,-20.508,42.480,30.273,30.273,53.711,0
1553805890.013,-14.648,34.180,31.250,22.461,62.988,0
1553805890.017,-5.371,45.410,46.387,21.973,37.598,0
1553805890.021,-17.090,52.734,52.734,6.836,-29.785,0
1553805890.024,-9.277,50.781,51.758,0.000,-4.395,0
1553805890.028,3.418,54.199,49.316,20.508,-8.789,0
1553805890.032,6.836,56.152,44.434,32.227,20.508,0
1553805890.036,16.602,50.293,44.922,33.203,51.758,0
1553805890.040,9.766,40.527,38.086,15.137,-8.301,0
1553805890.044,5.371,35.645,29.297,9.277,52.246,0
1553805890.048,22.949,29.785,38.086,40.527,67.871,0
1553805890.052,26.367,32.227,43.457,35.645,-6.836,0
1553805890.056,15.137,50.781,41.016,12.207,26.367,0
1553805890.060,-0.488,57.617,41.992,20.020,17.090,0
1553805890.063,7.812,59.570,36.621,21.484,16.113,0
1553805890.067,8.301,55.176,41.016,18.555,45.898,0
1553805890.071,3.906,49.805,39.062,26.367,31.738,0
1553805890.075,3.906,54.199,33.203,17.090,27.832,0
1553805890.079,4.395,42.480,33.691,21.973,53.711,0
1553805890.083,8.789,33.203,33.691,27.344,52.246,0
1553805890.087,-5.859,33.691,42.480,7.324,55.176,0
1553805890.091,-6.348,57.129,37.598,-2.441,72.266,0
1553805890.095,5.371,67.871,35.645,17.090,23.926,0
1553805890.099,10.254,53.223,40.039,24.902,49.805,0
1553805890.103,9.766,53.223,34.668,14.160,98.145,0
1553805890.106,-6.348,49.316,35.156,12.695,74.707,0
1553805890.110,6.348,38.574,36.621,21.973,26.855,0
1553805890.114,-1.953,40.039,32.715,13.672,22.949,0
1553805890.118,-13.672,45.410,32.227,4.395,82.520,0
1553805890.122,15.137,31.738,37.109,10.742,14.648,0
1553805890.126,18.066,23.926,39.062,22.949,-15.625,0
1553805890.130,9.766,36.133,34.668,24.414,47.852,0
1553805890.134,18.066,43.457,38.086,21.484,46.875,0
1553805890.138,34.668,46.387,43.945,54.688,50.781,0
1553805890.142,42.969,33.203,32.227,69.336,79.102,0
1553805890.146,47.852,36.621,27.344,31.738,57.617,0
1553805890.149,20.508,34.668,36.621,-3.906,69.336,0
1553805890.153,-24.902,36.133,31.250,-7.812,47.852,0
1553805890.157,-5.371,80.566,22.949,20.996,-3.418,0
1553805890.161,9.277,83.496,18.066,23.926,26.367,0
1553805890.165,-3.906,78.613,13.672,-5.371,15.137,0
1553805890.169,-2.441,85.449,16.113,-0.977,24.902,0
1553805890.173,-0.977,75.684,11.230,18.066,55.176,0
1553805890.177,7.812,68.848,16.113,13.672,96.191,0
1553805890.181,15.625,64.453,23.438,-1.953,101.074,0
1553805890.185,30.273,64.453,20.020,13.672,28.809,0
1553805890.188,22.461,75.684,20.996,10.742,18.066,0
1553805890.192,15.137,78.125,26.367,3.906,48.828,0
1553805890.196,25.391,69.824,25.879,30.762,52.246,0
1553805890.200,13.672,62.988,22.461,40.527,72.754,0
1553805890.204,13.184,51.758,28.320,35.156,54.688,0
1553805890.208,15.625,59.082,37.598,36.621,3.418,0
1553805890.212,14.648,64.453,31.738,23.926,46.875,0
1553805890.216,8.301,67.383,24.414,13.184,-6.348,0
1553805890.220,1.465,82.031,26.855,13.184,33.203,0
1553805890.224,6.836,79.102,25.879,10.254,114.746,0
1553805890.228,34.668,75.195,25.879,7.812,57.617,0
1553805890.231,28.809,60.547,27.832,18.555,29.297,0
1553805890.235,-3.906,47.852,32.227,20.508,58.105,0
1553805890.239,-0.488,72.754,26.855,13.672,28.320,0
1553805890.243,3.418,84.961,20.508,8.301,8.301,0
1553805890.247,13.672,68.848,30.273,15.137,11.230,0
1553805890.251,11.230,49.316,33.691,28.809,-4.395,0
1553805890.255,23.438,38.086,26.855,29.297,-19.043,0
1553805890.259,41.016,49.316,23.438,38.086,4.395,0
1553805890.263,27.832,45.410,26.855,40.039,17.578,0
1553805890.267,23.926,51.758,32.227,25.391,18.555,0
1553805890.271,16.113,70.801,34.180,25.391,54.688,0
1553805890.274,13.184,66.895,36.621,26.855,44.922,0
1553805890.278,18.555,55.664,29.785,19.043,-28.809,0
1553805890.282,19.531,54.199,25.391,12.695,42.480,0
1553805890.286,11.719,55.176,25.391,11.719,65.430,0
1553805890.290,6.836,45.898,22.461,13.184,16.113,0
1553805890.294,17.090,30.273,27.344,18.555,51.270,0
1553805890.298,6.348,42.480,31.250,9.277,17.578,0
1553805890.302,-2.930,58.594,26.855,16.113,0.977,0
1553805890.306,-1.465,46.875,26.367,37.598,26.367,0
1553805890.310,-0.488,33.691,34.180,27.832,76.660,0
1553805890.313,9.277,29.297,28.809,30.762,12.207,0
1553805890.317,11.719,35.645,24.414,35.645,23.438,0
1553805890.321,12.207,41.992,30.762,29.297,28.809,0
1553805890.325,16.113,24.414,32.715,23.438,19.531,0
1553805890.329,8.301,18.066,30.762,12.695,42.969,0
1553805890.333,19.531,31.250,27.832,12.695,11.230,0
1553805890.337,20.508,38.086,35.645,25.879,39.551,0
1553805890.341,4.395,37.598,27.344,25.879,3.906,0
1553805890.345,28.320,43.457,13.672,40.527,-35.156,0
1553805890.349,5.859,45.410,31.250,38.086,62.500,0
1553805890.353,-38.574,32.715,45.898,-8.789,30.273,0
1553805890.356,-34.668,27.344,43.457,-8.301,14.160,0
1553805890.360,-22.461,24.414,37.598,18.555,59.082,0
1553805890.364,-25.391,19.043,41.504,3.906,27.344,0
1553805890.368,-11.719,18.066,46.387,1.953,23.926,0
1553805890.372,-7.812,23.438,38.086,6.348,49.805,0
1553805890.376,14.648,26.855,30.762,5.859,30.762,0
1553805890.380,17.578,22.949,33.203,11.230,20.996,0
1553805890.384,-14.648,27.832,39.551,21.973,30.273,0
1553805890.388,-13.184,32.227,38.086,25.879,18.555,0
1553805890.392,3.418,32.227,37.598,1.953,90.820,0
1553805890.396,-3.418,14.160,39.551,1.953,109.863,0
1553805890.399,-0.977,14.160,30.273,25.391,75.195,0
1553805890.403,16.602,38.086,28.320,28.809,78.613,0
1553805890.407,17.090,44.922,33.691,16.113,47.363,0
1553805890.411,31.738,43.945,38.086,10.254,69.824,0
1553805890.415,48.340,31.738,37.598,2.930,71.777,0
1553805890.419,35.156,25.391,32.715,1.953,38.086,0
1553805890.423,14.648,37.598,39.551,30.762,41.016,0
1553805890.427,14.160,42.480,38.574,38.574,40.527,0
1553805890.431,-0.488,34.180,33.691,5.859,2.930,0
1553805890.435,-19.043,26.855,39.062,3.906,73.242,0
1553805890.438,-23.438,25.391,38.574,22.949,73.730,0
1553805890.442,-9.766,22.949,28.809,52.246,-8.789,0
1553805890.446,1.953,21.973,37.598,66.406,27.344,0
1553805890.450,-21.973,22.949,51.270,21.484,37.109,0
1553805890.454,-10.742,31.738,42.480,-11.719,-14.648,0
1553805890.458,0.977,38.086,37.109,-9.766,4.395,0
1553805890.462,-5.859,39.062,34.668,-7.324,-2.930,0
1553805890.466,6.348,39.551,35.645,-0.977,10.742,0
1553805890.470,27.832,37.598,39.062,10.254,66.895,0
1553805890.474,10.742,33.691,34.668,8.301,42.480,0
1553805890.478,5.371,20.996,41.992,24.414,20.996,0
1553805890.481,20.508,36.621,40.039,26.855,18.066,0
1553805890.485,-0.488,61.035,28.809,14.160,-12.207,0
1553805890.489,-1.465,59.570,32.715,5.859,-25.391,0
1553805890.493,1.953,58.105,37.598,8.301,49.316,0
1553805890.497,-10.742,56.152,39.062,32.715,31.250,0
1553805890.501,-8.301,47.852,40.039,29.785,13.184,0
1553805890.505,7.324,42.969,43.945,19.531,55.664,0
1553805890.509,5.371,38.086,43.457,7.812,81.055,0
1553805890.513,-12.207,35.645,38.574,4.883,54.199,0
1553805890.517,-14.648,48.828,38.086,5.371,12.695,0
1553805890.521,-12.207,55.664,38.086,-7.812,-4.395,0
1553805890.524,-7.812,47.852,32.715,2.441,11.230,0
1553805890.528,4.395,49.805,26.855,29.297,36.133,0
1553805890.532,0.977,60.059,30.273,30.762,39.551,0
1553805890.536,4.883,57.129,30.273,31.738,39.062,0
1553805890.540,30.273,55.664,24.414,37.109,38.574,0
1553805890.544,29.297,62.500,22.949,30.762,44.434,0
1553805890.548,22.461,63.477,30.273,22.461,67.383,0
1553805890.552,16.113,52.246,35.156,18.066,64.941,0
1553805890.556,8.301,46.875,35.645,25.391,22.949,0
1553805890.560,20.020,54.688,37.598,37.598,-13.184,0
1553805890.563,20.996,50.293,31.250,34.180,-24.414,0
1553805890.567,40.039,51.270,20.508,30.762,4.883,0
1553805890.571,36.621,49.316,20.996,35.645,35.156,0
1553805890.575,20.508,39.062,23.438,35.156,38.574,0
1553805890.579,28.320,37.109,23.438,46.387,57.617,0
1553805890.583,35.156,43.457,21.484,41.504,66.895,0
1553805890.587,22.949,43.457,15.137,17.090,20.020,0
1553805890.591,17.578,46.875,16.602,18.066,39.062,0
1553805890.595,36.133,49.316,26.855,25.391,56.152,0
1553805890.599,46.875,49.316,28.320,23.926,23.438,0
1553805890.603,41.016,48.340,23.438,32.227,14.648,0
1553805890.606,23.438,48.340,29.785,34.668,19.531,0
1553805890.610,16.113,52.246,34.180,20.020,12.695,0
1553805890.614,37.598,45.898,32.715,22.461,65.918,0
1553805890.618,42.480,40.527,26.855,28.320,70.312,0
1553805890.622,19.043,36.621,31.738,32.715,47.363,0
1553805890.626,16.602,31.738,35.645,21.973,67.871,0
1553805890.630,38.574,33.691,30.273,25.391,87.891,0
1553805890.634,46.875,41.016,30.762,28.809,43.457,0
1553805890.638,40.039,44.434,23.438,16.602,19.531,0
1553805890.642,20.996,43.945,24.414,30.762,76.172,0
1553805890.646,-2.930,46.875,30.273,21.484,80.078,0
1553805890.649,5.859,37.598,32.715,12.207,92.285,0
1553805890.653,10.254,36.133,33.203,27.344,53.223,0
1553805890.657,12.207,49.805,29.785,21.484,39.062,0
1553805890.661,15.625,42.969,35.156,13.184,120.117,0
1553805890.665,10.254,29.297,37.109,14.648,82.031,0
1553805890.669,23.926,28.320,32.715,10.254,37.598,0
1553805890.673,28.809,43.457,31.250,31.250,46.387,0
1553805890.677,8.789,53.223,26.367,39.551,18.066,0
1553805890.681,-0.977,42.480,34.180,20.020,34.668,0
1553805890.685,-7.324,35.645,37.598,8.789,87.891,0
1553805890.688,-8.789,48.340,30.762,3.418,72.266,0
1553805890.692,-1.953,52.246,30.273,7.324,69.336,0
1553805890.696,10.742,44.434,31.250,1.953,33.691,0
1553805890.700,19.531,48.828,32.227,1.465,-4.883,0
1553805890.704,-5.859,51.758,31.738,8.789,94.238,0
1553805890.708,-21.973,49.805,28.320,14.160,46.875,0
1553805890.712,-6.836,49.316,23.926,9.277,-25.391,0
1553805890.716,5.859,40.527,33.203,11.719,62.012,0
1553805890.720,-0.977,37.598,38.086,13.672,31.738,0
1553805890.724,2.930,42.480,33.691,7.324,-38.086,0
1553805890.728,10.254,44.434,31.250,18.555,1.953,0
1553805890.731,6.348,53.223,30.273,23.438,2.441,0
1553805890.735,19.043,50.293,28.320,24.414,3.418,0
1553805890.739,11.230,48.340,27.344,28.320,66.406,0
1553805890.743,-1.953,46.875,28.809,33.203,66.406,0
1553805890.747,-0.977,38.086,26.855,19.043,22.949,0
1553805890.751,-9.277,39.551,34.668,7.324,96.680,0
1553805890.755,5.859,41.016,41.992,20.020,93.262,0
1553805890.759,5.859,33.691,39.551,38.574,41.016,0
1553805890.763,0.488,29.785,33.691,30.273,138.184,0
1553805890.767,13.184,35.156,27.832,18.066,96.191,0
1553805890.771,14.160,51.270,26.855,23.438,-1.465,0
1553805890.774,12.207,54.688,24.902,16.113,20.020,0
1553805890.778,0.488,47.852,30.273,10.254,62.500,0
1553805890.782,0.000,45.410,41.016,15.137,61.035,0
1553805890.786,5.371,38.574,42.480,23.926,25.879,0
1553805890.790,-4.395,32.227,41.992,19.043,50.781,0
1553805890.794,1.953,30.762,38.574,7.812,23.926,0
1553805890.798,16.113,37.109,37.109,26.367,-6.836,0
1553805890.802,9.277,41.992,29.297,37.598,25.879,0
1553805890.806,-8.301,51.270,20.508,16.113,60.059,0
1553805890.810,-6.348,62.500,26.855,13.672,102.539,0
1553805890.813,7.324,45.410,34.180,21.973,109.375,0
1553805890.817,-1.465,38.574,33.691,3.418,14.160,0
1553805890.821,-1.465,48.828,32.715,1.465,-34.668,0
1553805890.825,8.789,40.527,27.344,3.906,74.707,0
1553805890.829,2.441,42.969,23.438,6.348,-26.367,0
1553805890.833,-2.441,53.223,32.227,17.090,-22.949,0
1553805890.837,2.930,49.805,29.785,4.395,104.492,0
1553805890.841,5.859,39.551,21.973,1.465,93.262,0
1553805890.845,7.812,36.621,29.785,34.180,39.551,0
1553805890.849,16.602,38.086,32.715,36.133,7.324,0
1553805890.853,-5.371,41.016,25.391,12.695,39.551,0
1553805890.856,-10.742,35.645,32.715,-0.488,54.199,0
1553805890.860,-0.977,30.762,37.109,10.254,3.418,0
1553805890.864,0.000,31.738,35.156,18.555,62.988,0
1553805890.868,6.348,35.645,31.738,13.672,59.570,0
1553805890.872,-4.395,40.527,26.367,17.578,17.578,0
1553805890.876,-4.883,41.992,30.762,11.230,70.801,0
1553805890.880,9.766,36.621,32.715,8.301,15.625,0
1553805890.884,10.742,35.645,29.785,4.883,-12.207,0
1553805890.888,-4.395,42.969,33.203,6.348,65.918,0
1553805890.892,-13.184,40.527,37.598,17.578,33.203,0
1553805890.896,-1.465,42.969,36.621,26.855,22.461,0
1553805890.899,-0.488,31.738,31.738,12.207,65.918,0
1553805890.903,-8.789,27.344,19.531,20.508,49.805,0
1553805890.907,-2.930,39.551,28.809,28.320,55.664,0
1553805890.911,6.836,46.387,39.551,-1.465,63.965,0
1553805890.915,20.996,41.504,39.551,7.812,46.875,0
1553805890.919,7.324,42.480,40.039,12.207,50.781,0
1553805890.923,-20.996,46.875,37.109,10.742,107.910,0
1553805890.927,-13.672,33.203,33.691,4.883,86.914,0
1553805890.931,1.953,35.645,25.391,-4.883,83.496,0
1553805890.935,-6.348,39.551,28.320,7.812,2.930,0
1553805890.938,-4.883,35.156,33.203,10.742,-25.879,0
1553805890.942,8.789,37.598,31.738,9.766,30.762,0
1553805890.946,11.719,25.879,36.621,22.461,25.879,0
1553805890.950,-5.859,25.391,36.133,14.648,44.434,0
1553805890.954,-11.719,43.457,37.109,11.230,67.871,0
1553805890.958,-4.883,51.270,31.250,20.508,59.082,0
1553805890.962,-1.465,46.387,26.855,24.902,41.016,0
1553805890.966,-1.953,34.668,32.227,19.531,62.012,0
1553805890.970,-7.812,37.109,20.508,17.090,31.738,0
1553805890.974,5.859,44.434,18.066,10.254,33.691,0
1553805890.978,13.672,45.898,27.832,2.441,54.688,0
1553805890.981,3.906,44.434,31.738,7.324,40.039,0
1553805890.985,-4.395,37.109,34.180,0.000,63.477,0
1553805890.989,-3.906,34.668,33.691,18.066,25.391,0
1553805890.993,-1.953,35.645,37.109,38.574,2.441,0
1553805890.997,0.488,31.250,34.668,20.508,41.016,0
1553805891.001,8.301,37.109,29.297,2.441,66.406,0
1553805891.005,11.719,40.527,31.250,14.160,60.547,0
1553805891.009,-4.395,37.109,24.414,16.113,4.883,0
1553805891.013,0.977,41.504,23.438,14.648,40.039,0
1553805891.017,9.766,44.922,34.668,20.020,53.711,0
1553805891.021,-0.488,46.875,38.086,17.578,45.898,0
1553805891.024,-5.859,37.598,34.668,16.113,60.059,0
1553805891.028,-5.859,33.203,32.715,20.996,13.672,0
1553805891.032,0.488,32.715,33.203,23.438,26.855,0
1553805891.036,8.301,33.203,32.715,24.902,58.105,0
1553805891.040,10.254,37.598,32.227,27.344,66.406,0
1553805891.044,4.395,41.504,33.691,15.625,71.777,0
1553805891.048,9.277,48.340,31.738,11.230,20.996,0
1553805891.052,32.227,48.828,27.344,26.855,-0.977,0
1553805891.056,22.949,36.133,32.715,22.949,23.438,0
1553805891.060,13.672,35.645,33.691,19.043,42.480,0
1553805891.063,17.578,46.875,29.297,31.250,74.219,0
1553805891.067,16.602,48.828,22.949,32.715,73.242,0
1553805891.071,12.207,45.410,21.484,36.133,32.715,0
1553805891.075,9.766,40.039,31.250,31.738,81.055,0
1553805891.079,7.812,35.645,34.180,14.160,93.262,0
1553805891.083,8.301,32.715,38.086,17.090,56.641,0
1553805891.087,13.672,31.250,40.527,27.832,46.875,0
1553805891.091,17.090,33.691,33.203,25.391,27.832,0
1553805891.095,9.277,37.109,30.273,10.254,42.969,0
1553805891.099,0.488,45.410,35.156,-4.395,22.461,0
1553805891.103,14.160,41.016,37.109,15.137,37.109,0
1553805891.106,9.766,33.691,32.715,32.227,90.820,0
1553805891.110,2.930,24.902,26.367,14.160,25.391,0
1553805891.114,-0.977,22.461,30.762,21.484,34.668,0
1553805891.118,-3.906,45.898,34.668,7.324,71.777,0
1553805891.122,2.441,56.152,30.762,-7.324,100.098,0
1553805891.126,16.113,57.617,27.832,11.719,55.664,0
1553805891.130,0.977,55.664,24.902,16.602,19.043,0
1553805891.134,-4.395,46.875,25.391,12.207,32.227,0
1553805891.138,4.883,41.016,38.086,6.836,49.805,0
1553805891.142,-10.742,41.992,43.457,11.230,77.637,0
1553805891.146,-4.395,44.922,35.645,16.113,9.766,0
1553805891.149,1.953,41.992,29.785,21.484,17.090,0
1553805891.153,11.230,37.109,36.621,34.668,29.297,0
1553805891.157,20.020,32.227,38.086,30.273,57.129,0
1553805891.161,3.418,39.062,37.109,19.531,96.191,0
1553805891.165,-4.883,38.574,40.039,8.301,20.996,0
1553805891.169,7.812,32.227,36.621,3.418,24.902,0
1553805891.173,2.441,36.133,36.133,12.207,88.379,0
1553805891.177,-3.906,39.551,31.738,13.184,66.406,0
1553805891.181,3.418,44.922,25.879,-1.465,61.035,0
1553805891.185,7.324,45.898,27.344,-3.906,34.668,0
1553805891.188,18.066,41.016,34.180,17.090,14.648,0
1553805891.192,20.508,39.551,38.574,11.230,10.254,0
1553805891.196,16.602,39.062,34.180,5.859,-7.812,0
1553805891.200,18.066,33.691,26.855,15.625,40.039,0
1553805891.204,20.508,32.715,23.926,20.020,33.203,0
1553805891.208,22.949,39.551,24.414,23.926,-12.695,0
1553805891.212,26.367,36.621,31.738,23.438,71.289,0
1553805891.216,18.066,37.109,35.156,24.902,49.805,0
1553805891.220,11.230,48.340,34.668,24.414,-6.836,0
1553805891.224,6.348,38.086,35.645,28.809,34.180,0
1553805891.228,3.418,21.973,35.645,32.715,41.016,0
1553805891.231,-8.301,36.621,35.645,44.922,15.137,0
1553805891.235,1.465,48.828,28.809,49.805,-34.668,0
1553805891.239,15.137,41.992,27.344,34.180,5.859,0
1553805891.243,-16.602,30.762,38.086,17.090,57.617,0
1553805891.247,-26.855,34.180,42.480,1.953,65.430,0
1553805891.251,-21.484,40.039,38.086,6.836,11.719,0
1553805891.255,-16.602,44.434,36.133,6.348,24.414,0
1553805891.259,-2.930,56.152,36.621,7.324,125.000,0
1553805891.263,-10.742,46.875,40.039,26.367,88.379,0
1553805891.267,-4.883,38.086,41.504,24.414,21.973,0
1553805891.271,10.254,50.293,37.598,17.090,21.973,0
1553805891.274,-4.883,45.410,31.738,10.254,7.812,0
1553805891.278,-22.461,41.016,27.832,6.836,30.762,0
1553805891.282,-2.441,37.109,24.902,17.578,29.785,0
1553805891.286,7.324,28.809,30.762,8.301,56.152,0
1553805891.290,-1.465,36.621,33.203,19.531,74.219,0
1553805891.294,2.930,40.039,25.879,32.715,36.621,0
1553805891.298,-9.277,47.852,36.621,2.930,50.781,0
1553805891.302,-15.137,41.992,49.805,-3.906,72.754,0
1553805891.306,-5.859,38.086,45.898,2.441,77.637,0
1553805891.310,-11.230,47.363,36.621,11.719,59.570,0
1553805891.313,-7.812,37.109,38.574,23.926,23.926,0
1553805891.317,-13.672,33.203,41.016,16.602,12.207,0
1553805891.321,3.906,26.855,36.621,26.367,-14.648,0
1553805891.325,14.160,28.320,34.668,21.484,49.316,0
1553805891.329,12.207,38.574,34.668,8.301,59.570,0
1553805891.333,15.625,36.621,36.133,12.207,-3.418,0
1553805891.337,12.207,38.086,35.156,7.812,23.438,0
1553805891.341,11.230,39.062,34.668,14.648,-8.789,0
1553805891.345,1.465,36.621,30.273,13.184,-49.805,0
1553805891.349,8.789,41.016,35.645,9.766,71.289,0
1553805891.353,11.719,45.410,35.645,10.742,73.730,0
1553805891.356,6.836,29.297,24.902,22.949,35.645,0
1553805891.360,26.855,29.297,27.832,19.043,80.078,0
1553805891.364,14.648,41.016,29.785,9.277,30.762,0
1553805891.368,-6.836,32.227,36.133,23.438,6.348,0
1553805891.372,-2.441,31.738,39.062,6.836,30.762,0
1553805891.376,-0.488,48.340,27.832,0.488,13.184,0
1553805891.380,6.836,52.734,26.855,10.742,34.180,0
1553805891.384,18.066,38.086,27.832,5.371,21.484,0
1553805891.388,8.301,38.086,30.273,5.859,44.434,0
1553805891.392,5.371,36.133,29.785,8.301,46.875,0
1553805891.396,7.812,37.109,25.879,9.766,6.348,0
1553805891.399,19.043,47.852,30.273,15.625,73.242,0
1553805891.403,17.090,42.969,41.016,20.996,98.633,0
1553805891.407,-3.906,28.809,48.340,19.531,32.227,0
1553805891.411,-3.418,38.574,41.992,14.648,30.762,0
1553805891.415,13.672,41.992,40.039,32.227,29.297,0
1553805891.419,44.434,33.203,32.715,75.684,25.391,0
1553805891.423,15.625,44.434,28.809,40.039,50.293,0
1553805891.427,-34.180,53.711,33.691,-26.367,31.738,0
1553805891.431,-12.207,48.828,27.344,-14.648,-37.598,0
1553805891.435,-13.672,41.992,35.645,-19.043,10.742,0
1553805891.438,-20.020,52.734,36.621,-37.109,85.449,0
1553805891.442,-21.484,49.805,26.855,-31.738,73.242,0
1553805891.446,-30.273,44.922,22.949,-29.297,101.562,0
1553805891.450,-37.109,49.316,20.996,-36.133,80.566,0
1553805891.454,-23.926,51.270,31.250,-25.391,94.238,0
1553805891.458,-17.090,63.477,30.762,-12.207,80.078,0
1553805891.462,-20.996,54.688,25.391,-6.836,3.906,0
1553805891.466,-13.672,47.852,22.461,4.395,0.488,0
1553805891.470,0.488,46.387,19.043,17.090,41.992,0
1553805891.474,3.418,45.410,20.996,0.977,-6.348,0
1553805891.478,3.418,49.805,21.973,6.836,17.090,0
1553805891.481,2.441,48.340,24.414,35.645,41.504,0
1553805891.485,-5.859,42.969,28.320,37.598,60.547,0
1553805891.489,0.488,37.109,32.715,19.531,38.574,0
1553805891.493,9.766,41.992,31.738,11.719,-15.625,0
1553805891.497,10.254,51.270,31.738,25.879,-27.832,0
1553805891.501,3.906,49.805,31.250,22.949,17.578,0
1553805891.505,14.648,42.969,24.902,25.391,41.992,0
1553805891.509,20.996,49.805,28.809,28.809,47.363,0
1553805891.513,16.113,52.246,30.273,24.414,66.895,0
1553805891.517,16.113,51.758,23.926,31.738,33.203,0
1553805891.521,22.949,48.828,33.203,41.504,30.273,0
1553805891.524,17.578,48.340,40.039,35.645,15.137,0
1553805891.528,7.812,58.105,36.621,31.250,38.574,0
1553805891.532,17.090,54.199,37.598,39.062,12.207,0
1553805891.536,19.043,42.480,34.668,40.039,46.387,0
1553805891.540,10.742,35.156,35.156,31.738,39.062,0
1553805891.544,8.789,44.922,35.156,25.879,35.156,0
1553805891.548,4.883,52.734,29.297,32.715,14.648,0
1553805891.552,3.906,47.852,26.367,33.691,14.648,0
1553805891.556,16.113,49.805,29.297,37.109,42.480,0
1553805891.560,18.066,49.316,22.949,44.434,15.137,0
1553805891.563,31.250,45.898,21.484,35.645,46.875,0
1553805891.567,42.480,36.621,30.273,27.832,59.082,0
1553805891.571,25.391,33.691,33.203,36.621,56.641,0
1553805891.575,12.695,35.156,32.227,34.668,52.246,0
1553805891.579,12.695,35.156,31.738,33.691,28.809,0
1553805891.583,16.602,47.852,26.855,37.598,45.410,0
1553805891.587,5.371,48.828,22.949,39.551,40.527,0
1553805891.591,4.395,45.898,25.391,36.621,24.414,0
1553805891.595,17.578,49.805,22.461,40.527,30.273,0
1553805891.599,29.297,43.945,25.879,55.664,12.207,0
1553805891.603,24.902,41.504,24.902,51.270,11.230,0
1553805891.606,24.414,51.270,27.832,38.574,30.273,0
1553805891.610,34.668,63.965,37.598,30.273,45.898,0
1553805891.614,33.203,45.410,35.156,26.367,15.625,0
1553805891.618,35.156,18.066,30.273,35.645,-10.742,0
1553805891.622,39.551,34.180,27.832,28.320,36.133,0
1553805891.626,29.785,45.410,29.785,20.996,40.039,0
1553805891.630,7.324,41.016,30.273,21.973,41.504,0
1553805891.634,15.625,56.641,22.949,29.785,88.379,0
1553805891.638,48.340,64.941,20.020,61.523,72.754,0
1553805891.642,23.438,57.617,33.203,37.598,46.387,0
1553805891.646,-15.137,48.340,32.227,1.465,9.766,0
1553805891.649,-7.812,38.574,31.250,22.949,14.160,0
1553805891.653,9.766,29.785,43.945,26.855,39.551,0
1553805891.657,7.324,24.414,44.434,16.113,56.641,0
1553805891.661,1.465,29.297,44.434,26.855,12.695,0
1553805891.665,10.254,27.832,40.527,27.832,-3.418,0
1553805891.669,29.297,32.715,29.297,29.297,98.145,0
1553805891.673,26.855,40.527,26.855,30.762,56.152,0
1553805891.677,-0.488,36.133,31.250,29.785,16.602,0
1553805891.681,-0.977,36.133,34.668,22.461,76.660,0
1553805891.685,19.531,43.457,31.738,21.484,7.812,0
1553805891.688,23.926,44.922,33.691,36.621,-36.133,0
1553805891.692,9.277,36.133,35.156,32.715,2.930,0
1553805891.696,-6.348,38.086,30.762,20.508,-24.414,0
1553805891.700,-6.836,39.551,33.691,25.391,-5.371,0
1553805891.704,7.324,32.715,36.133,24.902,7.812,0
1553805891.708,20.508,43.945,26.855,14.648,16.113,0
1553805891.712,11.719,51.270,25.391,30.762,61.523,0
1553805891.716,0.977,51.758,31.250,26.855,58.594,0
1553805891.720,6.836,44.922,35.156,11.230,30.273,0
1553805891.724,11.230,39.551,36.133,14.648,108.398,0
1553805891.728,4.395,41.016,28.320,29.785,122.559,0
1553805891.731,3.418,44.922,26.855,28.809,17.090,0
1553805891.735,4.883,50.293,25.879,17.090,44.434,0
1553805891.739,5.859,48.340,25.391,28.809,75.195,0
1553805891.743,13.672,43.945,32.227,34.180,51.270,0
1553805891.747,17.090,42.969,35.645,27.344,8.301,0
1553805891.751,2.930,46.875,33.691,32.715,-20.508,0
1553805891.755,-9.766,38.574,32.715,19.531,27.344,0
1553805891.759,-13.184,38.574,31.250,2.441,45.410,0
1553805891.763,-10.254,60.059,35.645,10.742,38.574,0
1553805891.767,3.906,61.523,33.203,13.184,41.992,0
1553805891.771,8.789,50.293,31.738,27.832,38.574,0
1553805891.774,19.531,45.410,34.180,32.715,28.320,0
1553805891.778,11.230,45.898,32.227,27.832,-20.508,0
1553805891.782,-8.301,47.363,34.180,21.973,10.254,0
1553805891.786,-3.418,48.340,38.086,10.254,78.613,0
1553805891.790,2.930,54.199,36.133,6.348,31.738,0
1553805891.794,4.395,55.664,35.645,16.113,-13.672,0
1553805891.798,11.230,49.316,40.039,30.762,58.105,0
1553805891.802,17.578,49.316,38.574,18.555,80.078,0
1553805891.806,-1.465,46.875,32.227,14.648,28.320,0
1553805891.810,27.344,42.969,23.438,47.363,45.898,0
1553805891.813,31.738,45.410,29.297,26.855,21.973,0
1553805891.817,-21.484,37.598,38.086,-11.230,9.277,0
1553805891.821,-15.625,29.297,39.551,4.395,29.785,0
1553805891.825,-5.371,33.203,37.598,11.230,83.984,0
1553805891.829,-11.719,37.598,37.598,4.883,95.215,0
1553805891.833,-2.441,34.180,39.551,6.348,100.098,0
1553805891.837,13.672,27.832,29.297,8.789,50.781,0
1553805891.841,7.324,33.203,28.809,8.789,20.996,0
1553805891.845,-6.348,51.758,33.203,14.160,33.691,0
1553805891.849,-6.348,49.316,30.273,10.742,21.484,0
1553805891.853,7.812,35.156,28.809,3.906,25.391,0
1553805891.856,23.926,25.879,29.297,27.344,43.945,0
1553805891.860,13.672,10.742,31.738,45.898,54.688,0
1553805891.864,8.789,18.066,43.945,26.855,-6.348,0
1553805891.868,12.207,43.945,42.480,21.484,14.160,0
1553805891.872,11.230,51.270,31.738,22.461,91.309,0
1553805891.876,6.836,42.969,35.156,8.301,64.941,0
1553805891.880,17.090,43.457,44.922,14.160,22.949,0
1553805891.884,23.926,39.062,41.992,22.949,39.551,0
1553805891.888,21.484,27.832,34.668,17.578,44.434,0
1553805891.892,17.578,20.020,35.645,21.973,16.602,0
1553805891.896,7.324,23.926,35.156,22.461,34.668,0
1553805891.899,16.113,29.785,28.320,20.996,64.453,0
1553805891.903,13.672,32.227,26.367,19.043,22.461,0
1553805891.907,14.160,39.551,18.555,16.602,0.000,0
1553805891.911,29.297,38.086,24.902,19.043,-0.488,0
1553805891.915,17.090,37.598,37.109,12.695,-46.875,0
1553805891.919,0.000,34.668,38.086,13.672,8.789,0
1553805891.923,0.488,28.809,38.574,27.344,25.879,0
1553805891.927,4.883,27.344,36.621,26.855,-6.348,0
1553805891.931,4.883,27.832,29.297,19.043,67.383,0
1553805891.935,8.789,22.461,22.949,8.789,89.844,0
1553805891.938,9.766,29.297,26.855,-1.465,40.527,0
1553805891.942,-0.977,42.969,35.156,8.789,29.297,0
1553805891.946,-11.230,40.527,34.180,6.836,63.477,0
1553805891.950,-8.301,28.809,31.738,5.859,63.477,0
1553805891.954,-6.348,29.297,30.273,12.695,44.434,0
1553805891.958,0.000,34.668,27.832,15.137,75.684,0
1553805891.962,6.836,34.180,30.762,12.207,79.102,0
1553805891.966,0.000,39.062,26.367,8.789,38.086,0
1553805891.970,4.395,23.926,27.344,26.855,3.906,0
1553805891.974,8.301,14.648,38.086,24.414,24.902,0
1553805891.978,0.000,42.969,38.086,10.254,26.855,0
1553805891.981,8.301,53.223,37.598,20.996,19.531,0
1553805891.985,10.254,37.109,30.762,20.996,7.812,0
1553805891.989,0.000,28.809,30.273,10.254,41.992,0
1553805891.993,4.395,36.133,38.574,12.207,58.105,0
1553805891.997,4.883,37.598,33.691,3.418,24.414,0
1553805892.001,22.461,32.227,19.531,19.531,26.367,0
1553805892.005,40.527,34.668,25.879,34.668,55.176,0
1553805892.009,10.254,42.969,34.668,-1.465,104.492,0
1553805892.013,-12.207,29.785,32.715,-3.906,49.316,0
1553805892.017,-13.184,17.578,43.457,6.836,25.879,0
1553805892.021,-8.789,20.996,41.992,-4.883,79.102,0
1553805892.024,4.883,8.789,38.086,2.441,62.012,0
1553805892.028,15.137,19.043,40.039,21.484,-3.418,0
1553805892.032,10.742,35.156,30.273,19.531,-10.742,0
1553805892.036,-1.465,31.250,19.531,13.184,30.273,0
1553805892.040,6.836,33.203,36.133,28.320,48.828,0
1553805892.044,9.766,30.762,49.805,41.504,44.434,0
1553805892.048,-3.418,25.391,41.992,39.551,40.039,0
1553805892.052,-15.625,33.203,31.250,16.113,84.961,0
1553805892.056,-26.367,40.039,25.879,0.000,64.941,0
1553805892.060,-23.438,34.668,20.996,8.301,-10.254,0
1553805892.063,-8.301,23.438,24.414,11.230,34.180,0
1553805892.067,-4.883,17.578,32.227,8.301,93.750,0
1553805892.071,-5.859,27.832,29.297,1.953,99.121,0
1553805892.075,-5.859,35.156,26.855,-1.953,53.711,0
1553805892.079,12.207,34.180,26.855,4.883,79.590,0
1553805892.083,17.578,35.156,26.367,14.648,112.793,0
1553805892.087,7.324,31.250,23.926,10.254,60.547,0
1553805892.091,14.648,21.973,23.926,18.555,54.688,0
1553805892.095,6.348,23.926,24.414,15.625,-1.465,0
1553805892.099,-3.906,49.805,21.973,-0.977,18.066,0
1553805892.103,-5.371,61.035,23.926,13.184,68.848,0
1553805892.106,5.371,45.898,33.203,12.695,71.289,0
1553805892.110,2.441,39.551,28.320,-3.418,91.797,0
1553805892.114,-7.324,44.434,16.113,6.836,59.570,0
1553805892.118,3.906,34.668,23.438,15.137,18.066,0
1553805892.122,11.230,28.320,31.250,10.254,11.230,0
1553805892.126,10.254,41.992,26.855,6.348,21.973,0
1553805892.130,2.441,40.527,28.320,9.277,35.156,0
1553805892.134,10.742,35.645,26.367,13.184,72.266,0
1553805892.138,8.789,40.039,24.902,17.090,41.016,0
1553805892.142,2.441,39.551,23.926,24.414,23.438,0
1553805892.146,4.395,34.668,23.438,20.020,61.523,0
1553805892.149,-6.836,39.551,25.879,13.672,-5.859,0
1553805892.153,0.000,37.598,23.438,18.555,-6.836,0
1553805892.157,10.254,31.250,22.461,12.207,68.359,0
1553805892.161,6.348,41.016,17.578,4.883,63.965,0
1553805892.165,8.789,42.969,17.578,2.441,26.367,0
1553805892.169,7.324,35.156,24.414,3.418,25.879,0
1553805892.173,-10.254,34.180,27.832,10.254,28.320,0
1553805892.177,-10.742,42.480,31.250,10.742,10.742,0
1553805892.181,7.324,43.457,27.832,10.254,-9.277,0
1553805892.185,7.812,41.992,23.438,21.484,41.016,0
1553805892.188,-2.441,44.922,27.832,27.344,51.758,0
1553805892.192,9.766,28.320,21.484,21.484,43.945,0
1553805892.196,39.551,24.902,11.719,44.922,62.500,0
1553805892.200,25.391,47.363,14.648,16.113,46.875,0
1553805892.204,-15.625,52.246,17.578,-26.855,78.613,0
1553805892.208,-15.137,51.758,17.578,-6.348,78.125,0
1553805892.212,10.254,49.316,16.602,4.883,52.246,0
1553805892.216,12.207,59.082,6.348,3.906,90.332,0
1553805892.220,9.766,60.059,1.465,6.836,59.570,0
1553805892.224,23.926,57.617,6.348,19.531,14.648,0
1553805892.228,7.812,60.059,10.254,16.602,22.949,0
1553805892.231,-2.930,57.129,12.207,0.488,52.734,0
1553805892.235,2.441,50.781,14.160,6.348,112.305,0
1553805892.239,14.648,42.969,14.160,12.207,97.656,0
1553805892.243,28.320,47.852,14.648,14.648,24.902,0
1553805892.247,27.344,40.039,21.484,12.207,41.992,0
1553805892.251,18.555,32.227,22.949,5.371,90.332,0
1553805892.255,33.691,45.410,16.602,17.090,24.414,0
1553805892.259,39.062,51.758,13.672,34.180,19.531,0
1553805892.263,22.461,58.594,12.695,20.020,42.480,0
1553805892.267,19.043,56.641,15.137,11.719,3.418,0
1553805892.271,21.484,52.246,18.066,23.926,-9.766,0
1553805892.274,21.484,51.758,15.137,12.207,52.734,0
1553805892.278,25.879,44.434,15.625,9.277,32.227,0
1553805892.282,33.691,42.969,20.996,11.719,12.695,0
1553805892.286,24.902,43.945,22.461,2.441,47.852,0
1553805892.290,12.207,40.527,21.484,17.090,102.051,0
1553805892.294,23.438,44.434,22.949,26.367,74.707,0
1553805892.298,22.461,43.945,28.809,13.672,9.766,0
1553805892.302,19.043,31.250,34.668,18.555,50.781,0
1553805892.306,20.508,36.133,33.691,20.508,17.578,0
1553805892.310,7.812,44.434,27.832,8.789,36.621,0
1553805892.313,12.207,50.781,20.508,19.043,41.504,0
1553805892.317,20.508,50.781,17.090,23.926,20.020,0
1553805892.321,20.996,46.387,25.391,27.832,65.430,0
1553805892.325,9.766,44.434,29.785,26.367,24.414,0
1553805892.329,8.301,46.875,28.809,20.508,-16.602,0
1553805892.333,13.184,36.621,35.645,30.273,41.992,0
1553805892.337,16.113,28.320,37.109,20.020,96.680,0
1553805892.341,23.926,41.016,31.250,34.180,51.758,0
1553805892.345,9.277,37.109,28.320,30.762,0.000,0
1553805892.349,4.395,26.855,28.809,21.484,-0.488,0
1553805892.353,16.602,38.574,34.668,32.715,43.945,0
1553805892.356,10.254,47.363,38.574,24.902,80.566,0
1553805892.360,6.836,38.574,38.574,26.367,4.395,0
1553805892.364,7.812,31.250,37.109,29.297,-7.324,0
1553805892.368,13.184,31.738,35.645,28.320,106.934,0
1553805892.372,25.391,39.062,39.062,25.879,59.082,0
1553805892.376,9.277,42.969,35.645,13.672,12.207,0
1553805892.380,7.812,30.273,35.645,12.207,32.715,0
1553805892.384,14.160,29.297,34.180,20.508,10.742,0
1553805892.388,5.859,35.156,27.832,23.438,35.156,0
1553805892.392,13.672,36.621,37.109,37.598,47.852,0
1553805892.396,27.832,35.645,50.293,38.086,16.113,0
1553805892.399,20.508,27.832,51.270,28.809,50.293,0
1553805892.403,1.953,42.969,40.527,13.184,45.410,0
1553805892.407,4.395,50.293,38.086,20.996,-6.836,0
1553805892.411,4.883,37.598,43.945,37.109,47.363,0
1553805892.415,0.977,37.109,41.016,26.855,57.617,0
1553805892.419,14.648,44.434,35.645,24.414,48.340,0
1553805892.423,17.578,39.551,35.156,28.809,105.469,0
1553805892.427,6.836,35.645,35.645,20.508,69.336,0
1553805892.431,9.277,30.762,42.480,12.207,18.555,0
1553805892.435,5.371,33.691,43.457,19.043,54.199,0
1553805892.438,0.000,52.734,38.086,20.508,69.336,0
1553805892.442,14.648,52.734,36.133,22.461,70.312,0
1553805892.446,23.926,44.922,31.738,22.949,56.641,0
1553805892.450,20.996,42.969,40.039,38.574,25.879,0
1553805892.454,9.766,40.039,50.293,39.062,27.344,0
1553805892.458,-19.043,36.621,45.898,10.254,16.113,0
1553805892.462,-17.090,36.133,41.992,9.766,18.066,0
1553805892.466,-3.906,32.715,38.574,25.879,37.109,0
1553805892.470,-0.977,13.184,37.109,25.879,27.344,0
1553805892.474,-17.090,22.949,42.480,22.461,-1.465,0
1553805892.478,-11.719,45.410,42.969,11.230,43.457,0
1553805892.481,10.742,51.758,44.434,2.441,72.754,0
1553805892.485,-7.812,50.781,47.363,0.488,72.266,0
1553805892.489,-2.930,43.457,42.480,4.395,83.496,0
1553805892.493,13.672,37.598,35.156,19.531,39.551,0
1553805892.497,13.184,33.203,21.973,13.672,32.715,0
1553805892.501,2.930,38.574,23.438,3.906,49.805,0
1553805892.505,-11.230,26.367,39.062,14.648,0.488,0
1553805892.509,-2.930,12.695,32.227,17.578,13.184,0
1553805892.513,8.789,25.879,25.391,7.324,91.309,0
1553805892.517,2.441,41.504,38.574,13.672,60.059,0
1553805892.521,2.441,45.898,47.363,20.508,52.734,0
1553805892.524,4.883,44.434,35.156,24.902,12.695,0
1553805892.528,20.996,41.504,25.391,25.391,-48.828,0
1553805892.532,17.090,40.039,32.715,9.277,76.172,0
1553805892.536,-9.766,37.109,37.109,4.883,41.016,0
1553805892.540,-0.977,31.738,36.133,16.113,-38.574,0
1553805892.544,6.348,26.367,36.133,17.578,45.410,0
1553805892.548,7.324,25.391,38.574,21.973,83.496,0
1553805892.552,18.066,25.391,31.738,32.715,24.414,0
1553805892.556,6.836,32.227,27.832,29.297,8.301,0
1553805892.560,8.301,36.133,32.715,31.738,-10.254,0
1553805892.563,3.418,37.109,29.297,27.344,4.883,0
1553805892.567,-10.742,43.945,28.320,17.578,36.621,0
1553805892.571,3.418,42.480,34.180,21.484,32.715,0
1553805892.575,16.113,31.250,36.133,7.324,37.109,0
1553805892.579,12.695,31.250,34.180,2.930,62.988,0
1553805892.583,14.648,37.598,26.367,20.020,13.184,0
1553805892.587,15.625,24.902,25.879,23.438,23.438,0
1553805892.591,20.996,27.832,32.227,26.855,90.332,0
1553805892.595,18.066,37.598,37.109,29.297,23.438,0
1553805892.599,-2.930,37.598,32.715,15.625,15.137,0
1553805892.603,-0.977,37.598,29.297,25.391,93.262,0
1553805892.606,4.395,41.016,25.391,32.715,37.109,0
1553805892.610,6.348,45.898,22.949,20.996,-1.953,0
1553805892.614,12.207,44.434,21.973,28.809,42.480,0
1553805892.618,24.902,38.574,22.949,29.785,73.242,0
1553805892.622,25.879,36.621,36.621,19.531,71.289,0
1553805892.626,10.742,41.504,40.527,22.461,75.195,0
1553805892.630,2.930,41.992,29.785,27.344,16.602,0
1553805892.634,30.273,39.062,20.020,33.691,-22.949,0
1553805892.638,41.016,42.480,26.367,43.945,28.809,0
1553805892.642,-3.418,41.992,37.598,16.113,41.992,0
1553805892.646,-13.184,30.273,47.852,1.953,50.293,0
1553805892.649,19.043,31.738,47.852,29.785,79.590,0
1553805892.653,15.625,44.434,41.992,31.738,46.387,0
1553805892.657,3.906,40.039,38.574,26.855,49.316,0
1553805892.661,1.953,27.344,33.203,33.691,111.328,0
1553805892.665,-3.418,25.391,32.227,23.438,115.234,0
1553805892.669,-6.836,33.691,31.738,4.883,97.168,0
1553805892.673,-3.906,41.504,27.832,3.906,28.320,0
1553805892.677,7.812,35.645,34.668,16.602,-19.043,0
1553805892.681,7.812,27.832,33.691,20.508,83.496,0
1553805892.685,35.645,36.133,35.645,26.367,88.379,0
1553805892.688,35.156,34.668,40.039,30.762,14.160,0
1553805892.692,-12.695,31.250,38.574,31.738,8.301,0
1553805892.696,-12.695,37.109,32.227,17.578,-36.133,0
1553805892.700,-3.418,33.691,22.949,21.484,-26.855,0
1553805892.704,6.348,28.809,30.762,41.504,23.926,0
1553805892.708,-0.488,22.949,39.062,31.250,14.648,0
1553805892.712,6.836,20.996,41.016,28.320,83.984,0
1553805892.716,21.973,27.344,40.527,22.949,99.609,0
1553805892.720,11.230,38.086,31.250,10.742,24.902,0
1553805892.724,1.953,37.109,23.438,19.043,31.738,0
1553805892.728,2.441,37.598,28.320,16.602,62.012,0
1553805892.731,1.953,46.875,35.156,19.531,49.805,0
1553805892.735,8.301,44.922,33.203,17.578,15.625,0
1553805892.739,11.230,41.992,29.297,21.973,51.758,0
1553805892.743,12.695,39.062,31.738,19.531,93.262,0
1553805892.747,29.297,35.156,26.855,30.762,42.969,0
1553805892.751,17.090,32.715,19.531,37.598,28.320,0
1553805892.755,-3.418,31.738,30.273,4.395,50.293,0
1553805892.759,5.859,25.391,38.086,-8.301,30.273,0
1553805892.763,0.488,26.855,36.133,14.160,-12.207,0
1553805892.767,16.113,44.922,31.738,26.855,17.090,0
1553805892.771,22.461,50.293,31.738,15.625,-3.906,0
1553805892.774,17.578,39.551,32.227,5.859,13.672,0
1553805892.778,19.043,34.668,33.691,19.043,31.250,0
1553805892.782,13.672,37.109,33.203,18.555,70.312,0
1553805892.786,14.160,41.016,28.320,12.695,26.855,0
1553805892.790,-10.254,34.668,25.879,17.090,11.719,0
1553805892.794,-20.508,28.320,22.949,24.902,35.156,0
1553805892.798,-15.625,32.715,31.250,24.414,32.715,0
1553805892.802,-14.648,26.855,38.086,19.043,81.543,0
1553805892.806,-1.953,30.762,32.227,5.859,56.641,0
1553805892.810,15.137,42.969,24.414,7.812,43.457,0
1553805892.813,2.930,41.992,20.996,9.277,16.113,0
1553805892.817,-1.465,41.504,17.090,-1.465,9.277,0
1553805892.821,12.207,48.828,20.996,20.508,87.402,0
1553805892.825,-17.090,46.387,31.250,25.879,39.062,0
1553805892.829,-19.043,33.203,32.715,25.391,-4.395,0
1553805892.833,18.066,21.484,26.855,20.508,23.438,0
1553805892.837,19.531,27.832,26.367,10.742,17.090,0
1553805892.841,5.371,35.645,35.645,21.484,-9.766,0
1553805892.845,6.836,31.250,35.156,31.250,2.930,0
1553805892.849,11.230,33.203,19.043,27.832,72.754,0
1553805892.853,25.879,21.973,21.973,28.809,5.859,0
1553805892.856,10.742,28.809,25.391,19.531,1.953,0
1553805892.860,-8.789,49.316,24.902,8.301,77.148,0
1553805892.864,7.812,46.875,35.645,19.531,81.543,0
1553805892.868,6.348,45.898,29.297,16.113,136.230,0
1553805892.872,8.789,42.480,24.902,18.555,87.402,0
1553805892.876,10.254,28.809,27.832,28.320,-3.418,0
1553805892.880,0.977,24.414,23.926,27.344,21.484,0
1553805892.884,6.836,31.738,16.602,26.367,9.766,0
1553805892.888,21.484,38.086,6.348,41.016,25.879,0
1553805892.892,20.020,35.645,5.859,35.645,60.547,0
1553805892.896,14.160,32.715,18.555,23.438,26.367,0
1553805892.899,5.859,36.133,23.926,18.555,17.090,0
1553805892.903,-0.488,35.645,20.508,1.465,82.031,0
1553805892.907,17.090,28.809,21.973,5.371,113.770,0
1553805892.911,24.414,37.598,23.438,23.926,67.871,0
1553805892.915,9.277,40.039,24.902,33.691,4.395,0
1553805892.919,-0.977,35.156,19.531,26.367,2.441,0
1553805892.923,15.625,37.598,16.602,20.508,12.207,0
1553805892.927,2.930,41.992,20.508,11.230,58.594,0
1553805892.931,-1.953,36.621,12.695,8.789,88.379,0
1553805892.935,19.531,23.438,7.812,17.090,58.594,0
1553805892.938,17.578,24.902,14.648,20.996,86.914,0
1553805892.942,13.672,35.645,23.438,21.973,89.844,0
1553805892.946,15.625,39.551,24.902,25.879,32.715,0
1553805892.950,15.625,21.484,22.461,20.508,-28.320,0
1553805892.954,10.742,27.344,14.160,11.719,25.879,0
1553805892.958,20.996,54.199,-0.488,40.527,52.246,0
1553805892.962,13.672,58.105,9.277,40.039,34.668,0
1553805892.966,-9.277,40.527,21.973,0.977,38.574,0
1553805892.970,-4.395,29.297,20.020,4.395,37.598,0
1553805892.974,-4.883,30.762,21.484,9.277,13.184,0
1553805892.978,-10.254,30.762,24.414,12.207,-29.785,0
1553805892.981,0.488,31.738,27.344,13.184,18.555,0
1553805892.985,17.578,28.320,25.391,7.324,62.988,0
1553805892.989,13.672,21.973,26.367,10.254,84.961,0
1553805892.993,4.395,37.109,27.832,6.836,41.504,0
1553805892.997,16.113,40.039,29.785,12.207,41.992,0
1553805893.001,13.184,36.621,20.508,16.113,68.359,0
1553805893.005,14.648,44.922,19.531,20.508,27.344,0
1553805893.009,11.230,38.086,27.832,25.879,25.879,0
1553805893.013,-3.906,33.203,23.438,24.414,43.945,0
1553805893.017,5.859,29.785,16.602,25.391,84.473,0
1553805893.021,7.812,29.785,26.855,34.668,37.598,0
1553805893.024,13.672,34.180,31.250,34.180,45.410,0
1553805893.028,8.301,37.109,26.367,15.625,65.430,0
1553805893.032,-5.371,38.574,24.902,8.301,58.594,0
1553805893.036,3.906,38.086,20.508,10.254,84.473,0
1553805893.040,17.578,39.551,20.996,5.859,79.102,0
1553805893.044,16.113,29.297,14.160,5.371,88.867,0
1553805893.048,0.977,25.391,10.254,-7.812,19.043,0
1553805893.052,3.418,34.180,13.184,-9.277,-67.383,0
1553805893.056,-0.488,41.992,20.508,-0.977,-33.203,0
1553805893.060,-1.953,45.410,21.484,7.324,28.320,0
1553805893.063,7.324,43.457,19.043,19.043,87.891,0
1553805893.067,0.977,35.645,17.578,8.301,54.199,0
1553805893.071,4.395,24.414,19.043,20.996,47.852,0
1553805893.075,35.156,32.227,19.043,49.316,41.992,0
1553805893.079,27.832,53.223,6.348,39.062,54.199,0
1553805893.083,-11.230,58.594,8.789,-2.930,91.797,0
1553805893.087,12.207,48.828,9.766,2.441,36.621,0
1553805893.091,16.113,43.945,4.395,7.324,30.273,0
1553805893.095,-24.902,48.340,6.836,0.977,-3.418,0
1553805893.099,-29.297,50.781,14.160,15.625,3.418,0
1553805893.103,-21.973,55.176,12.207,4.395,58.105,0
1553805893.106,-3.906,50.293,11.719,-4.883,64.941,0
1553805893.110,0.977,48.340,12.695,5.859,49.805,0
1553805893.114,0.977,47.852,10.254,20.020,44.922,0
1553805893.118,14.160,39.062,8.789,25.391,55.664,0
1553805893.122,36.621,32.227,5.859,32.227,22.461,0
1553805893.126,20.020,40.039,9.277,28.320,75.684,0
1553805893.130,4.883,45.410,7.324,28.320,104.004,0
1553805893.134,10.254,45.410,8.789,23.926,27.344,0
1553805893.138,10.742,49.805,13.184,19.043,28.320,0
1553805893.142,8.789,36.133,15.137,22.461,25.879,0
1553805893.146,-0.488,34.180,12.695,17.090,-31.250,0
1553805893.149,-2.441,50.293,4.883,17.090,4.395,0
1553805893.153,4.395,49.805,6.836,18.555,36.621,0
1553805893.157,13.672,45.898,9.766,25.391,80.078,0
1553805893.161,-2.441,42.969,11.230,31.250,79.590,0
1553805893.165,-3.906,28.809,11.719,22.949,50.293,0
1553805893.169,5.859,22.461,8.301,0.488,12.207,0
1553805893.173,15.137,38.574,12.207,2.441,25.879,0
1553805893.177,18.066,46.875,17.578,6.836,2.930,0
1553805893.181,15.137,43.457,17.090,20.996,-10.254,0
1553805893.185,19.531,47.363,20.508,30.273,-7.324,0
1553805893.188,10.742,54.688,11.230,27.344,4.395,0
1553805893.192,3.418,48.828,8.301,25.391,58.594,0
1553805893.196,10.254,41.016,20.996,29.785,28.809,0
1553805893.200,27.344,37.109,28.320,48.340,17.578,0
1553805893.204,26.367,29.785,21.484,41.504,104.492,0
1553805893.208,24.414,32.715,17.578,38.086,85.449,0
1553805893.212,19.043,38.086,20.996,50.293,29.297,0
1553805893.216,9.766,38.574,14.648,43.457,45.410,0
1553805893.220,6.836,25.391,14.160,26.367,62.988,0
1553805893.224,-6.836,30.762,18.066,16.602,88.867,0
1553805893.228,5.859,62.988,20.020,22.949,36.133,0
1553805893.231,19.531,58.105,22.949,12.207,-15.625,0
1553805893.235,7.812,36.133,21.484,33.203,20.020,0
1553805893.239,8.301,42.969,13.184,31.250,36.133,0
1553805893.243,14.648,51.758,12.695,6.836,35.645,0
1553805893.247,24.902,43.457,17.090,31.738,-4.883,0
1553805893.251,20.020,39.551,19.043,40.039,45.410,0
1553805893.255,20.508,42.480,13.184,33.691,63.965,0
1553805893.259,44.434,39.062,6.836,32.227,16.113,0
1553805893.263,33.691,31.738,9.766,26.855,58.594,0
1553805893.267,7.324,36.133,14.648,24.414,77.148,0
1553805893.271,-4.883,40.527,15.137,30.273,39.062,0
1553805893.274,2.930,39.551,18.066,26.855,-1.953,0
1553805893.278,21.484,41.992,22.461,6.348,9.766,0
1553805893.282,18.555,38.086,17.578,12.695,-12.207,0
1553805893.286,0.977,31.738,13.672,28.320,1.953,0
1553805893.290,10.254,28.809,20.020,27.344,32.227,0
1553805893.294,14.648,37.598,21.973,32.715,36.133,0
1553805893.298,4.395,50.293,19.531,22.949,13.184,0
1553805893.302,13.672,47.852,13.184,20.996,10.742,0
1553805893.306,11.230,39.062,13.672,22.461,7.812,0
1553805893.310,10.742,37.109,21.973,17.578,-21.484,0
1553805893.313,12.695,41.504,21.484,18.555,13.672,0
1553805893.317,21.973,46.875,19.043,22.949,66.895,0
1553805893.321,13.184,42.969,13.184,20.996,57.617,0
1553805893.325,-13.184,36.621,9.766,11.719,10.742,0
1553805893.329,-12.207,37.598,19.043,13.184,75.684,0
1553805893.333,8.301,43.457,25.391,15.137,31.738,0
1553805893.337,14.648,39.062,14.160,27.832,27.344,0
1553805893.341,-2.441,27.832,10.254,35.156,153.320,0
1553805893.345,-1.953,33.691,16.113,16.113,77.148,0
1553805893.349,10.742,45.410,6.348,18.555,-23.926,0
1553805893.353,-3.418,45.898,9.766,-3.906,16.602,0
1553805893.356,2.930,36.621,19.043,-8.789,109.375,0
1553805893.360,14.648,41.504,15.137,5.371,47.363,0
1553805893.364,8.789,52.734,11.719,-1.465,9.277,0
1553805893.368,18.555,52.734,19.043,21.973,81.543,0
1553805893.372,18.066,34.180,22.949,20.508,69.824,0
1553805893.376,5.371,34.180,9.277,5.371,62.500,0
1553805893.380,10.742,49.805,0.488,19.531,47.852,0
1553805893.384,15.625,45.898,9.277,14.648,70.801,0
1553805893.388,-1.953,37.598,11.719,0.977,99.121,0
1553805893.392,4.395,27.832,15.137,10.254,15.137,0
1553805893.396,10.742,26.855,21.484,5.859,-0.488,0
1553805893.399,-1.465,30.273,17.578,-4.883,4.883,0
1553805893.403,0.977,26.855,24.414,28.809,14.160,0
1553805893.407,23.438,31.738,27.832,42.480,62.012,0
1553805893.411,24.902,50.293,10.742,22.949,48.828,0
1553805893.415,20.996,50.293,5.859,32.715,70.312,0
1553805893.419,10.742,44.434,21.973,30.273,101.562,0
1553805893.423,1.953,47.852,26.367,23.926,1.465,0
1553805893.427,8.301,38.574,15.137,32.715,27.832,0
1553805893.431,22.461,31.738,6.348,20.996,104.492,0
1553805893.435,12.695,32.715,9.766,20.508,4.883,0
1553805893.438,0.488,34.180,19.043,32.715,-13.184,0
1553805893.442,6.836,32.715,15.625,19.531,75.684,0
1553805893.446,2.930,28.320,9.277,18.066,64.453,0
1553805893.450,-0.488,35.645,2.441,31.738,10.254,0
1553805893.454,-7.324,41.992,6.348,0.488,-3.418,0
1553805893.458,-3.418,33.203,20.020,-4.883,58.105,0
1553805893.462,7.324,27.832,19.531,3.418,53.223,0
1553805893.466,2.441,43.945,10.254,11.719,33.691,0
1553805893.470,0.488,48.828,12.207,19.043,41.504,0
1553805893.474,13.672,41.016,19.531,5.371,25.879,0
1553805893.478,18.555,46.387,20.508,14.160,28.809,0
1553805893.481,19.531,50.781,19.531,9.766,-1.465,0
1553805893.485,40.039,45.898,4.883,24.414,-36.133,0
1553805893.489,74.707,41.992,-7.812,62.500,-9.277,0
1553805893.493,49.316,31.738,9.277,43.457,7.812,0
1553805893.497,-20.508,25.879,30.273,7.812,24.414,0
1553805893.501,-22.949,22.949,26.855,20.020,36.621,0
1553805893.505,-19.043,21.973,23.926,26.367,61.523,0
1553805893.509,-25.879,33.203,23.926,5.371,102.539,0
1553805893.513,-36.621,36.133,34.668,2.441,54.199,0
1553805893.517,-25.391,29.785,83.984,9.766,-36.133,0
1553805893.521,4.395,32.227,120.117,10.742,-32.227,0
1553805893.524,-10.742,27.832,118.164,16.113,18.555,0
1553805893.528,-16.602,23.926,110.352,15.137,31.738,0
1553805893.532,5.859,31.250,103.027,23.438,1.953,0
1553805893.536,19.043,33.203,99.121,27.832,-21.484,0
1553805893.540,3.418,30.762,105.957,36.133,-22.949,0
1553805893.544,14.160,18.555,106.934,27.344,0.000,0
1553805893.548,25.391,20.020,102.539,15.137,2.930,0
1553805893.552,-0.488,43.457,94.238,18.066,4.883,0
1553805893.556,-7.324,50.293,87.891,7.812,80.078,0
1553805893.560,-8.301,46.875,81.543,-1.953,65.430,0
1553805893.563,-11.719,42.480,75.195,-1.953,-13.184,0
1553805893.567,8.301,41.504,71.777,1.465,19.531,0
1553805893.571,12.207,39.551,57.617,13.184,-0.488,0
1553805893.575,-12.695,31.250,53.223,26.367,28.809,0
1553805893.579,-2.930,30.762,64.941,21.484,80.566,0
1553805893.583,-1.465,32.715,60.059,29.785,89.355,0
1553805893.587,-4.395,42.480,48.340,30.762,46.387,0
1553805893.591,12.695,46.387,53.711,21.484,23.926,0
1553805893.595,-4.395,38.574,65.430,34.668,86.914,0
1553805893.599,1.953,38.086,59.570,24.902,58.105,0
1553805893.603,9.277,39.551,47.852,15.137,56.152,0
1553805893.606,-1.465,20.508,44.922,6.836,-5.859,0
1553805893.610,-0.488,17.090,41.504,12.695,25.879,0
1553805893.614,-7.324,48.828,36.621,16.602,72.754,0
1553805893.618,1.953,54.199,38.574,4.883,-13.184,0
1553805893.622,11.230,46.387,40.527,5.371,12.207,0
1553805893.626,2.441,49.805,42.480,11.719,57.617,0
1553805893.630,0.977,56.152,39.551,26.367,14.648,0
1553805893.634,3.418,51.270,27.344,40.039,1.953,0
1553805893.638,19.531,40.039,25.391,30.762,62.500,0
1553805893.642,19.043,26.855,32.227,21.484,83.496,0
1553805893.646,-7.324,29.297,22.461,6.836,87.891,0
1553805893.649,-17.090,48.340,26.367,-4.395,53.223,0
1553805893.653,0.977,42.969,45.898,14.160,3.418,0
1553805893.657,0.488,29.297,46.387,16.113,58.594,0
1553805893.661,-2.441,46.875,40.527,16.113,72.266,0
1553805893.665,-4.883,49.805,33.203,22.949,-13.184,0
1553805893.669,-2.441,41.504,24.902,27.344,16.602,0
1553805893.673,2.441,45.898,24.902,25.391,24.414,0
1553805893.677,-1.953,46.387,24.414,20.020,-8.301,0
1553805893.681,12.207,29.297,20.508,9.277,46.875,0
1553805893.685,24.902,22.949,27.832,6.836,33.203,0
1553805893.688,22.461,32.227,35.156,17.090,33.203,0
1553805893.692,-7.812,33.203,30.273,20.996,69.336,0
1553805893.696,-25.879,46.875,24.902,20.508,63.965,0
1553805893.700,-10.254,48.828,18.066,18.555,25.391,0
1553805893.704,0.000,46.387,9.277,11.719,26.367,0
1553805893.708,3.906,46.387,20.508,9.277,42.969,0
1553805893.712,28.320,15.137,22.949,31.738,-8.301,0
1553805893.716,27.344,22.461,24.414,20.996,-33.203,0
1553805893.720,-2.441,56.152,30.762,4.883,64.453,0
1553805893.724,-3.906,56.152,22.461,17.578,58.594,0
1553805893.728,9.766,45.898,24.902,22.949,43.945,0
1553805893.731,-2.930,42.480,26.855,16.113,122.559,0
1553805893.735,-10.254,45.410,21.484,0.000,65.918,0
1553805893.739,4.883,48.828,15.625,6.348,65.430,0
1553805893.743,27.344,32.715,10.742,32.227,105.469,0
1553805893.747,10.742,21.484,24.902,27.832,87.402,0
1553805893.751,-13.672,46.387,29.785,11.230,21.973,0
1553805893.755,-4.883,49.316,23.438,9.766,-19.531,0
1553805893.759,-4.395,41.504,23.438,17.090,20.020,0
1553805893.763,5.859,44.922,23.926,24.414,22.949,0
1553805893.767,14.648,50.293,25.879,24.414,-48.340,0
1553805893.771,-1.465,47.852,26.367,21.484,18.555,0
1553805893.774,16.113,38.574,21.484,19.043,53.711,0
1553805893.778,22.461,41.992,20.020,20.508,-20.996,0
1553805893.782,1.953,41.992,20.508,25.391,-6.836,0
1553805893.786,-3.418,40.039,23.438,19.531,-4.395,0
1553805893.790,-11.719,41.504,20.996,-2.930,11.230,0
1553805893.794,3.418,36.133,17.578,5.371,47.363,0
1553805893.798,-0.488,36.133,17.090,12.207,79.590,0
1553805893.802,-10.254,43.945,20.508,1.465,61.035,0
1553805893.806,-8.301,41.016,25.879,4.395,2.441,0
1553805893.810,-12.207,47.363,23.438,2.441,41.016,0
1553805893.813,0.000,49.805,24.902,1.465,52.246,0
1553805893.817,13.672,45.410,27.344,23.926,43.945,0
1553805893.821,24.414,42.480,25.879,45.898,38.086,0
1553805893.825,23.926,42.969,19.043,35.645,32.227,0
1553805893.829,5.371,41.504,15.137,4.395,30.762,0
1553805893.833,1.465,29.785,16.113,-3.418,50.293,0
1553805893.837,13.672,49.805,16.602,3.418,59.570,0
1553805893.841,33.691,66.895,13.184,23.438,21.973,0
1553805893.845,18.066,50.781,14.648,19.531,-23.926,0
1553805893.849,7.324,37.109,13.672,19.531,-37.598,0
1553805893.853,11.230,37.109,11.719,35.645,24.902,0
1553805893.856,21.484,38.086,21.973,27.832,34.668,0
1553805893.860,29.785,47.852,23.926,26.855,9.766,0
1553805893.864,14.648,48.340,16.113,38.086,28.809,0
1553805893.868,20.996,38.574,14.648,36.621,48.340,0
1553805893.872,27.344,35.645,18.555,29.785,65.918,0
1553805893.876,24.414,33.691,17.090,16.602,41.504,0
1553805893.880,31.738,28.320,20.508,14.648,35.156,0
1553805893.884,27.832,32.715,22.949,17.090,37.598,0
1553805893.888,23.926,45.410,17.090,27.344,57.617,0
1553805893.892,21.973,44.922,15.625,34.180,53.223,0
1553805893.896,14.160,38.574,22.949,20.508,62.500,0
1553805893.899,29.297,41.992,25.879,19.043,9.766,0
1553805893.903,33.691,48.340,24.902,32.715,-69.336,0
1553805893.907,17.090,41.992,20.508,31.250,-4.883,0
1553805893.911,10.254,40.039,20.508,14.160,41.992,0
1553805893.915,6.348,39.551,26.367,10.254,7.812,0
1553805893.919,9.766,20.996,25.391,17.578,7.324,0
1553805893.923,29.785,25.879,21.484,21.973,-16.113,0
1553805893.927,29.785,44.922,17.090,23.926,43.457,0
1553805893.931,-6.836,50.781,8.301,17.090,44.922,0
1553805893.935,-15.137,48.828,19.043,10.254,-3.906,0
1553805893.938,4.395,44.434,34.668,20.508,15.625,0
1553805893.942,4.883,47.363,28.320,8.301,0.977,0
1553805893.946,4.883,45.898,20.508,1.953,35.645,0
1553805893.950,15.625,36.621,23.438,21.484,74.707,0
1553805893.954,7.324,23.926,30.762,19.531,9.277,0
1553805893.958,-6.836,24.414,24.414,11.230,35.645,0
1553805893.962,-3.418,32.227,16.113,17.090,76.172,0
1553805893.966,10.742,36.621,26.367,20.996,41.016,0
1553805893.970,15.625,37.109,32.227,22.461,61.035,0
1553805893.974,8.301,28.320,29.297,24.414,65.918,0
1553805893.978,4.395,28.809,28.320,19.531,71.777,0
1553805893.981,-6.836,35.645,27.344,20.020,50.293,0
1553805893.985,-15.625,37.598,27.832,24.902,99.609,0
1553805893.989,-7.812,33.203,29.785,18.066,93.262,0
1553805893.993,-0.488,31.250,23.438,16.602,49.805,0
1553805893.997,0.977,35.645,16.602,10.742,69.336,0
1553805894.001,-8.301,46.387,20.508,14.648,71.777,0
1553805894.005,-8.301,42.480,26.855,4.395,85.449,0
1553805894.009,18.066,35.645,24.902,-4.883,48.828,0
1553805894.013,22.461,35.156,26.367,16.113,88.379,0
1553805894.017,-17.090,27.344,30.273,8.789,103.516,0
1553805894.021,-26.855,30.273,24.902,4.395,60.059,0
1553805894.024,-7.324,29.297,24.414,0.488,48.340,0
1553805894.028,0.000,20.996,31.738,8.789,22.949,0
1553805894.032,7.324,30.762,24.902,13.184,15.625,0
1553805894.036,14.648,34.668,23.438,2.441,31.738,0
1553805894.040,16.113,29.785,31.738,11.719,6.348,0
1553805894.044,18.555,31.738,30.273,10.742,-16.602,0
1553805894.048,14.160,48.340,30.762,8.789,36.621,0
1553805894.052,13.672,50.293,31.738,30.762,60.059,0
1553805894.056,0.000,42.969,31.738,21.484,32.227,0
1553805894.060,0.977,36.133,27.344,0.000,-43.457,0
1553805894.063,5.371,33.691,27.344,22.949,-53.711,0
1553805894.067,-0.488,21.973,29.785,45.898,60.547,0
1553805894.071,5.371,6.836,33.203,10.742,108.887,0
1553805894.075,4.883,29.785,22.461,-3.418,51.758,0
1553805894.079,1.953,51.758,16.602,-1.465,41.016,0
1553805894.083,-2.441,49.805,36.621,1.465,36.133,0
1553805894.087,8.301,40.527,41.016,7.324,44.434,0
1553805894.091,12.695,30.762,33.691,3.906,70.801,0
1553805894.095,15.625,22.949,32.227,33.691,43.457,0
1553805894.099,18.555,20.020,36.133,55.176,51.270,0
1553805894.103,12.695,25.879,35.156,30.273,39.062,0
1553805894.106,-2.441,27.344,26.855,3.906,54.199,0
1553805894.110,-10.254,30.762,18.555,7.324,81.543,0
1553805894.114,-14.160,33.691,17.090,11.719,-16.113,0
1553805894.118,-4.395,38.574,18.066,10.254,-23.438,0
1553805894.122,6.348,40.039,24.902,12.207,45.898,0
1553805894.126,10.254,34.668,39.062,1.953,50.293,0
1553805894.130,9.277,28.320,37.598,17.090,35.156,0
1553805894.134,7.812,27.344,30.762,23.438,15.625,0
1553805894.138,11.719,35.156,30.762,31.250,25.391,0
1553805894.142,8.301,30.273,31.250,27.344,17.578,0
1553805894.146,-6.836,10.254,35.645,20.508,-28.809,0
1553805894.149,-5.371,20.020,34.668,36.621,78.613,0
1553805894.153,-4.395,40.527,29.297,30.273,96.191,0
1553805894.157,-12.207,45.898,30.762,20.508,6.348,0
1553805894.161,-10.254,49.316,29.785,-2.930,17.578,0
1553805894.165,4.395,39.551,23.926,-5.859,-10.742,0
1553805894.169,6.348,49.316,26.855,7.324,22.949,0
1553805894.173,5.859,54.199,29.785,10.742,57.129,0
1553805894.177,25.879,43.457,28.320,18.066,55.664,0
1553805894.181,26.367,41.504,25.391,17.578,58.105,0
1553805894.185,20.020,33.691,24.902,21.484,57.129,0
1553805894.188,25.391,25.391,27.344,24.902,71.289,0
1553805894.192,25.879,29.297,27.344,18.066,74.707,0
1553805894.196,19.043,25.879,29.297,24.902,27.344,0
1553805894.200,-0.977,23.926,24.902,20.508,-42.969,0
1553805894.204,-1.953,34.668,22.949,19.043,42.480,0
1553805894.208,2.930,43.945,19.531,27.832,52.734,0
1553805894.212,21.973,25.391,14.160,30.762,86.426,0
1553805894.216,2.930,15.137,28.809,8.789,83.008,0
1553805894.220,-15.137,48.828,33.203,5.371,74.219,0
1553805894.224,-11.719,53.223,27.832,12.207,94.238,0
1553805894.228,-13.672,40.039,26.855,8.789,52.734,0
1553805894.231,-0.488,31.738,27.832,22.949,64.453,0
1553805894.235,-1.465,19.043,20.508,21.484,32.227,0
1553805894.239,11.719,31.738,18.066,12.695,47.363,0
1553805894.243,17.090,45.898,34.180,6.836,55.664,0
1553805894.247,-5.371,48.340,37.109,14.648,93.262,0
1553805894.251,-1.465,43.945,33.691,3.906,56.641,0
1553805894.255,1.465,27.344,24.414,2.930,32.715,0
1553805894.259,0.000,22.949,24.902,18.555,63.477,0
1553805894.263,-2.441,36.133,31.250,14.160,24.902,0
1553805894.267,-18.066,33.691,18.555,7.812,60.547,0
1553805894.271,-10.742,29.785,22.949,8.301,11.230,0
1553805894.274,10.254,27.344,32.715,29.297,60.547,0
1553805894.278,24.902,29.785,24.414,29.785,58.105,0
1553805894.282,11.230,40.039,21.973,29.785,-1.465,0
1553805894.286,14.648,45.898,22.461,15.625,45.410,0
1553805894.290,11.719,46.875,24.414,2.930,44.922,0
1553805894.294,-4.395,29.297,29.297,26.855,3.418,0
1553805894.298,0.977,27.344,32.227,31.738,31.738,0
1553805894.302,-13.184,41.504,29.297,12.695,10.254,0
1553805894.306,-21.973,38.086,28.320,17.090,15.625,0
1553805894.310,-7.324,37.598,21.484,8.301,51.758,0
1553805894.313,-1.953,28.809,14.160,-1.465,27.344,0
1553805894.317,5.859,22.949,23.926,24.902,68.848,0
1553805894.321,-1.953,36.133,24.902,24.414,28.320,0
1553805894.325,-5.371,36.621,19.043,13.184,-17.578,0
1553805894.329,14.160,36.621,28.320,11.230,14.160,0
1553805894.333,14.160,28.809,30.273,9.766,46.875,0
1553805894.337,12.207,26.367,26.855,23.926,40.039,0
1553805894.341,5.371,30.273,24.902,26.367,-4.395,0
1553805894.345,11.719,33.203,28.809,19.531,28.809,0
1553805894.349,14.648,43.457,30.273,19.531,127.930,0
1553805894.353,4.883,47.363,27.344,23.926,125.000,0
1553805894.356,11.230,41.992,27.832,32.227,18.066,0
1553805894.360,14.160,26.367,30.273,29.297,0.488,0
1553805894.364,17.090,37.109,22.949,26.855,38.574,0
1553805894.368,12.207,46.875,19.531,29.785,56.641,0
1553805894.372,4.883,36.133,28.320,32.715,56.152,0
1553805894.376,1.953,26.855,30.762,29.297,57.129,0
1553805894.380,14.648,22.949,25.879,16.602,36.621,0
1553805894.384,11.230,37.109,27.832,11.230,93.262,0
1553805894.388,-12.695,40.527,37.598,9.277,105.469,0
1553805894.392,-0.977,30.273,31.250,21.484,1.465,0
1553805894.396,6.836,24.902,26.855,20.996,46.875,0
1553805894.399,0.000,30.273,34.180,12.207,62.500,0
1553805894.403,11.230,38.574,25.391,16.602,-18.066,0
1553805894.407,7.812,34.180,17.090,-1.953,5.371,0
1553805894.411,0.000,39.062,25.391,6.348,71.777,0
1553805894.415,14.648,35.645,32.227,23.438,90.820,0
1553805894.419,7.324,31.250,28.809,20.508,61.035,0
1553805894.423,0.488,34.180,29.297,22.949,83.984,0
1553805894.427,4.883,34.668,28.320,17.578,55.176,0
1553805894.431,3.418,33.203,25.879,23.926,17.090,0
1553805894.435,9.766,26.855,34.180,27.832,12.207,0
1553805894.438,13.672,34.668,34.668,17.090,41.992,0
1553805894.442,11.719,37.598,31.250,19.531,78.125,0
1553805894.446,22.949,30.273,28.320,23.438,66.895,0
1553805894.450,59.082,21.973,20.508,60.059,14.160,0
1553805894.454,33.691,41.016,23.438,43.457,-9.766,0
1553805894.458,-40.527,59.082,28.809,-32.227,-52.246,0
1553805894.462,-53.223,53.223,25.391,-24.414,-6.348,0
1553805894.466,-31.738,49.805,33.691,-27.344,42.480,0
1553805894.470,-44.434,44.434,40.039,-46.875,67.871,0
1553805894.474,-64.941,50.781,35.645,-31.250,49.805,0
1553805894.478,-64.941,52.246,26.367,-36.133,-42.969,0
1553805894.481,-48.828,45.898,26.367,-45.898,-32.227,0
1553805894.485,-47.852,46.875,25.391,-34.668,6.348,0
1553805894.489,-45.898,50.293,17.578,-20.508,25.391,0
1553805894.493,-23.438,50.781,16.113,0.977,14.160,0
1553805894.497,-15.625,42.969,18.555,-8.301,65.918,0
1553805894.501,-19.531,38.574,26.855,-13.184,48.828,0
1553805894.505,-18.066,44.922,26.855,6.348,47.852,0
1553805894.509,-17.578,44.922,23.438,7.324,69.336,0
1553805894.513,-8.301,41.992,14.160,0.000,50.293,0
1553805894.517,0.488,35.156,20.508,-3.418,49.805,0
1553805894.521,10.254,25.391,34.668,4.395,7.812,0
1553805894.524,9.277,39.062,27.344,11.719,8.789,0
1553805894.528,4.395,40.039,25.391,10.254,45.410,0
1553805894.532,6.348,39.062,22.461,7.324,18.555,0
1553805894.536,9.277,52.246,21.484,31.250,27.344,0
1553805894.540,5.371,50.293,30.762,18.555,62.012,0
1553805894.544,13.672,40.039,29.785,2.930,72.266,0
1553805894.548,8.301,46.387,24.902,8.789,49.805,0
1553805894.552,-1.953,38.574,32.227,14.160,41.992,0
1553805894.556,13.184,31.738,36.133,35.645,48.340,0
1553805894.560,10.742,28.809,28.809,21.484,-42.480,0
1553805894.563,3.906,33.691,22.949,17.578,10.742,0
1553805894.567,15.137,40.527,19.531,33.691,65.918,0
1553805894.571,17.578,34.180,22.949,24.414,-13.672,0
1553805894.575,-11.719,39.551,28.320,15.137,-35.645,0
1553805894.579,-24.902,38.574,30.273,7.812,15.625,0
1553805894.583,-8.301,33.203,33.203,3.906,89.355,0
1553805894.587,2.930,31.250,35.645,16.113,60.547,0
1553805894.591,4.395,32.227,33.691,12.207,35.156,0
1553805894.595,-10.742,35.156,32.715,11.719,-6.836,0
1553805894.599,-17.578,36.133,33.203,25.391,-19.043,0
1553805894.603,-0.977,32.227,32.227,39.551,85.449,0
1553805894.606,5.371,42.969,23.438,15.625,81.055,0
1553805894.610,3.906,42.480,20.996,7.812,29.297,0
1553805894.614,10.742,37.109,21.484,24.414,3.418,0
1553805894.618,0.000,42.480,26.367,30.273,72.266,0
1553805894.622,-7.324,38.574,32.227,27.832,88.867,0
1553805894.626,18.066,37.109,23.926,8.789,65.918,0
1553805894.630,17.578,29.785,21.973,15.137,84.961,0
1553805894.634,6.348,18.555,30.273,10.742,63.965,0
1553805894.638,-2.441,31.738,30.273,12.207,50.293,0
1553805894.642,-1.465,45.898,22.949,20.508,38.086,0
1553805894.646,-0.977,42.480,24.902,5.371,82.520,0
1553805894.649,-6.348,42.969,28.320,9.277,123.535,0
1553805894.653,10.742,45.898,25.391,12.207,89.844,0
1553805894.657,18.066,40.039,21.973,16.113,-7.812,0
1553805894.661,19.043,37.109,22.949,28.320,22.949,0
1553805894.665,15.137,33.691,23.926,25.391,64.453,0
1553805894.669,5.371,31.250,25.391,17.090,14.648,0
1553805894.673,7.812,29.785,32.227,20.508,-9.277,0
1553805894.677,0.488,26.367,38.574,19.043,10.742,0
1553805894.681,-5.859,33.203,33.203,-3.418,1.953,0
1553805894.685,17.090,36.621,27.832,-3.418,20.508,0
1553805894.688,20.020,32.227,29.297,21.484,63.477,0
1553805894.692,10.254,37.109,27.344,29.297,97.656,0
1553805894.696,0.977,41.016,17.090,37.598,108.398,0
1553805894.700,5.859,39.551,22.949,38.574,77.148,0
1553805894.704,0.977,37.598,32.715,25.879,107.422,0
1553805894.708,-6.836,42.480,32.715,16.602,17.578,0
1553805894.712,0.000,45.898,32.227,15.625,-19.043,0
1553805894.716,-3.906,25.879,33.691,19.043,44.922,0
1553805894.720,4.883,14.648,31.738,25.879,32.715,0
1553805894.724,32.227,32.715,22.461,30.273,10.742,0
1553805894.728,7.812,44.922,30.762,30.762,31.738,0
1553805894.731,-21.973,37.109,43.457,10.254,50.781,0
1553805894.735,-12.695,29.785,33.691,-9.277,11.719,0
1553805894.739,-10.254,30.762,31.738,5.371,54.199,0
1553805894.743,1.465,33.691,40.527,16.113,87.891,0
1553805894.747,0.977,29.297,32.715,15.137,39.551,0
1553805894.751,-1.465,22.949,30.762,9.277,43.457,0
1553805894.755,6.836,22.949,30.273,2.441,62.500,0
1553805894.759,11.230,23.438,30.273,24.902,26.855,0
1553805894.763,19.043,31.250,35.156,33.691,38.086,0
1553805894.767,25.879,37.109,35.645,18.066,41.992,0
1553805894.771,18.555,33.203,33.203,21.973,105.469,0
1553805894.774,8.301,33.203,29.297,22.949,116.211,0
1553805894.778,20.996,41.016,37.109,22.461,28.320,0
1553805894.782,22.949,40.527,33.691,27.344,22.949,0
1553805894.786,-6.348,40.527,25.879,25.879,32.227,0
1553805894.790,-6.836,32.227,33.203,9.766,45.898,0
1553805894.794,8.789,21.484,36.621,6.348,51.270,0
1553805894.798,4.395,28.809,34.180,26.855,47.363,0
