timestamps,TP9,AF7,AF8,TP10,Right AUX,Marker0
1542908904.458,56.152,23.926,25.391,7.812,16.602,0
1542908904.462,42.480,23.438,28.320,33.203,27.344,0
1542908904.466,36.621,24.414,29.297,23.926,50.293,0
1542908904.470,49.805,22.461,26.855,6.348,1.953,0
1542908904.474,47.852,19.531,28.809,19.531,14.648,0
1542908904.477,42.969,22.461,28.320,26.367,46.875,0
1542908904.481,50.781,29.297,31.250,28.320,1.953,0
1542908904.485,55.176,32.715,29.785,33.691,-18.066,0
1542908904.489,72.266,32.227,28.809,26.367,45.410,0
1542908904.493,66.406,33.691,32.227,41.016,16.602,0
1542908904.497,52.246,30.762,33.203,54.688,-0.488,0
1542908904.501,71.289,22.949,28.809,28.809,50.293,0
1542908904.505,71.289,22.461,28.809,29.785,15.625,0
1542908904.509,28.809,23.926,37.109,48.340,23.438,0
1542908904.513,13.672,20.996,42.480,46.875,37.109,0
1542908904.517,30.273,23.438,43.945,25.391,28.809,0
1542908904.520,42.969,29.297,39.551,16.113,56.641,0
1542908904.524,35.645,27.344,34.180,27.832,55.664,0
1542908904.528,43.457,24.902,32.227,21.484,13.184,0
1542908904.532,66.406,34.180,36.133,28.320,-36.133,0
1542908904.536,56.641,39.551,42.480,57.129,46.875,0
1542908904.540,49.316,39.551,43.945,56.641,104.980,0
1542908904.544,46.387,41.016,42.480,56.152,70.801,0
1542908904.548,42.480,29.785,41.504,56.641,90.332,0
1542908904.552,53.223,19.531,41.992,46.387,86.426,0
1542908904.556,59.570,23.438,38.574,49.316,26.855,0
1542908904.560,57.617,28.809,37.109,69.336,14.648,0
1542908904.563,62.988,37.598,38.086,67.383,50.781,0
1542908904.567,61.523,40.039,37.109,44.434,44.922,0
1542908904.571,54.688,35.645,35.645,44.434,16.113,0
1542908904.575,54.688,33.691,33.691,32.715,7.324,0
1542908904.579,55.664,33.691,35.645,35.156,19.531,0
1542908904.583,51.270,32.715,36.621,44.922,59.570,0
1542908904.587,47.363,28.320,32.715,28.320,80.078,0
1542908904.591,42.969,24.902,34.180,27.344,38.086,0
1542908904.595,52.246,30.273,37.598,44.922,-5.371,0
1542908904.599,69.336,35.156,35.645,50.293,34.180,0
1542908904.602,46.875,34.180,35.156,52.246,51.758,0
1542908904.606,32.227,29.785,35.156,45.410,18.555,0
1542908904.610,45.410,26.855,31.250,54.688,41.016,0
1542908904.614,63.965,29.297,27.832,46.875,27.832,0
1542908904.618,74.707,26.855,25.879,40.527,14.160,0
1542908904.622,50.781,24.414,29.297,58.594,18.066,0
1542908904.626,30.762,26.367,32.715,53.711,33.691,0
1542908904.630,37.109,24.414,35.156,47.363,56.641,0
1542908904.634,26.855,22.461,42.480,34.180,63.965,0
1542908904.638,22.949,20.508,40.527,15.137,24.902,0
1542908904.642,33.691,14.160,38.086,32.715,-29.297,0
1542908904.645,31.250,11.719,41.016,38.574,7.812,0
1542908904.649,34.180,18.066,40.527,11.719,61.523,0
1542908904.653,44.922,22.461,41.504,7.812,83.008,0
1542908904.657,51.270,21.484,37.109,10.254,106.934,0
1542908904.661,57.617,16.113,35.156,11.230,90.820,0
1542908904.665,49.316,13.672,36.621,18.066,29.297,0
1542908904.669,36.621,16.602,37.598,40.527,26.855,0
1542908904.673,42.480,16.602,37.598,44.922,70.801,0
1542908904.677,54.688,17.578,37.109,31.738,28.809,0
1542908904.681,66.895,23.438,35.645,25.391,-1.465,0
1542908904.685,56.152,30.273,31.738,36.621,24.414,0
1542908904.688,27.344,27.832,33.203,38.574,30.273,0
1542908904.692,30.273,23.926,34.668,17.090,60.547,0
1542908904.696,52.246,21.973,34.180,22.949,21.484,0
1542908904.700,57.617,18.066,32.227,27.344,-20.508,0
1542908904.704,45.410,18.066,30.273,22.949,34.180,0
1542908904.708,33.203,16.113,32.715,56.152,43.945,0
1542908904.712,38.086,17.090,32.227,67.383,37.598,0
1542908904.716,50.293,25.391,30.762,26.367,38.086,0
1542908904.720,56.152,30.762,28.320,18.555,72.754,0
1542908904.724,48.828,30.762,25.391,11.719,34.668,0
1542908904.727,39.551,27.832,26.855,-1.465,4.883,0
1542908904.731,35.156,20.508,28.320,12.207,65.918,0
1542908904.735,44.434,14.648,30.762,41.016,-9.277,0
1542908904.739,58.594,22.461,30.762,41.016,-17.578,0
1542908904.743,59.082,28.809,27.832,8.789,15.625,0
1542908904.747,50.781,28.809,27.832,14.160,20.996,0
1542908904.751,47.852,30.762,27.832,36.133,29.785,0
1542908904.755,50.293,25.879,30.273,62.500,39.062,0
1542908904.759,58.105,18.555,30.762,48.828,39.062,0
1542908904.763,58.594,22.949,28.320,8.301,20.020,0
1542908904.767,50.781,26.367,28.320,12.207,12.207,0
1542908904.770,44.434,20.996,28.320,18.066,28.809,0
1542908904.774,40.527,17.578,32.715,25.879,38.574,0
1542908904.778,41.504,22.461,35.156,29.297,32.715,0
1542908904.782,35.645,25.391,32.227,48.828,33.203,0
1542908904.786,39.062,24.902,34.668,65.430,85.938,0
1542908904.790,40.039,21.484,34.180,32.227,88.379,0
1542908904.794,44.922,20.020,29.785,30.273,32.227,0
1542908904.798,55.176,22.461,28.320,38.086,67.871,0
1542908904.802,55.664,24.414,27.832,46.875,31.738,0
1542908904.806,46.387,25.879,32.715,49.316,16.602,0
1542908904.810,23.438,25.879,36.133,27.832,68.848,0
1542908904.813,10.742,23.926,32.715,10.742,41.016,0
1542908904.817,10.742,24.902,29.785,11.230,-7.324,0
1542908904.821,13.672,26.855,32.227,16.113,5.371,0
1542908904.825,37.109,31.738,33.691,23.438,0.488,0
1542908904.829,43.945,35.156,33.691,58.105,48.340,0
1542908904.833,10.254,31.250,39.062,55.176,47.363,0
1542908904.837,-1.465,30.762,43.457,28.320,14.648,0
1542908904.841,-0.977,30.273,43.945,25.391,59.082,0
1542908904.845,9.766,26.855,42.480,21.484,33.691,0
1542908904.849,18.555,24.414,41.504,29.297,13.184,0
1542908904.852,9.277,23.438,41.992,32.715,20.020,0
1542908904.856,17.578,22.461,41.504,31.250,-52.246,0
1542908904.860,34.668,29.297,43.457,28.320,-45.410,0
1542908904.864,41.504,38.086,40.527,25.391,58.594,0
1542908904.868,32.227,35.156,38.086,23.926,60.547,0
1542908904.872,28.809,31.738,38.574,32.227,34.180,0
1542908904.876,41.016,31.250,41.992,54.199,51.758,0
1542908904.880,35.156,28.809,42.480,66.406,44.434,0
1542908904.884,35.156,25.879,36.621,45.898,64.941,0
1542908904.888,48.828,32.227,35.156,28.320,91.309,0
1542908904.892,38.086,38.086,32.715,33.691,25.391,0
1542908904.895,35.645,38.086,26.855,22.461,-28.320,0
1542908904.899,37.598,32.227,27.344,22.461,4.883,0
1542908904.903,50.781,23.926,34.668,43.945,16.602,0
1542908904.907,48.340,24.902,37.109,60.547,39.062,0
1542908904.911,33.691,25.879,33.203,56.641,68.359,0
1542908904.915,43.457,26.855,29.297,47.852,50.781,0
1542908904.919,36.621,25.391,30.762,49.805,-3.418,0
1542908904.923,49.805,25.879,29.785,28.320,-15.137,0
1542908904.927,58.105,30.273,23.438,10.254,30.762,0
1542908904.931,41.992,32.715,21.973,5.371,21.484,0
1542908904.935,28.320,29.297,24.414,35.645,46.387,0
1542908904.938,7.324,25.879,26.855,48.340,56.152,0
1542908904.942,12.207,24.414,27.832,18.555,7.812,0
1542908904.946,24.902,20.508,25.879,20.996,27.344,0
1542908904.950,13.672,21.484,25.879,22.949,28.320,0
1542908904.954,4.395,24.902,30.762,28.809,-3.418,0
1542908904.958,13.184,29.297,31.250,52.734,7.812,0
1542908904.962,12.207,33.691,30.273,49.316,53.711,0
1542908904.966,1.953,30.273,30.762,19.531,88.867,0
1542908904.970,6.348,29.297,27.832,25.391,72.266,0
1542908904.974,25.879,29.785,25.879,33.691,10.742,0
1542908904.977,44.434,27.344,26.367,14.160,11.230,0
1542908904.981,30.273,27.344,24.902,0.977,57.617,0
1542908904.985,2.441,30.273,26.855,-6.348,84.473,0
1542908904.989,20.020,30.762,35.645,12.207,40.039,0
1542908904.993,15.625,25.879,36.621,20.996,-0.488,0
1542908904.997,8.789,25.879,36.133,29.785,40.039,0
1542908905.001,19.531,26.367,40.039,40.527,24.414,0
1542908905.005,10.742,24.414,37.109,25.879,-22.949,0
1542908905.009,52.734,23.926,32.715,31.250,-19.043,0
1542908905.013,61.523,30.762,31.250,35.156,-27.344,0
1542908905.017,20.020,33.691,30.273,63.477,-4.883,0
1542908905.020,-16.602,22.949,31.250,69.824,40.039,0
1542908905.024,-25.879,14.648,35.645,31.738,51.758,0
1542908905.028,13.184,12.207,42.969,56.641,64.941,0
1542908905.032,25.879,25.879,38.086,45.410,18.555,0
1542908905.036,7.324,35.645,26.367,1.953,11.719,0
1542908905.040,0.977,32.715,22.461,9.766,-2.930,0
1542908905.044,10.742,32.715,23.926,26.367,8.789,0
1542908905.048,15.625,31.250,21.973,41.992,37.109,0
1542908905.052,19.043,35.156,17.578,54.688,41.016,0
1542908905.056,31.738,42.969,12.695,37.109,13.672,0
1542908905.060,37.109,41.992,14.648,13.672,16.113,0
1542908905.063,23.438,36.621,18.555,21.484,87.891,0
1542908905.067,23.926,35.156,20.508,22.461,52.246,0
1542908905.071,30.762,33.203,22.949,7.812,38.086,0
1542908905.075,43.945,32.715,19.531,17.090,63.965,0
1542908905.079,50.781,32.227,17.090,32.227,50.781,0
1542908905.083,31.250,33.691,18.066,33.691,31.250,0
1542908905.087,24.414,33.691,13.672,30.762,41.992,0
1542908905.091,28.320,23.926,10.742,34.180,22.949,0
1542908905.095,39.551,23.926,13.672,46.875,-0.977,0
1542908905.099,36.621,32.715,13.184,55.176,83.008,0
1542908905.102,26.855,32.227,10.254,30.273,66.406,0
1542908905.106,28.809,29.785,14.160,24.414,20.508,0
1542908905.110,35.156,28.809,14.160,34.180,53.223,0
1542908905.114,35.645,25.879,11.230,34.180,23.438,0
1542908905.118,49.316,18.066,11.230,40.527,-23.926,0
1542908905.122,34.180,18.066,14.160,42.969,-13.184,0
1542908905.126,22.949,26.855,15.137,32.715,8.789,0
1542908905.130,23.926,28.320,11.719,21.973,29.785,0
1542908905.134,6.348,27.832,14.160,21.973,9.277,0
1542908905.138,24.902,26.855,20.020,31.250,12.207,0
1542908905.142,44.434,23.438,19.531,36.133,69.824,0
1542908905.145,31.738,27.344,19.043,25.391,48.340,0
1542908905.149,18.555,27.832,22.461,27.344,4.883,0
1542908905.153,15.625,27.344,18.555,39.551,1.953,0
1542908905.157,22.461,23.926,14.160,36.621,42.969,0
1542908905.161,29.785,18.066,17.090,27.832,0.977,0
1542908905.165,40.039,18.066,16.602,24.902,-14.160,0
1542908905.169,58.594,20.996,13.184,32.715,35.156,0
1542908905.173,37.598,23.926,19.043,33.203,49.805,0
1542908905.177,37.109,28.809,23.926,21.484,25.879,0
1542908905.181,49.316,23.926,19.531,11.230,6.348,0
1542908905.185,28.320,16.602,18.555,19.043,-6.348,0
1542908905.188,21.973,21.973,20.020,16.602,1.465,0
1542908905.192,27.832,22.461,17.090,11.719,32.227,0
1542908905.196,36.621,22.461,18.555,34.668,25.879,0
1542908905.200,43.457,23.926,22.461,44.922,41.992,0
1542908905.204,80.078,25.391,21.484,48.828,17.090,0
1542908905.208,74.707,23.438,20.508,37.598,-35.156,0
1542908905.212,19.531,23.438,20.020,4.395,11.719,0
1542908905.216,33.691,24.902,21.973,23.438,93.750,0
1542908905.220,58.594,27.832,22.949,19.531,78.125,0
1542908905.224,49.805,27.832,23.438,2.441,19.531,0
1542908905.227,66.406,25.879,23.926,19.531,37.598,0
1542908905.231,77.148,28.320,26.855,43.457,26.855,0
1542908905.235,64.941,30.273,31.250,62.012,26.855,0
1542908905.239,52.734,27.832,31.738,59.082,20.020,0
1542908905.243,42.480,24.414,31.250,35.645,35.156,0
1542908905.247,55.176,24.414,34.180,38.086,81.543,0
1542908905.251,64.453,22.461,37.598,44.922,21.484,0
1542908905.255,48.340,22.949,35.156,30.762,-21.484,0
1542908905.259,53.223,23.926,32.227,29.297,0.488,0
1542908905.263,80.566,21.973,31.738,45.898,11.719,0
1542908905.267,73.242,28.320,34.668,62.988,4.395,0
1542908905.270,48.340,27.344,37.109,42.480,-41.016,0
1542908905.274,46.387,21.484,36.621,54.688,-14.648,0
1542908905.278,61.035,21.484,35.645,54.688,13.184,0
1542908905.282,92.773,25.879,31.250,15.137,-4.395,0
1542908905.286,79.590,30.762,29.297,37.109,18.066,0
1542908905.290,42.969,26.855,31.250,31.250,-0.488,0
1542908905.294,45.898,25.391,31.738,-3.418,12.207,0
1542908905.298,45.898,27.344,26.855,17.578,90.332,0
1542908905.302,47.363,28.320,26.367,49.805,78.125,0
1542908905.306,43.945,27.344,28.320,33.691,25.391,0
1542908905.310,54.688,29.785,27.344,24.414,-23.438,0
1542908905.313,55.176,35.156,31.250,49.805,-14.648,0
1542908905.317,33.203,33.691,30.273,39.062,26.367,0
1542908905.321,46.875,33.203,28.809,14.648,4.395,0
1542908905.325,55.664,27.832,31.250,41.504,45.410,0
1542908905.329,53.223,24.414,32.227,38.574,63.477,0
1542908905.333,66.406,25.391,32.227,18.066,26.367,0
1542908905.337,57.129,21.484,33.691,46.387,-2.930,0
1542908905.341,48.340,20.508,32.227,50.293,25.391,0
1542908905.345,63.965,23.926,28.809,35.645,69.824,0
1542908905.349,39.551,25.391,25.879,25.391,28.809,0
1542908905.352,21.484,19.043,27.344,10.742,32.227,0
1542908905.356,35.645,19.043,30.762,-0.488,48.828,0
1542908905.360,39.062,22.949,32.227,10.742,66.406,0
1542908905.364,38.086,22.949,34.668,23.926,67.383,0
1542908905.368,56.152,23.438,32.227,23.438,49.805,0
1542908905.372,68.359,24.414,31.250,29.785,69.336,0
1542908905.376,64.941,23.438,34.180,35.645,2.441,0
1542908905.380,59.570,24.414,30.762,33.691,-20.996,0
1542908905.384,50.293,25.391,30.273,29.785,41.504,0
1542908905.388,35.156,20.508,30.762,28.809,41.504,0
1542908905.392,36.621,19.531,25.391,26.855,58.105,0
1542908905.395,39.062,20.508,23.926,22.461,51.270,0
1542908905.399,17.090,21.973,24.414,15.625,44.434,0
1542908905.403,36.621,29.785,23.438,3.906,28.809,0
1542908905.407,74.707,35.645,22.461,-5.859,-17.090,0
1542908905.411,48.828,33.691,24.414,4.395,41.504,0
1542908905.415,12.207,32.227,25.391,3.906,75.195,0
1542908905.419,44.922,35.156,25.879,7.324,20.508,0
1542908905.423,93.750,36.133,28.320,4.883,24.902,0
1542908905.427,63.965,28.320,27.832,-13.184,75.684,0
1542908905.431,17.578,20.996,31.738,-5.371,84.961,0
1542908905.435,12.695,21.973,33.691,3.418,38.574,0
1542908905.438,28.809,17.578,31.738,8.301,53.711,0
1542908905.442,34.668,13.672,38.086,23.926,110.352,0
1542908905.446,50.781,22.461,41.504,15.625,64.453,0
1542908905.450,51.758,28.809,39.062,-22.461,6.836,0
1542908905.454,23.438,26.367,38.086,-39.551,-28.320,0
1542908905.458,22.461,26.367,39.551,-24.902,37.598,0
1542908905.462,37.598,26.855,39.551,-19.043,62.988,0
1542908905.466,61.523,24.902,39.062,-21.973,5.371,0
1542908905.470,39.062,24.902,40.527,-5.859,56.152,0
1542908905.474,4.395,22.949,39.062,-3.418,43.945,0
1542908905.477,19.531,22.949,35.156,-13.672,27.344,0
1542908905.481,38.086,23.438,36.621,-20.020,47.852,0
1542908905.485,25.391,18.555,41.016,-0.488,28.320,0
1542908905.489,23.926,17.090,44.922,29.297,12.695,0
1542908905.493,51.270,21.484,44.434,0.488,0.000,0
1542908905.497,64.453,26.367,41.992,-25.879,39.062,0
1542908905.501,54.199,29.297,38.086,-10.742,43.457,0
1542908905.505,47.363,29.297,35.156,-11.230,7.812,0
1542908905.509,43.457,29.297,35.156,-0.977,1.953,0
1542908905.513,33.203,27.832,28.320,-4.883,69.824,0
1542908905.517,36.133,30.762,24.414,-8.789,69.336,0
1542908905.520,52.734,29.785,26.855,-3.906,20.020,0
1542908905.524,50.293,21.973,28.809,-5.859,-7.812,0
1542908905.528,41.504,20.508,31.250,-0.977,1.953,0
1542908905.532,46.387,19.531,31.738,12.207,11.230,0
1542908905.536,44.434,23.438,32.715,34.668,17.090,0
1542908905.540,47.363,34.180,35.156,32.227,53.711,0
1542908905.544,60.547,30.762,34.180,0.488,44.922,0
1542908905.548,67.383,22.949,30.762,-2.441,8.789,0
1542908905.552,68.359,18.066,29.785,-9.277,35.645,0
1542908905.556,79.590,20.996,30.273,1.465,30.762,0
1542908905.560,74.707,25.391,32.715,29.297,42.969,0
1542908905.563,55.664,20.508,34.180,1.953,88.379,0
1542908905.567,39.062,18.066,32.227,-13.672,29.297,0
1542908905.571,39.062,19.531,29.785,-13.184,24.902,0
1542908905.575,49.316,20.508,30.273,-11.719,29.785,0
1542908905.579,46.387,25.391,34.668,8.301,31.250,0
1542908905.583,66.406,30.273,36.133,14.160,48.340,0
1542908905.587,62.500,26.855,38.086,-11.719,15.137,0
1542908905.591,32.227,27.344,35.645,-15.625,22.949,0
1542908905.595,43.457,25.879,29.297,-7.812,57.617,0
1542908905.599,52.246,20.996,29.297,-14.160,24.902,0
1542908905.602,40.039,24.414,30.762,-12.207,-4.395,0
1542908905.606,35.645,24.414,28.809,-12.207,23.926,0
1542908905.610,44.922,23.438,30.273,15.137,43.457,0
1542908905.614,56.152,24.414,32.715,33.203,-2.441,0
1542908905.618,49.805,18.066,34.180,-3.418,-8.301,0
1542908905.622,53.711,16.602,30.273,-7.324,4.395,0
1542908905.626,67.871,22.461,21.484,1.953,32.227,0
1542908905.630,70.801,25.391,22.949,5.859,47.852,0
1542908905.634,73.730,26.367,25.879,24.902,32.715,0
1542908905.638,97.656,25.879,22.461,41.016,83.984,0
1542908905.642,96.191,26.367,18.555,52.246,50.781,0
1542908905.645,87.891,27.344,16.113,43.945,47.363,0
1542908905.649,92.773,23.438,12.207,57.129,68.848,0
1542908905.653,112.305,22.461,8.789,65.430,45.410,0
1542908905.657,128.418,23.926,12.207,60.547,30.762,0
1542908905.661,125.977,17.578,18.555,76.660,57.129,0
1542908905.665,135.254,15.137,18.066,95.703,60.547,0
1542908905.669,157.227,20.020,17.090,116.699,23.926,0
1542908905.673,153.809,23.438,20.508,130.371,81.543,0
1542908905.677,143.066,28.809,23.438,117.676,143.555,0
1542908905.681,134.766,22.949,24.902,117.676,100.098,0
1542908905.685,134.277,15.625,22.949,114.258,32.227,0
1542908905.688,143.555,22.461,20.508,84.961,42.480,0
1542908905.692,139.160,24.414,22.461,67.871,32.715,0
1542908905.696,137.207,21.484,23.926,100.098,23.438,0
1542908905.700,142.090,24.902,28.809,113.281,56.152,0
1542908905.704,127.930,28.809,26.855,75.195,76.172,0
1542908905.708,108.398,25.391,24.902,65.430,32.227,0
1542908905.712,104.492,23.438,27.832,63.965,-21.973,0
1542908905.716,111.328,25.391,30.273,86.914,60.547,0
1542908905.720,117.676,22.949,31.738,107.910,101.074,0
1542908905.724,95.215,19.531,32.227,79.590,79.590,0
1542908905.727,92.285,23.926,32.715,56.152,60.547,0
1542908905.731,94.727,24.902,31.250,48.340,49.805,0
1542908905.735,87.402,28.320,35.645,70.801,20.020,0
1542908905.739,86.914,29.297,33.691,87.402,34.180,0
1542908905.743,91.309,15.137,30.273,72.266,21.973,0
1542908905.747,93.262,13.672,32.227,56.152,7.324,0
1542908905.751,91.309,23.438,36.621,68.848,6.348,0
1542908905.755,103.027,28.320,40.039,65.918,-24.902,0
1542908905.759,118.652,30.273,36.133,52.734,-2.930,0
1542908905.763,83.984,25.391,34.668,73.242,-10.254,0
1542908905.767,53.711,20.508,37.109,84.473,8.301,0
1542908905.770,79.102,24.414,37.109,74.219,62.500,0
1542908905.774,85.938,25.879,41.016,45.898,9.766,0
1542908905.778,90.332,26.367,41.016,38.574,-42.969,0
1542908905.782,104.004,26.855,36.133,47.363,32.227,0
1542908905.786,90.332,18.555,39.551,65.430,40.039,0
1542908905.790,78.125,16.113,43.457,75.195,-2.441,0
1542908905.794,81.055,23.438,38.574,53.223,14.648,0
1542908905.798,81.543,25.879,34.180,30.762,33.203,0
1542908905.802,75.684,30.762,36.133,32.715,7.812,0
1542908905.806,75.195,32.715,34.180,50.293,-24.902,0
1542908905.810,78.613,21.973,33.691,66.406,2.930,0
1542908905.813,61.035,16.113,37.109,69.336,2.441,0
1542908905.817,50.781,20.996,34.668,45.898,42.480,0
1542908905.821,62.988,23.926,28.320,25.391,49.316,0
1542908905.825,64.941,22.461,26.855,33.203,26.367,0
1542908905.829,66.895,25.879,29.785,35.645,-32.715,0
1542908905.833,83.984,28.809,28.320,28.809,-56.641,0
1542908905.837,89.844,28.809,28.320,41.504,33.203,0
1542908905.841,69.336,31.250,31.250,44.922,30.762,0
1542908905.845,65.918,28.809,31.250,39.551,-1.465,0
1542908905.849,69.824,25.879,31.738,56.641,26.367,0
1542908905.852,59.570,29.297,26.367,45.410,-28.809,0
1542908905.856,57.617,26.855,26.367,17.578,-30.762,0
1542908905.860,49.316,23.926,28.320,31.250,19.043,0
1542908905.864,60.547,27.344,30.273,58.594,-17.090,0
1542908905.868,74.707,27.832,32.227,36.621,12.207,0
1542908905.872,44.922,23.438,30.273,-4.395,16.113,0
1542908905.876,34.668,24.902,29.297,0.977,97.168,0
1542908905.880,44.434,31.250,27.832,8.301,52.246,0
1542908905.884,73.242,28.320,29.785,4.883,-38.574,0
1542908905.888,71.289,21.973,32.227,11.230,48.828,0
1542908905.892,41.992,22.949,35.156,5.371,49.805,0
1542908905.895,51.758,27.832,31.738,8.301,65.430,0
1542908905.899,47.363,30.762,27.832,12.207,-29.785,0
1542908905.903,47.363,33.203,30.762,11.230,-85.449,0
1542908905.907,48.340,29.297,29.297,9.766,16.113,0
1542908905.911,34.180,20.996,31.250,11.719,11.230,0
1542908905.915,30.762,20.508,28.320,7.812,80.566,0
1542908905.919,43.945,20.020,24.902,22.461,100.586,0
1542908905.923,53.711,18.555,28.320,18.066,71.777,0
1542908905.927,42.480,24.902,24.414,0.977,87.402,0
1542908905.931,31.738,32.227,20.996,18.555,78.125,0
1542908905.935,52.246,30.762,21.973,23.926,44.922,0
1542908905.938,60.059,22.461,22.949,35.156,12.207,0
1542908905.942,37.109,21.973,23.926,40.527,-35.156,0
1542908905.946,31.738,23.926,25.879,8.301,6.836,0
1542908905.950,34.668,22.461,28.320,-2.441,15.137,0
1542908905.954,44.922,23.926,30.273,9.766,21.484,0
1542908905.958,41.504,23.438,29.785,15.137,67.383,0
1542908905.962,38.086,23.926,28.809,34.668,65.430,0
1542908905.966,43.457,23.926,28.320,29.785,40.039,0
1542908905.970,56.641,28.809,25.391,17.090,5.371,0
1542908905.974,58.105,29.785,24.902,21.973,57.617,0
1542908905.977,30.273,26.855,26.855,32.715,41.992,0
1542908905.981,52.246,29.297,26.367,41.016,-2.441,0
1542908905.985,69.336,24.414,25.391,33.203,4.395,0
1542908905.989,51.270,20.996,23.926,11.719,21.484,0
1542908905.993,39.551,24.414,21.484,8.789,9.766,0
1542908905.997,41.992,23.926,23.438,27.344,-18.555,0
1542908906.001,60.547,31.738,22.461,37.109,34.180,0
1542908906.005,78.125,31.738,25.391,42.480,62.988,0
1542908906.009,65.918,23.438,30.273,27.832,4.395,0
1542908906.013,24.902,18.555,28.809,12.207,25.879,0
1542908906.017,34.180,20.996,27.344,20.020,60.059,0
1542908906.020,45.898,23.926,26.367,29.297,64.941,0
1542908906.024,38.086,24.414,28.320,11.719,49.805,0
1542908906.028,52.246,26.855,29.785,12.695,61.523,0
1542908906.032,47.852,22.461,30.273,40.039,40.527,0
1542908906.036,36.621,22.949,29.297,35.645,-6.348,0
1542908906.040,40.039,27.832,28.809,34.180,-21.484,0
1542908906.044,38.574,28.809,29.785,44.434,-26.855,0
1542908906.048,45.898,30.273,30.273,39.062,-9.277,0
1542908906.052,32.227,33.691,29.297,33.691,4.395,0
1542908906.056,33.203,30.762,23.438,43.945,31.738,0
1542908906.060,37.109,23.926,27.344,50.781,11.719,0
1542908906.063,22.949,23.926,26.367,26.367,-0.977,0
1542908906.067,17.578,28.809,22.461,20.508,14.648,0
1542908906.071,13.672,26.855,26.855,21.973,49.805,0
1542908906.075,22.949,20.508,23.438,20.020,20.508,0
1542908906.079,36.621,25.879,21.484,39.551,-4.883,0
1542908906.083,60.547,32.715,23.926,47.852,31.738,0
1542908906.087,56.152,26.855,23.926,28.320,12.695,0
1542908906.091,45.898,20.508,25.879,30.762,34.180,0
1542908906.095,43.945,21.484,30.273,49.316,72.266,0
1542908906.099,28.320,21.973,31.250,44.434,48.340,0
1542908906.102,34.668,24.414,29.785,41.992,22.461,0
1542908906.106,39.551,27.832,27.832,51.758,55.664,0
1542908906.110,30.273,26.367,26.367,34.668,77.637,0
1542908906.114,51.270,26.855,26.855,32.227,-18.066,0
1542908906.118,59.082,25.391,28.809,32.715,-49.805,0
1542908906.122,36.621,24.414,28.320,15.137,14.648,0
1542908906.126,39.062,28.809,25.879,25.879,19.531,0
1542908906.130,55.664,28.320,28.809,57.129,69.336,0
1542908906.134,53.223,25.391,28.809,47.363,77.148,0
1542908906.138,42.969,28.320,25.391,26.855,21.973,0
1542908906.142,49.316,32.227,21.973,12.695,6.836,0
1542908906.145,59.082,33.203,20.508,10.742,4.883,0
1542908906.149,48.340,32.227,25.879,43.457,35.156,0
1542908906.153,41.992,30.273,30.762,54.688,67.383,0
1542908906.157,41.016,27.344,31.738,36.621,16.602,0
1542908906.161,27.344,26.855,28.320,29.297,14.160,0
1542908906.165,33.203,27.832,24.902,23.926,39.551,0
1542908906.169,54.688,28.809,24.902,8.789,26.855,0
1542908906.173,46.875,29.785,26.855,-5.371,-22.949,0
1542908906.177,38.086,25.879,25.391,7.812,-28.809,0
1542908906.181,45.898,25.391,28.320,26.855,55.664,0
1542908906.185,68.359,34.668,32.715,4.395,81.543,0
1542908906.188,62.988,38.574,31.250,-8.789,34.668,0
1542908906.192,37.109,35.645,31.738,1.465,42.480,0
1542908906.196,39.062,30.762,37.598,5.859,33.203,0
1542908906.200,29.785,26.367,38.086,5.371,46.875,0
1542908906.204,43.457,26.367,34.180,16.113,61.523,0
1542908906.208,77.148,26.367,34.180,34.668,8.301,0
1542908906.212,45.410,32.227,36.621,7.812,37.598,0
1542908906.216,14.160,39.062,45.410,-24.414,45.898,0
1542908906.220,16.602,33.691,49.316,-5.371,39.551,0
1542908906.224,-14.648,33.691,54.199,-59.082,-13.672,0
1542908906.227,-52.734,39.062,60.059,-122.070,-59.570,0
1542908906.231,-95.703,28.809,64.941,-131.348,-5.371,0
1542908906.235,-115.723,27.344,80.078,-160.645,45.898,0
1542908906.239,-136.719,36.621,93.750,-213.379,45.410,0
1542908906.243,-185.547,31.738,96.191,-235.840,56.152,0
1542908906.247,-222.168,31.250,101.562,-235.840,14.648,0
1542908906.251,-250.977,38.574,113.281,-252.441,21.484,0
1542908906.255,-241.699,35.645,120.117,-263.184,-2.441,0
1542908906.259,-221.191,35.645,122.070,-267.578,-23.438,0
1542908906.263,-243.652,40.527,117.676,-263.672,41.504,0
1542908906.267,-241.699,42.969,112.305,-277.344,26.855,0
1542908906.270,-224.121,46.875,109.863,-287.598,0.000,0
1542908906.274,-232.910,43.945,104.004,-275.391,11.719,0
1542908906.278,-191.895,41.016,92.285,-245.117,31.738,0
1542908906.282,-172.852,34.668,77.148,-209.473,26.855,0
1542908906.286,-175.293,25.879,62.500,-203.613,61.035,0
1542908906.290,-132.324,31.250,55.176,-201.660,68.359,0
1542908906.294,-105.957,33.691,49.805,-178.223,31.250,0
1542908906.298,-90.332,30.273,41.504,-139.160,61.523,0
1542908906.302,-67.383,26.367,36.621,-89.355,58.594,0
1542908906.306,-51.758,23.438,33.691,-65.430,32.715,0
1542908906.310,-31.738,24.414,30.762,-86.914,8.789,0
1542908906.313,-20.996,21.484,25.879,-71.777,7.812,0
1542908906.317,1.953,19.531,22.461,-52.734,18.555,0
1542908906.321,19.531,19.531,23.926,-41.016,63.965,0
1542908906.325,18.066,12.695,21.973,-22.461,51.758,0
1542908906.329,28.320,8.789,18.555,-20.020,1.465,0
1542908906.333,43.457,9.766,19.531,-15.625,-31.738,0
1542908906.337,42.480,12.695,16.602,-6.348,27.344,0
1542908906.341,34.668,15.137,15.625,22.949,25.391,0
1542908906.345,53.223,17.578,18.555,29.297,-0.488,0
1542908906.349,74.707,20.508,17.090,7.324,30.273,0
1542908906.352,79.102,17.090,14.648,14.160,3.906,0
1542908906.356,65.918,13.672,10.742,26.855,26.367,0
1542908906.360,52.734,11.230,8.789,44.922,46.875,0
1542908906.364,58.594,11.719,6.836,39.551,56.641,0
1542908906.368,73.730,20.508,3.906,14.648,91.797,0
1542908906.372,79.590,24.902,2.441,31.738,19.043,0
1542908906.376,90.332,24.902,2.441,28.809,-5.859,0
1542908906.380,83.984,25.391,2.930,16.113,64.453,0
1542908906.384,73.730,20.020,4.883,33.691,20.996,0
1542908906.388,76.172,15.137,11.230,29.785,8.301,0
1542908906.392,71.289,19.531,13.672,31.738,32.227,0
1542908906.395,86.914,21.484,12.207,49.316,-10.254,0
1542908906.399,92.773,21.973,12.695,48.828,20.996,0
1542908906.403,85.449,21.484,12.695,46.387,27.344,0
1542908906.407,82.031,15.137,10.742,52.734,-23.438,0
1542908906.411,80.078,13.672,14.648,56.641,-13.184,0
1542908906.415,81.543,16.113,16.602,71.777,18.555,0
1542908906.419,82.031,22.949,14.648,76.660,18.555,0
1542908906.423,90.820,29.785,14.648,54.199,15.625,0
1542908906.427,88.379,27.344,15.137,30.762,36.133,0
1542908906.431,85.449,28.809,11.719,37.109,65.918,0
1542908906.435,75.195,30.273,14.648,65.430,59.082,0
1542908906.438,82.031,25.879,19.531,75.195,15.625,0
1542908906.442,106.445,21.484,13.184,58.105,40.039,0
1542908906.446,81.055,22.949,13.184,39.551,33.203,0
1542908906.450,61.523,23.926,17.578,42.969,4.395,0
1542908906.454,73.730,21.973,14.648,47.363,47.363,0
1542908906.458,73.242,22.461,13.672,55.176,21.484,0
1542908906.462,80.078,22.949,14.160,53.711,22.949,0
1542908906.466,86.914,24.902,12.695,37.109,45.898,0
1542908906.470,80.078,20.996,16.113,48.340,20.996,0
1542908906.474,56.152,23.926,16.113,45.410,37.109,0
1542908906.477,50.293,28.320,16.113,28.809,24.414,0
1542908906.481,68.848,27.344,18.066,34.180,35.645,0
1542908906.485,73.242,26.855,14.160,36.133,98.633,0
1542908906.489,70.801,27.344,15.625,46.387,111.328,0
1542908906.493,73.242,32.715,21.973,62.500,39.551,0
1542908906.497,81.055,36.621,21.484,50.293,8.301,0
1542908906.501,65.918,31.738,19.043,50.293,85.449,0
1542908906.505,55.176,26.855,20.020,54.199,104.980,0
1542908906.509,63.965,29.785,20.020,29.785,59.570,0
1542908906.513,65.430,28.320,15.137,4.883,57.617,0
1542908906.517,53.223,25.391,13.184,40.039,28.809,0
1542908906.520,56.641,27.832,18.555,61.035,9.277,0
1542908906.524,64.941,27.344,17.090,15.137,-28.320,0
1542908906.528,54.688,27.832,15.137,6.836,4.883,0
1542908906.532,47.363,32.715,20.020,27.344,29.785,0
1542908906.536,43.457,34.668,15.625,21.973,22.461,0
1542908906.540,37.109,38.574,10.254,10.254,27.832,0
1542908906.544,32.227,40.527,16.113,9.766,31.738,0
1542908906.548,45.898,37.109,19.531,7.812,76.660,0
1542908906.552,45.898,31.738,21.484,5.371,70.312,0
1542908906.556,17.578,29.785,24.902,3.906,20.508,0
1542908906.560,15.625,31.738,21.973,17.090,-22.949,0
1542908906.563,38.086,26.855,21.484,23.438,22.461,0
1542908906.567,47.852,24.414,24.902,17.090,44.434,0
1542908906.571,46.875,31.738,25.879,2.441,52.734,0
1542908906.575,50.781,33.691,25.391,-5.859,19.043,0
1542908906.579,62.988,32.715,26.855,0.488,-18.555,0
1542908906.583,53.711,33.691,22.949,20.508,-10.254,0
1542908906.587,25.391,25.879,20.996,41.992,18.066,0
1542908906.591,32.227,14.648,25.391,46.875,29.297,0
1542908906.595,42.480,14.648,24.902,20.508,-9.277,0
1542908906.599,36.133,21.973,25.879,3.418,12.207,0
1542908906.602,33.691,24.414,28.809,11.230,23.438,0
1542908906.606,37.598,27.832,30.762,11.719,19.531,0
1542908906.610,40.527,33.203,28.320,0.000,45.898,0
1542908906.614,45.410,33.691,27.344,11.719,47.852,0
1542908906.618,38.086,35.156,31.250,35.645,46.875,0
1542908906.622,27.344,30.762,34.180,38.086,37.598,0
1542908906.626,46.387,29.297,34.668,30.273,-46.875,0
1542908906.630,77.148,31.250,34.668,39.062,-40.527,0
1542908906.634,63.477,33.691,34.180,41.504,36.133,0
1542908906.638,38.574,37.598,31.738,34.668,9.766,0
1542908906.642,24.902,32.227,32.227,35.645,43.945,0
1542908906.645,31.738,29.297,26.367,22.461,60.059,0
1542908906.649,59.082,33.691,23.926,17.090,32.227,0
1542908906.653,55.664,34.668,32.715,31.250,73.730,0
1542908906.657,33.691,27.344,32.715,35.156,99.121,0
1542908906.661,33.691,26.367,30.273,33.203,62.012,0
1542908906.665,28.809,22.461,32.227,20.508,2.441,0
1542908906.669,45.898,19.531,31.250,35.645,-20.020,0
1542908906.673,61.523,24.414,31.738,55.176,-7.324,0
1542908906.677,41.504,25.879,37.598,58.105,-48.828,0
1542908906.681,41.016,25.391,39.062,55.176,14.160,0
1542908906.685,62.500,22.461,36.133,24.414,8.301,0
1542908906.688,59.082,22.949,36.621,15.625,-60.547,0
1542908906.692,57.617,22.461,36.133,36.621,24.902,0
1542908906.696,56.641,21.484,32.715,51.758,57.617,0
1542908906.700,42.480,14.648,34.180,43.945,47.363,0
1542908906.704,43.457,12.695,34.180,43.457,-0.977,0
1542908906.708,39.062,18.555,32.227,27.344,50.781,0
1542908906.712,41.504,18.066,31.738,15.625,65.918,0
1542908906.716,48.828,20.020,37.598,35.156,13.184,0
1542908906.720,49.316,24.414,39.062,49.316,-4.883,0
1542908906.724,49.805,24.414,35.156,49.805,26.855,0
1542908906.727,49.805,20.508,32.715,44.434,21.973,0
1542908906.731,45.410,20.996,34.180,28.320,6.348,0
1542908906.735,43.945,25.879,35.156,11.719,76.172,0
1542908906.739,47.852,28.320,33.203,16.602,61.523,0
1542908906.743,66.406,24.902,33.691,26.367,42.969,0
1542908906.747,74.219,27.832,34.180,49.316,39.062,0
1542908906.751,56.641,32.715,32.227,33.691,41.504,0
1542908906.755,51.758,23.438,30.762,29.785,6.836,0
1542908906.759,42.480,18.555,34.668,65.430,42.969,0
1542908906.763,33.691,24.902,34.180,39.062,109.863,0
1542908906.767,36.133,29.297,30.762,20.020,71.289,0
1542908906.770,41.016,30.762,28.809,15.625,35.156,0
1542908906.774,42.969,29.785,26.367,14.160,35.156,0
1542908906.778,46.387,27.832,28.320,28.320,31.250,0
1542908906.782,48.340,27.832,29.785,21.484,21.973,0
1542908906.786,50.781,25.391,26.367,18.555,45.410,0
1542908906.790,43.945,25.391,26.367,24.902,77.637,0
1542908906.794,30.273,30.762,28.320,19.531,90.820,0
1542908906.798,20.020,31.250,23.926,5.859,57.129,0
1542908906.802,35.645,24.414,23.926,15.625,67.871,0
1542908906.806,54.199,18.066,26.367,40.527,52.734,0
1542908906.810,43.945,27.832,21.973,39.062,41.016,0
1542908906.813,41.016,36.621,18.066,16.602,29.297,0
1542908906.817,18.066,35.645,15.137,-23.438,35.156,0
1542908906.821,0.977,33.691,11.230,-38.086,35.156,0
1542908906.825,25.879,21.973,14.160,-0.977,19.531,0
1542908906.829,2.441,21.484,21.484,-13.184,15.625,0
1542908906.833,-28.809,36.621,15.625,-30.762,-16.602,0
1542908906.837,-15.137,38.086,11.719,-5.371,-25.879,0
1542908906.841,10.742,34.668,21.973,-10.742,15.625,0
1542908906.845,5.859,30.762,22.949,-19.043,68.359,0
1542908906.849,-2.930,27.832,21.973,-9.766,32.227,0
1542908906.852,11.230,29.297,24.414,-15.625,-24.902,0
1542908906.856,10.254,33.691,20.996,-19.043,6.836,0
1542908906.860,-2.441,35.645,21.973,-10.742,-17.090,0
1542908906.864,14.648,35.156,24.414,-11.230,-44.434,0
1542908906.868,31.250,37.598,23.926,-7.324,0.977,0
1542908906.872,14.160,33.691,20.508,3.418,35.156,0
1542908906.876,14.160,25.391,19.531,11.719,15.137,0
1542908906.880,45.898,20.020,28.809,14.160,-12.695,0
1542908906.884,33.203,20.996,32.715,-7.812,41.016,0
1542908906.888,20.020,24.414,25.391,-9.766,4.883,0
1542908906.892,20.020,28.320,26.855,4.883,-15.625,0
1542908906.895,14.160,27.344,30.273,-13.184,23.438,0
1542908906.899,18.066,27.344,26.367,-9.277,74.219,0
1542908906.903,28.809,28.320,31.250,44.922,90.332,0
1542908906.907,27.832,30.273,32.227,25.391,58.594,0
1542908906.911,19.043,29.297,26.855,5.371,48.340,0
1542908906.915,33.691,22.949,28.809,33.203,17.090,0
1542908906.919,38.086,22.461,25.879,20.996,-10.254,0
1542908906.923,30.273,21.973,25.879,25.879,-2.930,0
1542908906.927,32.227,22.461,31.738,51.270,38.086,0
1542908906.931,33.691,23.926,35.645,51.270,57.129,0
1542908906.935,38.574,27.832,31.250,47.363,75.195,0
1542908906.938,38.086,28.809,30.762,55.176,75.684,0
1542908906.942,55.176,29.785,33.203,56.152,68.359,0
1542908906.946,54.199,28.809,28.809,42.969,62.012,0
1542908906.950,39.062,21.973,30.762,44.434,43.457,0
1542908906.954,31.738,19.531,35.645,36.133,28.320,0
1542908906.958,34.668,20.508,33.203,18.555,51.270,0
1542908906.962,43.457,19.043,30.762,46.387,86.426,0
1542908906.966,29.785,21.973,32.715,50.781,75.684,0
1542908906.970,30.273,26.367,30.273,18.555,31.738,0
1542908906.974,46.387,22.949,25.391,24.902,35.645,0
1542908906.977,39.062,18.555,24.414,40.527,30.762,0
1542908906.981,36.621,20.508,30.273,56.641,-17.090,0
1542908906.985,41.016,23.926,33.691,69.824,-23.926,0
1542908906.989,32.227,26.855,33.203,55.664,54.199,0
1542908906.993,34.668,27.832,31.250,23.438,27.344,0
1542908906.997,30.273,22.461,29.785,0.488,-58.105,0
1542908907.001,13.672,22.949,31.250,8.789,-34.668,0
1542908907.005,26.855,29.297,28.320,7.812,8.301,0
1542908907.009,41.016,31.738,26.367,2.930,52.246,0
1542908907.013,21.484,29.785,27.344,31.250,74.707,0
1542908907.017,12.695,23.438,28.320,48.828,2.930,0
1542908907.020,9.766,23.926,25.391,23.438,-6.348,0
1542908907.024,1.465,28.320,23.926,25.391,9.277,0
1542908907.028,28.809,31.738,26.855,26.855,38.574,0
1542908907.032,40.527,32.227,26.855,2.441,59.082,0
1542908907.036,33.203,26.367,27.344,21.484,5.371,0
1542908907.040,38.574,24.902,29.297,39.551,-7.812,0
1542908907.044,27.832,25.391,27.832,49.805,54.199,0
1542908907.048,33.691,24.414,27.832,43.945,61.035,0
1542908907.052,49.316,20.020,30.273,15.625,55.176,0
1542908907.056,41.016,19.531,28.320,19.531,22.461,0
1542908907.060,39.062,27.344,26.855,30.762,-43.945,0
1542908907.063,47.852,30.762,28.320,52.246,-7.812,0
1542908907.067,50.293,31.738,26.855,53.711,12.207,0
1542908907.071,47.852,30.762,25.879,36.621,-8.789,0
1542908907.075,45.410,27.832,27.344,46.875,58.105,0
1542908907.079,40.527,30.273,26.855,46.387,66.895,0
1542908907.083,58.594,31.250,25.879,27.344,46.387,0
1542908907.087,76.660,32.227,25.391,32.227,39.551,0
1542908907.091,65.430,33.691,24.414,39.062,53.223,0
1542908907.095,41.992,33.203,27.832,44.434,57.129,0
1542908907.099,34.668,34.668,30.762,55.176,54.199,0
1542908907.102,34.668,32.227,30.273,51.270,93.750,0
1542908907.106,47.852,26.855,27.832,43.457,46.387,0
1542908907.110,45.410,22.461,20.996,35.156,13.672,0
1542908907.114,34.180,22.949,25.391,46.387,67.383,0
1542908907.118,49.805,31.738,33.691,61.523,35.156,0
1542908907.122,60.059,35.156,34.180,74.219,12.207,0
1542908907.126,49.316,35.645,31.250,77.637,29.297,0
1542908907.130,47.852,33.203,28.809,33.691,-25.391,0
1542908907.134,45.898,26.855,29.785,21.484,-31.250,0
1542908907.138,53.223,26.367,33.691,65.918,14.160,0
1542908907.142,46.875,32.227,32.715,67.383,1.465,0
1542908907.145,44.922,32.715,24.902,28.320,25.391,0
1542908907.149,80.566,30.273,24.414,51.758,35.156,0
1542908907.153,88.379,30.762,25.391,59.082,24.414,0
1542908907.157,86.426,30.762,28.809,78.125,49.316,0
1542908907.161,82.031,32.227,33.203,98.145,20.508,0
1542908907.165,49.805,33.691,29.297,74.707,40.527,0
1542908907.169,26.367,31.250,28.320,45.410,49.805,0
1542908907.173,38.574,28.809,25.879,37.109,9.277,0
1542908907.177,54.688,31.738,24.902,51.270,-6.836,0
1542908907.181,65.430,33.691,27.832,60.059,-3.906,0
1542908907.185,73.730,28.320,30.273,49.805,14.648,0
1542908907.188,50.293,26.367,31.250,49.316,49.316,0
1542908907.192,61.523,27.344,27.832,64.941,20.508,0
1542908907.196,79.102,31.738,27.832,67.871,20.996,0
1542908907.200,65.918,34.668,27.832,58.594,26.855,0
1542908907.204,79.102,35.645,25.391,62.988,56.152,0
1542908907.208,68.848,31.250,24.902,60.059,85.938,0
1542908907.212,48.828,25.391,26.367,58.594,28.809,0
1542908907.216,61.035,26.367,27.344,60.059,-26.855,0
1542908907.220,67.383,25.391,27.344,25.879,-49.805,0
1542908907.224,50.293,22.461,28.320,24.414,-12.207,0
1542908907.227,47.852,20.508,27.344,47.363,14.648,0
1542908907.231,61.523,21.484,25.879,49.316,-29.785,0
1542908907.235,71.289,24.902,27.344,48.340,-27.832,0
1542908907.239,71.289,31.738,26.367,55.176,1.953,0
1542908907.243,58.594,26.367,24.902,41.504,-13.184,0
1542908907.247,63.965,22.949,32.227,57.129,40.527,0
1542908907.251,61.035,26.367,37.109,73.242,91.797,0
1542908907.255,54.688,22.461,34.668,70.801,39.551,0
1542908907.259,53.711,26.367,31.250,68.359,78.125,0
1542908907.263,59.570,33.691,24.414,53.711,82.520,0
1542908907.267,75.195,32.715,24.414,59.570,-27.344,0
1542908907.270,76.660,20.996,27.832,76.172,23.438,0
1542908907.274,83.984,19.531,24.902,76.172,19.043,0
1542908907.278,74.219,28.809,25.391,70.312,20.996,0
1542908907.282,61.035,32.715,28.320,51.270,10.742,0
1542908907.286,45.410,30.762,29.785,42.480,0.977,0
1542908907.290,42.969,30.273,25.391,53.223,31.738,0
1542908907.294,40.039,33.203,24.902,36.133,37.598,0
1542908907.298,24.902,30.273,23.926,47.363,58.105,0
1542908907.302,66.895,31.738,21.484,73.730,51.758,0
1542908907.306,69.824,35.156,22.949,60.059,81.055,0
1542908907.310,54.688,31.738,27.832,66.895,68.359,0
1542908907.313,66.406,28.320,29.297,60.547,91.797,0
1542908907.317,68.848,26.367,32.227,45.898,69.824,0
1542908907.321,69.336,25.879,32.227,55.664,60.059,0
1542908907.325,62.012,24.902,30.273,65.918,74.707,0
1542908907.329,69.336,24.902,30.762,69.824,41.016,0
1542908907.333,52.734,21.973,30.762,84.961,51.270,0
1542908907.337,45.898,21.973,26.855,92.773,33.203,0
1542908907.341,76.172,25.879,20.508,62.988,19.043,0
1542908907.345,35.156,27.832,21.484,62.012,11.230,0
1542908907.349,0.488,24.414,27.832,82.520,37.598,0
1542908907.352,64.941,20.508,29.297,70.801,91.797,0
1542908907.356,87.402,23.926,28.320,57.617,106.445,0
1542908907.360,69.336,26.855,26.367,88.867,77.148,0
1542908907.364,58.105,28.320,25.391,115.723,49.805,0
1542908907.368,62.012,32.227,27.344,96.191,54.688,0
1542908907.372,63.965,20.996,34.668,79.590,47.363,0
1542908907.376,27.832,16.113,31.250,52.734,-10.742,0
1542908907.380,9.766,19.531,20.020,31.250,11.719,0
1542908907.384,52.246,14.160,23.926,69.336,60.059,0
1542908907.388,67.871,14.648,31.738,96.680,43.945,0
1542908907.392,66.895,17.090,31.738,99.121,30.762,0
1542908907.395,78.125,23.438,27.344,97.168,-27.344,0
1542908907.399,43.945,30.762,24.414,53.711,29.785,0
1542908907.403,5.859,24.414,24.902,42.480,64.453,0
1542908907.407,48.340,20.996,23.926,60.547,2.441,0
1542908907.411,78.613,25.391,26.855,83.496,10.742,0
1542908907.415,44.434,20.508,32.227,113.770,-20.508,0
1542908907.419,24.902,16.602,29.297,85.938,-37.598,0
1542908907.423,39.062,23.926,23.926,47.852,1.465,0
1542908907.427,50.293,28.809,23.438,51.270,26.367,0
1542908907.431,57.617,35.645,27.344,63.477,1.953,0
1542908907.435,41.992,35.645,29.297,60.547,6.836,0
1542908907.438,20.996,23.926,30.273,53.711,22.461,0
1542908907.442,39.062,21.973,31.250,59.082,-14.160,0
1542908907.446,49.805,26.367,30.762,61.523,45.898,0
1542908907.450,33.203,22.949,30.762,60.059,72.754,0
1542908907.454,28.320,21.973,34.180,53.711,29.785,0
1542908907.458,39.062,29.785,33.203,46.875,52.246,0
1542908907.462,34.180,26.367,31.250,51.270,5.859,0
1542908907.466,28.809,20.996,34.180,74.219,-37.109,0
1542908907.470,29.785,26.367,31.738,75.684,2.930,0
1542908907.474,34.668,28.320,28.320,55.664,7.812,0
1542908907.477,49.316,27.832,28.809,65.430,-29.297,0
1542908907.481,41.016,27.832,28.809,62.988,-21.484,0
1542908907.485,48.828,28.320,27.832,38.574,29.297,0
1542908907.489,57.129,34.180,25.879,37.109,62.500,0
1542908907.493,33.691,35.156,24.902,44.922,26.855,0
1542908907.497,36.133,34.180,25.391,58.594,-24.414,0
1542908907.501,56.641,35.156,26.367,41.992,-15.625,0
1542908907.505,44.922,33.203,27.832,44.434,-22.461,0
1542908907.509,38.574,32.715,25.879,43.945,45.898,0
1542908907.513,55.176,31.738,25.391,8.301,60.059,0
1542908907.517,50.781,28.809,31.250,12.695,40.039,0
1542908907.520,37.598,24.902,35.645,21.973,94.238,0
1542908907.524,41.992,26.855,30.762,16.602,69.336,0
1542908907.528,61.523,31.738,28.320,25.391,38.574,0
1542908907.532,63.477,34.180,29.297,48.828,33.691,0
1542908907.536,46.875,32.227,29.785,45.898,15.137,0
1542908907.540,41.992,24.414,37.109,24.414,33.691,0
1542908907.544,34.180,22.461,38.574,11.719,98.145,0
1542908907.548,45.410,26.855,33.203,5.371,86.914,0
1542908907.552,47.852,32.227,31.250,6.348,57.617,0
1542908907.556,37.598,33.203,29.297,13.672,61.035,0
1542908907.560,59.570,30.273,28.320,20.996,77.148,0
1542908907.563,52.246,31.250,30.762,22.461,57.129,0
1542908907.567,34.180,26.855,29.297,21.973,53.223,0
1542908907.571,38.086,22.461,25.879,16.113,29.297,0
1542908907.575,51.270,27.832,22.949,23.438,26.367,0
1542908907.579,84.473,32.227,20.996,67.871,10.254,0
1542908907.583,96.680,32.715,20.996,59.082,-52.246,0
1542908907.587,83.008,30.273,15.625,34.668,-15.137,0
1542908907.591,84.961,26.855,15.625,51.270,64.941,0
1542908907.595,99.121,21.973,21.973,59.570,50.781,0
1542908907.599,107.422,15.625,24.414,88.379,-30.762,0
1542908907.602,111.816,9.766,21.484,98.145,20.508,0
1542908907.606,119.629,11.230,16.602,86.426,62.500,0
1542908907.610,113.770,10.254,21.484,96.191,42.480,0
1542908907.614,98.633,8.789,31.250,106.934,23.926,0
1542908907.618,116.699,12.695,33.203,105.957,3.906,0
1542908907.622,152.832,7.324,31.250,123.047,65.430,0
1542908907.626,139.160,2.930,35.645,136.230,77.637,0
1542908907.630,107.910,4.395,32.715,125.488,20.996,0
1542908907.634,113.770,7.324,28.809,113.770,4.395,0
1542908907.638,125.488,5.371,31.738,122.070,-2.441,0
1542908907.642,119.141,3.906,33.691,137.695,13.184,0
1542908907.645,118.164,9.277,35.156,125.488,-14.648,0
1542908907.649,106.934,7.324,32.227,127.930,34.668,0
1542908907.653,101.562,8.301,28.809,128.418,54.199,0
1542908907.657,104.492,10.254,27.832,102.051,31.738,0
1542908907.661,120.117,9.766,29.297,104.492,37.598,0
1542908907.665,104.004,12.695,30.273,97.168,23.438,0
1542908907.669,84.473,13.672,32.227,78.125,26.855,0
1542908907.673,87.402,12.207,32.715,83.984,26.367,0
1542908907.677,79.102,10.254,30.273,75.195,39.551,0
1542908907.681,76.660,6.348,31.250,65.430,17.090,0
1542908907.685,80.078,10.254,35.156,55.176,34.668,0
1542908907.688,97.168,17.090,37.598,42.969,29.785,0
1542908907.692,88.867,17.578,35.156,59.082,36.133,0
1542908907.696,84.961,17.578,32.227,62.500,108.398,0
1542908907.700,97.168,18.066,31.250,49.316,40.527,0
1542908907.704,79.590,12.207,30.273,47.852,-7.812,0
1542908907.708,68.359,12.695,32.715,31.250,22.949,0
1542908907.712,70.801,20.996,33.691,27.344,34.180,0
1542908907.716,76.172,21.973,32.715,38.086,56.152,0
1542908907.720,87.891,22.949,34.180,51.758,68.848,0
1542908907.724,74.707,22.461,39.551,57.617,80.566,0
1542908907.727,63.965,23.926,38.574,67.383,39.551,0
1542908907.731,64.941,28.320,37.109,89.844,-37.598,0
1542908907.735,69.336,31.250,40.039,66.406,-8.301,0
1542908907.739,85.938,29.785,41.504,36.621,3.906,0
1542908907.743,74.707,28.320,41.504,42.969,60.059,0
1542908907.747,37.598,29.785,40.039,57.129,84.473,0
1542908907.751,34.180,30.762,37.109,51.758,26.367,0
1542908907.755,44.434,33.203,36.133,36.133,27.832,0
1542908907.759,52.734,32.227,31.738,32.715,71.777,0
1542908907.763,63.477,33.203,32.227,43.945,109.375,0
1542908907.767,64.941,32.715,36.621,46.875,88.379,0
1542908907.770,56.641,26.367,36.621,54.199,69.336,0
1542908907.774,38.574,25.879,34.668,56.152,41.016,0
1542908907.778,35.645,30.762,33.203,34.180,38.574,0
1542908907.782,33.203,31.738,34.180,21.484,49.805,0
1542908907.786,37.109,31.250,34.180,45.410,-9.766,0
1542908907.790,38.574,28.809,33.691,31.250,-16.113,0
1542908907.794,27.344,24.902,34.180,7.812,21.973,0
1542908907.798,23.926,22.949,36.133,28.320,26.855,0
1542908907.802,20.020,23.926,38.086,24.414,53.223,0
1542908907.806,22.949,21.973,39.062,16.113,46.875,0
1542908907.810,43.457,22.461,39.551,26.855,22.461,0
1542908907.813,50.781,26.367,38.574,29.785,37.598,0
1542908907.817,50.781,24.902,41.016,51.270,33.203,0
1542908907.821,41.504,24.902,40.527,61.035,-4.883,0
1542908907.825,18.066,26.367,35.156,27.832,-21.973,0
1542908907.829,20.508,24.902,32.715,11.719,-7.324,0
1542908907.833,31.250,23.926,37.109,-1.465,7.812,0
1542908907.837,23.926,21.973,38.574,2.441,13.184,0
1542908907.841,28.809,23.926,36.133,12.695,58.105,0
1542908907.845,21.484,24.414,36.133,17.090,74.219,0
1542908907.849,10.254,24.902,35.645,15.137,50.781,0
1542908907.852,21.484,28.809,36.133,22.461,21.484,0
1542908907.856,33.203,31.738,35.645,33.691,10.742,0
1542908907.860,42.480,30.273,33.203,31.250,22.461,0
1542908907.864,36.621,22.461,30.273,17.578,23.926,0
1542908907.868,26.367,22.949,30.273,25.879,22.949,0
1542908907.872,29.297,29.297,32.227,21.484,26.855,0
1542908907.876,23.438,29.785,31.250,20.996,36.621,0
1542908907.880,18.555,25.391,34.180,22.461,41.016,0
1542908907.884,20.020,22.461,35.156,14.160,20.508,0
1542908907.888,21.973,27.344,34.180,28.320,59.570,0
1542908907.892,20.508,28.809,34.180,26.367,80.078,0
1542908907.895,39.062,27.344,32.715,15.137,29.785,0
1542908907.899,42.480,24.902,31.250,18.555,13.184,0
1542908907.903,7.812,21.973,28.809,21.484,-8.789,0
1542908907.907,12.695,23.926,30.273,22.949,-4.883,0
1542908907.911,26.367,25.391,29.785,44.922,28.320,0
1542908907.915,23.438,24.902,28.809,49.316,9.277,0
1542908907.919,30.273,32.227,28.809,30.762,54.688,0
1542908907.923,40.039,37.598,32.227,22.949,26.367,0
1542908907.927,31.738,34.668,35.156,28.320,10.742,0
1542908907.931,41.992,32.715,33.203,40.527,104.492,0
1542908907.935,52.246,24.902,30.273,29.785,64.453,0
1542908907.938,34.180,23.926,28.809,27.832,-48.340,0
1542908907.942,17.578,28.809,30.762,62.988,-79.102,0
1542908907.946,28.320,26.855,35.645,67.383,-60.059,0
1542908907.950,35.156,28.320,31.738,36.133,-69.336,0
1542908907.954,24.902,25.391,24.902,23.926,-65.918,0
1542908907.958,20.508,24.902,25.879,14.648,-3.906,0
1542908907.962,46.875,29.785,26.367,20.508,2.441,0
1542908907.966,57.129,31.250,25.879,43.457,-11.719,0
1542908907.970,20.508,32.227,31.250,39.062,22.949,0
1542908907.974,11.719,34.668,27.832,28.809,69.336,0
1542908907.977,16.113,32.715,28.809,29.785,98.145,0
1542908907.981,29.297,24.902,35.645,38.574,100.098,0
1542908907.985,43.945,24.902,31.738,50.781,80.078,0
1542908907.989,26.367,39.551,30.273,43.945,71.777,0
1542908907.993,-13.184,38.574,34.180,8.789,83.496,0
1542908907.997,-21.973,36.133,37.109,-28.809,63.965,0
1542908908.001,-31.738,41.016,41.016,-43.945,66.895,0
1542908908.005,-81.055,37.598,39.062,-80.078,78.125,0
1542908908.009,-108.398,41.016,42.969,-96.680,65.918,0
1542908908.013,-87.891,49.805,57.617,-106.934,68.848,0
1542908908.017,-114.258,56.152,67.383,-144.531,83.008,0
1542908908.020,-198.242,54.688,71.777,-181.152,81.055,0
1542908908.024,-207.031,54.688,84.473,-223.145,36.621,0
1542908908.028,-212.402,52.734,95.703,-251.953,34.180,0
1542908908.032,-271.484,45.410,101.562,-278.809,52.734,0
1542908908.036,-296.387,53.711,101.074,-309.082,45.410,0
1542908908.040,-294.922,65.918,100.098,-302.246,31.738,0
1542908908.044,-282.715,69.824,102.051,-271.973,-1.465,0
1542908908.048,-265.625,64.941,95.215,-267.090,-1.465,0
1542908908.052,-271.973,68.848,87.402,-255.371,-33.203,0
1542908908.056,-240.723,66.895,87.402,-230.957,-73.730,0
1542908908.060,-190.430,58.105,83.008,-210.938,0.488,0
1542908908.063,-167.969,48.340,74.219,-194.824,97.656,0
1542908908.067,-150.391,36.133,62.500,-180.176,-12.207,0
1542908908.071,-151.855,31.738,56.641,-133.789,-26.855,0
1542908908.075,-133.301,27.344,49.805,-105.469,59.082,0
1542908908.079,-101.562,25.879,38.086,-112.793,44.922,0
1542908908.083,-72.754,25.391,29.785,-98.145,62.012,0
1542908908.087,-52.734,22.461,26.367,-62.988,58.105,0
1542908908.091,-41.016,20.020,24.414,-26.855,49.316,0
1542908908.095,-0.488,20.020,21.973,-5.371,30.762,0
1542908908.099,16.113,20.996,20.996,0.977,15.625,0
1542908908.102,10.742,21.484,18.066,20.020,-11.230,0
1542908908.106,32.227,20.996,15.625,31.250,27.344,0
1542908908.110,47.852,16.602,17.578,43.945,60.059,0
1542908908.114,49.316,14.160,15.137,53.711,52.246,0
1542908908.118,55.176,20.020,9.277,46.875,29.297,0
1542908908.122,64.453,19.531,9.277,62.012,18.555,0
1542908908.126,67.871,15.625,6.836,72.754,6.836,0
1542908908.130,65.430,14.648,5.859,63.477,0.000,0
1542908908.134,74.219,12.695,6.348,77.148,78.125,0
1542908908.138,86.426,8.789,6.836,90.332,44.922,0
1542908908.142,87.402,8.789,7.324,90.332,-2.441,0
1542908908.145,88.379,12.695,5.371,86.914,-20.996,0
1542908908.149,111.816,12.695,4.395,81.055,-0.977,0
1542908908.153,122.070,12.207,8.301,93.750,41.504,0
1542908908.157,106.445,15.625,13.672,102.051,40.527,0
1542908908.161,91.797,20.020,12.695,79.590,25.879,0
1542908908.165,85.449,20.020,7.812,77.148,18.066,0
1542908908.169,93.262,18.555,7.812,81.055,46.387,0
1542908908.173,97.168,16.113,13.184,91.797,-1.465,0
1542908908.177,106.445,13.672,12.695,98.633,-24.902,0
1542908908.181,107.910,15.137,9.277,79.590,-1.465,0
1542908908.185,108.398,15.625,11.719,90.820,74.219,0
1542908908.188,118.164,13.672,15.625,96.191,89.844,0
1542908908.192,119.629,14.648,12.207,84.961,32.227,0
1542908908.196,110.840,17.090,14.160,108.398,51.758,0
1542908908.200,97.168,21.973,18.555,108.887,37.109,0
1542908908.204,106.934,26.855,15.625,99.121,34.180,0
1542908908.208,112.305,24.902,13.672,107.422,16.113,0
1542908908.212,96.680,24.414,15.625,83.496,-33.203,0
1542908908.216,104.980,23.438,13.184,68.848,-26.367,0
1542908908.220,117.188,18.555,10.254,77.637,-14.648,0
1542908908.224,106.445,20.508,12.695,78.125,20.996,0
1542908908.227,104.492,27.832,9.766,80.078,12.207,0
1542908908.231,105.957,28.320,11.230,83.496,-41.504,0
1542908908.235,90.820,23.438,12.207,83.008,0.488,0
1542908908.239,90.820,24.902,11.719,80.078,2.441,0
1542908908.243,92.773,28.320,20.020,86.914,-5.859,0
1542908908.247,102.051,24.414,22.461,91.797,3.418,0
1542908908.251,95.703,15.625,22.949,69.824,24.902,0
1542908908.255,76.172,18.555,20.508,49.805,52.246,0
1542908908.259,75.684,23.926,19.043,51.758,67.871,0
1542908908.263,60.547,20.996,22.461,59.082,62.012,0
1542908908.267,75.684,22.949,23.926,62.500,79.102,0
1542908908.270,94.727,27.832,22.949,62.012,101.074,0
1542908908.274,88.867,27.832,22.461,59.082,19.531,0
1542908908.278,67.383,26.855,26.855,62.500,-17.578,0
1542908908.282,54.199,23.438,25.879,62.988,45.410,0
1542908908.286,46.875,22.461,24.902,36.621,106.934,0
1542908908.290,43.457,21.973,27.344,38.574,83.984,0
1542908908.294,64.453,14.648,24.414,63.477,24.902,0
1542908908.298,72.266,13.184,23.926,66.406,39.062,0
1542908908.302,70.312,19.531,24.414,56.152,69.336,0
1542908908.306,62.500,24.414,20.996,47.363,55.176,0
1542908908.310,59.082,20.508,21.484,48.828,46.387,0
1542908908.313,75.195,16.602,22.949,41.016,31.250,0
1542908908.317,62.988,14.160,26.855,43.457,59.570,0
1542908908.321,45.410,13.184,26.367,46.387,58.105,0
1542908908.325,49.316,14.648,21.973,28.809,23.438,0
1542908908.329,61.035,19.043,22.949,19.043,83.496,0
1542908908.333,62.988,26.855,20.996,37.598,117.676,0
1542908908.337,67.383,29.785,17.090,40.039,71.777,0
1542908908.341,65.430,27.344,19.043,35.156,30.762,0
1542908908.345,62.988,26.367,26.367,38.574,17.578,0
1542908908.349,65.430,26.855,32.227,50.781,39.062,0
1542908908.352,50.293,30.762,34.180,61.035,35.645,0
1542908908.356,56.641,38.574,28.320,49.805,77.148,0
1542908908.360,57.129,29.297,25.879,50.293,76.660,0
1542908908.364,44.922,17.578,29.785,48.828,48.340,0
1542908908.368,42.969,22.461,25.391,35.645,38.574,0
1542908908.372,40.527,21.973,24.414,31.738,61.523,0
1542908908.376,46.875,21.973,29.297,40.527,105.469,0
1542908908.380,40.527,23.926,29.785,46.387,46.387,0
1542908908.384,38.574,20.508,29.785,36.621,-14.648,0
1542908908.388,46.387,23.438,28.320,16.602,49.316,0
1542908908.392,43.457,27.344,27.832,17.578,76.172,0
1542908908.395,47.363,23.926,25.391,25.391,8.301,0
1542908908.399,50.293,20.996,22.949,36.133,20.020,0
1542908908.403,37.598,19.531,26.855,54.688,13.672,0
1542908908.407,25.879,18.066,29.297,44.434,-23.926,0
1542908908.411,21.484,20.508,26.855,15.137,-28.809,0
1542908908.415,20.020,20.020,26.855,18.555,11.719,0
1542908908.419,27.832,18.555,30.762,30.762,24.902,0
1542908908.423,32.227,23.926,28.320,12.695,29.785,0
1542908908.427,27.832,23.926,21.484,26.855,28.809,0
1542908908.431,31.250,20.508,21.973,25.391,-17.578,0
1542908908.435,31.738,23.926,23.438,13.184,2.441,0
1542908908.438,36.621,22.949,23.438,26.855,20.020,0
1542908908.442,38.086,21.973,24.902,29.297,32.227,0
1542908908.446,40.039,27.832,25.879,27.832,64.941,0
1542908908.450,47.363,30.273,27.832,20.508,41.992,0
1542908908.454,29.297,27.344,31.250,39.062,76.660,0
1542908908.458,19.531,28.320,28.809,36.621,85.938,0
1542908908.462,23.438,31.738,27.832,7.812,44.434,0
1542908908.466,25.391,31.738,26.367,4.883,51.758,0
1542908908.470,31.738,29.297,24.902,17.578,45.410,0
1542908908.474,54.199,28.809,23.926,25.879,37.598,0
1542908908.477,65.918,36.621,24.902,20.508,79.590,0
1542908908.481,31.738,40.527,27.344,0.977,81.543,0
1542908908.485,8.301,36.621,25.879,15.137,77.148,0
1542908908.489,13.184,33.691,30.273,38.574,24.902,0
1542908908.493,28.320,31.250,35.156,20.508,-41.504,0
1542908908.497,35.156,26.367,34.180,19.531,2.930,0
1542908908.501,15.137,21.484,31.738,27.344,27.344,0
1542908908.505,14.160,23.438,30.762,21.973,9.277,0
1542908908.509,36.133,27.344,31.738,28.809,39.062,0
1542908908.513,43.945,30.273,32.227,34.180,25.879,0
1542908908.517,45.410,31.250,31.738,28.320,-27.344,0
1542908908.520,44.434,31.250,31.738,19.043,-3.418,0
1542908908.524,40.039,28.809,35.156,23.438,27.832,0
1542908908.528,38.086,27.344,35.645,35.156,41.016,0
1542908908.532,33.203,29.297,34.668,37.598,9.766,0
1542908908.536,41.016,33.203,34.668,21.484,-33.691,0
1542908908.540,41.016,31.250,34.180,27.344,7.812,0
1542908908.544,42.969,28.320,32.715,22.949,72.266,0
1542908908.548,49.805,26.367,29.785,18.066,35.645,0
1542908908.552,45.898,22.949,28.809,23.438,15.137,0
1542908908.556,41.504,27.344,31.250,22.949,47.852,0
1542908908.560,50.293,33.691,31.738,35.156,29.297,0
1542908908.563,61.035,34.180,32.227,38.086,55.176,0
1542908908.567,62.500,33.203,29.785,37.109,54.688,0
1542908908.571,58.594,37.598,29.785,34.668,70.801,0
1542908908.575,60.059,35.156,32.227,50.293,114.746,0
1542908908.579,65.918,29.785,33.203,56.152,48.828,0
1542908908.583,43.457,35.156,36.621,47.852,-7.812,0
1542908908.587,23.438,32.715,33.691,35.156,36.621,0
1542908908.591,44.922,28.320,30.273,21.973,26.367,0
1542908908.595,52.734,28.809,34.180,41.504,-10.742,0
1542908908.599,39.062,23.926,35.156,40.039,-0.488,0
1542908908.602,39.062,28.809,31.250,30.762,43.457,0
1542908908.606,28.809,32.715,30.273,26.855,78.125,0
1542908908.610,23.926,31.738,30.762,31.738,35.645,0
1542908908.614,25.879,30.762,30.762,38.086,20.996,0
1542908908.618,22.461,25.391,33.691,36.133,24.902,0
1542908908.622,16.113,24.414,34.668,48.340,28.320,0
1542908908.626,19.043,24.414,29.785,43.457,7.812,0
1542908908.630,32.227,19.531,26.367,28.809,-45.898,0
1542908908.634,42.480,23.438,31.738,41.016,-46.387,0
1542908908.638,34.180,26.855,36.133,61.523,43.457,0
1542908908.642,46.875,21.484,38.574,51.270,22.461,0
1542908908.645,60.547,23.926,37.598,28.809,-8.789,0
1542908908.649,35.645,31.738,33.203,36.133,45.898,0
1542908908.653,35.645,33.691,32.715,40.527,40.039,0
1542908908.657,34.180,32.227,33.691,35.156,12.695,0
1542908908.661,26.855,32.715,32.715,40.039,56.152,0
1542908908.665,41.504,33.691,34.668,52.246,60.059,0
1542908908.669,41.504,32.715,36.621,44.434,19.043,0
1542908908.673,31.738,26.855,36.621,27.344,7.812,0
1542908908.677,32.715,24.414,33.691,24.902,12.207,0
1542908908.681,41.504,28.809,32.715,27.344,49.316,0
1542908908.685,42.480,30.273,35.156,42.969,75.195,0
1542908908.688,41.016,35.156,30.762,31.250,47.363,0
1542908908.692,34.180,38.574,27.344,19.043,3.418,0
1542908908.696,26.855,35.645,29.785,26.855,8.789,0
1542908908.700,27.832,30.273,28.809,33.203,11.230,0
1542908908.704,32.715,26.855,25.879,41.016,44.434,0
1542908908.708,39.062,26.855,24.902,30.273,46.387,0
1542908908.712,42.969,25.391,24.902,5.371,16.113,0
1542908908.716,29.785,18.555,31.250,-0.488,-33.203,0
1542908908.720,27.344,20.020,32.715,-5.859,-45.898,0
1542908908.724,18.066,24.414,29.785,8.301,-4.395,0
1542908908.727,24.414,21.973,25.879,13.672,8.789,0
1542908908.731,23.926,25.879,20.508,-13.184,20.996,0
1542908908.735,12.695,25.879,23.438,-16.602,48.828,0
1542908908.739,27.344,26.367,27.344,8.789,23.438,0
1542908908.743,27.344,28.320,28.320,18.555,19.043,0
1542908908.747,32.715,25.391,27.344,16.602,45.410,0
1542908908.751,55.664,26.855,27.344,16.602,43.457,0
1542908908.755,50.293,26.855,31.250,25.879,92.773,0
1542908908.759,25.879,22.949,28.809,25.879,70.312,0
1542908908.763,15.137,22.949,29.297,25.391,26.367,0
1542908908.767,16.602,25.879,31.250,38.086,85.449,0
1542908908.770,33.691,29.297,31.738,38.086,38.574,0
1542908908.774,48.340,26.367,35.645,15.625,-6.348,0
1542908908.778,44.922,26.855,35.156,12.695,-11.230,0
1542908908.782,47.363,25.879,34.668,19.531,-38.574,0
1542908908.786,53.223,22.949,33.691,24.414,28.320,0
1542908908.790,47.852,21.973,26.367,29.297,30.273,0
1542908908.794,49.805,26.367,23.926,31.738,-31.738,0
1542908908.798,53.711,32.227,25.391,28.809,22.461,0
1542908908.802,38.574,27.832,27.832,21.484,76.660,0
1542908908.806,23.438,21.973,30.762,-0.977,24.414,0
1542908908.810,34.668,24.902,32.227,-0.977,10.742,0
1542908908.813,41.504,26.855,34.668,20.020,-1.465,0
1542908908.817,44.922,25.391,39.062,34.180,-30.273,0
1542908908.821,45.898,23.926,33.691,25.391,17.090,0
1542908908.825,47.852,19.531,27.344,-4.395,6.836,0
1542908908.829,38.086,18.066,25.391,3.906,60.059,0
1542908908.833,40.527,24.902,26.367,24.902,86.426,0
1542908908.837,62.988,31.738,28.809,20.020,50.293,0
1542908908.841,44.434,34.668,30.273,18.555,51.270,0
1542908908.845,37.109,27.832,31.738,19.043,60.547,0
1542908908.849,52.246,25.879,33.691,21.484,78.125,0
1542908908.852,52.734,25.879,33.691,14.648,26.367,0
1542908908.856,50.781,27.832,32.227,32.715,2.930,0
1542908908.860,45.410,30.273,35.645,51.758,23.438,0
1542908908.864,54.199,24.902,36.133,44.434,21.973,0
1542908908.868,52.246,23.926,34.180,38.574,-3.906,0
1542908908.872,45.898,27.832,31.250,31.250,29.297,0
1542908908.876,62.500,30.273,29.297,26.855,45.898,0
1542908908.880,71.777,25.879,29.297,26.855,-4.883,0
1542908908.884,63.965,26.367,30.762,34.180,-1.465,0
1542908908.888,70.312,27.832,33.203,37.109,-10.742,0
1542908908.892,45.410,26.367,31.250,26.367,-12.207,0
1542908908.895,15.137,24.902,26.855,12.695,42.480,0
1542908908.899,30.762,25.391,27.344,0.488,66.406,0
1542908908.903,38.086,29.785,27.832,0.488,67.383,0
1542908908.907,41.504,28.809,26.855,27.832,52.246,0
1542908908.911,53.223,24.414,28.320,44.434,56.152,0
1542908908.915,62.988,26.367,32.227,35.645,82.520,0
1542908908.919,49.316,30.762,30.273,30.273,72.266,0
1542908908.923,37.109,30.273,26.367,13.672,41.504,0
1542908908.927,44.434,30.273,25.879,0.488,42.480,0
1542908908.931,36.621,32.715,28.320,12.695,55.664,0
1542908908.935,19.043,35.156,32.227,28.809,40.039,0
1542908908.938,29.297,33.691,32.715,30.762,79.102,0
1542908908.942,41.992,24.902,29.785,14.648,106.445,0
1542908908.946,52.734,25.391,25.879,19.043,61.035,0
1542908908.950,46.875,32.227,26.367,16.113,34.668,0
1542908908.954,11.719,33.691,31.250,-4.395,51.758,0
1542908908.958,-5.371,25.879,37.109,-3.906,90.332,0
1542908908.962,7.812,18.066,37.598,2.441,90.332,0
1542908908.966,25.879,16.113,36.133,22.461,35.156,0
1542908908.970,22.461,15.625,46.387,39.551,-21.484,0
1542908908.974,3.418,9.766,46.875,28.809,3.418,0
1542908908.977,9.277,6.836,36.621,12.695,73.242,0
1542908908.981,17.578,12.207,33.691,-4.395,54.199,0
1542908908.985,17.578,14.648,32.227,-9.766,49.805,0
1542908908.989,40.039,21.973,32.715,-9.277,75.684,0
1542908908.993,50.293,27.344,31.738,19.043,78.613,0
1542908908.997,38.086,22.461,32.715,38.574,23.438,0
1542908909.001,21.484,18.555,39.062,21.973,-8.301,0
1542908909.005,4.883,20.020,37.598,25.391,-13.672,0
1542908909.009,23.438,21.484,27.344,11.230,-67.871,0
1542908909.013,53.223,16.602,26.855,-4.395,-41.992,0
1542908909.017,26.367,15.625,32.227,17.578,-6.836,0
1542908909.020,8.301,21.973,30.273,25.879,11.719,0
1542908909.024,25.879,24.414,31.250,40.039,4.883,0
1542908909.028,29.785,30.762,31.738,43.945,-7.324,0
1542908909.032,15.625,30.762,30.762,-0.488,29.297,0
1542908909.036,27.344,23.926,35.156,2.441,41.016,0
1542908909.040,43.457,23.926,37.598,24.902,11.719,0
1542908909.044,35.645,21.973,36.621,10.254,60.059,0
1542908909.048,32.715,14.160,35.645,24.414,44.922,0
1542908909.052,31.738,13.184,36.133,31.250,-1.465,0
1542908909.056,39.062,20.020,32.715,9.277,-38.574,0
1542908909.060,40.039,22.461,31.738,19.043,-60.059,0
1542908909.063,22.949,24.414,31.250,25.879,1.953,0
1542908909.067,8.789,27.344,30.762,5.859,22.949,0
1542908909.071,12.695,28.320,35.645,0.977,-1.465,0
1542908909.075,6.836,27.832,34.668,3.906,-5.859,0
1542908909.079,19.531,32.715,31.738,7.812,54.199,0
1542908909.083,25.391,34.180,31.250,4.883,43.945,0
1542908909.087,11.230,24.902,31.250,0.000,22.461,0
1542908909.091,21.484,22.949,30.273,4.395,40.527,0
1542908909.095,25.879,26.367,30.273,21.484,3.906,0
1542908909.099,30.762,28.809,32.227,22.461,7.812,0
1542908909.102,37.109,28.809,30.273,20.508,52.734,0
1542908909.106,35.156,25.879,28.809,46.875,44.434,0
1542908909.110,31.738,28.809,29.297,55.176,11.230,0
1542908909.114,20.508,30.273,24.414,12.695,70.312,0
1542908909.118,24.414,26.367,21.484,-11.719,110.352,0
1542908909.122,42.969,27.832,25.391,-7.324,66.406,0
1542908909.126,38.574,30.273,23.926,-0.488,33.691,0
1542908909.130,32.715,28.320,25.391,6.836,44.434,0
1542908909.134,32.715,27.832,29.785,20.996,46.387,0
1542908909.138,42.480,29.785,32.227,34.668,-8.301,0
1542908909.142,41.992,34.180,34.180,32.227,24.414,0
1542908909.145,28.320,33.203,28.809,17.578,-0.977,0
1542908909.149,45.898,28.320,20.508,12.207,-31.250,0
1542908909.153,52.246,28.320,18.555,6.348,20.508,0
1542908909.157,46.387,24.414,18.555,15.625,105.469,0
1542908909.161,39.062,15.625,24.414,12.207,97.168,0
1542908909.165,46.875,23.926,29.785,16.113,20.996,0
1542908909.169,57.617,34.668,32.715,19.043,1.953,0
1542908909.173,56.152,34.668,34.668,13.184,5.859,0
1542908909.177,48.340,38.086,35.156,20.020,22.461,0
1542908909.181,39.551,27.344,33.203,7.324,52.734,0
1542908909.185,33.203,21.973,26.855,-3.418,65.918,0
1542908909.188,43.457,24.902,22.461,-1.465,30.273,0
1542908909.192,62.012,22.949,22.461,-2.930,56.641,0
1542908909.196,45.410,26.367,23.438,3.418,18.555,0
1542908909.200,33.691,31.250,28.809,8.301,21.973,0
1542908909.204,31.250,30.273,33.203,-9.277,4.395,0
1542908909.208,31.738,24.902,32.715,-30.273,1.953,0
1542908909.212,38.574,28.320,30.273,-35.645,50.293,0
1542908909.216,40.039,34.180,27.344,-36.133,-6.836,0
1542908909.220,43.945,31.738,28.320,-27.344,11.719,0
1542908909.224,42.480,26.367,26.855,-28.320,57.617,0
1542908909.227,21.973,19.043,28.320,-26.855,16.113,0
1542908909.231,20.996,16.113,33.203,-26.855,-27.832,0
1542908909.235,26.367,16.113,31.250,-25.391,-26.855,0
1542908909.239,33.203,18.555,28.320,-24.902,12.207,0
1542908909.243,51.758,22.461,27.344,-24.414,21.973,0
1542908909.247,51.270,26.367,28.320,-24.902,9.766,0
1542908909.251,39.551,29.297,28.809,-44.922,39.062,0
1542908909.255,39.062,31.738,30.273,-36.133,36.133,0
1542908909.259,37.598,30.273,36.621,-11.230,33.203,0
1542908909.263,53.711,24.902,37.598,-3.418,39.551,0
1542908909.267,59.082,24.902,35.156,5.859,36.133,0
1542908909.270,57.617,31.250,39.062,23.926,49.316,0
1542908909.274,69.336,36.621,40.527,22.949,21.484,0
1542908909.278,68.848,33.691,36.621,12.695,-32.715,0
1542908909.282,53.223,28.809,36.133,28.809,30.273,0
1542908909.286,53.223,26.855,37.109,49.316,63.477,0
1542908909.290,65.430,23.926,35.156,42.969,17.578,0
1542908909.294,63.477,23.438,35.156,28.320,34.180,0
1542908909.298,39.551,21.973,37.109,30.273,54.199,0
1542908909.302,25.391,22.461,38.086,26.367,6.348,0
1542908909.306,40.039,31.738,40.527,25.391,-20.020,0
1542908909.310,51.270,36.621,47.852,46.875,67.871,0
1542908909.313,52.734,36.133,48.828,31.738,57.129,0
1542908909.317,65.918,39.062,38.574,20.020,2.441,0
1542908909.321,64.941,36.621,28.809,28.809,32.715,0
1542908909.325,44.922,32.715,39.551,28.809,30.762,0
1542908909.329,36.621,32.227,44.434,24.902,94.727,0
1542908909.333,24.902,31.250,37.109,16.602,47.363,0
1542908909.337,24.902,27.832,32.227,8.301,16.113,0
1542908909.341,33.203,23.438,28.809,8.789,78.125,0
1542908909.345,31.250,25.879,32.227,20.020,15.625,0
1542908909.349,21.484,29.297,36.133,30.273,48.340,0
1542908909.352,32.227,26.367,35.645,29.785,67.871,0
1542908909.356,36.621,27.832,37.109,20.508,81.543,0
1542908909.360,26.855,33.203,38.574,18.066,84.473,0
1542908909.364,38.574,35.645,39.551,17.578,11.230,0
1542908909.368,49.316,36.621,38.086,19.043,-22.461,0
1542908909.372,39.551,43.945,35.645,48.340,-0.488,0
1542908909.376,22.461,37.598,41.992,41.992,62.012,0
1542908909.380,7.324,30.762,43.945,22.949,45.898,0
1542908909.384,12.695,37.109,39.062,41.016,22.461,0
1542908909.388,12.695,34.180,35.156,34.180,21.484,0
1542908909.392,7.812,31.250,32.227,36.621,27.344,0
1542908909.395,22.461,21.484,34.668,54.688,1.953,0
1542908909.399,29.785,9.277,36.133,45.410,21.973,0
1542908909.403,25.391,10.742,36.621,36.621,32.227,0
1542908909.407,13.672,21.484,34.180,31.250,20.996,0
1542908909.411,10.742,31.738,27.832,26.855,21.973,0
1542908909.415,21.973,34.668,24.414,29.785,20.020,0
1542908909.419,22.461,33.203,21.484,23.926,-28.809,0
1542908909.423,11.230,32.227,17.578,21.484,-7.812,0
1542908909.427,20.020,39.551,18.066,48.340,21.973,0
1542908909.431,42.480,45.410,20.020,49.316,-20.996,0
1542908909.435,25.879,46.387,21.973,53.711,8.789,0
1542908909.438,12.207,41.992,22.949,64.941,93.262,0
1542908909.442,24.414,34.180,19.043,50.293,63.965,0
1542908909.446,18.555,28.320,18.555,62.988,-5.859,0
1542908909.450,20.508,25.879,22.949,57.617,-18.066,0
1542908909.454,44.922,33.203,22.949,34.668,43.945,0
1542908909.458,47.852,39.551,19.531,33.203,43.457,0
1542908909.462,23.438,35.645,24.414,39.551,55.664,0
1542908909.466,19.531,33.691,28.809,48.340,77.148,0
1542908909.470,29.297,31.250,31.738,63.477,34.668,0
1542908909.474,25.879,30.762,36.621,78.613,24.414,0
1542908909.477,16.113,35.156,35.156,50.781,77.148,0
1542908909.481,15.625,34.180,30.762,34.668,117.188,0
1542908909.485,21.484,30.762,23.438,31.738,41.992,0
1542908909.489,28.320,30.762,21.973,32.227,10.254,0
1542908909.493,41.016,29.297,23.926,53.711,25.879,0
1542908909.497,30.273,31.250,24.414,54.688,30.273,0
1542908909.501,10.742,30.273,26.855,34.180,33.691,0
1542908909.505,16.602,29.297,27.832,42.969,3.906,0
1542908909.509,19.043,29.785,27.344,47.363,4.883,0
1542908909.513,28.320,25.391,28.320,41.504,18.555,0
1542908909.517,34.180,29.297,28.320,49.805,50.781,0
1542908909.520,28.809,35.156,27.832,55.176,26.367,0
1542908909.524,30.762,35.645,26.855,50.293,31.738,0
1542908909.528,23.438,35.645,30.273,54.199,80.566,0
1542908909.532,42.969,33.203,36.621,58.594,36.621,0
1542908909.536,60.059,30.273,34.180,42.480,1.465,0
1542908909.540,36.133,29.297,29.297,46.875,17.090,0
1542908909.544,22.949,31.250,33.691,52.734,55.176,0
1542908909.548,23.438,30.273,36.621,42.969,64.453,0
1542908909.552,18.066,30.273,32.715,37.598,34.180,0
1542908909.556,19.531,26.367,27.344,43.457,57.129,0
1542908909.560,36.621,17.090,23.438,49.805,59.082,0
1542908909.563,43.945,21.484,25.391,59.082,-6.348,0
1542908909.567,38.574,29.785,26.855,71.289,-3.418,0
1542908909.571,13.184,30.273,23.926,40.039,-6.348,0
1542908909.575,16.602,28.320,20.020,13.184,21.484,0
1542908909.579,20.020,25.391,21.484,19.531,31.738,0
1542908909.583,13.184,21.484,27.344,35.645,4.883,0
1542908909.587,17.090,21.973,32.227,44.434,5.859,0
1542908909.591,17.090,23.438,33.203,52.246,36.133,0
1542908909.595,31.250,21.484,29.297,54.688,95.215,0
1542908909.599,35.645,16.113,27.344,31.738,29.785,0
1542908909.602,16.113,15.625,30.762,9.277,36.133,0
1542908909.606,12.207,24.902,32.227,21.973,73.730,0
1542908909.610,11.230,27.832,32.227,30.762,39.551,0
1542908909.614,4.395,26.855,33.203,17.090,18.555,0
1542908909.618,9.766,31.250,29.297,3.906,17.578,0
1542908909.622,16.602,33.691,29.785,-5.859,0.977,0
1542908909.626,17.090,35.645,36.133,-5.371,30.273,0
1542908909.630,17.578,32.715,41.504,-1.953,45.410,0
1542908909.634,22.461,37.109,42.969,-8.789,15.137,0
1542908909.638,-2.441,41.504,40.527,-5.371,27.832,0
1542908909.642,-22.461,28.809,43.457,-5.859,49.805,0
1542908909.645,-20.996,27.344,44.434,-26.855,81.543,0
1542908909.649,-41.016,32.715,47.363,-43.457,55.664,0
1542908909.653,-40.039,35.645,56.152,-51.758,39.062,0
1542908909.657,-56.641,40.527,65.430,-61.035,14.648,0
1542908909.661,-100.586,45.410,62.500,-106.445,-6.836,0
1542908909.665,-108.398,53.711,60.547,-144.043,16.602,0
1542908909.669,-120.117,62.012,68.359,-151.367,37.109,0
1542908909.673,-130.859,62.500,79.102,-174.805,44.922,0
1542908909.677,-145.996,61.035,83.984,-177.734,52.246,0
1542908909.681,-167.969,68.848,81.055,-168.457,56.152,0
1542908909.685,-168.945,78.125,79.102,-186.523,27.344,0
1542908909.688,-148.926,76.172,81.055,-211.914,21.973,0
1542908909.692,-156.250,73.242,80.078,-221.191,23.438,0
1542908909.696,-179.199,76.172,76.660,-213.867,14.648,0
1542908909.700,-183.105,79.102,74.707,-205.566,44.922,0
1542908909.704,-177.734,78.613,68.848,-206.055,41.016,0
1542908909.708,-152.344,78.125,66.406,-200.684,-0.488,0
1542908909.712,-123.535,82.031,60.547,-187.988,34.668,0
1542908909.716,-108.887,81.055,49.316,-171.387,73.730,0
1542908909.720,-87.402,71.777,45.410,-134.277,47.363,0
1542908909.724,-64.941,58.594,43.945,-121.094,-4.883,0
1542908909.727,-47.363,50.293,43.457,-114.746,17.578,0
1542908909.731,-21.484,47.852,39.062,-85.938,87.891,0
1542908909.735,-6.836,37.598,31.738,-54.688,46.387,0
1542908909.739,2.441,25.879,32.715,-17.578,5.859,0
1542908909.743,27.344,24.414,34.668,11.719,-27.832,0
1542908909.747,34.180,23.438,33.203,18.066,-9.766,0
1542908909.751,39.551,13.184,29.297,20.996,-12.207,0
1542908909.755,67.383,12.207,25.879,38.574,-53.223,0
1542908909.759,69.336,20.996,21.484,59.570,14.648,0
1542908909.763,67.871,21.973,18.555,70.312,47.363,0
1542908909.767,87.891,19.531,18.555,88.379,-4.395,0
1542908909.770,102.051,15.137,19.043,94.727,43.457,0
1542908909.774,100.098,12.207,22.461,83.496,59.570,0
1542908909.778,98.145,12.695,22.461,78.125,31.250,0
1542908909.782,104.980,12.695,17.090,80.078,73.730,0
1542908909.786,117.188,10.742,16.602,93.750,68.359,0
1542908909.790,132.812,5.859,20.508,111.816,49.316,0
1542908909.794,124.512,1.465,20.020,108.398,50.781,0
1542908909.798,91.797,6.348,17.090,92.773,41.992,0
1542908909.802,101.074,11.719,15.625,100.586,-14.160,0
1542908909.806,123.047,13.672,12.207,100.098,14.648,0
1542908909.810,115.234,14.160,14.160,98.633,23.926,0
1542908909.813,108.398,14.160,18.066,94.238,10.254,0
1542908909.817,113.281,13.672,15.625,105.957,9.766,0
1542908909.821,117.676,9.766,11.719,125.977,-8.301,0
1542908909.825,122.070,9.277,10.254,108.398,-4.395,0
1542908909.829,132.324,7.324,13.184,113.770,13.672,0
1542908909.833,126.953,3.418,16.113,126.953,62.988,0
1542908909.837,99.121,4.883,14.648,94.238,48.340,0
1542908909.841,83.008,4.395,15.137,76.660,-30.273,0
1542908909.845,111.328,5.859,14.160,95.215,-49.316,0
1542908909.849,124.512,10.742,14.160,103.027,-34.180,0
1542908909.852,101.074,8.789,18.066,91.309,4.883,0
1542908909.856,99.609,6.348,19.531,89.355,29.785,0
1542908909.860,106.445,7.324,20.996,111.328,46.875,0
1542908909.864,121.094,8.789,21.973,134.277,29.297,0
1542908909.868,131.348,6.836,18.555,104.980,-30.762,0
1542908909.872,130.859,4.395,19.043,89.355,-7.324,0
1542908909.876,124.512,6.836,23.438,100.586,39.551,0
1542908909.880,113.281,11.230,24.902,106.445,68.848,0
1542908909.884,109.863,8.789,21.484,120.605,61.035,0
1542908909.888,109.863,6.348,18.555,102.539,21.484,0
1542908909.892,96.191,13.184,18.066,81.055,29.297,0
1542908909.895,104.004,15.625,20.996,82.520,51.758,0
1542908909.899,92.773,13.184,25.391,74.219,53.223,0
1542908909.903,81.543,14.160,19.043,72.754,29.785,0
1542908909.907,93.262,9.277,19.043,94.238,48.340,0
1542908909.911,121.582,11.230,24.414,82.031,79.590,0
1542908909.915,126.953,20.508,19.531,67.383,48.340,0
1542908909.919,108.398,17.578,17.090,82.031,35.645,0
1542908909.923,104.980,15.625,22.461,85.449,41.992,0
1542908909.927,87.402,19.043,24.902,77.148,38.574,0
1542908909.931,87.891,19.531,25.879,78.125,71.289,0
1542908909.935,109.863,18.066,26.367,82.031,94.727,0
1542908909.938,108.887,20.996,26.855,87.402,77.637,0
1542908909.942,86.914,25.391,29.297,87.402,27.344,0
1542908909.946,82.520,23.438,27.832,80.566,-13.672,0
1542908909.950,86.426,22.949,27.832,80.078,10.254,0
1542908909.954,83.008,24.414,24.902,71.289,47.852,0
1542908909.958,91.797,22.461,18.555,60.547,64.941,0
1542908909.962,93.262,20.508,20.508,62.500,34.180,0
1542908909.966,77.637,22.461,22.949,71.777,68.359,0
1542908909.970,77.637,22.461,22.461,78.125,68.359,0
1542908909.974,87.402,20.508,23.438,84.473,-40.039,0
1542908909.977,79.102,21.973,25.391,78.125,-17.578,0
1542908909.981,57.617,19.531,27.832,66.406,26.367,0
1542908909.985,66.406,12.207,26.367,58.105,10.742,0
1542908909.989,60.059,11.719,22.949,39.062,2.930,0
1542908909.993,43.945,16.602,24.902,35.645,-4.395,0
1542908909.997,53.223,20.020,28.809,49.316,-14.648,0
1542908910.001,63.965,23.926,29.297,57.617,0.000,0
1542908910.005,82.031,26.367,25.391,59.570,20.508,0
1542908910.009,104.492,27.832,25.391,56.152,21.973,0
1542908910.013,81.055,24.902,30.273,50.293,48.828,0
1542908910.017,44.922,21.973,32.227,57.617,65.430,0
1542908910.020,75.684,27.344,30.273,55.176,4.883,0
1542908910.024,85.938,30.273,28.320,41.016,-45.898,0
1542908910.028,44.434,23.438,26.855,62.988,-30.762,0
1542908910.032,43.457,20.996,27.832,83.496,24.902,0
1542908910.036,61.035,23.926,31.250,82.031,74.219,0
1542908910.040,58.594,25.391,28.809,75.195,28.320,0
1542908910.044,60.547,26.367,27.344,77.148,30.273,0
1542908910.048,62.500,24.902,28.320,68.848,57.129,0
1542908910.052,61.523,24.414,35.645,49.316,10.254,0
1542908910.056,83.496,26.855,37.109,39.551,-5.371,0
1542908910.060,83.008,23.926,30.762,31.738,11.719,0
1542908910.063,73.730,23.926,26.367,30.762,46.387,0
1542908910.067,80.566,24.902,25.879,37.109,50.293,0
1542908910.071,78.613,21.484,27.832,48.340,51.758,0
1542908910.075,56.152,28.320,27.832,62.500,91.309,0
1542908910.079,44.922,29.297,29.785,55.176,58.105,0
1542908910.083,61.523,20.996,29.297,35.645,19.531,0
1542908910.087,62.500,14.648,31.738,39.551,-5.371,0
1542908910.091,59.082,11.719,32.715,44.922,28.320,0
1542908910.095,72.266,13.672,27.832,28.320,54.688,0
1542908910.099,71.289,20.020,24.414,25.391,55.664,0
1542908910.102,64.941,26.367,25.391,45.898,68.359,0
1542908910.106,74.219,25.391,25.879,37.109,47.852,0
1542908910.110,72.754,24.414,23.438,26.367,57.129,0
1542908910.114,66.406,29.785,23.926,38.574,26.367,0
1542908910.118,68.359,32.227,21.973,48.340,5.371,0
1542908910.122,44.922,28.809,16.113,18.555,-13.184,0
1542908910.126,34.668,24.414,17.090,0.488,-1.465,0
1542908910.130,52.246,24.414,21.973,13.672,42.480,0
1542908910.134,63.965,23.438,24.414,19.043,39.551,0
1542908910.138,59.570,20.508,23.926,9.766,-13.184,0
1542908910.142,50.781,22.949,23.926,22.461,-15.137,0
1542908910.145,56.152,28.809,21.484,40.527,49.316,0
1542908910.149,56.152,25.391,23.438,28.809,39.551,0
1542908910.153,54.199,23.438,29.297,31.250,16.602,0
1542908910.157,53.711,27.344,34.180,47.363,2.441,0
1542908910.161,52.734,25.879,36.621,60.547,-12.695,0
1542908910.165,53.711,24.902,35.156,51.270,-31.738,0
1542908910.169,50.293,24.414,34.668,30.762,-16.602,0
1542908910.173,40.039,20.508,33.203,14.160,61.523,0
1542908910.177,43.945,20.508,31.738,16.602,57.129,0
1542908910.181,51.270,21.973,35.645,33.203,4.395,0
1542908910.185,31.250,20.020,30.273,26.367,5.859,0
1542908910.188,22.461,18.066,20.996,14.160,40.527,0
1542908910.192,45.410,22.949,19.531,14.648,44.922,0
1542908910.196,61.523,28.320,20.020,19.043,52.734,0
1542908910.200,54.199,28.320,30.273,14.648,47.363,0
1542908910.204,30.273,27.832,38.574,-0.977,-4.395,0
1542908910.208,42.969,23.926,38.574,12.695,-20.508,0
1542908910.212,55.176,20.996,38.574,33.203,36.133,0
1542908910.216,37.598,18.555,37.598,26.367,83.008,0
1542908910.220,43.457,20.508,37.109,14.648,8.789,0
1542908910.224,53.711,26.367,41.992,12.695,-1.465,0
1542908910.227,43.457,24.902,39.062,42.969,70.312,0
1542908910.231,31.250,18.066,32.227,46.387,22.461,0
1542908910.235,32.227,16.113,30.762,20.996,35.645,0
1542908910.239,41.992,19.531,30.762,20.996,83.008,0
1542908910.243,46.387,16.113,31.738,20.996,48.828,0
1542908910.247,45.410,14.160,30.762,20.508,20.020,0
1542908910.251,37.109,11.230,31.250,34.180,-5.371,0
1542908910.255,31.250,10.254,38.086,52.246,49.316,0
1542908910.259,40.039,19.531,36.621,49.316,9.766,0
1542908910.263,46.875,26.367,32.227,56.152,-3.906,0
1542908910.267,42.969,27.832,33.691,66.406,83.496,0
1542908910.270,33.203,23.926,36.133,47.363,86.914,0
1542908910.274,43.945,24.414,33.691,54.199,69.824,0
1542908910.278,48.340,31.250,29.785,68.359,21.484,0
1542908910.282,38.086,31.738,33.203,48.828,10.254,0
1542908910.286,45.410,29.297,37.109,32.715,7.812,0
1542908910.290,45.898,24.902,34.180,25.391,-5.371,0
1542908910.294,39.062,20.996,31.250,23.926,15.137,0
1542908910.298,49.316,26.367,30.762,25.391,-17.090,0
1542908910.302,58.105,27.832,32.227,42.969,13.672,0
1542908910.306,37.598,25.879,33.691,51.758,40.039,0
1542908910.310,22.949,27.344,31.738,36.621,-10.254,0
1542908910.313,36.133,19.043,31.738,37.598,-15.625,0
1542908910.317,55.664,17.090,30.762,37.109,0.977,0
1542908910.321,34.180,26.367,30.273,40.039,17.090,0
1542908910.325,17.090,30.762,37.598,42.969,18.555,0
1542908910.329,30.762,27.832,39.062,40.039,7.324,0
1542908910.333,36.621,26.855,33.691,51.270,22.949,0
1542908910.337,34.668,26.855,33.203,65.918,62.988,0
1542908910.341,40.039,23.926,35.645,55.176,50.293,0
1542908910.345,49.316,21.484,29.785,49.805,70.801,0
1542908910.349,53.711,20.020,28.809,67.383,66.895,0
1542908910.352,54.688,21.484,25.879,50.293,58.105,0
1542908910.356,44.434,23.926,22.949,35.156,66.406,0
1542908910.360,34.668,19.043,28.320,46.387,76.660,0
1542908910.364,39.062,22.949,29.297,47.852,41.992,0
1542908910.368,53.223,30.273,27.832,45.898,47.363,0
1542908910.372,35.645,25.879,33.203,51.270,43.945,0
1542908910.376,16.602,22.461,33.203,48.340,35.156,0
1542908910.380,42.480,22.949,27.344,37.109,58.105,0
1542908910.384,59.082,24.414,30.273,43.457,80.566,0
1542908910.388,44.922,24.414,29.297,40.039,104.004,0
1542908910.392,34.668,25.391,28.809,36.133,20.508,0
1542908910.395,41.504,25.391,29.785,33.203,3.906,0
1542908910.399,48.828,25.391,27.344,21.973,37.109,0
1542908910.403,31.250,21.973,26.367,18.555,28.320,0
1542908910.407,19.043,14.648,26.855,15.625,14.160,0
1542908910.411,27.832,12.207,30.762,31.738,25.391,0
1542908910.415,48.340,11.230,37.109,68.848,69.824,0
1542908910.419,24.902,21.484,31.250,37.598,50.781,0
1542908910.423,-19.043,32.715,24.414,-16.602,26.367,0
1542908910.427,-9.766,22.949,21.484,-13.672,25.391,0
1542908910.431,2.441,15.137,17.090,-9.277,17.578,0
1542908910.435,-12.695,23.926,13.672,-14.648,-12.695,0
1542908910.438,-20.020,32.715,10.742,-17.578,5.859,0
1542908910.442,-12.695,28.809,16.113,-14.160,18.555,0
1542908910.446,-11.230,29.297,20.508,-9.277,52.246,0
1542908910.450,-5.859,33.203,21.484,-14.160,42.480,0
1542908910.454,-2.930,29.785,24.414,-15.137,7.812,0
1542908910.458,-6.836,33.691,26.855,-11.719,20.508,0
1542908910.462,16.113,41.504,26.855,-1.465,31.738,0
1542908910.466,25.879,32.227,32.227,13.672,68.359,0
1542908910.470,18.066,24.414,33.691,10.742,67.383,0
1542908910.474,9.766,25.391,28.809,-2.930,23.438,0
1542908910.477,6.836,21.973,27.832,-12.695,6.836,0
1542908910.481,9.766,18.555,25.879,-9.766,7.812,0
1542908910.485,7.812,20.996,22.949,-3.418,60.059,0
1542908910.489,5.371,28.320,20.996,-4.883,46.387,0
1542908910.493,5.371,27.344,27.344,13.672,-50.781,0
1542908910.497,7.812,25.391,30.762,27.344,20.996,0
1542908910.501,2.441,27.344,28.320,23.438,41.016,0
1542908910.505,13.672,26.367,26.367,20.020,8.301,0
1542908910.509,14.160,22.949,23.438,-6.348,15.625,0
1542908910.513,-11.230,15.625,18.555,-16.602,-12.207,0
1542908910.517,-5.371,11.719,20.020,-6.348,-4.883,0
1542908910.520,4.395,11.719,25.879,-1.465,7.812,0
1542908910.524,6.348,12.695,27.832,9.766,13.184,0
1542908910.528,9.766,17.090,28.320,25.391,43.945,0
1542908910.532,14.160,14.648,25.879,21.973,14.648,0
1542908910.536,11.719,12.695,24.902,20.508,37.109,0
1542908910.540,2.930,18.555,26.855,34.180,64.941,0
1542908910.544,10.742,28.320,25.391,18.555,40.039,0
1542908910.548,-0.977,33.203,22.949,-1.465,-0.488,0
1542908910.552,0.000,33.203,21.973,-4.395,37.598,0
1542908910.556,23.926,29.785,18.555,-2.441,84.961,0
1542908910.560,17.090,24.902,14.160,12.207,5.859,0
1542908910.563,4.883,23.926,15.137,30.273,-21.484,0
1542908910.567,16.602,22.461,19.531,16.602,4.883,0
1542908910.571,25.391,25.391,20.996,5.371,22.461,0
1542908910.575,18.066,23.438,24.414,25.391,44.434,0
1542908910.579,7.324,18.555,29.297,34.668,37.598,0
1542908910.583,8.301,20.020,28.320,47.363,50.293,0
1542908910.587,17.578,25.391,26.367,56.152,55.176,0
1542908910.591,6.836,27.344,23.438,41.992,23.438,0
1542908910.595,0.977,24.414,22.461,39.062,30.762,0
1542908910.599,24.902,23.438,24.414,23.438,54.688,0
1542908910.602,14.648,26.855,23.438,1.953,81.055,0
1542908910.606,10.742,31.250,24.902,8.301,25.879,0
1542908910.610,29.297,26.855,25.879,26.367,-11.230,0
1542908910.614,26.367,23.438,29.297,39.551,-28.809,0
1542908910.618,25.879,27.344,25.879,42.480,-20.020,0
1542908910.622,36.621,29.785,19.043,49.805,53.223,0
1542908910.626,42.480,29.785,23.438,51.758,55.664,0
1542908910.630,22.949,31.738,32.227,34.180,47.363,0
1542908910.634,9.766,21.973,36.133,21.973,26.367,0
1542908910.638,16.602,11.230,37.598,24.902,-16.602,0
1542908910.642,17.090,18.555,38.086,38.574,-47.363,0
1542908910.645,28.809,23.438,34.180,49.316,7.324,0
1542908910.649,42.969,28.320,36.133,43.945,46.875,0
1542908910.653,34.180,33.691,37.109,32.227,40.039,0
1542908910.657,36.621,29.297,32.715,41.016,45.410,0
1542908910.661,36.621,24.902,27.344,57.617,59.082,0
1542908910.665,25.391,26.855,27.832,63.477,42.480,0
1542908910.669,25.391,23.438,31.738,43.457,38.574,0
1542908910.673,35.645,22.461,34.180,34.180,41.992,0
1542908910.677,36.133,31.250,33.203,55.176,43.945,0
1542908910.681,28.809,29.297,31.250,52.734,33.203,0
1542908910.685,15.137,21.484,34.180,40.527,-9.766,0
1542908910.688,15.625,19.043,35.156,38.574,32.715,0
1542908910.692,23.926,16.602,34.668,53.223,75.195,0
1542908910.696,31.738,21.973,37.109,44.922,3.418,0
1542908910.700,25.879,25.879,33.691,27.832,-23.926,0
1542908910.704,18.555,20.020,32.227,34.668,49.316,0
1542908910.708,23.926,20.996,32.227,43.945,26.855,0
1542908910.712,32.227,27.344,30.273,48.828,8.301,0
1542908910.716,41.992,32.227,35.156,45.898,72.754,0
1542908910.720,29.297,35.156,36.133,55.664,17.578,0
1542908910.724,14.160,32.227,30.273,58.594,-48.828,0
1542908910.727,31.250,30.273,21.484,47.363,5.859,0
1542908910.731,48.828,37.598,19.531,46.387,25.391,0
1542908910.735,37.109,36.621,26.855,42.480,29.297,0
1542908910.739,17.090,19.531,31.250,35.156,37.598,0
1542908910.743,19.043,11.719,34.180,33.203,-9.277,0
1542908910.747,30.762,18.066,36.621,44.434,-25.879,0
1542908910.751,38.574,21.973,35.156,60.059,9.277,0
1542908910.755,30.762,24.902,35.645,39.551,18.555,0
1542908910.759,19.531,18.555,38.086,21.973,30.273,0
1542908910.763,20.020,18.066,36.133,22.949,40.527,0
1542908910.767,31.250,28.809,35.645,29.297,30.762,0
1542908910.770,56.641,29.785,35.156,28.320,0.488,0
1542908910.774,45.410,26.367,27.344,27.344,3.418,0
1542908910.778,26.367,16.602,22.461,27.832,13.672,0
1542908910.782,36.133,13.672,24.414,48.828,33.691,0
1542908910.786,29.785,22.461,27.832,32.227,-6.348,0
1542908910.790,26.855,23.438,29.297,3.906,-62.988,0
1542908910.794,20.508,19.043,25.391,10.742,-25.391,0
1542908910.798,18.555,18.555,26.367,21.484,34.668,0
1542908910.802,22.461,22.949,26.855,20.508,9.277,0
1542908910.806,26.855,23.926,22.949,20.508,-46.387,0
1542908910.810,36.621,25.879,24.902,15.625,5.371,0
1542908910.813,42.480,20.996,24.414,0.000,81.543,0
1542908910.817,45.410,19.043,28.809,13.672,71.289,0
1542908910.821,45.898,29.297,33.691,46.387,76.660,0
1542908910.825,36.133,30.273,33.691,29.785,57.129,0
1542908910.829,45.410,25.879,28.320,3.418,57.617,0
1542908910.833,42.480,27.832,25.391,8.789,35.645,0
1542908910.837,44.922,33.203,27.344,20.020,26.855,0
1542908910.841,54.688,34.180,26.855,31.738,67.871,0
1542908910.845,28.320,30.762,25.879,41.504,48.340,0
1542908910.849,25.879,32.715,24.414,26.855,59.570,0
1542908910.852,39.551,36.621,22.461,6.348,109.375,0
1542908910.856,47.363,30.273,24.414,11.230,127.930,0
1542908910.860,48.340,26.855,24.414,20.996,57.129,0
1542908910.864,49.316,33.203,23.438,27.344,25.391,0
1542908910.868,49.316,35.156,27.832,33.203,38.574,0
1542908910.872,40.527,30.762,30.273,20.996,59.082,0
1542908910.876,40.527,29.785,26.855,20.996,13.184,0
1542908910.880,62.012,29.297,28.809,27.832,59.570,0
1542908910.884,72.266,27.344,34.180,8.789,67.871,0
1542908910.888,35.156,29.297,36.133,13.184,5.371,0
1542908910.892,10.742,25.391,31.738,29.297,19.043,0
1542908910.895,25.879,16.602,29.297,40.527,58.105,0
1542908910.899,31.738,20.020,35.156,41.504,87.402,0
1542908910.903,36.133,25.391,36.621,39.551,41.016,0
1542908910.907,37.109,25.391,34.180,32.227,33.691,0
1542908910.911,46.875,22.949,34.180,32.227,78.125,0
1542908910.915,56.152,21.973,35.645,31.738,21.484,0
1542908910.919,43.945,23.438,35.156,29.785,-37.109,0
1542908910.923,54.688,23.926,34.668,37.598,13.184,0
1542908910.927,50.781,23.438,34.668,43.457,50.293,0
1542908910.931,27.344,24.414,37.109,56.641,37.598,0
1542908910.935,37.598,24.902,42.969,56.152,25.879,0
1542908910.938,37.598,23.926,45.410,26.855,39.062,0
1542908910.942,32.715,24.902,51.758,34.180,32.715,0
1542908910.946,33.691,21.484,53.711,41.504,31.738,0
1542908910.950,39.062,19.531,41.016,27.832,23.438,0
1542908910.954,34.668,20.020,38.574,33.691,53.711,0
1542908910.958,27.344,17.090,41.016,25.391,50.781,0
1542908910.962,34.180,15.625,36.133,0.977,-14.648,0
1542908910.966,44.922,12.695,32.227,11.230,-47.363,0
1542908910.970,57.617,8.789,31.738,24.414,22.461,0
1542908910.974,55.664,18.066,32.715,21.484,40.039,0
1542908910.977,47.852,25.391,37.598,29.785,41.992,0
1542908910.981,45.898,23.438,37.598,43.457,42.480,0
1542908910.985,40.039,28.320,36.621,34.180,49.316,0
1542908910.989,49.805,29.297,37.109,39.551,39.062,0
1542908910.993,67.383,28.809,34.668,52.246,14.648,0
1542908910.997,54.688,29.297,35.645,31.738,68.359,0
1542908911.001,56.641,28.809,34.668,18.066,20.508,0
1542908911.005,65.918,26.855,32.227,34.180,-48.828,0
1542908911.009,39.551,27.832,32.227,50.293,3.418,0
1542908911.013,38.086,30.762,34.668,39.062,19.531,0
1542908911.017,48.340,30.762,35.645,20.996,-10.254,0
1542908911.020,37.598,26.367,34.180,23.926,9.766,0
1542908911.024,44.922,22.949,32.715,39.062,-18.555,0
1542908911.028,46.387,23.926,33.691,37.598,-25.391,0
1542908911.032,46.387,26.367,33.691,34.668,12.207,0
1542908911.036,48.340,26.855,28.809,39.551,35.156,0
1542908911.040,52.246,26.855,29.297,21.484,83.008,0
1542908911.044,45.898,28.320,31.250,13.184,92.773,0
1542908911.048,46.387,30.762,29.785,25.879,64.453,0
1542908911.052,36.133,24.902,30.273,40.527,40.527,0
1542908911.056,24.902,17.090,28.320,30.762,39.551,0
1542908911.060,44.922,20.020,22.461,11.719,37.109,0
1542908911.063,38.574,21.484,22.461,5.371,11.230,0
1542908911.067,28.809,19.531,23.926,7.812,23.438,0
1542908911.071,44.922,23.438,23.438,32.227,33.203,0
1542908911.075,51.758,23.438,23.438,44.434,-19.043,0
1542908911.079,42.969,18.066,25.879,36.133,2.930,0
1542908911.083,31.250,19.043,25.391,28.320,27.344,0
1542908911.087,33.691,21.973,23.926,18.066,25.879,0
1542908911.091,26.855,19.043,25.391,19.531,56.152,0
1542908911.095,28.320,14.648,23.438,58.105,-12.695,0
1542908911.099,42.969,15.137,25.391,56.641,-20.020,0
1542908911.102,41.992,20.020,27.832,9.766,34.668,0
1542908911.106,43.945,22.461,30.273,10.254,5.371,0
1542908911.110,42.969,20.508,30.762,16.113,45.898,0
1542908911.114,45.410,22.461,27.344,17.090,38.574,0
1542908911.118,49.805,20.508,26.855,34.668,20.020,0
1542908911.122,34.668,12.695,25.879,45.410,50.293,0
1542908911.126,21.973,15.137,22.949,28.809,35.156,0
1542908911.130,29.785,19.043,25.879,11.719,43.945,0
1542908911.134,33.691,19.531,28.320,16.602,43.945,0
1542908911.138,41.504,20.508,24.902,41.504,18.066,0
1542908911.142,55.176,22.949,24.414,31.738,23.438,0
1542908911.145,43.457,22.949,27.832,11.719,43.945,0
1542908911.149,29.297,23.926,33.203,27.832,35.156,0
1542908911.153,33.203,22.949,40.039,48.340,21.973,0
1542908911.157,45.410,15.137,37.109,47.852,34.668,0
1542908911.161,49.805,9.766,33.691,31.250,36.133,0
1542908911.165,43.457,9.766,34.180,35.645,62.988,0
1542908911.169,53.223,18.066,32.715,41.504,4.883,0
1542908911.173,40.039,20.508,34.180,40.527,-28.320,0
1542908911.177,41.992,18.066,32.715,40.527,32.227,0
1542908911.181,61.523,19.531,28.320,32.715,104.492,0
1542908911.185,46.875,27.832,28.809,30.273,64.941,0
1542908911.188,42.969,35.645,28.809,25.391,2.441,0
1542908911.192,51.758,33.691,33.203,22.949,3.418,0
1542908911.196,45.410,26.855,32.227,31.738,10.254,0
1542908911.200,39.062,22.949,28.809,29.785,38.086,0
1542908911.204,41.016,20.508,32.227,21.484,15.137,0
1542908911.208,35.645,21.973,29.297,16.113,-20.020,0
1542908911.212,35.156,24.902,30.273,8.789,-13.184,0
1542908911.216,32.715,23.438,35.156,15.137,44.922,0
1542908911.220,35.156,24.414,37.598,44.922,77.148,0
1542908911.224,39.551,29.297,40.039,50.781,46.387,0
1542908911.227,40.527,26.367,39.551,22.949,-2.930,0
1542908911.231,36.133,20.508,36.621,10.742,35.156,0
1542908911.235,30.273,22.949,35.645,21.973,15.625,0
1542908911.239,32.227,22.949,44.434,32.715,9.277,0
1542908911.243,35.645,22.461,47.852,39.551,84.961,0
1542908911.247,50.293,25.879,43.457,39.551,46.387,0
1542908911.251,57.617,27.344,43.457,48.340,73.730,0
1542908911.255,39.062,27.344,48.340,48.828,47.363,0
1542908911.259,32.227,26.855,51.758,41.016,-22.949,0
1542908911.263,41.504,22.949,45.410,61.035,28.320,0
1542908911.267,51.270,19.043,47.852,78.125,54.688,0
1542908911.270,62.988,21.484,52.246,58.594,55.176,0
1542908911.274,51.270,26.367,42.480,19.043,91.309,0
1542908911.278,20.020,30.273,32.227,11.230,83.008,0
1542908911.282,15.625,36.621,27.832,18.555,60.547,0
1542908911.286,36.133,42.480,26.855,28.809,50.293,0
1542908911.290,43.945,40.039,25.391,39.062,81.543,0
1542908911.294,27.344,39.062,20.020,36.133,85.938,0
1542908911.298,19.531,43.945,16.113,28.320,61.523,0
1542908911.302,22.949,44.434,13.672,9.277,26.855,0
1542908911.306,26.367,44.434,17.090,16.602,49.316,0
1542908911.310,37.598,42.480,23.926,30.273,89.844,0
1542908911.313,38.574,39.551,23.926,14.160,66.406,0
1542908911.317,35.156,34.180,20.508,26.855,49.316,0
1542908911.321,38.086,28.320,19.043,41.504,57.617,0
1542908911.325,29.785,34.668,22.461,33.691,-3.906,0
1542908911.329,41.504,42.480,18.555,27.832,-6.836,0
1542908911.333,48.340,38.574,16.602,23.926,48.340,0
1542908911.337,36.133,35.156,19.043,21.973,0.977,0
1542908911.341,35.156,34.668,20.020,23.438,17.578,0
1542908911.345,41.504,34.668,21.973,27.832,75.684,0
1542908911.349,53.223,44.922,23.438,40.039,55.176,0
1542908911.352,51.270,44.434,28.320,42.969,56.152,0
1542908911.356,50.293,32.715,34.668,70.312,51.758,0
1542908911.360,59.082,36.133,34.668,53.711,58.105,0
1542908911.364,62.012,43.945,25.879,10.254,21.973,0
1542908911.368,40.527,39.062,21.484,28.809,-54.199,0
1542908911.372,29.297,36.621,20.508,25.879,-8.789,0
1542908911.376,39.551,38.086,20.508,34.180,67.871,0
1542908911.380,42.969,42.480,26.367,48.828,59.082,0
1542908911.384,49.805,47.852,27.832,47.852,70.801,0
1542908911.388,51.270,37.598,24.414,52.734,70.801,0
1542908911.392,37.598,28.809,22.949,58.594,16.113,0
1542908911.395,40.527,30.273,24.902,41.992,-18.555,0
1542908911.399,48.828,30.762,26.855,21.973,17.578,0
1542908911.403,45.410,35.156,31.738,33.203,30.273,0
1542908911.407,40.039,37.109,32.715,46.387,41.504,0
1542908911.411,33.691,37.109,30.273,48.340,85.449,0
1542908911.415,28.809,40.527,31.250,64.453,54.688,0
1542908911.419,36.133,39.062,31.250,61.035,-20.020,0
1542908911.423,40.527,35.156,29.785,42.969,-28.809,0
1542908911.427,39.551,36.133,29.785,35.156,42.480,0
1542908911.431,61.035,33.691,34.668,41.992,68.359,0
1542908911.435,69.336,30.273,35.156,53.711,48.828,0
1542908911.438,57.617,35.156,31.738,66.406,48.340,0
1542908911.442,47.852,37.598,35.156,74.707,1.465,0
1542908911.446,47.363,31.738,35.156,60.547,-14.160,0
1542908911.450,40.039,30.273,32.227,44.922,13.672,0
1542908911.454,29.297,27.832,33.203,36.621,26.367,0
1542908911.458,23.926,26.367,33.203,32.715,3.418,0
1542908911.462,32.715,28.809,31.738,42.480,-22.461,0
1542908911.466,29.297,24.902,31.250,35.645,-1.465,0
1542908911.470,21.973,25.879,26.855,29.297,-6.836,0
1542908911.474,37.598,34.180,28.809,51.758,22.461,0
1542908911.477,46.387,36.133,34.180,45.898,48.828,0
1542908911.481,51.758,33.691,32.227,21.484,10.254,0
1542908911.485,41.992,31.738,30.273,35.645,-39.551,0
1542908911.489,30.273,31.738,30.762,46.875,12.695,0
1542908911.493,27.344,28.320,29.785,29.785,30.762,0
1542908911.497,21.973,29.785,28.320,31.738,3.418,0
1542908911.501,27.832,25.391,25.879,41.992,5.859,0
1542908911.505,32.227,21.484,30.273,44.434,17.090,0
1542908911.509,33.203,27.832,31.250,41.504,25.391,0
1542908911.513,53.711,33.203,30.273,42.969,27.344,0
1542908911.517,46.875,34.668,32.715,67.383,60.059,0
1542908911.520,35.156,27.832,33.203,63.477,59.570,0
1542908911.524,41.504,19.043,33.203,33.203,56.152,0
1542908911.528,33.203,19.043,30.762,43.945,36.621,0
1542908911.532,37.109,21.484,30.762,61.523,5.371,0
1542908911.536,34.180,15.137,32.715,42.480,28.809,0
1542908911.540,20.996,11.719,35.645,39.062,38.086,0
1542908911.544,28.809,20.508,35.156,51.270,13.672,0
1542908911.548,38.086,27.832,37.109,43.945,-12.207,0
1542908911.552,36.621,30.762,42.480,54.199,8.789,0
1542908911.556,36.621,26.367,39.062,67.871,-14.160,0
1542908911.560,29.785,22.949,29.785,51.270,3.906,0
1542908911.563,28.320,21.973,27.344,43.457,24.902,0
1542908911.567,23.926,20.996,27.832,58.105,-21.484,0
1542908911.571,17.090,26.855,28.320,49.316,18.555,0
1542908911.575,28.809,27.344,33.203,38.086,13.184,0
1542908911.579,39.062,21.484,34.668,31.250,-49.805,0
1542908911.583,36.621,23.438,31.250,33.203,-6.348,0
1542908911.587,40.527,28.320,32.715,45.898,44.922,0
1542908911.591,41.992,30.762,35.156,51.270,52.246,0
1542908911.595,35.156,29.297,38.574,53.711,46.875,0
1542908911.599,26.367,24.414,37.598,59.570,54.688,0
1542908911.602,24.414,27.344,32.715,45.898,28.809,0
1542908911.606,26.855,39.551,38.086,36.621,-7.324,0
1542908911.610,24.414,32.715,42.480,31.738,-5.859,0
1542908911.614,11.719,24.902,36.621,18.066,-2.930,0
1542908911.618,24.414,35.645,44.434,24.902,-3.906,0
1542908911.622,17.578,33.691,45.898,9.277,41.016,0
1542908911.626,-9.277,33.203,41.016,3.906,35.156,0
1542908911.630,-14.160,33.203,51.758,11.230,32.227,0
1542908911.634,-17.578,24.902,63.965,9.766,48.828,0
1542908911.638,-37.109,21.484,70.312,-24.414,45.410,0
1542908911.642,-61.035,25.879,72.754,-76.660,64.941,0
1542908911.645,-71.777,36.133,81.055,-94.727,23.926,0
1542908911.649,-104.004,41.504,94.238,-109.375,-28.809,0
1542908911.653,-141.602,45.898,104.980,-137.207,25.391,0
1542908911.657,-165.039,51.758,107.910,-165.527,84.473,0
1542908911.661,-179.688,56.152,104.004,-188.477,85.449,0
1542908911.665,-186.523,65.430,106.934,-208.984,51.758,0
1542908911.669,-220.703,67.871,107.910,-226.074,55.664,0
1542908911.673,-227.539,76.660,106.445,-217.773,98.633,0
1542908911.677,-213.379,87.402,109.863,-212.402,79.590,0
1542908911.681,-209.961,86.426,100.098,-224.121,45.410,0
1542908911.685,-171.387,83.008,90.820,-211.914,5.371,0
1542908911.688,-151.367,77.148,90.332,-188.477,16.113,0
1542908911.692,-146.484,68.359,87.891,-160.156,25.879,0
1542908911.696,-114.258,56.152,77.148,-120.117,50.781,0
1542908911.700,-107.910,43.457,62.988,-101.074,45.898,0
1542908911.704,-91.797,43.945,54.199,-94.727,39.062,0
1542908911.708,-64.453,46.875,47.363,-85.449,12.695,0
1542908911.712,-52.734,40.039,37.598,-73.242,21.484,0
1542908911.716,-26.367,31.738,28.320,-57.617,52.246,0
1542908911.720,0.000,23.438,24.902,-36.133,22.461,0
1542908911.724,-0.488,15.625,25.391,-17.090,-27.344,0
1542908911.727,10.254,13.672,25.879,6.836,-6.836,0
1542908911.731,41.016,15.625,20.020,33.691,97.168,0
1542908911.735,69.336,20.508,15.625,41.016,77.637,0
1542908911.739,62.988,21.973,16.113,51.270,31.250,0
1542908911.743,40.039,15.625,17.090,64.453,35.645,0
1542908911.747,47.363,15.137,18.066,62.988,65.430,0
1542908911.751,65.430,16.113,16.113,59.082,58.105,0
1542908911.755,88.867,6.348,16.113,64.453,44.922,0
1542908911.759,97.656,0.977,16.602,93.262,37.598,0
1542908911.763,69.336,2.930,13.672,84.473,41.504,0
1542908911.767,58.594,2.930,14.160,73.730,48.340,0
1542908911.770,74.707,7.812,10.254,83.008,62.012,0
1542908911.774,70.801,10.254,4.395,80.566,59.570,0
1542908911.778,78.613,8.789,2.441,75.195,7.812,0
1542908911.782,77.637,8.789,2.441,82.520,-15.137,0
1542908911.786,69.336,11.230,2.930,90.820,6.348,0
1542908911.790,86.914,11.230,6.348,105.469,18.555,0
1542908911.794,88.379,8.789,7.812,119.141,-5.859,0
1542908911.798,76.172,11.230,8.301,101.562,19.043,0
1542908911.802,79.590,7.324,10.254,84.961,48.828,0
1542908911.806,89.844,10.742,7.324,84.961,74.707,0
1542908911.810,90.820,17.090,3.906,84.473,72.754,0
1542908911.813,100.586,15.137,5.859,94.727,40.039,0
1542908911.817,105.957,12.695,8.789,102.539,57.129,0
1542908911.821,111.816,17.578,11.230,102.051,99.609,0
1542908911.825,113.281,19.531,9.766,107.422,68.848,0
1542908911.829,96.191,18.066,16.113,96.191,31.250,0
1542908911.833,94.238,17.578,16.602,90.820,16.602,0
1542908911.837,90.820,10.742,12.207,96.680,30.762,0
1542908911.841,78.125,9.766,11.230,95.215,5.371,0
1542908911.845,76.660,16.113,10.742,102.539,-35.156,0
1542908911.849,67.871,16.602,12.695,106.445,-4.395,0
1542908911.852,71.777,13.672,13.184,89.844,0.977,0
1542908911.856,79.590,14.648,14.648,81.055,20.996,0
1542908911.860,75.195,16.602,16.602,91.309,41.016,0
1542908911.864,83.496,19.043,18.066,84.473,-20.020,0
1542908911.868,101.074,23.926,20.020,76.660,-3.906,0
1542908911.872,102.539,20.996,20.996,88.379,1.465,0
1542908911.876,83.008,15.137,19.531,78.125,-45.898,0
1542908911.880,56.152,20.508,12.695,66.406,-45.410,0
1542908911.884,57.129,26.367,10.742,68.359,52.734,0
1542908911.888,63.477,20.996,18.066,69.336,102.051,0
1542908911.892,55.176,16.113,20.996,66.406,-2.930,0
1542908911.895,50.781,16.113,19.043,60.059,34.180,0
1542908911.899,49.316,17.090,20.508,61.523,41.992,0
1542908911.903,49.316,16.602,22.461,60.547,-3.418,0
1542908911.907,53.711,16.113,19.043,54.199,35.645,0
1542908911.911,57.617,16.602,20.508,58.594,18.555,0
1542908911.915,64.941,16.602,24.414,65.918,30.762,0
1542908911.919,70.801,18.066,20.020,61.035,36.621,0
1542908911.923,71.777,21.973,18.555,63.477,79.102,0
1542908911.927,74.219,19.043,27.344,81.543,96.191,0
1542908911.931,70.312,15.137,33.203,82.031,13.672,0
1542908911.935,67.871,20.508,28.320,81.055,-24.902,0
1542908911.938,61.035,21.484,25.391,71.289,-39.062,0
1542908911.942,69.336,15.137,22.949,50.293,14.648,0
1542908911.946,82.520,17.578,21.973,46.387,47.363,0
1542908911.950,62.500,19.531,25.879,36.133,18.555,0
1542908911.954,43.945,21.484,30.273,28.809,27.832,0
1542908911.958,52.734,31.250,28.809,48.340,-17.090,0
1542908911.962,58.594,31.250,26.855,62.988,16.113,0
1542908911.966,77.148,24.414,32.227,52.734,67.871,0
1542908911.970,83.496,21.484,30.762,36.621,11.719,0
1542908911.974,49.805,20.020,27.344,34.180,22.461,0
1542908911.977,41.016,20.996,24.902,44.922,78.613,0
1542908911.981,59.570,28.320,25.879,56.641,24.414,0
1542908911.985,61.523,27.832,27.344,51.758,52.734,0
1542908911.989,59.570,25.879,25.391,53.711,87.402,0
1542908911.993,54.688,32.227,29.785,30.762,66.406,0
1542908911.997,54.199,29.785,22.949,19.531,84.473,0
1542908912.001,81.543,25.879,18.066,56.152,54.688,0
1542908912.005,79.102,30.273,21.484,56.152,79.590,0
1542908912.009,57.617,31.250,25.391,56.152,119.141,0
1542908912.013,62.012,29.297,27.344,68.848,96.680,0
1542908912.017,56.152,32.715,25.879,42.969,57.129,0
1542908912.020,52.734,34.668,26.855,45.898,60.059,0
1542908912.024,55.664,28.320,30.273,74.707,84.961,0
1542908912.028,67.383,22.949,32.715,66.406,81.543,0
1542908912.032,88.867,26.855,32.715,40.039,76.660,0
1542908912.036,82.520,31.250,30.762,28.809,26.367,0
1542908912.040,67.871,31.250,27.832,39.062,14.648,0
1542908912.044,70.312,27.832,25.391,51.758,36.621,0
1542908912.048,73.242,30.762,26.367,55.664,28.320,0
1542908912.052,79.590,33.691,28.809,56.641,-0.488,0
1542908912.056,67.871,33.691,30.273,49.805,0.977,0
1542908912.060,57.129,31.738,30.273,46.875,56.152,0
1542908912.063,60.547,29.785,29.785,43.945,4.883,0
1542908912.067,54.688,26.367,28.809,38.574,-40.527,0
1542908912.071,74.707,26.367,27.344,49.316,-27.344,0
1542908912.075,81.055,27.344,31.250,59.082,-21.484,0
1542908912.079,60.547,27.344,28.809,45.898,13.672,0
1542908912.083,50.293,23.926,22.949,42.969,23.438,0
1542908912.087,37.598,24.414,23.926,53.223,24.414,0
1542908912.091,36.133,27.344,26.367,34.668,37.598,0
1542908912.095,48.340,25.391,24.902,28.809,-2.441,0
1542908912.099,56.641,30.762,22.949,31.738,-5.371,0
1542908912.102,44.922,30.273,27.832,30.762,-22.949,0
1542908912.106,43.945,22.461,30.273,44.922,-46.387,0
1542908912.110,44.434,21.973,29.297,43.945,-21.973,0
1542908912.114,37.598,21.484,32.227,39.551,5.371,0
1542908912.118,36.133,22.949,29.785,33.203,28.809,0
1542908912.122,42.480,25.879,29.785,33.203,41.992,0
1542908912.126,49.316,26.855,34.180,41.504,55.176,0
1542908912.130,52.246,28.809,36.133,63.965,79.102,0
1542908912.134,45.410,27.344,30.273,78.613,80.566,0
1542908912.138,51.758,28.320,20.508,55.176,4.883,0
1542908912.142,58.594,28.809,27.832,61.523,27.832,0
1542908912.145,34.668,16.113,37.598,59.570,100.098,0
1542908912.149,22.461,14.160,39.062,63.965,54.688,0
1542908912.153,36.133,20.996,41.992,97.656,44.922,0
1542908912.157,40.527,24.902,44.434,120.605,60.059,0
1542908912.161,22.949,24.902,44.434,142.090,25.391,0
1542908912.165,16.602,15.137,43.457,155.273,4.883,0
1542908912.169,16.113,10.254,43.457,164.062,11.230,0
1542908912.173,6.836,15.137,44.922,168.945,43.945,0
1542908912.177,7.812,19.531,45.410,169.434,55.176,0
1542908912.181,18.066,20.996,39.062,171.387,50.293,0
1542908912.185,32.715,19.531,40.527,183.594,65.430,0
1542908912.188,36.621,17.578,43.945,195.801,47.852,0
1542908912.192,27.344,20.996,41.016,197.754,51.758,0
1542908912.196,31.250,24.902,41.016,204.102,71.777,0
1542908912.200,51.270,24.902,42.480,205.078,48.340,0
1542908912.204,50.293,21.484,40.039,210.449,20.508,0
1542908912.208,61.523,24.902,40.039,233.887,-6.348,0
1542908912.212,69.824,27.832,41.992,241.699,-17.090,0
1542908912.216,42.480,25.391,41.504,229.004,-6.348,0
1542908912.220,34.180,23.926,41.504,187.012,-2.930,0
1542908912.224,32.227,24.902,40.527,164.551,6.348,0
1542908912.227,36.133,25.391,40.039,184.570,-20.996,0
1542908912.231,43.457,25.391,41.016,191.406,29.785,0
1542908912.235,44.922,28.809,41.016,181.152,81.055,0
1542908912.239,41.992,37.109,41.016,179.688,54.688,0
1542908912.243,36.133,34.668,39.551,185.059,36.621,0
1542908912.247,42.969,28.320,33.691,192.871,-1.465,0
1542908912.251,52.246,31.738,34.668,201.660,-29.785,0
1542908912.255,46.875,32.227,37.598,194.336,-40.039,0
1542908912.259,42.480,31.250,41.992,189.453,-29.785,0
1542908912.263,53.223,29.297,39.062,175.293,11.719,0
1542908912.267,62.012,34.180,30.762,168.457,15.625,0
1542908912.270,46.875,34.668,27.344,165.527,46.387,0
1542908912.274,37.109,27.832,28.320,160.156,45.410,0
1542908912.278,31.738,32.715,28.809,159.668,0.977,0
1542908912.282,20.508,34.668,29.785,157.227,14.648,0
1542908912.286,22.461,31.738,34.668,170.410,27.832,0
1542908912.290,30.273,33.203,36.621,174.316,27.832,0
1542908912.294,33.203,28.809,34.668,163.574,-0.488,0
1542908912.298,38.086,24.902,32.715,161.133,48.828,0
1542908912.302,36.133,25.879,31.250,163.574,56.641,0
1542908912.306,28.809,25.879,34.180,165.039,24.902,0
1542908912.310,32.715,29.297,34.180,157.227,11.230,0
1542908912.313,32.715,32.715,31.738,149.414,7.324,0
1542908912.317,32.227,32.227,33.691,152.344,30.273,0
1542908912.321,36.621,29.785,32.715,139.648,70.801,0
1542908912.325,22.949,29.297,31.250,141.602,61.035,0
1542908912.329,14.160,32.227,34.180,158.203,85.938,0
1542908912.333,28.809,30.273,39.062,142.090,68.359,0
1542908912.337,32.715,26.367,36.133,123.047,-47.363,0
1542908912.341,22.461,27.344,29.785,128.418,7.324,0
1542908912.345,16.113,24.902,32.227,140.137,66.406,0
1542908912.349,10.742,22.461,32.227,114.746,44.434,0
1542908912.352,22.461,22.461,31.250,94.727,48.828,0
1542908912.356,20.020,20.508,34.668,96.191,44.922,0
1542908912.360,11.719,18.066,33.691,100.098,47.852,0
1542908912.364,20.508,15.137,34.180,109.863,58.594,0
1542908912.368,25.391,10.742,36.133,122.070,-26.855,0
1542908912.372,31.250,13.672,38.086,135.254,-4.395,0
1542908912.376,33.691,22.949,35.645,126.953,61.523,0
1542908912.380,57.129,21.973,31.250,133.301,54.688,0
1542908912.384,62.500,15.625,27.832,149.414,74.707,0
1542908912.388,44.434,10.742,21.484,146.484,68.359,0
1542908912.392,55.176,10.742,17.090,151.855,14.160,0
1542908912.395,72.266,10.254,17.578,154.297,16.113,0
1542908912.399,82.520,11.719,16.113,148.438,56.641,0
1542908912.403,100.098,12.207,15.625,154.297,53.711,0
1542908912.407,112.793,11.719,13.184,171.875,52.246,0
1542908912.411,125.488,16.113,10.742,181.152,83.496,0
1542908912.415,120.605,20.508,9.277,188.965,75.684,0
1542908912.419,95.215,20.996,9.766,172.852,87.891,0
1542908912.423,97.168,17.578,11.719,161.621,66.895,0
1542908912.427,114.258,18.066,9.277,171.875,-19.043,0
1542908912.431,124.023,22.461,6.836,184.570,3.906,0
1542908912.435,129.883,25.879,7.812,170.410,47.852,0
1542908912.438,123.535,26.367,11.230,143.066,63.477,0
1542908912.442,106.934,22.949,13.184,141.602,54.199,0
1542908912.446,96.191,23.926,13.672,141.602,30.273,0
1542908912.450,88.379,26.855,16.113,151.367,50.293,0
1542908912.454,81.055,25.391,20.020,137.695,-2.930,0
1542908912.458,97.656,27.344,19.531,120.117,5.371,0
1542908912.462,106.934,26.367,20.996,135.254,66.895,0
1542908912.466,115.234,25.879,24.414,128.418,58.594,0
1542908912.470,133.301,34.668,23.926,114.746,61.523,0
1542908912.474,114.258,35.156,24.414,123.535,48.340,0
1542908912.477,87.402,31.738,24.902,118.164,24.902,0
1542908912.481,91.797,32.715,22.461,119.629,48.340,0
1542908912.485,87.891,35.156,23.438,132.812,32.715,0
1542908912.489,79.590,34.180,30.762,135.742,-31.250,0
1542908912.493,77.148,32.227,34.668,141.602,-44.434,0
1542908912.497,86.426,34.180,32.715,147.461,-27.344,0
1542908912.501,92.285,37.109,26.367,126.465,49.316,0
1542908912.505,96.191,36.621,24.902,124.023,24.414,0
1542908912.509,94.238,32.715,24.902,120.117,-56.152,0
1542908912.513,83.496,30.273,27.344,113.281,-28.809,0
1542908912.517,81.543,33.691,32.227,132.324,-0.488,0
1542908912.520,84.473,37.598,28.809,136.719,19.043,0
1542908912.524,75.195,35.645,22.949,112.793,25.391,0
1542908912.528,73.242,34.180,21.973,93.262,70.312,0
1542908912.532,77.148,31.250,23.438,98.633,61.035,0
1542908912.536,79.590,26.855,21.973,114.258,12.207,0
1542908912.540,117.188,20.996,21.973,137.695,28.809,0
1542908912.544,118.652,25.879,26.367,127.441,82.520,0
1542908912.548,57.617,35.156,25.391,66.895,57.617,0
1542908912.552,38.574,37.598,25.879,20.996,14.160,0
1542908912.556,33.203,27.344,27.832,17.578,18.555,0
1542908912.560,10.254,31.738,23.438,12.207,37.109,0
1542908912.563,-32.715,41.992,20.508,3.418,22.949,0
1542908912.567,-73.242,38.086,20.996,-18.555,12.207,0
1542908912.571,-74.707,41.016,23.926,-45.410,54.199,0
1542908912.575,-81.543,36.621,28.320,-77.148,-20.508,0
1542908912.579,-54.199,30.762,33.691,-97.168,-73.730,0
1542908912.583,-50.293,27.344,34.668,-86.426,3.906,0
1542908912.587,-93.750,28.320,33.203,-83.984,3.418,0
1542908912.591,-108.887,35.645,32.227,-103.516,13.184,0
1542908912.595,-88.867,36.133,30.273,-89.844,16.602,0
1542908912.599,-73.242,27.832,32.227,-72.754,-4.883,0
1542908912.602,-97.656,22.461,30.273,-92.773,23.926,0
1542908912.606,-105.469,24.414,27.832,-78.613,-4.395,0
1542908912.610,-90.332,27.344,23.926,-61.035,-4.883,0
1542908912.614,-68.848,26.855,20.508,-68.848,23.926,0
1542908912.618,-59.570,27.344,20.020,-55.176,31.738,0
1542908912.622,-48.828,33.691,24.902,-25.879,106.445,0
1542908912.626,-43.945,33.691,29.785,-1.953,94.238,0
1542908912.630,-47.363,25.879,30.273,-8.301,113.281,0
1542908912.634,-37.598,23.926,34.180,-10.254,121.582,0
1542908912.638,-18.555,27.344,35.645,-12.207,24.414,0
1542908912.642,-28.809,26.855,32.715,-13.184,39.551,0
1542908912.645,-38.574,25.391,31.738,3.418,55.664,0
1542908912.649,-22.461,26.855,32.227,3.906,-47.363,0
1542908912.653,-13.184,25.391,29.297,7.324,-15.137,0
1542908912.657,-5.371,23.926,31.738,9.766,53.223,0
1542908912.661,-14.160,24.902,30.273,6.836,53.223,0
1542908912.665,-10.742,27.832,24.902,15.625,63.477,0
1542908912.669,5.859,28.809,28.809,31.250,72.754,0
1542908912.673,6.836,33.203,34.180,30.273,76.660,0
1542908912.677,0.000,35.156,34.180,25.391,98.633,0
1542908912.681,3.906,30.273,36.621,35.645,80.078,0
1542908912.685,10.254,33.691,43.457,42.969,30.273,0
1542908912.688,14.160,35.156,44.434,47.363,13.184,0
1542908912.692,27.832,30.762,37.598,45.410,20.508,0
1542908912.696,39.551,33.691,33.203,55.664,23.926,0
1542908912.700,33.691,28.320,31.738,81.543,59.082,0
1542908912.704,23.438,28.320,29.785,82.031,-17.578,0
1542908912.708,16.113,35.156,30.762,50.781,15.137,0
1542908912.712,25.879,29.297,31.738,31.250,63.477,0
1542908912.716,32.227,29.785,32.715,26.855,13.184,0
1542908912.720,37.109,35.156,33.203,27.832,10.742,0
1542908912.724,20.508,34.668,36.133,26.367,-14.160,0
1542908912.727,6.836,31.738,34.668,26.855,28.809,0
1542908912.731,17.090,28.809,31.738,42.480,58.594,0
1542908912.735,16.113,23.926,28.809,45.898,55.176,0
1542908912.739,12.207,21.484,25.879,38.574,24.902,0
1542908912.743,12.207,22.949,32.227,30.273,24.902,0
1542908912.747,20.996,26.855,33.691,26.855,21.973,0
1542908912.751,19.043,31.250,32.227,31.738,45.410,0
1542908912.755,20.996,28.320,33.691,39.551,69.336,0
1542908912.759,27.832,28.320,36.621,53.711,54.199,0
1542908912.763,19.043,31.738,35.645,42.969,45.410,0
1542908912.767,20.020,34.180,29.785,24.414,28.320,0
1542908912.770,24.414,30.762,30.273,27.832,22.461,0
1542908912.774,26.855,27.344,32.227,41.016,42.969,0
1542908912.778,31.250,28.320,33.203,41.016,28.809,0
1542908912.782,39.551,27.832,34.180,40.039,40.527,0
1542908912.786,35.156,24.414,36.621,46.875,21.973,0
1542908912.790,51.270,26.367,39.062,52.246,-5.371,0
1542908912.794,55.176,36.133,35.645,54.688,32.715,0
1542908912.798,51.270,38.086,28.809,52.734,49.316,0
1542908912.802,46.387,27.832,26.367,52.246,-39.062,0
1542908912.806,24.414,23.438,29.785,47.363,-83.984,0
1542908912.810,31.250,27.832,29.297,44.922,10.254,0
1542908912.813,42.969,27.832,28.809,51.758,51.270,0
1542908912.817,50.293,26.367,33.691,37.598,25.391,0
1542908912.821,61.523,22.461,35.156,52.246,9.277,0
1542908912.825,57.129,21.484,34.180,59.570,-30.762,0
1542908912.829,42.480,18.066,30.273,44.434,-73.730,0
1542908912.833,40.039,20.020,31.250,50.293,-74.707,0
1542908912.837,52.246,31.250,33.203,37.598,-30.273,0
1542908912.841,58.105,33.691,29.785,35.156,15.625,0
1542908912.845,51.270,33.691,28.809,50.293,13.672,0
1542908912.849,38.574,31.250,29.297,56.641,44.434,0
1542908912.852,40.527,29.785,32.227,35.156,32.227,0
1542908912.856,63.477,31.250,32.715,40.039,1.465,0
1542908912.860,45.898,31.250,28.320,51.270,34.668,0
1542908912.864,25.879,25.391,27.344,45.410,76.660,0
1542908912.868,34.668,21.484,30.762,57.129,49.316,0
1542908912.872,41.992,26.367,32.715,58.594,47.363,0
1542908912.876,47.852,30.762,31.738,45.898,63.477,0
1542908912.880,38.086,28.320,30.273,42.480,94.238,0
1542908912.884,27.832,24.414,32.715,49.316,62.500,0
1542908912.888,37.109,24.902,31.250,60.059,33.203,0
1542908912.892,29.785,23.438,25.879,71.777,30.273,0
1542908912.895,23.438,24.414,25.391,58.105,5.371,0
1542908912.899,30.762,20.020,27.832,49.805,13.184,0
1542908912.903,46.875,15.137,33.691,69.336,8.789,0
1542908912.907,44.434,26.855,35.156,59.082,-11.230,0
1542908912.911,33.203,33.691,28.809,49.316,9.277,0
1542908912.915,38.086,22.949,25.879,69.336,45.898,0
1542908912.919,43.457,20.020,25.391,80.566,33.691,0
1542908912.923,47.363,21.973,28.320,68.359,36.133,0
1542908912.927,48.340,26.855,32.715,60.547,25.391,0
1542908912.931,38.086,29.297,35.645,62.012,12.207,0
1542908912.935,15.137,25.391,35.156,56.152,5.859,0
1542908912.938,21.484,27.832,33.203,75.195,-7.324,0
1542908912.942,33.691,27.832,34.668,73.242,20.508,0
1542908912.946,21.973,25.879,33.203,63.965,28.809,0
1542908912.950,19.531,29.785,27.832,68.848,21.484,0
1542908912.954,26.855,28.809,26.855,56.641,27.344,0
1542908912.958,28.320,26.367,29.297,62.012,53.711,0
1542908912.962,26.855,28.809,27.832,58.105,68.848,0
1542908912.966,32.227,29.785,29.297,41.504,24.902,0
1542908912.970,27.344,28.320,28.809,51.270,27.832,0
1542908912.974,34.180,28.320,24.414,62.988,48.340,0
1542908912.977,41.992,28.320,22.949,58.594,53.711,0
1542908912.981,36.133,24.902,30.273,77.148,57.129,0
1542908912.985,26.855,26.367,33.691,69.336,39.551,0
1542908912.989,15.625,27.832,29.785,44.434,16.113,0
1542908912.993,9.277,23.926,24.414,53.711,35.156,0
1542908912.997,16.113,20.996,24.902,59.082,53.711,0
1542908913.001,22.949,18.066,29.785,68.848,74.707,0
1542908913.005,26.855,17.578,32.715,80.566,26.367,0
1542908913.009,21.973,23.438,32.715,68.848,8.301,0
1542908913.013,20.020,26.367,28.809,56.152,16.602,0
1542908913.017,20.020,22.461,26.367,61.035,11.230,0
1542908913.020,17.578,20.020,26.367,63.965,60.059,0
1542908913.024,22.461,23.926,23.438,47.852,44.434,0
1542908913.028,18.555,22.949,20.996,49.805,13.672,0
1542908913.032,11.719,24.414,23.438,49.316,-12.695,0
1542908913.036,19.531,28.809,23.438,40.039,10.742,0
1542908913.040,15.625,27.832,24.902,46.875,42.480,0
1542908913.044,24.414,25.879,27.832,45.410,32.715,0
1542908913.048,44.434,25.879,24.902,33.691,20.508,0
1542908913.052,17.090,27.832,24.414,42.969,27.832,0
1542908913.056,2.441,29.297,31.250,50.293,23.438,0
1542908913.060,16.602,27.832,36.621,34.668,-6.836,0
1542908913.063,21.973,24.902,34.180,37.598,20.020,0
1542908913.067,14.648,26.855,33.691,47.852,62.988,0
1542908913.071,11.230,29.297,30.273,50.293,118.164,0
1542908913.075,29.785,31.738,24.414,54.199,66.895,0
1542908913.079,29.297,27.832,26.855,39.551,-6.836,0
1542908913.083,17.090,20.508,27.832,19.043,34.180,0
1542908913.087,19.531,23.926,28.320,33.691,20.508,0
1542908913.091,29.297,28.320,27.832,38.086,41.992,0
1542908913.095,17.578,28.320,25.391,25.391,62.012,0
1542908913.099,11.719,24.902,25.879,33.203,51.270,0
1542908913.102,34.180,27.832,30.762,43.457,93.750,0
1542908913.106,36.621,36.133,34.180,43.457,129.395,0
1542908913.110,33.691,33.203,32.227,47.363,42.969,0
1542908913.114,43.457,34.180,33.691,48.828,-11.230,0
1542908913.118,45.898,33.691,35.645,46.875,58.594,0
1542908913.122,24.414,29.297,34.180,59.082,46.875,0
1542908913.126,34.180,26.855,35.645,73.242,-43.457,0
1542908913.130,44.434,28.809,35.156,62.012,-20.508,0
1542908913.134,32.227,33.203,32.715,49.805,50.293,0
1542908913.138,45.898,33.203,34.668,62.500,85.938,0
1542908913.142,44.434,31.250,34.668,61.035,58.105,0
1542908913.145,38.086,27.344,34.180,49.316,26.855,0
1542908913.149,51.270,24.902,36.133,70.801,43.945,0
1542908913.153,50.781,25.879,34.668,77.148,-0.488,0
1542908913.157,44.434,27.344,27.832,54.688,6.836,0
1542908913.161,43.945,24.414,24.902,42.480,3.418,0
1542908913.165,52.734,18.555,30.762,55.664,10.742,0
1542908913.169,45.898,18.066,34.668,65.430,-25.879,0
1542908913.173,32.715,23.926,34.180,62.500,-33.691,0
1542908913.177,45.898,29.297,34.668,59.570,49.805,0
1542908913.181,44.922,29.297,33.691,57.129,80.566,0
1542908913.185,37.109,28.320,29.297,59.570,50.293,0
1542908913.188,28.809,23.926,27.344,61.035,0.977,0
1542908913.192,15.137,20.508,29.785,65.430,29.785,0
1542908913.196,21.973,21.484,32.227,64.941,-3.418,0
1542908913.200,42.480,21.973,36.133,67.383,8.301,0
1542908913.204,35.645,24.414,38.086,62.988,36.133,0
1542908913.208,19.531,19.531,39.551,61.035,2.441,0
1542908913.212,21.484,13.672,36.133,66.406,12.695,0
1542908913.216,20.996,14.160,29.785,48.340,39.551,0
1542908913.220,33.691,14.160,31.250,44.434,-0.977,0
1542908913.224,39.551,17.090,34.180,62.500,16.602,0
1542908913.227,24.902,17.578,36.621,62.012,15.625,0
1542908913.231,23.438,16.602,39.551,63.477,-30.273,0
1542908913.235,24.902,20.508,36.621,56.641,6.348,0
1542908913.239,25.391,22.461,33.691,47.363,-6.348,0
1542908913.243,24.414,24.414,35.645,44.434,16.602,0
1542908913.247,29.297,26.855,32.227,52.246,57.129,0
1542908913.251,36.133,27.344,29.785,62.012,67.383,0
1542908913.255,28.809,24.414,31.738,48.340,70.801,0
1542908913.259,29.785,25.879,28.320,37.598,78.125,0
1542908913.263,20.996,34.180,28.320,42.969,14.160,0
1542908913.267,7.324,37.598,32.227,52.246,-50.293,0
1542908913.270,12.207,32.715,33.691,43.945,34.180,0
1542908913.274,17.090,28.809,32.715,37.109,79.590,0
1542908913.278,21.484,29.297,35.645,47.363,9.277,0
1542908913.282,31.250,29.785,35.645,56.152,9.277,0
1542908913.286,31.738,25.879,31.738,59.082,13.672,0
1542908913.290,25.879,28.320,29.297,43.945,-14.160,0
1542908913.294,28.320,31.250,31.250,41.016,53.223,0
1542908913.298,34.180,29.785,31.738,46.387,56.152,0
1542908913.302,40.527,26.855,31.250,48.828,15.137,0
1542908913.306,37.598,23.438,31.250,54.688,31.250,0
1542908913.310,28.809,28.320,27.832,64.941,7.812,0
1542908913.313,32.715,28.809,29.297,60.547,4.883,0
1542908913.317,43.945,27.344,31.738,65.430,31.738,0
1542908913.321,41.016,32.715,31.250,63.965,37.598,0
1542908913.325,26.367,34.668,30.273,34.668,41.504,0
1542908913.329,14.648,29.297,31.738,28.320,92.285,0
1542908913.333,26.855,26.367,28.809,36.133,73.730,0
1542908913.337,38.574,26.855,27.832,45.898,26.367,0
1542908913.341,34.180,26.855,30.273,59.082,26.855,0
1542908913.345,35.645,24.414,28.809,40.039,90.820,0
1542908913.349,27.832,24.902,32.715,25.879,53.223,0
1542908913.352,17.090,32.227,30.273,37.109,37.598,0
1542908913.356,20.996,37.598,26.367,50.293,60.059,0
1542908913.360,33.691,37.109,33.203,55.176,38.086,0
1542908913.364,28.809,35.156,37.598,42.969,47.852,0
1542908913.368,23.926,32.227,36.621,35.645,59.570,0
1542908913.372,30.762,29.297,33.691,46.387,68.359,0
1542908913.376,25.879,29.297,35.645,46.387,40.039,0
1542908913.380,9.277,29.297,38.086,42.969,28.320,0
1542908913.384,8.789,30.762,35.156,51.270,37.598,0
1542908913.388,15.625,30.762,31.738,43.457,14.160,0
1542908913.392,6.836,29.297,25.391,42.969,13.672,0
1542908913.395,-1.465,28.320,26.367,50.293,24.414,0
1542908913.399,3.906,24.414,32.715,43.945,31.250,0
1542908913.403,18.555,21.973,30.273,38.574,35.645,0
1542908913.407,16.113,25.391,31.250,56.641,60.059,0
1542908913.411,13.672,28.320,40.527,48.828,103.027,0
1542908913.415,20.996,33.203,46.875,36.133,99.121,0
1542908913.419,13.672,31.738,43.457,37.598,11.230,0
1542908913.423,9.766,28.320,29.785,33.691,-5.371,0
