timestamps,TP9,AF7,AF8,TP10,Right AUX,Marker0
1553635511.644,-0.977,23.926,30.762,38.086,73.730,0
1553635511.648,20.996,19.531,32.227,3.418,-11.230,0
1553635511.652,36.133,14.648,38.086,0.977,34.668,0
1553635511.656,47.363,24.414,32.715,29.785,39.551,0
1553635511.660,30.273,30.762,29.785,26.367,-5.859,0
1553635511.664,21.484,32.227,27.832,37.109,1.465,0
1553635511.668,20.508,34.668,21.973,-5.371,65.430,0
1553635511.672,14.160,33.691,21.484,-41.504,109.863,0
1553635511.676,19.531,45.410,16.113,9.766,18.555,0
1553635511.679,7.324,52.246,10.742,13.184,-15.625,0
1553635511.683,10.254,52.246,5.859,20.020,71.289,0
1553635511.687,38.574,54.688,2.441,-2.930,103.516,0
1553635511.691,36.621,50.293,5.371,12.695,21.484,0
1553635511.695,10.742,42.969,13.672,20.996,5.371,0
1553635511.699,5.371,39.062,18.066,10.742,46.875,0
1553635511.703,28.809,42.969,15.137,51.758,14.160,0
1553635511.707,50.781,44.434,14.648,43.945,-2.930,0
1553635511.711,59.570,37.109,18.066,31.250,-15.137,0
1553635511.715,47.852,36.133,20.020,11.719,-30.273,0
1553635511.719,26.855,44.434,22.461,22.949,-1.465,0
1553635511.722,39.551,44.922,20.996,32.715,-5.859,0
1553635511.726,44.434,43.457,19.043,23.438,-11.230,0
1553635511.730,47.852,44.434,21.973,37.109,33.203,0
1553635511.734,47.363,44.922,19.531,51.270,47.363,0
1553635511.738,63.477,42.969,16.602,34.180,18.066,0
1553635511.742,68.848,37.109,21.484,61.035,3.906,0
1553635511.746,60.547,36.621,21.973,79.590,40.527,0
1553635511.750,51.758,41.016,14.160,33.203,79.102,0
1553635511.754,30.762,39.551,19.043,43.457,32.715,0
1553635511.758,27.832,28.320,29.297,41.504,33.691,0
1553635511.761,32.715,28.809,28.809,6.836,43.457,0
1553635511.765,23.438,37.109,23.926,28.320,-8.789,0
1553635511.769,40.527,39.551,21.484,65.918,0.977,0
1553635511.773,54.199,36.621,24.414,27.832,20.508,0
1553635511.777,33.203,34.180,23.438,36.133,-22.461,0
1553635511.781,32.715,36.133,22.949,55.664,0.488,0
1553635511.785,31.250,30.762,30.762,8.789,46.875,0
1553635511.789,45.410,29.297,33.203,35.645,43.457,0
1553635511.793,41.992,33.203,30.273,51.758,67.383,0
1553635511.797,9.766,31.738,26.855,24.414,41.992,0
1553635511.801,17.578,29.297,25.391,19.043,25.879,0
1553635511.804,55.664,25.879,25.391,21.973,32.715,0
1553635511.808,36.133,26.367,24.902,48.828,74.219,0
1553635511.812,26.367,30.273,28.320,45.898,73.242,0
1553635511.816,31.738,28.320,31.250,61.035,21.484,0
1553635511.820,30.762,22.949,31.250,63.965,-30.273,0
1553635511.824,28.320,28.809,28.809,29.297,-31.738,0
1553635511.828,39.062,29.785,26.367,41.992,35.645,0
1553635511.832,35.156,25.879,27.832,51.270,45.898,0
1553635511.836,18.066,24.902,24.414,59.082,-14.648,0
1553635511.840,25.391,25.391,23.438,43.457,-13.184,0
1553635511.844,14.160,30.273,26.367,20.508,82.520,0
1553635511.847,18.066,29.297,24.902,17.090,74.219,0
1553635511.851,43.457,29.297,23.926,22.949,83.496,0
1553635511.855,35.645,29.297,26.367,47.363,94.238,0
1553635511.859,32.227,32.715,25.879,41.504,49.316,0
1553635511.863,29.297,29.785,27.344,58.594,54.199,0
1553635511.867,16.602,29.785,30.273,14.160,61.523,0
1553635511.871,17.090,40.039,28.809,-11.719,9.277,0
1553635511.875,42.969,39.062,23.926,44.434,19.043,0
1553635511.879,38.574,31.250,27.832,58.105,68.848,0
1553635511.883,43.945,25.391,39.062,38.086,-12.207,0
1553635511.886,27.344,19.043,41.504,40.527,4.883,0
1553635511.890,14.160,14.160,37.598,59.082,60.059,0
1553635511.894,19.531,11.719,40.039,19.043,97.656,0
1553635511.898,9.766,10.254,41.504,27.344,91.797,0
1553635511.902,20.020,12.695,39.062,48.828,24.902,0
1553635511.906,24.902,5.371,45.410,32.715,-16.113,0
1553635511.910,40.039,1.465,47.363,8.789,-22.949,0
1553635511.914,31.738,9.766,47.363,57.617,14.648,0
1553635511.918,7.812,14.160,47.363,84.961,45.410,0
1553635511.922,6.836,12.695,42.969,32.715,58.105,0
1553635511.926,24.902,13.184,39.062,13.672,30.273,0
1553635511.929,12.207,19.043,36.133,23.438,62.988,0
1553635511.933,16.113,20.020,41.504,40.527,75.684,0
1553635511.937,22.461,15.137,46.387,56.152,13.672,0
1553635511.941,25.879,17.578,43.945,77.637,50.781,0
1553635511.945,32.715,19.043,41.016,64.941,20.996,0
1553635511.949,32.227,18.066,41.504,26.367,2.930,0
1553635511.953,31.738,19.043,40.039,20.996,40.527,0
1553635511.957,28.320,20.996,36.621,20.020,51.270,0
1553635511.961,28.320,21.973,39.062,35.645,54.199,0
1553635511.965,24.414,24.414,36.621,48.340,61.523,0
1553635511.969,12.695,22.461,38.574,46.387,22.949,0
1553635511.972,8.301,22.461,41.504,28.809,-12.207,0
1553635511.976,23.926,29.785,38.086,23.438,-3.418,0
1553635511.980,44.922,26.855,41.992,26.855,31.738,0
1553635511.984,26.367,22.461,42.969,51.758,4.883,0
1553635511.988,15.625,24.414,37.109,40.527,-30.762,0
1553635511.992,43.457,22.949,37.598,40.039,-1.953,0
1553635511.996,43.945,20.508,41.504,66.406,-3.418,0
1553635512.000,42.969,20.020,43.457,70.801,46.387,0
1553635512.004,34.668,21.973,41.504,59.570,30.762,0
1553635512.008,13.184,27.344,39.551,37.598,-16.113,0
1553635512.011,27.832,23.438,41.504,53.711,51.270,0
1553635512.015,35.156,17.578,43.457,51.758,73.242,0
1553635512.019,10.742,19.531,40.039,40.039,-20.996,0
1553635512.023,-7.812,22.949,39.551,45.898,-5.371,0
1553635512.027,20.020,24.902,40.527,37.598,50.781,0
1553635512.031,32.715,24.902,41.016,43.457,46.875,0
1553635512.035,22.949,22.949,38.574,24.902,47.363,0
1553635512.039,13.672,22.949,30.762,-0.488,37.109,0
1553635512.043,-0.977,21.484,30.273,22.949,30.273,0
1553635512.047,25.391,25.391,30.273,14.160,53.711,0
1553635512.051,41.504,32.227,23.438,57.129,37.598,0
1553635512.054,49.316,26.367,24.902,81.543,-12.695,0
1553635512.058,19.531,19.043,34.180,35.156,20.508,0
1553635512.062,-4.883,19.043,38.086,37.109,30.762,0
1553635512.066,21.484,21.973,35.156,45.410,20.020,0
1553635512.070,26.855,20.508,39.551,42.969,96.191,0
1553635512.074,17.578,16.602,43.457,43.945,104.980,0
1553635512.078,29.297,19.043,41.016,52.246,43.457,0
1553635512.082,32.715,20.020,43.945,62.012,32.227,0
1553635512.086,34.180,16.113,44.434,58.594,37.109,0
1553635512.090,26.367,14.160,42.969,44.922,37.598,0
1553635512.094,30.273,18.555,39.551,51.270,40.527,0
1553635512.097,48.340,22.949,35.645,62.500,32.715,0
1553635512.101,51.270,20.996,35.645,68.359,10.742,0
1553635512.105,45.898,21.484,36.621,65.918,11.719,0
1553635512.109,47.852,23.438,35.156,56.641,29.785,0
1553635512.113,67.871,24.414,32.715,46.875,-7.324,0
1553635512.117,67.871,22.949,31.738,54.199,8.789,0
1553635512.121,61.523,24.414,34.180,87.891,70.801,0
1553635512.125,60.059,29.297,34.668,85.938,13.672,0
1553635512.129,62.012,30.273,32.227,72.266,-34.180,0
1553635512.133,61.523,23.926,33.691,51.758,22.949,0
1553635512.136,62.988,21.973,32.227,60.059,43.457,0
1553635512.140,69.336,24.902,27.344,73.730,7.324,0
1553635512.144,56.152,23.438,28.809,62.012,24.414,0
1553635512.148,62.012,19.531,31.738,62.988,37.598,0
1553635512.152,72.266,23.438,32.227,65.918,53.711,0
1553635512.156,52.246,24.414,35.156,58.105,44.922,0
1553635512.160,49.316,21.484,34.668,52.246,3.418,0
1553635512.164,47.852,22.461,32.715,55.664,22.461,0
1553635512.168,41.992,21.973,33.691,52.734,-5.371,0
1553635512.172,30.762,25.391,30.273,33.691,-42.969,0
1553635512.176,43.945,27.344,31.250,38.086,-26.855,0
1553635512.179,55.176,30.273,33.203,44.434,47.363,0
1553635512.183,36.621,34.668,29.785,31.738,91.797,0
1553635512.187,22.949,32.227,31.250,49.316,62.500,0
1553635512.191,14.648,27.832,36.133,51.758,41.016,0
1553635512.195,7.812,29.785,33.691,19.531,25.879,0
1553635512.199,6.836,27.344,32.227,12.207,20.508,0
1553635512.203,17.090,23.926,37.109,18.555,10.742,0
1553635512.207,4.883,20.996,40.527,-1.465,43.457,0
1553635512.211,5.859,21.973,41.504,13.672,11.230,0
1553635512.215,2.441,30.762,34.180,15.137,-43.945,0
1553635512.219,-36.621,31.250,27.344,-17.090,42.480,0
1553635512.222,-37.109,28.320,27.344,-25.879,65.918,0
1553635512.226,-10.742,31.738,38.086,-28.809,17.578,0
1553635512.230,-32.715,33.691,38.574,-48.340,16.113,0
1553635512.234,-64.453,40.527,33.691,-50.293,88.379,0
1553635512.238,-66.406,46.387,33.203,-66.406,92.773,0
1553635512.242,-95.215,41.992,39.551,-109.863,20.020,0
1553635512.246,-126.953,40.527,49.805,-130.859,3.418,0
1553635512.250,-126.953,34.668,58.105,-131.348,-3.418,0
1553635512.254,-134.766,31.738,73.242,-127.441,-24.902,0
1553635512.258,-167.480,35.156,78.125,-135.254,9.277,0
1553635512.261,-172.852,36.133,79.102,-142.578,93.750,0
1553635512.265,-167.969,30.273,84.961,-127.930,105.469,0
1553635512.269,-185.059,22.949,92.773,-135.254,83.008,0
1553635512.273,-170.410,18.066,95.703,-149.902,68.848,0
1553635512.277,-132.324,22.461,94.727,-118.164,28.809,0
1553635512.281,-137.695,22.949,98.633,-90.820,47.363,0
1553635512.285,-134.277,13.672,98.145,-98.145,33.203,0
1553635512.289,-107.910,17.090,93.750,-74.219,51.270,0
1553635512.293,-81.543,18.555,92.285,-5.859,53.711,0
1553635512.297,-51.270,13.184,92.285,32.227,19.043,0
1553635512.301,-29.785,12.207,93.750,55.176,78.613,0
1553635512.304,9.277,19.531,85.938,70.801,54.688,0
1553635512.308,30.762,20.996,87.402,69.336,38.086,0
1553635512.312,42.480,21.973,87.402,91.797,75.684,0
1553635512.316,82.520,34.180,71.289,115.723,73.242,0
1553635512.320,92.285,30.273,71.289,147.461,37.109,0
1553635512.324,92.773,36.133,62.012,151.855,55.664,0
1553635512.328,124.023,39.062,54.688,166.992,83.984,0
1553635512.332,116.211,31.738,58.105,187.012,42.969,0
1553635512.336,113.770,38.574,51.758,187.012,28.320,0
1553635512.340,122.070,45.898,46.875,167.480,116.699,0
1553635512.344,104.004,41.504,41.992,156.250,102.051,0
1553635512.347,91.797,36.133,42.480,165.527,20.508,0
1553635512.351,78.613,36.621,42.480,144.531,51.270,0
1553635512.355,72.754,40.039,39.062,145.996,29.297,0
1553635512.359,75.195,42.480,35.645,162.109,-35.645,0
1553635512.363,62.988,41.992,31.738,168.945,-14.648,0
1553635512.367,64.941,45.410,32.715,161.621,40.039,0
1553635512.371,77.637,41.992,35.156,132.324,63.477,0
1553635512.375,45.898,34.668,31.738,129.395,58.105,0
1553635512.379,28.809,36.133,31.738,148.926,10.742,0
1553635512.383,28.809,41.016,32.227,134.766,-45.410,0
1553635512.386,28.809,36.133,28.809,128.418,-13.672,0
1553635512.390,25.879,34.668,28.809,142.090,14.648,0
1553635512.394,14.648,37.109,28.809,131.836,28.320,0
1553635512.398,1.953,27.344,31.250,114.746,31.250,0
1553635512.402,11.719,27.832,28.809,103.027,9.277,0
1553635512.406,18.555,33.691,30.273,102.051,-1.465,0
1553635512.410,8.301,31.738,29.785,101.562,-6.348,0
1553635512.414,3.906,28.320,27.832,126.465,-24.414,0
1553635512.418,-3.906,22.949,32.227,120.605,9.766,0
1553635512.422,-3.906,25.879,31.738,90.332,24.902,0
1553635512.426,-6.836,33.203,28.320,89.355,-13.184,0
1553635512.429,-1.465,35.156,26.367,112.305,6.348,0
1553635512.433,2.930,29.297,30.762,100.586,5.859,0
1553635512.437,0.000,29.297,32.715,98.633,11.719,0
1553635512.441,-0.977,31.250,29.785,116.211,3.418,0
1553635512.445,22.461,33.203,33.691,102.539,-17.578,0
1553635512.449,20.020,35.645,36.621,92.773,35.156,0
1553635512.453,20.996,36.621,29.785,98.633,55.664,0
1553635512.457,23.438,33.203,25.879,101.562,37.598,0
1553635512.461,13.184,32.227,32.227,107.910,41.992,0
1553635512.465,16.113,29.785,32.715,128.418,69.824,0
1553635512.469,13.184,33.203,37.109,107.910,74.219,0
1553635512.472,22.949,42.969,42.969,86.914,78.613,0
1553635512.476,23.438,34.668,34.668,90.820,53.711,0
1553635512.480,32.715,35.645,32.715,79.590,34.668,0
1553635512.484,35.156,43.945,41.504,55.664,82.520,0
1553635512.488,0.000,38.086,43.945,39.062,84.961,0
1553635512.492,-12.207,31.738,38.086,59.082,62.500,0
1553635512.496,-17.578,46.387,46.387,66.406,87.402,0
1553635512.500,-77.148,62.012,47.852,16.602,65.918,0
1553635512.504,-123.047,65.430,36.133,-47.363,23.438,0
1553635512.508,-145.508,61.523,37.109,-76.660,54.199,0
1553635512.511,-179.199,70.312,28.809,-101.074,62.012,0
1553635512.515,-219.727,88.867,16.113,-163.574,52.246,0
1553635512.519,-229.004,100.098,17.090,-185.547,56.152,0
1553635512.523,-242.676,99.609,16.602,-208.984,21.484,0
1553635512.527,-278.320,105.469,6.348,-269.043,-6.348,0
1553635512.531,-288.086,114.258,14.648,-297.363,0.977,0
1553635512.535,-294.434,114.258,20.020,-299.316,48.828,0
1553635512.539,-291.504,114.746,7.324,-285.156,55.664,0
1553635512.543,-281.250,116.211,3.906,-302.246,3.418,0
1553635512.547,-291.016,114.258,7.812,-299.316,36.621,0
1553635512.551,-300.781,114.258,3.418,-308.594,51.270,0
1553635512.554,-303.711,120.605,-4.395,-336.914,51.758,0
1553635512.558,-291.992,117.676,-2.930,-313.477,66.406,0
1553635512.562,-290.527,115.234,1.465,-289.551,72.754,0
1553635512.566,-261.719,110.840,1.465,-313.965,91.797,0
1553635512.570,-249.023,110.352,0.488,-316.406,24.902,0
1553635512.574,-247.070,114.258,0.000,-275.391,2.441,0
1553635512.578,-220.215,107.422,-2.930,-233.887,3.906,0
1553635512.582,-238.770,97.168,-9.277,-236.328,1.953,0
1553635512.586,-210.938,90.332,-8.301,-223.633,37.598,0
1553635512.590,-177.246,86.914,-8.301,-202.637,-2.441,0
1553635512.594,-166.504,79.102,-14.648,-174.316,-24.902,0
1553635512.597,-136.719,71.289,-16.113,-145.020,-4.395,0
1553635512.601,-129.883,59.570,-12.207,-147.949,-16.113,0
1553635512.605,-118.164,54.688,-16.602,-118.164,9.766,0
1553635512.609,-101.562,49.316,-10.742,-95.215,42.480,0
1553635512.613,-84.473,34.180,-3.906,-100.098,20.508,0
1553635512.617,-62.012,24.902,-5.371,-71.777,-0.488,0
1553635512.621,-61.523,21.973,-5.859,-38.086,-5.371,0
1553635512.625,-47.363,21.484,-12.207,-29.785,27.832,0
1553635512.629,-29.785,9.766,-1.953,-20.020,4.395,0
1553635512.633,-18.555,5.371,-0.977,-19.043,-6.348,0
1553635512.636,-4.883,8.301,-6.836,2.441,35.156,0
1553635512.640,6.836,2.441,2.930,38.574,71.777,0
1553635512.644,6.836,-2.441,2.930,47.852,64.453,0
1553635512.648,19.043,-1.953,4.395,57.617,37.598,0
1553635512.652,35.156,-2.930,6.348,49.805,-33.203,0
1553635512.656,41.504,-0.488,2.930,46.387,-22.461,0
1553635512.660,46.387,-1.953,3.906,29.297,28.809,0
1553635512.664,43.457,-6.348,7.812,43.945,62.988,0
1553635512.668,37.109,-3.418,8.789,64.941,32.715,0
1553635512.672,32.227,-6.348,7.812,71.289,64.453,0
1553635512.676,46.387,-5.859,9.277,74.219,87.891,0
1553635512.679,52.734,-2.441,12.695,77.637,59.570,0
1553635512.683,41.992,-4.883,14.160,71.289,97.168,0
1553635512.687,43.457,-8.789,15.625,46.387,46.875,0
1553635512.691,50.781,-10.254,17.578,67.383,-32.227,0
1553635512.695,44.434,-7.812,17.090,73.730,-12.207,0
1553635512.699,48.340,-2.930,19.531,69.824,0.977,0
1553635512.703,54.199,-1.953,21.484,75.684,26.855,0
1553635512.707,69.336,-0.977,20.508,92.773,28.320,0
1553635512.711,68.359,3.906,21.973,107.910,23.926,0
1553635512.715,56.641,2.930,23.438,88.379,92.773,0
1553635512.719,57.617,1.953,20.508,70.801,97.168,0
1553635512.722,59.570,1.953,20.996,71.777,60.547,0
1553635512.726,67.383,4.883,25.391,90.820,31.738,0
1553635512.730,72.754,6.348,28.320,103.516,15.625,0
1553635512.734,69.824,3.418,29.785,87.891,-15.137,0
1553635512.738,69.824,6.348,28.809,75.684,1.465,0
1553635512.742,68.848,7.324,30.762,87.402,49.316,0
1553635512.746,70.312,5.371,36.133,92.773,25.391,0
1553635512.750,60.059,7.324,37.109,86.426,22.949,0
1553635512.754,48.340,14.648,32.227,70.801,72.266,0
1553635512.758,42.969,17.578,25.391,65.430,60.059,0
1553635512.761,51.270,10.742,26.367,49.316,19.043,0
1553635512.765,65.430,13.672,26.855,59.082,25.879,0
1553635512.769,45.410,13.184,31.738,90.332,37.598,0
1553635512.773,27.832,6.836,36.621,65.430,44.434,0
1553635512.777,36.621,6.836,30.762,60.059,69.824,0
1553635512.781,44.922,6.836,28.320,75.195,62.500,0
1553635512.785,44.922,4.883,32.715,62.988,53.223,0
1553635512.789,39.062,2.441,35.645,67.383,39.551,0
1553635512.793,54.688,2.441,34.180,65.430,22.461,0
1553635512.797,57.617,5.859,30.762,49.805,38.086,0
1553635512.801,43.457,14.160,26.367,62.988,61.523,0
1553635512.804,46.387,18.555,28.320,79.102,77.148,0
1553635512.808,40.039,15.137,34.180,63.965,56.641,0
1553635512.812,31.250,16.113,32.227,44.922,62.988,0
1553635512.816,35.156,15.137,32.227,68.848,66.406,0
1553635512.820,46.387,9.766,32.715,69.824,9.766,0
1553635512.824,45.410,15.625,29.297,40.527,43.945,0
1553635512.828,39.062,20.508,28.809,40.039,64.453,0
1553635512.832,36.621,16.113,30.762,56.152,22.461,0
1553635512.836,32.227,14.160,30.762,60.059,14.648,0
1553635512.840,33.203,19.531,27.344,41.992,20.508,0
1553635512.844,30.762,19.043,35.645,52.246,0.488,0
1553635512.847,35.156,16.602,43.945,87.402,13.672,0
1553635512.851,54.199,18.555,40.527,75.195,7.324,0
1553635512.855,58.105,20.996,32.715,43.457,41.504,0
1553635512.859,49.316,22.461,29.297,56.641,104.492,0
1553635512.863,38.574,16.113,43.945,71.289,45.410,0
1553635512.867,38.574,13.672,50.293,66.406,-21.484,0
1553635512.871,50.293,18.555,40.039,82.520,-3.906,0
1553635512.875,67.383,11.230,44.922,112.305,-17.090,0
1553635512.879,77.148,3.418,49.805,119.629,2.930,0
1553635512.883,105.957,-5.371,54.199,159.668,9.766,0
1553635512.886,119.629,-13.672,68.359,163.574,20.508,0
1553635512.890,137.207,-9.277,67.871,162.598,85.449,0
1553635512.894,153.809,-13.672,70.312,209.473,88.379,0
1553635512.898,170.410,-16.602,74.219,229.492,76.172,0
1553635512.902,176.270,-18.066,80.566,217.773,21.973,0
1553635512.906,167.969,-22.461,85.449,230.469,18.066,0
1553635512.910,175.293,-25.879,88.867,254.395,40.039,0
1553635512.914,167.480,-27.832,96.191,239.746,17.578,0
1553635512.918,185.547,-20.508,90.332,250.000,17.090,0
1553635512.922,184.570,-22.949,96.191,238.770,7.324,0
1553635512.926,175.293,-25.879,96.191,241.211,45.410,0
1553635512.929,181.641,-20.508,85.449,241.699,42.480,0
1553635512.933,171.875,-20.020,83.496,225.098,-23.926,0
1553635512.937,141.602,-16.113,82.520,203.613,-28.809,0
1553635512.941,136.230,-9.277,82.031,195.312,-0.977,0
1553635512.945,140.625,-10.254,85.449,208.984,14.160,0
1553635512.949,124.023,-10.742,81.055,176.758,-5.859,0
1553635512.953,113.281,-4.395,72.754,165.527,25.391,0
1553635512.957,113.281,-0.488,71.777,170.898,51.270,0
1553635512.961,107.422,-2.441,71.289,149.902,30.762,0
1553635512.965,95.215,-2.930,71.777,133.301,72.266,0
1553635512.969,78.613,1.465,70.312,130.371,133.301,0
1553635512.972,91.797,1.465,73.242,153.809,15.625,0
1553635512.976,120.117,6.348,72.754,167.969,10.254,0
1553635512.980,87.402,11.719,57.617,126.465,110.352,0
1553635512.984,62.988,11.230,53.711,112.305,50.781,0
1553635512.988,60.547,7.812,56.641,112.793,43.457,0
1553635512.992,53.223,6.348,49.316,76.660,7.812,0
1553635512.996,55.664,10.742,53.711,75.684,-15.137,0
1553635513.000,51.270,11.719,58.594,93.750,16.113,0
1553635513.004,47.363,12.207,48.340,88.379,-32.715,0
1553635513.008,42.480,14.160,48.828,73.242,5.859,0
1553635513.011,29.297,13.672,56.152,85.449,38.574,0
1553635513.015,22.949,13.184,49.805,62.500,-1.953,0
1553635513.019,15.137,14.648,44.922,54.199,33.691,0
1553635513.023,12.207,13.672,47.852,68.848,64.453,0
1553635513.027,15.137,16.602,47.852,69.824,17.578,0
1553635513.031,14.160,22.949,44.434,61.035,11.230,0
1553635513.035,16.602,22.461,42.969,48.340,68.359,0
1553635513.039,8.301,18.555,40.039,54.688,18.555,0
1553635513.043,8.301,23.926,39.062,66.406,-34.180,0
1553635513.047,11.719,28.320,38.086,64.941,73.242,0
1553635513.051,-0.977,22.461,33.691,57.617,99.609,0
1553635513.054,-2.441,19.531,34.668,55.176,29.297,0
1553635513.058,1.465,20.508,40.039,43.457,26.367,0
1553635513.062,-2.930,19.043,42.480,30.273,-33.203,0
1553635513.066,1.465,21.484,38.574,26.855,-44.434,0
1553635513.070,4.395,22.461,37.109,47.852,-20.508,0
1553635513.074,4.395,22.461,38.086,55.664,-30.762,0
1553635513.078,3.906,24.414,34.668,18.066,50.293,0
1553635513.082,-4.395,24.414,37.109,21.973,83.496,0
1553635513.086,-1.953,26.855,41.016,35.156,56.152,0
1553635513.090,-1.953,23.438,34.668,29.297,82.031,0
1553635513.094,-2.930,21.973,39.062,33.691,71.777,0
1553635513.097,-15.137,23.438,43.945,13.672,28.320,0
1553635513.101,-25.391,23.926,38.086,31.738,-10.254,0
1553635513.105,-9.766,29.297,38.086,36.621,-3.906,0
1553635513.109,-10.254,35.645,35.645,-5.371,2.441,0
1553635513.113,-20.508,38.574,38.574,-4.883,29.785,0
1553635513.117,-27.344,26.367,51.270,23.926,51.758,0
1553635513.121,-15.625,23.926,48.828,28.320,45.410,0
1553635513.125,-24.414,28.809,40.527,-8.789,90.820,0
1553635513.129,-53.223,36.621,42.480,-37.109,105.957,0
1553635513.133,-77.148,55.664,41.992,-57.617,23.926,0
1553635513.136,-113.770,60.547,37.109,-92.285,-43.457,0
1553635513.140,-143.066,69.336,33.203,-134.766,20.508,0
1553635513.144,-164.551,86.426,32.715,-175.781,107.422,0
1553635513.148,-200.684,96.191,30.273,-200.684,34.668,0
1553635513.152,-247.070,101.074,24.414,-239.258,31.738,0
1553635513.156,-283.691,108.887,11.719,-278.809,48.828,0
1553635513.160,-300.293,125.488,2.930,-306.152,57.129,0
1553635513.164,-322.754,135.254,-3.418,-354.980,60.059,0
1553635513.168,-333.984,135.742,-7.812,-361.328,42.480,0
1553635513.172,-328.125,132.812,-2.930,-334.961,34.180,0
1553635513.176,-327.148,140.137,3.418,-358.398,42.969,0
1553635513.179,-336.914,138.672,-0.977,-384.277,43.457,0
1553635513.183,-339.355,125.488,1.465,-365.723,41.992,0
1553635513.187,-328.613,126.953,2.930,-367.676,29.785,0
1553635513.191,-329.590,120.117,0.000,-376.465,40.527,0
1553635513.195,-324.219,118.164,-2.441,-354.492,52.246,0
1553635513.199,-305.176,114.258,-1.953,-325.684,62.500,0
1553635513.203,-289.551,103.027,5.859,-306.641,37.109,0
1553635513.207,-288.086,102.539,10.742,-289.551,5.371,0
1553635513.211,-281.250,97.656,8.789,-275.391,74.707,0
1553635513.215,-257.324,88.867,4.883,-271.973,87.891,0
1553635513.219,-212.891,84.961,1.953,-250.488,35.645,0
1553635513.222,-197.266,89.844,-9.277,-230.469,20.020,0
1553635513.226,-183.105,84.961,-14.648,-194.336,-8.301,0
1553635513.230,-152.344,71.289,-7.812,-164.062,-0.977,0
1553635513.234,-141.602,68.848,-8.789,-133.789,12.695,0
1553635513.238,-119.629,64.941,-15.137,-115.723,-7.324,0
1553635513.242,-93.750,58.105,-13.184,-109.863,10.742,0
1553635513.246,-72.266,55.664,-17.578,-96.680,46.387,0
1553635513.250,-61.523,51.758,-18.066,-84.961,-3.906,0
1553635513.254,-74.219,45.410,-15.625,-74.219,-56.641,0
1553635513.258,-52.734,37.598,-19.043,-53.223,35.645,0
1553635513.261,-30.273,29.297,-11.719,-30.273,111.328,0
1553635513.265,-33.203,30.273,-12.207,-22.461,89.355,0
1553635513.269,-15.137,23.438,-13.672,-17.090,60.059,0
1553635513.273,-6.836,15.625,-13.184,-20.508,30.273,0
1553635513.277,5.371,17.090,-17.578,-3.906,56.641,0
1553635513.281,23.438,18.555,-17.090,20.508,81.543,0
1553635513.285,36.133,15.137,-17.578,41.504,21.973,0
1553635513.289,32.227,6.348,-15.625,32.715,-11.719,0
1553635513.293,38.574,6.348,-6.348,39.551,62.988,0
1553635513.297,50.781,10.254,-6.836,50.293,47.363,0
1553635513.301,27.344,8.301,-9.766,41.016,-13.672,0
1553635513.304,22.949,7.324,-8.789,38.086,31.738,0
1553635513.308,39.062,7.812,-7.812,43.945,6.348,0
1553635513.312,50.293,13.184,-2.441,74.707,8.789,0
1553635513.316,59.082,12.695,0.000,70.801,45.898,0
1553635513.320,61.523,2.930,7.324,57.129,16.113,0
1553635513.324,62.500,1.953,14.160,78.125,20.508,0
1553635513.328,62.500,8.789,11.230,95.215,32.227,0
1553635513.332,62.500,5.859,9.277,91.309,12.207,0
1553635513.336,58.105,5.371,9.766,82.031,26.367,0
1553635513.340,57.617,13.672,12.207,63.965,27.344,0
1553635513.344,57.617,15.625,12.207,75.684,64.453,0
1553635513.347,60.059,13.672,7.324,70.312,45.410,0
1553635513.351,55.176,13.672,8.789,53.223,-9.766,0
1553635513.355,50.293,14.160,13.672,70.801,0.000,0
1553635513.359,56.152,14.648,16.602,76.172,-28.809,0
1553635513.363,61.523,12.695,19.531,84.473,-45.898,0
1553635513.367,56.641,9.277,20.996,81.543,-45.410,0
1553635513.371,52.734,13.184,18.066,83.496,-16.113,0
1553635513.375,59.082,13.184,18.066,75.684,28.809,0
1553635513.379,66.406,12.695,19.531,56.152,60.547,0
1553635513.383,63.477,13.184,20.508,58.105,75.684,0
1553635513.386,59.082,14.160,20.020,80.566,14.648,0
1553635513.390,62.500,19.531,19.531,69.824,-4.883,0
1553635513.394,61.035,22.461,19.043,50.293,38.086,0
1553635513.398,56.152,22.461,23.438,70.312,12.207,0
1553635513.402,48.340,23.438,26.855,71.777,-30.762,0
1553635513.406,47.363,20.996,33.691,75.195,-15.137,0
1553635513.410,45.410,27.344,37.598,83.496,39.551,0
1553635513.414,34.668,35.645,25.391,66.406,50.293,0
1553635513.418,26.367,23.438,19.043,63.477,-40.527,0
1553635513.422,35.156,10.254,21.973,60.547,-29.297,0
1553635513.426,37.109,6.836,23.438,56.152,37.109,0
1553635513.429,28.809,6.836,23.926,63.477,16.602,0
1553635513.433,23.926,9.766,25.879,63.965,35.645,0
1553635513.437,26.367,10.742,25.879,48.828,63.477,0
1553635513.441,31.250,13.672,28.320,47.363,86.914,0
1553635513.445,24.414,18.066,32.715,58.594,80.566,0
1553635513.449,19.043,21.973,29.297,52.734,48.340,0
1553635513.453,34.180,20.508,26.367,52.246,11.719,0
1553635513.457,42.969,25.879,28.809,37.598,25.879,0
1553635513.461,20.996,27.344,28.809,32.715,52.734,0
1553635513.465,13.672,16.602,26.855,61.035,37.598,0
1553635513.469,16.602,11.719,24.902,65.430,65.918,0
1553635513.472,28.809,14.648,25.879,39.062,79.102,0
1553635513.476,27.832,17.578,29.297,25.879,29.785,0
1553635513.480,18.555,14.648,26.855,37.598,15.625,0
1553635513.484,22.461,17.578,27.832,41.504,48.340,0
1553635513.488,21.484,19.531,29.297,34.668,20.508,0
1553635513.492,20.020,15.137,27.832,51.758,37.598,0
1553635513.496,16.113,17.090,28.809,52.246,77.637,0
1553635513.500,30.273,17.578,27.344,20.996,15.137,0
1553635513.504,36.133,23.926,26.367,32.715,74.219,0
1553635513.508,25.391,26.367,27.344,45.898,53.223,0
1553635513.511,14.648,28.809,23.926,37.598,53.223,0
1553635513.515,11.230,29.297,20.996,43.945,46.387,0
1553635513.519,20.508,24.414,25.879,39.551,21.973,0
1553635513.523,20.020,24.414,29.297,43.945,43.945,0
1553635513.527,17.578,24.902,30.273,49.805,32.715,0
1553635513.531,18.555,25.879,33.691,47.852,60.547,0
1553635513.535,17.090,21.973,35.156,53.223,20.508,0
1553635513.539,22.949,19.531,36.133,55.176,1.953,0
1553635513.543,25.879,22.461,37.598,47.363,55.176,0
1553635513.547,32.227,24.902,34.180,41.016,47.852,0
1553635513.551,33.203,27.344,34.180,63.477,-15.137,0
1553635513.554,26.367,24.902,35.645,63.965,-5.859,0
1553635513.558,22.461,24.414,33.691,42.480,9.277,0
1553635513.562,15.137,27.344,33.691,30.762,33.203,0
1553635513.566,12.695,27.344,29.785,39.062,82.031,0
1553635513.570,16.113,29.297,27.344,38.086,59.082,0
1553635513.574,9.766,26.855,29.785,27.344,87.402,0
1553635513.578,3.418,23.438,31.738,26.855,82.520,0
1553635513.582,5.859,21.973,32.715,50.293,29.785,0
1553635513.586,8.789,22.461,31.738,57.129,56.641,0
1553635513.590,5.859,23.926,31.250,22.461,70.312,0
1553635513.594,4.883,26.367,33.203,8.789,20.508,0
1553635513.597,8.301,32.227,34.180,17.090,25.879,0
1553635513.601,6.348,29.297,32.715,21.484,11.230,0
1553635513.605,-2.441,28.320,35.156,23.926,11.719,0
1553635513.609,-5.859,28.809,36.133,28.320,15.137,0
1553635513.613,-0.488,29.297,31.250,35.156,-58.594,0
1553635513.617,5.859,29.785,28.809,34.668,-16.602,0
1553635513.621,-0.977,26.855,31.250,29.785,67.383,0
1553635513.625,-0.488,28.320,28.809,23.926,23.926,0
1553635513.629,-0.977,28.809,26.855,22.461,20.996,0
1553635513.633,-8.301,20.508,28.320,26.855,48.828,0
1553635513.636,6.348,25.879,24.902,19.531,-1.465,0
1553635513.640,8.789,32.715,24.902,34.180,6.836,0
1553635513.644,9.766,28.809,28.320,18.555,11.719,0
1553635513.648,8.789,24.902,27.344,13.184,19.531,0
1553635513.652,10.254,23.926,28.809,20.996,19.043,0
1553635513.656,10.254,28.809,27.832,12.695,-7.812,0
1553635513.660,4.883,30.273,28.320,29.785,37.109,0
1553635513.664,11.230,30.273,29.297,29.785,59.570,0
1553635513.668,16.113,30.273,29.785,25.391,68.848,0
1553635513.672,9.766,31.250,30.762,24.414,75.684,0
1553635513.676,5.371,29.297,33.203,14.160,99.609,0
1553635513.679,10.742,29.297,33.691,24.902,106.445,0
1553635513.683,6.348,32.715,31.250,24.902,115.234,0
1553635513.687,5.859,31.250,31.250,17.578,48.828,0
1553635513.691,3.906,29.297,29.785,30.273,-14.160,0
1553635513.695,-1.953,24.902,29.785,11.230,27.344,0
1553635513.699,-6.836,24.414,30.273,16.602,26.855,0
1553635513.703,4.395,25.879,28.320,31.250,-2.930,0
1553635513.707,8.789,26.855,27.344,20.996,20.996,0
1553635513.711,9.277,26.367,27.344,15.137,-10.742,0
1553635513.715,18.555,28.809,27.832,12.695,-27.832,0
1553635513.719,10.742,29.785,29.297,27.344,3.906,0
1553635513.722,11.719,26.367,30.762,30.762,10.742,0
1553635513.726,14.648,20.508,35.645,26.855,7.812,0
1553635513.730,16.602,23.438,36.621,40.527,0.977,0
1553635513.734,18.555,28.809,35.645,38.086,34.668,0
1553635513.738,14.648,24.414,35.156,27.344,33.691,0
1553635513.742,15.625,23.438,32.715,39.062,14.648,0
1553635513.746,23.438,31.250,32.715,35.645,-8.301,0
1553635513.750,20.508,34.668,32.227,34.180,8.789,0
1553635513.754,19.531,34.668,33.203,43.457,41.504,0
1553635513.758,25.879,34.180,34.180,25.879,89.355,0
1553635513.761,23.438,31.738,32.715,26.855,65.430,0
1553635513.765,13.184,28.809,31.250,30.762,33.203,0
1553635513.769,3.906,30.273,29.297,30.762,105.957,0
1553635513.773,8.789,28.320,27.832,27.832,98.633,0
1553635513.777,18.066,24.902,28.809,20.996,25.391,0
1553635513.781,8.789,25.391,28.320,25.879,-14.648,0
1553635513.785,3.418,21.484,33.691,26.367,50.293,0
1553635513.789,10.742,23.926,38.086,22.461,46.875,0
1553635513.793,4.883,29.785,33.691,30.762,-6.836,0
1553635513.797,1.465,24.902,32.715,54.199,-18.066,0
1553635513.801,13.184,22.949,33.203,49.805,-14.160,0
1553635513.804,22.949,27.344,31.250,25.391,16.113,0
1553635513.808,20.996,27.832,28.809,13.184,-31.250,0
1553635513.812,7.324,25.879,31.250,19.531,-1.465,0
1553635513.816,5.371,22.461,32.227,27.832,27.344,0
1553635513.820,13.672,20.996,31.250,30.273,21.484,0
1553635513.824,12.695,25.391,33.203,31.738,50.781,0
1553635513.828,19.043,21.484,36.133,28.320,18.066,0
1553635513.832,23.438,21.484,34.180,29.297,13.672,0
1553635513.836,13.672,28.809,33.691,26.855,60.059,0
1553635513.840,14.648,27.832,34.180,32.715,56.152,0
1553635513.844,20.996,23.926,30.762,36.621,33.691,0
1553635513.847,10.742,22.949,31.250,36.621,39.062,0
1553635513.851,21.484,23.438,33.203,50.293,8.789,0
1553635513.855,34.180,25.391,25.391,48.340,45.410,0
1553635513.859,29.785,29.785,21.973,25.879,68.848,0
1553635513.863,27.344,30.762,24.414,35.156,8.789,0
1553635513.867,25.879,27.832,24.414,43.945,0.488,0
1553635513.871,24.414,26.367,26.855,34.668,36.133,0
1553635513.875,29.297,22.949,29.785,38.574,32.715,0
1553635513.879,32.227,21.484,32.715,47.852,29.297,0
1553635513.883,32.227,28.320,30.273,41.992,44.922,0
1553635513.886,36.133,26.367,25.879,33.691,44.922,0
1553635513.890,45.898,23.438,27.832,37.109,38.574,0
1553635513.894,41.992,27.832,31.250,32.715,44.434,0
1553635513.898,21.484,24.902,34.180,27.344,55.664,0
1553635513.902,21.973,15.625,36.621,44.922,47.363,0
1553635513.906,22.461,16.602,35.645,38.086,66.406,0
1553635513.910,6.836,19.531,34.180,27.832,39.551,0
1553635513.914,2.930,16.602,34.180,25.879,6.836,0
1553635513.918,7.324,16.602,30.762,25.391,46.387,0
1553635513.922,14.160,19.043,31.250,15.137,43.457,0
1553635513.926,8.301,23.438,31.738,11.719,49.805,0
1553635513.929,3.906,24.902,30.762,16.602,40.527,0
1553635513.933,9.766,26.367,31.250,17.578,34.668,0
1553635513.937,-5.371,25.879,33.203,16.602,26.367,0
1553635513.941,-4.395,26.367,32.715,21.484,-7.812,0
1553635513.945,0.000,23.926,32.227,32.227,7.812,0
1553635513.949,-25.391,26.367,36.133,20.020,26.367,0
1553635513.953,-32.715,26.367,34.668,-5.859,27.832,0
1553635513.957,-34.180,26.367,27.832,-4.883,16.113,0
1553635513.961,-28.809,26.367,27.832,7.812,15.137,0
1553635513.965,-19.531,19.043,31.250,-3.906,62.500,0
1553635513.969,-28.320,20.996,31.250,-9.277,85.938,0
1553635513.972,-15.625,28.320,22.949,8.301,56.641,0
1553635513.976,15.625,28.320,20.020,30.762,16.113,0
1553635513.980,-10.254,21.973,34.668,25.391,50.781,0
1553635513.984,-52.246,17.090,42.969,-23.438,44.922,0
1553635513.988,-50.781,17.578,40.527,-41.504,6.836,0
1553635513.992,-55.664,14.648,42.969,-30.273,54.688,0
1553635513.996,-53.711,9.766,47.363,-37.109,49.805,0
1553635514.000,-55.664,4.395,50.293,-35.645,-36.133,0
1553635514.004,-59.570,2.930,49.805,-21.973,4.395,0
1553635514.008,-53.223,-0.488,53.711,-17.578,16.113,0
1553635514.011,-56.152,-0.488,57.129,-26.855,7.812,0
1553635514.015,-50.293,3.906,54.199,-24.414,46.387,0
1553635514.019,-42.969,4.883,53.711,-27.344,54.688,0
1553635514.023,-44.434,0.977,54.688,-3.906,31.738,0
1553635514.027,-34.180,0.488,50.293,10.254,47.363,0
1553635514.031,-23.926,6.836,48.828,8.789,77.637,0
1553635514.035,-13.184,9.766,48.340,-1.465,38.574,0
1553635514.039,-11.719,13.184,44.922,1.465,62.500,0
1553635514.043,-16.602,14.648,43.945,28.320,38.574,0
1553635514.047,-6.836,14.648,43.945,18.555,26.367,0
1553635514.051,-3.418,14.160,43.457,5.371,48.828,0
1553635514.054,-8.301,8.789,46.875,20.996,57.617,0
1553635514.058,-8.789,9.277,44.434,23.438,28.809,0
1553635514.062,2.441,16.113,41.992,13.184,24.414,0
1553635514.066,8.301,17.090,41.504,21.973,-4.395,0
1553635514.070,3.906,17.090,38.574,8.301,29.297,0
1553635514.074,9.277,21.484,39.551,9.766,66.895,0
1553635514.078,20.020,23.926,41.504,23.926,39.551,0
1553635514.082,15.625,21.484,41.016,27.344,7.324,0
1553635514.086,19.043,23.926,41.504,38.086,0.977,0
1553635514.090,26.367,24.414,41.504,38.574,10.742,0
1553635514.094,22.949,24.902,40.039,38.086,-8.789,0
1553635514.097,33.691,27.344,40.039,37.598,32.715,0
1553635514.101,35.156,25.879,39.551,46.387,29.785,0
1553635514.105,32.715,26.367,35.645,52.734,-1.465,0
1553635514.109,26.367,27.344,32.227,41.992,-2.441,0
1553635514.113,21.484,23.438,32.715,28.320,8.789,0
1553635514.117,31.738,23.438,32.715,16.113,-1.465,0
1553635514.121,34.668,28.809,32.227,32.715,7.324,0
1553635514.125,37.598,30.762,31.250,45.410,16.113,0
1553635514.129,37.109,30.273,32.227,40.039,60.547,0
1553635514.133,32.715,28.809,34.180,47.852,39.062,0
1553635514.136,33.203,28.320,35.156,41.992,-19.043,0
1553635514.140,40.039,26.855,34.668,47.852,14.160,0
1553635514.144,41.016,28.809,35.156,53.223,-1.953,0
1553635514.148,37.109,28.320,38.086,48.828,-40.039,0
1553635514.152,38.086,31.250,40.039,55.664,12.695,0
1553635514.156,32.227,34.180,39.062,64.941,40.039,0
1553635514.160,32.715,30.273,41.016,43.457,20.020,0
1553635514.164,50.293,37.109,36.133,42.969,54.688,0
1553635514.168,48.340,37.598,32.715,54.199,57.129,0
1553635514.172,45.898,25.879,38.574,53.711,-17.090,0
1553635514.176,48.828,27.344,41.504,64.453,-2.441,0
1553635514.179,35.645,35.156,33.203,36.133,31.738,0
1553635514.183,32.227,32.715,28.809,18.066,-8.789,0
1553635514.187,49.805,34.668,29.297,40.039,9.766,0
1553635514.191,55.176,41.016,25.391,43.457,38.574,0
1553635514.195,38.574,35.156,24.414,50.781,39.551,0
1553635514.199,28.809,33.691,20.996,43.457,50.293,0
1553635514.203,27.344,30.762,24.414,31.738,59.570,0
1553635514.207,30.273,28.320,30.273,32.715,78.125,0
1553635514.211,23.926,38.086,29.297,26.855,34.180,0
1553635514.215,15.625,39.551,29.297,25.879,55.176,0
1553635514.219,27.344,31.250,26.855,20.508,73.730,0
1553635514.222,33.691,33.691,24.902,20.996,66.895,0
1553635514.226,22.949,37.598,25.879,24.902,63.965,0
1553635514.230,20.508,35.156,23.926,25.879,83.008,0
1553635514.234,25.391,28.809,25.879,23.926,66.895,0
1553635514.238,26.367,23.926,28.320,37.109,15.137,0
1553635514.242,16.113,23.926,27.344,36.621,19.043,0
1553635514.246,23.438,26.367,29.297,32.715,24.414,0
1553635514.250,28.809,25.391,29.785,26.367,34.668,0
1553635514.254,18.066,25.391,29.785,22.949,66.406,0
1553635514.258,23.438,29.785,33.203,56.641,79.102,0
1553635514.261,28.320,28.809,36.621,51.758,60.059,0
1553635514.265,24.902,30.273,36.621,24.414,58.105,0
1553635514.269,38.086,28.809,34.668,33.203,9.766,0
1553635514.273,47.363,28.320,30.273,35.645,-24.902,0
1553635514.277,36.621,31.738,31.250,15.137,52.246,0
1553635514.281,27.832,31.250,36.133,23.926,117.676,0
1553635514.285,37.598,31.738,36.621,37.598,33.203,0
1553635514.289,30.762,29.785,38.574,47.363,63.965,0
1553635514.293,16.602,23.926,41.504,59.570,48.340,0
1553635514.297,23.438,22.949,40.527,54.199,-18.555,0
1553635514.301,21.973,29.297,39.551,48.828,-4.883,0
1553635514.304,23.926,29.297,40.527,33.203,7.812,0
1553635514.308,14.160,27.832,38.086,24.414,67.871,0
1553635514.312,-8.789,30.762,36.133,34.180,76.172,0
1553635514.316,-0.977,31.250,36.621,32.227,45.410,0
1553635514.320,6.836,30.762,35.156,23.438,23.926,0
1553635514.324,8.301,31.250,31.250,18.066,-17.578,0
1553635514.328,14.648,33.691,31.250,18.555,2.441,0
1553635514.332,12.695,35.645,28.809,26.855,28.809,0
1553635514.336,18.555,33.203,27.344,41.992,77.637,0
1553635514.340,25.879,30.762,30.273,30.273,103.027,0
1553635514.344,12.207,30.762,32.227,27.832,43.945,0
1553635514.347,14.160,32.227,32.227,18.066,-9.766,0
1553635514.351,18.555,29.297,29.785,5.859,-0.977,0
1553635514.355,12.695,28.809,28.809,16.113,33.203,0
1553635514.359,13.184,32.227,26.367,19.043,75.195,0
1553635514.363,10.742,32.227,26.367,38.086,38.086,0
1553635514.367,13.184,27.344,30.273,30.762,-12.207,0
1553635514.371,8.789,28.320,28.809,5.371,39.062,0
1553635514.375,3.906,35.645,27.832,17.090,50.293,0
1553635514.379,9.277,35.645,31.738,16.113,33.691,0
1553635514.383,17.090,31.738,32.227,2.441,58.105,0
1553635514.386,16.602,31.738,33.691,8.789,63.965,0
1553635514.390,7.812,34.180,38.086,17.090,67.383,0
1553635514.394,13.184,32.227,37.109,21.973,42.969,0
1553635514.398,20.508,29.297,36.621,19.043,-12.695,0
1553635514.402,16.602,31.250,38.574,41.016,28.320,0
1553635514.406,18.066,32.715,37.598,36.621,70.801,0
1553635514.410,19.043,33.203,37.598,18.066,5.371,0
1553635514.414,14.160,32.715,39.062,19.531,21.484,0
1553635514.418,11.719,35.645,39.551,25.391,33.691,0
1553635514.422,10.254,39.551,40.039,31.738,45.410,0
1553635514.426,8.789,33.691,38.086,21.484,31.738,0
1553635514.429,8.301,31.250,35.156,0.977,19.531,0
1553635514.433,13.672,35.645,37.109,7.324,13.184,0
1553635514.437,8.789,39.551,39.062,27.344,16.113,0
1553635514.441,0.977,40.039,36.133,15.137,-0.488,0
1553635514.445,-2.441,34.180,33.203,-0.488,-1.953,0
1553635514.449,2.930,37.109,33.203,16.113,-8.789,0
1553635514.453,-8.301,45.410,34.668,-13.672,-7.812,0
1553635514.457,-11.719,43.945,41.992,-21.973,14.648,0
1553635514.461,-9.277,48.828,46.875,-19.043,87.891,0
1553635514.465,-30.273,47.363,43.945,-36.621,101.074,0
1553635514.469,-29.785,41.992,33.203,-16.602,24.902,0
1553635514.472,-36.621,41.992,42.480,-22.461,51.270,0
1553635514.476,-64.941,49.316,56.152,-50.293,47.363,0
1553635514.480,-57.129,64.941,48.340,-58.105,39.062,0
1553635514.484,-65.918,62.988,52.246,-74.219,44.434,0
1553635514.488,-83.984,53.711,56.152,-99.609,51.270,0
1553635514.492,-84.473,61.035,58.594,-83.008,68.359,0
1553635514.496,-104.980,66.895,74.219,-67.871,60.547,0
1553635514.500,-114.746,60.547,86.426,-88.867,50.781,0
1553635514.504,-136.230,54.688,90.332,-117.676,44.922,0
1553635514.508,-133.301,49.805,91.797,-110.352,63.965,0
1553635514.511,-96.680,51.270,95.703,-74.219,4.883,0
1553635514.515,-88.379,46.875,99.121,-66.406,-51.270,0
1553635514.519,-86.914,34.668,104.004,-38.086,2.441,0
1553635514.523,-56.641,43.945,92.285,-40.527,32.715,0
1553635514.527,-26.855,50.293,85.449,-26.855,55.664,0
1553635514.531,-6.348,41.016,90.332,16.602,62.988,0
1553635514.535,2.441,33.691,84.473,27.832,66.406,0
1553635514.539,26.855,34.668,77.148,40.039,69.824,0
1553635514.543,62.012,28.809,78.613,69.824,8.789,0
1553635514.547,84.961,20.508,74.219,100.098,-29.785,0
1553635514.551,120.117,15.137,66.895,136.719,20.020,0
1553635514.554,150.879,8.789,72.266,150.879,34.668,0
1553635514.558,170.898,6.836,67.871,158.203,6.348,0
1553635514.562,179.688,4.395,63.965,206.543,-6.348,0
1553635514.566,178.711,4.883,59.570,225.098,37.109,0
1553635514.570,182.129,-0.977,63.965,223.633,35.156,0
1553635514.574,181.641,-2.441,65.430,229.980,25.391,0
1553635514.578,205.566,-2.441,58.594,227.051,37.598,0
1553635514.582,224.121,-2.930,59.082,230.469,27.832,0
1553635514.586,210.938,1.953,63.477,243.164,41.504,0
1553635514.590,199.707,2.441,63.477,225.586,53.223,0
1553635514.594,197.754,3.906,58.105,209.473,34.180,0
1553635514.597,186.523,5.859,54.199,195.801,46.875,0
1553635514.601,175.781,8.301,51.270,196.289,62.012,0
1553635514.605,175.781,13.184,46.875,204.590,18.555,0
1553635514.609,175.781,9.766,47.363,179.199,7.324,0
1553635514.613,167.480,10.254,50.293,183.105,-0.488,0
1553635514.617,161.621,16.113,47.363,187.988,-8.301,0
1553635514.621,159.180,17.090,43.945,162.598,56.641,0
1553635514.625,149.414,14.160,44.922,172.363,53.711,0
1553635514.629,128.418,15.137,45.410,161.621,32.227,0
1553635514.633,117.676,19.531,40.527,140.137,49.316,0
1553635514.636,127.930,16.602,42.480,143.555,14.160,0
1553635514.640,122.070,19.531,43.945,157.227,21.973,0
1553635514.644,119.629,27.832,41.504,162.109,49.316,0
1553635514.648,125.000,27.344,43.457,138.184,59.082,0
1553635514.652,119.629,24.414,42.480,129.883,82.031,0
1553635514.656,108.887,23.438,40.039,138.672,63.965,0
1553635514.660,98.633,22.949,39.062,136.719,-12.207,0
1553635514.664,96.191,20.508,41.016,122.559,-14.648,0
1553635514.668,104.980,16.602,41.992,112.305,41.992,0
1553635514.672,93.750,17.578,41.016,107.422,36.621,0
1553635514.676,89.844,28.320,37.598,90.820,-0.977,0
1553635514.679,104.004,31.738,37.109,95.703,-0.488,0
1553635514.683,103.516,32.227,32.227,120.605,22.461,0
1553635514.687,97.656,34.668,28.320,111.328,51.270,0
1553635514.691,75.195,28.809,40.039,105.957,38.574,0
1553635514.695,64.453,25.391,50.293,109.375,20.996,0
1553635514.699,93.262,25.391,51.758,111.816,25.391,0
1553635514.703,101.074,17.578,59.570,120.117,64.941,0
1553635514.707,84.961,12.207,62.012,123.047,20.996,0
1553635514.711,73.242,8.301,63.965,132.812,45.410,0
1553635514.715,80.566,-1.465,71.289,141.113,112.793,0
1553635514.719,95.215,-2.930,69.824,118.164,61.523,0
1553635514.722,87.402,0.488,67.871,102.539,33.203,0
1553635514.726,67.871,-10.742,75.684,129.883,4.883,0
1553635514.730,69.824,-11.230,74.219,158.691,-13.184,0
1553635514.734,74.219,-0.488,70.801,113.770,9.766,0
1553635514.738,71.289,5.859,68.359,93.262,13.672,0
1553635514.742,61.035,7.324,62.988,105.957,36.133,0
1553635514.746,46.387,5.371,62.988,97.656,43.457,0
1553635514.750,55.664,11.230,57.617,93.750,85.938,0
1553635514.754,51.758,10.254,58.105,93.750,101.562,0
1553635514.758,53.223,5.371,59.082,112.793,64.941,0
1553635514.761,45.898,0.488,59.082,122.070,56.641,0
1553635514.765,46.387,8.301,55.664,101.562,16.602,0
1553635514.769,56.152,16.113,50.781,87.402,-5.371,0
1553635514.773,40.039,11.719,53.223,105.469,2.930,0
1553635514.777,58.105,13.672,53.223,112.793,-1.465,0
1553635514.781,60.547,18.555,46.875,72.266,6.348,0
1553635514.785,59.082,22.461,42.480,61.523,6.348,0
1553635514.789,68.359,23.438,46.875,90.332,28.320,0
1553635514.793,60.059,20.020,46.875,93.750,77.148,0
1553635514.797,55.664,20.020,41.016,68.848,53.711,0
1553635514.801,54.199,19.043,41.016,61.523,33.203,0
1553635514.804,62.988,20.020,38.086,87.402,79.102,0
1553635514.808,76.172,20.996,38.086,87.891,72.754,0
1553635514.812,70.801,22.461,39.062,74.707,-0.488,0
1553635514.816,41.016,22.949,37.109,74.707,36.133,0
1553635514.820,37.109,19.531,39.062,63.965,130.859,0
1553635514.824,56.641,22.949,35.156,66.406,49.316,0
1553635514.828,69.824,28.809,34.180,67.871,5.859,0
1553635514.832,52.734,21.484,40.039,66.406,-1.953,0
1553635514.836,50.781,23.926,40.039,67.871,-12.207,0
1553635514.840,62.988,25.879,40.039,92.773,24.414,0
1553635514.844,65.430,25.879,39.062,90.820,13.184,0
1553635514.847,72.266,30.273,36.621,76.660,33.203,0
1553635514.851,65.918,26.855,39.062,75.684,44.922,0
1553635514.855,39.062,25.391,38.086,60.547,0.000,0
1553635514.859,42.480,31.250,33.691,57.129,-6.836,0
1553635514.863,55.176,26.855,33.203,61.035,20.996,0
1553635514.867,57.129,27.832,34.180,62.500,37.598,0
1553635514.871,51.270,33.691,34.668,61.523,53.223,0
1553635514.875,43.457,31.250,35.645,65.430,34.180,0
1553635514.879,64.941,33.203,33.691,53.711,14.648,0
1553635514.883,70.801,37.109,31.250,31.250,22.461,0
1553635514.886,53.711,35.645,29.785,42.969,-8.301,0
1553635514.890,68.359,36.621,31.250,51.758,35.645,0
1553635514.894,50.293,36.621,32.227,48.340,72.754,0
1553635514.898,27.832,33.691,34.668,57.129,47.852,0
1553635514.902,38.574,34.668,34.668,46.875,53.223,0
1553635514.906,41.504,36.133,34.180,38.086,69.824,0
1553635514.910,38.574,32.227,35.156,38.086,52.734,0
1553635514.914,40.039,36.133,33.203,38.086,28.809,0
1553635514.918,44.922,39.551,30.273,30.762,26.855,0
1553635514.922,29.785,34.180,29.785,17.090,37.109,0
1553635514.926,39.062,32.227,32.227,29.297,42.480,0
1553635514.929,49.316,33.691,31.738,50.293,46.875,0
1553635514.933,28.320,31.738,30.273,35.645,39.551,0
1553635514.937,33.691,30.762,29.785,32.227,4.395,0
1553635514.941,42.969,34.668,28.320,44.922,6.348,0
1553635514.945,42.480,35.156,30.273,34.668,6.348,0
1553635514.949,35.645,34.668,29.297,16.113,34.668,0
1553635514.953,27.832,29.297,28.320,10.254,75.684,0
1553635514.957,26.855,26.855,31.250,30.273,63.477,0
1553635514.961,33.203,33.203,27.344,26.855,72.754,0
1553635514.965,25.879,30.273,26.855,23.438,67.871,0
1553635514.969,27.832,27.832,31.250,40.527,16.602,0
1553635514.972,36.133,30.762,31.738,32.227,40.039,0
1553635514.976,21.484,28.809,29.785,15.625,34.668,0
1553635514.980,20.020,25.391,32.715,35.645,0.000,0
1553635514.984,28.809,28.809,38.574,51.270,56.152,0
1553635514.988,30.762,28.809,39.062,48.828,112.793,0
1553635514.992,24.902,24.414,39.551,42.969,53.711,0
1553635514.996,14.648,27.832,37.109,30.762,49.316,0
1553635515.000,25.391,25.391,38.574,29.297,36.133,0
1553635515.004,24.414,25.879,39.551,24.414,-10.742,0
1553635515.008,17.090,31.738,33.691,36.621,55.664,0
1553635515.011,38.574,25.391,39.551,44.434,53.223,0
1553635515.015,19.531,22.461,40.039,21.973,-29.297,0
1553635515.019,11.719,28.809,33.691,40.039,6.836,0
1553635515.023,28.809,30.273,35.645,29.297,60.059,0
1553635515.027,25.879,27.344,36.133,26.367,17.090,0
1553635515.031,8.789,26.855,38.086,37.598,-3.906,0
1553635515.035,16.602,25.879,37.109,15.625,2.930,0
1553635515.039,37.598,28.809,30.273,16.602,-25.391,0
1553635515.043,40.039,31.250,26.855,37.109,-9.766,0
1553635515.047,28.809,29.785,29.297,17.090,20.996,0
1553635515.051,12.695,27.832,37.109,6.348,23.926,0
1553635515.054,30.273,23.926,36.621,28.320,45.410,0
1553635515.058,46.875,22.461,34.180,48.340,20.508,0
1553635515.062,39.062,25.879,36.133,51.270,22.949,0
1553635515.066,39.062,30.762,35.156,20.020,26.367,0
1553635515.070,48.340,30.273,36.133,16.602,34.180,0
1553635515.074,36.133,26.855,36.133,32.715,57.617,0
1553635515.078,18.555,25.391,35.156,39.062,60.059,0
1553635515.082,24.414,27.344,33.691,41.992,39.551,0
1553635515.086,44.434,24.902,31.250,61.035,19.531,0
1553635515.090,38.574,23.926,33.203,46.875,6.836,0
1553635515.094,30.273,28.809,34.180,24.902,58.105,0
1553635515.097,26.855,32.227,35.645,35.645,52.246,0
1553635515.101,28.809,29.785,37.598,35.645,31.738,0
1553635515.105,32.715,30.273,37.109,35.645,34.180,0
1553635515.109,39.062,33.203,36.133,35.156,38.574,0
1553635515.113,54.199,30.762,37.109,39.062,53.711,0
1553635515.117,45.898,27.344,39.551,65.918,0.977,0
1553635515.121,62.012,29.785,35.156,49.805,-3.906,0
1553635515.125,59.082,35.645,35.156,25.879,49.805,0
1553635515.129,25.879,33.203,35.645,33.203,80.078,0
1553635515.133,25.879,25.391,35.156,35.645,86.914,0
1553635515.136,23.438,24.902,36.133,22.949,55.664,0
1553635515.140,27.832,32.715,33.691,17.578,33.203,0
1553635515.144,37.109,32.715,32.715,36.133,11.719,0
1553635515.148,34.668,29.297,33.691,40.527,47.363,0
1553635515.152,23.438,29.785,31.738,25.879,48.828,0
1553635515.156,17.578,32.715,30.762,24.414,25.879,0
1553635515.160,31.250,31.738,35.156,27.344,93.750,0
1553635515.164,37.598,29.785,32.715,31.738,32.227,0
1553635515.168,28.809,30.273,31.738,36.621,-15.625,0
1553635515.172,31.738,29.785,33.691,42.969,10.742,0
1553635515.176,36.133,25.879,33.203,48.828,21.973,0
1553635515.179,27.344,24.414,33.691,39.551,9.277,0
1553635515.183,16.113,26.367,32.715,35.645,-2.441,0
1553635515.187,13.184,28.809,30.762,30.273,14.648,0
1553635515.191,29.297,27.832,30.762,34.668,-24.902,0
1553635515.195,42.480,25.879,33.691,36.133,-15.137,0
1553635515.199,17.090,32.227,32.227,24.414,20.996,0
1553635515.203,6.348,31.250,34.180,42.480,-49.316,0
1553635515.207,23.926,26.367,34.668,89.355,19.531,0
1553635515.211,31.250,26.367,30.273,65.918,92.285,0
1553635515.215,35.645,26.855,29.297,17.090,39.551,0
1553635515.219,37.598,28.809,31.738,31.738,56.641,0
1553635515.222,32.715,20.996,32.715,12.207,41.992,0
1553635515.226,21.484,16.113,27.832,7.324,-29.785,0
1553635515.230,25.879,19.531,29.297,27.344,-6.836,0
1553635515.234,41.016,25.879,29.785,20.996,66.406,0
1553635515.238,41.992,26.855,28.809,34.180,90.332,0
1553635515.242,20.020,22.461,31.738,50.293,71.289,0
1553635515.246,25.391,22.949,30.273,5.371,91.797,0
1553635515.250,26.855,24.414,29.785,19.043,82.031,0
1553635515.254,14.160,23.926,32.715,7.812,26.367,0
1553635515.258,22.949,21.973,33.203,-9.766,-31.738,0
1553635515.261,20.508,22.949,31.738,15.137,-23.438,0
1553635515.265,16.602,24.902,28.320,16.113,27.344,0
1553635515.269,39.062,27.344,29.297,19.043,37.109,0
1553635515.273,42.969,29.297,34.668,19.531,53.223,0
1553635515.277,32.227,27.832,34.668,10.254,41.992,0
1553635515.281,33.203,21.484,34.180,18.555,20.996,0
1553635515.285,31.738,19.531,33.691,25.391,34.668,0
1553635515.289,28.809,20.996,32.715,4.883,13.184,0
1553635515.293,34.180,26.367,31.738,-9.766,12.207,0
1553635515.297,43.457,28.809,31.738,7.812,11.719,0
1553635515.301,32.227,25.391,32.715,26.367,27.344,0
1553635515.304,29.297,29.785,29.297,7.324,78.613,0
1553635515.308,34.180,32.227,26.855,-2.930,90.820,0
1553635515.312,30.273,28.320,26.367,22.949,116.211,0
1553635515.316,42.480,31.738,30.273,24.414,98.145,0
1553635515.320,49.316,33.203,32.715,-2.441,69.824,0
1553635515.324,39.551,36.133,30.762,3.906,110.840,0
1553635515.328,42.969,33.691,34.180,41.016,42.969,0
1553635515.332,35.645,28.809,34.668,21.973,-60.547,0
1553635515.336,30.762,32.715,30.762,-14.160,-4.883,0
1553635515.340,24.414,29.297,27.832,-1.953,45.410,0
1553635515.344,19.531,29.297,29.297,1.465,57.129,0
1553635515.347,25.391,29.297,32.715,8.301,56.152,0
1553635515.351,31.738,28.320,31.738,34.180,26.367,0
1553635515.355,44.434,29.297,28.320,17.578,42.969,0
1553635515.359,49.316,30.273,28.320,-11.230,37.598,0
1553635515.363,37.109,30.273,31.738,6.836,8.301,0
1553635515.367,25.879,27.344,32.715,11.719,5.371,0
1553635515.371,22.949,30.273,29.785,6.836,-16.602,0
1553635515.375,21.973,31.250,27.832,-12.207,-11.719,0
1553635515.379,19.531,29.785,29.785,-18.066,-0.488,0
1553635515.383,21.973,31.738,29.785,2.930,-26.367,0
1553635515.386,24.902,27.832,28.320,9.277,-13.672,0
1553635515.390,9.277,25.391,31.738,11.230,9.766,0
1553635515.394,23.438,30.273,31.250,28.320,-9.277,0
1553635515.398,29.785,30.273,29.297,19.043,-10.742,0
1553635515.402,25.879,27.344,28.320,0.488,71.289,0
1553635515.406,35.156,27.832,27.344,7.324,97.168,0
1553635515.410,28.320,29.297,28.809,14.160,16.113,0
1553635515.414,28.809,29.297,30.273,19.043,-2.930,0
1553635515.418,41.504,29.297,27.832,15.625,-12.695,0
1553635515.422,30.273,33.203,27.832,19.531,25.391,0
1553635515.426,26.367,34.180,31.738,29.785,52.734,0
1553635515.429,36.621,29.785,34.180,9.766,26.855,0
1553635515.433,30.273,28.320,31.250,16.602,82.031,0
1553635515.437,31.738,29.785,31.250,25.879,71.289,0
1553635515.441,38.086,28.320,31.250,28.320,56.152,0
1553635515.445,24.414,25.879,26.367,20.020,47.852,0
1553635515.449,17.090,25.879,28.320,-5.371,43.457,0
1553635515.453,27.832,23.926,30.762,0.488,19.043,0
1553635515.457,45.898,25.879,26.855,19.043,22.949,0
1553635515.461,42.969,25.879,26.855,17.090,40.039,0
1553635515.465,24.902,20.996,27.832,18.066,5.371,0
1553635515.469,27.344,24.902,28.320,13.672,16.113,0
1553635515.472,32.715,29.297,27.344,17.090,33.203,0
1553635515.476,40.039,26.855,25.879,59.570,1.465,0
1553635515.480,41.016,27.344,26.855,53.223,12.207,0
1553635515.484,33.203,26.367,26.855,24.414,54.688,0
1553635515.488,25.879,23.438,26.855,20.996,70.312,0
1553635515.492,33.691,22.461,28.809,-2.441,97.656,0
1553635515.496,38.574,23.926,28.809,4.883,98.145,0
1553635515.500,36.621,27.832,25.879,20.508,25.879,0
1553635515.504,32.715,30.273,24.414,36.621,-24.902,0
1553635515.508,35.645,23.438,24.414,34.180,18.066,0
1553635515.511,43.945,20.020,25.879,18.555,25.391,0
1553635515.515,37.109,25.879,26.367,27.344,0.977,0
1553635515.519,31.738,23.926,27.344,42.480,-11.230,0
1553635515.523,36.621,24.414,28.809,17.578,2.930,0
1553635515.527,35.156,23.926,31.738,19.531,-1.465,0
1553635515.531,35.645,24.902,29.785,42.969,-26.367,0
1553635515.535,30.273,26.855,26.855,33.691,-6.348,0
1553635515.539,27.344,25.391,25.391,14.160,-13.184,0
1553635515.543,33.691,23.926,25.391,9.766,-17.090,0
1553635515.547,35.156,30.273,28.320,24.414,33.691,0
1553635515.551,37.598,34.180,27.344,11.719,70.801,0
1553635515.554,44.922,30.273,28.809,-5.859,37.109,0
1553635515.558,36.133,31.738,28.320,0.000,42.480,0
1553635515.562,27.344,32.715,29.297,12.207,54.688,0
1553635515.566,34.180,33.691,32.227,17.090,43.945,0
1553635515.570,36.133,29.297,32.715,13.672,49.805,0
1553635515.574,30.762,26.855,29.785,17.090,35.645,0
1553635515.578,17.090,28.809,31.250,42.480,45.898,0
1553635515.582,16.113,26.367,34.180,41.504,62.012,0
1553635515.586,32.227,31.738,34.180,6.836,33.691,0
1553635515.590,41.992,36.621,35.156,6.348,-6.836,0
1553635515.594,32.227,28.809,34.668,23.438,-4.395,0
1553635515.597,20.996,24.414,32.715,28.809,-26.855,0
1553635515.601,15.137,25.879,33.203,25.391,-0.977,0
1553635515.605,22.949,28.320,30.762,39.551,35.156,0
1553635515.609,31.738,30.762,30.762,35.156,12.695,0
1553635515.613,40.039,28.320,33.691,25.879,41.992,0
1553635515.617,34.180,31.738,32.715,13.184,50.781,0
1553635515.621,21.484,40.039,33.691,11.230,45.410,0
1553635515.625,15.625,37.109,35.156,34.180,20.508,0
1553635515.629,26.855,31.738,34.180,32.715,-12.207,0
1553635515.633,30.762,31.250,34.668,18.555,15.625,0
1553635515.636,25.879,30.273,32.715,16.602,21.484,0
1553635515.640,27.832,32.715,33.691,24.902,48.828,0
1553635515.644,34.180,37.598,32.715,40.039,64.941,0
1553635515.648,37.109,32.715,33.691,41.016,50.781,0
1553635515.652,30.762,30.762,35.645,30.273,34.668,0
1553635515.656,28.320,33.691,35.645,40.039,-5.371,0
1553635515.660,35.156,29.297,37.109,21.484,-11.230,0
1553635515.664,26.367,27.344,38.574,13.184,27.832,0
1553635515.668,20.020,33.203,37.598,29.297,29.785,0
1553635515.672,32.715,35.156,31.250,20.996,3.418,0
1553635515.676,31.738,31.250,31.738,22.949,8.301,0
1553635515.679,34.668,31.738,35.156,35.156,39.551,0
1553635515.683,31.738,34.668,36.133,28.320,17.090,0
1553635515.687,36.621,31.738,34.180,40.039,-0.977,0
1553635515.691,40.527,28.320,32.715,49.805,13.184,0
1553635515.695,34.668,29.785,34.180,27.344,-12.207,0
1553635515.699,32.227,28.809,35.156,22.461,-32.715,0
1553635515.703,33.203,25.879,30.273,30.762,-28.809,0
1553635515.707,38.574,27.832,26.855,36.133,-20.508,0
1553635515.711,30.273,29.785,31.738,49.316,-5.859,0
1553635515.715,36.133,26.367,36.133,44.922,34.180,0
1553635515.719,34.668,27.344,36.621,36.133,42.480,0
1553635515.722,32.715,31.250,37.598,30.762,39.062,0
1553635515.726,30.273,32.715,39.062,15.137,39.551,0
1553635515.730,28.320,32.227,37.598,22.461,15.137,0
1553635515.734,40.527,34.180,35.156,41.016,20.508,0
1553635515.738,35.156,37.109,34.180,42.969,62.988,0
1553635515.742,31.250,33.203,30.273,27.832,61.035,0
1553635515.746,41.992,31.250,28.809,54.199,8.789,0
1553635515.750,48.828,35.156,29.785,55.664,23.438,0
1553635515.754,32.227,38.086,31.250,11.230,46.875,0
1553635515.758,28.320,41.992,29.785,13.672,15.625,0
1553635515.761,30.762,38.086,30.762,20.020,10.254,0
1553635515.765,31.738,31.738,33.203,20.020,51.758,0
1553635515.769,37.109,33.203,31.250,35.156,48.828,0
1553635515.773,30.273,36.133,33.203,39.062,35.156,0
1553635515.777,30.273,36.133,35.156,34.668,60.547,0
1553635515.781,39.062,36.133,33.691,49.316,60.547,0
1553635515.785,37.598,38.086,30.273,34.180,70.312,0
1553635515.789,33.203,33.203,29.785,11.230,89.355,0
1553635515.793,31.738,28.320,31.250,18.555,29.297,0
1553635515.797,38.574,31.250,33.203,22.949,-3.418,0
1553635515.801,41.992,32.715,33.203,42.969,34.180,0
1553635515.804,46.875,23.438,35.156,46.875,41.504,0
1553635515.808,52.734,20.996,31.250,35.645,44.434,0
1553635515.812,37.598,27.832,12.207,48.828,59.570,0
1553635515.816,25.391,31.738,16.602,34.180,62.500,0
1553635515.820,29.785,35.645,33.691,28.320,26.855,0
1553635515.824,35.156,35.645,38.086,56.152,20.508,0
1553635515.828,32.227,32.715,28.809,64.941,-2.441,0
1553635515.832,31.250,37.109,11.719,64.941,14.160,0
1553635515.836,41.016,34.180,18.555,54.688,-15.625,0
1553635515.840,25.879,25.391,33.691,30.762,17.578,0
1553635515.844,24.902,18.555,41.016,54.199,56.152,0
1553635515.847,51.758,20.996,22.461,89.844,55.176,0
1553635515.851,42.480,29.785,-4.883,84.961,49.316,0
1553635515.855,28.809,22.949,1.465,64.941,15.137,0
1553635515.859,38.086,27.344,7.812,22.461,31.738,0
1553635515.863,28.809,26.855,28.809,-15.137,20.020,0
1553635515.867,17.090,16.602,59.570,51.270,12.695,0
1553635515.871,22.949,20.996,54.688,97.656,7.812,0
1553635515.875,20.020,20.996,40.527,42.480,11.230,0
1553635515.879,20.020,7.812,50.781,29.785,24.414,0
1553635515.883,24.902,6.348,65.918,34.180,25.879,0
1553635515.886,15.625,-5.371,66.895,83.008,-16.602,0
1553635515.890,-8.301,-35.645,102.051,133.789,24.902,0
1553635515.894,-2.930,-28.320,102.539,92.285,53.711,0
1553635515.898,19.531,0.488,55.664,72.754,39.551,0
1553635515.902,18.066,2.930,79.590,29.785,21.484,0
1553635515.906,18.555,-6.348,79.590,-19.531,-3.418,0
1553635515.910,41.992,-6.836,63.965,31.738,27.344,0
1553635515.914,43.457,-3.418,121.094,71.289,25.391,0
1553635515.918,0.977,-11.719,145.020,32.715,-7.324,0
1553635515.922,10.254,-46.875,138.184,27.832,-13.184,0
1553635515.926,52.246,-42.480,159.180,62.012,27.832,0
1553635515.929,28.320,-0.488,163.086,87.402,22.461,0
1553635515.933,22.949,5.859,118.652,137.695,18.066,0
1553635515.937,55.664,27.344,68.359,191.895,41.504,0
1553635515.941,15.137,15.137,125.977,158.691,27.344,0
1553635515.945,-31.738,-19.043,195.801,117.188,23.926,0
1553635515.949,-18.066,0.000,184.570,20.508,4.395,0
1553635515.953,1.953,20.020,168.945,-58.594,16.602,0
1553635515.957,7.812,9.766,185.547,-40.527,48.828,0
1553635515.961,24.414,17.090,160.645,-12.207,60.547,0
1553635515.965,28.809,44.922,143.555,15.625,124.023,0
1553635515.969,21.973,55.176,184.570,34.668,106.445,0
1553635515.972,29.297,45.898,202.148,60.059,45.410,0
1553635515.976,37.598,49.805,173.340,45.410,25.879,0
1553635515.980,27.832,64.453,189.453,31.738,40.039,0
1553635515.984,12.207,67.383,248.535,36.133,34.668,0
1553635515.988,42.969,70.801,229.004,41.504,37.598,0
1553635515.992,56.152,75.684,210.938,54.199,55.176,0
1553635515.996,9.766,85.449,228.516,61.035,54.688,0
1553635516.000,12.207,83.984,217.773,31.738,12.207,0
1553635516.004,25.391,80.078,203.613,10.742,28.809,0
1553635516.008,34.180,92.285,198.730,32.715,84.961,0
1553635516.011,38.574,100.098,185.059,51.270,35.156,0
1553635516.015,31.738,98.145,180.176,49.316,34.668,0
1553635516.019,33.691,94.238,200.195,61.035,90.820,0
1553635516.023,32.227,90.820,204.102,63.477,63.477,0
1553635516.027,14.160,95.215,196.777,56.641,-24.414,0
1553635516.031,16.113,101.562,197.754,65.918,27.344,0
1553635516.035,43.457,102.051,184.570,54.688,94.238,0
1553635516.039,47.363,105.957,172.852,39.062,60.059,0
1553635516.043,31.250,111.328,174.805,32.715,59.570,0
1553635516.047,18.066,110.352,164.551,38.574,64.453,0
1553635516.051,22.949,109.375,164.062,33.203,77.148,0
1553635516.054,12.207,106.445,170.898,50.293,45.410,0
1553635516.058,34.180,103.027,154.785,52.734,40.527,0
1553635516.062,47.852,96.680,137.695,46.875,37.598,0
1553635516.066,15.625,98.633,145.996,52.246,-23.438,0
1553635516.070,25.391,104.980,157.227,46.875,19.531,0
1553635516.074,35.645,105.469,157.227,40.039,32.227,0
1553635516.078,26.367,103.027,148.438,33.691,31.738,0
1553635516.082,26.855,104.004,125.488,45.410,36.133,0
1553635516.086,24.902,114.258,119.629,50.293,24.414,0
1553635516.090,23.926,110.352,125.977,43.457,77.637,0
1553635516.094,36.621,91.797,130.371,54.688,46.387,0
1553635516.097,54.199,87.402,136.719,46.387,28.809,0
1553635516.101,44.434,88.867,128.906,39.551,21.484,0
1553635516.105,10.254,83.984,131.836,82.031,21.973,0
1553635516.109,15.625,88.867,130.371,83.496,51.270,0
1553635516.113,24.414,93.262,118.652,39.062,35.156,0
1553635516.117,27.832,80.566,118.652,35.645,32.715,0
1553635516.121,17.578,73.730,120.117,41.504,29.297,0
1553635516.125,30.273,77.148,121.582,54.199,8.301,0
1553635516.129,42.480,82.031,121.094,66.895,-9.277,0
1553635516.133,34.668,80.078,111.816,62.012,-26.367,0
1553635516.136,43.457,73.242,96.191,48.340,-4.395,0
1553635516.140,34.668,66.895,99.121,60.547,13.184,0
1553635516.144,23.926,69.824,115.234,76.660,18.555,0
1553635516.148,22.949,72.754,113.281,50.293,33.203,0
1553635516.152,2.441,73.242,104.004,18.555,25.879,0
1553635516.156,-10.742,78.125,101.074,31.738,4.883,0
1553635516.160,19.043,80.078,105.469,45.898,55.176,0
1553635516.164,26.367,77.637,104.492,89.355,55.664,0
1553635516.168,4.395,69.824,106.934,89.844,5.859,0
1553635516.172,19.043,68.359,105.469,3.906,12.207,0
1553635516.176,29.785,66.406,102.539,-10.254,13.672,0
1553635516.179,26.855,58.105,101.562,15.625,-9.766,0
1553635516.183,21.484,61.035,96.191,43.457,32.715,0
1553635516.187,4.883,64.941,97.656,28.320,37.109,0
1553635516.191,27.832,66.895,102.051,16.602,75.195,0
1553635516.195,20.996,65.918,101.074,41.504,102.539,0
1553635516.199,-14.648,62.988,98.145,29.297,22.949,0
1553635516.203,-14.648,63.965,95.215,18.555,-11.719,0
1553635516.207,3.418,62.500,98.145,6.836,0.000,0
1553635516.211,20.020,61.035,101.562,27.344,-21.973,0
1553635516.215,6.348,60.547,102.051,48.340,10.742,0
1553635516.219,-11.719,62.500,98.633,70.312,56.152,0
1553635516.222,16.113,63.477,96.680,56.641,10.742,0
1553635516.226,17.578,60.059,92.773,12.207,-5.371,0
1553635516.230,5.371,62.500,92.285,7.812,57.617,0
1553635516.234,18.555,64.941,93.750,37.598,77.148,0
1553635516.238,7.812,62.988,92.285,63.965,37.598,0
1553635516.242,21.484,54.199,85.938,52.734,37.109,0
1553635516.246,21.484,49.805,84.961,0.488,44.434,0
1553635516.250,14.648,58.594,90.820,-28.809,-0.488,0
1553635516.254,16.602,62.988,87.402,8.789,-8.301,0
1553635516.258,9.277,56.152,86.426,26.855,-22.949,0
1553635516.261,-5.859,49.805,87.891,8.789,1.465,0
1553635516.265,-16.113,55.664,85.449,8.301,11.230,0
1553635516.269,7.812,62.012,81.543,21.973,43.457,0
1553635516.273,23.438,60.059,82.520,26.855,79.102,0
1553635516.277,25.391,54.199,83.496,16.602,15.137,0
1553635516.281,22.461,54.688,83.496,10.254,-11.230,0
1553635516.285,18.066,54.688,82.520,20.996,58.594,0
1553635516.289,7.812,48.340,82.520,29.785,90.820,0
1553635516.293,-0.488,50.293,80.078,20.508,78.613,0
1553635516.297,19.531,53.223,74.219,14.160,41.016,0
1553635516.301,26.855,50.781,74.707,1.953,35.156,0
1553635516.304,11.230,50.781,76.172,5.371,36.133,0
1553635516.308,10.742,52.246,75.684,7.324,55.176,0
1553635516.312,19.531,51.758,68.848,0.000,48.828,0
1553635516.316,15.137,48.828,64.941,19.531,-38.086,0
1553635516.320,10.742,45.410,62.988,18.555,-33.203,0
1553635516.324,12.207,46.875,63.477,33.203,20.996,0
1553635516.328,6.348,49.805,68.359,45.410,34.180,0
1553635516.332,4.883,46.387,68.359,40.527,25.879,0
1553635516.336,10.742,46.387,69.336,27.832,58.105,0
1553635516.340,24.902,47.363,71.289,15.137,48.828,0
1553635516.344,16.602,46.387,65.430,17.090,-21.484,0
1553635516.347,6.836,41.992,61.035,33.203,0.977,0
1553635516.351,23.438,37.598,61.035,48.828,-23.926,0
1553635516.355,19.043,43.457,56.641,33.203,-6.836,0
1553635516.359,17.578,49.805,57.129,25.391,71.777,0
1553635516.363,26.855,45.410,59.570,38.086,40.527,0
1553635516.367,26.367,40.527,59.570,27.344,55.176,0
1553635516.371,18.066,45.898,48.340,13.672,72.754,0
1553635516.375,19.531,43.945,43.945,13.672,62.500,0
1553635516.379,27.832,40.527,57.617,9.766,65.918,0
1553635516.383,25.879,41.016,63.965,31.738,51.758,0
1553635516.386,20.020,39.551,61.035,36.621,-18.066,0
1553635516.390,7.324,40.527,48.828,10.742,-6.836,0
1553635516.394,7.324,36.621,47.852,-6.836,5.859,0
1553635516.398,6.836,37.109,58.105,5.859,43.945,0
1553635516.402,22.461,38.086,56.152,32.227,89.355,0
1553635516.406,20.020,38.086,53.711,25.879,70.801,0
1553635516.410,10.742,36.133,45.410,9.766,70.312,0
1553635516.414,15.625,38.574,41.992,8.301,69.336,0
1553635516.418,4.395,42.480,47.363,16.113,79.590,0
1553635516.422,3.906,37.109,46.875,15.137,64.453,0
1553635516.426,25.879,40.039,41.016,27.832,74.219,0
1553635516.429,25.391,44.434,39.062,41.992,79.102,0
1553635516.433,23.438,42.480,34.668,29.297,50.293,0
1553635516.437,44.434,38.086,37.109,23.438,92.285,0
1553635516.441,12.207,30.762,45.410,43.945,63.965,0
1553635516.445,-1.465,33.203,43.945,41.016,27.344,0
1553635516.449,8.301,38.086,41.992,25.879,45.898,0
1553635516.453,10.742,34.180,35.156,19.043,41.016,0
1553635516.457,22.949,31.738,33.203,-6.836,27.832,0
1553635516.461,28.320,35.156,39.551,1.953,23.438,0
1553635516.465,18.066,37.598,40.527,17.090,53.711,0
1553635516.469,18.555,34.180,32.715,25.391,74.219,0
1553635516.472,22.949,31.250,40.039,41.016,35.156,0
1553635516.476,19.043,35.156,45.410,41.504,30.273,0
1553635516.480,21.484,32.227,37.598,45.410,7.324,0
1553635516.484,35.156,33.691,36.621,48.340,13.672,0
1553635516.488,31.250,34.668,41.016,33.203,24.902,0
1553635516.492,26.367,30.273,37.109,21.484,15.625,0
1553635516.496,30.273,30.762,29.297,24.902,27.344,0
1553635516.500,33.203,28.809,27.832,27.832,37.109,0
1553635516.504,23.926,28.320,28.809,23.926,60.059,0
1553635516.508,4.883,34.180,32.715,31.738,54.688,0
1553635516.511,10.742,33.203,33.691,30.273,12.695,0
1553635516.515,23.438,30.273,32.227,25.391,12.695,0
1553635516.519,20.996,30.273,32.227,7.812,4.395,0
1553635516.523,18.066,28.809,34.180,11.230,9.277,0
1553635516.527,17.578,27.832,33.691,18.555,37.109,0
1553635516.531,15.137,25.391,31.738,22.461,-9.277,0
1553635516.535,21.973,29.297,26.367,23.926,-2.441,0
1553635516.539,28.320,28.320,23.926,31.738,31.738,0
1553635516.543,20.996,25.391,25.391,26.367,16.113,0
1553635516.547,13.184,26.855,29.297,43.457,10.254,0
1553635516.551,21.484,27.832,26.855,47.852,30.762,0
1553635516.554,16.113,27.344,25.879,19.531,47.852,0
1553635516.558,14.648,27.832,23.926,29.297,24.902,0
1553635516.562,30.762,27.344,23.438,28.809,55.176,0
1553635516.566,35.156,29.785,31.250,33.691,83.008,0
1553635516.570,22.949,33.203,35.156,33.203,54.199,0
1553635516.574,20.508,35.156,32.715,64.453,47.852,0
1553635516.578,33.203,33.691,30.273,65.918,62.988,0
1553635516.582,31.250,30.762,30.762,22.461,67.871,0
1553635516.586,19.043,27.344,29.297,28.320,5.371,0
1553635516.590,29.785,24.414,26.367,23.926,0.977,0
1553635516.594,28.320,32.715,25.879,25.879,56.641,0
1553635516.597,14.160,37.109,26.855,51.758,9.766,0
1553635516.601,21.973,29.785,24.902,38.086,22.461,0
1553635516.605,30.273,31.250,20.508,18.555,33.691,0
1553635516.609,33.691,34.668,19.043,17.578,1.953,0
1553635516.613,21.484,33.691,15.625,27.832,43.945,0
1553635516.617,19.043,30.273,18.066,38.086,51.270,0
1553635516.621,22.949,25.391,26.367,44.922,57.129,0
1553635516.625,14.648,27.832,29.785,38.574,56.641,0
1553635516.629,18.066,31.738,29.785,24.902,73.242,0
1553635516.633,31.250,27.344,26.855,45.410,44.922,0
1553635516.636,29.785,24.414,25.391,45.410,0.000,0
1553635516.640,39.062,28.809,26.367,28.809,34.180,0
1553635516.644,34.668,28.809,23.926,37.598,73.242,0
1553635516.648,24.414,26.367,21.973,49.805,102.051,0
1553635516.652,43.945,25.391,24.414,54.199,39.062,0
1553635516.656,49.316,25.879,21.973,46.387,-51.270,0
1553635516.660,41.016,26.855,22.949,28.320,-0.977,0
1553635516.664,23.926,26.367,23.438,17.090,41.016,0
1553635516.668,26.855,25.879,23.926,22.461,48.828,0
1553635516.672,25.879,24.902,21.973,22.461,58.105,0
1553635516.676,28.320,25.391,11.719,40.527,61.035,0
1553635516.679,36.133,24.902,16.602,58.105,5.371,0
1553635516.683,39.551,24.902,25.391,28.809,-12.207,0
1553635516.687,37.598,24.902,23.926,34.668,36.621,0
1553635516.691,37.109,20.996,24.902,47.363,5.859,0
1553635516.695,30.762,15.625,19.043,31.250,24.414,0
1553635516.699,12.695,18.555,13.672,14.160,35.645,0
1553635516.703,14.160,19.531,21.484,25.391,-7.812,0
1553635516.707,20.996,20.508,24.902,48.340,6.836,0
1553635516.711,18.066,22.461,19.043,43.457,50.293,0
1553635516.715,20.508,21.484,15.625,24.414,61.523,0
1553635516.719,27.344,23.438,14.160,30.273,93.750,0
1553635516.722,24.902,23.438,12.695,23.926,65.918,0
1553635516.726,25.879,21.973,15.625,38.086,20.508,0
1553635516.730,28.320,21.484,18.555,42.969,-3.906,0
1553635516.734,27.832,24.414,16.602,28.809,55.664,0
1553635516.738,25.879,23.438,14.648,25.391,61.035,0
1553635516.742,21.973,18.555,16.113,10.742,4.883,0
1553635516.746,19.531,21.484,15.137,21.973,15.137,0
1553635516.750,19.531,20.996,18.066,35.156,-14.648,0
1553635516.754,21.484,20.020,23.438,18.066,-26.367,0
1553635516.758,29.297,21.973,26.367,18.555,-2.930,0
1553635516.761,25.391,22.949,25.879,29.297,22.461,0
1553635516.765,10.742,24.414,24.902,20.508,30.273,0
1553635516.769,8.301,24.902,29.785,11.230,31.250,0
1553635516.773,-0.977,13.184,33.203,39.551,63.965,0
1553635516.777,8.789,16.113,32.715,33.691,99.609,0
1553635516.781,13.184,31.738,28.809,0.000,63.477,0
1553635516.785,-13.672,28.320,33.203,-17.090,22.949,0
1553635516.789,-24.902,21.484,33.691,-33.203,17.578,0
1553635516.793,-35.645,25.879,33.203,-36.133,-6.836,0
1553635516.797,-59.082,38.574,38.574,-66.406,39.062,0
1553635516.801,-70.801,41.992,40.039,-95.215,81.055,0
1553635516.804,-122.070,47.363,35.645,-123.047,80.078,0
1553635516.808,-166.016,56.641,29.297,-154.297,53.711,0
1553635516.812,-168.457,63.477,32.715,-182.617,35.156,0
1553635516.816,-185.059,69.336,29.785,-202.148,47.363,0
1553635516.820,-210.938,84.961,18.066,-221.191,7.324,0
1553635516.824,-220.215,90.332,6.836,-246.094,0.977,0
1553635516.828,-230.469,91.797,3.906,-262.695,-9.277,0
1553635516.832,-264.648,104.980,-1.465,-307.617,25.879,0
1553635516.836,-270.508,116.211,-7.812,-334.473,29.785,0
1553635516.840,-249.023,121.094,-14.160,-321.289,-14.648,0
1553635516.844,-262.695,122.559,-25.391,-345.703,-33.691,0
1553635516.847,-271.484,134.766,-29.297,-352.539,-62.500,0
1553635516.851,-248.535,147.949,-43.945,-348.633,-2.930,0
1553635516.855,-231.934,151.855,-51.270,-348.145,19.043,0
1553635516.859,-238.281,153.809,-55.176,-328.613,-18.555,0
1553635516.863,-233.887,166.016,-68.359,-328.613,42.969,0
1553635516.867,-229.004,169.922,-71.777,-328.125,66.895,0
1553635516.871,-198.730,171.387,-72.266,-289.551,49.316,0
1553635516.875,-172.852,173.828,-78.613,-293.457,37.598,0
1553635516.879,-171.875,171.875,-87.402,-291.992,58.594,0
1553635516.883,-148.926,179.199,-95.215,-247.559,40.527,0
1553635516.886,-131.348,180.176,-101.562,-232.910,0.488,0
1553635516.890,-105.469,177.246,-106.445,-225.098,-8.789,0
1553635516.894,-80.566,179.688,-109.863,-210.938,64.453,0
1553635516.898,-61.035,173.828,-111.328,-189.453,46.875,0
1553635516.902,-27.832,174.316,-115.723,-158.691,12.207,0
1553635516.906,-9.277,171.875,-121.094,-139.648,91.309,0
1553635516.910,6.836,160.156,-123.047,-100.098,72.754,0
1553635516.914,38.574,158.691,-128.906,-72.754,39.551,0
1553635516.918,71.777,153.320,-133.301,-58.105,35.156,0
1553635516.922,110.352,150.879,-140.137,-28.809,31.250,0
1553635516.926,120.605,153.809,-146.484,-15.625,103.516,0
1553635516.929,130.371,140.137,-143.066,9.277,75.684,0
1553635516.933,166.992,129.883,-140.625,46.875,11.230,0
1553635516.937,182.617,127.441,-136.719,67.871,48.340,0
1553635516.941,198.242,119.141,-135.742,89.844,53.223,0
1553635516.945,209.961,111.328,-134.277,112.305,0.488,0
1553635516.949,211.914,102.539,-126.953,126.953,-24.414,0
1553635516.953,222.168,100.586,-127.441,131.836,-12.695,0
1553635516.957,227.539,96.680,-125.488,132.324,14.648,0
1553635516.961,241.699,89.355,-122.070,143.555,38.574,0
1553635516.965,241.211,86.914,-117.676,139.160,29.785,0
1553635516.969,240.234,80.566,-111.816,159.668,15.625,0
1553635516.972,247.559,78.125,-111.816,178.223,6.348,0
1553635516.976,253.418,74.219,-105.957,159.180,23.438,0
1553635516.980,257.812,71.289,-100.586,163.086,50.293,0
1553635516.984,251.953,71.289,-100.098,161.621,27.832,0
1553635516.988,246.094,62.500,-97.168,167.969,-3.418,0
1553635516.992,255.859,54.199,-92.773,192.871,21.973,0
1553635516.996,252.441,52.734,-84.961,180.664,21.484,0
1553635517.000,218.262,51.270,-80.078,165.039,27.832,0
1553635517.004,211.426,43.457,-74.219,166.016,38.086,0
1553635517.008,217.773,38.574,-70.801,142.578,73.730,0
1553635517.011,204.102,36.133,-65.918,136.719,44.434,0
1553635517.015,190.918,36.621,-61.035,130.859,18.066,0
1553635517.019,183.105,32.227,-55.176,118.164,30.273,0
1553635517.023,172.852,26.367,-48.340,134.277,26.367,0
1553635517.027,163.086,24.902,-41.992,141.113,53.223,0
1553635517.031,150.879,23.926,-35.156,127.441,26.367,0
1553635517.035,145.020,23.438,-30.273,123.535,27.832,0
1553635517.039,135.254,18.555,-25.879,129.395,13.184,0
1553635517.043,132.812,18.066,-24.414,112.793,-10.254,0
1553635517.047,127.930,19.043,-20.996,96.191,42.969,0
1553635517.051,120.117,13.672,-15.137,102.539,31.738,0
1553635517.054,124.023,12.695,-11.719,109.375,14.648,0
1553635517.058,124.512,15.625,-8.789,89.355,21.973,0
1553635517.062,116.699,15.625,-5.859,83.008,41.016,0
1553635517.066,99.609,13.672,-5.371,91.797,53.711,0
1553635517.070,103.027,8.301,-3.418,93.750,-3.418,0
1553635517.074,102.539,12.695,-5.859,81.543,31.250,0
1553635517.078,84.473,14.160,-5.371,74.707,50.781,0
1553635517.082,80.566,7.812,0.977,83.496,33.691,0
1553635517.086,90.332,9.766,4.395,68.848,11.230,0
1553635517.090,80.078,13.672,4.883,49.316,67.383,0
1553635517.094,67.383,13.672,4.395,61.035,121.582,0
1553635517.097,62.988,9.277,6.348,74.219,88.867,0
1553635517.101,62.012,5.371,9.277,76.660,75.195,0
1553635517.105,63.965,7.812,6.836,67.383,68.848,0
1553635517.109,60.059,9.766,6.836,63.965,-2.441,0
1553635517.113,58.105,7.324,9.766,44.922,-42.969,0
1553635517.117,52.734,5.371,8.789,37.598,-40.527,0
1553635517.121,53.223,11.719,10.254,51.270,4.395,0
1553635517.125,53.711,11.230,11.719,49.805,52.734,0
1553635517.129,42.480,9.277,9.766,33.203,38.086,0
1553635517.133,32.715,9.277,12.207,19.043,49.316,0
1553635517.136,26.367,12.207,12.695,15.625,19.531,0
1553635517.140,25.879,15.625,11.719,26.367,-28.320,0
1553635517.144,22.949,13.184,17.090,25.879,-41.992,0
1553635517.148,10.254,14.160,18.555,10.254,-8.301,0
1553635517.152,6.836,19.043,19.043,19.043,30.762,0
1553635517.156,8.301,18.555,23.438,18.066,41.992,0
1553635517.160,0.488,15.137,25.391,-3.418,9.277,0
1553635517.164,1.465,20.996,25.391,5.371,2.930,0
1553635517.168,6.836,28.320,26.367,4.395,19.043,0
1553635517.172,1.953,28.320,29.785,-0.488,1.465,0
1553635517.176,-11.719,29.785,31.250,0.488,-20.020,0
1553635517.179,-17.090,36.133,28.809,-10.742,41.992,0
1553635517.183,-20.020,38.574,28.320,-15.625,53.711,0
1553635517.187,-22.461,41.016,32.227,-13.184,14.648,0
1553635517.191,-22.461,46.875,28.809,-11.230,12.695,0
1553635517.195,-13.672,46.387,26.367,-5.371,49.316,0
1553635517.199,-5.859,47.363,28.809,11.719,50.293,0
1553635517.203,-10.742,49.805,28.320,-1.465,68.848,0
1553635517.207,-19.043,48.828,28.320,-19.043,112.793,0
1553635517.211,-25.391,52.734,31.250,-14.160,164.062,0
1553635517.215,-12.695,50.781,31.738,-3.906,67.871,0
1553635517.219,-17.090,47.363,31.250,-1.465,50.781,0
1553635517.222,-17.090,47.852,31.250,-15.625,52.246,0
1553635517.226,-5.859,48.828,31.250,-17.578,69.336,0
1553635517.230,-26.367,45.410,32.227,-12.207,116.211,0
1553635517.234,-31.738,43.457,29.297,-3.418,43.945,0
1553635517.238,-22.949,44.434,25.879,-14.648,20.508,0
1553635517.242,-18.555,42.969,28.320,-20.508,50.781,0
1553635517.246,-15.137,44.434,28.809,2.930,53.223,0
1553635517.250,-10.742,44.434,30.273,15.137,56.641,0
1553635517.254,-7.812,46.875,29.785,-0.488,95.703,0
1553635517.258,-18.066,50.781,28.320,-14.160,86.914,0
1553635517.261,-21.484,46.387,31.738,-17.578,18.555,0
1553635517.265,-16.113,44.922,33.691,-16.113,10.254,0
1553635517.269,-14.160,49.316,31.250,7.812,67.383,0
1553635517.273,-14.160,50.293,27.832,16.113,98.145,0
1553635517.277,-12.695,48.340,28.320,-7.324,62.012,0
1553635517.281,-13.184,50.293,27.832,-4.883,-8.789,0
1553635517.285,-18.066,56.641,21.484,-6.348,25.391,0
1553635517.289,-19.043,55.664,22.461,0.488,9.766,0
1553635517.293,-9.766,52.734,24.414,-5.371,-8.789,0
1553635517.297,-6.348,55.176,24.902,-18.555,47.363,0
1553635517.301,-15.625,59.082,23.926,0.488,38.086,0
1553635517.304,-8.301,60.059,18.555,-4.883,31.738,0
1553635517.308,2.930,60.059,20.508,-8.789,30.762,0
1553635517.312,-5.371,59.082,21.484,-14.648,2.441,0
1553635517.316,-13.672,60.547,24.902,-5.859,22.461,0
1553635517.320,-11.719,58.594,27.344,4.395,53.711,0
1553635517.324,-10.742,56.152,26.855,9.766,29.785,0
1553635517.328,-2.930,61.035,28.320,12.207,4.883,0
1553635517.332,2.441,63.965,28.809,2.930,60.059,0
1553635517.336,5.859,65.918,29.785,8.789,56.152,0
1553635517.340,4.883,65.918,26.855,11.719,19.043,0
1553635517.344,-1.953,66.406,26.855,2.930,8.301,0
1553635517.347,3.906,69.824,24.902,14.160,30.273,0
1553635517.351,11.719,68.848,20.020,14.648,6.348,0
1553635517.355,9.277,68.848,20.508,7.324,-53.223,0
1553635517.359,21.484,73.242,20.996,32.227,6.836,0
1553635517.363,23.438,76.172,17.578,41.016,76.172,0
1553635517.367,22.461,73.242,13.184,8.301,65.918,0
1553635517.371,24.414,67.383,14.160,17.090,13.672,0
1553635517.375,20.996,66.406,16.113,32.227,27.832,0
1553635517.379,17.578,65.430,19.043,26.367,79.590,0
1553635517.383,25.391,56.152,23.438,31.738,8.789,0
1553635517.386,30.273,57.129,20.508,38.574,-15.137,0
1553635517.390,28.320,64.453,12.695,46.387,1.953,0
1553635517.394,44.434,63.477,17.578,47.363,-51.270,0
1553635517.398,53.223,61.523,19.531,43.457,0.488,0
1553635517.402,42.969,62.012,18.066,47.852,67.871,0
1553635517.406,36.133,60.059,19.043,40.039,79.590,0
1553635517.410,51.270,57.617,17.578,39.062,103.516,0
1553635517.414,42.969,55.664,18.555,48.340,97.168,0
1553635517.418,38.086,53.223,20.020,60.547,70.312,0
1553635517.422,47.363,53.223,20.020,62.012,49.805,0
1553635517.426,45.898,52.246,20.508,56.152,29.297,0
1553635517.429,56.152,50.293,19.531,49.805,77.637,0
1553635517.433,58.105,50.781,20.508,45.410,43.945,0
1553635517.437,57.129,53.223,21.484,39.062,4.883,0
1553635517.441,59.082,51.758,20.996,62.988,16.602,0
1553635517.445,54.199,45.898,20.020,69.824,-12.207,0
1553635517.449,56.152,46.875,18.066,54.688,-6.348,0
1553635517.453,59.570,51.270,17.578,67.871,22.461,0
1553635517.457,55.176,46.875,21.484,50.781,4.395,0
1553635517.461,65.430,43.457,23.926,48.340,2.930,0
1553635517.465,64.941,46.387,22.461,63.965,17.090,0
1553635517.469,50.293,43.457,23.438,63.477,63.477,0
1553635517.472,48.340,41.016,19.043,59.082,8.789,0
1553635517.476,63.965,48.828,10.742,68.359,16.113,0
1553635517.480,72.266,45.898,17.090,72.266,83.496,0
1553635517.484,55.664,35.645,29.785,62.988,26.855,0
1553635517.488,52.246,26.367,40.039,60.059,-26.367,0
1553635517.492,54.199,16.602,46.875,58.594,24.414,0
1553635517.496,51.758,12.695,50.293,59.082,13.672,0
1553635517.500,44.434,4.883,56.152,63.965,-7.812,0
1553635517.504,29.297,-5.371,60.059,72.266,12.695,0
1553635517.508,16.113,-11.719,69.336,80.566,33.691,0
1553635517.511,9.766,-21.484,79.102,74.707,-3.418,0
1553635517.515,11.719,-33.203,80.078,59.082,-25.391,0
1553635517.519,14.160,-36.621,88.379,64.453,39.551,0
1553635517.523,9.277,-44.434,97.168,79.590,17.090,0
1553635517.527,-10.254,-50.781,91.309,76.172,6.836,0
1553635517.531,-11.230,-46.875,95.703,80.078,56.641,0
1553635517.535,18.555,-45.410,99.609,105.957,54.688,0
1553635517.539,31.250,-42.969,92.285,104.492,13.672,0
1553635517.543,25.391,-37.109,87.402,82.031,10.254,0
1553635517.547,27.832,-36.621,83.496,78.125,24.414,0
1553635517.551,38.086,-38.086,80.078,76.660,-10.742,0
1553635517.554,41.992,-31.250,74.707,83.496,2.930,0
1553635517.558,24.414,-31.250,70.801,80.566,25.391,0
1553635517.562,17.578,-32.715,64.941,57.129,12.695,0
1553635517.566,25.879,-28.320,59.082,71.289,44.434,0
1553635517.570,28.809,-23.438,54.688,89.355,54.688,0
1553635517.574,37.598,-19.531,56.641,82.520,56.152,0
1553635517.578,23.438,-21.973,62.012,81.543,35.156,0
1553635517.582,16.602,-21.973,62.012,70.312,47.852,0
1553635517.586,16.602,-14.648,58.594,56.641,73.242,0
1553635517.590,20.996,-11.719,51.270,49.805,71.289,0
1553635517.594,26.855,-11.719,48.828,49.316,47.852,0
1553635517.597,23.926,-9.766,49.805,59.570,32.715,0
1553635517.601,25.879,-3.906,44.922,57.617,15.625,0
1553635517.605,24.414,0.977,41.992,56.641,15.625,0
1553635517.609,25.391,2.930,41.016,60.547,50.781,0
1553635517.613,28.809,6.836,39.062,57.617,41.992,0
1553635517.617,27.344,8.301,38.574,55.176,17.090,0
1553635517.621,23.438,10.254,37.598,47.852,65.918,0
1553635517.625,23.438,11.719,36.621,41.016,25.879,0
1553635517.629,24.902,14.648,38.086,36.133,-7.812,0
1553635517.633,26.855,19.531,35.645,62.988,-23.926,0
1553635517.636,33.203,19.043,32.227,68.848,-3.418,0
1553635517.640,45.898,17.578,29.297,34.180,41.992,0
1553635517.644,41.992,21.973,26.367,38.574,49.316,0
1553635517.648,35.645,29.297,28.809,46.875,75.684,0
1553635517.652,20.508,30.762,32.227,40.527,87.402,0
1553635517.656,12.695,30.273,30.762,50.781,100.586,0
1553635517.660,14.648,32.715,30.273,34.668,59.570,0
1553635517.664,14.648,34.668,33.203,32.227,-23.926,0
1553635517.668,16.602,37.598,32.715,43.457,38.574,0
1553635517.672,18.555,40.527,31.738,34.668,32.715,0
1553635517.676,30.762,48.828,27.344,23.926,6.836,0
1553635517.679,23.926,51.270,26.367,38.574,14.160,0
1553635517.683,28.320,48.828,27.832,47.852,23.926,0
1553635517.687,41.504,48.828,26.367,44.434,89.844,0
1553635517.691,25.391,49.316,26.367,46.387,42.969,0
1553635517.695,18.066,50.781,28.809,34.180,3.906,0
1553635517.699,14.648,46.875,33.203,28.320,41.504,0
1553635517.703,17.090,35.645,36.133,42.969,23.438,0
1553635517.707,47.852,39.062,30.762,51.270,29.785,0
1553635517.711,38.574,58.105,20.508,20.996,67.871,0
1553635517.715,-12.207,58.105,16.113,-24.414,51.758,0
1553635517.719,-33.203,58.105,11.719,-47.363,27.832,0
1553635517.722,-65.430,74.219,0.977,-86.426,19.043,0
1553635517.726,-104.004,78.125,-5.859,-119.141,66.406,0
1553635517.730,-122.070,75.684,-12.695,-131.836,56.152,0
1553635517.734,-131.836,85.938,-21.973,-161.621,43.945,0
1553635517.738,-156.250,94.238,-36.133,-190.918,-8.789,0
1553635517.742,-164.551,90.820,-38.086,-195.801,6.348,0
1553635517.746,-160.156,87.891,-41.504,-208.008,51.270,0
1553635517.750,-184.570,84.473,-51.270,-229.980,10.254,0
1553635517.754,-176.270,94.727,-52.246,-224.609,65.430,0
1553635517.758,-188.965,103.516,-57.129,-240.234,92.285,0
1553635517.761,-182.129,90.820,-57.129,-238.281,6.836,0
1553635517.765,-158.691,92.285,-54.199,-215.820,-32.227,0
1553635517.769,-163.086,74.707,-53.711,-221.680,-23.438,0
1553635517.773,-141.602,52.246,-43.457,-186.523,26.855,0
1553635517.777,-148.438,61.523,-37.598,-159.668,89.355,0
1553635517.781,-149.902,74.219,-41.504,-167.480,94.727,0
1553635517.785,-116.699,80.078,-34.668,-153.809,42.969,0
1553635517.789,-77.148,90.820,-33.203,-125.488,39.551,0
1553635517.793,-42.480,77.148,-19.531,-92.773,82.520,0
1553635517.797,-38.086,33.691,-11.230,-77.148,61.035,0
1553635517.801,-41.504,10.742,-23.438,-63.965,11.719,0
1553635517.804,-20.996,17.578,-27.344,-38.574,0.977,0
1553635517.808,-23.438,39.062,-23.438,-38.086,28.809,0
1553635517.812,-25.879,56.641,-18.555,-36.621,59.082,0
1553635517.816,-1.465,49.805,-14.648,-20.996,70.312,0
1553635517.820,13.184,69.336,-5.371,1.953,72.266,0
1553635517.824,13.184,133.789,-10.742,0.000,98.145,0
1553635517.828,32.227,176.758,-6.836,7.812,67.383,0
1553635517.832,42.969,177.246,13.672,32.227,40.527,0
1553635517.836,28.320,202.637,11.719,16.602,57.617,0
1553635517.840,19.531,272.461,4.395,-1.953,27.344,0
1553635517.844,32.715,342.285,5.371,0.488,-45.898,0
1553635517.847,46.387,393.066,16.113,1.465,-21.484,0
1553635517.851,44.922,421.875,16.113,13.672,40.039,0
1553635517.855,42.480,443.848,1.465,31.738,54.199,0
1553635517.859,41.504,477.051,4.395,46.387,4.883,0
1553635517.863,32.715,533.203,9.277,20.996,-20.020,0
1553635517.867,41.016,572.266,10.742,10.742,10.742,0
1553635517.871,56.641,580.078,13.672,31.738,18.066,0
1553635517.875,45.410,592.285,19.043,23.926,33.691,0
1553635517.879,36.621,623.047,22.949,20.020,27.344,0
1553635517.883,29.785,673.828,22.949,13.184,-10.742,0
1553635517.886,25.879,701.172,22.949,-0.488,6.348,0
1553635517.890,25.391,703.125,26.367,22.461,-19.531,0
1553635517.894,26.367,700.684,30.273,32.715,-51.270,0
1553635517.898,29.785,691.895,29.297,20.020,-7.812,0
1553635517.902,22.461,680.176,23.926,16.602,-22.461,0
1553635517.906,15.625,658.203,16.602,10.254,41.992,0
1553635517.910,25.391,623.535,24.414,17.578,103.516,0
1553635517.914,35.645,616.211,28.320,16.113,28.809,0
1553635517.918,32.227,611.328,21.973,27.832,-23.438,0
1553635517.922,31.250,595.215,24.902,24.902,59.570,0
1553635517.926,34.180,597.168,22.461,19.531,118.164,0
1553635517.929,42.480,601.074,20.996,28.320,50.781,0
1553635517.933,34.180,618.164,22.949,28.320,27.344,0
1553635517.937,30.273,629.883,21.973,22.949,106.445,0
1553635517.941,27.832,630.859,20.020,8.789,72.266,0
1553635517.945,14.648,636.230,15.137,1.465,-10.742,0
1553635517.949,13.672,653.809,15.137,6.836,23.438,0
1553635517.953,11.230,666.016,17.578,4.883,33.203,0
1553635517.957,9.277,681.152,18.066,10.742,56.152,0
1553635517.961,4.883,711.914,14.160,17.090,45.898,0
1553635517.965,0.000,722.656,10.254,2.930,33.203,0
1553635517.969,18.066,709.961,14.160,11.719,73.730,0
1553635517.972,11.230,695.801,17.090,12.207,12.695,0
1553635517.976,-27.344,682.617,10.254,-18.066,1.953,0
1553635517.980,-31.250,662.109,5.371,-19.531,-6.348,0
1553635517.984,-18.555,640.625,12.207,-7.812,-1.465,0
1553635517.988,-33.203,631.836,12.207,-28.809,83.984,0
1553635517.992,-27.832,612.793,4.883,-18.555,44.922,0
1553635517.996,-24.414,584.473,7.324,4.883,-20.996,0
1553635518.000,-28.809,562.500,9.277,-31.250,33.691,0
1553635518.004,-13.672,548.340,7.324,-26.367,54.688,0
1553635518.008,-18.066,541.504,6.348,-5.371,69.824,0
1553635518.011,-15.625,522.949,11.230,-3.906,61.523,0
1553635518.015,-2.441,502.930,14.648,4.883,15.137,0
1553635518.019,-17.090,489.258,10.742,-7.324,44.434,0
1553635518.023,-8.789,469.238,12.695,1.465,5.371,0
1553635518.027,8.789,449.219,15.137,20.996,-1.953,0
1553635518.031,2.441,435.547,15.137,13.184,44.922,0
1553635518.035,-3.906,429.199,19.043,9.766,21.973,0
1553635518.039,-2.441,412.109,22.461,16.113,33.691,0
1553635518.043,3.418,378.906,27.832,33.203,57.129,0
1553635518.047,9.277,358.398,26.367,26.855,56.641,0
1553635518.051,13.672,356.445,24.414,10.742,14.648,0
1553635518.054,13.184,345.703,29.297,26.367,11.230,0
1553635518.058,9.277,327.148,29.297,30.762,20.020,0
1553635518.062,5.859,316.895,24.414,8.301,17.090,0
1553635518.066,13.672,308.594,20.508,6.836,35.645,0
1553635518.070,21.973,293.945,25.879,22.461,35.645,0
1553635518.074,17.578,287.109,25.391,14.160,39.062,0
1553635518.078,11.230,284.180,22.949,10.254,47.363,0
1553635518.082,12.207,265.137,28.320,24.414,36.133,0
1553635518.086,14.648,244.629,30.273,23.438,39.551,0
1553635518.090,19.531,240.234,29.297,13.184,-13.184,0
1553635518.094,22.949,246.094,29.785,16.602,-39.551,0
1553635518.097,24.902,237.305,28.809,21.973,27.344,0
1553635518.101,20.020,218.750,21.973,24.414,50.293,0
1553635518.105,16.113,212.891,21.484,32.715,55.176,0
1553635518.109,23.438,208.008,25.391,44.434,74.707,0
1553635518.113,23.926,203.613,27.344,43.945,101.562,0
1553635518.117,26.855,206.543,22.949,32.715,88.867,0
1553635518.121,44.434,194.824,22.949,51.270,36.133,0
1553635518.125,33.203,179.199,32.227,44.922,5.371,0
1553635518.129,3.906,171.387,38.574,8.789,-2.930,0
1553635518.133,5.371,159.180,40.039,20.020,7.812,0
1553635518.136,21.484,151.367,32.227,27.832,-13.184,0
1553635518.140,16.113,152.344,39.062,30.273,2.441,0
1553635518.144,-5.859,165.039,45.410,24.414,51.758,0
1553635518.148,6.348,163.574,39.551,22.949,24.902,0
1553635518.152,12.207,134.277,40.527,36.621,40.039,0
1553635518.156,9.277,125.977,42.480,33.203,72.266,0
1553635518.160,18.555,131.348,43.457,26.855,32.227,0
1553635518.164,12.695,131.836,40.039,21.484,14.648,0
1553635518.168,9.277,130.371,34.180,18.555,25.391,0
1553635518.172,15.625,132.324,29.297,32.715,42.969,0
1553635518.176,16.602,138.184,29.297,38.086,45.410,0
1553635518.179,15.137,134.277,31.250,44.434,3.906,0
1553635518.183,11.230,125.488,31.250,45.898,-20.020,0
1553635518.187,16.602,122.559,32.715,34.668,26.367,0
1553635518.191,24.414,120.605,38.086,31.738,22.461,0
1553635518.195,24.902,114.258,44.434,27.832,30.762,0
1553635518.199,19.043,122.070,41.504,35.156,60.059,0
1553635518.203,25.879,124.512,32.715,45.898,73.242,0
1553635518.207,33.691,108.398,33.203,44.922,29.297,0
1553635518.211,28.320,109.375,39.062,51.758,-23.926,0
1553635518.215,27.832,124.512,38.086,54.688,25.879,0
1553635518.219,37.598,120.605,36.133,47.852,91.309,0
1553635518.222,42.480,105.957,36.133,43.457,69.336,0
1553635518.226,32.227,104.492,33.203,49.805,24.902,0
1553635518.230,41.016,105.469,31.738,59.082,38.086,0
1553635518.234,50.781,115.723,32.715,40.039,30.762,0
1553635518.238,40.039,120.117,31.738,26.367,24.414,0
1553635518.242,40.039,106.445,29.785,37.598,51.270,0
1553635518.246,33.203,100.586,28.809,32.227,39.062,0
1553635518.250,19.531,108.887,34.668,43.457,10.254,0
1553635518.254,18.066,108.398,32.715,57.617,45.898,0
1553635518.258,23.926,95.703,25.391,41.504,48.828,0
1553635518.261,26.367,94.727,27.344,37.109,24.902,0
1553635518.265,36.621,91.309,25.391,43.945,39.551,0
1553635518.269,34.180,88.867,26.855,49.316,22.949,0
1553635518.273,30.273,87.891,31.250,55.664,-27.832,0
1553635518.277,33.203,87.402,30.273,50.293,-37.598,0
1553635518.281,32.715,93.750,24.902,46.387,4.395,0
1553635518.285,37.109,95.215,22.949,37.109,-36.133,0
1553635518.289,44.922,104.492,24.414,31.250,-25.391,0
1553635518.293,53.223,109.863,28.320,37.109,48.828,0
1553635518.297,44.434,87.402,35.156,42.969,47.363,0
1553635518.301,34.180,78.613,37.598,45.410,52.734,0
1553635518.304,32.227,85.449,39.551,56.641,57.617,0
1553635518.308,37.109,85.449,39.551,53.223,49.316,0
1553635518.312,34.668,83.984,30.762,37.598,51.758,0
1553635518.316,31.250,82.031,29.785,36.621,28.809,0
1553635518.320,32.227,81.543,29.785,40.527,13.184,0
1553635518.324,24.414,92.285,23.438,37.109,-14.648,0
1553635518.328,14.160,99.609,24.902,41.016,16.113,0
1553635518.332,22.461,81.055,28.809,33.203,54.688,0
1553635518.336,29.785,73.730,27.832,29.297,51.270,0
1553635518.340,16.113,76.660,28.809,41.016,12.695,0
1553635518.344,10.742,77.148,28.809,42.480,53.711,0
1553635518.347,21.973,82.520,24.902,39.551,105.469,0
1553635518.351,25.391,90.332,22.461,32.227,32.715,0
1553635518.355,19.043,89.355,20.020,27.832,6.836,0
1553635518.359,25.391,83.496,21.973,41.992,18.555,0
1553635518.363,33.691,80.078,24.414,45.898,29.785,0
1553635518.367,27.344,73.242,22.949,29.297,2.930,0
1553635518.371,26.855,81.055,23.926,22.949,-11.719,0
1553635518.375,31.250,86.914,25.391,28.809,75.195,0
1553635518.379,31.250,81.055,24.414,30.273,15.137,0
1553635518.383,26.367,80.566,25.879,29.785,-47.363,0
1553635518.386,21.484,80.078,27.344,33.691,82.031,0
1553635518.390,23.438,80.078,26.855,38.574,80.566,0
1553635518.394,23.438,80.566,29.297,51.758,58.105,0
1553635518.398,23.438,71.289,25.391,55.176,59.082,0
1553635518.402,26.855,63.477,21.973,34.180,-16.602,0
1553635518.406,29.785,65.430,25.879,25.391,-12.207,0
1553635518.410,32.715,72.266,25.391,25.879,54.688,0
1553635518.414,35.645,71.289,26.855,37.598,-23.926,0
1553635518.418,36.133,66.895,27.344,38.574,-45.898,0
1553635518.422,36.621,61.523,28.320,42.969,12.207,0
1553635518.426,50.781,61.523,32.227,69.336,12.207,0
1553635518.429,62.500,71.777,23.926,66.406,51.270,0
1553635518.433,47.852,79.102,19.043,39.062,57.129,0
1553635518.437,30.762,83.496,17.090,24.414,78.125,0
1553635518.441,28.809,85.449,11.230,24.414,51.270,0
1553635518.445,34.180,83.496,11.230,23.438,29.297,0
1553635518.449,36.133,83.496,9.277,19.531,45.898,0
1553635518.453,35.156,89.355,6.348,24.902,60.547,0
1553635518.457,29.297,103.027,1.465,25.391,57.617,0
1553635518.461,30.273,108.398,1.465,21.484,99.121,0
1553635518.465,34.668,82.031,3.418,25.879,87.402,0
1553635518.469,26.367,69.336,3.418,22.461,16.113,0
1553635518.472,26.855,81.543,4.395,15.625,49.805,0
1553635518.476,38.086,81.543,8.301,21.484,61.035,0
1553635518.480,39.062,81.055,11.719,32.715,75.195,0
1553635518.484,44.434,83.496,12.207,35.156,47.852,0
1553635518.488,35.645,84.961,10.254,35.645,23.926,0
1553635518.492,36.621,75.195,13.672,38.086,76.172,0
1553635518.496,48.340,68.848,18.555,46.875,38.574,0
1553635518.500,48.340,73.242,15.625,55.176,8.301,0
1553635518.504,42.969,71.289,13.672,44.922,37.598,0
1553635518.508,45.898,66.406,15.137,42.969,-9.766,0
1553635518.511,47.852,65.918,19.043,37.598,-27.344,0
1553635518.515,46.387,65.918,23.438,31.250,7.324,0
1553635518.519,53.223,63.477,24.414,61.035,-19.531,0
1553635518.523,50.293,61.523,20.020,72.754,-27.832,0
1553635518.527,34.668,64.453,19.531,50.781,8.301,0
1553635518.531,34.668,65.918,20.020,23.438,11.719,0
1553635518.535,46.875,60.059,19.531,34.180,18.066,0
1553635518.539,46.875,58.594,23.438,50.781,33.691,0
1553635518.543,54.199,62.012,21.973,51.270,12.695,0
1553635518.547,57.617,64.941,21.973,50.293,73.730,0
1553635518.551,43.457,60.547,25.391,39.551,83.984,0
1553635518.554,45.410,62.500,22.949,51.758,-9.766,0
1553635518.558,44.434,68.848,25.391,50.781,6.836,0
1553635518.562,44.922,57.129,32.227,42.480,5.859,0
1553635518.566,37.109,52.734,31.250,49.316,-20.020,0
1553635518.570,29.297,56.641,30.762,31.738,26.855,0
1553635518.574,35.645,62.988,39.551,31.250,21.484,0
1553635518.578,27.344,66.895,35.156,37.598,27.832,0
1553635518.582,5.859,62.988,21.973,-6.348,21.484,0
1553635518.586,-9.766,68.359,32.227,-27.344,4.883,0
1553635518.590,-20.020,89.355,43.457,-22.949,52.246,0
1553635518.594,-69.336,85.449,29.785,-70.312,69.824,0
1553635518.597,-103.027,79.590,37.109,-98.633,85.938,0
1553635518.601,-117.188,90.820,50.293,-120.117,78.125,0
1553635518.605,-134.766,103.027,45.898,-143.066,19.531,0
1553635518.609,-158.203,106.934,47.852,-178.711,30.273,0
1553635518.613,-194.824,100.098,47.363,-208.984,62.500,0
1553635518.617,-230.469,103.027,58.105,-212.402,-17.090,0
1553635518.621,-283.691,105.469,68.848,-251.465,-11.719,0
1553635518.625,-291.504,101.562,67.871,-294.922,33.691,0
1553635518.629,-292.969,97.656,73.242,-307.617,46.387,0
1553635518.633,-290.039,97.168,82.031,-304.199,100.586,0
1553635518.636,-268.066,100.586,83.008,-303.223,45.898,0
1553635518.640,-255.859,97.168,80.078,-284.668,-13.184,0
1553635518.644,-231.445,94.727,77.637,-244.629,21.484,0
1553635518.648,-219.238,92.285,77.148,-213.379,44.922,0
1553635518.652,-199.707,86.914,74.219,-200.684,40.527,0
1553635518.656,-164.062,82.520,72.754,-170.410,1.953,0
1553635518.660,-147.949,76.172,69.336,-138.672,-9.766,0
1553635518.664,-114.258,75.684,57.617,-93.750,14.160,0
1553635518.668,-86.426,77.637,47.363,-76.660,25.879,0
1553635518.672,-64.453,68.848,40.039,-74.219,60.547,0
1553635518.676,-23.438,61.523,32.715,-23.438,67.383,0
1553635518.679,2.441,60.059,27.832,-0.488,-8.301,0
1553635518.683,25.391,57.617,19.043,19.531,20.508,0
1553635518.687,40.039,48.828,14.160,51.758,63.477,0
1553635518.691,48.828,39.062,15.137,51.758,15.137,0
1553635518.695,72.266,37.109,12.695,76.660,3.906,0
1553635518.699,90.820,35.645,8.789,100.586,46.387,0
1553635518.703,100.098,29.785,3.906,89.844,71.777,0
1553635518.707,101.074,29.297,1.465,94.238,67.871,0
1553635518.711,106.934,32.227,3.906,121.094,101.562,0
1553635518.715,115.234,23.438,6.836,128.418,58.105,0
1553635518.719,113.770,18.555,8.301,109.375,-42.969,0
1553635518.722,105.957,23.438,7.812,115.234,-35.156,0
1553635518.726,109.375,22.949,3.906,125.488,-1.465,0
1553635518.730,117.676,14.160,3.906,130.859,-10.742,0
1553635518.734,122.559,19.531,5.859,134.766,11.230,0
1553635518.738,115.723,24.414,7.812,122.559,29.297,0
1553635518.742,129.395,18.555,7.324,107.422,-9.766,0
1553635518.746,127.441,16.602,5.371,103.027,36.621,0
1553635518.750,103.516,9.766,6.836,142.090,68.359,0
1553635518.754,120.605,14.160,6.836,140.137,52.734,0
1553635518.758,120.605,26.367,5.859,88.379,68.848,0
1553635518.761,109.863,20.020,8.789,84.961,105.469,0
1553635518.765,118.164,14.160,13.184,102.051,80.078,0
1553635518.769,119.141,12.695,18.066,118.164,40.527,0
1553635518.773,112.305,10.742,23.438,126.465,18.066,0
1553635518.777,103.516,13.672,25.879,115.234,86.914,0
1553635518.781,103.516,23.926,23.438,120.117,100.098,0
1553635518.785,103.027,31.250,15.625,127.441,59.570,0
1553635518.789,96.680,22.461,15.137,126.953,45.898,0
1553635518.793,93.750,13.184,21.973,122.070,4.883,0
1553635518.797,91.309,14.648,21.973,101.074,-27.832,0
1553635518.801,98.145,23.438,13.672,90.820,25.391,0
1553635518.804,104.492,21.973,15.625,95.215,63.477,0
1553635518.808,95.215,20.020,19.043,83.008,24.902,0
1553635518.812,105.469,32.227,6.836,76.172,18.066,0
1553635518.816,109.863,37.598,7.324,92.773,11.719,0
1553635518.820,78.613,36.621,20.996,74.707,12.695,0
1553635518.824,75.195,35.645,25.391,65.430,53.711,0
1553635518.828,91.309,26.855,29.297,73.242,35.645,0
1553635518.832,74.707,25.879,31.738,69.824,-10.742,0
1553635518.836,54.199,19.043,35.156,84.961,10.742,0
1553635518.840,53.223,7.324,40.039,77.637,66.406,0
1553635518.844,65.918,13.184,42.480,72.754,66.895,0
1553635518.847,63.965,21.484,44.922,82.031,45.410,0
1553635518.851,56.641,23.926,41.504,73.242,36.133,0
1553635518.855,49.316,25.879,38.086,82.520,33.691,0
1553635518.859,39.551,20.996,37.598,88.379,-27.344,0
1553635518.863,46.875,20.020,38.086,83.984,9.277,0
1553635518.867,51.758,22.461,40.527,84.961,94.727,0
1553635518.871,57.129,21.973,35.645,88.867,31.250,0
1553635518.875,68.359,28.809,28.320,85.938,-21.484,0
1553635518.879,51.270,38.086,23.926,65.918,77.637,0
1553635518.883,54.199,30.273,25.391,79.102,112.793,0
1553635518.886,69.824,19.043,35.645,97.168,41.016,0
1553635518.890,62.012,21.973,39.062,82.031,7.812,0
1553635518.894,62.500,21.973,37.598,78.125,10.254,0
1553635518.898,61.035,17.578,32.227,79.102,34.180,0
1553635518.902,55.664,25.879,24.414,81.055,27.344,0
1553635518.906,58.594,35.156,23.926,77.637,70.801,0
1553635518.910,58.105,29.297,28.320,77.148,46.875,0
1553635518.914,54.688,25.391,28.809,78.613,42.480,0
1553635518.918,61.523,28.320,29.785,64.941,34.180,0
1553635518.922,69.336,35.156,25.391,56.641,-0.488,0
1553635518.926,64.941,35.156,24.902,70.801,26.367,0
1553635518.929,56.152,30.762,28.320,85.449,6.348,0
1553635518.933,49.805,33.691,28.809,68.359,0.000,0
1553635518.937,49.805,37.109,23.438,57.129,39.551,0
1553635518.941,54.688,34.668,19.531,62.012,84.961,0
1553635518.945,51.758,28.809,21.973,49.316,72.754,0
1553635518.949,43.945,31.738,22.949,51.758,60.547,0
1553635518.953,43.945,38.086,23.438,67.871,81.055,0
1553635518.957,48.340,38.574,24.414,52.734,47.363,0
1553635518.961,40.039,38.086,25.391,34.180,50.293,0
1553635518.965,46.875,38.086,24.902,44.434,48.828,0
1553635518.969,62.988,44.434,24.902,57.617,64.941,0
1553635518.972,53.711,44.922,25.879,57.129,91.797,0
1553635518.976,38.574,36.133,28.809,53.223,66.895,0
1553635518.980,33.203,31.250,30.273,58.105,27.832,0
1553635518.984,39.551,39.551,28.320,68.359,46.387,0
1553635518.988,53.223,43.457,28.809,57.617,43.457,0
1553635518.992,52.246,40.039,24.414,29.785,4.883,0
1553635518.996,46.875,42.480,23.438,33.691,9.766,0
1553635519.000,53.711,39.062,31.250,46.875,13.672,0
1553635519.004,49.805,33.203,30.273,38.574,13.184,0
1553635519.008,45.410,31.738,21.484,42.969,-0.977,0
1553635519.011,54.688,39.062,20.020,71.289,0.000,0
1553635519.015,47.852,45.898,20.020,62.500,36.621,0
1553635519.019,38.086,39.551,21.484,49.805,20.508,0
1553635519.023,51.270,35.645,27.344,58.105,-25.391,0
1553635519.027,57.129,36.621,30.273,50.293,10.742,0
1553635519.031,43.945,36.133,26.855,48.828,36.133,0
1553635519.035,33.691,30.762,25.879,57.617,42.969,0
1553635519.039,38.086,27.344,31.250,62.012,42.969,0
1553635519.043,36.133,35.156,31.738,53.711,2.441,0
1553635519.047,36.133,40.039,30.273,43.945,28.320,0
1553635519.051,51.270,44.922,30.762,45.898,57.129,0
1553635519.054,63.477,47.852,26.855,50.781,65.918,0
1553635519.058,69.824,35.645,31.250,69.824,57.129,0
1553635519.062,63.965,31.250,34.180,78.125,14.160,0
1553635519.066,32.227,39.062,28.320,46.875,-30.762,0
1553635519.070,11.719,45.410,28.320,32.715,43.945,0
1553635519.074,22.949,50.781,29.785,28.809,84.473,0
1553635519.078,42.969,49.805,24.414,26.367,30.273,0
1553635519.082,32.227,52.246,15.137,20.996,9.277,0
1553635519.086,24.414,60.059,3.906,6.836,34.180,0
1553635519.090,29.785,62.012,2.930,15.137,61.523,0
1553635519.094,31.250,63.965,9.277,28.320,54.199,0
1553635519.097,44.434,77.148,3.418,23.926,63.477,0
1553635519.101,59.570,79.102,2.930,20.020,84.473,0
1553635519.105,50.293,66.406,11.719,17.578,104.492,0
1553635519.109,37.109,65.918,10.254,15.137,50.781,0
1553635519.113,20.996,60.059,11.230,34.180,14.648,0
1553635519.117,12.207,52.734,16.113,27.832,57.617,0
1553635519.121,22.949,59.570,13.672,7.812,78.125,0
1553635519.125,20.996,57.617,13.184,22.461,43.457,0
1553635519.129,29.297,60.547,18.066,39.062,49.805,0
1553635519.133,36.621,62.988,17.578,28.809,41.992,0
1553635519.136,31.738,62.012,16.113,22.949,-6.348,0
1553635519.140,21.484,73.730,15.137,36.133,-17.090,0
1553635519.144,19.531,59.082,23.438,32.227,-7.812,0
1553635519.148,28.809,40.039,30.273,21.484,59.082,0
1553635519.152,29.297,40.527,27.344,25.391,36.133,0
1553635519.156,24.414,44.434,24.414,33.203,-13.184,0
1553635519.160,26.367,46.387,21.973,32.227,9.766,0
1553635519.164,29.785,45.410,23.926,38.086,6.348,0
1553635519.168,31.738,43.457,27.832,31.738,-24.902,0
1553635519.172,32.227,47.363,20.020,17.578,56.152,0
1553635519.176,33.203,56.641,15.137,23.926,53.223,0
1553635519.179,34.668,61.523,24.414,32.715,-20.996,0
1553635519.183,35.645,56.152,29.785,27.832,0.977,0
1553635519.187,40.527,55.664,26.367,21.973,23.438,0
1553635519.191,25.391,55.664,20.508,29.785,49.805,0
1553635519.195,20.020,42.969,23.438,28.320,14.160,0
1553635519.199,25.391,47.363,24.902,22.461,31.738,0
1553635519.203,14.160,59.570,23.438,35.156,28.809,0
1553635519.207,16.113,58.594,24.902,32.227,5.371,0
1553635519.211,27.832,49.316,22.949,14.648,10.742,0
1553635519.215,31.250,45.898,20.020,21.484,-6.348,0
1553635519.219,31.250,50.781,24.414,24.414,-2.930,0
1553635519.222,32.715,64.453,25.391,24.902,-8.301,0
1553635519.226,21.973,69.336,24.902,25.879,20.020,0
1553635519.230,19.043,56.641,20.996,18.066,57.617,0
1553635519.234,34.668,43.945,21.484,33.691,88.867,0
1553635519.238,55.664,40.039,28.320,46.387,75.684,0
1553635519.242,64.453,47.852,28.809,29.785,81.055,0
1553635519.246,51.270,61.035,22.461,9.277,86.914,0
1553635519.250,41.504,68.848,22.461,13.672,-11.719,0
1553635519.254,32.715,68.359,23.438,27.344,-7.812,0
1553635519.258,24.414,65.430,17.090,10.742,57.617,0
1553635519.261,39.551,65.430,14.648,5.859,3.906,0
1553635519.265,48.828,77.148,18.555,18.555,-30.273,0
1553635519.269,33.691,76.172,20.996,19.043,26.855,0
1553635519.273,24.902,64.941,15.625,15.625,43.945,0
1553635519.277,25.391,63.965,19.531,23.926,55.664,0
1553635519.281,38.574,65.918,19.531,32.227,70.801,0
1553635519.285,63.477,56.641,19.043,46.875,25.391,0
1553635519.289,51.758,53.711,22.461,34.668,-1.953,0
1553635519.293,27.344,58.105,21.484,12.695,19.043,0
1553635519.297,35.156,58.105,23.926,14.648,27.344,0
1553635519.301,44.434,64.453,25.879,26.855,13.184,0
1553635519.304,44.434,57.129,26.855,32.715,-3.906,0
1553635519.308,43.457,56.152,26.855,32.227,-1.465,0
1553635519.312,50.781,64.941,22.949,46.875,16.113,0
1553635519.316,55.664,60.059,18.555,51.758,43.945,0
1553635519.320,47.363,58.105,22.461,45.898,68.848,0
1553635519.324,45.410,60.547,23.926,34.180,33.203,0
1553635519.328,40.527,56.641,22.461,35.645,44.434,0
1553635519.332,32.227,56.152,24.414,40.039,74.219,0
1553635519.336,36.133,54.688,26.855,43.457,10.254,0
1553635519.340,44.922,42.480,24.414,44.922,-34.668,0
1553635519.344,42.969,40.039,25.879,48.340,26.855,0
1553635519.347,33.691,42.969,28.320,54.199,53.223,0
1553635519.351,30.273,46.387,25.879,47.852,49.316,0
1553635519.355,29.297,43.945,24.902,48.828,103.027,0
1553635519.359,39.062,40.039,24.414,50.293,68.359,0
1553635519.363,44.922,39.551,28.809,41.016,12.695,0
1553635519.367,47.852,36.133,37.109,42.480,8.301,0
1553635519.371,39.551,42.480,33.203,41.016,43.945,0
1553635519.375,36.133,42.969,27.344,38.086,62.012,0
1553635519.379,43.457,39.062,28.320,48.340,73.730,0
1553635519.383,47.363,34.668,23.926,48.828,18.555,0
1553635519.386,45.410,31.738,23.926,49.316,-32.715,0
1553635519.390,44.434,40.527,26.367,50.781,-54.688,0
1553635519.394,55.664,49.805,24.902,34.180,14.648,0
1553635519.398,46.387,41.504,32.715,36.133,23.926,0
1553635519.402,34.668,29.297,29.297,53.711,25.879,0
1553635519.406,39.551,28.809,17.578,42.969,83.496,0
1553635519.410,44.922,24.902,21.484,38.086,37.109,0
1553635519.414,41.504,33.691,25.879,37.109,6.836,0
1553635519.418,41.016,49.316,22.949,32.715,54.199,0
1553635519.422,44.434,35.156,23.438,34.180,69.336,0
1553635519.426,37.598,26.855,26.367,27.344,39.551,0
1553635519.429,35.645,39.551,24.414,32.715,28.809,0
1553635519.433,38.574,41.016,31.250,35.645,30.273,0
1553635519.437,39.062,36.621,30.273,39.062,54.199,0
1553635519.441,41.504,41.504,18.555,37.598,69.824,0
1553635519.445,47.852,42.969,22.461,32.715,7.812,0
1553635519.449,46.387,47.363,26.367,28.320,20.508,0
1553635519.453,34.180,49.805,25.879,22.949,87.891,0
1553635519.457,24.902,41.504,24.902,20.508,111.816,0
1553635519.461,16.602,43.457,24.414,21.484,80.566,0
1553635519.465,4.395,48.828,22.461,16.602,52.246,0
1553635519.469,6.348,46.387,21.484,3.418,43.457,0
1553635519.472,20.020,43.457,21.973,10.742,71.289,0
1553635519.476,17.578,51.270,21.973,14.648,47.363,0
1553635519.480,12.695,58.594,23.438,0.488,-11.230,0
1553635519.484,24.902,51.758,21.484,5.371,41.992,0
1553635519.488,24.902,37.598,25.391,18.555,6.348,0
1553635519.492,24.414,35.645,26.855,29.785,-73.242,0
1553635519.496,27.832,44.434,23.438,27.832,28.809,0
1553635519.500,29.785,43.945,26.367,27.832,33.691,0
1553635519.504,20.508,46.875,26.855,22.461,-22.461,0
1553635519.508,33.691,58.105,20.996,37.109,4.883,0
1553635519.511,45.898,57.129,26.367,50.781,20.508,0
1553635519.515,3.906,50.293,40.527,11.719,-34.668,0
1553635519.519,-32.715,50.293,39.551,-18.555,-23.926,0
1553635519.523,-36.621,41.992,36.133,-16.113,44.922,0
1553635519.527,-26.367,30.273,42.480,-18.066,22.949,0
1553635519.531,-37.109,25.879,39.551,-29.785,-8.301,0
1553635519.535,-38.574,27.832,39.551,-37.598,22.461,0
1553635519.539,-42.480,21.973,53.711,-18.555,22.949,0
1553635519.543,-43.457,16.113,45.410,-9.277,5.859,0
1553635519.547,-40.527,20.996,42.480,-23.438,18.555,0
1553635519.551,-40.039,23.438,44.434,-27.344,-0.977,0
1553635519.554,-31.250,19.043,35.645,-20.020,18.066,0
1553635519.558,-22.461,18.066,36.133,-8.301,76.660,0
1553635519.562,-15.137,24.902,34.180,-1.465,46.387,0
1553635519.566,-11.230,27.344,37.109,7.324,42.480,0
1553635519.570,-5.859,33.691,37.598,20.508,77.148,0
1553635519.574,-4.395,40.527,33.203,16.113,45.410,0
1553635519.578,-9.277,28.320,36.621,11.719,24.902,0
1553635519.582,-6.836,18.555,40.527,19.531,20.508,0
1553635519.586,0.488,20.508,40.039,22.461,22.949,0
1553635519.590,-2.441,24.902,40.527,15.137,62.988,0
1553635519.594,-4.395,33.691,40.039,17.578,52.246,0
1553635519.597,10.254,38.574,35.645,35.156,76.660,0
1553635519.601,10.254,29.785,36.133,34.180,65.918,0
1553635519.605,-2.930,31.250,34.180,15.625,13.184,0
1553635519.609,2.441,40.527,31.250,9.766,38.086,0
1553635519.613,14.160,29.785,37.109,21.484,26.367,0
1553635519.617,24.414,23.926,36.133,21.973,17.578,0
1553635519.621,22.461,27.344,29.785,12.207,41.016,0
1553635519.625,23.926,30.762,26.367,9.277,3.906,0
1553635519.629,27.344,37.598,26.855,14.648,-3.906,0
1553635519.633,22.949,41.504,29.785,25.879,40.527,0
1553635519.636,26.367,44.922,34.180,37.109,44.922,0
1553635519.640,20.996,47.852,38.086,33.691,54.688,0
1553635519.644,12.695,44.434,37.109,36.133,48.340,0
1553635519.648,12.207,40.527,34.668,35.645,20.508,0
1553635519.652,15.137,40.527,36.133,42.969,-2.930,0
1553635519.656,17.090,45.898,36.133,41.504,1.465,0
1553635519.660,16.602,46.875,33.691,38.574,72.754,0
1553635519.664,14.160,40.039,34.180,37.598,61.523,0
1553635519.668,18.066,41.016,38.086,40.039,17.090,0
1553635519.672,26.855,49.316,32.227,53.223,38.574,0
1553635519.676,29.785,50.293,28.320,52.246,37.598,0
1553635519.679,51.758,47.852,27.344,33.203,-9.277,0
1553635519.683,62.500,43.457,24.414,41.504,-43.457,0
1553635519.687,26.367,44.922,27.832,13.672,2.930,0
1553635519.691,22.949,49.805,31.250,3.418,32.227,0
1553635519.695,35.156,42.480,34.180,35.645,-12.207,0
1553635519.699,13.672,41.992,34.180,13.184,-23.438,0
1553635519.703,15.625,52.734,32.715,33.691,11.719,0
1553635519.707,32.715,53.711,33.203,61.035,101.074,0
1553635519.711,23.926,48.340,32.715,51.270,82.520,0
1553635519.715,24.414,62.500,35.645,57.617,55.176,0
1553635519.719,33.691,70.801,30.762,45.898,21.484,0
1553635519.722,31.250,54.199,27.344,34.180,39.062,0
1553635519.726,36.621,48.828,29.785,75.684,98.145,0
1553635519.730,41.016,55.664,30.273,54.199,62.012,0
1553635519.734,35.156,60.547,30.762,38.574,37.109,0
1553635519.738,33.691,60.059,29.785,45.410,-4.395,0
1553635519.742,38.574,59.570,25.879,21.973,22.461,0
1553635519.746,32.227,67.383,27.344,41.016,55.664,0
1553635519.750,30.273,67.383,32.227,62.988,63.965,0
1553635519.754,39.062,63.965,28.320,43.945,80.078,0
1553635519.758,32.227,68.359,24.414,31.250,33.203,0
1553635519.761,39.062,70.801,21.484,27.832,12.207,0
1553635519.765,32.227,60.059,24.414,57.617,37.109,0
1553635519.769,29.297,51.270,27.344,44.922,-37.109,0
1553635519.773,48.340,57.617,26.367,29.785,10.254,0
1553635519.777,53.223,62.988,26.367,41.992,62.500,0
1553635519.781,46.387,66.406,20.996,49.316,8.301,0
1553635519.785,48.828,59.082,20.508,61.523,29.297,0
1553635519.789,57.617,50.293,21.973,23.926,17.090,0
1553635519.793,52.734,55.664,20.020,15.137,-32.715,0
1553635519.797,42.969,55.664,21.973,30.762,-17.578,0
1553635519.801,42.969,57.617,22.461,37.109,36.133,0
1553635519.804,37.598,66.895,20.020,40.527,65.430,0
1553635519.808,26.855,69.336,16.602,11.719,72.754,0
1553635519.812,35.156,54.688,21.484,25.391,89.355,0
1553635519.816,48.828,49.316,25.391,39.062,43.945,0
1553635519.820,51.270,53.711,23.438,12.695,5.371,0
1553635519.824,41.992,55.664,29.297,35.156,39.551,0
1553635519.828,51.758,53.711,33.691,53.223,58.594,0
1553635519.832,40.527,35.645,25.391,45.410,18.066,0
1553635519.836,35.156,42.480,18.555,34.668,40.039,0
1553635519.840,39.062,54.199,20.508,14.160,93.750,0
1553635519.844,41.992,50.293,25.391,17.578,19.531,0
1553635519.847,43.457,51.758,25.879,18.066,-17.578,0
1553635519.851,36.621,45.898,23.438,40.527,-16.113,0
1553635519.855,38.574,41.016,21.484,27.344,4.395,0
1553635519.859,45.410,47.363,29.297,1.465,62.988,0
1553635519.863,62.012,49.316,30.273,13.184,30.273,0
1553635519.867,57.617,48.340,24.414,20.020,20.996,0
1553635519.871,41.016,53.223,27.832,33.691,54.688,0
1553635519.875,42.480,52.734,27.344,10.742,65.430,0
1553635519.879,38.574,54.688,28.320,1.465,34.668,0
1553635519.883,40.039,53.223,28.320,52.734,-20.996,0
1553635519.886,36.621,53.223,30.762,49.316,0.488,0
1553635519.890,29.297,53.223,36.621,-2.441,21.484,0
1553635519.894,52.734,56.152,33.203,4.883,51.270,0
1553635519.898,60.547,55.176,31.250,16.602,39.062,0
1553635519.902,42.480,49.805,32.227,32.227,-12.207,0
1553635519.906,50.293,54.688,32.227,44.434,-21.973,0
1553635519.910,50.781,56.641,36.621,40.039,-11.719,0
1553635519.914,50.781,57.617,39.551,24.902,-18.066,0
1553635519.918,50.781,57.129,36.133,23.438,7.812,0
1553635519.922,38.086,53.223,36.621,31.738,-4.883,0
1553635519.926,47.852,59.570,34.668,41.504,-41.016,0
1553635519.929,54.199,65.430,37.109,38.086,2.441,0
1553635519.933,66.406,62.988,38.574,41.016,111.328,0
1553635519.937,53.711,56.641,29.785,10.742,84.961,0
1553635519.941,41.992,59.082,24.902,-9.277,23.926,0
1553635519.945,54.199,54.688,25.879,10.742,54.199,0
1553635519.949,70.312,50.781,24.414,6.836,60.547,0
1553635519.953,92.773,55.176,24.902,15.137,4.883,0
1553635519.957,93.750,56.152,30.273,26.855,-0.488,0
1553635519.961,57.617,58.105,26.855,16.602,48.828,0
1553635519.965,31.250,51.758,28.320,6.836,56.641,0
1553635519.969,56.641,51.270,31.738,-1.465,108.887,0
1553635519.972,4.883,53.711,31.250,0.488,91.309,0
1553635519.976,-39.062,47.363,30.762,20.020,51.270,0
1553635519.980,-11.230,50.781,31.250,30.273,59.570,0
1553635519.984,19.043,58.594,26.855,12.207,93.262,0
1553635519.988,21.484,58.594,26.855,16.602,78.613,0
1553635519.992,-5.859,52.246,29.297,25.879,60.059,0
1553635519.996,-3.418,44.434,30.762,25.879,4.395,0
1553635520.000,12.695,54.688,32.715,16.602,-4.395,0
1553635520.004,31.250,61.035,28.320,9.766,39.062,0
1553635520.008,47.852,43.945,28.320,22.461,37.109,0
1553635520.011,78.613,44.922,29.297,12.695,6.348,0
1553635520.015,94.238,60.547,32.227,35.645,24.902,0
1553635520.019,40.527,56.641,32.227,45.410,35.645,0
1553635520.023,-20.020,45.898,34.180,23.438,-8.301,0
1553635520.027,-13.184,48.340,35.156,37.109,12.695,0
1553635520.031,-14.160,59.570,29.297,29.297,41.504,0
1553635520.035,-0.977,67.871,27.344,31.250,53.223,0
1553635520.039,20.508,53.223,32.227,47.852,5.371,0
1553635520.043,18.555,46.875,35.645,49.805,8.301,0
1553635520.047,19.043,53.223,30.273,38.086,80.078,0
1553635520.051,25.879,55.664,29.297,32.227,31.738,0
1553635520.054,33.691,59.570,31.250,51.758,-1.953,0
1553635520.058,40.527,53.711,32.227,62.500,22.461,0
1553635520.062,41.504,57.129,30.273,50.293,93.750,0
1553635520.066,38.086,65.430,27.832,45.410,109.863,0
1553635520.070,48.828,55.664,33.203,52.734,49.316,0
1553635520.074,57.617,60.547,35.645,51.270,79.102,0
1553635520.078,49.805,75.195,34.180,46.875,100.586,0
1553635520.082,41.016,67.383,28.320,50.293,83.008,0
1553635520.086,43.457,57.617,30.273,62.012,103.027,0
1553635520.090,54.688,62.988,32.715,62.500,62.012,0
1553635520.094,49.805,66.895,31.738,56.152,24.902,0
1553635520.097,41.992,61.035,32.715,66.406,24.902,0
1553635520.101,47.852,55.664,32.715,54.688,32.227,0
1553635520.105,57.617,51.758,32.227,36.133,-28.320,0
1553635520.109,58.594,57.129,34.668,63.477,-39.551,0
1553635520.113,50.293,55.664,33.691,74.219,-35.156,0
1553635520.117,53.711,49.805,31.738,49.805,-63.965,0
1553635520.121,56.152,62.500,30.762,48.828,0.488,0
1553635520.125,52.734,70.312,29.785,54.688,33.691,0
1553635520.129,58.105,58.594,33.203,60.547,60.059,0
1553635520.133,58.105,49.805,33.203,71.289,33.203,0
1553635520.136,57.617,53.711,30.273,51.270,17.578,0
1553635520.140,50.293,50.293,27.832,34.180,-1.953,0
1553635520.144,35.645,44.922,27.344,41.016,-20.508,0
1553635520.148,38.086,47.852,25.391,49.805,46.387,0
1553635520.152,39.062,51.270,25.879,36.133,59.082,0
1553635520.156,44.922,54.199,29.785,37.598,24.414,0
1553635520.160,54.199,50.781,32.715,52.246,-1.953,0
1553635520.164,45.410,53.223,30.273,52.246,54.688,0
1553635520.168,46.875,55.664,24.902,52.246,50.781,0
1553635520.172,42.480,48.340,25.879,45.410,26.855,0
1553635520.176,47.852,55.176,30.273,50.781,80.566,0
1553635520.179,56.641,61.523,28.320,43.457,37.109,0
1553635520.183,50.781,54.199,24.902,41.992,13.672,0
1553635520.187,57.129,48.828,28.320,53.711,-6.348,0
1553635520.191,59.570,53.223,30.762,40.039,-11.719,0
1553635520.195,70.312,56.641,29.297,30.762,40.527,0
1553635520.199,63.477,55.176,31.738,42.480,29.785,0
1553635520.203,32.715,53.223,35.156,33.203,42.969,0
1553635520.207,38.086,55.176,34.668,40.039,57.617,0
1553635520.211,50.781,69.824,34.668,55.664,42.480,0
1553635520.215,52.734,76.172,35.645,47.363,27.832,0
1553635520.219,58.594,59.570,33.691,37.109,-25.879,0
1553635520.222,57.129,53.223,31.250,43.457,32.227,0
1553635520.226,35.645,55.176,34.668,51.758,85.449,0
1553635520.230,20.020,51.758,34.180,39.551,27.344,0
1553635520.234,33.203,57.129,30.273,38.574,13.672,0
1553635520.238,42.480,62.012,32.715,44.434,35.645,0
1553635520.242,56.152,58.594,33.691,52.734,7.324,0
1553635520.246,38.086,55.664,33.691,54.688,-7.812,0
1553635520.250,25.391,53.223,34.180,43.457,45.898,0
1553635520.254,39.062,53.711,32.227,34.180,74.707,0
1553635520.258,26.855,53.223,30.273,36.133,17.090,0
1553635520.261,24.902,46.387,32.227,53.223,1.953,0
1553635520.265,36.621,50.293,32.715,51.758,31.738,0
1553635520.269,42.969,58.105,34.180,43.945,-13.672,0
1553635520.273,44.434,57.129,34.180,53.711,-12.695,0
1553635520.277,41.016,52.734,27.344,50.781,-0.977,0
1553635520.281,46.875,62.988,26.855,44.922,38.574,0
1553635520.285,41.992,64.453,28.320,32.227,29.785,0
1553635520.289,28.809,51.758,28.809,19.043,7.324,0
1553635520.293,29.785,44.922,30.273,27.344,65.918,0
1553635520.297,23.926,51.758,32.227,42.969,116.211,0
1553635520.301,16.602,63.477,28.809,14.160,86.426,0
1553635520.304,17.090,63.965,27.832,2.930,30.762,0
1553635520.308,22.949,55.664,30.273,23.926,15.625,0
1553635520.312,38.574,58.105,30.762,23.926,-22.461,0
1553635520.316,38.574,63.965,32.715,29.785,-42.480,0
1553635520.320,27.344,64.453,30.762,41.016,-20.020,0
1553635520.324,23.926,63.477,32.715,23.438,6.836,0
1553635520.328,20.020,60.059,35.645,28.809,51.758,0
1553635520.332,27.344,59.570,32.715,39.062,31.250,0
1553635520.336,33.203,61.035,33.691,24.414,36.621,0
1553635520.340,32.715,58.105,32.227,9.766,70.801,0
1553635520.344,32.227,60.059,25.879,1.953,17.578,0
1553635520.347,27.832,67.871,24.414,10.254,30.273,0
1553635520.351,19.043,64.453,30.762,24.902,58.594,0
1553635520.355,22.949,58.105,31.250,41.504,33.203,0
1553635520.359,28.809,55.176,27.344,32.227,31.738,0
1553635520.363,28.809,58.105,29.297,11.719,28.320,0
1553635520.367,29.297,60.059,30.762,29.297,66.895,0
1553635520.371,27.344,51.270,32.227,37.109,38.086,0
1553635520.375,29.297,53.223,27.344,19.531,46.875,0
1553635520.379,35.156,57.129,21.973,21.484,67.383,0
1553635520.383,38.574,52.734,26.367,27.832,-11.719,0
1553635520.386,40.039,53.223,29.785,11.719,-3.418,0
1553635520.390,38.574,57.617,26.367,15.625,-20.020,0
1553635520.394,37.109,59.082,31.250,44.922,-17.578,0
1553635520.398,40.039,58.594,40.527,48.828,18.066,0
1553635520.402,43.457,61.035,40.039,47.363,33.691,0
1553635520.406,46.387,61.523,38.086,41.504,83.008,0
1553635520.410,45.410,58.105,36.133,41.016,38.574,0
1553635520.414,40.527,50.781,38.086,53.223,-3.906,0
1553635520.418,41.504,46.875,37.109,54.199,19.043,0
1553635520.422,42.969,51.270,32.715,30.273,45.898,0
1553635520.426,48.340,52.246,35.156,31.738,34.180,0
1553635520.429,58.105,52.246,35.645,35.156,53.711,0
1553635520.433,48.340,53.711,36.621,44.922,41.016,0
1553635520.437,33.691,57.129,38.086,54.688,3.418,0
1553635520.441,41.016,52.734,36.133,43.945,45.410,0
1553635520.445,49.805,49.316,35.645,27.832,57.617,0
1553635520.449,56.641,59.082,35.645,27.832,23.926,0
1553635520.453,70.801,63.477,35.645,34.180,61.035,0
1553635520.457,72.266,52.734,34.668,38.574,70.312,0
1553635520.461,23.438,45.898,36.621,31.738,-7.324,0
1553635520.465,9.766,50.293,35.645,34.668,-6.836,0
1553635520.469,33.203,54.199,33.203,41.504,-28.320,0
1553635520.472,50.781,53.711,34.180,42.969,0.488,0
1553635520.476,51.270,46.875,33.203,44.922,25.879,0
1553635520.480,39.062,57.129,35.156,39.551,4.883,0
1553635520.484,44.922,67.383,36.133,39.062,-3.418,0
1553635520.488,50.293,59.082,33.203,35.645,15.625,0
1553635520.492,50.293,55.176,30.762,45.410,56.641,0
1553635520.496,37.109,58.594,30.273,41.992,45.410,0
1553635520.500,34.668,62.988,28.320,46.387,67.871,0
1553635520.504,47.363,59.570,28.809,44.434,38.086,0
1553635520.508,41.992,56.152,33.691,39.062,-21.484,0
1553635520.511,39.062,67.383,35.156,44.434,8.789,0
1553635520.515,41.504,64.941,35.156,47.363,46.387,0
1553635520.519,45.410,58.594,36.621,51.270,76.660,0
1553635520.523,56.641,62.988,34.180,34.180,56.152,0
1553635520.527,80.566,66.895,33.691,38.574,47.852,0
1553635520.531,62.988,67.383,32.715,39.551,111.328,0
1553635520.535,25.879,60.059,29.785,26.367,83.984,0
1553635520.539,20.508,61.035,30.273,38.086,50.293,0
1553635520.543,36.133,66.406,34.180,48.828,20.020,0
1553635520.547,39.551,66.895,34.180,43.945,23.438,0
1553635520.551,29.297,60.059,33.203,31.738,74.219,0
1553635520.554,30.762,53.223,33.203,30.273,44.922,0
1553635520.558,43.457,60.547,28.320,37.109,15.625,0
1553635520.562,46.387,59.082,31.250,53.711,34.180,0
