timestamps,TP9,AF7,AF8,TP10,Right AUX,Marker0
1553807629.473,44.434,15.625,52.734,26.855,-29.785,0
1553807629.477,29.785,11.230,60.059,53.711,-1.953,0
1553807629.481,51.758,12.695,52.246,60.059,36.621,0
1553807629.485,65.918,15.137,49.316,45.410,66.895,0
1553807629.489,80.078,25.879,49.805,54.199,80.566,0
1553807629.493,62.988,27.832,48.828,46.875,47.852,0
1553807629.496,55.176,16.602,53.711,48.340,37.109,0
1553807629.500,65.430,18.555,52.246,50.293,15.137,0
1553807629.504,81.055,20.996,49.316,59.082,9.766,0
1553807629.508,86.914,20.996,48.828,62.500,30.762,0
1553807629.512,41.504,24.414,48.828,25.391,96.680,0
1553807629.516,59.570,28.809,41.992,14.648,77.637,0
1553807629.520,56.152,31.738,32.227,0.488,42.969,0
1553807629.524,45.410,24.414,35.156,5.371,66.406,0
1553807629.528,58.105,26.367,36.621,20.508,32.227,0
1553807629.532,60.059,29.297,40.039,29.297,-10.254,0
1553807629.536,86.426,29.297,42.969,23.926,-3.418,0
1553807629.539,83.496,31.250,38.086,8.789,-12.695,0
1553807629.543,54.199,23.438,42.480,20.996,7.324,0
1553807629.547,23.438,22.461,40.039,40.039,48.828,0
1553807629.551,40.039,24.414,33.203,39.551,1.953,0
1553807629.555,70.312,27.832,37.109,30.762,3.906,0
1553807629.559,51.270,33.203,37.598,26.367,14.160,0
1553807629.563,24.902,27.344,38.086,30.273,35.645,0
1553807629.567,56.152,24.414,42.969,50.781,27.344,0
1553807629.571,50.781,26.855,43.945,51.270,-24.414,0
1553807629.575,29.785,29.297,39.551,29.297,-36.621,0
1553807629.578,35.645,25.391,37.598,4.395,5.859,0
1553807629.582,42.480,22.949,39.062,14.160,24.902,0
1553807629.586,31.250,26.855,40.527,29.785,35.645,0
1553807629.590,28.809,29.785,37.598,14.160,35.156,0
1553807629.594,62.988,29.785,41.016,22.949,38.574,0
1553807629.598,67.871,27.832,43.457,24.902,39.551,0
1553807629.602,52.734,33.203,36.621,14.160,34.668,0
1553807629.606,53.223,35.645,37.109,18.555,49.316,0
1553807629.610,55.664,35.156,41.016,33.203,18.555,0
1553807629.614,24.902,24.902,44.922,45.898,-5.371,0
1553807629.618,34.180,22.461,42.969,54.688,19.043,0
1553807629.621,99.121,33.203,35.645,56.641,-10.254,0
1553807629.625,67.871,37.109,45.410,58.105,16.113,0
1553807629.629,42.969,34.668,53.711,63.477,92.773,0
1553807629.633,64.453,35.156,45.898,88.867,54.688,0
1553807629.637,13.184,27.344,45.898,68.848,50.293,0
1553807629.641,-5.371,23.926,48.828,25.879,12.695,0
1553807629.645,36.133,32.715,41.992,43.945,-13.184,0
1553807629.649,40.527,31.738,39.551,61.523,32.715,0
1553807629.653,21.973,25.879,43.457,70.801,34.180,0
1553807629.657,47.363,28.809,40.039,70.312,28.320,0
1553807629.661,50.293,31.250,37.598,47.363,36.133,0
1553807629.664,24.902,31.250,34.180,51.758,32.227,0
1553807629.668,7.812,32.715,36.621,68.848,28.320,0
1553807629.672,27.344,33.691,36.621,59.082,47.363,0
1553807629.676,56.641,38.086,35.645,60.547,95.703,0
1553807629.680,51.270,33.203,37.598,52.734,76.660,0
1553807629.684,55.176,32.715,35.645,77.148,23.926,0
1553807629.688,61.035,33.691,35.645,83.008,-51.758,0
1553807629.692,38.574,30.273,32.227,55.176,-73.242,0
1553807629.696,35.645,30.762,31.250,55.176,-17.578,0
1553807629.700,55.176,29.297,34.668,52.246,62.500,0
1553807629.703,34.668,30.273,36.621,58.594,76.172,0
1553807629.707,10.742,28.809,38.086,56.641,38.086,0
1553807629.711,34.668,27.832,34.180,42.480,28.809,0
1553807629.715,39.062,32.227,28.320,19.531,17.578,0
1553807629.719,47.852,27.832,30.762,34.180,32.715,0
1553807629.723,103.027,27.832,31.738,67.383,58.594,0
1553807629.727,60.059,35.645,31.250,37.598,1.465,0
1553807629.731,18.555,40.527,30.273,41.016,0.977,0
1553807629.735,26.367,35.156,30.762,61.035,35.645,0
1553807629.739,23.438,32.227,32.227,42.480,35.156,0
1553807629.743,44.434,36.133,34.180,31.250,23.926,0
1553807629.746,44.434,30.273,32.715,18.555,5.371,0
1553807629.750,50.293,31.738,33.203,13.672,63.965,0
1553807629.754,53.711,33.203,36.621,40.039,79.590,0
1553807629.758,34.668,28.809,37.598,24.414,50.781,0
1553807629.762,62.500,33.203,34.668,35.645,43.457,0
1553807629.766,67.871,28.320,30.273,47.852,15.137,0
1553807629.770,33.203,28.809,33.691,15.137,19.531,0
1553807629.774,42.480,37.109,42.480,19.531,-9.277,0
1553807629.778,73.730,37.109,41.992,50.293,29.297,0
1553807629.782,63.965,32.715,40.527,55.176,66.406,0
1553807629.786,19.531,35.645,33.203,38.086,25.391,0
1553807629.789,14.648,31.738,31.250,24.414,60.547,0
1553807629.793,44.434,28.809,38.086,27.344,66.895,0
1553807629.797,31.738,37.598,38.086,29.297,15.625,0
1553807629.801,37.598,38.574,32.227,48.340,14.648,0
1553807629.805,29.297,29.785,38.086,29.785,-6.836,0
1553807629.809,44.922,33.691,37.109,0.488,25.879,0
1553807629.813,55.176,40.039,30.762,31.250,34.180,0
1553807629.817,54.199,33.203,34.180,66.406,-27.344,0
1553807629.821,56.152,34.668,29.297,51.270,-27.344,0
1553807629.825,20.508,33.691,27.832,37.598,20.508,0
1553807629.828,36.133,27.344,40.039,58.594,54.688,0
1553807629.832,59.082,26.855,46.875,56.152,37.109,0
1553807629.836,16.602,33.691,41.992,47.363,27.832,0
1553807629.840,13.184,37.109,31.738,35.645,20.996,0
1553807629.844,42.480,34.668,36.133,42.480,40.039,0
1553807629.848,50.293,38.086,41.016,46.387,47.852,0
1553807629.852,40.039,40.527,41.504,59.570,55.664,0
1553807629.856,20.020,32.715,45.410,97.656,40.527,0
1553807629.860,53.223,32.715,38.086,88.867,33.203,0
1553807629.864,67.383,35.645,34.668,59.570,59.570,0
1553807629.868,41.504,31.250,41.504,46.875,57.617,0
1553807629.871,29.785,31.250,38.086,57.129,47.852,0
1553807629.875,37.109,30.762,33.691,63.477,48.828,0
1553807629.879,56.152,29.297,36.133,88.379,72.754,0
1553807629.883,77.148,33.691,42.480,84.473,64.453,0
1553807629.887,57.617,36.133,43.457,61.035,-16.602,0
1553807629.891,65.430,29.785,43.457,79.102,16.602,0
1553807629.895,76.660,32.715,37.598,65.430,71.289,0
1553807629.899,56.152,43.457,30.273,62.012,53.223,0
1553807629.903,47.852,40.039,36.133,65.918,51.270,0
1553807629.907,53.223,36.133,34.180,51.270,70.312,0
1553807629.911,54.688,38.574,35.156,50.293,61.523,0
1553807629.914,69.824,39.551,38.574,51.270,39.062,0
1553807629.918,110.840,40.527,37.598,57.129,-10.254,0
1553807629.922,61.523,34.668,41.016,52.246,4.883,0
1553807629.926,37.109,33.203,39.551,78.125,15.137,0
1553807629.930,69.336,30.273,42.969,74.219,-31.250,0
1553807629.934,76.172,26.855,41.992,7.812,-11.719,0
1553807629.938,44.434,37.598,28.320,12.207,44.922,0
1553807629.942,19.531,32.227,27.344,29.785,41.504,0
1553807629.946,46.875,27.832,33.203,23.926,20.020,0
1553807629.950,54.688,32.227,28.809,34.180,2.930,0
1553807629.953,41.992,35.156,29.785,50.781,26.367,0
1553807629.957,40.527,34.668,37.109,41.504,74.219,0
1553807629.961,44.922,26.855,35.156,35.156,31.738,0
1553807629.965,35.645,28.320,30.273,30.273,-10.254,0
1553807629.969,29.785,29.297,36.133,30.273,-64.453,0
1553807629.973,34.180,27.832,38.086,47.852,-38.574,0
1553807629.977,41.992,26.855,34.180,35.156,26.367,0
1553807629.981,44.434,29.785,26.855,29.297,2.930,0
1553807629.985,46.387,30.762,31.738,65.918,14.160,0
1553807629.989,50.781,27.832,38.574,21.973,74.219,0
1553807629.993,38.574,29.785,29.785,-16.602,57.129,0
1553807629.996,29.297,30.762,28.809,12.695,30.762,0
1553807630.000,54.199,29.297,38.086,25.391,30.762,0
1553807630.004,43.457,29.785,37.598,14.648,21.973,0
1553807630.008,24.902,29.297,37.109,-4.883,24.902,0
1553807630.012,36.133,29.297,42.480,24.414,43.945,0
1553807630.016,43.945,32.227,36.133,31.250,35.156,0
1553807630.020,40.527,36.621,30.762,-11.230,36.133,0
1553807630.024,80.078,34.180,36.621,-29.785,22.461,0
1553807630.028,59.570,29.785,41.504,7.324,35.156,0
1553807630.032,-6.348,26.367,40.527,15.625,37.109,0
1553807630.036,-1.953,24.414,35.645,16.602,12.207,0
1553807630.039,32.227,26.855,40.039,10.254,36.133,0
1553807630.043,48.340,33.691,44.922,-19.531,35.645,0
1553807630.047,27.344,30.762,42.969,8.789,29.785,0
1553807630.051,18.066,26.367,45.410,12.695,42.480,0
1553807630.055,51.758,26.367,42.969,-0.488,48.340,0
1553807630.059,46.875,28.809,31.250,10.254,13.672,0
1553807630.063,17.578,30.273,30.273,-2.930,-46.875,0
1553807630.067,32.227,27.832,35.645,19.531,-32.715,0
1553807630.071,44.922,32.715,36.621,41.016,-46.875,0
1553807630.075,41.504,34.180,39.551,33.691,-18.555,0
1553807630.078,51.758,27.344,42.480,25.879,71.289,0
1553807630.082,63.477,26.855,38.574,32.227,43.457,0
1553807630.086,26.367,33.691,30.762,26.855,11.719,0
1553807630.090,18.555,34.180,29.297,9.277,1.465,0
1553807630.094,20.996,25.879,38.574,19.531,5.371,0
1553807630.098,21.484,30.762,40.527,14.160,41.504,0
1553807630.102,37.109,37.598,32.715,45.410,42.969,0
1553807630.106,19.043,36.621,27.344,33.203,4.883,0
1553807630.110,41.016,37.109,34.180,13.672,14.160,0
1553807630.114,63.477,25.879,41.504,58.105,47.852,0
1553807630.118,67.383,27.832,39.551,39.062,20.508,0
1553807630.121,67.383,42.480,39.551,18.555,14.160,0
1553807630.125,66.895,41.016,37.109,38.086,75.195,0
1553807630.129,33.691,26.855,37.109,33.691,43.457,0
1553807630.133,29.785,25.391,34.180,25.879,6.348,0
1553807630.137,58.594,29.785,31.738,39.062,49.805,0
1553807630.141,47.363,27.832,38.574,45.410,78.613,0
1553807630.145,37.598,30.273,37.598,47.363,36.621,0
1553807630.149,59.570,36.133,31.250,48.340,-43.457,0
1553807630.153,81.543,40.039,35.156,60.547,-36.133,0
1553807630.157,78.613,42.969,32.227,48.828,21.973,0
1553807630.161,66.895,41.504,22.949,46.875,62.500,0
1553807630.164,78.613,38.574,26.367,52.246,45.898,0
1553807630.168,93.262,40.527,31.250,55.664,41.992,0
1553807630.172,60.547,43.457,31.250,68.848,43.457,0
1553807630.176,46.387,42.480,32.715,76.660,58.105,0
1553807630.180,59.570,40.039,34.668,54.199,21.484,0
1553807630.184,34.180,42.969,30.273,60.059,-21.484,0
1553807630.188,23.926,38.574,35.156,78.125,66.406,0
1553807630.192,49.805,36.621,39.551,47.363,79.590,0
1553807630.196,37.109,29.297,34.668,32.715,12.695,0
1553807630.200,32.715,22.461,32.227,39.551,-15.625,0
1553807630.203,47.363,28.809,34.180,49.805,45.898,0
1553807630.207,42.480,25.879,37.598,50.293,37.109,0
1553807630.211,37.598,23.926,33.691,58.105,-18.555,0
1553807630.215,56.152,25.879,40.527,56.641,-5.859,0
1553807630.219,74.707,28.809,37.598,33.691,13.672,0
1553807630.223,42.969,26.855,34.668,59.570,28.320,0
1553807630.227,7.812,25.391,41.504,85.449,59.082,0
1553807630.231,51.270,31.250,31.738,53.223,81.055,0
1553807630.235,86.914,34.668,29.785,45.898,70.312,0
1553807630.239,70.312,31.250,40.039,76.660,100.586,0
1553807630.243,26.855,24.902,41.992,52.246,102.051,0
1553807630.246,24.902,32.227,36.133,71.289,90.332,0
1553807630.250,68.848,39.062,32.715,73.730,70.801,0
1553807630.254,69.824,34.668,34.180,61.035,14.160,0
1553807630.258,42.480,29.785,40.039,91.797,40.039,0
1553807630.262,43.457,29.785,41.016,90.820,86.426,0
1553807630.266,56.641,29.297,41.992,92.285,19.043,0
1553807630.270,28.809,28.809,42.969,68.359,3.418,0
1553807630.274,34.668,30.762,37.109,46.875,47.363,0
1553807630.278,48.340,26.855,39.062,63.965,70.312,0
1553807630.282,90.820,25.879,38.574,73.242,83.984,0
1553807630.286,79.590,32.227,31.250,57.129,42.969,0
1553807630.289,34.180,32.715,29.297,67.871,-10.254,0
1553807630.293,20.996,26.855,37.598,83.496,0.977,0
1553807630.297,57.129,19.043,38.086,52.734,61.035,0
1553807630.301,75.195,28.320,32.715,39.551,40.527,0
1553807630.305,30.273,38.086,36.133,59.570,72.754,0
1553807630.309,29.785,25.879,40.039,32.227,55.664,0
1553807630.313,47.363,26.367,41.504,12.695,20.996,0
1553807630.317,43.457,34.180,36.133,49.805,13.184,0
1553807630.321,40.527,29.785,38.574,56.152,-31.250,0
1553807630.325,62.988,32.715,35.645,39.551,17.578,0
1553807630.328,68.359,34.180,26.855,41.992,35.156,0
1553807630.332,97.656,33.691,33.691,35.156,20.020,0
1553807630.336,93.750,34.668,38.086,10.742,15.625,0
1553807630.340,37.109,29.297,38.574,19.043,57.129,0
1553807630.344,35.156,34.180,33.203,10.742,50.293,0
1553807630.348,61.523,39.551,25.879,10.254,-11.719,0
1553807630.352,66.895,41.504,34.668,40.039,-22.949,0
1553807630.356,46.387,36.133,35.156,36.621,5.859,0
1553807630.360,32.227,33.691,28.320,12.207,39.062,0
1553807630.364,52.734,35.645,28.809,10.254,25.391,0
1553807630.368,53.711,32.715,27.832,4.395,30.762,0
1553807630.371,14.160,30.762,28.809,1.465,53.223,0
1553807630.375,10.254,26.367,42.969,39.551,69.824,0
1553807630.379,34.668,23.926,43.457,26.367,74.219,0
1553807630.383,32.715,31.250,34.180,-9.766,25.391,0
1553807630.387,21.484,34.668,36.621,16.602,70.801,0
1553807630.391,19.043,31.250,38.086,32.227,63.477,0
1553807630.395,62.988,30.273,42.969,15.137,28.320,0
1553807630.399,51.758,20.508,45.410,37.109,30.273,0
1553807630.403,1.465,24.902,40.527,36.133,6.836,0
1553807630.407,31.738,24.414,38.086,40.527,35.645,0
1553807630.411,66.895,19.043,48.828,80.078,38.086,0
1553807630.414,70.312,39.062,42.480,38.086,25.879,0
1553807630.418,26.855,39.062,35.156,30.762,15.625,0
1553807630.422,37.109,37.598,38.086,47.852,-1.953,0
1553807630.426,59.082,49.316,31.738,36.133,0.977,0
1553807630.430,42.480,46.387,31.250,50.293,21.973,0
1553807630.434,50.293,45.410,28.809,49.316,22.461,0
1553807630.438,90.820,56.152,22.949,79.590,-6.348,0
1553807630.442,80.078,60.547,18.555,93.750,12.207,0
1553807630.446,63.965,47.852,19.531,79.102,68.359,0
1553807630.450,70.312,49.805,19.531,78.613,50.293,0
1553807630.453,75.195,61.523,6.836,81.055,-4.883,0
1553807630.457,87.402,57.129,6.348,105.469,0.000,0
1553807630.461,102.539,54.688,14.648,112.793,21.484,0
1553807630.465,119.141,62.988,14.648,95.215,8.789,0
1553807630.469,99.121,61.523,13.672,72.266,-5.859,0
1553807630.473,81.055,59.570,14.648,75.195,-16.113,0
1553807630.477,92.773,56.641,21.973,107.910,18.555,0
1553807630.481,103.516,50.781,26.855,101.074,17.090,0
1553807630.485,87.402,51.270,23.438,72.754,4.395,0
1553807630.489,102.051,54.688,19.043,88.379,36.133,0
1553807630.493,142.090,60.059,21.973,103.027,60.547,0
1553807630.496,89.844,49.805,31.738,86.426,81.055,0
1553807630.500,39.062,40.527,30.762,67.383,38.574,0
1553807630.504,47.852,48.828,25.391,62.500,38.574,0
1553807630.508,87.891,54.199,28.320,67.383,86.426,0
1553807630.512,101.562,49.316,30.762,89.355,67.871,0
1553807630.516,63.965,46.387,28.809,102.539,68.848,0
1553807630.520,64.453,46.387,25.879,50.781,38.574,0
1553807630.524,74.219,40.527,29.297,22.461,3.418,0
1553807630.528,70.801,39.551,34.180,57.617,19.043,0
1553807630.532,73.242,45.410,34.180,71.777,53.223,0
1553807630.536,72.754,42.969,33.203,53.223,52.734,0
1553807630.539,67.871,42.969,31.738,44.434,34.180,0
1553807630.543,82.520,44.922,31.250,45.898,20.020,0
1553807630.547,94.238,43.945,34.668,42.969,18.066,0
1553807630.551,83.496,42.480,37.598,62.012,52.734,0
1553807630.555,59.082,41.992,32.227,62.500,49.316,0
1553807630.559,48.828,39.062,34.180,74.219,-13.672,0
1553807630.563,57.129,42.969,38.574,75.684,-7.812,0
1553807630.567,64.941,45.410,38.574,56.152,41.016,0
1553807630.571,43.457,41.992,43.457,66.406,64.941,0
1553807630.575,37.598,45.410,41.504,45.898,17.578,0
1553807630.578,48.340,47.363,36.133,41.992,26.855,0
1553807630.582,76.660,49.316,35.645,52.734,92.285,0
1553807630.586,76.172,44.922,41.992,62.012,43.945,0
1553807630.590,55.176,40.039,46.387,81.055,-1.953,0
1553807630.594,45.410,39.551,37.598,37.109,12.207,0
1553807630.598,67.383,38.086,36.621,15.625,43.945,0
1553807630.602,43.457,40.039,39.551,24.902,36.133,0
1553807630.606,1.953,36.133,42.480,20.508,-9.277,0
1553807630.610,52.734,33.203,44.434,37.598,0.977,0
1553807630.614,61.035,37.598,37.598,37.598,67.871,0
1553807630.618,54.199,39.062,37.109,28.809,81.543,0
1553807630.621,83.008,35.156,38.574,27.832,76.660,0
1553807630.625,65.430,37.109,36.621,38.574,45.898,0
1553807630.629,45.898,36.133,40.039,56.641,-18.066,0
1553807630.633,43.457,24.902,47.852,63.477,-4.395,0
1553807630.637,46.875,27.832,46.387,74.219,-28.809,0
1553807630.641,66.895,34.668,38.574,67.383,-34.668,0
1553807630.645,65.430,34.180,37.109,61.523,46.875,0
1553807630.649,37.109,31.738,41.016,94.238,74.219,0
1553807630.653,31.738,34.180,36.133,84.473,26.367,0
1553807630.657,66.406,36.133,34.668,50.781,-26.367,0
1553807630.661,53.223,35.156,40.527,69.824,-7.812,0
1553807630.664,7.324,34.668,39.062,74.707,43.457,0
1553807630.668,37.598,38.574,39.551,81.055,53.223,0
1553807630.672,20.508,32.715,37.109,68.848,24.414,0
1553807630.676,8.301,33.203,36.621,42.969,20.020,0
1553807630.680,28.809,37.598,38.574,63.965,-17.090,0
1553807630.684,33.203,37.109,36.621,63.965,-7.324,0
1553807630.688,54.199,36.621,41.504,57.129,2.441,0
1553807630.692,36.621,31.738,45.898,70.312,26.367,0
1553807630.696,23.438,29.785,42.969,45.410,35.156,0
1553807630.700,42.480,28.320,42.480,35.645,26.855,0
1553807630.703,64.453,27.832,41.992,70.312,15.625,0
1553807630.707,49.316,41.992,36.621,70.312,-13.672,0
1553807630.711,46.387,44.434,33.203,52.734,16.602,0
1553807630.715,65.918,29.785,38.086,38.574,33.691,0
1553807630.719,39.062,37.598,32.227,10.742,54.199,0
1553807630.723,35.645,44.434,22.461,0.488,89.844,0
1553807630.727,34.180,34.668,33.691,28.809,100.586,0
1553807630.731,9.766,35.645,30.762,40.039,88.867,0
1553807630.735,28.809,37.598,21.973,50.293,56.641,0
1553807630.739,38.086,38.574,29.785,73.242,32.715,0
1553807630.743,34.180,36.621,35.645,68.359,74.219,0
1553807630.746,31.250,35.645,36.133,67.383,85.449,0
1553807630.750,20.020,34.668,34.180,61.035,56.641,0
1553807630.754,25.879,29.785,31.738,51.758,30.762,0
1553807630.758,27.344,29.297,29.785,59.570,-27.344,0
1553807630.762,8.301,31.738,31.738,59.570,0.488,0
1553807630.766,28.809,37.598,33.203,59.570,46.387,0
1553807630.770,36.133,37.598,32.227,66.406,33.691,0
1553807630.774,40.527,38.574,34.668,61.523,57.129,0
1553807630.778,58.105,40.039,32.227,49.316,61.523,0
1553807630.782,42.480,37.109,30.762,26.855,30.273,0
1553807630.786,40.039,31.250,32.715,20.996,0.977,0
1553807630.789,32.227,29.785,37.598,54.199,35.156,0
1553807630.793,34.668,30.273,37.598,34.180,20.996,0
1553807630.797,19.531,30.273,32.227,-3.906,-15.625,0
1553807630.801,23.438,34.180,24.902,20.020,-23.926,0
1553807630.805,42.480,35.645,30.273,26.367,-35.645,0
1553807630.809,37.598,37.598,37.598,23.438,-13.184,0
1553807630.813,42.480,38.574,35.156,32.227,38.086,0
1553807630.817,34.668,38.574,32.715,24.414,53.223,0
1553807630.821,41.992,35.156,35.645,34.668,28.320,0
1553807630.825,48.828,35.645,37.598,50.293,81.543,0
1553807630.828,21.484,36.133,29.297,40.527,134.766,0
1553807630.832,17.090,38.086,29.297,29.785,140.625,0
1553807630.836,32.227,38.574,33.691,47.363,104.980,0
1553807630.840,48.340,36.133,29.785,54.688,44.922,0
1553807630.844,35.156,35.645,28.320,40.527,48.828,0
1553807630.848,6.348,33.203,34.180,28.320,51.758,0
1553807630.852,27.344,32.227,34.180,19.531,15.625,0
1553807630.856,32.715,34.180,33.203,33.691,5.859,0
1553807630.860,6.348,35.156,32.227,36.133,48.828,0
1553807630.864,44.922,38.574,33.203,32.715,29.785,0
1553807630.868,39.062,40.039,38.574,42.969,61.035,0
1553807630.871,0.000,34.180,43.457,56.152,77.148,0
1553807630.875,24.902,29.297,41.992,9.277,27.832,0
1553807630.879,7.812,34.668,35.156,-33.203,-14.160,0
1553807630.883,41.992,39.551,31.250,-20.508,42.480,0
1553807630.887,52.246,43.945,35.156,-7.812,57.129,0
1553807630.891,-0.488,40.039,38.574,13.672,-0.977,0
1553807630.895,-2.441,34.180,37.598,20.020,37.598,0
1553807630.899,-29.785,32.715,41.504,-1.953,59.082,0
1553807630.903,-8.789,28.809,42.969,4.395,70.801,0
1553807630.907,17.090,33.203,43.457,32.227,28.809,0
1553807630.911,17.578,36.133,43.945,11.719,16.113,0
1553807630.914,20.996,37.598,40.039,18.066,48.828,0
1553807630.918,11.230,39.551,37.598,30.762,38.086,0
1553807630.922,12.207,36.621,38.574,23.438,19.043,0
1553807630.926,1.465,30.762,39.062,42.969,41.016,0
1553807630.930,-15.625,28.809,37.109,41.504,32.715,0
1553807630.934,-9.277,34.180,42.969,41.504,11.230,0
1553807630.938,-6.348,34.180,44.922,28.809,10.742,0
1553807630.942,6.836,31.250,42.969,38.086,10.254,0
1553807630.946,2.441,39.551,37.598,39.062,18.555,0
1553807630.950,39.062,44.922,27.832,44.434,48.340,0
1553807630.953,48.828,36.133,42.480,58.105,20.508,0
1553807630.957,-7.812,27.832,53.711,20.020,28.320,0
1553807630.961,-13.184,25.391,53.711,8.789,37.109,0
1553807630.965,-14.160,26.855,49.316,8.301,-14.648,0
1553807630.969,-26.367,17.578,47.852,-10.742,-2.441,0
1553807630.973,9.277,17.578,47.363,-20.508,-7.324,0
1553807630.977,27.832,27.832,41.016,-1.465,-9.277,0
1553807630.981,-10.254,24.902,41.992,6.348,44.922,0
1553807630.985,-14.160,24.902,42.480,-7.324,55.664,0
1553807630.989,29.785,27.344,41.016,-18.066,62.988,0
1553807630.993,49.805,25.391,43.945,-18.555,52.246,0
1553807630.996,14.648,21.973,47.852,26.855,-3.418,0
1553807631.000,-5.859,20.020,53.711,36.133,4.883,0
1553807631.004,12.695,25.391,49.805,15.625,29.297,0
1553807631.008,22.461,31.738,48.340,24.902,22.461,0
1553807631.012,33.203,35.156,39.551,45.898,21.973,0
1553807631.016,70.312,35.156,31.250,51.270,14.648,0
1553807631.020,38.574,33.203,40.527,35.156,50.781,0
1553807631.024,-27.832,27.344,41.016,18.066,70.312,0
1553807631.028,-6.836,24.414,42.480,12.695,73.730,0
1553807631.032,42.969,31.250,44.922,46.875,93.262,0
1553807631.036,23.926,33.691,44.922,49.805,52.734,0
1553807631.039,16.602,28.809,37.598,21.973,7.812,0
1553807631.043,16.602,25.879,33.691,15.625,-55.664,0
1553807631.047,23.438,31.738,33.691,6.348,-33.691,0
1553807631.051,30.762,36.133,35.156,-2.930,51.758,0
1553807631.055,25.879,34.180,37.598,5.859,36.133,0
1553807631.059,10.742,36.621,38.574,16.602,20.020,0
1553807631.063,40.527,41.992,40.039,37.109,39.551,0
1553807631.067,43.457,32.715,41.504,34.180,26.855,0
1553807631.071,20.996,26.855,36.621,19.043,35.645,0
1553807631.075,1.465,28.809,30.762,13.184,18.066,0
1553807631.078,-11.230,25.879,41.016,8.301,23.926,0
1553807631.082,28.809,30.762,40.527,-7.812,34.180,0
1553807631.086,45.898,34.668,25.879,-21.973,70.801,0
1553807631.090,27.344,38.574,34.180,-0.977,50.293,0
1553807631.094,3.418,49.316,49.805,43.457,-11.719,0
1553807631.098,1.465,47.363,54.688,42.480,88.379,0
1553807631.102,6.836,40.039,53.223,8.789,99.121,0
1553807631.106,45.410,39.062,46.387,23.926,34.668,0
1553807631.110,22.949,32.227,32.715,38.086,54.199,0
1553807631.114,-71.289,37.598,36.621,-30.762,62.012,0
1553807631.118,-59.082,54.199,52.734,-34.668,46.387,0
1553807631.121,-29.297,56.641,59.570,11.230,78.613,0
1553807631.125,-20.996,55.664,59.570,-41.016,34.180,0
1553807631.129,-74.219,60.059,66.895,-69.824,46.387,0
1553807631.133,-167.480,83.984,87.891,-109.863,108.398,0
1553807631.137,-207.031,93.750,112.793,-159.180,70.312,0
1553807631.141,-270.996,87.891,101.074,-245.605,41.992,0
1553807631.145,-287.109,100.586,95.703,-311.035,48.828,0
1553807631.149,-285.645,101.562,120.605,-286.621,42.480,0
1553807631.153,-299.805,94.727,128.906,-290.039,9.766,0
1553807631.157,-310.547,92.285,121.582,-282.715,45.410,0
1553807631.161,-265.625,82.520,122.559,-250.000,28.809,0
1553807631.164,-193.359,67.871,125.488,-216.309,8.789,0
1553807631.168,-219.727,55.176,129.395,-190.918,80.566,0
1553807631.172,-214.355,40.527,125.977,-193.359,65.918,0
1553807631.176,-163.086,32.715,117.676,-171.875,31.738,0
1553807631.180,-132.324,26.367,125.000,-134.277,-0.488,0
1553807631.184,-88.867,23.926,121.094,-84.961,4.883,0
1553807631.188,-52.246,22.461,87.402,-40.527,19.043,0
1553807631.192,-16.113,1.465,85.449,10.254,12.207,0
1553807631.196,40.527,-4.883,101.074,29.785,55.664,0
1553807631.200,56.152,7.324,87.891,62.012,49.805,0
1553807631.203,54.688,3.906,76.660,55.664,84.473,0
1553807631.207,67.383,-4.395,81.055,62.500,56.641,0
1553807631.211,95.215,1.465,61.035,126.465,81.055,0
1553807631.215,114.746,-6.348,46.387,136.719,80.078,0
1553807631.219,93.262,-12.207,51.270,126.465,22.461,0
1553807631.223,117.188,1.953,37.109,137.207,32.715,0
1553807631.227,161.133,-7.812,35.156,151.855,58.105,0
1553807631.231,143.066,-7.324,35.156,170.898,68.848,0
1553807631.235,149.414,5.371,29.785,179.688,30.273,0
1553807631.239,160.156,4.395,29.785,163.574,10.254,0
1553807631.243,146.484,0.488,25.391,165.527,18.066,0
1553807631.246,176.270,-0.977,21.973,156.250,43.945,0
1553807631.250,173.340,0.977,16.602,162.109,52.734,0
1553807631.254,163.574,0.977,13.672,175.781,55.664,0
1553807631.258,183.594,4.395,10.742,163.086,70.312,0
1553807631.262,182.617,8.789,3.418,148.926,50.781,0
1553807631.266,148.438,7.324,11.230,155.762,18.555,0
1553807631.270,136.230,5.371,22.461,154.297,24.414,0
1553807631.274,157.715,7.812,23.438,145.020,14.648,0
1553807631.278,160.156,10.742,23.926,146.973,3.906,0
1553807631.282,168.457,14.648,22.461,138.184,55.176,0
1553807631.286,168.945,12.695,19.531,148.438,72.266,0
1553807631.289,136.719,8.789,19.531,124.512,64.941,0
1553807631.293,136.230,9.277,21.484,101.562,35.645,0
1553807631.297,134.766,10.254,20.508,128.906,18.066,0
1553807631.301,125.977,10.742,20.996,121.094,4.395,0
1553807631.305,140.137,10.742,20.508,103.516,-5.859,0
1553807631.309,139.648,11.230,14.160,107.910,42.480,0
1553807631.313,107.422,11.719,18.066,99.609,37.598,0
1553807631.317,98.145,10.254,30.762,126.465,3.906,0
1553807631.321,125.000,12.207,25.879,128.906,1.953,0
1553807631.325,95.215,13.672,24.902,95.703,2.441,0
1553807631.328,94.238,15.137,30.273,110.840,-7.324,0
1553807631.332,87.891,18.066,28.320,93.750,-38.086,0
1553807631.336,64.453,16.602,21.973,-5.859,-9.277,0
1553807631.340,65.430,15.137,20.508,-48.340,8.301,0
1553807631.344,49.805,17.090,25.879,-2.441,65.430,0
1553807631.348,43.945,18.066,24.414,41.016,91.797,0
1553807631.352,62.012,13.672,22.949,47.363,15.137,0
1553807631.356,83.984,15.625,23.926,62.500,31.738,0
1553807631.360,71.777,19.531,27.832,66.406,40.527,0
1553807631.364,78.613,20.508,30.273,82.031,-2.930,0
1553807631.368,73.730,18.066,28.320,90.332,21.484,0
1553807631.371,82.520,18.555,24.902,32.227,40.527,0
1553807631.375,89.844,24.902,22.461,44.434,47.363,0
1553807631.379,83.008,25.879,24.414,94.727,57.129,0
1553807631.383,88.379,22.461,27.832,85.938,2.441,0
1553807631.387,56.641,22.461,25.391,48.340,-62.500,0
1553807631.391,50.293,25.391,23.926,48.828,-50.781,0
1553807631.395,78.125,29.785,20.996,81.055,-9.766,0
1553807631.399,72.754,29.297,18.066,78.613,0.000,0
1553807631.403,96.680,30.273,20.508,62.500,-28.320,0
1553807631.407,105.957,31.738,22.461,51.270,-26.855,0
1553807631.411,96.680,30.762,23.926,36.621,1.953,0
1553807631.414,86.426,36.621,22.461,54.199,-9.766,0
1553807631.418,66.895,33.691,22.461,75.195,30.273,0
1553807631.422,59.082,28.809,32.715,55.664,107.422,0
1553807631.426,42.480,32.227,28.809,44.922,62.500,0
1553807631.430,68.848,32.227,24.414,46.875,0.977,0
1553807631.434,73.730,27.832,27.832,47.363,33.203,0
1553807631.438,59.082,29.297,25.391,26.855,27.832,0
1553807631.442,45.898,31.738,22.461,36.621,-7.812,0
1553807631.446,44.922,23.926,28.320,63.965,10.254,0
1553807631.450,50.293,20.020,35.156,46.387,48.828,0
1553807631.453,42.969,25.391,29.297,27.832,30.273,0
1553807631.457,49.805,25.879,29.297,65.918,54.199,0
1553807631.461,39.551,25.391,31.250,73.730,24.414,0
1553807631.465,12.207,26.855,29.785,52.246,-28.320,0
1553807631.469,29.785,27.344,32.715,54.688,17.090,0
1553807631.473,46.387,27.344,36.133,61.035,17.578,0
1553807631.477,35.645,30.273,33.203,48.340,8.789,0
1553807631.481,55.176,30.762,31.738,45.410,51.758,0
1553807631.485,56.641,27.832,36.133,49.805,48.828,0
1553807631.489,46.875,27.832,38.086,38.086,15.625,0
1553807631.493,49.805,31.738,36.133,48.828,49.805,0
1553807631.496,37.598,36.133,28.809,34.668,41.504,0
1553807631.500,16.602,31.738,28.320,22.949,-44.434,0
1553807631.504,25.391,26.855,35.156,42.969,5.859,0
1553807631.508,50.781,25.879,34.668,25.879,62.500,0
1553807631.512,56.152,26.367,33.691,27.832,14.160,0
1553807631.516,40.527,27.832,34.180,39.062,108.887,0
1553807631.520,34.180,32.227,30.273,41.992,121.582,0
1553807631.524,22.461,33.203,28.809,35.156,41.992,0
1553807631.528,49.805,34.180,30.273,42.480,13.184,0
1553807631.532,75.684,37.598,29.297,40.527,-30.273,0
1553807631.536,29.785,31.738,36.133,41.016,-23.438,0
1553807631.539,34.180,30.762,32.227,18.555,22.461,0
1553807631.543,41.504,30.273,29.297,16.602,52.246,0
1553807631.547,48.828,32.227,31.250,35.645,18.066,0
1553807631.551,45.410,35.156,29.297,24.414,39.551,0
1553807631.555,55.664,20.508,37.598,45.898,38.086,0
1553807631.559,93.262,28.320,34.180,52.246,25.879,0
1553807631.563,74.707,48.340,23.438,34.180,25.879,0
1553807631.567,55.664,53.223,21.484,40.527,19.043,0
1553807631.571,37.598,57.129,16.602,48.340,55.664,0
1553807631.575,34.668,63.477,9.277,36.621,59.082,0
1553807631.578,33.691,69.824,6.348,22.461,43.457,0
1553807631.582,36.133,74.219,0.000,-0.488,8.789,0
1553807631.586,37.109,79.590,-11.230,9.766,45.410,0
1553807631.590,46.387,76.660,3.418,46.387,68.848,0
1553807631.594,87.402,72.266,8.301,44.434,36.621,0
1553807631.598,83.008,72.266,-1.953,45.410,32.227,0
1553807631.602,62.500,67.871,5.371,47.852,59.082,0
1553807631.606,86.426,71.289,5.371,24.414,7.812,0
1553807631.610,64.453,69.336,5.371,26.855,-37.109,0
1553807631.614,34.668,62.500,8.301,28.809,-2.441,0
1553807631.618,35.156,59.570,9.277,0.000,-21.484,0
1553807631.621,36.621,58.105,11.230,37.598,6.348,0
1553807631.625,44.434,58.105,14.160,51.758,65.430,0
1553807631.629,43.945,57.129,10.742,20.020,90.332,0
1553807631.633,58.105,56.152,12.207,38.086,66.895,0
1553807631.637,46.875,55.664,17.578,57.617,44.922,0
1553807631.641,46.875,51.270,13.672,45.410,39.062,0
1553807631.645,53.223,46.387,15.137,47.363,67.383,0
1553807631.649,39.551,47.852,17.090,55.664,31.738,0
1553807631.653,59.082,48.828,16.113,45.898,1.953,0
1553807631.657,72.266,49.805,17.090,51.270,9.277,0
1553807631.661,35.156,46.875,22.461,53.711,14.648,0
1553807631.664,42.480,46.875,27.344,56.641,99.609,0
1553807631.668,63.477,50.293,22.461,62.500,42.969,0
1553807631.672,41.504,48.340,22.949,61.035,-3.906,0
1553807631.676,34.180,49.805,30.273,48.828,20.020,0
1553807631.680,33.691,48.828,25.879,39.551,50.293,0
1553807631.684,40.039,48.828,25.879,55.664,107.422,0
1553807631.688,41.992,45.898,26.855,67.871,41.992,0
1553807631.692,39.062,43.945,26.855,57.129,-64.453,0
1553807631.696,16.113,44.434,21.484,57.617,-70.312,0
1553807631.700,15.137,43.945,21.484,40.039,10.254,0
1553807631.703,44.922,43.457,34.180,39.062,30.762,0
1553807631.707,42.480,41.504,36.133,63.477,3.906,0
1553807631.711,49.316,46.875,31.738,44.434,11.719,0
1553807631.715,46.387,48.340,29.785,61.035,57.129,0
1553807631.719,80.566,47.363,29.785,47.363,43.457,0
1553807631.723,70.312,47.363,33.203,42.969,36.133,0
1553807631.727,20.020,42.969,35.645,56.152,24.414,0
1553807631.731,44.434,44.434,33.691,47.852,-32.227,0
1553807631.735,51.270,48.828,34.668,44.434,5.371,0
1553807631.739,60.059,44.922,32.715,57.129,45.898,0
1553807631.743,72.754,42.480,29.297,56.152,32.227,0
1553807631.746,51.270,42.969,36.621,35.156,-10.742,0
1553807631.750,46.387,39.551,38.086,44.922,-15.625,0
1553807631.754,85.449,44.434,34.180,39.551,16.113,0
1553807631.758,64.453,45.410,29.297,23.438,-1.465,0
1553807631.762,22.461,39.062,33.203,44.922,43.945,0
1553807631.766,64.453,37.109,42.969,39.062,33.691,0
1553807631.770,62.500,34.668,41.504,22.461,28.320,0
1553807631.774,46.387,32.715,40.527,28.809,64.453,0
1553807631.778,62.500,35.156,36.621,26.855,52.734,0
1553807631.782,50.781,35.645,32.227,32.715,29.785,0
1553807631.786,58.594,38.574,25.879,22.461,30.273,0
1553807631.789,67.871,38.574,28.320,20.996,12.207,0
1553807631.793,47.363,31.250,42.480,41.504,51.758,0
1553807631.797,65.918,37.109,28.320,28.320,37.109,0
1553807631.801,79.590,35.645,30.762,36.133,71.289,0
1553807631.805,54.199,22.949,56.152,62.012,63.965,0
1553807631.809,40.527,15.137,61.523,59.570,22.949,0
1553807631.813,44.922,16.113,58.105,24.414,67.383,0
1553807631.817,12.207,16.602,56.152,1.953,10.742,0
1553807631.821,-0.488,-0.977,71.777,9.766,21.484,0
1553807631.825,5.371,-4.395,66.895,12.695,36.133,0
1553807631.828,-2.930,-5.371,64.453,31.250,55.664,0
1553807631.832,40.039,-10.742,78.613,21.484,48.340,0
1553807631.836,32.227,1.465,67.383,1.465,-32.227,0
1553807631.840,-12.695,0.488,64.453,-2.930,49.316,0
1553807631.844,-14.648,-5.371,70.801,16.113,38.574,0
1553807631.848,9.277,0.000,66.895,28.809,-38.574,0
1553807631.852,39.062,7.324,54.199,28.320,8.301,0
1553807631.856,42.480,14.160,48.340,19.043,43.945,0
1553807631.860,14.160,9.766,53.711,34.668,9.277,0
1553807631.864,18.066,6.836,47.852,35.156,2.930,0
1553807631.868,14.648,8.301,45.898,-3.418,40.039,0
1553807631.871,-10.254,10.254,50.293,15.137,32.227,0
1553807631.875,36.133,13.672,44.922,38.574,62.500,0
1553807631.879,27.832,14.160,45.410,19.531,61.035,0
1553807631.883,13.184,15.625,51.758,29.297,43.945,0
1553807631.887,27.832,11.230,53.711,62.500,53.711,0
1553807631.891,40.527,12.207,51.270,51.270,5.859,0
1553807631.895,73.242,20.020,48.340,46.875,7.324,0
1553807631.899,32.715,20.020,55.176,48.340,27.344,0
1553807631.903,8.301,21.484,56.641,36.621,50.293,0
1553807631.907,15.625,21.484,50.293,18.066,82.031,0
1553807631.911,31.250,20.020,51.758,41.016,74.707,0
1553807631.914,49.805,24.902,46.387,72.266,44.434,0
1553807631.918,57.617,26.367,42.969,53.711,24.414,0
1553807631.922,62.012,24.902,45.898,59.570,16.113,0
1553807631.926,56.152,30.273,41.992,75.195,-16.113,0
1553807631.930,61.035,31.250,41.992,47.852,-26.855,0
1553807631.934,57.129,30.762,44.922,52.734,7.324,0
1553807631.938,47.363,29.297,47.852,55.664,31.250,0
1553807631.942,49.316,25.391,48.828,46.387,13.184,0
1553807631.946,29.297,28.320,43.457,44.922,-4.883,0
1553807631.950,25.879,28.320,37.109,48.340,13.672,0
1553807631.953,77.637,29.785,37.598,65.430,7.324,0
1553807631.957,66.895,31.738,40.039,46.875,-40.527,0
1553807631.961,20.020,31.250,41.992,46.875,10.742,0
1553807631.965,35.645,30.762,34.180,50.781,39.062,0
1553807631.969,50.293,33.203,31.250,56.152,23.438,0
1553807631.973,43.457,29.785,48.828,82.031,5.859,0
1553807631.977,27.344,30.762,51.270,45.898,6.836,0
1553807631.981,21.484,32.227,39.062,15.625,28.320,0
1553807631.985,40.039,36.133,39.551,63.965,28.809,0
1553807631.989,48.828,36.621,33.203,59.570,6.836,0
1553807631.993,18.066,30.273,26.855,33.203,48.828,0
1553807631.996,12.207,27.832,39.551,51.758,94.727,0
1553807632.000,18.066,27.344,47.852,44.434,32.227,0
1553807632.004,27.832,25.879,54.199,54.199,-9.277,0
1553807632.008,41.992,29.297,52.246,74.707,40.527,0
1553807632.012,61.035,34.180,43.945,59.570,55.664,0
1553807632.016,56.152,32.227,36.133,37.109,21.484,0
1553807632.020,30.762,31.738,27.344,20.996,-0.977,0
1553807632.024,31.250,34.180,27.832,29.785,-3.906,0
1553807632.028,55.176,38.574,22.949,20.020,-15.625,0
1553807632.032,57.617,36.133,25.879,29.785,-26.367,0
1553807632.036,22.461,31.738,43.945,62.988,-21.484,0
1553807632.039,15.625,31.738,46.387,55.176,15.137,0
1553807632.043,48.828,38.086,37.109,53.223,26.855,0
1553807632.047,51.270,47.363,31.738,62.988,1.953,0
1553807632.051,52.734,56.152,38.086,53.223,-5.859,0
1553807632.055,24.414,64.941,40.039,43.945,3.906,0
1553807632.059,-21.484,55.176,41.504,6.836,31.250,0
1553807632.063,5.859,33.691,46.387,-24.414,47.852,0
1553807632.067,7.812,45.898,40.527,7.324,23.926,0
1553807632.071,-17.090,51.758,46.387,3.906,33.691,0
1553807632.075,-13.672,43.945,56.641,-17.578,25.879,0
1553807632.078,-7.324,58.594,69.824,-11.230,11.230,0
1553807632.082,-41.992,62.500,90.820,-12.207,50.293,0
1553807632.086,-98.633,73.242,83.984,-80.566,18.555,0
1553807632.090,-94.727,65.918,83.984,-121.582,31.738,0
1553807632.094,-100.098,62.988,107.910,-110.352,88.867,0
1553807632.098,-177.734,74.707,115.723,-167.969,69.336,0
1553807632.102,-260.254,53.711,137.207,-251.953,84.961,0
1553807632.106,-318.848,49.316,97.656,-269.531,97.656,0
1553807632.110,-311.523,78.125,55.664,-266.113,101.562,0
1553807632.114,-275.391,82.520,107.422,-287.109,75.684,0
1553807632.118,-260.254,70.312,107.422,-311.523,7.812,0
1553807632.121,-327.148,75.684,86.914,-339.355,16.113,0
1553807632.125,-396.973,59.082,133.301,-372.559,64.941,0
1553807632.129,-406.250,52.734,172.852,-406.250,65.918,0
1553807632.133,-383.789,57.129,173.340,-387.207,9.277,0
1553807632.137,-366.699,39.551,147.949,-380.371,31.250,0
1553807632.141,-382.812,55.176,114.746,-376.465,44.922,0
1553807632.145,-392.578,62.500,116.211,-359.863,-11.719,0
1553807632.149,-394.531,57.129,120.605,-368.652,36.621,0
1553807632.153,-358.398,62.012,117.676,-395.020,119.141,0
1553807632.157,-361.328,54.688,120.117,-388.184,101.562,0
1553807632.161,-388.184,60.059,118.164,-359.375,28.809,0
1553807632.164,-352.051,60.547,90.820,-347.656,36.133,0
1553807632.168,-309.570,45.898,106.445,-326.172,29.785,0
1553807632.172,-269.531,50.781,77.637,-327.148,44.922,0
1553807632.176,-271.484,52.246,72.266,-308.594,73.242,0
1553807632.180,-308.594,40.039,146.484,-291.504,0.000,0
1553807632.184,-296.387,39.551,143.555,-298.828,21.484,0
1553807632.188,-289.062,38.574,123.047,-287.109,86.914,0
1553807632.192,-276.367,20.508,135.254,-288.574,65.918,0
1553807632.196,-231.445,25.391,148.926,-272.949,37.598,0
1553807632.200,-239.746,24.414,144.531,-259.277,77.148,0
1553807632.203,-238.770,22.461,135.742,-250.488,75.195,0
1553807632.207,-212.891,32.715,118.652,-241.699,3.418,0
1553807632.211,-214.355,23.438,109.863,-209.473,9.766,0
1553807632.215,-191.895,17.578,119.141,-176.758,58.105,0
1553807632.219,-190.430,23.438,115.234,-187.012,22.461,0
1553807632.223,-178.711,27.344,110.840,-200.684,-52.734,0
1553807632.227,-129.883,27.344,109.863,-166.016,6.348,0
1553807632.231,-153.320,25.879,98.145,-152.344,50.293,0
1553807632.235,-167.969,24.902,96.191,-150.391,-37.109,0
1553807632.239,-145.996,25.391,108.887,-152.344,-9.277,0
1553807632.243,-156.738,25.879,110.840,-165.527,32.227,0
1553807632.246,-121.582,25.391,102.051,-133.301,55.664,0
1553807632.250,-52.246,26.367,97.656,-104.492,13.184,0
1553807632.254,-86.914,23.438,93.262,-117.676,8.789,0
1553807632.258,-145.996,22.461,107.422,-97.656,38.086,0
1553807632.262,-140.137,24.902,104.980,-104.980,-20.996,0
1553807632.266,-104.492,23.926,89.355,-135.742,-28.809,0
1553807632.270,-75.195,23.926,99.121,-91.797,15.137,0
1553807632.274,-87.402,33.203,85.938,-73.730,9.766,0
1553807632.278,-78.125,33.203,59.570,-86.426,36.133,0
1553807632.282,-52.246,24.414,80.566,-81.543,0.488,0
1553807632.286,-52.246,35.645,99.609,-73.242,-24.414,0
1553807632.289,-34.668,56.152,76.660,-72.266,11.230,0
1553807632.293,-61.035,42.969,70.801,-82.520,-3.418,0
1553807632.297,-60.547,28.809,86.426,-75.195,21.973,0
1553807632.301,-55.664,31.250,61.523,-44.922,0.000,0
1553807632.305,-49.316,30.273,67.383,-69.336,-13.184,0
1553807632.309,-2.930,32.715,66.895,-63.965,51.758,0
1553807632.313,-45.410,32.227,78.613,-34.180,34.668,0
1553807632.317,-20.020,28.320,104.980,-60.059,10.254,0
1553807632.321,9.277,21.973,95.215,-39.062,28.320,0
1553807632.325,-39.062,31.738,86.426,-28.809,64.941,0
1553807632.328,-40.039,44.434,75.684,-53.711,18.066,0
1553807632.332,-16.602,34.180,64.453,-37.109,-6.836,0
1553807632.336,-36.133,28.320,82.520,-41.016,77.637,0
1553807632.340,-21.973,25.879,68.848,-34.180,105.957,0
1553807632.344,40.039,39.062,50.293,-38.086,107.910,0
1553807632.348,8.301,58.105,57.129,-23.926,62.500,0
1553807632.352,-31.250,54.199,55.664,-20.508,57.617,0
1553807632.356,-15.137,45.898,54.688,-36.621,78.125,0
1553807632.360,-34.180,41.504,54.199,-36.133,83.496,0
1553807632.364,26.855,47.363,53.223,-23.926,38.086,0
1553807632.368,83.496,51.758,64.941,9.766,20.996,0
1553807632.371,2.441,44.922,49.805,-3.906,40.039,0
1553807632.375,-39.551,43.945,28.320,-27.832,-2.930,0
1553807632.379,-27.832,52.734,44.922,-20.996,-10.742,0
1553807632.383,18.555,54.199,39.062,-22.461,60.059,0
1553807632.387,29.297,43.457,34.180,-30.273,131.348,0
1553807632.391,12.207,63.477,48.828,15.625,71.289,0
1553807632.395,26.855,67.871,44.922,19.043,56.641,0
1553807632.399,27.832,57.129,41.504,-33.203,63.477,0
1553807632.403,18.555,51.270,61.523,-7.812,29.297,0
1553807632.407,9.766,56.152,55.176,-4.883,-20.508,0
1553807632.411,24.902,69.824,48.828,-10.742,-40.527,0
1553807632.414,51.270,59.082,44.434,-21.484,53.711,0
1553807632.418,10.742,50.781,29.785,-18.555,46.875,0
1553807632.422,31.738,52.734,46.875,5.859,1.953,0
1553807632.426,68.848,56.641,46.387,2.441,29.297,0
1553807632.430,33.691,66.406,38.086,6.348,3.906,0
1553807632.434,60.547,78.613,5.859,-9.277,33.691,0
1553807632.438,50.293,72.754,-3.906,-16.602,64.941,0
1553807632.442,9.766,58.594,41.504,12.207,34.180,0
1553807632.446,55.176,66.895,50.293,19.531,29.785,0
1553807632.450,33.203,72.754,32.227,-20.020,18.066,0
1553807632.453,-5.859,64.453,34.180,-35.645,23.926,0
1553807632.457,67.383,59.570,43.945,4.883,28.809,0
1553807632.461,65.918,71.289,41.992,16.602,17.090,0
1553807632.465,28.320,77.637,22.949,0.977,-5.371,0
1553807632.469,52.246,83.008,20.020,17.578,-3.906,0
1553807632.473,29.785,75.195,31.250,27.832,36.621,0
1553807632.477,62.500,61.035,22.949,-9.277,38.086,0
1553807632.481,45.898,75.195,20.508,-20.996,18.066,0
1553807632.485,3.906,86.426,11.719,2.930,62.012,0
1553807632.489,37.598,80.566,-22.461,1.953,62.012,0
1553807632.493,47.852,78.613,-7.812,10.742,35.156,0
1553807632.496,37.109,79.590,32.227,10.742,41.016,0
1553807632.500,56.152,83.496,17.090,-1.465,19.531,0
1553807632.504,66.406,81.055,1.465,-12.695,14.648,0
1553807632.508,39.551,75.195,14.160,-31.250,24.902,0
1553807632.512,10.254,83.496,8.789,-31.250,18.555,0
1553807632.516,29.297,95.703,-40.527,-20.996,53.223,0
1553807632.520,62.988,95.215,-54.199,-8.789,60.059,0
1553807632.524,54.199,96.191,-0.977,-14.160,16.113,0
1553807632.528,53.711,106.445,13.184,-31.250,42.480,0
1553807632.532,15.137,104.492,-14.160,-46.875,100.586,0
1553807632.536,28.809,105.957,-12.695,-15.137,94.727,0
1553807632.539,74.219,109.863,-5.859,23.926,17.578,0
1553807632.543,92.773,108.398,-20.996,28.320,-6.348,0
1553807632.547,126.465,100.098,-33.691,32.715,-10.254,0
1553807632.551,125.000,103.027,-57.129,45.898,32.715,0
1553807632.555,123.047,108.398,-85.938,78.613,40.039,0
1553807632.559,158.203,95.703,-49.316,128.906,34.668,0
1553807632.563,189.941,91.309,-37.598,146.973,43.945,0
1553807632.567,220.703,87.891,-76.660,151.367,4.395,0
1553807632.571,256.348,77.637,-76.172,188.965,47.852,0
1553807632.575,272.949,65.918,-71.289,256.836,52.246,0
1553807632.578,321.289,60.059,-87.891,279.785,-0.488,0
1553807632.582,366.699,52.734,-94.727,281.738,22.461,0
1553807632.586,385.742,41.992,-88.379,340.332,14.648,0
1553807632.590,417.969,35.645,-87.402,354.492,25.391,0
1553807632.594,430.664,13.672,-93.750,372.559,55.664,0
1553807632.598,470.215,1.953,-104.004,430.664,16.602,0
1553807632.602,521.973,-15.625,-89.355,446.777,24.902,0
1553807632.606,529.785,-34.180,-91.309,487.305,27.832,0
1553807632.610,551.270,-33.691,-107.422,490.723,28.809,0
1553807632.614,526.855,-47.852,-80.078,445.801,38.086,0
1553807632.618,502.930,-53.223,-60.059,470.215,37.109,0
1553807632.621,556.641,-50.293,-61.035,473.145,51.270,0
1553807632.625,534.180,-59.082,-53.223,475.098,45.898,0
1553807632.629,517.090,-57.617,-51.270,472.168,83.008,0
1553807632.633,476.562,-55.664,-46.387,456.055,108.887,0
1553807632.637,468.262,-53.711,-44.922,432.617,57.617,0
1553807632.641,483.398,-43.945,-50.293,417.969,26.367,0
1553807632.645,406.738,-41.016,-41.016,390.137,-7.324,0
1553807632.649,365.234,-38.086,-31.738,379.395,3.906,0
1553807632.653,389.648,-31.250,-35.156,397.949,54.688,0
1553807632.657,404.785,-31.250,-33.691,374.023,51.758,0
1553807632.661,402.832,-27.832,-24.902,368.652,83.496,0
1553807632.664,377.441,-23.438,-32.227,362.305,16.602,0
1553807632.668,376.465,-20.020,-29.297,336.914,28.320,0
1553807632.672,368.164,-16.113,-19.043,329.590,95.215,0
1553807632.676,320.312,-13.184,-15.137,329.102,46.875,0
1553807632.680,310.059,-10.254,-15.625,313.965,27.344,0
1553807632.684,307.129,-4.883,-16.113,301.270,51.758,0
1553807632.688,354.004,6.348,-13.672,292.969,72.266,0
1553807632.692,325.195,12.207,-10.742,275.391,25.879,0
1553807632.696,226.562,16.602,-6.348,275.391,0.000,0
1553807632.700,258.789,9.277,-18.555,270.508,-10.254,0
1553807632.703,286.133,17.578,-17.090,257.324,28.809,0
1553807632.707,263.184,23.926,-3.906,241.211,85.449,0
1553807632.711,245.605,15.625,-7.812,243.164,43.945,0
1553807632.715,236.328,29.297,9.277,242.188,31.250,0
1553807632.719,230.469,23.438,19.531,211.914,20.508,0
1553807632.723,234.375,25.879,36.133,211.426,-11.719,0
1553807632.727,180.176,23.926,35.156,196.777,-19.043,0
1553807632.731,167.969,10.254,21.484,160.156,42.480,0
1553807632.735,164.551,24.902,35.645,147.461,77.148,0
1553807632.739,109.375,43.457,52.734,129.395,3.906,0
1553807632.743,94.727,40.039,61.035,119.629,-8.301,0
1553807632.746,50.293,33.203,70.312,57.617,48.340,0
1553807632.750,-12.695,45.898,85.449,-42.480,54.199,0
1553807632.754,-58.594,82.520,95.703,-108.398,18.555,0
1553807632.758,-124.512,93.750,84.961,-176.270,2.930,0
1553807632.762,-201.660,95.703,71.289,-239.258,-5.859,0
1553807632.766,-228.516,110.352,72.266,-253.906,-21.484,0
1553807632.770,-224.609,117.676,71.289,-214.355,28.809,0
1553807632.774,-220.215,116.211,71.777,-206.543,56.152,0
1553807632.778,-191.895,120.117,68.359,-196.289,20.508,0
1553807632.782,-180.664,128.418,35.645,-209.961,3.906,0
1553807632.786,-167.480,120.117,32.715,-207.520,-25.391,0
1553807632.789,-137.695,110.352,62.500,-145.020,5.859,0
1553807632.793,-115.723,108.398,65.430,-145.996,43.457,0
1553807632.797,-70.801,102.051,56.641,-120.605,13.184,0
1553807632.801,-15.137,84.473,46.387,-40.039,41.992,0
1553807632.805,14.648,59.570,38.574,0.488,-8.789,0
1553807632.809,23.438,28.320,38.086,10.742,-26.855,0
1553807632.813,64.941,0.000,33.203,54.688,-8.301,0
1553807632.817,112.793,-16.113,20.508,83.496,20.508,0
1553807632.821,139.160,-36.133,22.949,135.254,47.852,0
1553807632.825,181.152,-48.828,20.508,182.129,28.809,0
1553807632.828,236.328,-50.293,14.160,207.031,58.105,0
1553807632.832,215.820,-61.035,10.742,203.125,4.883,0
1553807632.836,180.176,-71.777,4.395,158.203,-39.551,0
1553807632.840,214.355,-65.430,2.930,187.012,-16.113,0
1553807632.844,228.516,-57.129,4.883,197.754,-14.648,0
1553807632.848,219.727,-56.152,5.859,206.055,11.230,0
1553807632.852,212.402,-53.223,2.441,227.051,43.457,0
1553807632.856,242.188,-49.316,10.254,236.816,6.836,0
1553807632.860,229.492,-50.781,12.207,191.406,10.254,0
1553807632.864,190.430,-51.758,11.719,143.066,68.359,0
1553807632.868,206.543,-51.758,14.648,181.152,35.156,0
1553807632.871,196.777,-53.223,13.672,194.824,11.719,0
1553807632.875,183.105,-44.922,15.137,169.434,13.184,0
1553807632.879,189.941,-37.598,14.160,159.180,14.648,0
1553807632.883,182.617,-32.227,9.766,158.203,22.461,0
1553807632.887,165.527,-28.809,10.742,160.645,-18.555,0
1553807632.891,145.508,-30.273,15.625,150.879,-28.320,0
1553807632.895,160.156,-25.391,15.137,132.812,57.129,0
1553807632.899,181.641,-17.578,18.555,145.996,15.625,0
1553807632.903,154.297,-12.695,18.555,128.906,-29.297,0
1553807632.907,120.605,-10.254,16.602,135.254,10.254,0
1553807632.911,129.883,-10.742,19.531,157.715,-3.906,0
1553807632.914,139.648,-15.137,15.625,125.488,34.180,0
1553807632.918,139.160,-13.184,16.602,113.281,12.695,0
1553807632.922,154.297,-10.254,19.043,116.699,-12.695,0
1553807632.926,139.648,-12.207,19.531,124.512,-15.137,0
1553807632.930,128.418,-8.789,18.555,116.699,66.406,0
1553807632.934,115.723,-3.418,15.625,105.957,91.309,0
1553807632.938,88.867,-3.906,21.484,112.305,-16.602,0
1553807632.942,118.164,0.488,26.367,112.793,32.227,0
1553807632.946,136.230,5.371,19.531,93.262,108.398,0
1553807632.950,130.859,4.395,19.531,103.516,49.805,0
1553807632.953,121.582,5.859,28.809,91.309,39.551,0
1553807632.957,112.305,7.324,29.785,89.844,91.309,0
1553807632.961,117.188,7.324,25.879,109.863,44.922,0
1553807632.965,107.422,7.324,27.832,86.426,-4.883,0
1553807632.969,111.328,9.277,31.738,72.266,-7.812,0
1553807632.973,113.281,10.742,23.926,77.637,27.832,0
1553807632.977,90.332,6.836,21.484,87.402,21.484,0
1553807632.981,113.281,10.742,24.414,64.941,-18.066,0
1553807632.985,106.445,19.043,26.855,69.336,7.324,0
1553807632.989,77.148,17.578,29.785,89.355,16.602,0
1553807632.993,100.586,17.578,32.227,52.734,26.855,0
1553807632.996,118.164,20.996,27.344,30.273,51.758,0
1553807633.000,105.469,17.090,27.344,55.176,46.875,0
1553807633.004,89.355,18.066,27.832,42.969,-1.953,0
1553807633.008,93.750,21.484,29.785,36.621,30.273,0
1553807633.012,68.848,23.438,34.180,62.012,79.102,0
1553807633.016,70.801,23.438,36.133,47.363,26.855,0
1553807633.020,89.355,22.949,36.621,37.598,37.598,0
1553807633.024,88.867,23.926,34.668,50.293,18.555,0
1553807633.028,86.426,26.855,31.738,73.730,47.363,0
1553807633.032,90.332,28.809,26.367,82.031,81.543,0
1553807633.036,69.336,28.320,23.926,49.805,54.688,0
1553807633.039,43.945,28.809,26.855,14.160,8.301,0
1553807633.043,77.148,31.738,31.250,36.133,-25.879,0
1553807633.047,83.008,35.156,31.250,54.199,19.531,0
1553807633.051,76.660,32.715,32.715,62.988,48.828,0
1553807633.055,75.684,29.297,34.668,66.895,-8.301,0
1553807633.059,89.355,31.250,39.062,50.781,-25.879,0
1553807633.063,91.797,31.250,37.598,73.242,13.672,0
1553807633.067,83.496,33.203,28.320,66.895,41.504,0
1553807633.071,74.707,32.715,33.691,34.668,4.395,0
1553807633.075,49.805,33.203,31.738,31.250,51.758,0
1553807633.078,52.246,36.133,24.902,31.738,73.242,0
1553807633.082,79.102,39.062,27.344,31.250,40.039,0
1553807633.086,68.848,34.668,30.273,44.434,53.711,0
1553807633.090,66.895,31.250,26.367,61.035,2.441,0
1553807633.094,87.402,37.109,29.297,57.617,6.348,0
1553807633.098,64.941,36.133,33.691,53.223,106.934,0
1553807633.102,50.781,35.156,29.785,57.129,88.867,0
1553807633.106,56.641,38.574,32.715,75.195,67.383,0
1553807633.110,74.219,37.109,37.598,68.848,58.105,0
1553807633.114,76.660,31.250,37.598,38.086,43.457,0
1553807633.118,57.617,35.645,29.297,41.504,31.250,0
1553807633.121,40.039,44.922,22.949,53.223,16.602,0
1553807633.125,51.270,42.969,22.461,67.871,51.758,0
1553807633.129,65.918,38.086,34.180,55.176,26.855,0
1553807633.133,73.242,44.922,39.551,34.668,4.395,0
1553807633.137,74.707,46.387,33.691,49.805,65.430,0
1553807633.141,52.734,44.434,33.203,68.848,58.105,0
1553807633.145,48.828,46.387,32.227,67.383,64.453,0
1553807633.149,65.918,47.363,27.832,29.785,106.934,0
1553807633.153,73.242,40.527,30.762,30.762,82.031,0
1553807633.157,61.035,31.738,35.645,60.059,41.992,0
1553807633.161,41.016,34.180,18.555,54.688,1.465,0
1553807633.164,26.855,36.133,18.066,9.277,76.660,0
1553807633.168,40.039,34.180,39.062,-4.883,97.168,0
1553807633.172,61.035,33.691,42.969,24.902,34.180,0
1553807633.176,90.332,31.250,45.410,70.801,55.176,0
1553807633.180,108.398,45.410,36.133,54.199,10.254,0
1553807633.184,54.199,49.316,27.832,-9.277,33.691,0
1553807633.188,59.082,44.922,32.227,5.859,62.012,0
1553807633.192,79.102,51.270,33.203,41.504,9.766,0
1553807633.196,55.664,47.363,32.227,45.898,12.695,0
1553807633.200,68.848,43.457,34.668,31.738,20.996,0
1553807633.203,48.828,43.457,36.621,21.973,29.297,0
1553807633.207,34.180,44.434,32.715,23.438,40.039,0
1553807633.211,49.316,44.434,29.785,26.855,50.781,0
1553807633.215,30.273,41.016,37.109,30.273,42.969,0
1553807633.219,42.480,40.039,38.086,44.922,41.016,0
1553807633.223,66.895,42.480,28.809,60.059,23.926,0
1553807633.227,44.434,47.363,23.926,39.551,31.250,0
1553807633.231,39.062,49.805,28.809,27.344,53.223,0
1553807633.235,57.617,37.598,39.551,34.668,44.922,0
1553807633.239,42.969,38.086,40.527,44.922,20.020,0
1553807633.243,46.387,49.805,31.738,66.895,7.324,0
1553807633.246,66.895,49.316,30.273,56.641,77.637,0
1553807633.250,58.594,46.387,40.527,34.180,57.617,0
1553807633.254,67.871,48.828,41.992,59.570,15.137,0
1553807633.258,87.402,44.434,42.480,58.105,28.809,0
1553807633.262,60.547,43.945,38.574,53.223,18.066,0
1553807633.266,36.621,48.340,26.855,52.734,35.156,0
1553807633.270,36.133,38.574,28.320,35.645,42.969,0
1553807633.274,57.129,37.598,38.086,28.809,56.641,0
1553807633.278,62.500,50.293,40.527,42.480,46.875,0
1553807633.282,39.551,46.387,35.645,31.738,29.297,0
1553807633.286,38.086,46.387,33.691,4.883,46.875,0
1553807633.289,61.523,49.316,39.551,25.391,41.016,0
1553807633.293,55.176,48.340,35.645,46.387,33.203,0
1553807633.297,41.992,45.410,24.902,41.992,67.383,0
1553807633.301,53.223,48.340,33.691,26.367,33.203,0
1553807633.305,52.246,55.664,39.551,27.344,18.066,0
1553807633.309,42.969,45.898,26.367,41.504,18.555,0
1553807633.313,48.828,42.969,24.902,49.316,18.066,0
1553807633.317,67.871,53.711,41.992,49.316,-39.062,0
1553807633.321,77.148,48.828,39.062,48.828,-48.340,0
1553807633.325,67.871,42.969,29.785,44.922,47.852,0
1553807633.328,58.594,45.410,33.203,52.734,57.617,0
1553807633.332,78.613,52.734,39.551,69.336,35.156,0
1553807633.336,51.758,50.293,40.039,25.391,2.930,0
1553807633.340,37.109,44.922,36.133,5.859,5.371,0
1553807633.344,56.152,47.363,34.668,19.043,32.227,0
1553807633.348,24.902,44.434,34.668,-7.324,43.457,0
1553807633.352,23.926,45.898,35.156,-3.906,32.227,0
1553807633.356,37.109,47.852,33.203,20.508,51.758,0
1553807633.360,29.297,42.969,35.645,12.207,67.871,0
1553807633.364,45.410,41.992,37.598,13.672,55.176,0
1553807633.368,54.688,42.480,34.180,16.602,62.988,0
1553807633.371,45.410,44.922,25.879,3.906,5.859,0
1553807633.375,52.734,43.945,34.180,16.602,-20.020,0
1553807633.379,39.551,39.551,41.992,12.207,47.363,0
1553807633.383,26.855,41.992,34.180,16.113,80.566,0
1553807633.387,46.387,42.969,25.879,24.902,27.832,0
1553807633.391,75.684,44.922,14.648,25.879,27.344,0
1553807633.395,64.453,39.551,6.836,25.879,46.875,0
1553807633.399,38.086,38.574,28.320,14.648,42.480,0
1553807633.403,33.203,43.945,51.758,10.254,57.129,0
1553807633.407,44.434,47.852,51.270,8.301,47.363,0
1553807633.411,45.898,50.293,40.527,12.207,26.367,0
1553807633.414,48.828,45.898,35.645,23.926,-2.930,0
1553807633.418,69.336,50.781,39.551,32.715,59.570,0
1553807633.422,66.895,47.852,43.457,23.438,28.809,0
1553807633.426,37.598,37.598,36.133,12.207,-57.617,0
1553807633.430,57.129,40.039,30.273,23.926,49.316,0
1553807633.434,69.824,48.340,29.297,21.484,103.516,0
1553807633.438,40.039,47.363,35.156,35.156,33.691,0
1553807633.442,30.273,43.945,37.109,27.344,50.781,0
1553807633.446,31.738,45.898,29.297,11.230,54.688,0
1553807633.450,34.180,44.922,25.391,15.137,44.434,0
1553807633.453,50.293,42.969,28.320,41.016,5.371,0
1553807633.457,48.340,42.969,37.109,48.340,12.695,0
1553807633.461,29.785,42.969,35.156,8.789,65.918,0
1553807633.465,43.945,45.898,34.668,14.648,-1.465,0
1553807633.469,31.738,45.410,32.715,25.879,-7.324,0
1553807633.473,31.738,42.480,35.156,21.973,63.965,0
1553807633.477,51.758,45.410,37.109,21.973,46.875,0
1553807633.481,34.180,48.828,34.180,2.441,-6.836,0
1553807633.485,37.598,48.340,36.621,10.742,59.082,0
1553807633.489,37.109,44.922,39.062,29.785,61.035,0
1553807633.493,41.504,42.480,34.180,0.000,1.953,0
1553807633.496,42.480,41.016,31.250,19.531,-0.977,0
1553807633.500,38.574,41.016,36.133,52.246,-39.062,0
1553807633.504,42.969,37.598,40.039,11.230,-28.320,0
1553807633.508,34.180,39.062,36.621,-17.578,45.898,0
1553807633.512,32.227,41.992,28.320,-1.465,34.668,0
1553807633.516,20.020,42.480,36.133,2.930,-5.371,0
1553807633.520,29.785,48.340,39.062,-3.418,1.465,0
1553807633.524,41.016,46.875,34.180,0.488,10.742,0
1553807633.528,32.715,42.480,40.039,1.953,35.645,0
1553807633.532,29.785,45.410,40.039,4.883,20.996,0
1553807633.536,27.344,44.434,35.156,4.883,16.602,0
1553807633.539,47.852,42.969,39.551,15.137,34.180,0
1553807633.543,50.781,44.434,37.598,11.719,6.348,0
1553807633.547,19.531,38.574,41.504,17.090,35.156,0
1553807633.551,7.812,39.551,42.480,20.508,62.500,0
1553807633.555,19.043,47.852,32.715,15.625,28.809,0
1553807633.559,33.691,48.340,32.715,15.625,20.508,0
1553807633.563,27.832,42.480,37.598,22.461,7.324,0
1553807633.567,22.949,36.621,35.156,25.879,24.902,0
1553807633.571,42.480,43.945,27.344,21.484,21.973,0
1553807633.575,64.453,46.387,34.668,40.039,14.648,0
1553807633.578,28.809,38.086,46.875,39.062,71.289,0
1553807633.582,-6.348,34.668,42.480,13.672,43.945,0
1553807633.586,12.695,32.227,45.410,27.832,43.457,0
1553807633.590,18.066,33.203,41.016,32.715,77.148,0
1553807633.594,35.156,37.109,39.062,37.109,38.086,0
1553807633.598,29.785,34.180,46.875,24.414,32.715,0
1553807633.602,18.555,31.738,45.898,20.996,82.520,0
1553807633.606,25.391,33.691,41.504,39.551,54.688,0
1553807633.610,6.836,34.180,38.574,39.062,12.695,0
1553807633.614,9.277,32.715,39.062,17.090,17.090,0
1553807633.618,25.879,32.715,38.086,23.926,41.016,0
1553807633.621,35.645,31.250,39.551,50.781,62.012,0
1553807633.625,48.828,32.715,44.434,34.668,63.477,0
1553807633.629,56.641,34.180,40.039,20.508,45.410,0
1553807633.633,32.715,38.086,34.668,36.133,0.000,0
1553807633.637,2.441,37.109,37.109,31.250,5.371,0
1553807633.641,14.648,28.809,39.062,22.949,63.477,0
1553807633.645,23.926,30.762,43.457,34.668,49.316,0
1553807633.649,25.391,35.156,43.457,23.926,-0.977,0
1553807633.653,16.113,34.668,42.480,12.207,0.000,0
1553807633.657,35.156,31.250,43.457,15.137,50.781,0
1553807633.661,40.039,34.180,38.574,24.902,38.086,0
1553807633.664,28.320,38.574,36.621,14.160,2.930,0
1553807633.668,40.039,38.574,39.551,13.672,32.715,0
1553807633.672,24.414,36.621,34.668,12.207,28.809,0
1553807633.676,15.137,37.598,31.250,-6.836,55.664,0
1553807633.680,30.273,43.945,29.297,13.672,74.219,0
1553807633.684,40.527,40.039,32.227,42.480,71.289,0
1553807633.688,35.645,42.969,35.156,46.387,66.406,0
1553807633.692,14.648,50.781,30.762,13.672,66.895,0
1553807633.696,21.484,41.016,40.527,19.043,48.340,0
1553807633.700,39.551,42.480,41.504,40.039,-12.695,0
1553807633.703,32.715,47.363,23.438,27.344,40.527,0
1553807633.707,18.066,41.016,26.367,29.297,98.633,0
1553807633.711,12.695,40.527,33.203,32.227,72.266,0
1553807633.715,12.695,39.062,40.527,23.438,10.254,0
1553807633.719,26.855,41.016,44.922,27.344,-30.273,0
1553807633.723,26.367,41.016,42.480,34.668,3.906,0
1553807633.727,19.531,34.668,49.805,37.598,-20.020,0
1553807633.731,19.531,40.039,45.410,27.832,5.859,0
1553807633.735,24.902,42.480,40.527,21.484,23.926,0
1553807633.739,20.996,41.992,37.109,30.273,37.598,0
1553807633.743,13.184,41.504,33.691,46.875,12.207,0
1553807633.746,17.578,38.086,34.668,44.434,-48.340,0
1553807633.750,26.367,40.039,31.250,17.090,-64.941,0
1553807633.754,49.805,44.922,25.879,16.113,7.324,0
1553807633.758,50.293,38.086,34.668,43.945,58.594,0
1553807633.762,20.020,27.344,47.363,40.039,12.207,0
1553807633.766,11.719,27.832,49.316,29.785,8.789,0
1553807633.770,30.762,34.668,42.480,32.715,77.637,0
1553807633.774,39.551,33.203,34.668,27.832,88.867,0
1553807633.778,30.273,29.785,38.086,23.926,24.414,0
1553807633.782,20.508,30.273,41.992,24.902,-6.836,0
1553807633.786,18.555,27.832,41.992,42.969,23.926,0
1553807633.789,44.434,33.691,36.621,18.555,46.875,0
1553807633.793,33.691,31.738,35.156,-1.953,10.742,0
1553807633.797,7.812,29.785,41.016,34.180,33.203,0
1553807633.801,12.207,39.062,36.133,49.805,80.566,0
1553807633.805,0.000,35.645,23.438,23.438,40.039,0
1553807633.809,0.488,29.297,24.902,7.324,2.930,0
1553807633.813,19.043,28.320,36.621,16.113,42.480,0
1553807633.817,7.324,27.344,41.504,20.996,71.289,0
1553807633.821,-5.859,30.762,38.574,26.367,84.473,0
1553807633.825,8.301,33.691,38.086,40.527,22.461,0
1553807633.828,11.719,37.598,44.434,35.645,-6.836,0
1553807633.832,11.719,39.551,41.504,12.695,74.707,0
1553807633.836,13.184,38.574,33.691,14.160,91.309,0
1553807633.840,19.043,34.668,38.574,22.949,78.613,0
1553807633.844,14.160,33.691,41.992,15.137,55.176,0
1553807633.848,8.301,33.691,37.109,13.184,20.996,0
1553807633.852,8.301,32.227,37.109,19.531,43.945,0
1553807633.856,14.160,36.621,39.551,20.508,72.754,0
1553807633.860,11.719,41.016,38.086,27.344,60.547,0
1553807633.864,9.277,39.062,41.016,31.738,68.359,0
1553807633.868,3.418,40.527,37.598,40.527,32.227,0
1553807633.871,-1.953,36.621,31.738,26.855,0.000,0
1553807633.875,12.207,30.762,36.133,14.648,-2.441,0
1553807633.879,16.113,34.180,38.086,12.207,18.066,0
1553807633.883,15.137,40.527,28.809,2.441,41.992,0
1553807633.887,9.766,43.457,24.902,23.438,-4.883,0
1553807633.891,-0.977,41.504,32.227,34.668,-26.855,0
1553807633.895,6.836,42.480,33.691,15.625,18.066,0
1553807633.899,-1.465,40.039,37.109,15.625,13.672,0
1553807633.903,15.137,33.203,44.922,28.809,-1.465,0
1553807633.907,56.152,39.551,43.457,46.387,8.789,0
1553807633.911,18.555,47.363,32.227,32.227,4.883,0
1553807633.914,-18.555,47.852,28.809,7.812,20.020,0
1553807633.918,1.953,52.246,26.855,8.301,42.969,0
1553807633.922,15.625,47.363,21.484,-1.953,25.879,0
1553807633.926,19.531,53.711,18.066,12.207,13.672,0
1553807633.930,27.344,53.711,20.508,18.066,12.695,0
1553807633.934,14.648,43.457,27.344,8.301,20.996,0
1553807633.938,-14.648,44.434,28.809,-2.930,28.320,0
1553807633.942,3.418,46.875,24.902,9.277,23.438,0
1553807633.946,24.414,52.734,24.414,14.160,32.715,0
1553807633.950,8.301,50.293,27.832,3.418,6.836,0
1553807633.953,12.207,47.363,20.508,14.648,28.320,0
1553807633.957,25.391,51.270,20.020,30.273,39.062,0
1553807633.961,18.555,51.270,28.320,23.438,-12.695,0
1553807633.965,11.719,43.945,19.531,-4.395,33.203,0
1553807633.969,1.465,38.574,23.926,-4.395,53.223,0
1553807633.973,2.930,44.434,31.250,2.441,17.090,0
1553807633.977,27.344,49.316,25.879,-4.883,35.645,0
1553807633.981,30.762,46.387,27.344,6.836,39.551,0
1553807633.985,18.066,45.410,24.414,-2.930,-11.230,0
1553807633.989,29.785,45.898,26.855,-11.230,-13.672,0
1553807633.993,28.809,47.363,29.297,-5.859,-17.090,0
1553807633.996,7.324,47.363,31.250,0.488,-37.109,0
1553807634.000,15.137,42.969,34.180,9.277,33.691,0
1553807634.004,29.297,44.922,32.227,-2.441,107.422,0
1553807634.008,23.438,49.316,32.715,16.113,90.332,0
1553807634.012,15.625,44.922,32.227,30.273,61.035,0
1553807634.016,20.020,41.016,28.320,11.230,58.105,0
1553807634.020,33.203,47.363,23.438,16.113,61.035,0
1553807634.024,19.531,48.828,22.461,16.602,30.273,0
1553807634.028,14.160,41.992,32.715,2.930,-8.301,0
1553807634.032,25.879,41.016,40.039,3.418,-4.395,0
1553807634.036,25.879,41.016,38.574,17.578,2.930,0
1553807634.039,18.555,40.039,38.574,36.621,30.762,0
1553807634.043,26.367,37.109,31.250,32.227,88.379,0
1553807634.047,27.832,34.180,29.297,5.371,76.660,0
1553807634.051,46.387,37.109,38.086,26.367,24.902,0
1553807634.055,23.438,36.133,36.133,46.387,19.043,0
1553807634.059,-20.996,35.645,30.762,10.742,23.438,0
1553807634.063,-0.977,33.203,36.133,-1.953,7.324,0
1553807634.067,1.953,31.250,42.969,17.090,-26.367,0
1553807634.071,-0.977,38.086,42.480,15.625,24.414,0
1553807634.075,17.090,40.527,39.062,26.367,20.020,0
1553807634.078,30.273,39.551,38.574,36.133,10.254,0
1553807634.082,8.301,42.480,40.527,34.180,48.828,0
1553807634.086,-12.207,43.945,38.086,40.039,65.918,0
1553807634.090,4.395,40.039,32.227,33.203,68.848,0
1553807634.094,26.367,38.086,32.227,28.320,55.176,0
1553807634.098,19.043,37.109,39.551,43.457,54.199,0
1553807634.102,-3.418,34.668,41.504,40.039,34.180,0
1553807634.106,-5.859,34.180,38.574,22.461,-6.348,0
1553807634.110,-2.441,36.133,41.016,27.832,-40.039,0
1553807634.114,-1.953,38.086,40.039,25.879,-22.949,0
1553807634.118,16.602,40.039,38.086,37.109,27.344,0
1553807634.121,22.949,43.945,37.109,31.738,50.781,0
1553807634.125,8.789,39.062,34.668,10.254,-34.668,0
1553807634.129,-9.766,35.645,38.574,23.926,-13.184,0
1553807634.133,-7.324,33.691,35.156,20.020,32.227,0
1553807634.137,-9.277,35.156,34.180,14.160,-21.973,0
1553807634.141,-21.484,38.086,43.457,15.625,-20.508,0
1553807634.145,2.930,40.039,42.969,30.762,9.277,0
1553807634.149,-7.324,38.574,37.109,28.809,47.852,0
1553807634.153,-22.461,36.133,35.156,23.926,54.688,0
1553807634.157,0.000,38.086,30.273,38.086,-7.324,0
1553807634.161,21.484,38.574,31.250,24.902,-41.504,0
1553807634.164,38.086,39.062,35.645,31.250,-25.391,0
1553807634.168,11.719,39.062,32.715,15.137,49.316,0
1553807634.172,-10.742,36.133,37.598,13.184,57.129,0
1553807634.176,-5.371,37.109,39.062,23.926,-11.719,0
1553807634.180,8.301,42.969,35.156,29.297,-42.969,0
1553807634.184,19.043,40.527,33.203,32.227,3.418,0
1553807634.188,8.789,39.551,32.715,22.949,62.012,0
1553807634.192,0.488,43.945,31.738,37.598,7.324,0
1553807634.196,11.230,43.457,28.809,26.367,8.301,0
1553807634.200,30.273,44.922,26.367,5.859,46.387,0
1553807634.203,4.395,39.551,31.250,36.133,-1.465,0
1553807634.207,-18.066,36.133,30.273,21.973,-9.277,0
1553807634.211,0.000,42.480,26.855,-11.230,41.992,0
1553807634.215,-8.789,35.645,37.598,1.465,85.938,0
1553807634.219,13.184,36.621,37.598,11.230,37.109,0
1553807634.223,32.715,43.457,32.227,15.625,-2.441,0
1553807634.227,-0.977,38.574,40.527,26.855,14.648,0
1553807634.231,0.000,40.039,44.434,24.902,6.836,0
1553807634.235,-7.324,43.457,36.621,4.395,28.809,0
1553807634.239,-2.930,41.016,35.645,19.531,46.387,0
1553807634.243,17.578,36.621,40.527,36.621,17.090,0
1553807634.246,-5.859,41.016,41.016,7.324,59.570,0
1553807634.250,-5.371,39.551,44.434,2.930,81.543,0
1553807634.254,-4.395,38.574,45.410,18.555,78.613,0
1553807634.258,-4.883,39.551,40.527,38.574,97.656,0
1553807634.262,15.625,41.992,35.645,30.762,45.410,0
1553807634.266,18.555,43.945,31.250,7.324,33.203,0
1553807634.270,6.348,39.062,37.598,33.203,78.125,0
1553807634.274,22.461,36.621,38.086,46.387,17.578,0
1553807634.278,30.273,39.551,31.250,19.043,0.977,0
1553807634.282,-12.695,41.992,32.715,-7.324,86.426,0
1553807634.286,-21.484,39.062,38.086,-7.324,49.316,0
1553807634.289,-7.324,42.969,39.551,19.531,20.508,0
1553807634.293,6.348,47.363,38.086,43.945,91.797,0
1553807634.297,13.184,43.945,38.574,39.062,76.172,0
1553807634.301,-1.465,44.434,27.344,19.531,11.719,0
1553807634.305,-26.855,39.551,24.414,10.742,49.805,0
1553807634.309,-6.348,36.133,35.156,11.719,81.543,0
1553807634.313,14.648,40.527,33.691,15.137,90.332,0
1553807634.317,-16.113,38.574,35.156,18.555,46.875,0
1553807634.321,-6.836,40.527,35.156,20.996,7.812,0
1553807634.325,17.090,43.945,28.809,15.625,57.129,0
1553807634.328,0.488,40.527,27.344,10.254,34.668,0
1553807634.332,-2.441,40.527,34.668,22.461,21.484,0
1553807634.336,17.090,41.504,38.574,48.828,54.688,0
1553807634.340,10.254,41.992,25.879,29.297,33.203,0
1553807634.344,7.324,40.527,21.484,13.672,76.172,0
1553807634.348,10.742,39.551,27.344,28.809,67.871,0
1553807634.352,8.301,39.062,29.297,14.160,42.480,0
1553807634.356,2.930,37.598,40.039,-0.488,62.988,0
1553807634.360,8.789,39.062,33.691,8.789,40.527,0
1553807634.364,17.578,38.086,22.949,14.160,37.598,0
1553807634.368,17.578,38.574,31.738,27.344,33.691,0
1553807634.371,-4.395,34.180,36.621,31.738,19.531,0
1553807634.375,3.906,31.250,31.738,25.879,36.621,0
1553807634.379,29.785,38.086,26.367,20.020,-10.254,0
1553807634.383,38.574,39.062,26.855,8.789,-52.734,0
1553807634.387,33.203,30.273,36.133,37.109,27.832,0
1553807634.391,18.555,29.297,37.598,41.992,73.730,0
1553807634.395,12.207,37.109,36.133,11.719,55.664,0
1553807634.399,0.977,36.621,37.598,19.531,10.254,0
1553807634.403,-4.883,34.180,36.133,25.879,-14.160,0
1553807634.407,2.441,34.668,35.156,21.973,12.695,0
1553807634.411,19.043,36.621,31.250,31.738,26.367,0
1553807634.414,8.789,38.086,22.949,25.879,29.297,0
1553807634.418,2.441,31.738,30.762,15.625,46.387,0
1553807634.422,10.254,27.344,43.457,27.832,42.480,0
1553807634.426,24.902,32.227,42.969,41.992,-4.883,0
1553807634.430,36.621,38.574,41.504,42.480,4.883,0
1553807634.434,17.578,38.574,38.086,37.598,46.875,0
1553807634.438,-2.441,34.668,40.039,24.902,63.477,0
1553807634.442,0.977,25.391,36.621,20.996,80.078,0
1553807634.446,13.184,27.832,27.344,16.602,55.664,0
1553807634.450,6.836,32.715,31.250,20.508,42.969,0
1553807634.453,-5.859,32.227,33.691,29.297,18.555,0
1553807634.457,5.371,34.668,34.668,29.297,-16.113,0
1553807634.461,26.855,35.645,38.086,60.547,12.207,0
1553807634.465,10.254,29.785,36.621,53.223,35.645,0
1553807634.469,-6.348,28.320,28.809,8.789,74.219,0
1553807634.473,22.949,34.180,22.461,30.273,34.668,0
1553807634.477,22.461,32.227,32.227,50.781,-29.297,0
1553807634.481,3.418,31.738,34.180,26.367,7.324,0
1553807634.485,18.066,30.762,20.020,1.953,-1.465,0
1553807634.489,19.531,30.273,22.461,10.254,-14.160,0
1553807634.493,7.324,32.227,34.668,22.461,55.664,0
1553807634.496,24.902,32.715,37.598,27.344,53.711,0
1553807634.500,19.043,34.180,35.645,47.852,7.812,0
1553807634.504,28.320,37.598,25.391,38.574,55.664,0
1553807634.508,35.645,40.527,32.227,30.273,35.645,0
1553807634.512,4.395,36.133,45.898,33.203,20.020,0
1553807634.516,-5.859,33.203,40.527,33.691,71.289,0
1553807634.520,13.672,32.715,34.668,30.762,50.293,0
1553807634.524,5.371,29.785,32.227,21.484,-37.598,0
1553807634.528,-1.465,32.715,32.715,13.184,-53.223,0
1553807634.532,11.230,35.156,34.180,16.113,-2.441,0
1553807634.536,16.113,38.574,28.809,29.297,25.391,0
1553807634.539,25.391,40.527,29.785,31.250,6.348,0
1553807634.543,20.020,37.109,33.203,27.344,8.789,0
1553807634.547,19.043,33.691,34.180,15.625,56.641,0
1553807634.551,20.996,35.645,34.180,8.789,63.965,0
1553807634.555,0.000,34.668,35.645,21.484,25.879,0
1553807634.559,10.254,32.227,33.691,27.832,38.086,0
1553807634.563,14.648,35.156,33.203,27.832,0.000,0
1553807634.567,-2.930,36.133,30.762,16.113,9.277,0
1553807634.571,3.418,35.645,28.320,1.953,53.223,0
1553807634.575,16.113,33.691,29.297,35.645,54.688,0
1553807634.578,12.695,32.715,31.738,41.504,45.898,0
1553807634.582,18.555,32.227,36.621,19.043,22.949,0
1553807634.586,20.020,34.668,35.156,20.996,16.113,0
1553807634.590,15.137,38.086,37.109,36.621,47.363,0
1553807634.594,28.809,39.062,37.109,31.738,24.414,0
1553807634.598,23.438,38.086,33.691,6.348,-1.953,0
1553807634.602,7.812,36.621,33.203,18.555,21.973,0
1553807634.606,2.930,32.715,36.621,35.156,52.734,0
1553807634.610,7.324,34.180,32.227,23.438,58.594,0
1553807634.614,17.090,40.039,27.832,14.648,55.176,0
1553807634.618,15.625,35.156,31.250,13.184,44.922,0
1553807634.621,31.738,34.180,27.344,20.508,41.016,0
1553807634.625,18.555,39.062,31.738,28.320,35.156,0
1553807634.629,0.000,39.551,36.621,12.207,7.812,0
1553807634.633,11.719,38.574,38.574,-0.977,-9.766,0
1553807634.637,2.441,35.156,40.039,7.324,-8.789,0
1553807634.641,-4.395,29.297,36.621,2.930,40.527,0
1553807634.645,13.184,31.250,32.227,12.695,19.043,0
1553807634.649,19.043,34.668,32.227,28.320,-53.223,0
1553807634.653,3.418,36.133,35.156,25.391,-17.578,0
1553807634.657,8.301,38.086,36.621,29.297,45.410,0
1553807634.661,26.855,38.574,34.180,14.160,59.570,0
1553807634.664,5.859,41.016,32.227,-4.883,8.301,0
1553807634.668,-20.996,41.016,33.691,-2.441,14.648,0
1553807634.672,-5.371,35.156,37.109,-0.488,38.574,0
1553807634.676,9.277,36.133,30.273,3.418,-12.207,0
1553807634.680,15.625,37.598,22.949,19.043,39.062,0
1553807634.684,29.785,36.133,34.180,40.527,60.059,0
1553807634.688,5.859,31.250,41.016,36.133,44.922,0
1553807634.692,-10.254,27.344,37.598,26.367,47.363,0
1553807634.696,6.836,29.785,35.156,24.902,23.926,0
1553807634.700,7.812,28.809,35.645,28.320,24.414,0
1553807634.703,-11.719,24.414,36.133,12.695,27.832,0
1553807634.707,-10.254,29.785,33.203,-6.836,-31.250,0
1553807634.711,7.812,34.180,35.645,7.812,22.461,0
1553807634.715,8.301,31.738,41.504,20.508,74.219,0
1553807634.719,9.277,30.762,34.180,24.414,46.875,0
1553807634.723,10.742,31.738,25.391,19.531,40.039,0
1553807634.727,20.996,28.320,32.715,31.250,38.086,0
1553807634.731,27.344,25.879,33.203,41.992,68.359,0
1553807634.735,1.953,26.367,29.785,11.230,76.660,0
1553807634.739,-14.648,25.391,30.762,3.906,24.902,0
1553807634.743,28.320,26.855,32.715,30.762,4.395,0
1553807634.746,41.504,30.762,46.387,52.734,41.504,0
1553807634.750,-3.906,33.691,39.551,47.363,66.895,0
1553807634.754,25.879,36.621,24.902,46.875,16.113,0
1553807634.758,38.574,34.668,29.297,44.434,35.156,0
1553807634.762,6.348,25.879,33.691,36.133,69.824,0
1553807634.766,30.273,28.320,40.527,33.691,52.246,0
1553807634.770,37.109,33.691,41.016,21.973,88.867,0
1553807634.774,27.344,32.227,40.527,42.969,73.730,0
1553807634.778,45.898,31.250,32.715,50.781,34.668,0
1553807634.782,10.254,27.832,22.461,24.902,6.348,0
1553807634.786,-3.906,37.109,28.320,15.625,-24.902,0
1553807634.789,-2.930,40.527,38.086,13.672,25.879,0
1553807634.793,4.883,36.621,27.832,24.414,57.617,0
1553807634.797,15.137,34.668,31.250,40.039,0.977,0
1553807634.801,17.578,34.668,51.758,35.645,-47.852,0
1553807634.805,21.484,37.109,49.316,30.762,-9.766,0
1553807634.809,45.410,38.086,44.434,24.902,14.160,0
1553807634.813,49.316,44.434,41.992,41.504,-21.484,0
1553807634.817,-3.418,47.363,36.621,72.266,-49.805,0
1553807634.821,3.418,42.480,38.574,50.781,-7.324,0
1553807634.825,52.734,39.551,35.156,27.832,56.641,0
1553807634.828,47.363,38.086,25.391,32.227,99.121,0
1553807634.832,9.766,37.598,35.156,28.809,45.410,0
1553807634.836,-1.953,37.109,34.180,32.227,3.418,0
1553807634.840,23.438,35.156,27.832,29.297,34.180,0
1553807634.844,48.828,42.480,35.645,22.949,7.324,0
1553807634.848,44.434,41.992,34.180,33.691,36.133,0
1553807634.852,8.789,33.691,33.691,35.156,55.664,0
1553807634.856,0.488,34.180,41.016,37.109,17.578,0
1553807634.860,18.066,33.691,47.363,48.828,38.574,0
1553807634.864,26.367,41.016,43.945,73.242,11.230,0
1553807634.868,20.020,43.457,37.598,48.828,12.695,0
1553807634.871,32.227,43.457,34.668,14.648,53.223,0
1553807634.875,16.113,47.363,26.855,16.602,6.836,0
1553807634.879,21.484,51.270,18.555,10.254,-2.441,0
1553807634.883,34.668,47.363,24.414,41.504,-1.465,0
1553807634.887,2.441,40.039,34.180,51.758,2.441,0
1553807634.891,0.488,42.480,30.762,25.879,2.930,0
1553807634.895,9.277,42.969,31.250,18.066,-5.859,0
1553807634.899,24.414,41.992,35.645,51.270,24.902,0
1553807634.903,34.180,42.480,35.645,44.922,78.613,0
1553807634.907,10.742,42.969,25.879,22.461,76.660,0
1553807634.911,13.184,43.457,19.043,42.969,41.504,0
1553807634.914,14.648,37.109,30.273,40.039,32.227,0
1553807634.918,23.438,37.598,34.668,33.691,-11.719,0
1553807634.922,57.617,43.457,34.180,32.715,34.668,0
1553807634.926,38.574,41.016,38.574,31.250,67.871,0
1553807634.930,30.273,39.551,35.645,21.973,71.289,0
1553807634.934,25.391,37.109,35.645,22.461,68.848,0
1553807634.938,12.207,37.109,36.621,23.926,47.363,0
1553807634.942,8.789,38.574,34.668,44.922,18.555,0
1553807634.946,23.926,40.527,38.086,41.504,26.855,0
1553807634.950,20.996,40.527,38.086,16.113,63.965,0
1553807634.953,16.113,41.992,36.133,34.180,51.758,0
1553807634.957,11.230,46.875,31.250,25.879,-0.977,0
1553807634.961,12.207,41.992,34.668,19.043,14.648,0
1553807634.965,7.812,46.875,35.645,31.738,56.152,0
1553807634.969,-20.508,46.387,25.879,14.160,51.758,0
1553807634.973,17.090,41.992,27.832,8.789,57.617,0
1553807634.977,26.367,50.293,35.645,24.902,-5.859,0
1553807634.981,8.301,47.852,30.273,18.066,-45.898,0
1553807634.985,24.414,41.992,38.086,14.648,-2.930,0
1553807634.989,32.715,41.504,41.504,32.715,1.465,0
1553807634.993,22.949,41.016,25.391,29.297,28.809,0
1553807634.996,25.391,40.039,32.715,19.043,49.316,0
1553807635.000,39.551,48.340,41.504,20.508,-2.441,0
1553807635.004,22.949,43.457,30.762,20.508,19.531,0
1553807635.008,-11.230,33.203,26.855,16.113,9.766,0
1553807635.012,-1.953,46.875,41.016,22.461,-19.043,0
1553807635.016,1.953,53.711,40.527,18.555,31.738,0
1553807635.020,-1.465,51.758,42.480,12.207,30.762,0
1553807635.024,63.477,54.199,50.293,20.508,-8.301,0
1553807635.028,10.742,50.781,39.551,-4.883,7.324,0
1553807635.032,-56.152,47.852,31.250,-33.691,29.785,0
1553807635.036,-20.020,46.875,13.184,-28.809,31.250,0
1553807635.039,-0.488,48.340,24.902,-45.898,35.156,0
1553807635.043,-29.297,60.059,58.594,-56.641,58.105,0
1553807635.047,-63.477,64.941,41.992,-55.664,84.473,0
1553807635.051,-96.680,88.379,34.180,-113.770,89.355,0
1553807635.055,-146.484,112.305,46.387,-166.992,63.477,0
1553807635.059,-222.168,114.258,62.012,-196.289,25.391,0
1553807635.063,-296.387,125.977,71.777,-270.996,-9.277,0
1553807635.067,-341.797,136.719,66.406,-324.707,70.312,0
1553807635.071,-356.445,140.625,72.754,-328.613,56.152,0
1553807635.075,-347.656,139.160,62.500,-309.570,-15.625,0
1553807635.078,-330.078,141.602,62.012,-297.363,14.160,0
1553807635.082,-310.059,144.531,67.383,-293.945,43.457,0
1553807635.086,-290.527,133.301,65.918,-261.719,48.340,0
1553807635.090,-250.488,124.023,67.383,-228.027,-14.648,0
1553807635.094,-211.914,113.770,65.918,-186.523,-11.719,0
1553807635.098,-197.754,98.633,64.941,-147.461,17.090,0
1553807635.102,-147.461,98.633,50.293,-103.516,18.555,0
1553807635.106,-117.676,93.750,40.039,-93.262,45.410,0
1553807635.110,-92.773,75.195,40.527,-85.938,74.707,0
1553807635.114,-49.316,60.547,39.551,-54.688,85.449,0
1553807635.118,-30.273,47.852,37.109,-17.090,56.641,0
1553807635.121,15.625,32.227,36.133,16.602,54.688,0
1553807635.125,51.758,25.879,31.250,11.719,29.785,0
1553807635.129,56.152,16.602,33.203,35.156,-20.020,0
1553807635.133,84.961,4.883,35.156,61.035,-2.441,0
1553807635.137,98.633,-3.418,30.762,61.523,19.043,0
1553807635.141,114.746,-6.348,35.156,77.148,68.848,0
1553807635.145,128.906,-14.160,38.574,90.820,66.406,0
1553807635.149,130.371,-15.137,33.691,90.820,72.754,0
1553807635.153,135.742,-12.207,25.879,107.910,104.492,0
1553807635.157,128.906,-19.531,26.855,100.586,70.312,0
1553807635.161,125.488,-20.996,26.855,102.539,95.703,0
1553807635.164,125.000,-21.484,26.855,112.793,72.266,0
1553807635.168,130.371,-13.184,31.738,115.234,0.000,0
1553807635.172,137.207,-3.906,27.832,129.395,1.953,0
1553807635.176,119.141,-3.418,20.996,124.023,66.895,0
1553807635.180,96.680,-2.930,23.438,122.070,77.148,0
1553807635.184,111.816,-5.859,29.297,129.395,114.746,0
1553807635.188,127.441,-7.812,26.367,128.418,79.590,0
1553807635.192,115.234,-4.883,22.949,126.465,54.199,0
1553807635.196,103.516,-3.418,26.367,125.000,43.945,0
1553807635.200,97.656,-0.977,28.320,140.625,-8.301,0
1553807635.203,99.121,0.488,23.926,151.855,-22.461,0
1553807635.207,108.398,-2.441,21.973,140.137,12.207,0
1553807635.211,111.816,-6.348,19.043,147.461,32.715,0
1553807635.215,97.656,-1.465,21.973,130.371,18.555,0
1553807635.219,87.402,7.812,27.832,116.699,47.363,0
1553807635.223,94.238,6.836,27.344,119.629,31.738,0
1553807635.227,100.586,-0.488,29.785,107.910,32.227,0
1553807635.231,92.285,3.418,27.344,117.676,56.152,0
1553807635.235,105.469,10.254,26.855,112.793,40.039,0
1553807635.239,99.609,11.230,27.344,107.422,53.711,0
1553807635.243,85.938,12.207,24.414,109.863,89.844,0
1553807635.246,97.656,13.184,29.297,104.004,93.750,0
1553807635.250,87.891,20.020,25.879,81.543,51.270,0
1553807635.254,78.125,20.508,21.484,75.684,29.785,0
1553807635.258,99.609,15.625,28.320,83.984,43.945,0
1553807635.262,79.102,17.090,30.762,88.867,24.902,0
1553807635.266,53.223,17.090,30.762,79.102,31.738,0
1553807635.270,49.316,19.043,30.762,60.547,9.277,0
1553807635.274,53.711,20.020,28.320,64.941,21.973,0
1553807635.278,79.102,14.160,28.320,65.918,34.180,0
1553807635.282,66.406,16.113,33.691,70.801,12.207,0
1553807635.286,43.945,19.531,38.574,79.590,49.805,0
1553807635.289,63.965,17.090,35.156,60.547,26.367,0
1553807635.293,61.035,21.484,30.762,46.875,14.648,0
1553807635.297,57.617,23.926,32.227,63.965,28.320,0
1553807635.301,58.105,17.578,32.227,76.172,21.973,0
1553807635.305,41.016,23.438,26.855,50.293,37.598,0
1553807635.309,32.227,25.391,31.250,50.781,8.301,0
1553807635.313,37.109,20.996,35.645,39.062,-4.395,0
1553807635.317,51.758,23.438,36.133,28.320,2.930,0
1553807635.321,47.363,23.438,38.574,46.875,-4.883,0
1553807635.325,29.297,23.926,36.133,33.203,6.348,0
1553807635.328,46.387,26.367,34.668,31.250,32.715,0
1553807635.332,62.988,27.832,36.133,56.641,-57.617,0
1553807635.336,30.762,26.367,34.668,52.734,-46.387,0
1553807635.340,46.387,26.367,33.691,48.340,54.688,0
1553807635.344,47.363,29.785,31.250,52.734,73.730,0
1553807635.348,30.762,29.785,30.273,45.898,62.988,0
1553807635.352,25.391,27.832,30.762,30.762,12.207,0
1553807635.356,29.297,31.250,21.973,14.648,57.129,0
1553807635.360,57.617,33.203,26.855,36.621,80.078,0
1553807635.364,64.941,28.809,44.434,51.270,50.293,0
1553807635.368,36.621,22.461,47.363,54.688,-2.441,0
1553807635.371,7.812,18.555,51.758,43.945,0.977,0
1553807635.375,31.250,18.066,47.852,43.945,63.965,0
1553807635.379,29.785,18.066,44.922,58.105,27.832,0
1553807635.383,8.301,19.531,42.969,41.504,2.930,0
1553807635.387,7.324,20.020,40.039,23.438,3.906,0
1553807635.391,9.277,18.066,40.527,24.414,-8.789,0
1553807635.395,30.762,21.484,39.551,26.855,35.645,0
1553807635.399,43.457,21.973,41.504,35.645,46.875,0
1553807635.403,32.227,17.090,39.062,33.691,34.180,0
1553807635.407,24.414,24.414,36.133,14.160,0.977,0
1553807635.411,11.230,26.367,37.109,25.391,22.461,0
1553807635.414,20.508,22.461,33.691,29.785,73.730,0
1553807635.418,28.809,24.902,38.086,30.762,55.176,0
1553807635.422,42.480,30.762,39.551,24.414,45.410,0
1553807635.426,39.062,32.715,35.645,28.809,68.359,0
1553807635.430,11.719,30.762,36.621,30.273,41.992,0
1553807635.434,-0.488,29.297,39.062,26.855,-22.949,0
1553807635.438,-3.418,27.344,43.457,54.688,13.184,0
1553807635.442,23.926,33.691,42.969,54.688,53.711,0
1553807635.446,40.527,35.156,38.574,35.156,38.086,0
1553807635.450,30.273,28.809,29.297,35.156,37.598,0
1553807635.453,49.805,28.809,34.668,21.484,34.180,0
1553807635.457,55.664,32.715,44.922,29.785,20.020,0
1553807635.461,14.648,32.715,38.574,27.344,9.277,0
1553807635.465,12.207,34.668,40.039,21.973,11.719,0
1553807635.469,29.785,37.109,44.434,29.297,13.672,0
1553807635.473,26.367,31.738,34.668,16.602,34.180,0
1553807635.477,32.715,31.738,34.180,27.832,51.270,0
1553807635.481,39.551,37.109,37.109,34.668,48.828,0
1553807635.485,20.508,32.227,39.062,37.109,31.738,0
1553807635.489,31.250,31.738,39.551,30.762,36.133,0
1553807635.493,41.504,36.621,36.133,21.973,61.035,0
1553807635.496,26.855,34.668,35.645,42.969,-3.418,0
1553807635.500,20.996,33.691,33.203,50.293,-15.137,0
1553807635.504,21.973,33.203,38.086,33.203,19.531,0
1553807635.508,25.391,36.133,43.945,10.742,16.602,0
1553807635.512,23.926,35.156,41.504,8.789,-0.488,0
1553807635.516,25.391,32.715,41.992,33.203,-15.137,0
1553807635.520,29.297,35.645,42.480,29.297,43.945,0
1553807635.524,1.953,32.715,41.016,28.809,57.617,0
1553807635.528,9.766,32.227,43.457,35.645,32.227,0
1553807635.532,41.992,34.180,41.016,21.973,13.672,0
1553807635.536,25.879,31.738,36.621,22.461,15.625,0
1553807635.539,10.254,30.762,38.574,16.113,36.133,0
1553807635.543,36.621,31.738,41.992,30.762,63.965,0
1553807635.547,45.898,33.691,42.480,48.828,28.809,0
1553807635.551,3.906,35.645,40.039,52.246,54.199,0
1553807635.555,-12.207,35.156,37.598,53.711,69.824,0
1553807635.559,64.941,38.574,43.457,56.152,-5.859,0
1553807635.563,76.660,37.109,43.457,64.941,-20.020,0
1553807635.567,23.438,36.621,41.016,55.176,54.199,0
1553807635.571,16.113,39.062,41.992,39.551,61.523,0
1553807635.575,-22.949,36.621,37.109,16.113,1.465,0
1553807635.578,2.441,36.133,35.156,16.113,2.930,0
1553807635.582,32.715,37.109,36.621,23.926,7.324,0
1553807635.586,14.648,36.133,38.574,15.625,-27.344,0
1553807635.590,31.250,31.250,41.016,33.203,-34.180,0
1553807635.594,43.457,30.762,39.062,28.320,-30.762,0
1553807635.598,14.648,35.645,32.715,16.113,36.621,0
1553807635.602,7.324,30.273,33.203,1.465,75.195,0
1553807635.606,36.621,29.785,33.203,13.184,57.129,0
1553807635.610,35.645,34.180,29.785,22.461,41.016,0
1553807635.614,-0.488,37.109,33.691,10.742,64.941,0
1553807635.618,5.859,37.109,33.691,45.410,72.266,0
1553807635.621,15.625,32.227,33.203,21.973,65.918,0
1553807635.625,39.062,34.668,40.039,6.348,82.520,0
1553807635.629,43.945,33.691,41.016,32.227,32.715,0
1553807635.633,28.320,35.645,38.574,29.785,27.344,0
1553807635.637,31.250,43.457,37.109,29.297,87.891,0
1553807635.641,43.457,44.434,39.062,38.574,53.711,0
1553807635.645,32.715,39.062,30.273,42.480,60.547,0
1553807635.649,41.016,38.574,25.879,21.973,94.727,0
1553807635.653,39.551,36.133,44.922,16.602,59.570,0
1553807635.657,7.324,32.227,44.434,21.484,48.340,0
1553807635.661,26.367,36.133,36.133,27.344,65.918,0
1553807635.664,30.762,41.016,33.203,26.855,45.410,0
1553807635.668,18.555,41.992,29.297,16.602,19.531,0
1553807635.672,20.020,39.551,24.902,15.625,21.973,0
1553807635.676,48.828,35.156,27.832,2.930,58.594,0
1553807635.680,53.223,33.691,39.062,16.113,81.543,0
1553807635.684,20.996,34.668,43.457,52.246,67.383,0
1553807635.688,10.742,37.598,46.875,52.246,81.055,0
1553807635.692,5.371,35.156,42.969,39.551,58.594,0
1553807635.696,10.742,33.691,36.621,34.180,36.621,0
1553807635.700,43.457,35.645,42.969,41.016,57.617,0
1553807635.703,54.688,39.551,43.945,35.645,61.523,0
1553807635.707,28.320,41.504,37.598,29.785,57.129,0
1553807635.711,20.508,40.039,35.645,34.668,20.020,0
1553807635.715,6.348,37.109,36.133,46.875,71.289,0
1553807635.719,18.555,40.527,31.738,53.711,93.262,0
1553807635.723,37.598,41.992,32.227,28.320,-13.184,0
1553807635.727,54.688,37.598,35.645,25.391,-45.410,0
1553807635.731,62.988,39.062,32.715,29.297,27.832,0
1553807635.735,20.996,37.598,29.297,34.668,17.090,0
1553807635.739,9.277,34.668,25.391,36.621,6.836,0
1553807635.743,24.414,27.832,21.973,41.016,63.477,0
1553807635.746,28.809,32.715,18.555,40.527,15.625,0
1553807635.750,41.016,38.086,29.297,29.785,-71.289,0
1553807635.754,49.316,32.227,42.480,31.250,-32.715,0
1553807635.758,60.547,33.203,42.969,41.992,22.461,0
1553807635.762,57.129,35.645,38.086,25.879,5.859,0
1553807635.766,20.996,37.598,35.156,13.184,14.160,0
1553807635.770,0.977,43.945,27.832,20.996,10.254,0
1553807635.774,6.348,43.945,30.273,34.668,3.418,0
1553807635.778,32.227,40.527,34.180,37.109,27.832,0
1553807635.782,25.879,39.062,29.785,19.531,-9.766,0
1553807635.786,39.551,39.062,33.691,6.836,21.484,0
1553807635.789,39.551,36.621,32.715,1.953,35.645,0
1553807635.793,17.578,36.621,33.203,22.461,48.828,0
1553807635.797,35.156,43.457,37.598,44.922,62.012,0
1553807635.801,38.086,44.434,26.855,40.039,25.391,0
1553807635.805,60.059,41.016,18.555,31.738,15.137,0
1553807635.809,45.898,34.180,35.645,34.668,-8.789,0
1553807635.813,7.324,28.809,53.711,9.766,16.602,0
1553807635.817,44.434,26.367,49.316,-9.766,14.648,0
1553807635.821,53.223,30.762,37.598,24.414,27.344,0
1553807635.825,10.742,26.855,48.828,34.668,-12.207,0
1553807635.828,7.324,21.973,52.246,18.555,-75.684,0
1553807635.832,23.926,16.602,43.457,36.133,-39.551,0
1553807635.836,51.270,16.113,39.551,44.434,-34.668,0
1553807635.840,38.574,21.484,32.715,19.531,-0.977,0
1553807635.844,22.461,17.090,36.133,24.902,50.293,0
1553807635.848,27.832,22.461,36.133,36.133,19.043,0
1553807635.852,26.855,24.414,36.621,22.949,20.996,0
1553807635.856,21.973,19.531,37.109,32.227,60.059,0
1553807635.860,28.320,21.973,36.133,42.969,42.969,0
1553807635.864,41.016,26.855,37.109,41.504,41.992,0
1553807635.868,58.594,26.367,39.062,55.664,-19.043,0
1553807635.871,51.758,23.438,44.922,69.824,0.488,0
1553807635.875,38.086,26.855,48.340,65.918,39.062,0
1553807635.879,15.137,26.367,46.875,41.016,29.297,0
1553807635.883,0.977,22.949,45.410,41.016,62.500,0
1553807635.887,37.598,28.320,36.133,46.387,17.090,0
1553807635.891,53.223,31.738,30.762,42.480,26.367,0
1553807635.895,42.969,29.785,41.504,47.852,51.270,0
1553807635.899,41.016,22.949,30.762,46.387,76.660,0
1553807635.903,63.477,21.484,16.602,31.250,60.547,0
1553807635.907,38.086,27.832,31.738,9.277,35.156,0
1553807635.911,22.949,30.762,47.363,38.574,65.918,0
1553807635.914,45.410,33.203,43.457,45.410,96.191,0
1553807635.918,44.434,35.156,36.133,46.875,49.316,0
1553807635.922,41.992,29.297,36.133,57.617,17.578,0
1553807635.926,50.781,25.391,35.156,50.293,62.988,0
1553807635.930,43.945,27.832,41.992,51.758,9.766,0
1553807635.934,41.992,34.180,49.805,66.895,29.297,0
1553807635.938,56.641,38.086,44.922,51.758,126.465,0
1553807635.942,46.875,35.156,41.992,43.457,78.613,0
1553807635.946,37.598,30.273,37.598,42.480,57.617,0
1553807635.950,48.340,31.250,35.645,42.969,60.547,0
1553807635.953,56.641,37.109,44.434,47.363,60.059,0
1553807635.957,45.410,39.062,41.992,34.668,74.707,0
1553807635.961,31.738,34.180,41.992,26.367,41.992,0
1553807635.965,25.391,36.621,45.410,22.949,37.598,0
1553807635.969,34.668,45.898,40.039,21.484,42.480,0
1553807635.973,22.949,41.992,40.527,36.621,53.223,0
1553807635.977,28.320,39.551,42.969,46.387,105.469,0
1553807635.981,27.344,40.039,39.551,32.227,63.965,0
1553807635.985,18.066,34.668,41.016,20.996,-16.602,0
1553807635.989,19.531,34.180,40.527,8.789,-36.621,0
1553807635.993,11.230,32.227,41.504,-0.488,-47.852,0
1553807635.996,22.461,28.320,41.504,15.625,-11.230,0
1553807636.000,35.645,30.762,31.738,25.879,36.621,0
1553807636.004,28.809,32.715,32.715,32.715,7.324,0
1553807636.008,25.391,30.762,36.621,38.086,-45.898,0
1553807636.012,36.621,34.668,38.086,39.551,-7.812,0
1553807636.016,31.250,40.527,34.668,52.246,37.598,0
1553807636.020,20.508,38.574,31.738,54.688,-5.859,0
1553807636.024,28.809,36.621,34.180,30.762,9.766,0
1553807636.028,33.203,38.574,42.480,41.016,17.090,0
1553807636.032,40.527,39.551,43.945,46.875,-17.090,0
1553807636.036,52.734,38.574,35.645,32.227,34.180,0
1553807636.039,66.406,35.156,40.527,44.434,71.289,0
1553807636.043,36.621,30.273,48.340,13.184,47.852,0
1553807636.047,0.488,29.297,46.387,0.977,47.363,0
1553807636.051,14.160,30.762,41.992,36.621,20.020,0
1553807636.055,16.602,29.785,37.109,19.531,-28.320,0
1553807636.059,18.066,30.273,36.133,-7.324,-18.066,0
1553807636.063,39.551,35.156,39.551,6.348,13.184,0
1553807636.067,32.715,31.738,43.945,35.156,17.578,0
1553807636.071,33.203,29.297,39.062,55.664,19.043,0
1553807636.075,54.688,33.691,33.203,34.180,36.133,0
1553807636.078,28.809,27.344,41.016,33.691,58.105,0
1553807636.082,11.230,29.785,39.551,51.758,84.473,0
1553807636.086,39.062,40.039,38.086,29.297,102.539,0
1553807636.090,57.617,38.086,36.133,6.836,10.742,0
1553807636.094,39.062,38.574,32.715,23.926,9.766,0
1553807636.098,28.320,40.039,32.715,29.297,73.730,0
1553807636.102,29.785,32.715,29.297,21.484,38.086,0
1553807636.106,32.227,31.250,23.438,26.855,61.035,0
1553807636.110,47.852,37.598,21.973,24.902,54.199,0
1553807636.114,32.715,40.039,29.297,28.809,-0.977,0
1553807636.118,23.438,38.574,24.414,35.645,18.066,0
1553807636.121,38.086,40.039,24.902,55.664,56.152,0
1553807636.125,37.109,39.551,35.156,50.781,50.293,0
1553807636.129,24.414,39.062,26.367,19.043,57.129,0
1553807636.133,23.926,37.109,28.809,24.414,32.227,0
1553807636.137,37.109,36.133,42.969,23.926,11.230,0
1553807636.141,37.109,39.551,42.969,33.691,24.902,0
1553807636.145,30.762,41.504,42.480,39.062,43.945,0
1553807636.149,26.367,38.086,38.574,10.742,-6.836,0
1553807636.153,3.906,34.180,35.156,10.742,-18.555,0
1553807636.157,20.996,34.668,35.156,14.160,29.785,0
1553807636.161,30.762,33.691,39.551,31.738,41.504,0
1553807636.164,26.855,29.297,41.992,56.641,8.789,0
1553807636.168,19.531,28.809,40.527,38.086,-7.812,0
1553807636.172,21.484,28.809,40.527,39.062,25.391,0
1553807636.176,40.527,25.391,33.203,35.645,5.371,0
1553807636.180,34.180,33.691,31.738,17.090,-26.367,0
1553807636.184,11.719,39.062,37.109,20.020,20.020,0
1553807636.188,9.277,37.109,36.133,25.391,36.621,0
1553807636.192,40.527,36.133,36.133,27.344,61.523,0
1553807636.196,51.758,27.832,42.480,41.016,74.707,0
1553807636.200,29.297,34.668,41.992,76.660,82.031,0
1553807636.203,20.996,44.922,33.691,52.734,90.332,0
1553807636.207,17.090,46.387,31.250,20.508,43.457,0
1553807636.211,25.879,56.152,22.461,8.301,26.855,0
1553807636.215,22.949,53.711,20.508,0.977,12.695,0
1553807636.219,40.527,57.617,14.160,-2.930,4.883,0
1553807636.223,44.434,61.035,8.301,9.766,2.930,0
1553807636.227,18.066,53.711,21.484,19.043,4.395,0
1553807636.231,32.715,55.664,23.438,14.160,32.715,0
1553807636.235,40.039,46.875,26.855,16.602,30.273,0
1553807636.239,26.367,45.410,24.414,4.883,65.430,0
1553807636.243,12.207,53.711,20.020,12.207,92.285,0
1553807636.246,18.066,53.711,25.391,20.508,22.461,0
1553807636.250,21.484,49.805,25.879,12.695,6.348,0
1553807636.254,29.785,49.316,24.414,24.902,54.688,0
1553807636.258,32.227,53.223,23.926,39.551,23.926,0
1553807636.262,30.273,51.758,23.438,11.230,52.246,0
1553807636.266,48.828,51.270,23.438,8.789,24.414,0
1553807636.270,47.852,51.270,29.297,32.227,-5.371,0
1553807636.274,20.020,47.852,32.715,34.180,44.434,0
1553807636.278,14.160,43.945,31.738,19.531,4.395,0
1553807636.282,30.762,48.340,33.203,12.695,-14.648,0
1553807636.286,37.109,53.223,32.715,30.273,11.230,0
1553807636.289,25.879,43.945,37.598,33.203,16.113,0
1553807636.293,21.973,34.668,37.598,20.508,50.781,0
1553807636.297,18.555,38.574,29.785,15.137,50.293,0
1553807636.301,28.809,43.945,26.855,12.207,21.484,0
1553807636.305,35.645,43.945,33.203,20.996,93.750,0
1553807636.309,21.484,41.992,33.691,10.254,77.148,0
1553807636.313,22.949,42.480,31.738,-3.906,107.910,0
1553807636.317,30.762,44.922,31.738,22.461,75.684,0
1553807636.321,39.062,44.922,32.715,34.180,-13.672,0
1553807636.325,56.152,41.992,32.715,32.227,14.160,0
1553807636.328,24.414,41.992,33.203,37.598,50.781,0
1553807636.332,3.906,43.457,39.551,24.902,7.812,0
1553807636.336,32.227,41.504,38.574,17.578,-31.250,0
1553807636.340,32.227,40.039,32.715,24.414,13.672,0
1553807636.344,28.320,40.039,32.227,30.762,-1.465,0
1553807636.348,55.664,43.457,29.785,24.414,-46.875,0
1553807636.352,38.574,46.387,28.809,20.508,-0.488,0
1553807636.356,18.555,46.875,30.273,22.949,34.180,0
1553807636.360,41.016,41.016,32.715,26.855,30.762,0
1553807636.364,23.438,38.086,34.668,22.949,70.312,0
1553807636.368,20.020,39.062,35.156,19.043,93.262,0
1553807636.371,46.387,36.621,33.203,45.898,68.359,0
1553807636.375,21.484,34.668,32.227,26.367,46.875,0
1553807636.379,14.648,37.598,38.086,-3.418,25.391,0
1553807636.383,39.551,39.551,37.109,8.789,-15.625,0
1553807636.387,23.926,38.086,31.250,11.719,-44.922,0
1553807636.391,20.020,37.598,34.668,16.113,-10.742,0
1553807636.395,20.508,37.598,32.227,26.855,48.340,0
1553807636.399,19.531,36.133,29.297,21.484,57.617,0
1553807636.403,26.367,34.180,31.250,3.906,35.156,0
1553807636.407,22.461,32.227,33.691,12.695,27.344,0
1553807636.411,19.531,31.250,35.156,27.832,25.879,0
1553807636.414,20.996,34.668,38.086,30.273,44.434,0
1553807636.418,28.320,38.574,38.086,11.230,49.805,0
1553807636.422,10.742,37.109,38.086,37.598,82.031,0
1553807636.426,24.902,33.203,36.621,46.387,94.727,0
1553807636.430,36.621,32.715,30.273,19.043,42.480,0
1553807636.434,9.277,35.645,33.203,17.090,11.719,0
1553807636.438,1.953,37.109,39.551,4.883,38.086,0
1553807636.442,22.461,33.691,35.645,4.395,67.383,0
1553807636.446,29.297,33.691,32.715,15.625,87.891,0
1553807636.450,47.852,35.156,34.180,27.832,80.566,0
1553807636.453,50.781,38.086,31.250,32.227,80.566,0
1553807636.457,28.320,38.574,28.320,29.785,47.852,0
1553807636.461,39.551,32.715,34.668,22.461,22.949,0
1553807636.465,34.180,34.668,36.621,27.344,64.941,0
1553807636.469,10.254,38.086,32.715,36.621,67.383,0
1553807636.473,12.695,33.203,31.738,18.066,47.852,0
1553807636.477,30.273,30.762,34.668,-3.418,20.020,0
1553807636.481,47.852,31.738,37.598,0.488,-20.020,0
1553807636.485,32.227,34.180,37.109,24.902,15.625,0
1553807636.489,5.859,31.250,41.504,26.855,38.574,0
1553807636.493,20.508,30.762,39.062,11.230,-3.418,0
1553807636.496,23.438,36.133,29.785,12.207,20.508,0
1553807636.500,36.621,36.133,37.109,13.184,38.574,0
1553807636.504,42.480,35.156,43.457,35.156,-21.484,0
1553807636.508,16.602,35.645,35.645,35.645,18.066,0
1553807636.512,23.438,34.180,29.297,18.066,30.762,0
1553807636.516,38.086,38.086,31.250,14.160,-6.836,0
1553807636.520,20.508,36.133,34.180,20.020,-7.812,0
1553807636.524,15.137,34.180,32.715,21.973,21.484,0
1553807636.528,32.227,37.598,30.273,28.809,79.102,0
1553807636.532,41.504,36.133,33.691,29.297,81.055,0
1553807636.536,29.297,37.109,33.203,20.996,42.969,0
1553807636.539,31.250,40.039,36.133,40.039,41.016,0
1553807636.543,32.227,41.016,39.062,55.664,69.336,0
1553807636.547,24.414,39.551,31.738,26.855,21.973,0
1553807636.551,33.203,40.039,29.297,-2.441,29.785,0
1553807636.555,32.227,41.504,28.809,8.789,69.336,0
1553807636.559,19.531,37.598,24.902,15.137,-10.742,0
1553807636.563,37.598,38.086,32.715,10.254,-56.152,0
1553807636.567,34.180,39.062,41.504,28.320,-41.016,0
1553807636.571,23.926,38.574,40.527,42.480,-5.371,0
1553807636.575,26.367,38.574,37.109,40.039,-20.020,0
1553807636.578,25.879,37.598,38.574,40.039,-25.391,0
1553807636.582,25.391,36.621,41.504,28.809,6.836,0
1553807636.586,49.316,40.527,38.574,16.113,15.625,0
1553807636.590,58.594,43.457,40.039,28.809,23.438,0
1553807636.594,38.574,40.039,37.109,39.551,7.812,0
1553807636.598,34.180,38.086,34.668,31.250,63.965,0
1553807636.602,20.996,37.598,36.621,21.973,55.664,0
1553807636.606,18.066,34.668,38.086,16.113,16.602,0
1553807636.610,23.438,34.668,38.086,29.297,31.738,0
1553807636.614,18.066,36.621,35.156,38.086,39.551,0
1553807636.618,9.766,38.086,32.715,18.555,21.484,0
1553807636.621,22.461,38.574,32.227,7.812,-32.715,0
1553807636.625,42.480,39.551,31.250,2.441,1.953,0
1553807636.629,37.109,38.086,31.738,29.785,60.547,0
1553807636.633,26.367,34.668,36.621,31.738,35.156,0
1553807636.637,37.109,36.621,42.480,42.969,60.547,0
1553807636.641,42.480,36.133,36.621,59.570,49.316,0
1553807636.645,28.809,33.691,29.785,25.391,-2.930,0
1553807636.649,33.691,36.133,33.203,26.855,59.082,0
1553807636.653,20.508,38.574,36.133,55.664,103.516,0
1553807636.657,19.531,36.621,36.621,48.340,61.035,0
1553807636.661,43.945,35.645,38.086,21.484,45.410,0
1553807636.664,38.086,38.086,37.598,28.320,38.574,0
1553807636.668,39.551,38.574,34.180,36.133,66.895,0
1553807636.672,46.875,37.598,30.762,50.781,59.082,0
1553807636.676,40.527,40.039,27.832,41.504,-22.949,0
1553807636.680,32.715,36.133,30.762,20.508,27.832,0
1553807636.684,28.320,30.273,27.832,30.273,2.930,0
1553807636.688,32.227,29.785,27.344,24.414,-26.367,0
1553807636.692,35.156,32.715,33.691,17.578,0.000,0
1553807636.696,43.457,34.668,32.715,26.367,-14.648,0
1553807636.700,36.133,32.227,31.738,26.855,48.828,0
1553807636.703,24.902,34.180,32.715,20.508,100.586,0
1553807636.707,28.320,34.668,32.227,15.625,103.516,0
1553807636.711,22.461,35.156,28.809,14.160,79.590,0
1553807636.715,19.531,35.645,33.203,21.484,25.879,0
1553807636.719,40.039,34.180,38.574,18.066,7.812,0
1553807636.723,34.668,36.133,38.086,20.508,20.020,0
1553807636.727,6.836,33.203,36.621,15.137,-13.672,0
1553807636.731,20.996,34.668,32.227,1.953,-6.348,0
1553807636.735,15.625,36.621,32.715,15.625,43.945,0
1553807636.739,-2.930,36.133,33.691,35.156,28.809,0
1553807636.743,18.066,37.598,30.762,30.273,-3.418,0
1553807636.746,41.504,37.109,28.809,8.789,26.367,0
1553807636.750,41.016,39.062,35.156,8.301,77.637,0
1553807636.754,34.180,41.504,40.527,18.066,69.336,0
1553807636.758,34.180,42.969,38.086,20.020,43.457,0
1553807636.762,30.762,40.039,36.133,18.555,18.066,0
1553807636.766,41.992,37.598,36.133,11.230,-2.441,0
1553807636.770,44.434,39.551,37.109,21.484,63.477,0
1553807636.774,13.672,36.133,33.691,28.320,86.426,0
1553807636.778,2.930,31.250,29.297,24.414,27.832,0
1553807636.782,7.324,34.668,29.297,18.066,2.441,0
1553807636.786,19.531,37.109,31.738,14.648,28.320,0
1553807636.789,28.320,36.133,36.133,22.461,35.645,0
1553807636.793,14.160,34.180,35.156,34.668,41.992,0
1553807636.797,26.367,34.668,25.879,20.996,70.312,0
1553807636.801,32.227,36.133,27.344,18.555,-5.859,0
1553807636.805,24.414,36.133,33.691,24.902,-5.371,0
1553807636.809,41.504,34.180,33.203,23.438,-18.066,0
1553807636.813,55.176,34.668,40.039,36.621,-57.129,0
1553807636.817,38.574,41.016,42.480,53.223,-35.156,0
1553807636.821,21.484,41.016,36.133,32.227,-12.695,0
1553807636.825,20.508,37.598,36.133,23.926,-6.348,0
1553807636.828,21.973,36.133,32.715,26.855,20.508,0
1553807636.832,9.766,38.086,28.320,20.020,44.922,0
1553807636.836,19.531,41.992,30.762,24.414,17.578,0
1553807636.840,35.645,42.480,29.297,14.648,30.762,0
1553807636.844,47.852,41.992,26.367,15.137,27.344,0
1553807636.848,49.805,39.551,24.414,11.230,26.367,0
1553807636.852,44.922,38.574,26.855,10.742,26.367,0
1553807636.856,69.824,38.574,33.203,21.973,-6.348,0
1553807636.860,53.223,38.574,35.645,31.250,-8.789,0
1553807636.864,38.574,42.480,30.762,20.020,46.875,0
1553807636.868,21.484,41.504,31.250,42.480,109.863,0
1553807636.871,8.301,42.480,37.109,26.367,67.383,0
1553807636.875,26.855,42.969,37.109,11.719,-15.137,0
1553807636.879,40.527,38.086,34.668,44.922,41.016,0
1553807636.883,21.973,38.574,32.227,22.949,40.527,0
1553807636.887,15.137,36.133,31.250,6.348,49.316,0
1553807636.891,26.367,34.668,27.344,18.555,80.078,0
1553807636.895,33.203,35.156,32.227,7.812,35.645,0
1553807636.899,32.715,34.180,35.156,7.812,76.660,0
1553807636.903,23.438,35.645,33.203,30.762,67.383,0
1553807636.907,28.809,36.133,30.273,31.250,73.730,0
1553807636.911,43.945,34.668,31.738,13.672,79.590,0
1553807636.914,30.762,35.156,38.574,10.254,40.527,0
1553807636.918,13.184,40.527,32.715,23.926,41.992,0
1553807636.922,20.996,40.039,37.598,26.855,29.297,0
1553807636.926,9.766,34.180,44.434,31.250,-12.695,0
1553807636.930,8.789,35.645,39.551,25.391,-28.809,0
1553807636.934,24.902,37.598,40.527,17.090,-9.766,0
1553807636.938,22.461,35.156,35.156,31.250,4.883,0
1553807636.942,26.367,36.621,32.715,26.367,-17.578,0
1553807636.946,40.527,38.574,34.180,20.508,-7.812,0
1553807636.950,26.367,41.016,36.621,26.855,24.902,0
1553807636.953,20.996,38.086,39.062,30.762,-30.273,0
1553807636.957,45.898,39.062,38.574,38.086,-10.742,0
1553807636.961,44.434,44.922,37.598,30.273,22.949,0
1553807636.965,31.738,40.039,41.504,24.414,46.387,0
1553807636.969,37.598,36.133,39.551,46.387,32.715,0
1553807636.973,34.668,36.621,40.527,59.082,4.395,0
1553807636.977,36.133,34.180,44.434,40.527,14.648,0
1553807636.981,36.133,40.039,33.691,14.648,54.688,0
1553807636.985,29.785,45.898,29.785,19.531,63.965,0
1553807636.989,42.480,41.992,31.250,14.648,1.465,0
1553807636.993,57.617,40.527,32.715,19.531,64.941,0
1553807636.996,58.594,38.086,39.551,37.109,94.727,0
1553807637.000,50.781,35.156,37.598,26.855,29.297,0
1553807637.004,45.898,40.527,37.598,33.691,45.898,0
1553807637.008,43.945,40.039,41.504,45.410,76.660,0
1553807637.012,42.969,41.992,35.645,27.344,53.711,0
1553807637.016,33.691,44.434,32.227,33.691,16.602,0
1553807637.020,22.949,40.527,37.109,42.969,1.465,0
1553807637.024,9.277,41.504,38.086,30.762,9.277,0
1553807637.028,17.090,43.457,33.203,42.969,46.875,0
1553807637.032,38.086,42.480,30.762,38.086,23.926,0
1553807637.036,29.785,39.062,35.645,22.949,-4.883,0
1553807637.039,21.484,37.598,36.621,21.484,41.992,0
1553807637.043,43.945,36.621,38.086,27.832,24.414,0
1553807637.047,44.434,35.645,40.527,30.273,27.344,0
1553807637.051,39.062,39.551,37.109,20.508,105.469,0
1553807637.055,51.270,41.504,33.691,20.996,109.863,0
1553807637.059,42.480,36.621,29.785,30.762,28.809,0
1553807637.063,32.227,34.180,29.785,26.367,22.461,0
1553807637.067,29.297,36.133,35.645,16.113,20.996,0
1553807637.071,39.551,41.504,39.551,32.715,49.316,0
1553807637.075,29.297,40.527,36.621,38.086,104.004,0
1553807637.078,20.996,39.551,37.598,34.180,59.082,0
1553807637.082,27.344,41.016,42.969,41.992,8.301,0
1553807637.086,34.180,43.945,34.180,28.320,10.254,0
1553807637.090,60.059,43.945,29.785,31.738,2.930,0
1553807637.094,42.480,40.039,31.250,32.227,46.875,0
1553807637.098,10.742,41.016,30.273,36.133,40.527,0
1553807637.102,33.203,40.039,29.297,44.922,-9.277,0
1553807637.106,40.039,35.645,29.297,36.133,-10.742,0
1553807637.110,37.598,33.203,26.367,31.250,-8.789,0
1553807637.114,41.992,37.109,26.367,45.410,13.184,0
1553807637.118,33.691,38.574,37.109,43.457,-42.480,0
1553807637.121,34.180,38.086,41.016,29.785,-70.801,0
1553807637.125,32.227,39.551,37.109,26.855,-21.973,0
1553807637.129,24.414,38.574,39.062,38.574,28.320,0
1553807637.133,9.277,32.715,36.621,39.551,18.555,0
1553807637.137,11.719,30.273,32.715,22.461,14.160,0
1553807637.141,39.551,35.645,32.227,25.391,39.551,0
1553807637.145,40.039,35.645,30.273,36.133,10.254,0
1553807637.149,14.648,33.203,35.156,29.297,-18.555,0
1553807637.153,16.113,35.645,36.133,29.785,30.762,0
1553807637.157,33.203,36.133,34.668,43.457,9.766,0
1553807637.161,32.715,34.668,34.180,41.016,0.488,0
1553807637.164,22.949,35.645,30.762,24.902,69.336,0
1553807637.168,20.020,34.180,31.738,6.836,67.383,0
1553807637.172,20.996,31.738,38.086,35.156,37.109,0
1553807637.176,30.762,35.156,38.086,44.922,32.715,0
1553807637.180,43.945,34.180,34.668,15.625,22.949,0
1553807637.184,60.547,36.133,37.109,28.320,43.945,0
1553807637.188,42.480,38.574,37.598,57.617,66.895,0
1553807637.192,20.020,33.691,38.574,38.574,19.043,0
1553807637.196,28.320,36.621,38.086,12.207,41.016,0
1553807637.200,29.785,35.156,34.180,14.648,43.945,0
1553807637.203,37.109,36.133,34.180,16.602,74.219,0
1553807637.207,26.367,39.551,33.203,21.973,109.863,0
1553807637.211,13.184,37.109,29.785,21.484,70.312,0
1553807637.215,26.367,36.621,32.227,27.832,20.996,0
1553807637.219,17.578,37.598,31.738,41.016,21.484,0
1553807637.223,16.602,38.574,32.227,26.367,88.867,0
1553807637.227,33.203,38.086,29.785,17.090,66.895,0
1553807637.231,39.062,37.598,25.879,21.973,64.941,0
1553807637.235,40.039,36.621,30.762,31.738,42.480,0
1553807637.239,45.898,40.527,29.785,21.484,10.254,0
1553807637.243,51.758,43.457,29.785,-0.977,67.871,0
1553807637.246,41.016,41.016,28.809,3.418,40.039,0
1553807637.250,55.664,40.039,28.809,45.410,-2.930,0
1553807637.254,76.172,42.969,38.574,56.152,50.293,0
1553807637.258,44.434,50.781,38.574,10.742,70.801,0
1553807637.262,18.066,41.504,37.109,0.000,36.621,0
1553807637.266,9.766,39.062,28.320,-4.395,38.086,0
1553807637.270,-14.160,42.480,24.414,-0.977,-7.812,0
1553807637.274,-16.113,41.016,26.855,4.883,-0.977,0
1553807637.278,11.719,47.363,20.020,-20.508,112.305,0
1553807637.282,6.836,44.922,20.508,-10.254,83.984,0
1553807637.286,6.348,41.992,23.926,6.348,69.824,0
1553807637.289,9.277,42.480,26.367,1.953,41.992,0
1553807637.293,18.555,43.945,24.902,14.648,44.922,0
1553807637.297,43.457,45.898,20.996,35.645,85.938,0
1553807637.301,18.555,41.504,19.531,12.207,33.691,0
1553807637.305,0.488,43.457,30.762,3.906,69.824,0
1553807637.309,20.996,50.781,35.156,22.949,-1.953,0
1553807637.313,17.578,45.410,38.086,18.555,-47.852,0
1553807637.317,12.695,37.598,35.156,26.855,1.953,0
1553807637.321,16.602,36.133,28.320,31.250,-3.418,0
1553807637.325,36.133,38.574,32.227,21.973,-9.766,0
1553807637.328,54.688,41.504,36.621,17.578,1.953,0
1553807637.332,33.691,39.551,41.504,19.043,10.254,0
1553807637.336,24.902,41.992,35.156,35.156,6.836,0
1553807637.340,28.809,42.969,31.738,53.711,4.395,0
1553807637.344,21.484,37.598,36.133,33.691,-24.414,0
1553807637.348,21.484,41.504,32.715,29.785,40.039,0
1553807637.352,22.949,41.016,30.762,26.367,43.945,0
1553807637.356,27.344,41.016,39.062,23.438,-35.156,0
1553807637.360,28.809,42.969,39.551,23.438,23.438,0
1553807637.364,44.434,43.457,31.250,23.926,47.363,0
1553807637.368,27.832,43.945,33.691,45.410,8.301,0
1553807637.371,16.602,41.992,34.668,34.668,11.719,0
1553807637.375,33.203,39.551,31.738,15.625,11.230,0
1553807637.379,16.602,36.133,37.598,28.809,2.930,0
1553807637.383,21.973,39.062,37.598,34.180,-3.418,0
1553807637.387,30.762,36.133,33.203,12.207,1.465,0
1553807637.391,32.227,32.227,37.598,5.859,9.277,0
1553807637.395,52.246,35.156,36.621,13.184,-20.996,0
1553807637.399,27.832,41.016,30.762,11.230,-10.254,0
1553807637.403,20.020,41.016,33.203,19.043,2.930,0
1553807637.407,34.180,43.945,37.109,28.320,0.488,0
1553807637.411,0.977,46.387,33.203,38.574,24.414,0
1553807637.414,8.301,39.062,34.180,33.691,21.973,0
1553807637.418,26.367,36.133,37.598,16.113,-18.066,0
1553807637.422,25.879,42.969,38.574,1.465,-9.277,0
1553807637.426,27.344,42.969,37.598,11.230,-13.672,0
1553807637.430,27.832,44.434,35.645,23.438,2.441,0
1553807637.434,23.438,43.457,31.738,22.461,-6.348,0
1553807637.438,24.902,40.527,31.738,17.090,11.230,0
1553807637.442,36.621,42.969,37.598,32.715,35.645,0
1553807637.446,63.965,46.387,38.086,60.059,34.668,0
1553807637.450,54.688,55.664,40.039,27.344,48.340,0
1553807637.453,14.648,48.828,43.945,16.602,50.293,0
1553807637.457,14.160,46.875,38.574,21.973,45.410,0
1553807637.461,30.273,49.316,30.273,10.254,40.039,0
1553807637.465,46.875,46.387,30.762,34.668,41.992,0
1553807637.469,35.645,45.898,35.645,23.438,15.137,0
1553807637.473,14.648,47.852,31.738,11.230,39.062,0
1553807637.477,6.836,46.875,28.809,25.391,49.316,0
1553807637.481,13.184,47.852,26.367,20.996,41.504,0
1553807637.485,37.109,53.711,25.391,24.414,28.809,0
1553807637.489,41.016,48.828,32.715,29.297,-3.418,0
1553807637.493,44.434,50.781,26.855,31.738,4.395,0
1553807637.496,72.266,54.688,16.602,34.180,28.809,0
1553807637.500,67.871,44.434,23.438,29.785,62.500,0
1553807637.504,48.828,37.109,41.016,55.664,26.367,0
1553807637.508,45.898,39.062,40.039,37.109,-9.766,0
1553807637.512,41.016,39.551,20.020,12.207,12.695,0
1553807637.516,42.969,39.062,27.832,22.949,8.301,0
1553807637.520,24.902,42.969,38.574,27.344,23.438,0
1553807637.524,29.297,41.504,33.691,29.785,30.762,0
1553807637.528,46.875,47.363,29.785,46.387,17.090,0
1553807637.532,38.086,41.992,30.273,46.387,38.574,0
1553807637.536,34.180,39.062,31.738,48.828,29.297,0
1553807637.539,70.312,45.898,28.320,52.246,-36.621,0
1553807637.543,53.711,41.504,31.738,36.133,6.348,0
1553807637.547,9.766,39.062,41.992,42.480,65.430,0
1553807637.551,37.598,52.734,43.457,60.059,1.465,0
1553807637.555,52.734,48.828,38.574,58.105,17.578,0
1553807637.559,28.320,42.969,39.062,41.504,82.031,0
1553807637.563,30.762,60.059,41.016,38.086,8.789,0
1553807637.567,47.363,58.105,40.039,37.109,7.812,0
1553807637.571,51.758,51.758,48.828,41.504,69.824,0
1553807637.575,47.363,57.617,46.875,28.809,73.730,0
1553807637.578,22.461,52.734,32.715,2.441,79.590,0
1553807637.582,5.859,45.410,25.879,9.277,68.848,0
1553807637.586,-2.441,54.688,30.762,13.184,10.742,0
1553807637.590,-30.762,57.129,42.480,0.000,12.695,0
1553807637.594,-23.438,51.758,40.039,-7.812,46.387,0
1553807637.598,-16.602,57.617,41.016,-28.320,35.156,0
1553807637.602,-57.129,88.379,58.105,-42.480,-13.672,0
1553807637.606,-126.953,102.539,56.641,-106.934,22.949,0
1553807637.610,-182.129,107.910,56.152,-196.289,84.473,0
1553807637.614,-236.816,126.953,65.430,-250.000,77.148,0
1553807637.618,-292.969,138.184,72.754,-290.527,64.941,0
1553807637.621,-313.965,146.484,74.707,-318.848,105.469,0
1553807637.625,-320.312,152.832,70.801,-332.031,64.941,0
1553807637.629,-311.523,151.367,71.289,-327.637,28.320,0
1553807637.633,-299.805,137.207,67.871,-311.035,50.781,0
1553807637.637,-264.160,126.953,69.336,-276.855,76.172,0
1553807637.641,-217.285,123.047,63.477,-243.652,81.543,0
1553807637.645,-202.637,103.516,62.500,-223.145,48.340,0
1553807637.649,-165.527,85.938,61.523,-187.988,50.781,0
1553807637.653,-108.887,74.707,55.176,-125.488,51.270,0
1553807637.657,-82.031,67.383,51.758,-93.262,48.340,0
1553807637.661,-54.688,57.129,41.992,-62.012,72.266,0
1553807637.664,-20.996,40.039,39.062,-27.344,85.449,0
1553807637.668,12.207,33.691,35.645,-9.766,58.105,0
1553807637.672,47.363,27.832,33.203,27.832,41.016,0
1553807637.676,66.406,17.578,28.809,62.500,76.660,0
1553807637.680,83.496,9.277,26.367,83.008,64.941,0
1553807637.684,85.938,-1.953,30.762,98.145,33.203,0
1553807637.688,114.258,-4.883,27.344,114.746,47.363,0
1553807637.692,143.066,-4.883,25.879,103.027,22.949,0
1553807637.696,121.582,-9.766,22.461,109.375,12.207,0
1553807637.700,129.395,-6.348,15.137,136.230,11.230,0
1553807637.703,143.555,-2.930,15.625,125.977,7.812,0
1553807637.707,145.020,-1.953,18.555,132.812,11.719,0
1553807637.711,144.531,-1.465,19.531,144.043,40.039,0
1553807637.715,132.812,-1.465,20.508,128.418,44.434,0
1553807637.719,137.695,0.000,21.484,115.234,8.789,0
1553807637.723,140.137,0.977,18.066,120.605,29.297,0
1553807637.727,129.883,0.000,10.254,140.625,24.414,0
1553807637.731,138.672,0.488,12.207,128.418,-55.176,0
1553807637.735,136.719,0.000,20.020,108.398,-11.719,0
1553807637.739,117.676,-0.977,21.973,116.699,43.457,0
1553807637.743,111.816,2.441,24.902,122.070,44.434,0
1553807637.746,122.559,4.883,26.367,135.742,75.195,0
1553807637.750,105.957,11.719,25.879,125.000,62.012,0
1553807637.754,97.656,10.254,22.949,95.703,34.180,0
1553807637.758,109.863,8.789,27.344,108.887,94.238,0
1553807637.762,111.816,11.230,27.344,110.840,27.832,0
1553807637.766,107.422,9.277,22.461,104.004,-21.973,0
1553807637.770,95.703,17.090,30.762,109.863,24.414,0
1553807637.774,100.586,20.508,33.691,105.469,23.438,0
1553807637.778,105.469,11.719,28.320,92.773,13.672,0
1553807637.782,94.238,12.207,25.879,92.773,14.160,0
1553807637.786,83.496,15.137,27.344,98.633,0.000,0
1553807637.789,85.938,12.207,39.062,90.820,-7.324,0
1553807637.793,99.121,17.090,34.668,97.168,-16.602,0
1553807637.797,99.609,19.043,26.855,89.844,34.668,0
1553807637.801,92.773,19.043,34.668,78.613,60.547,0
1553807637.805,88.867,23.926,39.062,84.473,47.852,0
1553807637.809,79.102,21.484,38.574,84.473,56.152,0
1553807637.813,74.219,20.996,35.645,88.379,53.223,0
1553807637.817,81.055,23.438,32.227,95.215,44.922,0
1553807637.821,83.008,26.855,31.738,90.332,29.785,0
1553807637.825,77.637,30.762,30.762,75.195,32.227,0
1553807637.828,75.195,32.715,30.762,78.125,16.602,0
1553807637.832,74.219,29.785,37.598,101.074,12.695,0
1553807637.836,63.477,25.391,40.039,85.938,14.160,0
1553807637.840,55.664,23.926,28.320,64.941,58.105,0
1553807637.844,71.777,25.391,20.996,71.777,30.762,0
1553807637.848,77.148,30.273,32.715,58.105,-16.113,0
1553807637.852,60.547,28.809,41.504,52.734,5.371,0
1553807637.856,62.500,25.391,43.945,84.961,48.340,0
1553807637.860,65.430,21.973,39.062,73.242,40.527,0
1553807637.864,69.336,24.902,38.574,55.176,12.695,0
1553807637.868,65.430,31.250,43.457,67.871,24.902,0
1553807637.871,58.594,27.344,40.527,63.477,30.762,0
1553807637.875,53.711,24.414,38.574,59.570,47.363,0
1553807637.879,44.922,24.902,36.133,62.988,13.184,0
1553807637.883,48.828,27.832,29.785,65.430,3.418,0
1553807637.887,42.480,28.809,31.250,73.242,-9.766,0
1553807637.891,48.340,26.855,36.133,57.617,1.465,0
1553807637.895,55.664,25.879,34.180,34.668,87.402,0
1553807637.899,49.805,24.414,34.668,46.875,51.758,0
1553807637.903,44.922,27.344,37.109,50.293,37.109,0
1553807637.907,49.805,30.762,36.133,58.594,51.270,0
1553807637.911,51.270,25.391,34.180,57.129,-14.648,0
1553807637.914,47.852,25.391,33.203,42.969,-7.324,0
1553807637.918,53.711,29.297,26.855,41.992,47.363,0
1553807637.922,60.059,31.250,27.832,52.246,53.711,0
1553807637.926,45.898,27.344,38.086,52.734,60.059,0
1553807637.930,35.645,25.391,40.039,43.945,52.734,0
1553807637.934,53.223,34.668,38.086,58.594,41.992,0
1553807637.938,60.059,39.551,39.062,74.707,-11.230,0
1553807637.942,33.691,38.086,38.574,48.340,-55.176,0
1553807637.946,20.996,28.809,38.574,35.645,4.883,0
1553807637.950,39.062,27.344,33.203,52.734,55.664,0
1553807637.953,38.574,31.250,33.203,41.016,55.176,0
1553807637.957,35.645,31.250,35.645,16.602,44.434,0
1553807637.961,44.434,33.203,32.227,34.668,23.438,0
1553807637.965,51.270,34.668,36.133,48.828,-6.348,0
1553807637.969,53.711,34.180,38.574,36.133,1.953,0
1553807637.973,36.133,27.832,36.133,30.762,44.922,0
1553807637.977,33.203,24.414,33.203,32.715,27.344,0
1553807637.981,42.969,29.785,32.227,40.039,33.691,0
1553807637.985,23.926,31.250,31.250,36.621,18.066,0
1553807637.989,20.508,32.227,36.133,43.457,20.996,0
1553807637.993,34.180,26.367,40.527,66.895,42.969,0
1553807637.996,35.156,21.484,37.598,33.203,34.668,0
1553807638.000,28.809,30.762,32.715,5.371,22.461,0
1553807638.004,24.414,39.062,39.062,20.996,36.133,0
1553807638.008,22.949,37.598,38.574,23.438,78.613,0
1553807638.012,33.203,39.551,31.250,21.484,25.879,0
1553807638.016,56.152,42.969,36.621,31.250,39.062,0
1553807638.020,39.062,39.062,35.156,35.156,71.777,0
1553807638.024,16.602,40.527,32.227,39.551,82.031,0
1553807638.028,30.273,40.527,38.086,47.363,56.641,0
1553807638.032,28.320,37.109,39.062,36.621,-5.371,0
1553807638.036,20.508,35.645,38.086,50.293,26.855,0
1553807638.039,33.691,33.691,44.434,67.383,46.875,0
1553807638.043,36.133,31.738,47.363,37.598,70.801,0
1553807638.047,20.996,31.250,40.039,20.996,49.805,0
1553807638.051,31.738,31.738,42.480,34.180,20.508,0
1553807638.055,36.133,30.273,50.781,41.992,32.227,0
1553807638.059,31.738,35.645,40.039,49.805,48.340,0
1553807638.063,36.133,36.621,35.156,49.316,20.508,0
1553807638.067,32.715,37.598,37.109,32.227,0.000,0
1553807638.071,35.645,41.992,36.133,37.598,42.969,0
1553807638.075,41.992,40.039,36.621,39.062,41.992,0
1553807638.078,53.711,39.551,30.762,28.809,33.203,0
1553807638.082,67.871,42.480,27.344,45.898,37.598,0
1553807638.086,46.387,40.527,41.016,50.293,13.184,0
1553807638.090,9.766,39.062,48.340,39.062,36.621,0
1553807638.094,11.719,37.598,45.898,25.879,43.945,0
1553807638.098,22.461,37.598,38.574,19.531,42.969,0
1553807638.102,23.926,36.133,41.504,26.855,27.344,0
1553807638.106,34.180,29.785,49.316,24.902,24.414,0
1553807638.110,35.645,29.297,42.969,20.996,41.504,0
1553807638.114,35.645,28.809,42.480,9.766,28.320,0
1553807638.118,30.762,32.227,39.062,21.484,49.316,0
1553807638.121,26.855,31.250,36.621,28.809,13.672,0
1553807638.125,37.598,33.691,42.969,34.180,1.465,0
1553807638.129,32.227,35.645,43.945,42.480,14.160,0
1553807638.133,32.715,35.156,42.480,36.133,24.414,0
1553807638.137,24.902,33.691,42.480,34.668,6.348,0
1553807638.141,20.020,35.156,40.039,22.461,-7.324,0
1553807638.145,34.668,37.598,33.203,18.555,61.523,0
1553807638.149,34.180,33.691,33.203,29.297,18.555,0
1553807638.153,27.344,31.738,41.504,32.715,6.348,0
1553807638.157,35.156,33.691,48.340,44.922,29.297,0
1553807638.161,39.062,31.250,42.969,38.574,14.648,0
1553807638.164,37.598,32.227,37.598,29.297,25.879,0
1553807638.168,17.578,36.133,36.133,40.039,35.156,0
1553807638.172,17.090,37.598,30.762,39.551,34.668,0
1553807638.176,37.598,37.598,33.203,27.832,0.000,0
1553807638.180,38.086,40.039,34.668,31.738,-55.176,0
1553807638.184,32.715,38.086,38.574,30.762,25.879,0
1553807638.188,20.020,37.598,39.551,18.555,60.547,0
1553807638.192,28.320,45.410,38.574,35.156,-22.949,0
1553807638.196,35.156,45.898,42.480,40.039,6.348,0
1553807638.200,24.414,41.992,35.156,41.016,33.203,0
1553807638.203,14.648,41.504,37.109,42.480,45.898,0
1553807638.207,24.902,42.480,46.387,38.086,60.547,0
1553807638.211,33.203,40.039,47.363,22.461,7.324,0
1553807638.215,34.180,34.668,42.969,14.160,25.879,0
1553807638.219,37.109,35.156,42.969,38.086,58.105,0
1553807638.223,37.109,41.016,42.480,36.621,48.340,0
1553807638.227,23.926,45.898,40.527,35.645,48.340,0
1553807638.231,3.418,44.434,37.109,36.621,39.062,0
1553807638.235,5.371,43.945,33.203,16.113,60.547,0
1553807638.239,16.113,44.922,32.715,15.625,79.102,0
1553807638.243,35.645,42.480,36.133,23.926,37.109,0
1553807638.246,35.645,38.086,34.668,38.086,2.441,0
1553807638.250,24.902,38.574,33.691,40.039,53.223,0
1553807638.254,39.062,42.480,35.156,30.273,62.988,0
1553807638.258,53.223,41.016,31.738,31.738,12.207,0
1553807638.262,42.480,38.574,33.203,39.062,6.348,0
1553807638.266,30.762,41.016,40.039,38.574,36.621,0
1553807638.270,36.133,42.969,42.480,23.926,36.133,0
1553807638.274,42.969,42.969,39.551,26.855,85.449,0
1553807638.278,45.410,42.969,39.551,43.457,65.430,0
1553807638.282,55.664,43.945,41.016,40.039,9.766,0
1553807638.286,36.133,46.875,39.551,29.297,-7.812,0
1553807638.289,22.949,45.898,41.992,24.414,16.113,0
1553807638.293,33.203,42.480,32.715,15.137,27.832,0
1553807638.297,25.391,41.016,28.320,15.625,30.762,0
1553807638.301,21.973,37.598,35.645,29.785,56.152,0
1553807638.305,29.785,41.016,37.109,34.668,41.016,0
1553807638.309,29.297,40.527,40.039,30.273,42.480,0
1553807638.313,33.203,39.062,36.133,24.902,75.195,0
1553807638.317,44.922,40.527,35.645,28.320,65.430,0
1553807638.321,41.016,38.086,30.273,31.250,15.625,0
1553807638.325,39.062,39.551,31.250,19.531,-32.227,0
1553807638.328,29.297,39.551,40.039,11.719,-25.391,0
1553807638.332,20.508,41.992,38.086,30.762,31.250,0
1553807638.336,33.203,43.945,36.621,41.504,15.625,0
1553807638.340,43.945,44.922,38.086,22.461,-8.301,0
1553807638.344,35.156,45.898,33.203,13.184,-1.465,0
1553807638.348,38.574,40.527,30.273,12.207,49.316,0
1553807638.352,41.016,34.180,34.668,27.832,31.250,0
1553807638.356,24.414,41.992,37.598,37.109,5.859,0
1553807638.360,20.508,51.758,38.086,20.996,-3.418,0
1553807638.364,27.832,49.805,36.133,22.461,-15.137,0
1553807638.368,34.180,45.410,34.180,41.016,30.762,0
1553807638.371,24.902,43.457,41.992,30.273,39.551,0
1553807638.375,20.020,44.434,43.945,29.297,3.906,0
1553807638.379,20.996,41.992,38.086,37.109,46.387,0
1553807638.383,23.438,40.039,40.527,34.180,57.129,0
1553807638.387,32.715,38.574,37.109,35.156,43.457,0
1553807638.391,27.344,37.109,35.645,20.020,73.730,0
1553807638.395,23.926,36.133,41.016,14.648,97.168,0
1553807638.399,12.207,36.133,38.086,13.184,61.035,0
1553807638.403,15.625,40.039,34.668,7.812,-12.695,0
1553807638.407,24.902,41.504,31.738,11.719,-3.418,0
1553807638.411,16.113,39.062,32.227,11.719,45.898,0
1553807638.414,16.602,39.551,35.156,28.320,69.824,0
1553807638.418,23.438,41.016,34.668,23.926,84.473,0
