timestamps,TP9,AF7,AF8,TP10,Right AUX,Marker0
1542907718.614,14.160,28.320,30.273,35.156,43.457,0
1542907718.618,21.484,30.762,37.109,46.875,66.895,0
1542907718.622,16.113,26.367,40.527,41.504,45.898,0
1542907718.626,10.742,20.996,37.109,34.180,46.875,0
1542907718.630,8.789,25.391,32.715,41.992,43.457,0
1542907718.634,22.461,23.438,33.691,46.387,8.301,0
1542907718.638,18.066,15.625,36.621,50.781,30.273,0
1542907718.642,9.277,20.508,33.691,58.594,-1.953,0
1542907718.645,10.254,28.809,31.250,61.035,25.879,0
1542907718.649,14.160,29.785,34.668,52.246,65.918,0
1542907718.653,13.184,29.785,33.203,51.758,19.043,0
1542907718.657,25.391,28.809,26.855,54.199,45.410,0
1542907718.661,29.785,29.785,30.762,53.223,77.148,0
1542907718.665,18.066,36.133,39.062,62.988,65.430,0
1542907718.669,19.531,32.227,38.574,65.918,13.672,0
1542907718.673,28.809,29.785,34.180,54.688,51.758,0
1542907718.677,18.066,30.273,30.762,52.734,87.891,0
1542907718.681,-0.977,21.973,35.156,62.500,57.129,0
1542907718.684,26.855,26.855,37.598,57.129,49.316,0
1542907718.688,36.133,31.250,34.668,55.664,19.043,0
1542907718.692,10.742,31.738,35.645,60.547,26.855,0
1542907718.696,-11.719,23.438,35.156,56.641,12.207,0
1542907718.700,1.465,13.184,37.109,50.781,-37.109,0
1542907718.704,4.883,17.090,41.504,56.152,-28.320,0
1542907718.708,1.953,16.602,41.992,62.012,25.879,0
1542907718.712,12.207,14.160,43.945,55.664,50.781,0
1542907718.716,3.418,12.695,42.969,58.105,42.480,0
1542907718.720,-4.883,9.277,41.992,63.477,8.301,0
1542907718.724,-4.883,7.324,42.969,59.570,7.324,0
1542907718.727,-2.441,7.812,36.621,55.664,67.871,0
1542907718.731,-4.883,9.277,36.133,57.129,29.297,0
1542907718.735,-7.812,17.578,41.016,54.688,-21.484,0
1542907718.739,-4.883,21.973,36.621,51.758,47.852,0
1542907718.743,10.742,15.137,40.527,53.711,82.520,0
1542907718.747,12.207,15.137,40.039,56.152,52.734,0
1542907718.751,4.395,16.602,37.109,59.570,9.277,0
1542907718.755,3.906,19.043,38.086,57.129,39.551,0
1542907718.759,-5.371,20.020,37.598,58.105,34.668,0
1542907718.763,9.277,12.207,44.434,69.824,-1.465,0
1542907718.767,24.902,15.625,41.016,74.707,35.156,0
1542907718.770,15.625,17.090,32.715,73.730,39.551,0
1542907718.774,5.371,9.277,39.551,81.543,12.695,0
1542907718.778,17.578,16.602,45.898,87.402,20.020,0
1542907718.782,12.695,12.695,38.086,83.496,1.465,0
1542907718.786,-4.883,4.395,32.227,80.078,-16.113,0
1542907718.790,7.812,14.648,35.156,82.520,48.340,0
1542907718.794,24.902,15.137,35.645,86.426,20.020,0
1542907718.798,15.137,8.789,35.645,82.031,-27.344,0
1542907718.802,-7.324,12.695,35.645,83.008,52.734,0
1542907718.806,1.465,13.672,25.391,86.426,27.832,0
1542907718.809,13.672,12.695,21.484,82.031,-14.648,0
1542907718.813,5.859,10.742,29.297,80.078,3.906,0
1542907718.817,11.719,13.184,25.391,81.055,31.738,0
1542907718.821,19.043,16.602,27.832,82.031,33.203,0
1542907718.825,16.113,15.137,37.109,82.031,0.977,0
1542907718.829,17.578,10.254,34.180,83.496,16.113,0
1542907718.833,14.648,10.254,34.180,80.078,60.547,0
1542907718.837,-3.418,22.949,39.062,77.148,32.715,0
1542907718.841,-2.441,23.926,37.598,82.520,16.113,0
1542907718.845,18.066,18.066,39.551,85.449,79.590,0
1542907718.849,23.438,20.508,39.551,92.773,80.078,0
1542907718.852,13.184,25.879,35.645,93.750,56.152,0
1542907718.856,1.953,25.391,32.715,80.078,54.199,0
1542907718.860,6.836,27.832,32.227,83.008,27.344,0
1542907718.864,18.555,29.785,28.809,86.914,-1.465,0
1542907718.868,19.531,22.461,27.344,87.402,20.020,0
1542907718.872,26.367,16.113,31.738,88.867,61.035,0
1542907718.876,34.668,19.043,32.227,90.332,82.520,0
1542907718.880,35.156,20.508,34.180,91.309,73.730,0
1542907718.884,11.230,16.602,33.691,89.844,-10.254,0
1542907718.888,4.883,15.625,32.227,79.102,-3.906,0
1542907718.892,1.465,14.160,40.527,76.172,18.066,0
1542907718.895,9.277,13.184,37.109,78.613,10.742,0
1542907718.899,18.555,10.742,37.109,73.242,61.035,0
1542907718.903,22.461,10.254,41.016,77.637,38.086,0
1542907718.907,16.602,15.137,35.156,78.613,-6.836,0
1542907718.911,6.836,19.043,34.668,77.148,-8.301,0
1542907718.915,30.273,12.695,32.715,80.566,-5.859,0
1542907718.919,41.504,10.742,28.809,82.031,45.898,0
1542907718.923,17.578,24.414,35.156,75.195,93.750,0
1542907718.927,2.930,25.391,38.086,56.641,8.301,0
1542907718.931,8.789,14.648,36.621,59.570,-13.672,0
1542907718.934,10.742,8.789,39.551,65.430,16.602,0
1542907718.938,0.977,-0.977,48.340,63.965,-12.695,0
1542907718.942,-1.465,1.465,50.781,63.477,18.555,0
1542907718.946,21.973,10.254,44.434,66.895,21.484,0
1542907718.950,23.926,12.695,44.922,66.895,51.270,0
1542907718.954,-4.395,8.789,44.922,64.453,115.234,0
1542907718.958,-13.184,4.883,45.410,62.012,60.059,0
1542907718.962,0.977,6.348,40.527,57.129,83.496,0
1542907718.966,9.766,6.836,35.156,57.617,72.754,0
1542907718.970,3.418,10.742,39.551,54.199,0.000,0
1542907718.974,8.301,10.742,38.574,57.617,18.066,0
1542907718.977,22.949,11.719,35.156,48.828,23.926,0
1542907718.981,17.090,15.137,36.621,41.504,19.043,0
1542907718.985,17.090,16.113,34.668,55.176,-19.531,0
1542907718.989,36.621,14.648,33.203,55.664,-53.711,0
1542907718.993,25.391,9.766,36.621,62.988,3.906,0
1542907718.997,13.672,5.859,35.645,63.477,45.410,0
1542907719.001,24.902,18.066,33.203,46.387,42.480,0
1542907719.005,20.020,25.391,33.691,50.781,14.648,0
1542907719.009,16.602,22.949,31.738,49.805,-16.113,0
1542907719.013,7.324,26.367,31.738,36.133,23.438,0
1542907719.017,21.973,26.855,30.762,52.246,73.242,0
1542907719.020,30.762,23.926,29.785,54.688,68.848,0
1542907719.024,1.953,20.508,30.762,40.039,27.344,0
1542907719.028,8.789,18.066,29.297,53.223,-19.531,0
1542907719.032,12.207,20.020,33.691,62.500,4.395,0
1542907719.036,9.766,26.367,38.086,57.129,25.879,0
1542907719.040,20.508,27.832,38.086,59.570,38.574,0
1542907719.044,19.043,19.043,43.457,77.637,46.387,0
1542907719.048,27.344,13.672,42.480,76.172,54.199,0
1542907719.052,46.387,26.855,31.738,57.617,37.598,0
1542907719.056,39.062,36.133,24.414,45.898,58.594,0
1542907719.059,6.348,37.109,17.090,32.715,174.805,0
1542907719.063,-3.906,43.457,12.695,45.410,108.887,0
1542907719.067,13.184,51.758,7.812,61.035,5.371,0
1542907719.071,24.414,46.875,1.953,52.246,28.809,0
1542907719.075,3.418,45.898,-1.465,41.504,14.648,0
1542907719.079,21.973,52.246,-2.441,42.969,19.531,0
1542907719.083,11.719,50.781,1.465,46.875,82.520,0
1542907719.087,0.000,43.457,6.836,60.059,44.922,0
1542907719.091,25.879,45.898,14.648,71.289,-19.043,0
1542907719.095,27.832,52.246,14.648,67.383,21.484,0
1542907719.099,33.203,54.199,6.836,62.988,54.199,0
1542907719.102,13.184,47.852,2.930,54.199,53.711,0
1542907719.106,13.184,40.527,5.859,49.316,75.195,0
1542907719.110,37.109,47.852,12.695,50.293,17.578,0
1542907719.114,30.273,49.316,5.371,48.828,3.418,0
1542907719.118,28.809,47.852,-1.465,50.781,30.273,0
1542907719.122,39.062,47.363,11.719,56.641,4.883,0
1542907719.126,34.668,47.852,21.484,58.105,16.602,0
1542907719.130,19.531,49.805,24.414,48.340,30.273,0
1542907719.134,36.133,49.805,22.461,53.223,6.836,0
1542907719.138,41.992,42.969,22.949,60.059,18.066,0
1542907719.142,31.738,40.039,20.996,58.105,-23.438,0
1542907719.145,27.832,36.621,17.578,52.734,-49.805,0
1542907719.149,26.367,40.527,17.578,48.828,28.320,0
1542907719.153,17.090,46.387,20.020,52.246,19.531,0
1542907719.157,6.836,38.086,23.438,55.664,36.621,0
1542907719.161,27.832,37.109,23.926,50.293,26.855,0
1542907719.165,53.223,41.504,24.414,41.992,10.742,0
1542907719.169,67.383,37.109,26.367,37.109,114.258,0
1542907719.173,16.113,33.691,27.344,35.156,99.121,0
1542907719.177,3.418,34.668,28.809,28.809,51.270,0
1542907719.181,32.715,35.156,29.297,26.855,34.180,0
1542907719.184,14.648,36.133,28.320,14.648,28.320,0
1542907719.188,1.953,32.715,28.809,-12.695,47.852,0
1542907719.192,19.531,33.203,37.598,-18.066,20.508,0
1542907719.196,18.066,46.387,49.805,-17.090,37.109,0
1542907719.200,9.766,45.898,50.781,-36.133,61.035,0
1542907719.204,16.113,42.969,39.551,-61.035,38.086,0
1542907719.208,-8.789,45.410,39.551,-81.543,2.930,0
1542907719.212,-36.621,38.086,42.969,-114.258,-2.930,0
1542907719.216,-50.781,46.387,41.016,-131.348,18.066,0
1542907719.220,-52.734,60.059,37.109,-132.812,-19.043,0
1542907719.224,-53.711,71.777,37.598,-128.418,-51.270,0
1542907719.227,-70.801,79.102,41.992,-123.535,20.508,0
1542907719.231,-72.266,83.984,36.621,-139.648,48.340,0
1542907719.235,-76.172,90.820,37.109,-153.809,48.828,0
1542907719.239,-92.285,87.402,43.945,-151.367,62.500,0
1542907719.243,-91.797,83.008,42.480,-148.926,30.273,0
1542907719.247,-77.148,82.031,45.410,-130.371,73.242,0
1542907719.251,-62.988,78.125,49.316,-99.609,74.219,0
1542907719.255,-66.406,69.824,50.293,-102.051,73.242,0
1542907719.259,-59.570,62.012,52.734,-106.934,74.707,0
1542907719.263,-40.527,58.105,49.316,-82.520,-3.418,0
1542907719.267,-24.902,49.316,44.922,-69.336,-15.137,0
1542907719.270,16.602,42.480,39.551,-55.176,62.500,0
1542907719.274,41.504,42.480,34.668,-29.297,67.871,0
1542907719.278,57.617,38.086,36.133,-15.625,2.441,0
1542907719.282,65.918,30.273,31.250,-16.113,-7.324,0
1542907719.286,52.734,25.879,24.414,7.812,36.133,0
1542907719.290,61.035,27.832,25.879,24.902,53.223,0
1542907719.294,67.383,24.902,22.461,29.297,69.336,0
1542907719.298,68.359,21.973,21.484,38.086,40.527,0
1542907719.302,109.375,19.531,22.461,40.527,57.129,0
1542907719.306,117.188,15.625,20.508,50.781,74.707,0
1542907719.309,96.191,19.043,18.066,46.875,24.414,0
1542907719.313,109.375,16.113,18.066,43.945,3.906,0
1542907719.317,120.605,12.695,17.578,43.457,17.090,0
1542907719.321,102.051,11.719,15.137,33.203,4.395,0
1542907719.325,94.727,8.301,16.602,48.340,13.184,0
1542907719.329,102.051,6.836,19.043,50.781,57.617,0
1542907719.333,100.586,8.301,20.996,46.387,30.762,0
1542907719.337,103.027,8.789,21.484,52.246,-1.953,0
1542907719.341,109.863,6.836,17.578,45.898,-4.883,0
1542907719.345,101.074,2.441,17.090,26.855,-6.836,0
1542907719.349,99.609,-1.953,19.531,20.020,27.832,0
1542907719.352,122.559,6.836,18.066,36.133,30.273,0
1542907719.356,91.797,9.766,19.531,24.902,48.340,0
1542907719.360,65.430,9.766,23.438,-1.465,63.477,0
1542907719.364,73.730,11.719,23.926,-0.977,64.941,0
1542907719.368,90.332,13.672,22.949,7.812,65.430,0
1542907719.372,96.680,14.160,23.438,9.766,70.801,0
1542907719.376,69.336,12.695,23.438,4.395,75.195,0
1542907719.380,71.777,17.578,23.926,4.883,16.602,0
1542907719.384,85.449,14.648,27.832,-1.465,60.547,0
1542907719.388,66.895,12.207,28.320,-8.301,57.129,0
1542907719.392,60.059,16.113,23.438,-10.254,5.371,0
1542907719.395,66.406,20.996,20.996,-15.625,18.066,0
1542907719.399,60.547,17.578,23.926,-5.859,36.621,0
1542907719.403,56.641,4.883,23.438,-13.184,34.668,0
1542907719.407,63.965,12.207,22.461,-20.508,-28.320,0
1542907719.411,45.410,20.996,21.484,-12.695,14.160,0
1542907719.415,29.785,14.648,22.949,-17.578,6.836,0
1542907719.419,27.344,16.602,26.367,-19.043,-23.926,0
1542907719.423,33.691,14.648,26.367,-14.160,14.648,0
1542907719.427,44.922,11.719,26.367,-7.324,35.156,0
1542907719.431,44.434,24.902,24.902,2.930,50.293,0
1542907719.434,47.363,27.832,23.438,9.766,-15.625,0
1542907719.438,67.383,27.344,27.344,12.695,-15.137,0
1542907719.442,70.801,27.832,29.785,3.418,59.082,0
1542907719.446,38.574,24.902,21.484,2.441,23.438,0
1542907719.450,46.875,22.461,28.809,7.812,-35.156,0
1542907719.454,73.730,22.461,32.227,-0.977,-5.859,0
1542907719.458,63.477,20.996,27.832,5.859,18.066,0
1542907719.462,47.852,19.043,35.645,10.742,-6.836,0
1542907719.466,60.059,13.184,41.016,33.203,-20.996,0
1542907719.470,60.059,4.395,41.504,39.062,36.621,0
1542907719.474,56.152,6.836,37.598,26.855,36.133,0
1542907719.477,59.082,14.160,35.645,42.969,32.715,0
1542907719.481,65.430,13.672,32.715,39.062,70.801,0
1542907719.485,69.336,16.602,33.203,33.691,65.918,0
1542907719.489,69.824,22.949,34.668,41.504,33.203,0
1542907719.493,71.289,22.949,34.180,34.668,12.695,0
1542907719.497,60.547,19.043,35.645,29.297,44.922,0
1542907719.501,65.430,11.719,35.645,30.273,61.523,0
1542907719.505,54.688,11.719,34.668,34.180,14.160,0
1542907719.509,41.992,20.996,36.621,37.598,33.691,0
1542907719.513,54.199,24.902,37.598,41.016,83.984,0
1542907719.517,47.363,17.090,33.691,42.480,72.266,0
1542907719.520,49.805,16.113,34.180,43.457,28.809,0
1542907719.524,56.152,23.926,35.645,43.945,48.340,0
1542907719.528,50.293,34.180,36.133,45.898,28.809,0
1542907719.532,61.523,29.297,38.574,48.828,16.113,0
1542907719.536,63.965,23.438,36.133,53.711,74.219,0
1542907719.540,59.082,16.602,33.203,56.641,83.496,0
1542907719.544,46.387,6.836,34.668,51.270,64.453,0
1542907719.548,52.734,21.484,31.738,50.293,22.949,0
1542907719.552,36.621,31.738,31.250,51.270,6.348,0
1542907719.556,25.391,31.250,31.250,38.574,36.133,0
1542907719.559,40.039,33.691,25.879,36.621,53.711,0
1542907719.563,44.922,34.668,19.531,27.832,25.391,0
1542907719.567,31.250,28.809,28.809,20.020,-17.090,0
1542907719.571,5.371,22.461,36.133,13.672,-22.461,0
1542907719.575,9.766,20.996,34.180,-7.324,48.828,0
1542907719.579,32.227,23.926,36.133,-19.531,59.082,0
1542907719.583,25.879,26.855,36.133,2.441,41.016,0
1542907719.587,-0.977,30.762,33.203,13.672,35.156,0
1542907719.591,13.672,28.809,31.250,15.137,43.457,0
1542907719.595,38.574,23.438,31.738,29.785,-8.301,0
1542907719.599,18.555,22.461,31.250,37.598,-14.648,0
1542907719.602,12.207,18.555,26.367,35.156,91.797,0
1542907719.606,9.766,16.602,22.461,38.086,39.551,0
1542907719.610,1.465,14.648,20.020,42.969,-44.922,0
1542907719.614,16.602,19.043,22.461,34.668,15.625,0
1542907719.618,32.715,26.855,26.855,35.645,37.109,0
1542907719.622,10.254,25.879,27.832,40.527,-13.672,0
1542907719.626,-11.230,22.461,26.367,33.203,-28.809,0
1542907719.630,8.789,16.113,26.367,39.551,-24.902,0
1542907719.634,40.039,16.113,29.785,36.621,36.621,0
1542907719.638,20.996,23.438,22.461,33.691,51.270,0
1542907719.642,-3.418,24.902,20.996,42.969,12.207,0
1542907719.645,15.137,24.414,29.297,32.715,26.855,0
1542907719.649,19.043,19.531,29.785,31.738,30.762,0
1542907719.653,6.836,19.043,30.273,32.715,-16.113,0
1542907719.657,15.625,21.973,32.227,46.875,8.789,0
1542907719.661,27.832,22.461,31.250,50.293,64.453,0
1542907719.665,10.742,19.531,31.250,44.434,-0.977,0
1542907719.669,15.137,19.531,34.180,45.410,-34.668,0
1542907719.673,16.602,25.879,35.156,48.340,-43.945,0
1542907719.677,10.254,28.809,36.133,41.504,-7.812,0
1542907719.681,10.254,26.855,34.180,31.738,86.426,0
1542907719.684,10.742,23.438,31.738,40.039,85.938,0
1542907719.688,5.371,21.973,34.668,38.574,44.922,0
1542907719.692,20.996,20.996,37.109,24.902,-13.184,0
1542907719.696,37.598,19.531,33.691,18.066,3.906,0
1542907719.700,20.996,23.438,32.227,15.137,22.949,0
1542907719.704,29.785,26.367,31.738,24.414,15.625,0
1542907719.708,29.785,35.645,31.738,34.180,44.922,0
1542907719.712,20.996,33.691,33.203,37.109,10.742,0
1542907719.716,23.438,25.879,37.109,37.598,0.977,0
1542907719.720,16.113,28.320,36.133,25.391,15.137,0
1542907719.724,15.137,21.484,27.832,20.508,-4.395,0
1542907719.727,23.926,23.438,27.832,26.855,3.418,0
1542907719.731,35.645,30.273,32.715,24.902,20.508,0
1542907719.735,27.344,24.902,32.227,20.020,23.438,0
1542907719.739,22.949,16.602,30.762,20.508,54.199,0
1542907719.743,41.504,18.555,33.203,24.414,73.730,0
1542907719.747,41.016,25.391,33.691,12.695,25.879,0
1542907719.751,25.391,27.344,31.250,4.395,61.035,0
1542907719.755,30.762,26.855,33.203,15.625,70.312,0
1542907719.759,29.785,18.555,41.992,17.578,14.160,0
1542907719.763,10.742,11.230,46.387,1.953,20.508,0
1542907719.767,9.766,10.742,53.711,-6.348,72.266,0
1542907719.770,13.184,8.301,62.500,7.324,58.594,0
1542907719.774,2.930,5.371,70.801,9.766,32.227,0
1542907719.778,-16.602,-2.930,77.148,-12.207,14.160,0
1542907719.782,-8.789,-10.254,81.055,-20.996,10.742,0
1542907719.786,-13.672,-15.137,89.355,-17.090,58.105,0
1542907719.790,-20.020,-17.090,93.262,-17.578,85.449,0
1542907719.794,-12.695,-18.555,91.797,-20.508,57.129,0
1542907719.798,-14.160,-23.438,90.820,-23.438,45.410,0
1542907719.802,-19.043,-28.809,90.820,-19.531,14.160,0
1542907719.806,-9.766,-32.715,93.262,-21.484,-38.574,0
1542907719.809,0.000,-35.156,89.844,-20.508,-2.441,0
1542907719.813,-6.836,-34.180,83.496,-4.883,57.129,0
1542907719.817,9.766,-32.227,79.590,3.906,71.777,0
1542907719.821,33.691,-27.344,77.637,6.348,17.578,0
1542907719.825,27.344,-19.043,74.707,-2.441,-37.598,0
1542907719.829,29.297,-13.672,69.824,8.301,-27.832,0
1542907719.833,13.672,-17.578,64.941,14.160,38.086,0
1542907719.837,6.836,-34.668,63.477,9.766,65.918,0
1542907719.841,47.852,-26.367,57.129,15.137,-6.836,0
1542907719.845,58.105,-7.812,49.805,12.207,-47.363,0
1542907719.849,50.293,-6.836,49.805,10.742,-21.484,0
1542907719.852,57.129,-4.395,50.781,9.766,-6.348,0
1542907719.856,37.109,-0.977,49.805,10.742,20.020,0
1542907719.860,30.273,3.906,44.922,0.488,79.590,0
1542907719.864,29.785,2.930,37.109,-13.672,64.941,0
1542907719.868,39.062,1.465,40.527,-5.371,47.363,0
1542907719.872,61.523,3.906,46.875,-1.465,68.359,0
1542907719.876,28.809,4.883,45.410,-11.719,41.504,0
1542907719.880,29.785,1.953,43.457,-12.695,0.977,0
1542907719.884,50.293,1.953,41.504,-0.977,-15.137,0
1542907719.888,26.367,4.395,41.504,-2.441,31.250,0
1542907719.892,51.270,6.348,40.039,2.930,69.824,0
1542907719.895,42.480,5.859,34.668,-1.953,-3.418,0
1542907719.899,8.789,0.000,31.738,-18.555,-5.859,0
1542907719.903,38.086,0.000,29.297,-14.160,63.477,0
1542907719.907,35.156,9.766,28.320,-3.418,80.078,0
1542907719.911,1.953,12.695,31.738,20.996,44.434,0
1542907719.915,33.203,15.137,32.227,35.645,20.020,0
1542907719.919,56.641,14.648,28.320,26.855,20.508,0
1542907719.923,24.414,9.277,25.879,30.762,58.105,0
1542907719.927,18.555,13.184,28.320,34.668,78.125,0
1542907719.931,43.945,14.648,28.320,32.715,68.848,0
1542907719.934,34.180,9.277,26.855,31.250,52.734,0
1542907719.938,44.434,5.859,26.855,33.691,12.207,0
1542907719.942,57.617,11.719,24.902,32.227,17.578,0
1542907719.946,54.199,19.531,28.809,29.297,28.320,0
1542907719.950,66.895,19.043,30.273,35.156,-11.230,0
1542907719.954,60.547,20.020,27.832,21.484,64.453,0
1542907719.958,41.504,25.391,31.250,7.324,40.039,0
1542907719.962,32.227,24.902,34.668,11.230,-48.828,0
1542907719.966,27.832,20.996,35.156,14.160,-8.789,0
1542907719.970,25.391,14.160,33.691,11.719,21.484,0
1542907719.974,34.668,16.602,34.668,-3.906,42.969,0
1542907719.977,30.762,19.531,35.156,-10.742,61.523,0
1542907719.981,19.043,19.043,29.297,-12.695,15.137,0
1542907719.985,17.578,16.113,29.785,-2.930,-5.371,0
1542907719.989,16.602,15.137,30.273,0.977,10.254,0
1542907719.993,29.297,25.391,34.668,-4.395,69.824,0
1542907719.997,48.828,36.133,37.109,-16.113,66.895,0
1542907720.001,32.715,36.133,35.156,-26.367,54.688,0
1542907720.005,8.789,25.879,37.109,-44.922,49.316,0
1542907720.009,11.719,23.438,29.297,-71.777,48.340,0
1542907720.013,5.859,28.320,30.273,-71.777,72.266,0
1542907720.017,-20.020,37.109,42.480,-63.965,74.707,0
1542907720.020,-11.719,59.082,49.316,-78.125,50.781,0
1542907720.024,-8.301,63.477,47.852,-112.305,1.953,0
1542907720.028,-22.949,41.992,39.551,-125.488,5.859,0
1542907720.032,-27.344,60.547,34.668,-125.488,54.199,0
1542907720.036,-56.152,102.539,35.156,-165.039,66.406,0
1542907720.040,-102.539,108.887,32.715,-208.008,56.152,0
1542907720.044,-133.301,104.004,32.715,-242.676,22.949,0
1542907720.048,-159.180,106.934,37.109,-273.926,42.480,0
1542907720.052,-176.758,114.746,37.109,-310.059,13.184,0
1542907720.056,-193.359,124.023,35.156,-335.938,-34.668,0
1542907720.059,-215.820,137.207,31.250,-353.027,51.758,0
1542907720.063,-253.906,142.090,25.391,-372.559,39.551,0
1542907720.067,-280.762,144.043,14.648,-395.020,34.668,0
1542907720.071,-289.551,147.461,8.301,-416.016,42.480,0
1542907720.075,-267.090,149.414,13.672,-397.949,-9.277,0
1542907720.079,-266.602,160.156,16.113,-393.555,16.113,0
1542907720.083,-261.230,138.672,13.672,-397.949,38.574,0
1542907720.087,-227.539,121.582,11.230,-365.234,32.715,0
1542907720.091,-242.676,142.578,8.301,-352.539,37.598,0
1542907720.095,-218.262,163.086,0.977,-353.027,63.477,0
1542907720.099,-201.660,145.020,13.672,-343.262,34.180,0
1542907720.102,-188.477,93.750,27.344,-317.383,1.465,0
1542907720.106,-193.359,109.863,0.488,-312.500,45.898,0
1542907720.110,-195.312,152.832,-6.836,-336.426,95.215,0
1542907720.114,-187.012,148.926,5.859,-318.848,71.289,0
1542907720.118,-159.668,142.578,3.906,-296.387,1.953,0
1542907720.122,-164.062,130.859,5.371,-274.902,30.762,0
1542907720.126,-149.902,122.559,-4.395,-256.836,70.801,0
1542907720.130,-98.145,126.953,-3.906,-238.281,94.727,0
1542907720.134,-110.352,117.188,9.277,-213.379,52.734,0
1542907720.138,-119.629,104.004,10.742,-199.219,-14.160,0
1542907720.142,-77.148,91.309,8.301,-173.828,4.883,0
1542907720.145,-23.926,80.566,-0.977,-156.738,-0.977,0
1542907720.149,-17.578,75.195,-19.043,-131.836,-13.184,0
1542907720.153,-0.977,67.383,-20.020,-100.586,32.715,0
1542907720.157,20.020,59.570,-9.277,-68.848,18.066,0
1542907720.161,62.012,49.805,-12.207,-43.457,-0.977,0
1542907720.165,81.055,38.086,-12.695,-25.391,70.801,0
1542907720.169,83.984,27.344,-9.766,-11.230,70.801,0
1542907720.173,90.820,16.602,-14.648,14.648,83.984,0
1542907720.177,119.141,8.301,-16.602,41.992,66.406,0
1542907720.181,132.812,-0.977,-13.672,61.523,-11.719,0
1542907720.184,134.277,-10.254,-10.742,71.289,8.301,0
1542907720.188,174.805,-14.160,-9.766,73.242,6.348,0
1542907720.192,181.152,-18.555,-3.418,95.215,12.695,0
1542907720.196,172.363,-19.043,-0.977,110.352,8.301,0
1542907720.200,193.359,-27.832,-7.812,109.863,47.852,0
1542907720.204,198.730,-41.992,-9.766,99.609,63.477,0
1542907720.208,171.387,-26.855,-8.301,107.422,3.906,0
1542907720.212,169.434,-14.160,-1.465,117.188,7.324,0
1542907720.216,192.871,-17.578,0.000,104.492,5.859,0
1542907720.220,204.590,-21.973,1.953,95.703,-11.719,0
1542907720.224,181.152,-22.949,5.371,103.027,38.086,0
1542907720.227,185.547,-25.391,8.301,106.445,-12.695,0
1542907720.231,212.891,-24.902,9.277,99.121,-32.715,0
1542907720.235,180.664,-26.855,11.719,109.375,11.719,0
1542907720.239,159.668,-32.227,12.207,108.887,26.367,0
1542907720.243,160.645,-29.785,5.859,95.703,38.574,0
1542907720.247,157.715,-26.367,4.395,87.891,19.531,0
1542907720.251,191.895,-34.180,10.742,96.680,74.707,0
1542907720.255,191.895,-30.762,9.277,102.539,72.754,0
1542907720.259,160.645,-16.113,8.301,78.613,40.527,0
1542907720.263,177.734,-35.156,14.648,73.242,47.852,0
1542907720.267,187.012,-41.504,17.578,61.035,14.160,0
1542907720.270,174.805,-8.789,19.043,39.551,24.902,0
1542907720.274,189.941,-3.418,16.602,41.016,33.691,0
1542907720.278,176.758,-10.254,0.977,39.062,26.855,0
1542907720.282,157.227,-11.230,0.488,43.457,-8.301,0
1542907720.286,182.617,-8.789,12.695,49.805,19.531,0
1542907720.290,183.594,-6.836,13.672,34.668,17.578,0
1542907720.294,166.016,-7.812,19.043,23.438,30.273,0
1542907720.298,146.973,-13.184,27.344,35.645,44.922,0
1542907720.302,111.328,-15.625,24.902,47.363,8.301,0
1542907720.306,144.531,-13.672,21.973,53.711,23.438,0
1542907720.309,154.785,-15.137,20.508,44.922,103.027,0
1542907720.313,115.723,-7.324,22.949,34.180,76.660,0
1542907720.317,129.883,-4.883,21.973,19.043,3.418,0
1542907720.321,145.020,-8.301,16.602,-10.254,30.762,0
1542907720.325,122.559,-4.395,23.438,-18.066,13.184,0
1542907720.329,119.629,-1.953,27.344,-22.461,14.648,0
1542907720.333,100.586,0.977,22.949,-18.555,55.176,0
1542907720.337,87.402,-10.254,24.414,-4.395,56.641,0
1542907720.341,106.934,-19.531,26.855,27.832,61.035,0
1542907720.345,145.020,3.906,16.602,40.039,15.625,0
1542907720.349,119.141,16.113,17.090,19.043,14.648,0
1542907720.352,60.059,-0.977,32.227,20.020,40.527,0
1542907720.356,84.961,-8.789,34.180,19.531,42.969,0
1542907720.360,105.957,-21.484,34.668,14.648,59.570,0
1542907720.364,93.262,-33.691,42.969,26.367,57.617,0
1542907720.368,96.191,-44.434,52.734,43.945,57.617,0
1542907720.372,103.027,-51.270,62.500,66.895,-9.277,0
1542907720.376,88.379,-42.969,63.965,72.754,5.859,0
1542907720.380,102.539,-42.969,69.336,58.594,50.781,0
1542907720.384,100.098,-44.434,71.289,55.176,42.480,0
1542907720.388,95.215,-43.945,75.684,77.637,43.457,0
1542907720.392,90.332,-41.992,87.402,79.590,36.621,0
1542907720.395,90.332,-39.062,83.496,70.801,36.133,0
1542907720.399,95.215,-33.691,79.102,81.543,17.090,0
1542907720.403,96.191,-22.461,79.590,83.984,28.320,0
1542907720.407,105.957,-24.902,83.984,88.867,11.719,0
1542907720.411,120.605,-28.809,87.891,104.492,25.879,0
1542907720.415,120.117,-24.902,87.402,108.887,43.945,0
1542907720.419,98.145,-20.508,80.566,76.172,39.551,0
1542907720.423,87.402,-20.020,79.102,47.363,38.574,0
1542907720.427,90.332,-29.297,79.590,51.270,50.781,0
1542907720.431,75.195,-21.484,68.848,48.828,32.227,0
1542907720.434,57.129,-3.906,67.871,42.480,2.441,0
1542907720.438,61.523,4.395,70.801,45.410,-0.488,0
1542907720.442,64.941,4.883,72.754,45.410,-29.785,0
1542907720.446,82.520,-0.977,74.219,36.133,49.316,0
1542907720.450,74.219,-1.953,68.848,6.348,104.004,0
1542907720.454,76.172,4.883,69.824,-31.738,53.223,0
1542907720.458,90.332,12.207,64.941,-62.012,13.184,0
1542907720.462,70.801,8.789,56.152,-85.938,12.207,0
1542907720.466,72.754,1.465,60.547,-101.074,40.527,0
1542907720.470,51.758,4.883,62.500,-93.750,56.152,0
1542907720.474,35.156,2.930,64.941,-80.078,27.344,0
1542907720.477,63.965,-9.277,59.570,-62.012,12.207,0
1542907720.481,48.828,4.883,47.852,-88.379,-16.113,0
1542907720.485,32.227,20.020,46.387,-99.121,-4.883,0
1542907720.489,53.711,11.719,38.086,-60.059,5.371,0
1542907720.493,42.969,13.672,33.691,-54.199,17.090,0
1542907720.497,43.945,20.996,45.898,-56.641,74.707,0
1542907720.501,56.641,20.020,51.758,-43.457,29.785,0
1542907720.505,27.832,15.137,46.387,-36.133,-34.180,0
1542907720.509,27.832,10.742,46.387,-19.043,23.926,0
1542907720.513,50.293,11.719,48.340,-10.254,39.062,0
1542907720.517,31.250,19.043,42.969,-27.344,19.531,0
1542907720.520,45.410,22.461,40.039,-32.227,5.859,0
1542907720.524,62.500,20.996,43.945,-2.441,-39.062,0
1542907720.528,29.297,28.809,50.293,20.020,-6.836,0
1542907720.532,39.062,18.066,42.480,3.418,11.230,0
1542907720.536,43.945,11.230,24.902,-16.602,5.371,0
1542907720.540,39.551,32.227,31.250,-4.395,33.691,0
1542907720.544,48.340,37.109,39.551,-5.371,30.273,0
1542907720.548,26.367,31.738,41.992,-14.648,34.180,0
1542907720.552,38.086,27.344,31.250,-1.465,51.270,0
1542907720.556,61.035,21.484,22.949,7.812,53.711,0
1542907720.559,46.387,19.043,34.180,12.695,45.898,0
1542907720.563,33.203,21.973,36.621,7.324,-4.883,0
1542907720.567,41.016,24.902,32.715,28.320,-29.297,0
1542907720.571,50.781,22.461,33.203,47.363,2.930,0
1542907720.575,65.430,19.043,40.039,30.762,-1.465,0
1542907720.579,54.688,13.184,44.434,20.996,14.160,0
1542907720.583,47.852,19.531,31.250,23.926,36.133,0
1542907720.587,49.805,30.273,27.832,18.066,22.949,0
1542907720.591,33.203,33.691,35.156,15.137,0.488,0
1542907720.595,51.270,35.156,31.738,8.789,31.250,0
1542907720.599,46.875,25.391,34.180,16.113,35.156,0
1542907720.602,9.766,12.207,39.062,21.973,65.918,0
1542907720.606,13.184,6.836,38.086,28.809,77.148,0
1542907720.610,53.711,28.320,31.250,36.621,44.434,0
1542907720.614,56.641,42.969,29.297,27.344,46.875,0
1542907720.618,20.020,41.504,34.180,21.973,29.785,0
1542907720.622,25.391,38.574,23.926,28.320,41.016,0
1542907720.626,22.461,29.785,25.391,30.273,87.891,0
1542907720.630,33.691,27.832,39.551,45.410,85.449,0
1542907720.634,22.461,27.832,36.621,62.012,21.973,0
1542907720.638,1.465,25.879,32.715,39.551,-0.488,0
1542907720.642,39.062,29.785,31.738,14.648,20.508,0
1542907720.645,72.266,0.000,37.109,26.367,-12.695,0
1542907720.649,22.461,-14.648,40.527,29.297,-29.785,0
1542907720.653,-8.301,39.551,21.484,24.414,-54.688,0
1542907720.657,23.438,60.547,10.742,6.348,-3.418,0
1542907720.661,21.973,46.387,26.367,-26.855,0.000,0
1542907720.665,-3.906,36.621,31.738,-28.809,-35.156,0
1542907720.669,17.090,25.879,30.273,-24.902,6.836,0
1542907720.673,18.555,24.414,27.832,-18.066,63.477,0
1542907720.677,12.207,31.250,20.996,11.230,110.840,0
1542907720.681,30.273,31.738,9.766,17.578,65.430,0
1542907720.684,16.602,22.949,16.602,11.230,43.945,0
1542907720.688,-18.555,20.996,36.133,5.859,93.750,0
1542907720.692,-16.113,27.344,37.598,-15.137,75.684,0
1542907720.696,27.832,36.621,32.227,-10.742,63.477,0
1542907720.700,45.898,33.203,27.832,12.207,85.938,0
1542907720.704,32.715,29.297,23.438,-7.324,90.820,0
1542907720.708,3.906,36.133,28.809,-14.648,91.309,0
1542907720.712,-5.371,31.738,30.273,2.930,27.832,0
1542907720.716,0.000,29.785,18.066,3.418,3.906,0
1542907720.720,7.812,37.109,16.602,-5.859,42.480,0
1542907720.724,39.062,20.996,24.414,-3.418,33.203,0
1542907720.727,31.738,14.160,30.762,0.977,-16.602,0
1542907720.731,-8.789,32.227,29.297,-1.465,-8.789,0
1542907720.735,-18.066,29.785,32.227,-8.301,10.742,0
1542907720.739,6.348,21.973,38.574,-18.066,0.488,0
1542907720.743,4.395,20.020,31.250,-2.441,41.016,0
1542907720.747,-12.207,19.531,31.738,14.160,-1.953,0
1542907720.751,4.395,18.555,25.391,30.273,-64.453,0
1542907720.755,42.969,20.996,2.930,21.973,19.531,0
1542907720.759,35.645,22.461,9.766,1.953,64.941,0
1542907720.763,2.441,21.973,36.133,-2.441,18.555,0
1542907720.767,-0.488,5.859,38.574,3.418,19.043,0
1542907720.770,5.371,-4.883,24.902,9.766,59.570,0
1542907720.774,13.184,20.508,21.484,-12.207,87.891,0
1542907720.778,24.902,46.387,26.855,-10.254,70.801,0
1542907720.782,20.508,46.387,27.832,16.113,52.734,0
1542907720.786,29.297,31.250,26.367,10.254,38.574,0
1542907720.790,52.246,16.602,21.484,7.812,67.871,0
1542907720.794,21.484,26.367,25.879,18.066,41.016,0
1542907720.798,-12.207,32.715,32.715,-11.719,-20.508,0
1542907720.802,-2.930,35.645,26.367,-24.414,-15.137,0
1542907720.806,20.020,41.992,23.438,-19.531,9.766,0
1542907720.809,18.555,28.320,25.391,-25.879,3.418,0
1542907720.813,41.992,24.902,33.203,-36.133,-32.715,0
1542907720.817,48.340,4.883,34.180,-42.480,-15.137,0
1542907720.821,28.809,-27.344,22.461,-40.039,15.137,0
1542907720.825,36.621,18.555,19.531,-61.035,28.320,0
1542907720.829,37.109,53.223,23.438,-73.242,15.137,0
1542907720.833,20.996,41.992,25.879,-72.754,-14.160,0
1542907720.837,26.367,37.109,25.391,-69.824,-26.855,0
1542907720.841,26.367,31.250,24.414,-88.867,-26.855,0
1542907720.845,33.203,23.926,28.320,-82.520,33.691,0
1542907720.849,32.227,19.043,31.738,-73.242,31.250,0
1542907720.852,-1.465,18.066,28.320,-91.309,-24.414,0
1542907720.856,28.320,22.949,24.902,-83.984,33.203,0
1542907720.860,33.203,14.160,25.391,-85.449,77.637,0
1542907720.864,25.391,10.254,26.367,-86.914,62.988,0
1542907720.868,38.086,20.508,23.438,-99.121,44.434,0
1542907720.872,13.672,26.367,23.926,-122.559,13.184,0
1542907720.876,23.926,37.109,35.156,-111.816,47.852,0
1542907720.880,37.109,24.902,32.715,-112.793,53.711,0
1542907720.884,10.742,12.695,33.203,-136.719,18.555,0
1542907720.888,12.695,28.320,36.621,-151.855,41.504,0
1542907720.892,18.555,35.645,30.273,-173.828,84.473,0
1542907720.895,21.484,30.762,20.508,-187.988,101.074,0
1542907720.899,40.039,30.762,29.785,-206.543,52.246,0
1542907720.903,40.527,23.438,34.180,-261.719,27.832,0
1542907720.907,29.785,19.043,36.621,-288.086,12.695,0
1542907720.911,3.418,28.320,39.551,-313.477,19.043,0
1542907720.915,-14.160,24.902,31.738,-351.562,25.879,0
1542907720.919,20.508,25.391,34.668,-329.590,20.996,0
1542907720.923,39.062,29.785,38.086,-316.406,36.621,0
1542907720.927,8.789,27.832,37.598,-351.562,23.926,0
1542907720.931,0.000,28.809,27.832,-383.301,25.391,0
1542907720.934,0.000,24.902,23.438,-395.996,43.457,0
1542907720.938,28.809,28.809,34.180,-410.156,48.340,0
1542907720.942,5.859,9.277,39.062,-435.547,52.734,0
1542907720.946,-14.648,3.418,32.227,-417.480,82.520,0
1542907720.950,9.277,37.109,29.785,-326.660,97.656,0
1542907720.954,36.133,40.039,36.133,-253.906,39.551,0
1542907720.958,31.738,27.344,34.668,-233.887,22.461,0
1542907720.962,21.484,30.762,31.250,-179.199,9.277,0
1542907720.966,34.180,19.531,26.855,-133.301,-0.977,0
1542907720.970,9.766,19.531,19.531,-116.211,39.551,0
1542907720.974,-5.859,40.527,31.738,-95.215,78.613,0
1542907720.977,-5.371,36.133,35.645,-82.031,29.297,0
1542907720.981,0.977,22.461,26.367,-59.082,12.695,0
1542907720.985,21.484,26.855,35.156,-37.598,78.613,0
1542907720.989,35.645,20.996,37.109,-16.602,68.359,0
1542907720.993,28.809,5.859,27.344,-10.254,6.348,0
1542907720.997,3.906,14.648,32.715,-33.203,15.137,0
1542907721.001,8.789,25.879,40.039,-62.988,67.871,0
1542907721.005,25.391,36.133,35.645,-99.121,75.684,0
1542907721.009,21.973,35.156,29.785,-110.840,95.215,0
1542907721.013,23.438,33.203,35.645,-101.074,43.457,0
1542907721.017,20.996,27.832,41.504,-89.355,-4.883,0
1542907721.020,8.301,23.438,32.715,-93.750,43.945,0
1542907721.024,25.391,39.062,27.832,-86.914,71.777,0
1542907721.028,47.852,51.270,30.273,-72.754,15.137,0
1542907721.032,34.180,51.270,34.180,-57.617,-41.016,0
1542907721.036,5.859,24.902,40.527,-54.199,18.555,0
1542907721.040,4.395,19.531,34.180,-71.289,51.270,0
1542907721.044,-3.418,42.969,24.902,-70.312,75.684,0
1542907721.048,2.930,44.922,20.508,-50.293,100.098,0
1542907721.052,25.879,37.598,25.391,-43.457,44.922,0
1542907721.056,22.949,25.391,41.504,-54.199,31.250,0
1542907721.059,24.414,22.949,37.109,-61.523,73.242,0
1542907721.063,26.855,40.039,27.344,-53.223,23.926,0
1542907721.067,10.254,42.480,31.250,-50.781,50.293,0
1542907721.071,16.602,31.738,35.645,-51.270,70.801,0
1542907721.075,-2.441,27.832,37.109,-37.109,22.949,0
1542907721.079,-1.465,29.297,38.574,-33.691,19.531,0
1542907721.083,28.320,32.227,32.227,-55.664,36.133,0
1542907721.087,7.812,41.504,26.367,-71.289,18.066,0
1542907721.091,19.531,29.785,29.297,-67.383,31.250,0
1542907721.095,32.227,17.578,34.180,-58.105,75.195,0
1542907721.099,42.480,29.297,34.180,-56.641,47.363,0
1542907721.102,35.156,35.156,32.227,-45.410,-11.719,0
1542907721.106,7.324,42.969,30.762,-49.316,7.324,0
1542907721.110,-4.883,40.527,25.391,-48.828,41.504,0
1542907721.114,-6.836,35.156,21.973,-49.805,11.230,0
1542907721.118,0.000,38.086,26.855,-68.848,10.742,0
1542907721.122,20.996,26.855,33.203,-62.012,31.738,0
1542907721.126,35.645,20.508,31.250,-39.062,-4.395,0
1542907721.130,15.137,31.250,29.297,-29.785,27.832,0
1542907721.134,-4.395,33.691,31.738,-40.039,35.156,0
1542907721.138,1.953,35.156,28.809,-39.551,18.066,0
1542907721.142,0.488,33.691,25.391,-47.852,41.504,0
1542907721.145,4.395,31.250,25.879,-31.250,22.461,0
1542907721.149,48.828,20.020,32.227,-10.254,30.273,0
1542907721.153,32.715,11.230,32.715,-11.719,-18.555,0
1542907721.157,-6.836,31.738,32.227,-27.344,37.109,0
1542907721.161,9.766,46.387,39.551,-46.387,83.496,0
1542907721.165,10.254,41.016,37.598,-37.598,3.906,0
1542907721.169,19.043,35.645,31.250,-28.320,19.531,0
1542907721.173,28.320,36.621,34.668,-20.996,-14.160,0
1542907721.177,14.160,42.969,32.715,-31.738,-31.738,0
1542907721.181,22.949,40.527,34.668,-34.668,23.926,0
1542907721.184,30.762,41.992,40.527,-21.484,20.020,0
1542907721.188,32.227,37.598,35.156,-21.484,40.039,0
1542907721.192,16.602,25.879,34.180,-21.484,14.648,0
1542907721.196,24.414,33.691,33.203,-27.832,20.508,0
1542907721.200,29.297,40.527,28.320,-13.184,50.293,0
1542907721.204,2.930,39.062,33.203,8.301,15.137,0
1542907721.208,1.465,31.738,38.086,4.883,-7.324,0
1542907721.212,5.859,20.996,43.945,15.137,-12.207,0
1542907721.216,8.789,15.137,41.504,24.902,26.855,0
1542907721.220,8.789,27.832,37.598,27.832,19.531,0
1542907721.224,-2.441,26.855,41.992,44.434,16.113,0
1542907721.227,-0.488,31.738,37.598,45.898,29.785,0
1542907721.231,20.020,30.273,26.367,27.832,37.109,0
1542907721.235,19.531,20.996,21.973,39.062,8.789,0
1542907721.239,21.484,24.902,27.832,63.477,11.719,0
1542907721.243,13.672,17.578,34.668,52.246,10.742,0
1542907721.247,-4.395,38.574,35.645,37.109,-11.719,0
1542907721.251,14.160,53.223,31.250,53.223,9.277,0
1542907721.255,0.977,43.457,29.297,77.148,19.043,0
1542907721.259,-4.395,24.414,35.645,76.172,40.039,0
1542907721.263,7.812,26.367,37.109,74.707,55.176,0
1542907721.267,-15.625,31.250,35.645,75.195,46.387,0
1542907721.270,3.906,23.438,29.785,70.801,40.039,0
1542907721.274,18.555,20.996,27.832,78.613,71.777,0
1542907721.278,-4.395,23.438,33.203,97.656,98.145,0
1542907721.282,0.977,22.949,27.832,107.910,55.176,0
1542907721.286,-7.324,21.484,32.227,91.797,31.738,0
1542907721.290,9.766,19.531,43.457,120.605,51.270,0
1542907721.294,23.926,12.695,29.785,142.578,23.926,0
1542907721.298,6.836,25.879,25.879,93.750,38.574,0
1542907721.302,-10.742,52.734,35.156,77.148,34.668,0
1542907721.306,-4.395,43.945,25.879,92.285,-1.953,0
1542907721.309,2.930,23.926,27.832,80.566,23.926,0
1542907721.313,-14.648,24.414,37.598,82.520,5.859,0
1542907721.317,-4.883,26.855,41.504,97.656,11.230,0
1542907721.321,-9.766,24.902,34.180,94.727,9.766,0
1542907721.325,0.000,27.832,26.367,83.984,50.781,0
1542907721.329,2.441,30.762,29.297,77.637,27.344,0
1542907721.333,0.000,31.250,32.227,76.172,-18.555,0
1542907721.337,42.480,31.250,43.457,88.379,41.016,0
1542907721.341,49.316,35.645,48.828,90.820,72.754,0
1542907721.345,11.719,34.668,35.156,88.867,91.309,0
1542907721.349,4.395,37.598,26.855,75.195,71.289,0
1542907721.352,35.156,45.898,27.832,69.336,-0.977,0
1542907721.356,21.484,26.855,31.738,77.637,-8.301,0
1542907721.360,3.906,20.020,27.832,72.754,2.441,0
1542907721.364,13.672,36.621,26.855,74.707,-0.488,0
1542907721.368,5.859,37.109,31.738,71.289,56.641,0
1542907721.372,10.742,31.738,32.227,76.172,39.062,0
1542907721.376,14.648,30.762,29.785,66.895,-10.254,0
1542907721.380,22.949,25.879,33.203,54.688,7.812,0
1542907721.384,13.672,22.461,36.133,63.965,14.648,0
1542907721.388,5.371,27.344,33.203,60.547,-22.461,0
1542907721.392,-6.836,28.320,32.227,45.898,-10.742,0
1542907721.395,18.066,30.273,27.344,26.855,39.062,0
1542907721.399,32.715,17.578,21.484,20.508,49.805,0
1542907721.403,3.906,1.953,33.691,34.668,14.648,0
1542907721.407,10.254,20.020,41.016,44.434,-16.602,0
1542907721.411,22.949,38.574,27.832,32.715,18.555,0
1542907721.415,0.977,44.922,22.949,0.000,68.359,0
1542907721.419,-0.488,49.316,30.762,-13.184,67.383,0
1542907721.423,16.113,34.668,41.504,14.648,11.230,0
1542907721.427,7.324,23.926,46.875,17.090,12.695,0
1542907721.431,10.742,35.645,37.109,-4.883,49.805,0
1542907721.434,50.293,38.574,28.320,-13.672,65.430,0
1542907721.438,33.691,21.484,39.062,3.418,54.688,0
1542907721.442,6.836,26.367,46.875,6.348,54.688,0
1542907721.446,12.207,38.574,40.039,-12.695,40.039,0
1542907721.450,-4.395,31.250,27.344,-11.719,-15.137,0
1542907721.454,4.395,29.785,30.762,-9.277,-21.484,0
1542907721.458,31.738,23.926,37.598,-8.789,30.273,0
1542907721.462,18.555,20.020,25.391,2.441,46.387,0
1542907721.466,13.184,36.621,29.785,8.301,32.227,0
1542907721.470,24.414,41.992,37.598,7.812,39.551,0
1542907721.474,15.625,38.574,36.621,9.766,36.621,0
1542907721.477,-3.418,31.250,38.086,8.301,43.457,0
1542907721.481,15.137,15.625,32.227,9.277,30.273,0
1542907721.485,15.625,19.043,28.320,4.395,4.883,0
1542907721.489,-6.348,32.227,30.273,13.672,51.758,0
1542907721.493,24.902,37.109,33.203,28.809,62.012,0
1542907721.497,10.742,30.273,39.551,19.531,0.488,0
1542907721.501,12.207,21.484,39.062,21.484,11.230,0
1542907721.505,-4.395,21.973,39.551,14.160,51.758,0
1542907721.509,-16.602,27.344,37.109,16.602,19.043,0
1542907721.513,21.973,26.367,38.574,30.273,-20.020,0
1542907721.517,17.090,15.625,39.062,39.551,-17.578,0
1542907721.520,6.348,16.113,35.156,43.945,3.906,0
1542907721.524,11.230,23.438,28.809,29.297,19.043,0
1542907721.528,10.742,26.367,27.344,22.461,30.273,0
1542907721.532,12.207,44.922,29.297,29.785,68.848,0
1542907721.536,6.836,46.875,30.273,15.137,109.863,0
1542907721.540,19.531,33.691,30.273,14.160,78.125,0
1542907721.544,17.090,31.738,28.809,26.367,25.879,0
1542907721.548,7.812,23.926,34.668,31.738,25.879,0
1542907721.552,-7.812,20.996,40.039,29.297,69.336,0
1542907721.556,9.766,31.738,32.227,10.254,36.621,0
1542907721.559,19.043,40.527,32.227,24.414,-5.371,0
1542907721.563,0.000,37.109,37.109,42.480,44.922,0
1542907721.567,22.949,26.367,38.086,47.852,92.773,0
1542907721.571,7.812,25.391,35.156,48.340,57.617,0
1542907721.575,-2.930,27.344,23.438,31.738,18.555,0
1542907721.579,33.203,25.391,26.855,49.316,-2.441,0
1542907721.583,32.227,10.254,40.527,58.594,8.789,0
1542907721.587,29.785,-1.465,46.875,56.641,27.344,0
1542907721.591,17.090,19.531,36.621,60.059,26.855,0
1542907721.595,-3.418,36.621,19.531,40.527,32.715,0
1542907721.599,5.859,35.645,20.020,44.434,24.414,0
1542907721.602,15.625,17.578,30.273,55.176,41.504,0
1542907721.606,13.184,17.090,36.621,52.734,38.574,0
1542907721.610,9.277,24.902,36.133,58.105,12.207,0
1542907721.614,20.996,23.438,32.227,65.918,63.965,0
1542907721.618,41.016,32.227,31.250,73.242,89.844,0
1542907721.622,49.316,30.762,32.715,67.871,95.215,0
1542907721.626,42.969,26.855,26.367,51.270,41.504,0
1542907721.630,14.160,11.230,29.297,59.570,42.480,0
1542907721.634,2.441,3.906,38.086,62.012,89.355,0
1542907721.638,0.488,19.531,31.738,53.223,66.406,0
1542907721.642,6.348,25.391,24.902,58.594,86.426,0
1542907721.645,-0.977,19.531,25.879,72.754,83.008,0
1542907721.649,13.184,19.531,29.785,72.754,78.125,0
1542907721.653,27.832,26.855,31.250,61.523,93.750,0
1542907721.657,13.184,20.996,32.715,72.754,84.473,0
1542907721.661,-6.836,13.184,36.621,88.379,70.312,0
1542907721.665,18.555,20.996,31.738,94.238,35.156,0
1542907721.669,37.598,41.504,18.066,83.008,30.762,0
1542907721.673,9.766,39.062,14.160,69.824,75.195,0
1542907721.677,6.836,18.555,18.555,52.246,67.383,0
1542907721.681,-1.953,50.781,9.766,30.273,49.805,0
1542907721.684,-15.625,94.238,-7.324,11.230,61.523,0
1542907721.688,-43.945,94.727,-14.648,0.977,52.734,0
1542907721.692,-39.062,88.379,-17.578,13.184,31.250,0
1542907721.696,-26.855,92.285,-21.484,8.301,-8.789,0
1542907721.700,-41.992,94.238,-23.438,1.953,-6.836,0
1542907721.704,-35.645,87.402,-15.137,6.836,62.012,0
1542907721.708,-34.180,78.613,-13.184,10.254,34.180,0
1542907721.712,-24.414,75.684,-18.066,20.996,-3.418,0
1542907721.716,-10.742,77.637,-18.555,31.738,21.484,0
1542907721.720,-11.719,68.359,-12.207,27.832,-22.949,0
1542907721.724,-7.812,46.387,-2.441,30.762,-35.645,0
1542907721.727,-4.883,49.805,1.465,41.992,18.066,0
1542907721.731,0.000,63.965,-0.488,33.203,41.992,0
1542907721.735,11.230,68.848,-4.395,40.039,32.715,0
1542907721.739,24.902,51.758,-2.441,57.617,-18.555,0
1542907721.743,32.227,30.762,1.953,65.918,16.113,0
1542907721.747,21.484,48.340,-3.906,64.453,33.203,0
1542907721.751,24.902,62.988,-11.719,63.965,-3.906,0
1542907721.755,27.344,59.082,-4.883,63.965,17.090,0
1542907721.759,30.273,52.246,6.348,64.941,43.945,0
1542907721.763,27.832,43.457,14.160,69.824,42.480,0
1542907721.767,18.555,37.598,17.090,66.406,51.270,0
1542907721.770,28.320,39.062,10.742,62.500,82.031,0
1542907721.774,40.039,41.504,4.883,73.730,63.965,0
1542907721.778,26.855,46.875,7.324,72.754,36.621,0
1542907721.782,29.297,49.316,17.090,54.199,41.016,0
1542907721.786,34.180,33.203,13.672,55.176,10.742,0
1542907721.790,32.715,20.508,6.836,63.965,49.316,0
1542907721.794,26.855,42.969,11.230,62.988,113.281,0
1542907721.798,20.508,48.340,16.113,54.688,53.711,0
1542907721.802,15.137,39.551,21.484,44.922,11.719,0
1542907721.806,16.602,46.387,24.414,48.828,1.953,0
1542907721.809,50.293,41.992,31.250,51.758,18.066,0
1542907721.813,50.781,39.062,26.855,46.875,75.684,0
1542907721.817,12.695,47.363,19.043,32.715,85.449,0
1542907721.821,16.602,35.156,23.926,24.414,2.441,0
1542907721.825,12.695,28.809,32.227,31.250,4.883,0
1542907721.829,3.906,27.344,26.367,33.203,80.566,0
1542907721.833,21.484,18.066,18.555,41.504,58.105,0
1542907721.837,42.969,19.043,20.508,36.133,28.809,0
1542907721.841,26.855,27.344,26.367,28.809,22.461,0
1542907721.845,18.555,40.039,26.855,38.574,-1.953,0
1542907721.849,24.902,41.016,29.785,39.062,-14.648,0
1542907721.852,8.301,37.109,28.809,28.320,54.688,0
1542907721.856,7.812,34.180,24.414,35.645,9.277,0
1542907721.860,15.137,28.809,22.461,53.711,-28.809,0
1542907721.864,15.625,27.344,21.973,47.852,13.184,0
1542907721.868,20.508,28.809,28.320,47.852,-30.273,0
1542907721.872,25.391,30.273,36.133,46.387,-29.297,0
1542907721.876,27.832,28.809,37.109,42.480,16.602,0
1542907721.880,21.484,22.461,32.715,39.551,3.418,0
1542907721.884,13.184,26.855,33.203,28.320,16.113,0
1542907721.888,16.113,31.738,34.668,25.391,39.062,0
1542907721.892,22.949,22.461,28.809,23.926,51.758,0
1542907721.895,25.879,33.691,26.367,23.438,28.809,0
1542907721.899,14.648,-1.465,34.180,23.438,10.742,0
1542907721.903,-1.953,-20.996,38.086,9.277,77.148,0
1542907721.907,-3.418,48.828,34.668,-15.625,93.262,0
1542907721.911,18.066,65.918,30.273,-15.137,52.734,0
1542907721.915,3.906,42.969,32.227,2.930,17.090,0
1542907721.919,-2.930,36.133,32.227,3.418,10.254,0
1542907721.923,8.789,41.504,26.855,-2.930,31.738,0
1542907721.927,-0.488,45.898,17.578,-12.207,45.898,0
1542907721.931,-12.695,41.504,22.949,-13.184,74.219,0
1542907721.934,-5.859,33.691,35.645,-13.672,90.332,0
1542907721.938,6.836,29.297,37.598,-12.207,44.434,0
1542907721.942,-14.160,31.738,35.645,-14.160,51.758,0
1542907721.946,-25.391,26.367,34.668,-20.996,48.340,0
1542907721.950,-11.230,22.949,36.133,-10.254,23.438,0
1542907721.954,11.230,26.855,32.715,-16.113,77.148,0
1542907721.958,16.113,40.527,28.809,-15.137,2.930,0
1542907721.962,21.484,35.156,25.879,-9.277,-56.152,0
1542907721.966,-3.418,21.973,20.996,-27.344,32.227,0
1542907721.970,-26.855,34.180,31.250,-43.945,28.809,0
1542907721.974,-17.578,30.273,41.992,-33.691,30.762,0
1542907721.977,8.301,28.320,40.039,-28.320,62.988,0
1542907721.981,0.977,35.156,34.668,-25.391,46.875,0
1542907721.985,-14.160,39.551,34.180,-19.043,30.762,0
1542907721.989,1.953,39.062,38.086,-18.066,-18.066,0
1542907721.993,-1.465,35.645,32.227,-14.160,-24.902,0
1542907721.997,-8.789,23.926,26.367,-14.648,49.805,0
1542907722.001,-1.953,25.391,30.273,-14.160,28.320,0
1542907722.005,-5.371,35.156,20.508,-21.484,-6.836,0
1542907722.009,-3.906,35.645,13.672,-17.578,35.156,0
1542907722.013,3.418,33.691,26.855,-2.441,2.441,0
1542907722.017,16.113,33.691,33.203,-16.113,-8.789,0
1542907722.020,27.832,37.598,35.156,-20.508,-4.395,0
1542907722.024,25.391,24.414,31.738,-2.930,-14.160,0
1542907722.028,7.812,27.344,24.902,-34.668,27.344,0
1542907722.032,-18.066,39.551,35.645,-81.055,53.223,0
1542907722.036,-49.316,38.574,32.715,-76.660,34.180,0
1542907722.040,-77.148,50.293,13.672,-90.820,-3.906,0
1542907722.044,-66.895,62.012,14.160,-110.840,7.324,0
1542907722.048,-70.312,73.242,15.625,-107.422,6.348,0
1542907722.052,-71.777,35.156,28.809,-108.887,-4.395,0
1542907722.056,-80.566,6.836,20.020,-125.977,49.316,0
1542907722.059,-102.539,65.918,-8.301,-163.574,55.176,0
1542907722.063,-113.281,99.609,-7.812,-172.363,68.848,0
1542907722.067,-101.562,86.914,-3.418,-153.320,-0.488,0
1542907722.071,-92.773,63.965,2.441,-162.598,1.465,0
1542907722.075,-85.449,62.500,12.207,-178.223,34.180,0
1542907722.079,-85.938,66.406,-1.465,-156.738,31.738,0
1542907722.083,-86.426,68.848,-4.883,-136.719,77.148,0
1542907722.087,-62.012,54.688,11.719,-144.043,70.312,0
1542907722.091,-62.500,25.391,10.742,-132.324,26.367,0
1542907722.095,-51.270,14.160,4.395,-109.863,0.488,0
1542907722.099,-22.949,27.832,3.906,-97.656,43.457,0
1542907722.102,13.184,42.480,9.277,-92.773,69.824,0
1542907722.106,24.902,36.133,4.883,-75.195,42.969,0
1542907722.110,6.836,19.531,-5.859,-65.430,36.621,0
1542907722.114,25.391,28.320,4.395,-67.871,52.246,0
1542907722.118,57.129,40.527,28.809,-62.500,84.473,0
1542907722.122,54.688,37.598,36.621,-52.734,40.039,0
1542907722.126,36.133,13.184,22.949,-47.363,0.000,0
1542907722.130,45.410,-0.488,26.855,-55.664,8.301,0
1542907722.134,60.547,23.438,27.344,-45.898,3.906,0
1542907722.138,49.805,31.250,19.043,-36.621,10.742,0
1542907722.142,63.477,24.414,21.973,-49.805,-5.859,0
1542907722.145,93.750,3.418,28.809,-27.344,12.207,0
1542907722.149,105.957,6.836,26.855,-20.020,-5.371,0
1542907722.153,74.707,32.715,24.414,-57.617,-3.418,0
1542907722.157,71.289,35.156,27.344,-58.594,13.184,0
1542907722.161,82.031,34.668,19.531,-36.133,82.031,0
1542907722.165,100.098,23.438,25.391,-31.250,48.828,0
1542907722.169,107.910,8.789,46.387,-35.645,-18.555,0
1542907722.173,70.801,13.184,42.969,-41.504,18.555,0
1542907722.177,64.453,20.020,27.344,-45.410,53.223,0
1542907722.181,75.684,19.043,29.785,-49.805,10.742,0
1542907722.184,72.266,16.113,30.762,-48.340,29.785,0
1542907722.188,80.078,-21.973,34.668,-38.574,35.645,0
1542907722.192,75.195,-16.602,39.062,-47.852,-7.812,0
1542907722.196,83.984,32.715,26.855,-78.613,-9.277,0
1542907722.200,83.008,31.738,27.344,-93.262,-16.602,0
1542907722.204,77.148,24.902,37.109,-85.938,12.695,0
1542907722.208,72.754,22.949,27.344,-97.168,34.668,0
1542907722.212,63.965,20.020,34.180,-101.074,41.016,0
1542907722.216,62.500,26.855,41.016,-88.379,30.273,0
1542907722.220,73.242,26.367,30.273,-99.121,33.203,0
1542907722.224,83.008,24.414,33.691,-105.957,41.016,0
1542907722.227,38.574,16.602,29.785,-104.492,43.457,0
1542907722.231,38.086,6.348,24.414,-109.375,46.387,0
1542907722.235,60.547,9.277,36.621,-121.582,20.996,0
1542907722.239,60.059,19.531,38.574,-127.930,32.227,0
1542907722.243,60.059,24.414,35.645,-129.395,22.949,0
1542907722.247,36.133,22.461,28.809,-118.652,25.879,0
1542907722.251,23.926,23.926,25.879,-98.633,43.945,0
1542907722.255,36.621,26.367,36.133,-105.957,10.742,0
1542907722.259,45.410,15.625,39.062,-107.422,-28.809,0
1542907722.263,61.035,3.418,41.504,-88.867,-38.574,0
1542907722.267,58.594,13.184,46.875,-83.496,57.617,0
1542907722.270,40.039,26.367,35.156,-99.609,55.176,0
1542907722.274,39.062,32.227,21.973,-113.770,21.484,0
1542907722.278,58.594,32.227,20.508,-99.609,87.402,0
1542907722.282,72.266,38.574,16.113,-91.797,40.039,0
1542907722.286,52.246,41.016,11.230,-126.465,5.371,0
1542907722.290,41.992,33.203,17.578,-132.324,29.785,0
1542907722.294,19.043,39.551,24.902,-125.488,-6.348,0
1542907722.298,32.715,30.273,28.809,-125.977,4.395,0
1542907722.302,37.598,-0.977,22.949,-130.859,23.438,0
1542907722.306,24.414,21.973,20.508,-129.883,37.109,0
1542907722.309,35.645,57.617,20.996,-115.723,62.988,0
1542907722.313,37.109,46.387,12.207,-139.160,46.387,0
1542907722.317,20.020,29.297,17.578,-146.973,41.992,0
1542907722.321,38.086,22.461,33.691,-140.625,17.578,0
1542907722.325,57.617,29.785,40.039,-128.906,-7.324,0
1542907722.329,27.344,33.691,36.621,-114.258,-28.809,0
1542907722.333,28.320,21.973,32.715,-99.609,4.395,0
1542907722.337,27.344,11.719,35.156,-92.773,41.504,0
1542907722.341,27.832,16.602,28.320,-80.566,37.109,0
1542907722.345,50.781,31.250,23.926,-63.477,43.945,0
1542907722.349,36.133,39.551,26.855,-62.500,29.297,0
1542907722.352,12.207,31.250,31.250,-54.199,25.879,0
1542907722.356,41.016,14.648,30.762,-33.691,24.902,0
1542907722.360,31.738,16.602,30.762,-31.250,2.441,0
1542907722.364,13.672,27.344,26.855,-48.828,19.531,0
1542907722.368,55.664,10.254,24.902,-43.457,20.996,0
1542907722.372,63.477,11.719,23.926,-37.598,66.406,0
1542907722.376,29.297,33.691,25.391,-43.457,88.867,0
1542907722.380,18.066,25.879,37.109,-47.363,3.906,0
1542907722.384,36.133,19.043,41.016,-62.012,27.344,0
1542907722.388,30.273,26.855,41.504,-71.289,51.270,0
1542907722.392,0.488,20.996,32.715,-75.195,51.758,0
1542907722.395,20.996,15.625,30.762,-70.801,82.520,0
1542907722.399,32.227,8.301,37.109,-60.547,59.082,0
1542907722.403,16.602,6.348,35.156,-74.707,49.316,0
1542907722.407,23.926,17.090,30.273,-83.984,83.008,0
1542907722.411,43.457,11.719,34.180,-84.961,19.531,0
1542907722.415,28.809,30.762,41.992,-99.121,-20.996,0
1542907722.419,9.277,48.340,41.016,-88.379,23.438,0
1542907722.423,4.883,35.156,38.574,-81.055,25.391,0
1542907722.427,-9.277,33.203,37.109,-90.820,43.457,0
1542907722.431,7.812,35.645,37.598,-93.750,55.176,0
1542907722.434,27.344,26.855,32.715,-102.051,90.332,0
1542907722.438,33.203,37.109,33.691,-103.027,97.168,0
1542907722.442,40.039,43.457,34.180,-115.723,34.668,0
1542907722.446,20.508,29.297,27.344,-120.117,-2.930,0
1542907722.450,29.297,27.832,30.762,-117.188,-19.531,0
1542907722.454,20.996,33.203,37.109,-121.094,-18.555,0
1542907722.458,25.879,37.598,34.668,-118.652,37.109,0
1542907722.462,69.824,37.598,32.715,-110.840,39.062,0
1542907722.466,28.809,37.109,24.414,-112.793,21.973,0
1542907722.470,20.020,37.109,30.273,-105.469,12.207,0
1542907722.474,28.809,29.785,29.297,-111.328,64.941,0
1542907722.477,10.254,29.297,28.809,-126.465,119.141,0
1542907722.481,7.324,33.691,48.340,-122.559,61.523,0
1542907722.485,9.277,27.344,50.781,-131.348,99.121,0
1542907722.489,34.180,17.090,48.340,-131.348,120.117,0
1542907722.493,36.621,25.879,43.945,-120.117,58.594,0
1542907722.497,32.715,37.598,42.969,-122.070,90.820,0
1542907722.501,22.461,33.203,43.457,-123.047,64.941,0
1542907722.505,14.160,30.762,33.691,-126.465,20.996,0
1542907722.509,40.527,33.691,34.180,-129.883,19.531,0
1542907722.513,48.828,32.715,36.621,-121.582,7.324,0
1542907722.517,22.949,25.879,38.086,-119.629,39.551,0
1542907722.520,9.766,29.297,36.133,-140.625,26.367,0
1542907722.524,14.648,36.621,23.438,-126.465,31.250,0
1542907722.528,23.926,35.645,28.809,-110.840,3.418,0
1542907722.532,18.066,38.086,43.945,-119.141,-89.844,0
1542907722.536,23.438,36.621,41.992,-109.863,-38.574,0
1542907722.540,59.082,27.832,39.551,-103.516,58.105,0
1542907722.544,79.102,22.949,35.156,-139.160,54.199,0
1542907722.548,45.898,23.438,32.715,-160.156,22.949,0
1542907722.552,20.508,32.715,31.250,-186.035,31.738,0
1542907722.556,18.066,41.992,29.785,-219.727,22.949,0
1542907722.559,21.973,41.504,31.250,-218.750,-7.812,0
1542907722.563,31.250,36.133,33.203,-211.914,-15.625,0
1542907722.567,48.828,31.738,33.691,-193.359,-2.441,0
1542907722.571,46.875,30.762,27.344,-196.289,-34.668,0
1542907722.575,32.227,28.320,23.438,-203.613,-43.457,0
1542907722.579,34.668,22.949,28.809,-197.266,67.871,0
1542907722.583,23.926,16.113,36.133,-189.941,120.605,0
1542907722.587,30.762,20.996,35.156,-187.012,14.160,0
1542907722.591,42.480,24.902,33.203,-180.176,-83.496,0
1542907722.595,38.086,23.438,37.598,-156.250,35.645,0
1542907722.599,47.363,23.438,31.738,-150.391,125.000,0
1542907722.602,41.992,17.090,34.180,-136.230,43.945,0
1542907722.606,35.645,16.602,33.203,-117.676,38.574,0
1542907722.610,26.855,24.902,20.020,-115.723,74.707,0
1542907722.614,38.086,23.926,25.391,-99.609,7.324,0
1542907722.618,58.594,20.508,35.645,-78.125,-26.855,0
1542907722.622,46.387,35.156,22.461,-53.711,-13.184,0
1542907722.626,46.875,47.363,15.137,-41.504,31.738,0
1542907722.630,48.828,34.668,36.133,-49.316,61.035,0
1542907722.634,40.527,23.926,41.504,-32.227,79.590,0
1542907722.638,72.754,28.809,39.062,-12.695,25.879,0
1542907722.642,62.012,29.297,43.457,-29.785,46.387,0
1542907722.645,13.672,25.391,45.898,-32.227,70.312,0
1542907722.649,13.672,19.531,42.480,-12.695,21.484,0
1542907722.653,16.113,16.113,43.945,-9.766,-3.418,0
1542907722.657,0.488,21.484,48.340,-5.859,31.250,0
1542907722.661,-13.184,16.113,42.480,1.465,29.297,0
1542907722.665,-8.301,8.301,33.691,-1.465,1.465,0
1542907722.669,6.348,13.672,33.691,2.930,39.551,0
1542907722.673,1.953,14.648,34.180,13.184,30.273,0
1542907722.677,0.000,12.207,39.551,19.043,19.531,0
1542907722.681,19.043,20.508,43.457,22.461,37.109,0
1542907722.684,20.508,23.926,39.551,34.668,13.672,0
1542907722.688,16.602,20.996,28.809,41.504,3.906,0
1542907722.692,12.695,14.648,22.949,39.062,17.578,0
1542907722.696,18.066,16.113,32.227,47.852,-3.906,0
1542907722.700,28.809,16.113,34.668,54.688,9.766,0
1542907722.704,20.996,11.719,30.762,54.688,78.613,0
1542907722.708,1.953,18.066,36.133,50.781,83.984,0
1542907722.712,-4.395,20.020,32.715,42.969,15.625,0
1542907722.716,8.789,24.414,29.297,50.781,0.488,0
1542907722.720,5.859,23.438,22.949,58.105,-4.883,0
1542907722.724,13.184,16.602,22.949,59.082,10.742,0
1542907722.727,28.809,13.184,33.691,66.406,34.180,0
1542907722.731,23.438,14.160,34.180,68.848,16.113,0
1542907722.735,14.648,15.625,34.180,64.453,1.953,0
1542907722.739,20.996,16.602,31.250,62.988,3.418,0
1542907722.743,28.809,16.113,25.879,68.848,7.812,0
1542907722.747,30.273,19.531,32.715,57.129,34.180,0
1542907722.751,21.484,17.578,33.691,34.180,66.895,0
1542907722.755,7.324,18.066,25.391,39.062,79.590,0
1542907722.759,6.348,20.020,25.879,51.758,23.926,0
1542907722.763,2.930,15.625,29.297,34.668,1.953,0
1542907722.767,2.930,22.461,30.273,31.250,10.254,0
1542907722.770,12.207,21.484,31.250,41.016,15.625,0
1542907722.774,21.484,15.625,25.391,32.227,23.926,0
1542907722.778,5.371,16.113,23.438,24.414,19.531,0
1542907722.782,11.230,20.996,26.855,22.949,41.992,0
1542907722.786,20.996,28.809,30.762,22.949,51.758,0
1542907722.790,4.883,26.367,32.227,35.645,24.902,0
1542907722.794,6.348,22.461,27.832,43.945,-0.977,0
1542907722.798,26.855,20.996,22.461,55.664,28.320,0
1542907722.802,29.297,21.484,24.902,59.082,45.410,0
1542907722.806,15.137,17.090,27.344,58.594,41.016,0
1542907722.809,2.930,10.742,24.414,64.941,27.832,0
1542907722.813,4.883,13.184,23.926,66.895,44.922,0
1542907722.817,27.344,19.043,25.879,70.312,22.461,0
1542907722.821,21.973,22.461,31.738,67.383,49.805,0
1542907722.825,16.113,18.555,33.203,71.777,93.262,0
1542907722.829,20.020,16.602,31.250,90.820,62.500,0
1542907722.833,-1.465,16.602,36.621,100.098,26.855,0
1542907722.837,-1.953,16.602,39.551,89.355,4.395,0
1542907722.841,1.953,16.113,37.598,81.055,19.531,0
1542907722.845,5.371,15.137,36.133,71.777,41.992,0
1542907722.849,6.836,17.090,34.668,67.383,18.555,0
1542907722.852,15.137,17.090,37.598,59.082,36.133,0
1542907722.856,22.461,15.137,32.715,46.875,30.762,0
1542907722.860,21.484,15.137,29.297,65.430,10.742,0
1542907722.864,15.625,16.113,36.133,73.242,28.320,0
1542907722.868,24.414,14.160,35.156,95.215,28.320,0
1542907722.872,19.043,18.066,33.691,85.449,63.965,0
1542907722.876,-25.879,26.367,31.250,54.688,65.918,0
1542907722.880,-18.555,29.297,29.785,52.246,69.336,0
1542907722.884,-22.949,14.160,35.645,62.012,85.449,0
1542907722.888,-32.227,9.766,37.109,49.805,39.062,0
1542907722.892,-17.090,31.250,43.945,50.293,-1.953,0
1542907722.895,-27.344,20.996,37.598,78.125,17.090,0
1542907722.899,-63.477,5.371,10.254,45.410,39.551,0
1542907722.903,-50.293,13.184,21.973,38.574,58.105,0
1542907722.907,-13.672,7.812,30.762,59.082,46.875,0
1542907722.911,-29.785,29.297,19.531,60.059,62.988,0
1542907722.915,-47.852,42.969,15.625,63.477,111.816,0
1542907722.919,-29.785,31.250,18.555,72.754,91.797,0
1542907722.923,-11.719,23.926,18.555,79.590,69.336,0
1542907722.927,-20.996,21.484,24.414,79.102,40.527,0
1542907722.931,-29.297,20.996,32.715,70.801,1.953,0
1542907722.934,-1.465,12.695,33.691,81.543,16.602,0
1542907722.938,19.043,9.277,38.574,90.332,30.273,0
1542907722.942,13.672,18.066,33.203,76.172,-3.418,0
1542907722.946,-13.184,20.508,31.738,73.242,6.348,0
1542907722.950,-25.391,20.020,34.180,80.566,50.781,0
1542907722.954,-12.207,20.996,26.855,79.590,58.594,0
1542907722.958,4.883,20.996,22.949,80.078,26.855,0
1542907722.962,8.301,14.160,27.344,83.984,29.785,0
1542907722.966,7.324,14.648,26.367,81.055,51.758,0
1542907722.970,16.602,22.461,23.926,81.055,43.457,0
1542907722.974,0.000,19.043,28.320,71.289,61.035,0
1542907722.977,-16.113,16.602,33.691,67.871,79.590,0
1542907722.981,-0.977,11.719,39.062,83.008,73.242,0
1542907722.985,9.277,16.602,41.016,88.867,34.180,0
1542907722.989,4.395,29.297,30.273,86.914,-21.484,0
1542907722.993,10.742,35.645,25.879,93.262,-13.672,0
1542907722.997,7.324,22.461,30.273,93.750,3.418,0
1542907723.001,14.648,3.418,28.320,91.309,60.547,0
1542907723.005,8.789,19.043,28.320,81.543,60.059,0
1542907723.009,-12.207,27.344,28.320,72.266,4.883,0
1542907723.013,2.930,23.926,27.344,80.078,-3.906,0
1542907723.017,29.297,19.531,28.320,77.148,85.938,0
1542907723.020,35.645,21.973,31.738,75.684,85.938,0
1542907723.024,36.621,15.137,28.809,81.055,0.000,0
1542907723.028,45.898,1.465,25.391,90.820,-6.836,0
1542907723.032,24.414,14.160,25.879,94.727,-10.254,0
1542907723.036,9.766,26.855,24.902,84.961,9.277,0
1542907723.040,33.691,30.273,27.344,101.074,64.453,0
1542907723.044,32.715,40.039,28.320,96.191,71.289,0
1542907723.048,19.531,40.527,19.043,88.867,82.031,0
1542907723.052,24.414,39.551,20.020,108.398,67.383,0
1542907723.056,39.062,42.480,34.668,109.863,2.441,0
1542907723.059,64.453,38.574,37.109,97.656,37.598,0
1542907723.063,49.316,31.250,35.645,93.750,46.387,0
1542907723.067,37.109,31.250,31.250,106.934,5.371,0
1542907723.071,41.504,24.902,30.762,107.422,-10.254,0
1542907723.075,41.016,18.555,33.691,96.191,15.625,0
1542907723.079,43.945,20.996,28.809,107.910,58.105,0
1542907723.083,35.156,20.020,37.598,123.047,31.738,0
1542907723.087,19.531,17.578,27.344,111.816,27.832,0
1542907723.091,20.996,27.344,18.555,104.980,38.086,0
1542907723.095,38.574,22.461,32.715,111.328,-18.555,0
1542907723.099,39.062,7.324,19.531,111.816,12.207,0
1542907723.102,31.250,27.344,10.742,105.957,14.160,0
1542907723.106,38.086,37.109,30.273,108.398,-14.160,0
1542907723.110,36.621,29.297,45.410,110.840,17.090,0
1542907723.114,29.785,27.344,44.434,107.910,17.578,0
1542907723.118,43.457,31.250,42.969,117.188,-7.324,0
1542907723.122,38.086,23.438,43.457,120.117,-17.090,0
1542907723.126,20.020,17.578,33.691,116.211,40.039,0
1542907723.130,14.648,19.043,27.344,109.375,65.918,0
1542907723.134,14.160,18.066,27.832,111.816,31.250,0
1542907723.138,29.297,26.367,16.602,121.582,48.340,0
1542907723.142,36.621,21.484,15.625,107.910,45.898,0
1542907723.145,33.203,16.602,29.785,98.145,9.277,0
1542907723.149,52.734,19.043,37.598,113.281,6.348,0
1542907723.153,29.297,20.020,33.203,109.375,23.438,0
1542907723.157,21.484,24.902,31.250,98.145,62.988,0
1542907723.161,45.410,25.879,32.227,109.863,41.504,0
1542907723.165,33.691,31.250,17.578,115.234,62.012,0
1542907723.169,12.695,34.180,11.230,94.727,83.496,0
1542907723.173,21.484,31.250,33.691,89.844,48.828,0
1542907723.177,13.672,29.785,42.480,103.027,44.922,0
1542907723.181,6.348,33.691,33.691,104.004,35.156,0
1542907723.184,19.531,28.809,34.180,94.727,-15.625,0
1542907723.188,17.578,25.391,28.320,100.098,-8.301,0
1542907723.192,22.949,22.461,16.602,105.957,-39.551,0
1542907723.196,28.320,17.090,8.789,97.656,-30.273,0
1542907723.200,28.320,26.367,12.207,102.539,38.574,0
1542907723.204,24.902,26.855,29.785,104.492,-0.488,0
1542907723.208,40.039,19.531,38.086,98.145,-28.809,0
1542907723.212,31.250,19.531,36.621,102.539,4.395,0
1542907723.216,26.367,30.762,27.344,107.422,2.930,0
1542907723.220,54.688,19.531,25.391,118.164,17.578,0
1542907723.224,42.969,11.230,28.320,114.258,42.969,0
1542907723.227,10.254,16.113,26.367,96.191,69.824,0
1542907723.231,2.930,17.090,28.809,98.145,63.477,0
1542907723.235,10.254,12.207,36.621,98.145,12.695,0
1542907723.239,25.391,12.695,44.922,104.004,14.160,0
1542907723.243,17.578,16.602,44.434,100.098,46.875,0
1542907723.247,28.809,6.348,34.180,90.332,97.656,0
1542907723.251,37.109,1.953,34.180,84.961,46.875,0
1542907723.255,19.531,-12.695,31.250,74.707,-12.207,0
1542907723.259,17.090,-15.625,26.367,76.660,51.758,0
1542907723.263,15.625,11.719,26.855,76.660,45.410,0
1542907723.267,29.785,26.855,31.738,77.637,72.754,0
1542907723.270,28.320,21.973,33.691,82.520,75.195,0
1542907723.274,0.000,10.742,21.973,69.824,4.395,0
1542907723.278,12.207,9.277,23.926,59.570,5.859,0
1542907723.282,14.160,7.324,26.855,58.594,13.672,0
1542907723.286,17.090,1.953,26.855,55.664,22.949,0
1542907723.290,28.320,0.000,28.320,51.758,20.020,0
1542907723.294,17.578,-1.953,30.273,56.641,5.859,0
1542907723.298,20.996,12.207,37.598,59.570,12.695,0
1542907723.302,20.996,10.742,31.738,49.316,-6.348,0
1542907723.306,12.207,2.930,20.996,48.340,-40.527,0
1542907723.309,19.043,18.066,17.578,48.828,-16.113,0
1542907723.313,22.461,22.461,18.066,43.945,-4.395,0
1542907723.317,8.301,17.090,20.996,40.527,-12.695,0
1542907723.321,7.324,14.160,27.832,49.316,41.504,0
1542907723.325,15.137,22.949,37.109,64.453,78.125,0
1542907723.329,20.020,21.484,39.551,64.941,52.246,0
1542907723.333,14.648,12.207,36.621,65.918,33.203,0
1542907723.337,1.465,6.836,38.574,69.824,82.520,0
1542907723.341,1.953,-2.441,37.109,71.777,54.688,0
1542907723.345,12.695,3.418,37.109,80.078,55.664,0
1542907723.349,24.414,24.414,39.062,86.426,98.633,0
1542907723.352,18.555,25.391,28.320,84.961,72.754,0
1542907723.356,12.207,24.414,28.320,78.613,61.523,0
1542907723.360,20.020,21.973,35.156,73.242,14.648,0
1542907723.364,18.066,12.207,31.738,77.637,-5.859,0
1542907723.368,18.555,14.648,30.273,78.613,1.465,0
1542907723.372,16.602,18.066,24.902,69.824,-16.113,0
1542907723.376,20.020,20.020,28.320,73.242,10.742,0
1542907723.380,8.789,23.926,31.250,79.102,26.367,0
1542907723.384,-2.441,22.949,29.785,85.449,33.691,0
1542907723.388,2.441,19.043,34.180,87.402,28.809,0
1542907723.392,10.254,23.438,26.367,92.773,20.996,0
1542907723.395,19.531,23.926,11.719,93.750,71.289,0
1542907723.399,6.348,21.484,25.879,99.609,56.641,0
1542907723.403,-4.395,20.996,46.875,94.727,54.688,0
1542907723.407,5.371,21.973,43.457,80.566,47.852,0
1542907723.411,12.207,25.391,35.156,90.332,12.695,0
1542907723.415,6.348,25.391,33.691,92.285,12.207,0
1542907723.419,0.977,1.465,32.715,86.914,5.371,0
1542907723.423,-2.441,-0.488,32.227,90.820,55.176,0
1542907723.427,1.465,23.926,31.250,90.332,72.754,0
1542907723.431,12.207,25.879,28.320,95.215,29.297,0
1542907723.434,12.695,32.715,30.762,103.027,27.832,0
1542907723.438,14.160,30.762,29.785,92.773,47.852,0
1542907723.442,29.785,-0.977,21.973,99.609,43.457,0
1542907723.446,14.648,0.977,16.602,99.121,4.883,0
1542907723.450,3.906,28.320,22.949,80.078,15.137,0
1542907723.454,22.461,34.180,29.297,79.102,8.301,0
1542907723.458,10.742,34.180,33.203,83.496,-2.441,0
1542907723.462,-1.465,24.414,39.551,87.402,15.137,0
1542907723.466,4.883,11.230,43.457,86.914,56.641,0
1542907723.470,8.789,5.859,42.969,92.773,69.824,0
1542907723.474,3.418,9.766,42.480,92.773,-17.090,0
1542907723.477,6.348,15.137,43.457,95.215,18.555,0
1542907723.481,1.953,10.254,37.109,107.422,42.969,0
1542907723.485,-9.766,3.906,34.180,103.027,30.273,0
1542907723.489,0.977,9.766,37.109,106.934,40.527,0
1542907723.493,1.953,10.742,32.227,116.211,12.695,0
1542907723.497,1.465,6.348,28.809,113.770,15.137,0
1542907723.501,4.395,7.812,27.344,106.934,6.348,0
1542907723.505,13.184,1.465,23.926,97.168,-46.875,0
1542907723.509,19.531,3.418,30.273,100.586,-38.086,0
1542907723.513,8.301,27.344,37.109,102.539,25.391,0
1542907723.517,7.324,30.762,38.086,101.562,29.785,0
1542907723.520,17.578,21.973,35.156,100.586,34.668,0
1542907723.524,23.438,26.367,35.645,103.027,70.312,0
1542907723.528,32.715,15.137,26.855,97.168,75.195,0
1542907723.532,17.090,0.977,18.555,86.426,41.016,0
1542907723.536,-9.277,13.184,30.762,85.449,1.953,0
1542907723.540,0.488,19.043,40.039,83.008,-7.324,0
1542907723.544,19.531,19.531,38.086,86.914,4.883,0
1542907723.548,28.320,21.973,34.180,85.938,-12.207,0
1542907723.552,29.785,27.344,35.156,83.984,22.461,0
1542907723.556,28.320,20.508,33.203,89.355,80.566,0
1542907723.559,41.992,8.789,28.320,86.426,64.941,0
1542907723.563,37.109,18.555,32.715,78.125,60.059,0
1542907723.567,23.438,17.090,40.039,84.473,48.828,0
1542907723.571,34.180,16.113,40.039,90.820,56.641,0
1542907723.575,22.949,31.738,25.879,83.496,57.617,0
1542907723.579,15.625,31.738,27.832,89.844,-20.508,0
1542907723.583,27.344,17.090,40.039,97.168,-10.742,0
1542907723.587,33.691,19.531,38.086,94.238,38.086,0
1542907723.591,21.484,29.785,28.809,80.078,21.973,0
1542907723.595,10.254,20.020,27.344,73.242,-15.625,0
1542907723.599,18.066,19.043,34.668,82.031,3.418,0
1542907723.602,16.113,23.438,35.156,81.055,4.395,0
1542907723.606,17.578,25.391,31.250,74.219,-15.625,0
1542907723.610,17.090,24.902,26.855,82.520,20.508,0
1542907723.614,21.484,15.625,30.273,83.984,59.082,0
1542907723.618,26.367,20.020,25.391,80.566,19.531,0
1542907723.622,25.391,33.691,17.578,82.031,-23.926,0
1542907723.626,10.254,24.902,23.438,77.148,23.438,0
1542907723.630,14.160,20.020,35.645,78.613,13.672,0
1542907723.634,30.762,17.578,40.527,92.773,0.488,0
1542907723.638,14.648,12.207,40.527,85.449,-2.930,0
1542907723.642,19.043,30.762,34.668,66.895,21.484,0
1542907723.645,45.898,38.574,26.855,75.195,23.438,0
1542907723.649,34.668,34.668,30.273,85.938,24.902,0
1542907723.653,28.809,28.809,31.738,86.914,75.195,0
1542907723.657,30.273,27.344,29.297,85.938,85.938,0
1542907723.661,15.625,27.344,26.367,85.449,21.484,0
1542907723.665,11.719,26.855,30.762,83.984,33.203,0
1542907723.669,18.066,25.391,33.691,83.008,114.258,0
1542907723.673,20.996,30.273,34.180,78.125,69.824,0
1542907723.677,9.277,39.062,28.320,71.289,30.273,0
1542907723.681,11.230,38.574,20.020,75.684,95.703,0
1542907723.684,9.766,33.203,24.902,81.055,78.125,0
1542907723.688,10.742,28.320,29.297,75.684,70.801,0
1542907723.692,21.973,24.414,31.250,70.801,91.309,0
1542907723.696,33.691,27.832,27.832,73.242,21.484,0
1542907723.700,43.945,29.785,24.414,73.730,-16.602,0
1542907723.704,50.293,21.973,36.133,83.496,18.555,0
1542907723.708,45.898,30.762,32.715,82.031,45.898,0
1542907723.712,26.855,40.039,15.625,56.641,35.156,0
1542907723.716,15.137,39.551,21.973,51.758,79.590,0
1542907723.720,18.555,28.320,30.273,58.105,37.109,0
1542907723.724,50.293,15.625,26.855,74.219,-37.109,0
1542907723.727,52.734,26.855,21.973,88.867,-12.207,0
1542907723.731,24.902,39.551,13.672,66.406,60.547,0
1542907723.735,28.320,48.340,16.602,41.504,78.125,0
1542907723.739,32.715,46.387,20.996,47.852,59.570,0
1542907723.743,31.250,41.504,19.531,47.363,44.434,0
1542907723.747,24.414,40.527,20.020,42.480,15.625,0
1542907723.751,7.324,36.621,19.043,40.039,11.719,0
1542907723.755,7.324,31.738,20.020,36.133,36.621,0
1542907723.759,19.531,33.691,24.902,34.668,35.156,0
1542907723.763,36.621,35.645,26.855,35.156,52.734,0
1542907723.767,31.250,32.227,24.414,39.062,61.523,0
1542907723.770,38.574,31.250,22.461,50.781,57.617,0
1542907723.774,26.367,29.297,24.414,40.039,-0.488,0
1542907723.778,16.602,26.855,23.438,30.273,-36.133,0
1542907723.782,20.020,30.762,23.926,46.875,-1.953,0
1542907723.786,15.137,25.879,21.973,54.199,59.570,0
1542907723.790,25.391,25.391,20.508,46.387,77.637,0
1542907723.794,38.574,33.691,26.855,49.805,25.879,0
1542907723.798,34.180,27.832,24.414,49.805,3.906,0
1542907723.802,20.508,26.855,20.996,45.410,20.020,0
1542907723.806,16.602,32.227,19.531,39.551,35.156,0
1542907723.809,27.832,29.297,14.160,41.992,13.184,0
1542907723.813,32.715,28.809,13.672,53.223,20.508,0
1542907723.817,20.996,15.137,21.973,63.477,9.766,0
1542907723.821,24.414,3.906,25.391,61.523,31.250,0
1542907723.825,36.133,27.344,27.832,55.176,29.785,0
1542907723.829,23.926,35.645,26.855,60.547,-2.930,0
1542907723.833,19.531,35.156,25.879,61.523,-14.648,0
1542907723.837,31.250,39.062,23.926,52.734,-28.809,0
1542907723.841,38.574,33.691,27.344,58.105,41.016,0
1542907723.845,19.043,34.668,29.297,56.152,63.965,0
1542907723.849,20.996,34.668,31.250,44.922,-24.414,0
1542907723.852,42.480,37.109,34.668,52.246,-11.719,0
1542907723.856,34.180,30.762,20.020,47.363,-25.879,0
1542907723.860,45.898,21.973,18.066,44.434,-32.227,0
1542907723.864,37.598,35.156,26.855,47.852,41.992,0
1542907723.868,16.113,41.992,27.344,47.852,55.664,0
1542907723.872,10.742,36.133,25.879,52.734,-0.488,0
1542907723.876,16.602,33.691,27.344,46.387,-41.992,0
1542907723.880,22.949,32.227,26.367,49.316,-27.832,0
1542907723.884,4.395,32.227,23.438,54.688,-56.641,0
1542907723.888,0.977,31.738,22.949,53.223,12.207,0
1542907723.892,0.977,29.785,24.414,41.992,45.410,0
1542907723.895,11.230,29.297,29.297,38.574,11.230,0
1542907723.899,31.738,28.320,30.273,48.340,9.766,0
1542907723.903,26.367,19.043,33.203,51.270,-0.488,0
1542907723.907,7.324,23.926,20.020,52.734,60.059,0
1542907723.911,17.578,31.738,10.254,62.988,112.793,0
1542907723.915,36.133,22.461,29.785,73.730,76.172,0
1542907723.919,15.137,22.949,35.156,67.383,54.688,0
1542907723.923,15.137,15.625,33.203,71.289,54.688,0
1542907723.927,30.273,17.090,30.762,64.453,53.711,0
1542907723.931,17.090,35.156,25.879,44.922,73.730,0
1542907723.934,11.719,39.551,21.973,37.598,74.219,0
1542907723.938,12.207,38.086,14.648,46.387,64.453,0
1542907723.942,20.020,33.203,20.508,48.340,61.035,0
1542907723.946,13.184,32.227,23.926,41.016,20.996,0
1542907723.950,21.484,34.180,22.949,46.875,45.898,0
1542907723.954,10.254,28.320,21.973,46.875,76.660,0
1542907723.958,8.301,23.926,21.484,47.363,-1.465,0
1542907723.962,25.879,19.531,24.414,56.641,13.184,0
1542907723.966,28.320,22.949,20.996,56.641,56.152,0
1542907723.970,22.949,28.809,20.508,49.805,41.504,0
1542907723.974,7.324,23.926,27.344,55.176,79.102,0
1542907723.977,8.789,26.367,31.250,51.758,53.711,0
1542907723.981,7.812,28.809,29.785,45.410,30.762,0
1542907723.985,21.973,32.227,27.832,57.617,21.973,0
1542907723.989,46.875,33.691,26.367,72.266,6.836,0
1542907723.993,15.137,27.344,23.438,62.500,26.855,0
1542907723.997,-4.395,20.508,23.926,54.199,71.289,0
1542907724.001,8.789,21.484,23.438,66.895,37.109,0
1542907724.005,6.836,24.902,17.578,79.590,63.477,0
1542907724.009,16.113,22.461,15.137,72.754,88.379,0
1542907724.013,28.320,15.137,23.438,72.266,18.066,0
1542907724.017,-2.930,18.066,27.832,75.684,7.812,0
1542907724.020,-6.836,34.668,27.344,68.359,9.277,0
1542907724.024,7.812,36.621,34.668,72.266,21.973,0
1542907724.028,7.324,28.320,32.227,78.613,88.379,0
1542907724.032,26.367,20.996,14.160,67.383,30.273,0
1542907724.036,13.184,19.043,15.625,66.406,1.953,0
1542907724.040,-1.465,29.785,27.832,65.430,-4.395,0
1542907724.044,-1.465,34.180,21.973,59.082,3.418,0
1542907724.048,1.465,29.785,22.461,64.453,64.941,0
1542907724.052,8.789,20.996,25.391,66.406,-3.906,0
1542907724.056,20.996,22.461,22.461,72.266,-27.832,0
1542907724.059,4.883,22.949,25.391,80.078,-7.324,0
1542907724.063,-9.277,18.066,26.855,81.543,13.184,0
1542907724.067,7.324,16.113,22.461,83.008,35.645,0
1542907724.071,3.418,20.020,27.344,89.355,88.379,0
1542907724.075,-0.977,25.879,26.855,71.777,58.594,0
1542907724.079,15.625,24.414,13.672,72.754,-17.090,0
1542907724.083,19.531,20.508,12.695,88.867,45.410,0
1542907724.087,11.719,13.184,19.043,78.613,40.039,0
1542907724.091,6.348,18.555,26.855,88.379,6.836,0
1542907724.095,7.812,20.020,35.156,104.980,41.504,0
1542907724.099,17.578,16.113,32.227,96.191,45.410,0
1542907724.102,13.672,31.738,30.762,95.703,20.508,0
1542907724.106,22.461,34.180,31.738,93.750,83.984,0
1542907724.110,18.066,28.320,32.715,87.402,24.414,0
1542907724.114,10.742,28.809,31.738,95.215,10.742,0
1542907724.118,34.180,26.855,27.832,103.516,90.332,0
1542907724.122,25.391,25.879,25.391,106.934,43.945,0
1542907724.126,16.602,27.344,29.785,104.492,42.480,0
1542907724.130,19.043,27.344,31.250,94.238,50.781,0
1542907724.134,20.508,25.391,27.832,90.820,29.785,0
1542907724.138,26.855,27.344,25.879,95.703,14.648,0
1542907724.142,15.137,32.227,21.973,98.145,-22.461,0
1542907724.145,7.324,32.715,18.066,96.680,-15.625,0
1542907724.149,25.879,25.391,21.484,96.191,-7.812,0
1542907724.153,31.738,26.367,27.832,109.375,37.598,0
1542907724.157,22.949,30.273,30.762,100.586,52.734,0
1542907724.161,19.531,32.715,34.180,76.660,14.648,0
1542907724.165,21.973,38.574,30.273,92.285,30.273,0
1542907724.169,34.668,34.180,32.227,107.422,6.348,0
1542907724.173,27.344,18.066,40.039,83.496,-21.484,0
1542907724.177,1.465,13.184,33.691,66.895,20.020,0
1542907724.181,4.883,13.184,38.086,82.520,48.340,0
1542907724.184,8.301,9.277,45.410,94.727,11.719,0
1542907724.188,2.930,9.277,37.598,84.473,0.000,0
1542907724.192,8.789,7.812,37.598,81.055,38.574,0
1542907724.196,14.160,15.137,35.645,84.473,8.789,0
1542907724.200,15.137,16.602,25.879,82.520,-3.906,0
1542907724.204,3.418,6.836,32.227,82.520,-5.371,0
1542907724.208,8.301,11.230,35.156,84.961,1.953,0
1542907724.212,19.531,19.531,34.180,86.914,60.059,0
1542907724.216,16.113,21.973,37.109,85.938,52.246,0
1542907724.220,14.160,20.996,39.551,85.449,40.527,0
1542907724.224,13.184,20.020,37.598,79.102,27.832,0
1542907724.227,11.230,21.484,32.715,81.055,51.758,0
1542907724.231,17.090,19.531,36.133,90.820,14.160,0
1542907724.235,17.090,15.625,35.645,85.938,-37.109,0
1542907724.239,21.973,21.973,33.691,79.102,-3.418,0
1542907724.243,9.277,28.320,29.785,81.543,8.301,0
1542907724.247,11.230,24.414,27.832,85.449,31.738,0
1542907724.251,14.648,12.695,28.320,82.031,43.457,0
1542907724.255,8.789,10.254,31.250,83.984,34.668,0
1542907724.259,17.578,10.742,29.297,92.285,38.086,0
1542907724.263,16.602,12.695,27.832,83.008,59.082,0
1542907724.267,13.184,22.461,35.156,83.496,60.547,0
1542907724.270,18.066,20.996,35.156,87.891,43.945,0
1542907724.274,26.367,22.461,33.203,74.707,67.871,0
1542907724.278,35.156,23.438,32.715,77.148,67.871,0
1542907724.282,38.574,17.090,32.227,91.797,44.434,0
1542907724.286,14.648,16.602,29.785,87.402,25.879,0
1542907724.290,11.230,17.090,36.133,81.543,12.695,0
1542907724.294,33.691,13.672,35.645,79.102,-16.602,0
1542907724.298,35.645,22.949,35.645,73.242,-12.695,0
1542907724.302,25.391,31.250,37.109,80.078,4.395,0
1542907724.306,27.832,25.391,28.320,75.195,30.762,0
1542907724.309,13.672,16.113,32.227,66.406,12.695,0
1542907724.313,25.391,9.766,38.574,69.336,7.812,0
1542907724.317,28.320,12.207,35.156,74.707,39.551,0
1542907724.321,4.395,14.648,33.691,72.754,16.113,0
1542907724.325,9.277,11.719,32.227,71.289,19.043,0
1542907724.329,15.137,14.160,29.785,66.406,2.441,0
1542907724.333,20.020,16.602,21.484,71.289,7.324,0
1542907724.337,22.461,18.066,21.484,74.707,50.293,0
1542907724.341,30.762,14.648,32.227,73.730,45.898,0
1542907724.345,38.086,8.789,38.086,66.406,40.527,0
1542907724.349,29.785,10.254,40.039,69.336,25.879,0
1542907724.352,42.480,22.461,30.762,81.543,-26.367,0
1542907724.356,59.082,24.414,27.344,77.148,-6.348,0
1542907724.360,41.992,13.672,33.203,76.172,-1.953,0
1542907724.364,16.113,13.672,35.156,67.383,-21.973,0
1542907724.368,-14.648,10.254,40.527,58.105,-18.066,0
1542907724.372,-15.137,4.883,43.457,59.082,10.254,0
1542907724.376,-8.789,1.953,43.945,48.340,30.273,0
1542907724.380,-4.395,2.441,42.969,57.617,14.648,0
1542907724.384,2.441,10.254,36.621,57.617,17.578,0
1542907724.388,5.371,14.160,32.227,46.875,8.789,0
1542907724.392,8.301,9.277,33.691,57.617,15.625,0
1542907724.395,10.254,13.672,32.227,58.105,37.598,0
1542907724.399,0.977,18.066,31.738,54.199,4.395,0
1542907724.403,6.836,22.461,36.133,56.152,66.406,0
1542907724.407,24.902,25.879,29.297,62.988,50.781,0
1542907724.411,23.926,20.508,23.926,66.895,-7.812,0
1542907724.415,20.996,17.090,29.297,71.777,21.973,0
1542907724.419,17.090,20.508,37.598,77.148,-9.766,0
1542907724.423,26.855,26.855,35.645,70.801,19.043,0
1542907724.427,26.367,27.832,27.344,70.312,29.297,0
1542907724.431,11.230,21.484,30.762,62.988,-2.441,0
1542907724.434,17.578,8.301,30.762,52.246,36.621,0
1542907724.438,20.508,16.113,29.297,54.688,41.016,0
1542907724.442,25.391,35.645,36.133,61.523,11.719,0
1542907724.446,36.133,38.086,39.551,64.453,13.672,0
1542907724.450,19.043,33.203,33.203,61.035,34.668,0
1542907724.454,17.090,23.926,29.297,54.199,47.363,0
1542907724.458,19.043,15.625,27.832,65.430,51.270,0
1542907724.462,31.738,18.555,24.414,77.148,70.801,0
1542907724.466,35.645,21.484,32.715,71.777,83.984,0
1542907724.470,22.949,18.555,39.551,63.477,9.277,0
1542907724.474,14.160,12.207,36.133,62.500,-50.293,0
1542907724.477,14.648,11.719,37.109,62.012,-22.461,0
1542907724.481,19.043,16.602,31.250,68.359,39.062,0
1542907724.485,14.648,19.531,27.344,68.359,8.301,0
1542907724.489,19.043,16.602,28.809,61.523,-7.324,0
1542907724.493,28.809,9.277,22.949,65.918,41.016,0
1542907724.497,20.508,14.648,23.438,63.477,2.441,0
1542907724.501,28.809,22.461,26.855,58.594,12.207,0
1542907724.505,42.969,20.508,23.926,57.129,49.805,0
1542907724.509,29.297,17.090,22.461,56.152,77.637,0
1542907724.513,25.879,16.113,22.461,61.523,74.707,0
1542907724.517,31.250,22.461,22.461,60.547,23.438,0
1542907724.520,32.715,21.973,25.391,56.641,73.242,0
1542907724.524,11.719,17.578,27.344,51.270,75.195,0
1542907724.528,19.531,18.555,27.832,58.594,36.621,0
1542907724.532,21.973,20.508,31.250,71.777,52.734,0
1542907724.536,-0.488,18.066,33.203,64.941,57.129,0
1542907724.540,15.625,21.484,32.715,60.059,77.148,0
1542907724.544,11.719,23.438,29.785,62.988,93.262,0
1542907724.548,3.906,24.414,29.785,62.988,69.824,0
1542907724.552,1.953,23.926,24.902,62.012,43.945,0
1542907724.556,26.367,23.926,27.344,68.848,40.527,0
1542907724.559,33.691,15.625,31.250,68.359,99.609,0
1542907724.563,17.090,4.395,27.832,68.848,96.191,0
1542907724.567,24.414,20.996,32.227,65.430,38.086,0
1542907724.571,22.949,29.297,35.645,61.035,16.602,0
1542907724.575,17.578,32.227,34.180,60.059,21.484,0
1542907724.579,19.531,31.250,30.762,62.988,21.973,0
1542907724.583,22.461,22.949,28.809,65.918,-10.742,0
1542907724.587,17.090,20.996,30.273,62.988,-11.719,0
1542907724.591,10.742,20.508,24.414,64.941,6.348,0
1542907724.595,17.090,19.531,21.973,65.430,4.883,0
1542907724.599,19.043,24.414,28.320,61.523,12.695,0
1542907724.602,24.414,29.785,28.809,64.941,28.809,0
1542907724.606,27.832,20.508,27.832,66.406,6.348,0
1542907724.610,13.184,17.090,30.273,69.336,-8.301,0
1542907724.614,29.785,25.391,28.320,67.871,13.672,0
1542907724.618,38.574,26.367,28.320,67.383,62.500,0
1542907724.622,27.344,28.320,30.273,76.172,79.102,0
1542907724.626,22.461,24.902,29.297,79.102,33.691,0
1542907724.630,37.109,24.414,30.762,80.078,14.160,0
1542907724.634,31.250,32.715,28.320,63.965,-15.625,0
1542907724.638,12.695,37.598,22.461,50.293,-6.348,0
1542907724.642,28.809,38.086,20.996,60.547,38.086,0
1542907724.645,27.832,26.367,23.926,60.547,47.852,0
1542907724.649,19.043,22.461,20.996,61.523,26.367,0
1542907724.653,15.625,32.227,23.438,62.012,-1.465,0
1542907724.657,15.137,28.809,29.785,66.406,-13.672,0
1542907724.661,17.090,20.020,26.367,72.754,21.484,0
1542907724.665,17.090,19.531,24.902,69.824,55.664,0
1542907724.669,25.391,23.926,25.879,76.172,62.500,0
1542907724.673,34.180,23.926,25.879,81.543,45.898,0
1542907724.677,46.387,18.555,20.996,82.031,16.602,0
1542907724.681,39.062,18.066,18.555,80.566,-1.953,0
1542907724.684,30.273,21.973,25.879,78.125,27.344,0
1542907724.688,47.852,22.949,28.320,85.449,76.660,0
1542907724.692,42.969,22.949,26.855,86.426,46.387,0
1542907724.696,25.879,32.227,24.902,76.660,-9.766,0
1542907724.700,23.926,32.715,23.926,76.660,15.625,0
1542907724.704,33.203,29.785,28.320,74.219,75.195,0
1542907724.708,34.668,27.832,28.809,76.660,58.594,0
1542907724.712,18.066,27.832,26.367,86.914,22.949,0
1542907724.716,33.203,27.344,33.203,82.031,81.543,0
1542907724.720,37.109,19.531,32.715,76.660,90.332,0
1542907724.724,25.879,18.555,30.273,74.219,46.387,0
1542907724.727,27.832,17.578,28.320,69.824,6.836,0
1542907724.731,26.367,21.484,27.832,68.359,0.488,0
1542907724.735,32.715,25.391,31.738,62.012,7.812,0
1542907724.739,36.621,22.461,29.785,60.547,-40.039,0
1542907724.743,25.391,27.344,22.461,62.988,43.945,0
1542907724.747,17.578,25.879,14.160,62.988,68.848,0
1542907724.751,23.926,22.461,16.113,63.965,20.996,0
1542907724.755,39.062,25.879,23.926,68.359,12.207,0
1542907724.759,39.062,27.344,26.367,62.012,31.250,0
1542907724.763,29.297,25.879,27.344,59.082,25.879,0
1542907724.767,30.762,22.461,27.832,61.035,-13.184,0
1542907724.770,34.668,27.344,26.855,46.875,23.926,0
1542907724.774,41.016,25.879,27.832,44.434,23.926,0
1542907724.778,23.438,20.996,29.297,47.363,38.086,0
1542907724.782,20.020,28.809,30.273,57.617,95.215,0
1542907724.786,24.902,31.250,23.926,66.895,42.480,0
1542907724.790,11.230,28.809,18.555,61.523,-39.062,0
1542907724.794,31.738,30.762,24.414,64.941,-3.418,0
1542907724.798,33.691,31.250,26.855,70.312,27.344,0
1542907724.802,25.391,17.578,25.879,73.730,6.348,0
1542907724.806,42.480,13.672,29.297,76.172,54.688,0
1542907724.809,41.504,24.414,26.367,55.176,66.895,0
1542907724.813,17.090,27.344,20.996,42.480,44.922,0
1542907724.817,20.508,30.273,20.996,51.758,70.801,0
1542907724.821,20.996,29.785,25.391,55.176,104.004,0
1542907724.825,25.391,26.367,28.320,42.480,77.637,0
1542907724.829,31.738,29.785,26.367,6.348,15.625,0
1542907724.833,24.902,26.367,26.367,-18.066,-4.883,0
1542907724.837,30.273,21.973,26.367,-41.504,27.344,0
1542907724.841,32.715,22.949,21.973,-45.898,15.137,0
1542907724.845,32.227,26.855,19.043,-19.043,8.301,0
1542907724.849,36.133,26.367,24.902,-6.348,32.715,0
1542907724.852,25.879,27.344,33.691,5.859,21.973,0
1542907724.856,23.438,27.832,32.227,24.902,22.949,0
1542907724.860,33.203,20.996,26.367,35.645,41.016,0
1542907724.864,37.598,22.949,23.438,40.039,99.121,0
1542907724.868,26.367,25.879,26.367,44.922,86.914,0
1542907724.872,32.227,30.762,27.344,45.898,17.578,0
1542907724.876,48.340,36.133,23.926,52.246,73.730,0
1542907724.880,33.203,31.738,20.996,58.105,152.832,0
1542907724.884,26.855,26.855,20.996,45.898,33.691,0
1542907724.888,28.320,27.832,25.879,36.621,0.488,0
1542907724.892,32.227,24.902,22.949,45.898,90.820,0
1542907724.895,41.504,29.785,22.949,50.293,40.527,0
1542907724.899,32.227,32.227,30.273,44.922,103.027,0
1542907724.903,30.762,34.180,27.344,49.316,126.953,0
1542907724.907,40.039,37.109,27.344,53.223,53.711,0
1542907724.911,33.691,27.832,30.762,49.805,96.680,0
1542907724.915,33.691,29.297,29.297,55.176,90.820,0
1542907724.919,39.551,36.621,31.738,56.152,49.316,0
1542907724.923,33.203,34.668,34.180,54.199,55.664,0
1542907724.927,31.250,34.180,31.250,61.035,-17.578,0
1542907724.931,37.598,28.320,31.250,56.641,-32.227,0
1542907724.934,45.898,28.320,33.691,59.082,38.574,0
1542907724.938,33.203,32.715,27.344,63.477,60.059,0
1542907724.942,47.852,23.926,23.926,60.547,18.555,0
1542907724.946,64.453,18.555,27.832,62.500,-12.695,0
1542907724.950,50.293,19.043,33.691,70.312,17.090,0
1542907724.954,42.969,26.855,38.574,73.242,18.555,0
1542907724.958,48.340,24.902,32.715,74.219,12.207,0
1542907724.962,48.340,14.648,20.996,69.824,36.133,0
1542907724.966,38.086,14.648,25.879,67.383,4.883,0
1542907724.970,30.273,17.578,32.715,73.730,54.199,0
1542907724.974,41.992,20.020,32.715,70.801,52.734,0
1542907724.977,41.016,19.043,29.785,67.383,-5.859,0
1542907724.981,34.668,20.508,23.438,67.383,23.926,0
1542907724.985,44.434,20.508,30.273,70.312,13.672,0
1542907724.989,50.293,22.949,32.715,72.754,-24.414,0
1542907724.993,52.734,20.508,29.785,64.453,-0.977,0
1542907724.997,48.828,16.113,33.691,64.941,33.691,0
1542907725.001,41.504,21.973,31.738,69.824,10.742,0
1542907725.005,41.504,24.414,22.461,62.988,29.785,0
1542907725.009,42.480,20.996,20.996,58.594,67.871,0
1542907725.013,38.574,15.137,35.156,62.012,47.852,0
1542907725.017,33.203,14.648,39.551,59.082,47.852,0
1542907725.020,42.969,9.277,32.715,53.711,59.082,0
1542907725.024,61.035,14.648,29.297,57.129,43.457,0
1542907725.028,50.781,21.973,35.156,63.477,35.645,0
1542907725.032,36.133,18.555,34.180,68.359,68.848,0
1542907725.036,40.039,28.809,28.320,54.199,73.730,0
1542907725.040,40.527,28.320,29.297,52.246,35.156,0
1542907725.044,35.156,20.996,31.738,61.035,-29.297,0
1542907725.048,33.203,22.461,30.273,47.363,-31.250,0
1542907725.052,53.711,24.414,25.879,54.688,43.457,0
1542907725.056,52.734,19.043,30.273,68.359,40.527,0
1542907725.059,34.668,17.090,38.574,62.988,7.812,0
1542907725.063,43.945,15.137,39.062,65.430,24.902,0
1542907725.067,41.992,11.230,34.180,69.336,61.523,0
1542907725.071,26.367,9.766,28.809,68.359,51.758,0
1542907725.075,27.344,10.254,33.203,72.266,9.766,0
1542907725.079,32.227,8.301,38.086,68.848,31.738,0
1542907725.083,40.527,3.418,37.598,62.500,23.438,0
1542907725.087,41.992,6.836,31.738,64.453,-21.484,0
1542907725.091,33.691,8.301,21.973,69.336,10.254,0
1542907725.095,28.320,6.836,26.855,71.777,41.016,0
1542907725.099,35.645,14.160,33.691,72.266,14.648,0
1542907725.102,34.180,13.184,34.180,62.500,16.602,0
1542907725.106,26.855,8.789,34.668,62.012,24.414,0
1542907725.110,35.156,16.113,34.668,56.152,6.836,0
1542907725.114,24.414,16.113,36.133,54.688,7.812,0
1542907725.118,13.184,13.672,37.109,57.617,16.113,0
1542907725.122,23.926,17.578,29.785,60.547,15.137,0
1542907725.126,32.715,18.555,27.344,60.547,-4.395,0
1542907725.130,23.438,10.742,31.738,62.500,-28.809,0
1542907725.134,19.043,3.906,34.180,72.754,-10.742,0
1542907725.138,18.066,9.277,38.086,74.707,41.992,0
1542907725.142,28.320,14.648,35.156,71.289,18.066,0
1542907725.145,43.457,15.625,31.738,79.102,68.359,0
1542907725.149,34.180,14.160,29.785,83.008,85.449,0
1542907725.153,24.414,15.625,28.809,79.102,66.406,0
1542907725.157,32.227,12.207,29.785,79.590,70.312,0
1542907725.161,41.992,13.672,28.320,86.426,45.410,0
1542907725.165,50.781,24.414,25.879,87.891,17.090,0
1542907725.169,54.199,22.949,29.785,83.008,39.062,0
1542907725.173,50.781,24.902,28.809,80.566,63.477,0
1542907725.177,49.805,23.926,28.320,82.520,68.848,0
1542907725.181,41.016,21.973,29.785,76.660,54.199,0
1542907725.184,41.992,27.344,29.297,62.500,40.527,0
1542907725.188,43.457,28.320,30.273,57.617,35.156,0
1542907725.192,30.273,29.297,35.645,66.406,36.133,0
1542907725.196,33.203,27.344,34.180,75.684,68.359,0
1542907725.200,29.297,24.902,30.273,69.824,82.031,0
1542907725.204,34.180,24.414,29.785,78.125,43.457,0
1542907725.208,34.668,21.973,23.926,82.031,-3.418,0
1542907725.212,33.203,25.879,23.438,71.777,45.898,0
1542907725.216,40.527,25.391,32.227,77.637,50.293,0
1542907725.220,29.297,19.531,36.621,83.496,65.430,0
1542907725.224,30.273,19.531,38.574,83.496,41.016,0
1542907725.227,43.457,22.461,40.039,82.031,12.207,0
1542907725.231,38.574,28.320,31.738,82.520,-8.301,0
1542907725.235,36.621,33.203,21.484,81.543,2.441,0
1542907725.239,61.523,40.039,20.996,90.820,43.457,0
1542907725.243,50.293,33.691,28.809,78.613,42.969,0
1542907725.247,19.043,23.926,37.109,59.082,50.293,0
1542907725.251,32.227,23.926,42.969,66.406,54.199,0
1542907725.255,32.715,18.066,44.434,66.895,71.289,0
1542907725.259,23.438,17.090,35.645,47.852,24.902,0
1542907725.263,19.043,10.742,32.715,33.691,-7.324,0
1542907725.267,12.695,5.859,45.898,29.297,-12.695,0
1542907725.270,16.602,12.207,51.270,32.715,-4.395,0
1542907725.274,18.066,15.137,43.945,34.668,30.273,0
1542907725.278,25.879,9.277,40.527,30.762,10.254,0
1542907725.282,30.273,-0.977,40.527,36.133,-58.105,0
1542907725.286,24.414,7.812,42.480,24.414,-15.625,0
1542907725.290,16.602,21.973,44.922,-13.672,47.852,0
1542907725.294,11.719,24.414,41.504,-47.363,17.578,0
1542907725.298,9.277,14.648,33.691,-79.102,22.949,0
1542907725.302,-0.488,-2.930,35.645,-94.727,100.098,0
1542907725.306,8.789,10.254,41.016,-84.961,73.730,0
1542907725.309,15.137,24.902,35.156,-77.637,-7.812,0
1542907725.313,14.648,20.020,33.203,-86.426,46.387,0
1542907725.317,8.301,18.066,36.621,-84.961,66.895,0
1542907725.321,8.301,16.113,32.715,-81.543,12.695,0
1542907725.325,14.160,17.578,26.855,-80.566,33.203,0
1542907725.329,11.230,17.578,23.438,-67.871,76.660,0
1542907725.333,12.695,23.438,26.367,-67.871,32.227,0
1542907725.337,8.301,25.391,32.227,-72.266,6.348,0
1542907725.341,3.906,14.160,33.691,-65.430,65.918,0
1542907725.345,3.418,17.578,27.344,-52.734,15.625,0
1542907725.349,12.695,17.090,21.973,-49.316,9.766,0
1542907725.352,4.883,9.766,24.414,-54.199,106.934,0
1542907725.356,4.395,25.879,29.297,-48.340,26.367,0
1542907725.360,10.742,30.762,24.414,-50.293,-41.504,0
1542907725.364,20.020,20.996,19.043,-49.805,-77.637,0
1542907725.368,27.344,23.438,28.809,-46.387,-67.871,0
1542907725.372,17.578,26.855,34.668,-54.688,18.555,0
1542907725.376,15.625,20.996,27.832,-63.965,65.430,0
1542907725.380,17.578,15.137,26.367,-69.824,34.668,0
1542907725.384,16.602,15.625,27.344,-65.918,10.742,0
1542907725.388,13.184,19.531,27.344,-70.801,51.270,0
1542907725.392,9.766,22.461,21.973,-70.801,2.930,0
1542907725.395,23.438,24.902,15.625,-64.453,-24.902,0
1542907725.399,32.227,23.926,20.020,-62.012,-31.738,0
1542907725.403,22.461,20.996,26.367,-48.340,-42.480,0
1542907725.407,15.625,21.973,20.508,-38.086,1.465,0
1542907725.411,17.578,23.926,17.578,-38.574,51.758,0
1542907725.415,24.414,32.227,34.668,-30.273,-0.488,0
1542907725.419,25.391,35.645,40.039,-25.879,-33.203,0
1542907725.423,15.137,22.949,31.250,-35.156,23.926,0
1542907725.427,8.301,16.602,29.785,-24.414,35.156,0
1542907725.431,6.836,18.066,28.320,-20.996,49.805,0
1542907725.434,9.766,21.484,27.344,-23.438,45.898,0
1542907725.438,12.695,23.926,32.227,-15.137,28.320,0
1542907725.442,19.043,23.926,26.855,-7.324,44.922,0
1542907725.446,27.832,21.484,16.113,-13.672,35.156,0
1542907725.450,24.902,20.508,20.996,-16.602,-5.371,0
1542907725.454,15.137,20.508,22.949,-4.883,3.906,0
1542907725.458,21.973,24.414,19.531,4.395,24.414,0
1542907725.462,20.020,23.926,25.879,-3.418,20.508,0
1542907725.466,17.090,23.926,29.297,-7.324,-16.113,0
1542907725.470,22.949,21.484,28.809,3.906,-16.113,0
1542907725.474,15.137,9.277,30.762,7.812,22.949,0
1542907725.477,9.766,16.602,33.691,7.324,12.695,0
1542907725.481,6.836,24.902,30.762,-0.488,42.480,0
1542907725.485,6.836,22.949,24.902,-4.395,111.328,0
1542907725.489,10.742,21.973,27.344,7.812,30.762,0
1542907725.493,15.137,18.066,28.320,12.207,-14.160,0
1542907725.497,20.508,12.695,24.902,3.906,77.637,0
1542907725.501,18.066,14.160,24.414,-1.465,114.746,0
1542907725.505,13.184,18.555,27.344,-5.371,95.215,0
1542907725.509,-0.977,17.578,29.297,-11.230,46.387,0
1542907725.513,-2.930,15.137,26.855,-16.113,56.641,0
1542907725.517,6.348,18.066,20.020,-22.949,3.906,0
1542907725.520,2.930,15.625,17.090,-25.879,-11.230,0
1542907725.524,-2.441,11.719,25.879,-24.902,18.555,0
1542907725.528,0.488,18.066,27.832,-29.297,-28.809,0
1542907725.532,12.695,18.066,26.367,-29.297,43.945,0
1542907725.536,16.113,13.672,21.484,-15.137,79.590,0
1542907725.540,16.113,18.066,19.531,-8.789,21.484,0
1542907725.544,24.902,27.832,23.438,1.465,48.828,0
1542907725.548,20.996,28.320,21.973,28.320,43.945,0
1542907725.552,15.137,21.484,25.391,65.430,15.625,0
1542907725.556,14.648,25.879,23.438,99.609,42.480,0
1542907725.559,18.066,27.344,20.508,115.234,73.242,0
1542907725.563,15.137,24.902,24.902,121.582,77.148,0
1542907725.567,-1.465,24.414,29.297,130.371,47.363,0
1542907725.571,0.000,20.508,31.738,139.160,25.391,0
1542907725.575,3.418,19.531,37.109,144.531,33.203,0
1542907725.579,5.859,18.555,36.621,143.066,38.086,0
1542907725.583,8.789,13.672,27.344,125.000,-16.113,0
1542907725.587,11.230,16.113,29.785,112.793,-16.113,0
1542907725.591,18.555,4.395,30.762,123.535,7.812,0
1542907725.595,22.949,7.324,23.926,131.836,-18.555,0
1542907725.599,20.996,28.809,24.902,122.559,-35.645,0
1542907725.602,20.020,24.902,38.086,121.582,5.859,0
1542907725.606,8.301,23.926,38.574,114.258,47.852,0
1542907725.610,6.836,27.344,30.762,98.633,38.574,0
1542907725.614,8.301,23.438,32.227,86.426,13.672,0
1542907725.618,15.137,28.809,36.133,81.055,50.293,0
1542907725.622,12.207,30.762,34.668,74.707,76.660,0
1542907725.626,9.277,28.320,27.344,78.125,-11.230,0
1542907725.630,14.160,27.832,25.879,76.172,-11.230,0
1542907725.634,15.137,18.066,26.855,68.848,64.453,0
1542907725.638,8.789,9.277,27.344,73.730,80.566,0
1542907725.642,-1.953,15.625,27.344,75.195,66.406,0
1542907725.645,5.371,21.484,28.320,71.289,27.832,0
1542907725.649,15.625,20.996,26.367,68.848,12.207,0
1542907725.653,14.648,21.973,23.926,70.801,40.527,0
1542907725.657,15.625,22.461,24.902,74.219,57.617,0
1542907725.661,13.184,17.578,27.832,77.148,28.809,0
1542907725.665,12.695,18.066,25.879,74.707,0.977,0
1542907725.669,14.160,22.949,23.926,81.543,53.223,0
1542907725.673,16.602,20.508,26.367,83.984,84.961,0
1542907725.677,14.648,17.578,29.785,74.707,44.434,0
1542907725.681,14.648,18.555,28.320,82.520,29.297,0
1542907725.684,16.113,13.184,24.902,84.473,-19.531,0
1542907725.688,24.902,10.254,26.855,74.707,43.457,0
1542907725.692,19.043,14.160,30.762,77.637,63.477,0
1542907725.696,7.812,5.859,31.738,84.961,-3.418,0
1542907725.700,22.461,6.348,38.086,103.027,6.348,0
1542907725.704,26.855,22.949,31.738,92.773,-17.090,0
1542907725.708,14.160,31.250,16.113,71.777,-9.766,0
1542907725.712,16.602,25.391,15.625,79.102,66.895,0
1542907725.716,32.227,21.484,19.531,91.797,45.410,0
1542907725.720,37.598,27.344,16.602,91.797,1.465,0
1542907725.724,44.922,32.227,13.184,83.984,15.137,0
1542907725.727,48.340,32.227,15.625,91.797,43.945,0
1542907725.731,41.016,30.762,20.508,96.191,22.461,0
1542907725.735,53.223,28.320,24.902,103.027,-15.137,0
1542907725.739,46.387,28.320,25.879,102.539,-30.762,0
1542907725.743,37.109,28.320,25.879,82.031,-27.832,0
1542907725.747,43.945,26.855,22.949,71.289,-8.301,0
1542907725.751,47.363,25.391,19.043,72.754,-7.812,0
1542907725.755,52.246,32.715,24.902,77.637,-18.066,0
1542907725.759,63.477,30.762,24.902,76.660,28.809,0
1542907725.763,54.199,14.160,21.973,75.195,-9.766,0
1542907725.767,41.016,25.391,26.367,83.008,-31.738,0
1542907725.770,49.805,44.922,21.973,81.055,22.461,0
1542907725.774,42.969,44.434,16.602,77.148,9.277,0
1542907725.778,45.898,35.156,15.137,77.148,29.297,0
1542907725.782,58.594,33.691,21.484,72.754,26.367,0
1542907725.786,49.805,39.551,32.715,78.613,14.648,0
1542907725.790,46.875,33.203,29.785,75.195,-0.977,0
1542907725.794,52.734,19.531,32.227,72.266,11.230,0
1542907725.798,46.875,24.414,35.156,77.637,57.617,0
1542907725.802,46.875,39.551,28.320,73.730,14.648,0
1542907725.806,50.781,40.527,22.949,63.477,25.879,0
1542907725.809,39.551,30.273,18.066,51.270,41.016,0
1542907725.813,35.156,24.414,22.949,51.758,53.711,0
1542907725.817,41.992,19.043,26.855,61.523,40.527,0
1542907725.821,42.480,16.602,23.926,62.012,3.906,0
1542907725.825,37.109,28.320,21.973,60.547,18.555,0
1542907725.829,31.738,35.156,17.578,63.477,23.438,0
1542907725.833,34.668,28.320,18.066,64.453,7.324,0
1542907725.837,40.039,21.973,25.879,66.895,34.668,0
1542907725.841,36.133,20.508,28.809,78.125,4.883,0
1542907725.845,31.738,26.367,20.508,73.242,-34.180,0
1542907725.849,26.855,22.461,22.461,66.895,-30.273,0
1542907725.852,29.297,21.484,30.273,79.102,11.719,0
1542907725.856,21.484,20.020,26.367,70.312,20.508,0
1542907725.860,21.484,16.113,24.414,62.500,19.531,0
1542907725.864,26.855,18.555,29.785,72.266,16.113,0
1542907725.868,18.066,16.602,32.227,75.684,43.457,0
1542907725.872,18.066,15.137,25.391,76.660,92.285,0
1542907725.876,17.578,18.555,22.949,79.590,71.289,0
1542907725.880,24.414,20.996,28.809,86.426,83.984,0
1542907725.884,32.227,22.949,35.645,84.473,83.984,0
1542907725.888,12.695,24.902,35.645,78.613,15.137,0
1542907725.892,6.836,22.949,31.738,80.566,70.801,0
1542907725.895,37.109,21.484,31.250,79.102,46.875,0
1542907725.899,41.992,22.949,31.738,76.660,7.812,0
1542907725.903,27.344,23.926,32.227,80.078,103.516,0
1542907725.907,26.855,21.484,30.273,80.078,88.867,0
1542907725.911,20.996,23.438,32.715,74.219,25.879,0
1542907725.915,26.855,25.391,36.133,74.219,0.977,0
1542907725.919,17.578,24.902,34.180,69.336,35.156,0
1542907725.923,7.324,21.973,34.668,60.059,73.242,0
1542907725.927,7.812,21.484,38.574,62.012,49.805,0
1542907725.931,19.043,20.508,38.086,65.918,47.852,0
1542907725.934,17.090,21.973,37.109,58.105,56.641,0
1542907725.938,3.418,24.414,42.969,51.758,83.984,0
1542907725.942,18.555,20.508,45.898,57.129,91.309,0
1542907725.946,18.066,13.184,46.387,70.801,42.969,0
1542907725.950,14.648,6.348,51.270,79.102,58.594,0
1542907725.954,31.738,2.441,57.129,83.008,72.754,0
1542907725.958,41.016,-1.953,60.547,89.355,20.996,0
1542907725.962,38.086,-1.465,60.059,83.984,59.570,0
1542907725.966,40.527,-5.859,60.547,83.496,121.094,0
1542907725.970,55.664,-5.859,59.570,98.145,44.434,0
1542907725.974,60.059,1.953,58.105,100.586,41.504,0
1542907725.977,60.059,0.488,56.641,103.516,64.941,0
1542907725.981,58.105,4.395,52.246,100.098,-17.090,0
1542907725.985,69.336,6.836,49.316,99.609,-4.883,0
1542907725.989,76.172,8.789,44.922,98.633,28.320,0
1542907725.993,74.707,11.719,39.551,96.680,28.809,0
1542907725.997,67.871,14.160,41.016,97.168,21.973,0
1542907726.001,61.523,17.578,42.969,88.867,-4.883,0
1542907726.005,75.195,17.090,41.504,90.820,12.695,0
1542907726.009,76.172,17.578,41.992,94.727,75.195,0
1542907726.013,76.172,19.043,42.969,87.891,20.020,0
1542907726.017,70.312,18.555,42.969,86.914,-13.672,0
1542907726.020,59.570,17.090,42.480,77.637,20.020,0
1542907726.024,56.641,18.555,38.086,66.895,8.789,0
1542907726.028,42.480,20.996,36.621,72.754,55.664,0
1542907726.032,41.992,14.160,40.039,65.430,107.910,0
1542907726.036,54.688,15.625,45.410,59.570,49.805,0
1542907726.040,54.688,26.855,45.410,68.848,39.551,0
1542907726.044,47.852,25.879,38.086,70.801,54.688,0
1542907726.048,47.363,21.973,37.109,69.336,17.578,0
1542907726.052,55.176,25.391,37.109,65.430,77.637,0
1542907726.056,60.059,25.879,35.645,66.895,70.312,0
1542907726.059,60.547,22.461,36.133,71.777,-11.719,0
1542907726.063,61.035,26.367,36.621,69.336,15.137,0
1542907726.067,63.477,29.297,37.109,75.195,64.941,0
1542907726.071,59.570,25.391,35.156,72.754,16.602,0
1542907726.075,61.035,21.973,33.203,69.336,24.414,0
1542907726.079,49.316,20.996,35.156,66.406,15.625,0
1542907726.083,37.598,20.508,39.062,58.594,0.488,0
1542907726.087,37.598,22.461,39.062,53.711,29.785,0
1542907726.091,47.363,20.996,38.086,54.688,-13.672,0
1542907726.095,53.711,18.555,37.598,57.617,-32.715,0
1542907726.099,45.410,22.949,36.133,58.105,5.371,0
1542907726.102,40.039,19.043,30.762,55.664,31.738,0
1542907726.106,40.039,11.719,27.344,57.129,61.035,0
1542907726.110,47.363,22.949,32.227,57.617,72.266,0
1542907726.114,41.504,28.320,36.133,58.105,36.621,0
1542907726.118,46.875,23.438,38.086,62.988,38.086,0
1542907726.122,52.246,21.973,33.691,64.941,33.691,0
1542907726.126,33.691,21.484,29.297,60.547,-10.742,0
1542907726.130,42.969,20.508,30.273,59.082,2.441,0
1542907726.134,41.016,18.555,28.320,51.270,21.973,0
1542907726.138,31.738,19.531,27.344,52.246,-5.859,0
1542907726.142,38.086,23.926,31.738,51.270,-19.531,0
1542907726.145,46.387,23.926,29.297,43.457,29.297,0
1542907726.149,43.457,22.949,25.879,36.133,77.148,0
1542907726.153,38.086,24.902,24.902,41.504,31.250,0
1542907726.157,42.480,26.855,22.949,40.527,-26.367,0
1542907726.161,35.645,28.320,29.297,31.250,-50.781,0
1542907726.165,37.598,27.832,32.715,41.504,-20.996,0
1542907726.169,46.875,28.809,31.738,48.340,38.574,0
1542907726.173,50.293,33.691,34.668,49.805,60.059,0
1542907726.177,47.852,31.738,34.668,54.199,52.246,0
1542907726.181,43.457,30.762,30.762,52.734,14.160,0
1542907726.184,36.133,33.691,31.738,55.664,-7.812,0
1542907726.188,29.785,29.785,31.738,57.617,37.109,0
1542907726.192,35.156,29.297,29.785,62.500,1.465,0
1542907726.196,37.598,30.762,27.832,62.988,15.137,0
1542907726.200,40.039,29.785,27.832,46.387,53.711,0
1542907726.204,39.062,28.320,28.320,41.504,35.645,0
1542907726.208,30.762,18.066,25.879,56.152,41.992,0
1542907726.212,30.273,20.020,20.508,54.688,23.926,0
1542907726.216,34.180,23.438,12.695,50.293,32.715,0
1542907726.220,46.387,17.578,26.367,51.270,38.086,0
1542907726.224,39.062,34.668,35.156,-8.301,7.324,0
1542907726.227,8.301,42.480,27.832,-79.102,-3.906,0
1542907726.231,-17.090,39.062,28.320,-104.004,40.527,0
1542907726.235,-33.203,41.016,30.762,-126.953,53.223,0
1542907726.239,-47.852,36.133,31.738,-150.879,44.922,0
1542907726.243,-70.312,36.621,22.949,-169.434,48.828,0
1542907726.247,-83.984,42.969,12.695,-184.570,99.121,0
1542907726.251,-89.844,41.016,16.113,-188.965,94.727,0
1542907726.255,-100.098,41.016,24.414,-190.430,41.504,0
1542907726.259,-89.844,40.527,11.230,-193.848,50.781,0
1542907726.263,-83.984,41.992,-16.113,-203.125,84.473,0
1542907726.267,-88.867,32.715,-4.883,-190.430,53.223,0
1542907726.270,-76.172,22.949,20.020,-167.969,-37.598,0
1542907726.274,-50.293,20.508,20.508,-152.832,-36.621,0
1542907726.278,-37.598,17.578,1.953,-138.672,5.859,0
1542907726.282,-32.227,31.250,3.906,-119.141,30.273,0
1542907726.286,-20.020,37.598,5.371,-103.516,45.898,0
1542907726.290,-8.789,43.457,-6.348,-90.820,56.152,0
1542907726.294,-7.324,44.434,-4.883,-77.148,63.965,0
1542907726.298,0.488,35.645,3.418,-71.289,21.973,0
1542907726.302,12.695,31.738,13.672,-62.988,34.180,0
1542907726.306,11.719,29.297,10.254,-60.059,96.680,0
1542907726.309,13.184,29.785,2.441,-55.664,-5.371,0
1542907726.313,26.367,29.297,3.418,-41.504,-64.941,0
1542907726.317,30.762,28.809,5.859,-23.438,23.438,0
1542907726.321,36.621,25.879,9.766,-26.367,-28.320,0
1542907726.325,46.387,25.391,10.742,-27.344,-19.531,0
1542907726.329,30.273,30.273,12.695,-18.555,53.223,0
1542907726.333,34.180,29.785,11.719,-19.531,41.016,0
1542907726.337,42.969,23.438,3.906,-20.508,25.879,0
1542907726.341,32.227,24.414,6.348,-15.625,46.875,0
1542907726.345,38.574,33.203,15.625,-5.371,58.594,0
1542907726.349,43.945,28.320,18.066,0.977,13.184,0
1542907726.352,43.457,26.367,15.137,7.324,8.789,0
1542907726.356,42.969,27.344,11.719,-4.395,13.184,0
1542907726.360,51.758,23.438,6.836,-7.812,30.273,0
1542907726.364,54.199,27.344,11.230,-2.930,41.016,0
1542907726.368,41.992,28.320,20.508,-2.930,38.086,0
1542907726.372,47.852,20.508,17.090,0.000,-1.465,0
1542907726.376,48.828,22.461,11.719,9.277,-14.160,0
1542907726.380,31.250,25.391,13.184,16.113,6.348,0
1542907726.384,30.273,22.949,13.672,6.348,2.930,0
1542907726.388,37.109,24.414,14.648,3.418,-15.625,0
1542907726.392,42.969,25.391,17.090,11.719,21.484,0
1542907726.395,52.246,26.367,17.090,12.695,38.086,0
1542907726.399,41.504,16.602,19.043,28.320,55.176,0
1542907726.403,41.992,15.625,22.461,44.434,63.965,0
1542907726.407,26.855,43.457,18.555,16.113,66.895,0
1542907726.411,18.555,47.852,17.090,5.859,66.406,0
1542907726.415,31.738,37.598,16.602,22.949,2.930,0
1542907726.419,25.391,37.598,17.578,25.879,8.301,0
1542907726.423,31.738,37.109,17.090,29.297,74.707,0
1542907726.427,30.273,30.762,15.625,19.043,52.734,0
1542907726.431,19.043,26.855,21.484,8.789,2.930,0
1542907726.434,23.438,36.133,14.648,18.066,1.953,0
1542907726.438,24.902,41.504,15.137,27.344,3.418,0
1542907726.442,25.391,39.551,16.602,35.645,67.383,0
1542907726.446,21.973,33.691,9.766,31.738,64.453,0
1542907726.450,15.625,25.391,11.719,26.367,30.762,0
1542907726.454,25.879,27.344,16.602,36.133,38.086,0
1542907726.458,35.156,27.344,20.020,41.992,19.043,0
1542907726.462,33.691,22.949,22.461,41.016,47.363,0
1542907726.466,42.969,30.273,24.902,41.992,38.086,0
1542907726.470,37.109,31.250,26.367,42.480,27.832,0
1542907726.474,29.785,30.762,31.250,48.828,31.250,0
1542907726.477,31.250,29.297,22.949,47.363,3.906,0
1542907726.481,24.902,25.391,13.672,43.945,21.973,0
1542907726.485,28.320,21.973,15.137,51.270,7.812,0
1542907726.489,34.180,23.438,9.766,51.758,47.852,0
1542907726.493,34.180,32.227,11.230,46.387,94.727,0
1542907726.497,34.668,15.137,19.043,46.387,50.781,0
1542907726.501,34.668,10.254,28.320,52.246,8.789,0
1542907726.505,35.645,38.574,32.715,57.617,11.230,0
1542907726.509,37.598,38.086,19.043,48.340,24.414,0
1542907726.513,41.016,30.762,17.578,44.922,-0.488,0
1542907726.517,37.109,31.250,27.832,49.316,21.973,0
1542907726.520,32.227,27.344,30.762,49.316,37.598,0
1542907726.524,31.738,27.344,31.738,57.617,66.895,0
1542907726.528,26.367,26.855,25.391,59.570,59.082,0
1542907726.532,42.969,24.414,14.160,51.270,17.578,0
1542907726.536,43.945,20.996,14.160,51.270,26.855,0
1542907726.540,35.645,18.066,23.438,58.105,-0.488,0
1542907726.544,37.109,23.438,30.273,50.293,-30.273,0
1542907726.548,35.645,28.809,31.738,43.457,17.090,0
1542907726.552,38.574,26.855,32.715,55.664,55.664,0
1542907726.556,34.180,21.973,32.227,63.477,31.738,0
1542907726.559,36.133,16.113,26.367,46.875,-16.602,0
1542907726.563,41.016,17.090,26.855,40.039,9.277,0
1542907726.567,39.062,20.020,36.133,53.223,34.180,0
1542907726.571,24.414,15.625,35.645,57.129,85.449,0
1542907726.575,18.555,16.602,29.297,57.617,70.801,0
1542907726.579,15.625,20.020,33.203,64.941,16.113,0
1542907726.583,14.160,20.020,35.156,67.383,35.645,0
1542907726.587,21.484,21.973,29.297,64.941,12.207,0
1542907726.591,21.484,21.973,30.273,65.918,21.973,0
1542907726.595,33.691,19.043,34.180,68.848,28.809,0
1542907726.599,37.598,13.672,28.809,75.684,-22.949,0
1542907726.602,21.973,13.672,29.785,81.543,13.672,0
1542907726.606,20.508,18.555,42.480,72.754,61.035,0
1542907726.610,28.809,19.531,46.875,64.453,31.738,0
1542907726.614,36.133,18.066,43.457,61.035,45.898,0
1542907726.618,29.297,14.648,40.527,57.129,96.191,0
1542907726.622,30.273,18.555,32.715,63.477,90.820,0
1542907726.626,39.062,19.043,30.762,60.547,41.992,0
1542907726.630,35.645,14.160,29.297,54.199,62.012,0
1542907726.634,28.320,12.695,25.391,49.805,87.891,0
1542907726.638,26.855,13.672,34.180,41.992,61.523,0
1542907726.642,38.574,13.672,41.504,44.922,60.547,0
1542907726.645,38.086,10.254,39.551,47.363,29.297,0
1542907726.649,30.273,14.160,38.574,48.828,4.395,0
1542907726.653,41.016,12.207,37.109,53.223,44.922,0
1542907726.657,52.734,15.137,33.203,56.152,62.012,0
1542907726.661,44.922,24.902,32.715,48.828,54.199,0
1542907726.665,43.945,20.996,32.715,60.059,62.988,0
1542907726.669,41.504,21.484,28.320,62.500,86.426,0
1542907726.673,42.480,25.879,32.715,52.246,72.754,0
1542907726.677,31.738,17.090,41.016,52.734,80.566,0
1542907726.681,36.621,11.719,38.574,52.734,94.727,0
1542907726.684,59.570,18.555,35.156,63.477,73.242,0
1542907726.688,33.691,21.973,34.180,61.523,31.738,0
1542907726.692,21.484,19.043,35.156,54.199,29.297,0
1542907726.696,44.434,17.090,35.645,58.594,19.531,0
1542907726.700,48.828,22.949,40.527,53.223,4.395,0
1542907726.704,29.297,21.484,41.504,48.340,38.574,0
1542907726.708,20.996,13.672,35.645,47.363,66.895,0
1542907726.712,23.926,15.137,36.621,47.852,65.918,0
1542907726.716,26.367,14.160,36.621,51.758,9.766,0
1542907726.720,31.738,12.695,29.297,44.434,-2.930,0
1542907726.724,45.898,11.230,30.762,36.133,0.000,0
1542907726.727,54.199,14.648,38.086,43.457,28.809,0
1542907726.731,34.180,13.672,35.645,54.199,53.711,0
1542907726.735,34.180,15.625,27.344,61.523,69.336,0
1542907726.739,45.410,24.902,23.926,57.129,86.914,0
1542907726.743,39.062,16.113,28.320,50.293,48.828,0
1542907726.747,38.574,10.254,15.625,47.852,77.148,0
1542907726.751,42.480,12.207,12.207,45.898,48.828,0
1542907726.755,44.434,16.113,37.109,50.781,-2.930,0
1542907726.759,36.133,13.184,43.457,44.922,72.754,0
1542907726.763,33.203,10.254,37.598,40.039,23.438,0
1542907726.767,54.199,17.090,38.574,48.828,-13.184,0
1542907726.770,57.129,13.672,34.180,50.781,74.707,0
1542907726.774,30.273,11.230,29.297,47.852,60.547,0
1542907726.778,20.020,15.137,28.809,52.734,62.500,0
1542907726.782,32.227,12.695,31.250,57.617,68.848,0
1542907726.786,48.340,11.230,29.297,59.570,78.613,0
1542907726.790,44.434,11.230,30.762,68.359,35.645,0
1542907726.794,40.039,11.719,35.645,67.383,10.254,0
1542907726.798,44.434,16.113,33.203,58.594,77.148,0
1542907726.802,31.738,21.484,28.320,47.363,38.086,0
1542907726.806,29.785,17.578,27.832,43.945,42.969,0
1542907726.809,40.039,11.719,28.809,51.270,59.570,0
1542907726.813,45.410,12.695,26.367,58.594,49.805,0
1542907726.817,46.387,7.324,26.855,62.988,109.863,0
1542907726.821,34.668,4.883,23.926,62.012,54.199,0
1542907726.825,46.875,11.719,19.531,57.617,17.578,0
1542907726.829,50.781,16.113,28.809,59.082,52.246,0
1542907726.833,31.738,16.602,35.645,62.988,-1.953,0
1542907726.837,33.203,17.578,33.691,66.406,9.766,0
1542907726.841,33.203,16.113,31.250,72.266,20.020,0
1542907726.845,32.227,18.555,34.180,78.613,9.766,0
1542907726.849,32.227,23.926,26.367,70.312,45.898,0
1542907726.852,39.551,20.020,17.090,67.871,6.836,0
1542907726.856,36.621,20.996,23.926,68.848,-14.648,0
1542907726.860,31.250,22.461,30.762,58.594,20.996,0
1542907726.864,17.090,20.996,30.273,64.453,40.039,0
1542907726.868,26.367,23.926,23.926,67.383,2.441,0
1542907726.872,46.387,28.809,25.879,74.707,-28.809,0
1542907726.876,35.645,27.832,36.621,80.566,29.785,0
1542907726.880,24.414,18.066,33.203,76.172,45.410,0
1542907726.884,31.250,15.625,28.809,66.895,16.113,0
1542907726.888,28.809,13.672,33.691,65.918,20.020,0
1542907726.892,30.762,0.977,41.504,78.125,-4.395,0
1542907726.895,37.598,13.184,42.969,83.496,-25.391,0
1542907726.899,7.812,32.227,29.297,50.781,-13.184,0
1542907726.903,1.465,31.738,16.113,29.785,12.695,0
1542907726.907,17.090,32.715,16.602,41.504,20.020,0
1542907726.911,7.812,24.414,17.578,31.738,26.855,0
1542907726.915,8.301,24.414,18.555,32.227,42.480,0
1542907726.919,12.207,35.645,15.625,36.621,6.836,0
1542907726.923,6.836,42.969,12.695,27.832,-5.371,0
1542907726.927,-3.418,33.691,14.160,24.414,55.176,0
1542907726.931,-4.883,29.297,15.625,31.250,37.598,0
1542907726.934,1.953,36.621,20.508,40.527,44.434,0
1542907726.938,20.020,32.227,19.531,39.062,15.137,0
1542907726.942,24.414,19.043,18.066,43.945,15.625,0
1542907726.946,4.395,13.184,22.461,53.711,89.355,0
1542907726.950,6.348,25.391,18.066,46.387,12.207,0
1542907726.954,22.949,39.062,11.230,50.293,-11.230,0
1542907726.958,21.973,36.133,10.742,54.688,50.781,0
1542907726.962,13.184,25.391,18.555,45.410,14.160,0
1542907726.966,22.461,25.391,26.367,49.805,10.254,0
1542907726.970,28.320,21.973,22.461,52.734,-16.602,0
1542907726.974,17.578,27.344,18.066,49.316,40.039,0
1542907726.977,19.043,33.691,22.949,48.340,83.984,0
1542907726.981,19.043,30.762,31.738,47.852,-2.930,0
1542907726.985,17.578,30.273,33.203,57.129,11.230,0
1542907726.989,25.879,27.344,25.879,48.828,35.156,0
1542907726.993,33.203,31.250,24.414,35.156,49.805,0
1542907726.997,38.574,36.621,30.762,51.270,55.664,0
1542907727.001,32.715,33.691,29.297,49.805,24.414,0
1542907727.005,33.203,30.762,17.090,37.598,-16.113,0
1542907727.009,40.527,36.621,18.555,37.598,5.371,0
1542907727.013,37.109,41.016,28.320,32.715,36.133,0
1542907727.017,30.273,33.203,20.020,30.762,39.551,0
1542907727.020,24.902,31.738,13.672,38.574,70.312,0
1542907727.024,27.344,28.320,24.414,35.645,50.293,0
1542907727.028,31.250,27.344,34.180,28.809,15.137,0
1542907727.032,35.645,27.832,31.738,28.320,18.555,0
1542907727.036,43.457,30.762,22.949,28.809,53.223,0
1542907727.040,35.156,20.996,22.461,44.434,77.637,0
1542907727.044,29.785,19.531,30.273,40.039,83.008,0
1542907727.048,27.832,40.039,30.273,10.742,41.992,0
1542907727.052,18.066,41.992,21.484,-2.930,21.973,0
1542907727.056,14.648,33.203,21.973,1.465,43.457,0
1542907727.059,10.742,27.832,31.250,6.348,16.602,0
1542907727.063,8.301,25.391,29.297,0.000,33.203,0
1542907727.067,23.438,24.902,24.414,7.812,35.645,0
1542907727.071,20.020,28.320,32.715,7.812,46.875,0
1542907727.075,13.184,25.391,32.227,20.508,70.312,0
1542907727.079,20.996,25.879,25.879,28.809,111.816,0
1542907727.083,22.949,23.926,20.508,11.230,128.418,0
1542907727.087,15.625,20.508,22.949,11.230,69.824,0
1542907727.091,18.555,25.879,25.879,15.137,29.297,0
1542907727.095,27.344,31.250,20.020,18.066,28.809,0
1542907727.099,31.738,31.738,20.020,24.902,62.012,0
1542907727.102,27.832,25.879,30.273,25.879,80.566,0
1542907727.106,28.809,24.414,36.133,33.691,71.289,0
1542907727.110,25.391,38.574,31.250,38.574,27.832,0
1542907727.114,19.043,39.062,34.668,39.062,35.645,0
1542907727.118,22.949,15.625,29.785,39.062,51.270,0
1542907727.122,27.832,19.531,23.926,37.598,2.441,0
1542907727.126,28.809,27.832,25.391,40.527,37.598,0
1542907727.130,20.996,22.949,17.090,37.598,97.168,0
1542907727.134,25.879,28.809,23.926,33.691,39.551,0
1542907727.138,34.668,31.738,31.250,36.133,8.301,0
1542907727.142,26.367,23.926,28.320,40.527,6.836,0
1542907727.145,23.438,22.949,29.785,40.527,14.160,0
1542907727.149,23.926,23.926,32.715,46.875,1.465,0
1542907727.153,27.832,24.902,37.598,54.199,5.859,0
1542907727.157,38.086,26.855,36.621,51.270,27.344,0
1542907727.161,35.156,25.879,37.598,49.316,38.574,0
1542907727.165,33.691,22.949,33.691,38.574,28.320,0
1542907727.169,31.738,19.531,30.762,26.367,-11.230,0
1542907727.173,25.391,14.160,33.203,25.391,-8.789,0
1542907727.177,34.180,11.230,26.855,30.762,3.906,0
1542907727.181,44.434,14.648,29.297,29.297,41.992,0
1542907727.184,39.062,17.090,36.133,14.648,28.320,0
1542907727.188,32.227,18.555,37.109,7.324,-3.906,0
1542907727.192,37.109,20.996,33.203,8.789,52.734,0
1542907727.196,32.227,19.043,25.391,7.324,14.648,0
1542907727.200,32.715,22.461,16.113,5.859,-46.875,0
1542907727.204,47.363,28.809,25.391,13.672,-12.695,0
1542907727.208,36.621,25.879,35.645,22.949,0.488,0
1542907727.212,30.762,26.367,38.574,20.508,41.992,0
1542907727.216,26.367,24.414,30.273,21.973,5.859,0
1542907727.220,22.949,17.578,14.160,28.809,9.766,0
1542907727.224,31.738,22.461,24.902,32.715,58.105,0
1542907727.227,35.156,24.902,28.809,40.527,-17.090,0
1542907727.231,32.715,17.578,27.344,49.316,21.973,0
1542907727.235,21.484,13.184,33.203,42.480,34.668,0
1542907727.239,23.926,23.438,35.645,49.805,-20.996,0
1542907727.243,30.762,28.320,30.273,67.383,11.719,0
1542907727.247,34.180,19.043,20.996,65.918,0.000,0
1542907727.251,21.973,15.625,23.926,68.359,8.789,0
1542907727.255,7.812,17.090,30.273,73.730,39.062,0
1542907727.259,25.391,18.066,23.926,78.125,-20.508,0
1542907727.263,31.738,17.090,21.973,85.938,-21.973,0
1542907727.267,34.180,13.672,20.020,88.867,29.297,0
1542907727.270,35.645,13.672,21.973,101.562,23.438,0
1542907727.274,30.273,14.648,26.367,125.000,57.129,0
1542907727.278,30.273,16.602,18.555,141.602,80.566,0
1542907727.282,17.578,14.160,7.812,138.672,47.852,0
1542907727.286,11.230,8.301,7.812,132.324,-8.301,0
1542907727.290,23.926,3.906,19.043,144.043,-27.344,0
1542907727.294,28.809,6.836,20.020,149.414,35.156,0
1542907727.298,13.184,6.348,16.602,134.766,29.785,0
1542907727.302,17.090,1.953,18.066,129.395,29.297,0
1542907727.306,46.387,9.277,16.602,139.648,40.039,0
1542907727.309,35.645,15.137,21.973,140.625,3.906,0
1542907727.313,11.719,8.301,25.879,130.371,35.645,0
1542907727.317,8.301,5.859,29.297,126.953,31.250,0
1542907727.321,15.137,7.812,37.109,133.301,29.785,0
1542907727.325,9.277,8.789,39.062,131.348,70.312,0
1542907727.329,21.973,12.695,33.691,128.906,74.707,0
1542907727.333,28.320,12.207,30.273,130.859,47.852,0
1542907727.337,3.418,9.766,27.344,119.141,22.461,0
1542907727.341,10.742,9.277,17.090,106.445,-33.691,0
1542907727.345,12.207,9.766,20.996,101.562,-76.660,0
1542907727.349,16.602,16.113,28.809,95.703,-21.484,0
1542907727.352,20.020,5.859,27.832,96.191,28.809,0
1542907727.356,26.367,-0.488,27.832,104.492,-28.320,0
1542907727.360,32.715,5.371,24.902,100.098,-18.066,0
1542907727.364,46.875,11.230,24.414,100.586,38.086,0
1542907727.368,35.645,10.254,24.414,103.516,57.617,0
1542907727.372,22.461,11.230,23.926,106.934,55.176,0
1542907727.376,32.715,17.578,19.043,104.004,7.812,0
1542907727.380,34.668,18.066,19.043,100.586,29.297,0
1542907727.384,25.879,12.207,28.809,95.215,30.762,0
1542907727.388,23.926,5.371,39.551,74.219,1.953,0
1542907727.392,32.715,13.184,38.574,75.195,16.602,0
1542907727.395,29.785,15.625,28.809,80.078,59.570,0
1542907727.399,20.996,15.625,23.438,72.754,91.797,0
1542907727.403,15.625,18.066,19.043,67.871,26.855,0
1542907727.407,26.855,19.531,24.902,68.848,41.504,0
1542907727.411,33.203,16.602,29.297,67.383,74.219,0
1542907727.415,20.996,9.277,23.438,55.176,21.973,0
1542907727.419,23.926,14.648,23.438,50.293,27.344,0
1542907727.423,40.527,18.066,26.367,53.711,29.297,0
1542907727.427,34.180,12.207,28.809,58.105,-9.277,0
1542907727.431,18.555,6.348,31.738,54.688,50.293,0
1542907727.434,26.367,4.883,28.320,56.152,92.285,0
1542907727.438,31.738,7.324,25.391,61.523,29.297,0
1542907727.442,33.203,15.625,24.414,61.035,5.859,0
1542907727.446,23.926,21.484,28.320,66.895,2.930,0
1542907727.450,37.109,20.996,28.320,65.430,3.418,0
1542907727.454,38.574,19.043,30.762,65.918,53.711,0
1542907727.458,6.836,16.602,34.180,66.895,-7.324,0
1542907727.462,14.160,18.066,28.809,53.711,-10.742,0
1542907727.466,27.344,21.973,24.902,61.035,63.477,0
1542907727.470,21.484,18.555,28.809,69.824,62.500,0
1542907727.474,20.508,14.648,34.668,71.289,36.133,0
1542907727.477,34.668,16.602,33.691,70.312,41.992,0
1542907727.481,44.434,15.625,31.250,69.336,44.922,0
1542907727.485,44.434,17.090,28.320,72.266,37.598,0
1542907727.489,50.293,21.484,27.344,71.289,51.758,0
1542907727.493,72.754,22.949,28.809,53.711,33.203,0
1542907727.497,76.660,21.973,36.621,44.434,40.527,0
1542907727.501,42.480,17.090,40.527,49.316,35.156,0
1542907727.505,14.648,17.090,38.086,37.109,21.484,0
1542907727.509,10.742,16.602,40.039,44.922,14.648,0
1542907727.513,24.902,9.277,47.852,60.547,10.742,0
1542907727.517,34.180,10.742,49.805,51.758,29.785,0
1542907727.520,23.438,19.043,43.945,45.898,65.430,0
1542907727.524,19.531,15.137,41.504,41.016,58.105,0
1542907727.528,15.137,8.789,37.598,44.922,6.348,0
1542907727.532,13.672,11.230,36.621,59.082,45.898,0
1542907727.536,26.855,13.184,38.574,58.105,103.516,0
1542907727.540,31.738,10.742,37.598,53.711,71.777,0
1542907727.544,30.762,12.695,41.016,65.430,14.160,0
1542907727.548,33.203,16.113,43.945,75.684,-11.719,0
1542907727.552,30.273,13.184,38.574,76.172,41.992,0
1542907727.556,34.668,19.531,36.133,80.566,23.438,0
1542907727.559,42.480,19.531,35.156,86.914,32.715,0
1542907727.563,36.133,13.184,35.156,89.844,23.926,0
1542907727.567,35.645,16.602,33.691,93.262,-16.602,0
1542907727.571,34.668,21.973,32.715,96.191,5.859,0
1542907727.575,32.227,17.578,39.551,94.238,43.457,0
