timestamps,TP9,AF7,AF8,TP10,Right AUX,Marker0
8783.095,19.531,11.719,28.320,18.066,-1000.000,0
8783.099,50.781,18.066,18.555,46.875,18.066,0
8783.103,44.434,18.066,14.648,73.242,-776.367,0
8783.107,18.066,21.973,17.090,41.504,104.004,0
8783.111,9.277,18.066,20.508,7.324,-1000.000,0
8783.115,34.180,15.625,27.344,36.133,-215.820,0
8783.119,43.457,20.508,26.367,60.547,-785.645,0
8783.123,12.207,14.648,20.508,32.227,275.879,0
8783.126,9.277,11.230,26.855,17.578,-1000.000,0
8783.130,37.598,10.742,29.785,34.180,-507.324,0
8783.134,46.875,13.672,17.578,61.523,-903.320,0
8783.138,23.926,16.113,16.602,63.965,565.430,0
8783.142,15.137,11.230,24.902,27.344,-961.426,0
8783.146,33.691,18.555,17.578,19.043,-1000.000,0
8783.150,55.664,26.855,13.672,49.805,423.828,0
8783.154,42.480,20.508,28.320,49.316,-908.203,0
8783.158,-12.207,18.555,24.414,22.949,-342.773,0
8783.162,5.371,23.926,23.438,13.672,-1000.000,0
8783.166,42.480,21.484,26.855,17.578,-113.770,0
8783.169,30.762,15.137,26.367,32.227,-790.527,0
8783.173,6.348,18.066,32.715,24.902,178.711,0
8783.177,7.812,35.156,19.043,6.348,-1000.000,0
8783.181,33.691,30.273,15.625,25.391,-256.836,0
8783.185,46.387,15.137,25.391,59.082,-795.410,0
8783.189,24.902,14.160,22.461,44.434,302.734,0
8783.193,-1.465,16.602,17.090,-0.977,-1000.000,0
8783.197,20.508,17.090,17.090,11.230,-653.809,0
8783.201,47.852,23.438,20.508,61.523,958.008,0
8783.205,25.879,25.391,18.555,51.758,710.449,0
8783.208,0.977,21.973,22.461,5.859,-837.402,0
8783.212,20.996,15.625,28.320,8.789,-1000.000,0
8783.216,50.781,13.184,33.203,40.527,245.117,0
8783.220,46.387,17.090,25.879,45.410,-836.426,0
8783.224,12.695,11.719,23.926,16.602,-185.547,0
8783.228,2.930,11.719,26.855,12.695,-1000.000,0
8783.232,33.203,21.484,31.250,42.969,-166.992,0
8783.236,50.293,18.555,29.297,51.270,-792.480,0
8783.240,10.742,15.625,24.902,23.438,237.305,0
8783.244,-3.906,20.996,27.344,-6.836,-1000.000,0
8783.248,28.809,23.438,22.949,3.906,-348.633,0
8783.251,63.965,20.508,9.277,44.434,-825.195,0
8783.255,28.320,20.996,13.672,33.203,366.699,0
8783.259,-22.461,32.715,23.926,11.719,-1000.000,0
8783.263,16.602,23.926,26.367,15.137,-814.941,0
8783.267,47.363,18.066,25.391,49.805,769.043,0
8783.271,34.180,27.344,25.391,56.152,809.082,0
8783.275,1.465,17.090,32.715,10.254,-736.816,0
8783.279,11.719,17.578,29.785,12.207,-1000.000,0
8783.283,60.059,31.250,21.484,44.434,68.359,0
8783.287,56.152,26.855,30.273,51.758,-806.641,0
8783.291,18.555,23.438,32.227,16.602,-54.199,0
8783.294,12.695,23.926,12.207,-3.418,-1000.000,0
8783.298,29.785,23.926,16.113,27.832,-199.707,0
8783.302,44.922,25.879,24.902,48.828,-794.434,0
8783.306,18.066,17.578,22.461,29.785,267.090,0
8783.310,4.395,8.301,19.043,-4.395,-1000.000,0
8783.314,24.902,13.184,23.926,8.789,-448.730,0
8783.318,36.621,15.137,31.250,51.758,-869.141,0
8783.322,31.738,13.184,23.926,45.898,469.238,0
8783.326,7.324,19.531,24.414,14.160,-1000.000,0
8783.330,17.090,24.902,28.809,14.160,-921.875,0
8783.333,59.570,31.250,25.391,46.387,578.125,0
8783.337,49.805,29.785,25.879,56.641,-997.070,0
8783.341,0.977,26.367,26.855,22.461,-492.188,0
8783.345,8.301,33.691,22.949,3.418,-1000.000,0
8783.349,69.824,34.180,19.531,33.203,-20.020,0
8783.353,61.035,24.902,19.043,40.039,-782.715,0
8783.357,7.324,23.438,19.043,9.766,113.281,0
8783.361,12.695,28.320,23.438,-7.812,-1000.000,0
8783.365,48.828,25.879,36.133,12.695,-215.820,0
8783.369,59.082,24.414,27.344,41.992,-785.645,0
8783.373,44.922,23.926,22.461,22.461,281.738,0
8783.376,28.320,23.438,33.691,3.418,-1000.000,0
8783.380,23.438,26.367,33.203,2.930,-530.762,0
8783.384,47.363,27.344,22.949,32.227,-926.270,0
8783.388,34.668,23.438,16.113,41.992,616.699,0
8783.392,4.883,25.391,21.973,-7.812,-925.293,0
8783.396,33.691,26.367,26.367,-14.160,-1000.000,0
8783.400,65.430,23.438,19.531,39.062,406.250,0
8783.404,35.156,14.648,26.367,55.176,-882.324,0
8783.408,-1.465,20.996,27.344,4.395,-293.945,0
8783.412,5.371,37.109,30.273,-13.184,-1000.000,0
8783.416,36.133,40.527,30.273,21.484,-123.047,0
8783.419,34.180,38.574,16.113,33.691,-787.109,0
8783.423,0.488,22.949,23.926,9.277,202.637,0
8783.427,-2.441,11.230,39.551,-17.090,-1000.000,0
8783.431,28.320,15.137,32.715,5.859,-266.602,0
8783.435,45.898,17.578,25.391,46.875,-795.898,0
8783.439,20.508,19.531,37.109,32.715,323.242,0
8783.443,4.395,15.625,33.203,3.906,-1000.000,0
8783.447,29.297,14.648,15.625,4.883,-661.133,0
8783.451,44.434,27.832,12.207,28.320,947.266,0
8783.455,13.184,35.645,24.902,29.297,748.047,0
8783.458,-14.648,31.250,30.762,-6.348,-793.457,0
8783.462,11.719,23.438,41.992,-7.812,-1000.000,0
8783.466,48.340,20.508,29.297,23.926,209.961,0
8783.470,37.598,18.555,9.766,44.434,-828.613,0
8783.474,-0.488,12.695,30.273,32.715,-159.668,0
8783.478,8.789,9.277,37.598,13.184,-1000.000,0
8783.482,41.992,12.695,33.203,27.344,-179.199,0
8783.486,44.922,25.391,35.645,46.387,-794.434,0
8783.490,5.371,27.832,23.926,11.719,244.629,0
8783.494,-14.160,24.902,15.625,-15.625,-1000.000,0
8783.498,30.273,32.227,24.414,14.160,-367.188,0
8783.501,62.500,29.297,28.320,47.363,-833.008,0
8783.505,25.391,22.461,20.508,34.180,382.812,0
8783.509,-7.324,16.113,23.438,5.371,-1000.000,0
8783.513,17.090,14.160,27.832,9.766,-826.660,0
8783.517,54.199,20.020,27.832,42.969,738.770,0
8783.521,33.203,21.484,32.715,50.293,867.188,0
8783.525,-2.441,23.438,23.926,20.996,-666.992,0
8783.529,-7.324,23.438,17.578,-0.977,-1000.000,0
8783.533,28.320,30.273,23.438,30.273,51.270,0
8783.537,36.133,30.273,24.414,55.176,-800.293,0
8783.541,8.789,20.996,20.508,28.320,-20.020,0
8783.544,16.113,19.531,21.484,12.695,-1000.000,0
8783.548,40.039,18.555,26.855,40.039,-202.637,0
8783.552,44.922,22.949,22.949,53.223,-793.457,0
8783.556,14.160,25.391,17.090,19.531,269.531,0
8783.560,1.953,21.484,22.461,0.000,-1000.000,0
8783.564,37.598,20.996,22.461,14.648,-480.957,0
8783.568,53.223,18.555,30.762,43.457,-883.789,0
8783.572,27.832,24.902,38.086,35.156,469.238,0
8783.576,-1.953,31.250,26.367,12.207,-1000.000,0
8783.580,12.207,27.832,4.883,13.184,-982.422,0
8783.583,57.129,30.762,20.508,43.945,486.328,0
8783.587,55.664,29.297,23.926,48.828,997.070,0
8783.591,13.184,24.902,17.578,16.602,-501.465,0
8783.595,18.066,21.973,30.762,9.766,-1000.000,0
8783.599,60.547,31.738,29.297,35.645,-70.801,0
8783.603,57.617,41.016,28.809,49.316,-797.363,0
8783.607,18.555,34.668,23.926,29.297,98.633,0
8783.611,1.953,23.438,20.996,9.766,-1000.000,0
8783.615,43.945,22.461,23.438,35.645,-230.469,0
8783.619,62.988,25.391,25.391,54.199,-794.434,0
8783.623,22.949,26.367,20.020,21.973,280.273,0
8783.626,12.695,23.926,12.695,0.977,-1000.000,0
8783.630,38.574,25.391,13.672,15.137,-583.984,0
8783.634,61.035,19.531,13.184,48.340,-969.727,0
8783.638,37.598,20.020,20.020,44.434,625.000,0
8783.642,8.789,29.785,33.691,15.137,-914.551,0
8783.646,24.902,29.785,31.738,24.902,-1000.000,0
8783.650,49.316,28.809,28.320,50.293,336.914,0
8783.654,47.363,26.855,22.461,45.410,-870.605,0
8783.658,16.602,22.949,17.578,19.043,-272.949,0
8783.662,11.230,21.484,17.090,10.742,-1000.000,0
8783.666,41.504,18.066,13.672,31.250,-143.555,0
8783.669,49.316,17.090,22.949,44.922,-792.480,0
8783.673,10.254,22.949,27.344,27.344,205.078,1
8783.677,-12.207,23.926,8.301,7.324,-1000.000,0
8783.681,20.996,23.926,17.090,26.367,-289.551,0
8783.685,51.270,27.344,24.902,50.293,-805.176,0
8783.689,20.996,21.484,26.367,42.969,332.520,0
8783.693,-7.324,16.602,22.461,10.254,-1000.000,0
8783.697,26.367,25.879,16.113,13.184,-719.238,0
8783.701,54.688,21.973,22.949,45.410,890.137,0
8783.705,18.555,17.578,22.949,44.922,748.535,0
8783.708,-12.695,20.996,10.742,11.719,-794.434,0
8783.712,6.348,13.184,8.301,6.836,-1000.000,0
8783.716,26.367,17.090,18.555,34.668,157.715,0
8783.720,24.902,28.809,20.996,45.898,-828.613,0
8783.724,-0.488,26.367,7.324,21.484,-147.461,0
8783.728,-9.766,24.902,20.996,-0.488,-1000.000,0
8783.732,36.133,16.113,37.109,25.879,-185.059,0
8783.736,48.340,15.137,27.344,53.223,-795.898,0
8783.740,4.395,22.461,27.344,34.180,253.418,0
8783.744,-4.883,27.832,20.996,4.395,-1000.000,0
8783.748,33.691,35.156,11.719,15.625,-399.902,0
8783.751,53.711,25.879,11.230,45.898,-845.703,0
8783.755,23.926,22.461,19.531,38.574,401.367,0
8783.759,4.883,19.531,32.715,7.324,-1000.000,0
8783.763,23.438,16.602,27.344,9.277,-883.301,0
8783.767,60.059,26.855,22.461,42.480,664.551,0
8783.771,47.852,28.320,20.996,44.434,876.465,0
8783.775,14.160,17.090,17.578,20.508,-658.203,0
8783.779,21.973,8.301,35.156,13.672,-1000.000,0
8783.783,45.410,16.602,34.180,34.668,2.441,0
8783.787,42.969,26.855,22.949,59.082,-808.594,0
8783.791,13.184,22.461,23.438,23.926,-14.648,0
8783.794,6.348,27.344,19.531,1.465,-1000.000,0
8783.798,38.086,35.645,14.648,26.855,-201.660,0
8783.802,49.805,38.086,22.461,51.758,-794.434,0
8783.806,10.254,33.203,23.926,45.898,270.508,0
8783.810,-2.930,24.414,12.695,12.695,-1000.000,0
8783.814,35.156,19.043,17.578,25.391,-526.855,0
8783.818,56.152,16.602,15.137,50.781,-914.551,0
8783.822,25.391,20.020,16.602,40.527,485.352,0
8783.826,-13.184,25.391,33.203,8.301,-1000.000,0
8783.830,3.418,27.832,36.133,12.207,-1000.000,0
8783.833,46.387,30.762,31.738,47.363,434.570,0
8783.837,37.598,24.902,25.391,45.898,998.535,0
8783.841,-0.977,23.438,25.391,15.137,-495.117,0
8783.845,14.648,29.297,21.484,7.812,-1000.000,0
8783.849,55.176,31.250,17.090,27.832,-106.445,0
8783.853,39.551,34.180,25.391,35.645,-804.199,0
8783.857,6.836,30.273,29.785,32.227,117.676,0
8783.861,15.625,19.531,22.461,23.438,-1000.000,0
8783.865,41.504,24.902,20.020,36.621,-257.324,0
8783.869,51.270,22.949,26.855,51.758,-803.711,0
8783.873,17.578,13.184,20.996,32.227,279.785,0
8783.876,-14.160,21.973,12.207,2.930,-1000.000,0
8783.880,12.695,28.320,16.602,6.836,-662.109,0
8783.884,44.434,29.297,25.879,41.016,961.426,0
8783.888,24.414,25.391,30.273,54.199,617.676,0
8783.892,1.465,18.555,27.344,7.812,-918.945,0
8783.896,14.648,21.973,20.996,3.418,-1000.000,0
8783.900,50.781,24.414,29.785,56.641,255.859,0
8783.904,42.969,22.949,33.691,78.613,-880.371,0
8783.908,2.930,21.973,24.902,34.180,-280.762,0
8783.912,10.254,22.461,26.855,6.348,-1000.000,0
8783.916,43.945,30.273,23.438,43.945,-161.621,0
8783.919,47.852,21.484,33.691,75.195,-798.340,0
8783.923,22.949,17.090,42.969,45.410,216.309,0
8783.927,0.977,20.020,29.785,9.766,-1000.000,0
8783.931,22.461,10.742,24.414,29.785,-324.707,0
8783.935,45.410,14.648,22.461,55.664,-818.359,0
8783.939,25.879,25.879,28.809,38.086,333.984,0
8783.943,-13.672,25.391,28.809,2.930,-1000.000,0
8783.947,1.465,23.438,22.949,7.812,-768.066,0
8783.951,37.109,27.344,20.996,46.387,827.637,0
8783.955,30.762,34.668,20.020,58.594,777.344,0
8783.958,0.488,28.320,25.391,25.391,-773.438,0
8783.962,1.465,16.113,33.203,3.906,-1000.000,0
8783.966,32.715,17.578,40.527,37.109,127.441,0
8783.970,39.551,25.391,40.527,60.059,-811.523,0
8783.974,7.812,38.574,32.715,26.367,-96.680,0
8783.978,-5.859,32.227,27.344,0.000,-1000.000,0
8783.982,34.180,20.508,29.785,27.344,-192.383,0
8783.986,50.781,31.738,30.273,62.012,-794.922,0
8783.990,18.555,35.645,18.555,39.062,261.719,0
8783.994,0.488,39.062,21.484,7.324,-1000.000,0
8783.998,25.879,38.086,19.043,30.762,-421.387,0
8784.001,58.105,26.367,14.160,59.082,-854.980,0
8784.005,46.387,18.066,29.297,51.758,428.711,0
8784.009,10.742,18.555,42.969,22.949,-1000.000,0
8784.013,28.809,28.809,38.086,27.344,-907.227,0
8784.017,53.711,34.180,37.598,49.316,623.535,0
8784.021,38.574,32.715,32.227,44.922,917.969,0
8784.025,15.137,37.109,23.438,10.254,-609.863,0
8784.029,24.414,32.227,20.508,0.977,-1000.000,0
8784.033,50.781,26.367,19.531,40.039,-10.742,0
8784.037,38.086,38.574,24.414,56.641,-793.945,0
8784.041,5.371,42.480,18.555,28.809,47.363,0
8784.044,1.953,29.297,19.043,11.719,-1000.000,0
8784.048,40.039,27.344,24.414,32.227,-208.984,0
8784.052,49.316,31.738,21.484,62.500,-791.504,0
8784.056,18.555,32.227,8.301,41.992,272.949,0
8784.060,-3.418,37.598,11.230,4.883,-1000.000,0
8784.064,31.738,30.273,30.273,22.461,-534.668,0
8784.068,59.570,31.250,41.992,55.664,-921.387,0
8784.072,16.113,33.691,40.039,55.176,542.969,0
8784.076,-2.930,27.832,33.203,19.531,-981.445,0
8784.080,23.438,22.461,25.391,7.324,-1000.000,0
8784.083,45.410,13.184,20.508,43.457,422.852,0
8784.087,48.340,14.648,28.320,46.387,-918.945,0
8784.091,10.254,27.832,24.414,10.742,-367.188,0
8784.095,0.000,30.762,26.367,2.930,-1000.000,0
8784.099,34.668,22.949,32.227,31.738,-97.168,0
8784.103,34.668,19.531,29.297,53.711,-789.062,0
8784.107,8.789,27.832,19.043,34.180,166.016,0
8784.111,-0.488,34.180,26.855,4.883,-1000.000,0
8784.115,33.691,26.367,42.480,20.996,-250.977,0
8784.119,58.105,20.020,29.785,59.082,-793.945,0
8784.123,25.391,18.555,23.438,40.039,310.059,0
8784.126,-5.859,15.137,33.691,4.395,-1000.000,0
8784.130,24.414,12.695,37.109,23.438,-623.535,0
8784.134,61.523,11.230,30.762,52.246,989.746,0
8784.138,36.133,18.555,24.902,44.922,710.938,0
8784.142,-2.441,25.879,26.855,16.602,-839.355,0
8784.146,23.438,29.785,24.902,16.113,-1000.000,0
8784.150,52.734,26.367,15.625,42.969,276.855,0
8784.154,38.574,25.879,23.926,65.430,-823.242,0
8784.158,9.277,34.180,34.668,41.016,-164.551,0
8784.162,13.672,29.785,37.598,14.648,-1000.000,0
8784.166,48.340,21.973,39.062,37.109,-158.691,0
8784.169,63.965,18.555,35.156,63.477,-785.645,0
8784.173,34.180,17.090,29.297,39.062,250.488,0
8784.177,0.977,21.484,21.484,3.906,-1000.000,0
8784.181,24.902,28.809,25.879,23.438,-313.477,0
8784.185,51.270,26.367,20.020,58.105,-809.570,0
8784.189,34.180,26.855,21.484,40.527,395.996,0
8784.193,9.766,40.039,23.926,6.836,-1000.000,0
8784.197,16.602,41.504,11.230,9.277,-737.305,0
8784.201,47.852,30.762,23.438,38.574,851.074,0
8784.205,47.852,32.227,30.762,46.387,870.605,0
8784.208,11.719,27.832,18.066,14.160,-656.250,0
8784.212,13.672,19.531,22.949,-4.883,-1000.000,0
8784.216,62.012,15.625,28.809,28.809,126.465,0
8784.220,57.129,18.555,26.367,57.129,-782.227,0
8784.224,12.207,37.109,28.809,25.391,0.000,0
8784.228,7.812,40.039,30.762,8.301,-1000.000,0
8784.232,39.551,39.062,33.203,34.180,-198.730,0
8784.236,49.805,38.086,27.832,49.316,-787.109,0
8784.240,28.809,26.855,7.812,22.461,270.508,0
8784.244,21.484,23.926,10.254,7.812,-1000.000,0
8784.248,40.039,29.785,21.484,21.484,-410.645,0
8784.251,55.664,32.715,16.602,45.898,-851.074,0
8784.255,33.203,25.879,12.695,49.316,491.699,0
8784.259,8.789,17.578,20.508,9.277,-1000.000,0
8784.263,29.785,22.461,33.691,3.906,-892.578,0
8784.267,55.176,28.320,33.691,31.250,630.371,0
8784.271,33.203,27.832,27.832,42.480,-994.141,0
8784.275,7.324,37.109,20.996,12.207,-480.469,0
8784.279,11.230,38.086,15.625,-0.488,-1000.000,0
8784.283,44.922,22.461,15.137,37.109,-8.789,0
8784.287,43.945,18.066,29.297,58.594,-777.832,0
8784.291,5.371,33.203,23.926,14.648,124.023,0
8784.294,5.859,42.969,19.531,-14.160,-1000.000,0
8784.298,41.016,33.691,29.297,12.695,-217.773,0
8784.302,50.293,26.367,35.156,42.969,-784.668,0
8784.306,23.926,26.855,33.203,30.273,281.738,0
8784.310,0.977,25.879,26.855,-4.883,-1000.000,0
8784.314,24.902,24.414,31.250,5.371,-519.043,0
8784.318,41.992,30.762,26.367,37.598,-918.945,0
8784.322,20.508,31.250,17.578,35.156,622.559,0
8784.326,0.977,21.484,16.113,-1.953,-920.898,0
8784.330,13.184,33.203,10.742,3.906,-1000.000,0
8784.333,45.898,42.480,16.113,37.109,408.691,0
8784.337,43.945,35.156,30.762,35.156,-865.234,0
8784.341,12.695,31.738,29.297,9.766,-267.090,0
8784.345,6.836,28.809,30.273,-5.859,-1000.000,0
8784.349,38.574,30.273,33.203,26.367,-102.051,0
8784.353,32.227,23.926,35.645,55.176,-779.297,0
8784.357,-4.395,14.160,29.785,17.090,211.426,0
8784.361,-4.395,25.391,25.879,-17.090,-1000.000,0
8784.365,25.391,34.668,26.367,13.184,-252.930,0
8784.369,32.715,36.621,14.160,40.527,-789.062,0
8784.373,11.230,35.645,5.859,23.438,346.191,0
8784.376,4.883,29.785,13.672,0.977,-1000.000,0
8784.380,30.762,30.273,28.809,20.996,-619.141,0
8784.384,51.758,31.738,28.809,46.875,982.910,0
8784.388,27.832,32.227,26.367,32.715,783.203,0
8784.392,-0.488,26.367,24.414,1.465,-763.672,0
8784.396,3.906,22.461,20.020,2.441,-1000.000,0
8784.400,40.039,22.461,22.949,32.715,271.484,0
8784.404,38.574,17.090,19.043,40.527,-795.410,0
8784.408,4.395,29.297,9.277,9.277,-81.543,0
8784.412,5.859,41.992,20.996,1.953,-1000.000,0
8784.416,38.086,36.621,36.621,37.109,-165.527,0
8784.419,41.504,27.344,35.645,56.152,-781.738,0
8784.423,5.371,20.020,25.391,31.250,256.348,0
8784.427,3.418,24.902,16.113,0.488,-1000.000,0
8784.431,35.156,28.809,30.762,17.090,-331.543,0
8784.435,53.223,28.320,36.621,47.363,-816.406,0
8784.439,38.086,26.855,29.297,41.992,435.547,0
8784.443,9.277,30.762,21.484,17.090,-1000.000,0
8784.447,20.020,33.691,21.973,7.324,-772.949,0
8784.451,45.898,39.551,25.879,40.527,801.270,0
8784.455,43.945,43.945,21.973,52.246,926.758,0
8784.458,8.301,32.227,28.320,14.648,-590.820,0
8784.462,3.906,30.762,38.574,5.859,-1000.000,0
8784.466,37.598,33.203,35.645,31.250,113.281,0
8784.470,32.715,29.297,14.648,44.922,-776.855,0
8784.474,-1.953,28.320,17.578,17.578,30.273,0
8784.478,0.000,30.273,32.227,-7.812,-1000.000,0
8784.482,38.086,23.926,28.320,18.555,-208.496,0
8784.486,34.668,33.203,28.320,47.363,-788.086,0
8784.490,2.930,41.504,22.949,20.020,271.973,0
8784.494,-6.836,18.066,22.949,-13.672,-1000.000,0
8784.498,21.484,14.648,20.508,7.324,-446.289,0
8784.501,39.551,30.762,16.113,46.875,-869.141,0
8784.505,2.441,35.156,28.320,29.785,505.859,0
8784.509,-24.414,36.133,31.250,-22.949,-1000.000,0
8784.513,4.883,26.855,34.180,-8.301,-930.664,0
8784.517,43.945,19.043,28.809,38.086,566.895,0
8784.521,30.273,24.902,29.785,38.086,-971.680,0
8784.525,1.465,31.250,29.297,6.836,-448.730,0
8784.529,8.301,21.973,13.672,1.953,-1000.000,0
8784.533,36.621,19.531,25.391,38.574,-47.852,0
8784.537,41.016,28.320,24.902,60.547,-782.715,0
8784.541,11.719,31.738,21.973,35.156,140.625,0
8784.544,4.883,35.156,37.109,4.395,-1000.000,0
8784.548,41.504,29.297,43.457,24.902,-225.586,0
8784.552,64.453,26.855,41.504,62.988,-786.621,0
8784.556,27.832,29.785,22.461,41.504,291.504,0
8784.560,-4.395,26.367,20.996,3.418,-1000.000,0
8784.564,30.762,25.391,32.715,16.602,-559.570,0
8784.568,61.035,32.227,35.156,46.875,-953.613,0
8784.572,20.508,27.832,24.902,52.246,658.691,0
8784.576,-3.906,28.809,14.160,16.113,-892.090,0
8784.580,20.508,32.227,12.695,-7.324,-1000.000,0
8784.583,53.711,31.250,22.461,33.691,371.582,0
8784.587,50.781,38.574,35.156,65.430,-851.074,0
8784.591,17.578,43.457,34.180,44.922,-230.469,0
8784.595,21.973,37.109,32.227,10.742,-1000.000,0
8784.599,61.523,19.043,32.715,35.156,-130.859,0
8784.603,51.758,11.230,28.320,66.406,-784.668,0
8784.607,8.789,20.020,24.414,37.109,219.727,0
8784.611,2.930,32.227,18.066,4.395,-1000.000,0
8784.615,39.551,31.250,19.043,21.484,-285.645,0
8784.619,65.430,32.715,25.879,53.223,-801.270,0
8784.623,32.715,37.109,31.250,31.250,341.309,0
8784.626,2.441,30.273,27.832,-2.441,-1000.000,0
8784.630,32.227,28.320,20.996,15.625,-699.219,0
8784.634,44.922,25.391,23.926,45.898,910.156,0
8784.638,39.551,25.879,26.855,45.898,762.695,0
8784.642,24.414,35.156,31.250,17.090,-778.320,0
8784.646,16.113,25.879,31.738,10.254,-1000.000,0
8784.650,47.363,13.672,21.973,43.945,174.316,0
8784.654,41.992,19.043,10.742,56.152,-825.684,0
8784.658,6.348,32.227,22.461,37.598,-145.508,0
8784.662,10.742,34.180,31.250,9.766,-1000.000,0
8784.666,47.852,23.926,30.762,14.160,-186.035,0
8784.669,48.340,25.879,39.062,50.293,-797.363,0
8784.673,23.926,26.367,35.156,41.992,248.535,0
8784.677,10.742,26.367,33.203,8.789,-1000.000,0
8784.681,40.039,32.227,34.668,13.672,-415.039,0
8784.685,67.871,26.367,30.762,60.059,-854.004,0
8784.689,42.480,28.320,24.414,59.082,391.113,0
8784.693,2.930,30.273,24.902,8.789,-1000.000,0
8784.697,13.672,28.320,26.855,5.859,-880.371,0
8784.701,51.270,26.367,23.438,45.410,660.156,0
8784.705,31.738,24.902,34.180,53.223,890.137,0
8784.708,-1.953,28.320,35.645,13.184,-647.949,0
8784.712,7.812,31.250,36.133,-0.488,-1000.000,0
8784.716,43.457,24.902,35.156,29.785,23.926,0
8784.720,47.363,25.879,25.391,48.828,-797.852,0
8784.724,16.602,30.762,26.367,20.020,2.930,0
8784.728,-5.859,28.320,27.344,-11.230,-1000.000,0
8784.732,8.301,27.344,18.555,8.789,-203.613,0
8784.736,27.344,24.414,18.066,34.668,-792.969,0
8784.740,-0.977,25.879,24.414,18.555,272.461,0
8784.744,-19.531,33.203,22.949,-8.301,-1000.000,0
8784.748,27.832,31.738,22.949,10.742,-499.512,0
8784.751,44.922,26.367,20.020,40.039,-895.020,0
8784.755,4.395,28.809,13.184,30.273,514.648,0
8784.759,-2.441,27.832,13.184,9.766,-997.559,0
8784.763,14.648,27.344,24.414,7.324,-989.746,0
8784.767,38.574,32.227,31.250,29.785,474.121,0
8784.771,31.738,36.621,22.461,40.527,-970.215,0
8784.775,-8.301,31.250,19.043,2.441,-449.219,0
8784.779,-5.371,30.273,19.043,-26.367,-1000.000,0
8784.783,33.203,31.738,25.879,8.301,-84.473,0
8784.787,31.250,20.508,29.297,37.109,-793.945,0
8784.791,-2.930,13.672,28.809,17.578,132.324,0
8784.794,-11.230,23.926,34.180,-5.371,-1000.000,0
8784.798,24.414,24.414,33.203,13.672,-245.117,0
8784.802,42.969,21.973,30.762,45.410,-796.387,0
8784.806,9.766,32.227,29.297,33.203,285.645,0
8784.810,-6.348,38.086,25.391,-3.418,-1000.000,0
8784.814,25.391,35.156,26.367,20.020,-637.695,0
8784.818,50.781,34.180,20.508,50.293,986.816,0
8784.822,27.832,29.297,18.555,41.992,625.977,0
8784.826,1.953,21.484,27.832,14.648,-909.180,0
8784.830,25.391,29.297,32.715,13.184,-1000.000,0
8784.833,56.641,33.203,33.691,46.875,267.578,0
8784.837,42.969,24.414,27.344,48.828,-881.348,0
8784.841,11.230,29.297,23.438,12.695,-282.715,0
8784.845,14.648,39.551,23.438,-7.324,-1000.000,0
8784.849,56.152,32.715,20.508,22.949,-163.574,0
8784.853,49.805,34.668,29.297,56.152,-801.758,0
8784.857,8.301,37.109,28.320,24.414,203.125,0
8784.861,1.465,29.785,29.297,-6.836,-1000.000,0
8784.865,37.598,31.738,30.762,25.879,-347.168,0
8784.869,52.734,33.691,30.273,62.500,-830.078,0
8784.873,13.184,29.785,24.414,38.086,328.125,0
8784.876,-1.953,24.902,19.043,7.812,-1000.000,0
8784.880,32.227,21.484,15.625,15.137,-799.805,0
8784.884,57.617,23.926,20.508,42.969,792.480,0
8784.888,39.551,34.180,31.738,58.594,747.070,0
8784.892,7.812,29.297,31.738,30.273,-798.340,0
8784.896,23.926,21.973,27.832,1.953,-1000.000,0
8784.900,40.527,28.320,26.367,28.320,77.148,0
8784.904,22.461,33.203,30.762,46.875,-837.402,0
8784.908,7.812,35.156,30.762,11.719,-140.137,0
8784.912,8.789,35.156,28.320,4.883,-1000.000,0
8784.916,40.039,29.297,35.156,43.457,-192.383,0
8784.919,58.105,22.461,35.156,63.965,-799.316,0
8784.923,7.324,20.996,29.785,35.645,253.418,0
8784.927,-14.160,20.508,35.156,19.531,-1000.000,0
8784.931,25.391,20.020,30.762,25.391,-423.828,0
8784.935,48.340,23.926,20.020,45.410,-857.910,0
8784.939,34.668,29.297,29.785,42.969,416.992,0
8784.943,22.461,34.668,31.738,6.836,-1000.000,0
8784.947,31.250,31.738,23.926,9.277,-912.109,0
8784.951,31.738,20.996,18.555,45.410,616.699,0
8784.955,15.625,20.996,21.973,61.035,908.691,0
8784.958,-3.418,22.949,33.203,26.367,-622.559,0
8784.962,11.719,26.367,38.574,12.207,-1000.000,0
8784.966,54.199,28.809,30.273,51.758,-14.648,0
8784.970,56.641,25.879,20.508,63.965,-794.922,0
8784.974,3.418,29.785,27.344,35.645,51.758,1
8784.978,-7.812,28.809,38.574,3.418,-1000.000,0
8784.982,28.809,30.273,32.227,22.461,-208.496,0
8784.986,47.363,29.297,32.227,55.664,-790.039,0
8784.990,22.949,20.020,38.574,33.203,272.949,0
8784.994,7.324,27.832,22.949,3.418,-1000.000,0
8784.998,35.156,39.062,16.113,18.555,-513.672,0
8785.001,53.223,33.691,35.645,55.176,-906.250,0
8785.005,20.996,29.297,41.016,59.082,541.504,0
8785.009,-11.230,34.668,37.598,20.508,-982.422,0
8785.013,2.930,29.785,35.645,13.672,-1000.000,0
8785.017,51.758,22.949,26.855,45.410,437.500,0
8785.021,41.016,28.809,26.855,46.387,-917.480,0
8785.025,-2.441,31.738,32.227,15.625,-362.305,0
8785.029,6.348,35.156,35.156,13.672,-1000.000,0
8785.033,44.434,32.715,35.156,59.082,-96.680,0
8785.037,51.270,25.391,35.645,58.105,-788.086,0
8785.041,7.812,21.484,28.320,23.926,170.898,0
8785.044,-4.883,23.926,22.949,11.719,-1000.000,0
8785.048,27.344,30.762,25.879,40.527,-253.906,0
8785.052,42.480,25.879,29.785,68.848,-794.434,0
8785.056,15.625,20.996,34.180,37.598,302.734,0
8785.060,-1.953,25.391,34.180,0.000,-1000.000,0
8785.064,11.230,20.996,24.414,15.625,-633.301,0
8785.068,34.668,14.648,22.461,56.152,980.957,0
8785.072,13.672,24.414,27.832,56.641,696.289,0
8785.076,-11.719,36.133,20.508,19.043,-854.004,0
8785.080,13.184,37.109,25.391,14.160,-1000.000,0
8785.083,61.035,31.250,31.250,51.270,271.484,0
8785.087,60.547,28.809,32.227,67.871,-830.078,0
8785.091,6.836,24.414,30.273,38.086,-174.316,0
8785.095,-3.906,28.809,26.367,13.184,-1000.000,0
8785.099,44.922,32.227,26.855,26.367,-165.527,0
8785.103,48.340,25.879,26.855,51.758,-790.527,0
8785.107,20.996,28.320,29.297,33.203,239.746,0
8785.111,36.621,34.668,34.668,-2.930,-1000.000,0
8785.115,46.387,31.738,30.273,16.113,-333.008,0
8785.119,47.852,31.738,15.625,57.129,-818.359,0
8785.123,28.320,30.273,20.996,29.785,372.559,0
8785.126,9.766,27.832,25.879,-4.395,-1000.000,0
8785.130,26.855,29.785,19.043,11.230,-773.438,0
8785.134,59.570,32.227,19.043,47.363,808.105,0
8785.138,51.758,38.086,28.809,53.711,847.656,0
8785.142,15.625,28.809,32.715,16.113,-691.406,0
8785.146,17.578,27.344,28.320,19.043,-1000.000,0
8785.150,41.992,32.715,22.461,44.922,110.840,0
8785.154,30.762,26.855,21.484,51.758,-791.504,0
8785.158,19.043,27.344,20.996,28.809,-24.414,0
8785.162,25.391,23.438,18.066,5.859,-1000.000,0
8785.166,35.156,20.020,23.926,33.203,-199.707,0
8785.169,43.945,25.391,32.227,53.711,-789.551,0
8785.173,14.160,23.438,29.785,34.180,270.508,0
8785.177,-0.977,26.855,28.809,1.465,-1000.000,0
8785.181,29.785,26.855,30.762,23.438,-415.039,0
8785.185,63.477,25.391,32.715,60.547,-854.492,0
8785.189,34.668,27.832,32.715,44.434,500.000,0
8785.193,-3.418,29.785,30.762,8.789,-1000.000,0
8785.197,21.484,31.250,28.320,8.301,-879.395,0
8785.201,49.316,29.297,22.949,51.758,643.555,0
8785.205,49.805,26.855,20.996,59.570,-979.004,0
8785.208,18.066,27.832,22.949,15.137,-457.520,0
8785.212,26.855,28.320,21.484,-1.953,-1000.000,0
8785.216,66.895,23.926,21.973,30.273,2.930,0
8785.220,43.945,24.414,23.438,56.641,-776.367,0
8785.224,5.371,28.809,24.414,24.902,116.699,0
8785.228,-7.324,28.809,26.367,-2.441,-1000.000,0
8785.232,30.273,25.391,29.785,30.762,-216.797,0
8785.236,41.016,27.832,28.809,62.988,-785.156,0
8785.240,14.160,34.180,25.391,31.738,279.785,0
8785.244,-5.371,33.203,28.320,-2.441,-1000.000,0
8785.248,13.672,29.297,27.344,19.043,-510.742,0
8785.251,52.734,29.297,27.344,43.945,-913.574,0
8785.255,36.621,27.832,35.645,51.270,617.188,0
8785.259,7.812,26.855,34.180,20.508,-929.688,0
8785.263,18.555,25.879,25.391,12.207,-1000.000,0
8785.267,41.504,21.973,30.273,61.035,438.477,0
8785.271,27.832,26.855,31.738,67.383,-875.977,0
8785.275,1.465,32.715,31.250,20.996,-282.227,0
8785.279,19.043,35.156,18.066,0.977,-1000.000,0
8785.283,41.504,32.715,15.137,32.715,-101.562,0
8785.287,32.715,26.367,27.832,51.270,-779.297,0
8785.291,4.395,23.438,22.461,24.902,213.867,0
8785.294,4.395,25.879,25.879,5.859,-1000.000,0
8785.298,33.203,34.668,32.227,17.578,-255.371,0
8785.302,46.875,37.109,29.297,39.551,-789.551,0
8785.306,15.137,28.809,25.391,29.297,341.309,0
8785.310,-17.090,26.367,25.391,-14.160,-1000.000,0
8785.314,19.043,29.297,22.461,-10.254,-614.258,0
8785.318,44.434,27.344,23.926,38.086,991.211,0
8785.322,21.973,21.973,26.367,39.062,768.066,0
8785.326,-4.395,23.926,18.555,4.883,-776.367,0
8785.330,10.254,31.738,15.137,25.391,-1000.000,0
8785.333,51.270,30.273,15.137,51.270,269.531,0
8785.337,51.758,32.715,15.625,34.180,-807.129,0
8785.341,13.184,34.668,23.438,-6.348,-113.770,0
8785.345,-6.348,22.949,29.297,-23.438,-1000.000,0
8785.349,20.508,20.996,29.785,20.020,-170.410,0
8785.353,32.227,26.367,32.227,44.922,-785.645,0
8785.357,0.000,27.832,31.250,22.949,255.859,0
8785.361,-10.742,32.715,31.738,2.441,-1000.000,0
8785.365,38.574,33.203,34.668,32.715,-330.566,0
8785.369,71.289,26.367,28.809,64.453,-815.918,0
8785.373,15.625,19.531,28.320,48.340,426.758,0
8785.376,-23.438,24.414,21.973,15.137,-1000.000,0
8785.380,11.230,34.180,21.484,8.301,-767.090,0
8785.384,39.062,33.203,29.297,33.203,808.105,0
8785.388,25.391,24.414,31.738,29.785,916.504,0
8785.392,6.836,26.855,36.621,-2.441,-605.469,0
8785.396,20.996,31.250,35.156,-2.441,-1000.000,0
8785.400,49.805,27.344,34.668,34.668,117.188,0
8785.404,36.621,22.949,30.273,52.734,-773.926,0
8785.408,7.812,29.785,31.250,36.133,44.922,0
8785.412,16.113,35.645,32.227,22.949,-1000.000,0
8785.416,49.805,33.691,21.973,37.598,-206.055,0
8785.419,60.547,31.738,24.902,42.480,-784.668,0
8785.423,30.273,27.832,29.297,21.484,270.020,0
8785.427,11.230,28.809,28.809,-6.836,-1000.000,0
8785.431,25.879,33.691,24.414,9.766,-412.109,0
8785.435,35.156,27.832,18.066,49.316,-854.980,0
8785.439,26.855,26.367,12.695,36.621,544.434,0
8785.443,6.836,38.574,20.020,-2.930,-1000.000,0
8785.447,31.250,33.691,27.344,-0.977,-879.395,0
8785.451,73.242,26.367,24.902,36.133,630.371,0
8785.455,39.551,25.391,26.855,48.340,-924.316,0
8785.458,-9.277,20.508,35.645,13.672,-364.258,0
8785.462,-0.977,23.438,25.391,-4.883,-1000.000,0
8785.466,38.574,29.785,20.996,37.598,9.766,0
8785.470,37.598,33.203,26.855,48.828,-762.695,0
8785.474,10.742,30.273,18.555,25.879,177.246,0
8785.478,25.879,21.973,13.672,5.371,-1000.000,0
8785.482,39.551,17.090,21.484,9.277,-227.051,0
8785.486,28.809,24.414,28.320,47.852,-779.785,0
8785.490,7.812,32.715,22.949,41.016,314.941,0
8785.494,-7.324,24.414,7.812,-2.930,-1000.000,0
8785.498,27.344,24.902,8.301,-1.953,-496.094,0
8785.501,57.129,35.645,31.250,52.246,-915.527,0
8785.505,26.855,30.762,37.598,52.734,705.566,0
8785.509,-12.695,22.949,27.832,9.277,-850.586,0
8785.513,0.977,21.973,24.414,9.277,-1000.000,0
8785.517,34.668,20.996,22.949,37.598,441.406,0
8785.521,40.527,29.297,19.531,60.059,-822.754,0
8785.525,7.324,29.785,17.578,32.227,-163.574,0
8785.529,-4.883,25.879,12.695,7.812,-1000.000,0
8785.533,32.715,25.879,25.391,29.297,-104.492,0
8785.537,43.457,25.879,40.527,43.945,-771.484,0
8785.541,6.836,25.391,36.621,22.461,231.934,0
8785.544,-14.648,26.367,32.227,-7.324,-1000.000,0
8785.548,13.184,27.832,29.785,15.137,-261.230,0
8785.552,36.621,25.391,25.879,50.293,-789.551,0
8785.556,-0.488,25.391,18.555,45.898,378.418,0
8785.560,-18.555,17.578,18.555,12.695,-1000.000,0
8785.564,21.973,14.160,20.508,12.695,-637.695,0
8785.568,46.875,20.020,19.531,54.199,961.426,0
8785.572,25.391,20.508,24.414,53.711,821.777,0
8785.576,-1.953,20.020,26.367,7.812,-715.332,0
8785.580,10.254,20.020,31.738,6.836,-1000.000,0
8785.583,47.363,19.043,34.180,40.039,249.512,0
8785.587,30.762,23.926,30.762,48.340,-791.016,0
8785.591,0.000,33.203,21.973,24.902,-62.500,0
8785.595,1.465,41.504,16.113,-4.883,-1000.000,0
8785.599,33.691,36.621,16.602,19.043,-177.246,0
8785.603,55.664,29.297,24.414,45.898,-783.691,0
8785.607,0.977,18.555,31.738,17.578,262.207,0
8785.611,-18.555,16.602,30.273,-35.645,-1000.000,0
8785.615,22.949,27.832,22.461,-20.996,-356.934,0
8785.619,28.320,30.273,24.414,43.945,-826.660,0
8785.623,17.090,26.367,29.297,30.273,440.918,0
8785.626,17.090,30.273,25.879,-2.441,-1000.000,0
8785.630,19.531,22.461,16.602,0.977,-808.105,0
8785.634,40.527,13.672,16.602,24.414,756.836,0
8785.638,43.945,21.484,34.668,26.367,929.199,0
8785.642,8.789,30.273,41.992,-1.953,-581.543,0
8785.646,2.441,31.250,41.992,2.441,-1000.000,0
8785.650,51.758,27.832,33.691,30.762,44.434,0
8785.654,52.246,23.438,30.762,53.223,-782.715,0
8785.658,-0.488,27.832,29.297,24.414,46.875,0
8785.662,-3.906,34.180,20.020,-6.836,-1000.000,0
8785.666,34.668,27.832,20.020,24.902,-208.984,0
8785.669,49.316,24.414,23.926,48.828,-788.574,0
8785.673,29.785,29.785,27.832,24.414,271.973,0
8785.677,18.066,27.832,30.273,-3.906,-1000.000,0
8785.681,24.902,21.484,26.367,-2.930,-472.656,0
8785.685,40.039,20.996,28.320,24.902,-883.301,0
8785.689,34.668,30.762,19.531,41.504,537.598,0
8785.693,17.090,35.156,15.625,13.184,-993.652,0
8785.697,21.484,27.344,26.367,-4.395,-960.938,0
8785.701,50.293,30.273,23.438,32.227,517.578,0
8785.705,43.457,34.180,17.578,48.340,-934.082,0
8785.708,7.812,33.203,18.555,0.488,-392.578,0
8785.712,19.043,34.180,25.879,-19.531,-1000.000,0
8785.716,50.781,29.785,34.180,12.207,-62.988,0
8785.720,44.922,21.973,25.879,42.969,-782.227,0
8785.724,19.043,20.996,20.020,16.113,158.691,0
8785.728,-6.348,25.879,22.949,-23.926,-1000.000,0
8785.732,37.109,30.762,21.484,7.812,-236.328,0
8785.736,68.359,27.344,28.809,57.617,-789.062,0
8785.740,13.672,26.855,29.297,38.086,294.922,0
8785.744,5.859,39.062,15.137,-3.906,-1000.000,0
8785.748,34.668,34.668,20.996,3.418,-587.891,0
8785.751,39.551,25.879,30.762,26.855,-972.168,0
8785.755,19.043,25.391,30.273,14.648,652.832,0
8785.759,8.789,27.832,38.086,-4.883,-887.207,0
8785.763,28.809,30.762,29.297,-8.301,-1000.000,0
8785.767,42.480,29.297,18.555,6.836,298.828,0
8785.771,14.648,34.668,27.344,30.762,-853.516,0
8785.775,-7.324,37.598,27.832,19.531,-231.934,0
8785.779,-2.930,34.668,29.785,0.977,-1000.000,0
8785.783,26.367,28.809,37.598,9.766,-154.297,0
8785.787,58.105,29.297,31.250,30.273,-792.969,0
8785.791,20.508,33.691,26.367,14.160,215.332,0
8785.794,-15.137,30.273,29.297,-13.672,-1000.000,0
8785.798,24.902,31.738,17.090,13.672,-311.035,0
8785.802,53.711,32.227,20.996,37.109,-812.500,0
8785.806,19.531,29.785,37.598,11.230,349.121,0
8785.810,-12.207,26.855,41.992,-18.066,-1000.000,0
8785.814,9.277,19.043,38.086,-6.348,-751.465,0
8785.818,46.875,25.879,32.227,31.738,846.680,0
8785.822,27.344,28.809,30.762,35.156,791.016,0
8785.826,-5.859,16.602,26.367,0.977,-757.812,0
8785.830,14.648,24.902,21.484,-6.348,-1000.000,0
8785.833,53.711,39.551,19.043,31.250,148.926,0
8785.837,40.039,41.016,23.926,45.410,-814.453,0
8785.841,-0.977,32.227,23.926,11.719,-107.422,0
8785.845,-7.812,23.926,14.648,-13.184,-1000.000,0
8785.849,16.602,27.344,17.090,6.836,-190.918,0
8785.853,48.828,32.227,20.020,36.133,-794.434,0
8785.857,22.461,32.715,16.113,22.949,263.184,0
8785.861,-1.953,30.762,23.438,2.930,-1000.000,0
8785.865,41.504,24.414,24.414,23.926,-409.668,0
8785.869,72.266,15.625,20.996,55.176,-849.609,0
8785.873,32.227,20.508,25.879,40.039,429.688,0
8785.876,-5.859,28.809,19.531,4.395,-1000.000,0
8785.880,33.691,22.949,13.672,8.301,-881.836,0
8785.884,63.477,22.949,28.809,39.551,648.926,0
8785.888,34.180,29.785,42.480,45.410,945.801,0
8785.892,17.090,31.738,31.738,15.137,-569.336,0
8785.896,25.391,28.809,21.484,20.508,-1000.000,0
8785.900,45.898,25.879,26.855,55.664,-7.324,0
8785.904,59.082,26.855,32.227,56.152,-793.457,0
8785.908,25.879,31.738,32.227,29.785,46.387,0
8785.912,4.883,39.062,27.344,13.672,-1000.000,0
8785.916,35.645,36.621,24.902,28.320,-207.520,0
8785.919,69.336,26.367,27.832,54.688,-790.527,0
8785.923,37.109,29.785,27.832,41.016,272.949,0
8785.927,0.977,32.715,32.227,10.254,-1000.000,0
8785.931,35.156,24.902,33.691,16.113,-509.766,0
8785.935,57.617,23.926,24.902,50.781,-901.367,0
8785.939,29.297,28.809,21.973,60.547,528.809,0
8785.943,4.883,34.180,22.949,30.762,-987.793,0
8785.947,28.809,32.715,29.785,21.973,-999.512,0
8785.951,71.289,23.438,29.785,42.969,447.754,0
8785.955,51.270,23.926,25.879,51.758,-941.406,0
8785.958,-20.020,25.391,16.113,20.996,-403.809,0
8785.962,-18.066,25.391,13.184,2.930,-1000.000,0
8785.966,33.203,31.250,30.273,35.645,-91.797,0
8785.970,34.180,26.855,37.109,56.641,-791.016,0
8785.974,7.324,26.855,36.621,32.715,155.762,0
8785.978,8.789,34.180,28.320,7.812,-1000.000,0
8785.982,38.086,26.855,22.461,28.809,-257.324,0
8785.986,48.340,21.973,23.438,61.035,-798.340,0
8785.990,24.902,20.508,18.066,44.922,297.363,0
8785.994,15.137,22.461,29.297,14.648,-1000.000,0
8785.998,29.785,27.832,30.762,20.020,-644.531,0
8786.001,39.062,24.902,17.090,51.270,972.168,0
8786.005,10.742,27.344,18.066,45.898,674.805,0
8786.009,-18.555,35.156,18.555,0.488,-874.023,0
8786.013,13.184,30.762,28.809,14.160,-1000.000,0
8786.017,42.480,15.625,28.809,41.504,268.555,0
8786.021,36.133,22.461,23.926,40.039,-837.891,0
8786.025,4.395,29.785,27.344,25.391,-193.359,0
8786.029,-6.348,24.414,26.367,7.324,-1000.000,0
8786.033,32.715,10.254,27.832,24.414,-160.645,0
8786.037,34.668,5.859,28.809,42.969,-790.039,0
8786.041,-7.324,21.484,23.926,25.391,241.211,0
8786.044,-14.160,30.762,26.367,-11.230,-1000.000,0
8786.048,33.203,29.297,24.902,4.883,-330.566,0
8786.052,43.457,20.508,24.414,50.781,-816.895,0
8786.056,-5.371,26.367,27.344,49.316,358.887,0
8786.060,-15.137,32.715,26.367,7.812,-1000.000,0
8786.064,18.555,25.879,24.414,3.906,-771.973,0
8786.068,55.664,29.297,20.996,41.992,821.289,0
8786.072,49.805,29.785,28.809,49.805,800.293,0
8786.076,8.789,26.367,32.227,14.160,-742.676,0
8786.080,7.324,21.484,23.438,18.066,-1000.000,0
8786.083,38.574,17.578,21.484,43.457,101.562,0
8786.087,28.809,24.414,28.320,43.457,-810.059,0
8786.091,-0.977,31.250,26.855,18.555,-78.125,0
8786.095,2.441,26.367,19.043,-0.977,-1000.000,0
8786.099,33.203,23.438,15.137,23.926,-197.754,0
8786.103,37.109,27.832,24.414,54.688,-795.410,0
8786.107,0.000,35.645,27.344,37.109,264.160,0
8786.111,7.812,35.156,23.926,0.488,-1000.000,0
8786.115,30.273,30.762,26.367,21.973,-435.059,0
8786.119,22.949,32.715,29.785,52.246,-861.816,0
8786.123,8.789,31.738,32.715,28.320,442.871,0
8786.126,-8.301,22.949,30.273,-1.953,-1000.000,0
8786.130,22.949,24.902,15.625,5.371,-928.711,0
8786.134,52.734,33.203,23.926,43.945,582.031,0
8786.138,34.668,31.250,35.645,41.016,954.590,0
8786.142,14.160,30.762,23.926,11.230,-561.035,0
8786.146,14.160,32.715,21.484,10.254,-1000.000,0
8786.150,34.180,27.832,27.832,32.715,-26.367,0
8786.154,47.363,29.785,32.715,51.758,-792.480,0
8786.158,19.043,32.715,32.227,29.297,75.195,0
8786.162,-7.812,27.832,28.809,6.836,-1000.000,0
8786.166,29.297,24.414,27.832,24.414,-216.309,0
8786.169,56.152,22.461,26.855,45.410,-790.527,0
8786.173,21.973,31.738,26.855,30.762,272.949,0
8786.177,-2.930,31.738,22.461,12.695,-1000.000,0
8786.181,23.926,26.367,19.043,17.090,-524.414,0
8786.185,58.105,24.414,20.508,42.480,-919.922,0
8786.189,28.320,28.320,25.391,47.363,584.473,0
8786.193,-8.301,36.621,25.391,13.184,-953.613,0
8786.197,17.090,34.668,25.879,-6.348,-1000.000,0
8786.201,58.594,29.785,29.297,32.227,430.664,0
8786.205,38.574,32.715,23.926,64.453,-898.438,0
8786.208,1.953,37.598,19.531,21.973,-324.219,0
8786.212,7.324,33.203,23.926,5.859,-1000.000,0
8786.216,46.875,23.438,30.273,44.434,-104.492,0
8786.220,62.500,24.902,28.809,52.246,-785.645,0
8786.224,13.184,32.227,28.320,16.113,190.430,0
8786.228,-1.953,27.344,34.668,-0.977,-1000.000,0
8786.232,39.551,25.391,25.391,26.855,-259.277,0
8786.236,47.852,33.691,15.137,49.316,-794.434,0
8786.240,14.160,35.156,14.648,32.715,308.105,0
8786.244,-1.953,28.320,18.066,7.324,-1000.000,0
8786.248,24.902,23.438,25.879,18.066,-666.016,0
8786.251,58.594,22.949,28.809,52.246,945.801,0
8786.255,37.598,19.531,29.785,54.688,715.820,0
8786.259,1.465,22.461,28.320,22.949,-834.473,0
8786.263,25.879,28.809,27.344,15.137,-1000.000,0
8786.267,56.641,28.320,33.691,44.434,244.141,0
8786.271,32.715,32.227,29.297,60.059,-833.496,0
8786.275,2.441,39.551,23.438,31.250,-174.805,1
8786.279,6.348,34.180,21.973,10.254,-1000.000,0
8786.283,42.480,24.414,20.508,38.574,-175.781,0
8786.287,45.410,17.090,27.832,59.082,-793.945,0
8786.291,14.648,18.066,29.785,33.691,240.723,0
8786.294,16.113,30.273,28.320,0.977,-1000.000,0
8786.298,31.250,23.926,18.066,14.648,-351.074,0
8786.302,46.387,13.184,10.254,55.176,-826.172,0
8786.306,14.648,22.949,21.973,46.387,374.512,0
8786.310,-9.766,35.645,26.855,18.066,-1000.000,0
8786.314,25.391,33.691,17.578,18.555,-805.176,0
8786.318,45.410,32.227,18.555,42.480,774.414,0
8786.322,25.391,31.738,27.344,50.781,834.473,0
8786.326,-3.906,30.273,23.926,26.367,-702.637,0
8786.330,11.230,30.762,19.043,14.648,-1000.000,0
8786.333,48.340,27.344,25.879,36.621,68.848,0
8786.337,39.062,27.344,28.809,51.270,-803.223,0
8786.341,0.977,29.785,23.438,29.297,-45.898,0
8786.345,-10.254,24.902,18.066,4.395,-1000.000,0
8786.349,29.297,19.531,24.414,6.836,-200.195,0
8786.353,48.828,22.461,26.367,33.691,-794.434,0
8786.357,3.906,26.855,20.996,24.902,267.578,0
8786.361,-14.160,17.578,16.602,0.000,-1000.000,0
8786.365,27.832,18.066,30.762,20.020,-466.797,0
8786.369,59.082,25.391,36.133,55.664,-876.953,0
8786.373,11.719,22.461,31.250,45.898,451.660,0
8786.376,-21.484,27.344,25.879,0.977,-1000.000,0
8786.380,19.531,29.297,17.090,-5.859,-947.266,0
8786.384,50.293,29.297,25.391,38.086,543.457,0
8786.388,23.926,34.180,28.809,43.945,981.934,0
8786.392,4.883,30.762,19.531,-7.324,-522.461,0
8786.396,20.508,25.879,19.531,-6.348,-1000.000,0
8786.400,43.945,25.879,23.438,41.504,-53.711,0
8786.404,47.852,31.738,26.855,55.664,-792.480,0
8786.408,14.160,34.180,29.785,29.297,102.051,0
8786.412,2.441,30.762,29.785,9.277,-1000.000,0
8786.416,48.828,26.367,10.742,29.785,-221.191,0
8786.419,63.477,26.855,3.418,63.965,-789.551,0
8786.423,20.996,27.344,21.973,39.551,286.133,0
8786.427,8.301,26.367,28.809,0.488,-1000.000,0
8786.431,26.367,27.344,22.461,20.020,-545.410,0
8786.435,37.598,27.344,23.926,53.223,-938.477,0
8786.439,25.879,21.973,34.180,44.434,623.535,0
8786.443,-2.930,23.438,33.203,3.906,-926.270,0
8786.447,8.789,23.926,27.832,-2.441,-1000.000,0
8786.451,41.992,24.414,21.484,38.086,414.062,0
8786.455,33.203,32.227,19.043,52.246,-879.883,0
8786.458,5.371,29.785,21.973,23.926,-287.598,0
8786.462,19.531,26.855,22.461,0.000,-1000.000,0
8786.466,49.316,23.438,24.902,21.973,-121.582,0
8786.470,25.879,25.391,19.531,54.688,-786.133,0
8786.474,-4.395,29.297,10.742,32.227,212.402,0
8786.478,-11.719,28.809,20.508,3.418,-1000.000,0
8786.482,19.531,27.832,26.855,17.578,-278.809,0
8786.486,44.434,32.715,29.297,48.340,-799.316,0
8786.490,17.090,34.180,32.715,33.691,330.566,0
8786.494,4.883,24.414,25.391,-8.789,-1000.000,0
8786.498,28.320,20.508,23.438,9.277,-673.828,0
8786.501,49.316,22.949,25.391,46.875,936.035,0
8786.505,21.484,26.367,30.273,51.270,741.699,0
8786.509,-6.348,27.344,30.273,32.227,-801.758,0
8786.513,11.230,24.902,16.602,17.578,-1000.000,0
8786.517,50.781,23.926,24.414,54.199,205.078,0
8786.521,44.434,19.531,38.086,67.383,-815.430,0
8786.525,4.883,20.996,35.645,27.344,-132.812,0
8786.529,5.371,25.391,32.715,8.789,-1000.000,0
8786.533,41.016,27.344,19.043,36.621,-179.199,0
8786.537,55.176,30.762,7.324,57.617,-790.527,0
8786.541,7.324,25.391,23.438,38.086,254.395,0
8786.544,-2.930,25.879,34.180,11.719,-1000.000,0
8786.548,32.715,28.809,29.297,29.297,-356.934,0
8786.552,45.898,21.973,23.438,68.359,-827.637,0
8786.556,30.273,24.902,23.926,43.457,410.156,0
8786.560,3.906,27.832,35.156,-1.953,-1000.000,0
8786.564,23.926,18.555,35.156,10.254,-813.477,0
8786.568,52.246,22.461,23.926,46.875,754.883,0
8786.572,19.531,32.227,22.949,53.711,895.508,0
8786.576,-2.441,29.297,26.855,15.137,-631.836,0
8786.580,23.438,25.879,28.320,-1.465,-1000.000,0
8786.583,40.039,19.531,33.691,27.344,63.477,0
8786.587,20.508,17.578,32.715,51.758,-786.133,0
8786.591,5.371,22.949,16.113,15.137,11.230,0
8786.595,-2.441,30.273,21.484,-13.672,-1000.000,0
8786.599,18.066,35.645,34.180,10.742,-205.566,0
8786.603,45.410,35.645,36.133,38.086,-790.039,0
8786.607,14.648,33.203,28.320,20.020,271.973,0
8786.611,-2.441,30.762,16.602,5.371,-1000.000,0
8786.615,32.715,30.762,19.043,36.133,-449.219,0
8786.619,51.270,24.414,25.879,47.363,-871.094,0
8786.623,28.320,17.090,30.273,13.184,528.320,0
8786.626,-10.254,25.879,37.598,-15.137,-1000.000,0
8786.630,3.418,29.297,36.133,0.488,-933.594,0
8786.634,37.598,24.414,26.367,32.715,558.594,0
8786.638,25.879,30.273,20.020,40.527,-943.359,0
8786.642,13.184,30.273,20.020,14.160,-405.273,0
8786.646,18.555,25.391,17.578,3.418,-1000.000,0
8786.650,50.781,27.344,31.250,41.992,-49.316,0
8786.654,55.664,28.320,39.062,61.035,-779.785,0
8786.658,11.230,34.668,37.109,34.668,155.273,0
8786.662,6.348,42.969,38.574,18.066,-1000.000,0
8786.666,35.156,30.762,28.809,25.879,-229.004,0
8786.669,45.410,27.832,23.438,38.574,-786.133,0
8786.673,27.344,38.574,26.367,34.180,293.945,0
8786.677,14.648,32.227,23.438,22.949,-1000.000,0
8786.681,41.504,32.227,14.648,32.715,-570.312,0
8786.685,61.035,40.527,22.461,63.965,-958.984,0
8786.689,23.438,36.133,33.691,54.199,651.855,0
8786.693,-6.348,27.344,37.598,13.672,-899.414,0
8786.697,14.648,30.273,42.969,22.461,-1000.000,0
8786.701,55.664,25.391,40.527,58.594,366.211,0
8786.705,57.617,17.090,30.273,55.664,-854.492,0
8786.708,14.648,21.973,23.926,23.438,-236.328,0
8786.712,20.996,28.809,30.273,11.230,-1000.000,0
8786.716,62.012,28.320,32.715,25.879,-130.371,0
8786.720,49.316,21.484,20.996,44.434,-785.156,0
8786.724,10.742,28.809,18.066,29.785,216.797,0
8786.728,6.836,42.969,18.555,3.906,-1000.000,0
8786.732,42.969,43.457,21.973,27.832,-288.574,0
8786.736,52.246,27.832,17.090,59.570,-802.734,0
8786.740,20.020,24.414,24.414,55.176,347.656,0
8786.744,2.930,27.344,33.691,9.766,-1000.000,0
8786.748,33.691,29.785,26.367,5.859,-697.266,0
8786.751,58.105,32.715,20.996,51.758,902.344,0
8786.755,31.738,27.344,17.090,50.781,800.781,0
8786.759,9.277,26.367,16.113,20.508,-745.117,0
8786.763,30.273,21.484,22.461,14.160,-1000.000,0
8786.767,57.617,24.414,22.949,54.199,189.941,0
8786.771,44.922,31.250,24.414,71.777,-796.875,0
8786.775,1.953,26.367,27.832,37.109,-72.754,0
8786.779,15.137,30.273,23.438,9.766,-1000.000,0
8786.783,55.664,27.344,21.484,34.180,-187.012,0
8786.787,46.387,17.578,29.297,53.223,-788.574,0
8786.791,14.648,20.996,28.320,28.320,263.184,0
8786.794,20.508,25.391,32.715,12.207,-1000.000,0
8786.798,66.895,25.391,32.227,30.762,-375.488,0
8786.802,61.523,24.902,23.438,58.594,-834.961,0
8786.806,10.254,33.203,23.438,47.363,436.523,0
8786.810,-7.324,39.062,24.414,11.230,-1000.000,0
8786.814,21.973,35.645,19.043,14.160,-820.801,0
8786.818,57.617,31.250,18.555,55.664,732.910,0
8786.822,51.270,29.297,37.598,65.918,947.266,0
8786.826,13.672,30.273,35.156,42.480,-561.035,0
8786.830,9.277,33.203,25.391,32.227,-1000.000,0
8786.833,39.551,29.297,25.879,43.457,49.805,0
8786.837,43.945,25.391,21.484,64.941,-779.297,0
8786.841,12.695,22.949,23.438,37.598,56.152,0
8786.845,12.695,20.996,29.785,4.395,-1000.000,0
8786.849,45.410,24.414,35.156,35.645,-210.449,0
8786.853,57.617,35.156,39.551,55.176,-787.598,0
8786.857,26.855,31.250,39.551,39.062,271.973,0
8786.861,1.953,23.926,28.320,11.719,-1000.000,0
8786.865,37.109,25.391,32.715,18.555,-464.844,0
8786.869,54.199,26.367,38.574,60.059,-879.395,0
8786.873,12.695,28.320,21.484,55.664,539.062,0
8786.876,4.883,33.691,18.066,11.230,-987.793,0
8786.880,32.227,33.691,34.180,11.230,-972.656,0
8786.884,63.477,27.832,34.668,49.316,501.465,0
8786.888,54.688,20.996,34.180,51.758,-936.523,0
8786.892,7.812,21.484,39.062,16.113,-396.484,0
8786.896,7.324,26.855,26.855,12.207,-1000.000,0
8786.900,47.363,26.855,19.043,35.156,-70.312,0
8786.904,43.945,26.367,25.879,57.129,-784.180,0
8786.908,9.277,25.391,26.367,30.762,158.203,0
8786.912,2.441,22.461,25.391,-12.695,-1000.000,0
8786.916,44.922,26.855,24.902,18.066,-240.723,0
8786.919,51.270,23.926,22.461,56.152,-791.016,0
8786.923,4.395,21.484,25.391,28.320,297.363,0
8786.927,-16.113,27.344,28.320,2.930,-1000.000,0
8786.931,10.742,28.809,32.715,21.484,-599.121,0
8786.935,44.922,26.367,32.715,51.270,-985.352,0
8786.939,22.949,21.973,25.391,47.363,676.270,0
8786.943,-10.254,21.484,26.855,-0.488,-876.465,0
8786.947,17.090,26.855,24.414,-15.137,-1000.000,0
8786.951,41.504,24.902,18.555,30.273,322.754,0
8786.955,18.555,20.996,19.531,45.898,-837.402,0
8786.958,-16.602,24.902,22.461,7.324,-197.266,0
8786.962,-6.836,21.484,29.785,-7.324,-1000.000,0
8786.966,38.574,18.066,26.855,24.414,-148.438,0
8786.970,33.691,23.926,25.391,47.852,-786.621,0
8786.974,-14.648,19.531,30.273,26.855,233.398,0
8786.978,-15.625,28.809,19.531,3.906,-1000.000,0
8786.982,27.832,28.320,18.066,20.996,-302.734,0
8786.986,34.668,10.254,26.367,41.016,-806.641,0
8786.990,0.488,8.301,31.250,38.086,366.699,0
8786.994,-18.555,20.020,28.320,11.230,-1000.000,0
8786.998,12.695,23.926,30.273,9.277,-730.469,0
8787.001,39.062,23.926,32.715,46.387,871.094,0
8787.005,20.508,23.438,27.832,47.852,812.500,0
8787.009,-17.090,23.926,25.391,6.836,-731.934,0
8787.013,0.488,29.297,16.602,-2.930,-1000.000,0
8787.017,49.316,32.715,5.371,38.574,152.832,0
8787.021,29.785,27.344,21.484,47.852,-795.898,0
8787.025,-9.766,16.602,28.809,12.207,-55.664,0
8787.029,7.324,14.160,18.555,-4.395,-1000.000,0
8787.033,36.621,27.344,26.367,26.855,-193.848,0
8787.037,44.922,33.691,26.855,55.664,-790.039,0
8787.041,27.832,26.367,24.902,29.785,265.137,0
8787.044,6.348,22.461,21.973,11.230,-1000.000,0
8787.048,30.762,27.832,17.578,28.809,-402.832,0
8787.052,63.965,39.551,23.926,59.082,-846.680,0
8787.056,26.367,32.227,26.855,49.805,453.613,0
8787.060,-4.883,12.695,25.879,5.859,-1000.000,0
8787.064,20.996,21.484,31.250,3.906,-865.723,0
8787.068,62.988,27.344,28.809,41.016,672.363,0
8787.072,45.410,22.949,23.438,45.898,964.844,0
8787.076,-17.578,29.297,19.531,12.695,-538.086,0
8787.080,16.113,37.109,14.648,-0.977,-1000.000,0
8787.083,47.852,28.320,14.648,29.297,4.395,0
8787.087,11.719,20.508,10.742,44.922,-785.645,0
8787.091,-10.254,29.785,13.672,7.324,67.871,0
8787.095,-0.977,29.297,27.344,-8.789,-1000.000,0
8787.099,22.949,21.484,32.227,22.461,-210.449,0
8787.103,22.461,22.949,27.832,45.898,-788.574,0
8787.107,1.465,22.461,28.809,26.367,272.461,0
8787.111,-9.277,17.578,29.297,-5.859,-1000.000,0
8787.115,7.812,17.090,25.879,0.000,-507.812,0
8787.119,48.828,24.902,23.926,34.180,-904.785,0
8787.123,27.832,33.691,22.949,48.340,563.965,0
8787.126,-21.484,34.668,16.602,0.000,-967.285,0
8787.130,0.488,34.668,19.531,-15.137,-1000.000,0
8787.134,35.645,37.109,26.855,23.926,450.195,0
8787.138,26.855,27.344,15.137,26.855,-921.875,0
8787.142,3.906,19.043,16.113,6.836,-366.211,0
8787.146,1.953,22.461,29.297,6.348,-1000.000,0
8787.150,45.898,19.531,31.250,34.180,-103.516,0
8787.154,50.293,16.113,30.762,65.430,-790.039,0
8787.158,4.883,24.902,29.297,32.715,171.387,0
8787.162,-5.371,31.250,27.344,-14.648,-1000.000,0
8787.166,42.480,38.574,22.949,-0.488,-261.230,0
8787.169,56.152,41.016,19.531,47.363,-797.852,0
8787.173,-0.488,33.691,15.625,28.809,299.805,0
8787.177,-19.043,29.785,6.348,-10.742,-1000.000,0
8787.181,20.996,27.832,20.020,8.301,-647.949,0
8787.185,54.199,25.879,37.109,50.293,969.238,0
8787.189,26.367,27.832,30.273,51.270,680.176,0
8787.193,-7.812,27.832,27.832,11.230,-868.164,0
8787.197,14.648,30.762,25.879,7.812,-1000.000,0
8787.201,56.152,28.320,25.391,44.434,254.883,0
8787.205,54.688,27.344,20.508,62.500,-837.891,0
8787.208,15.137,31.250,19.043,30.273,-190.430,0
8787.212,15.137,30.762,20.996,12.207,-1000.000,0
8787.216,49.316,25.879,23.926,38.574,-171.875,0
8787.220,78.613,28.809,30.762,57.129,-794.434,0
8787.224,57.129,32.715,34.668,38.574,234.375,0
8787.228,5.859,28.320,31.738,25.391,-1000.000,0
8787.232,35.156,30.273,33.691,44.922,-348.633,0
8787.236,56.641,27.344,35.156,57.617,-826.172,0
8787.240,23.926,29.297,20.996,50.781,356.445,0
8787.244,5.859,23.438,21.973,20.020,-1000.000,0
8787.248,42.969,9.766,22.461,20.020,-795.898,0
8787.251,67.871,16.113,15.625,56.641,784.180,0
8787.255,43.457,28.809,19.043,64.453,823.730,0
8787.259,11.719,30.762,17.090,24.414,-722.656,0
8787.263,7.324,23.438,22.461,8.301,-1000.000,0
8787.267,43.457,24.902,25.879,49.805,100.098,0
8787.271,67.383,26.855,33.691,59.570,-799.316,0
8787.275,29.785,22.461,42.480,25.879,-46.387,0
8787.279,2.930,21.973,41.016,11.230,-1000.000,0
8787.283,49.316,21.484,36.621,43.945,-200.195,0
8787.287,58.594,29.785,32.227,66.895,-792.480,0
8787.291,6.836,27.832,26.367,41.016,269.531,0
8787.294,-3.906,23.438,26.367,10.742,-1000.000,0
8787.298,36.133,33.691,31.250,20.020,-431.152,0
8787.302,62.012,29.297,37.109,52.734,-860.352,0
8787.306,38.086,26.367,29.785,50.781,472.168,0
8787.310,0.977,29.297,11.719,15.137,-1000.000,0
8787.314,9.766,25.879,18.066,30.273,-910.645,0
8787.318,43.457,19.531,30.762,74.707,608.398,0
8787.322,45.898,16.602,38.574,80.078,976.074,0
8787.326,13.184,13.184,45.410,34.180,-523.438,0
8787.330,-5.371,5.371,32.227,10.742,-1000.000,0
8787.333,25.391,6.836,21.484,44.922,-35.156,0
8787.337,34.180,17.090,27.344,57.617,-792.480,0
8787.341,8.789,28.320,31.250,22.949,81.543,0
8787.345,18.066,36.133,30.762,-10.742,-1000.000,0
8787.349,42.969,31.738,21.973,7.324,-220.215,0
8787.353,48.828,20.020,18.555,44.922,-791.992,0
8787.357,15.137,25.879,15.625,34.668,272.949,0
8787.361,-1.953,34.668,16.602,6.348,-1000.000,0
8787.365,31.250,26.855,31.738,23.438,-556.641,0
8787.369,50.293,23.438,32.715,43.457,-942.383,0
8787.373,24.414,23.926,28.320,42.969,581.055,0
8787.376,0.977,26.367,26.367,10.742,-952.148,0
8787.380,24.414,30.762,22.949,10.742,-1000.000,0
8787.384,62.012,26.367,19.043,60.059,383.301,0
8787.388,43.457,25.879,22.949,57.129,-894.043,0
8787.392,-3.906,30.762,29.785,22.461,-320.801,0
8787.396,9.766,32.715,29.297,15.625,-1000.000,0
8787.400,54.688,27.832,26.855,33.203,-108.887,0
8787.404,52.734,31.250,25.879,51.758,-786.621,0
8787.408,17.578,37.109,11.719,25.391,193.848,0
8787.412,20.996,26.855,4.883,0.000,-1000.000,0
8787.416,26.855,22.949,17.090,26.855,-270.508,0
8787.419,29.297,30.273,33.691,52.246,-798.340,0
8787.423,16.113,26.367,38.574,26.367,313.477,0
8787.427,4.395,33.203,31.738,13.184,-1000.000,0
8787.431,25.879,39.551,22.949,35.156,-676.270,0
8787.435,44.922,31.250,25.879,59.570,932.617,0
8787.439,23.438,25.879,22.949,62.500,731.934,0
8787.443,-6.348,26.855,12.695,12.207,-818.359,0
8787.447,12.695,30.762,20.020,-7.324,-1000.000,0
8787.451,50.781,23.926,31.738,30.273,226.074,0
8787.455,48.340,18.555,29.297,41.016,-820.312,0
8787.458,2.441,25.879,22.949,7.324,-145.996,0
8787.462,-5.859,31.250,31.738,7.812,-1000.000,0
8787.466,54.199,34.180,23.438,47.363,-176.758,0
8787.470,69.336,35.645,7.324,62.012,-790.039,0
8787.474,17.578,38.574,16.602,31.738,254.883,0
8787.478,-4.883,39.062,24.902,-2.930,-1000.000,0
8787.482,39.551,41.016,27.832,26.367,-339.844,0
8787.486,71.289,40.527,28.320,67.383,-820.312,0
8787.490,33.691,37.109,30.273,58.105,414.551,0
8787.494,10.254,24.902,33.691,22.461,-1000.000,0
8787.498,37.598,15.625,29.297,20.020,-784.180,0
8787.501,70.801,28.809,27.344,62.012,794.434,0
8787.505,45.898,32.715,24.902,66.895,886.719,0
8787.509,10.742,36.621,26.855,30.273,-638.184,0
8787.513,28.809,35.645,29.297,24.902,-1000.000,0
8787.517,61.523,26.367,23.438,52.734,83.984,0
8787.521,46.387,33.691,24.414,59.082,-788.086,0
8787.525,0.488,33.691,32.227,25.879,-1.953,0
8787.529,2.930,21.484,40.527,15.137,-1000.000,0
8787.533,46.875,24.414,34.668,39.551,-204.590,0
8787.537,44.922,37.598,25.879,69.336,-791.016,0
8787.541,13.672,38.086,33.203,51.758,270.996,0
8787.544,0.000,28.320,32.715,5.371,-1000.000,0
8787.548,41.992,28.809,26.855,19.043,-456.543,0
8787.552,68.359,33.203,29.297,65.918,-873.535,0
8787.556,17.578,33.691,29.785,53.223,488.281,0
8787.560,-8.301,32.227,22.949,12.207,-1000.000,0
8787.564,20.020,16.602,35.156,27.344,-952.637,0
8787.568,39.551,9.277,25.879,62.988,536.621,0
8787.572,39.551,26.367,11.230,61.523,-988.770,2
8787.576,20.020,39.551,24.902,26.367,-478.027,0
8787.580,14.648,36.621,36.133,19.043,-1000.000,0
8787.583,47.363,29.785,33.203,48.828,-57.129,0
8787.587,40.527,32.227,27.344,54.688,-790.527,0
8787.591,0.977,29.297,21.973,36.133,114.746,0
8787.595,12.207,18.066,21.973,14.648,-1000.000,0
8787.599,48.828,20.020,17.578,40.039,-232.422,0
8787.603,42.969,27.832,9.766,76.660,-792.969,0
8787.607,7.324,27.344,21.973,40.527,281.738,0
8787.611,-1.953,27.832,26.855,8.789,-1000.000,0
8787.615,25.391,26.855,25.391,21.484,-578.125,0
8787.619,39.062,16.602,29.785,49.316,-962.891,0
8787.623,22.949,21.484,15.137,48.340,624.512,0
8787.626,5.859,35.156,5.859,18.555,-917.969,0
8787.630,25.391,30.273,28.809,12.207,-1000.000,0
8787.634,53.223,26.367,43.945,49.316,357.910,0
8787.638,55.176,22.949,28.809,62.500,-886.719,0
8787.642,20.508,20.020,23.926,26.855,-299.805,0
8787.646,3.418,24.902,23.926,14.160,-1000.000,0
8787.650,38.574,27.344,17.578,33.691,-139.160,0
8787.654,46.387,32.227,25.391,45.410,-792.969,0
8787.658,18.066,37.109,22.949,22.461,203.125,0
8787.662,16.602,30.273,21.484,0.977,-1000.000,0
8787.666,45.898,17.090,23.926,38.574,-291.016,0
8787.669,59.082,16.602,27.344,70.312,-806.152,0
8787.673,20.508,28.809,27.344,30.762,326.660,0
8787.677,-9.766,21.973,18.555,-4.883,-1000.000,0
8787.681,16.602,11.719,28.320,9.766,-714.844,0
8787.685,46.387,9.277,38.574,38.574,895.996,0
8787.689,33.203,18.066,39.062,44.434,737.305,0
8787.693,14.160,33.203,34.668,16.113,-809.570,0
8787.697,18.066,32.715,22.461,11.230,-1000.000,0
8787.701,48.828,31.250,21.973,52.734,167.480,0
8787.705,51.270,38.574,29.297,70.312,-820.312,0
8787.708,18.555,38.086,31.738,22.461,-130.371,0
8787.712,16.602,32.715,28.809,-5.859,-1000.000,0
8787.716,43.457,32.227,29.785,28.320,-186.035,0
8787.720,58.594,34.668,28.809,55.176,-793.945,0
8787.724,20.020,25.391,8.301,28.809,254.395,0
8787.728,0.000,19.043,7.812,-2.441,-1000.000,0
8787.732,31.738,21.973,25.879,11.719,-376.953,0
8787.736,57.129,25.391,23.438,47.852,-836.426,0
8787.740,32.715,24.902,21.484,38.086,406.738,0
8787.744,2.441,16.602,33.203,1.953,-1000.000,0
8787.748,18.555,17.578,34.668,10.742,-836.426,0
8787.751,47.852,28.809,29.785,41.992,726.074,0
8787.755,41.016,27.344,34.668,42.480,890.137,0
8787.759,2.930,28.809,34.180,4.395,-636.230,0
8787.763,6.836,30.762,23.926,-2.441,-1000.000,0
8787.767,47.852,23.926,23.438,39.551,31.738,0
8787.771,44.434,28.320,23.438,51.270,-798.828,0
8787.775,12.695,42.480,22.461,16.602,-5.859,0
8787.779,13.184,41.992,19.531,-4.395,-1000.000,0
8787.783,48.340,32.227,15.137,23.926,-203.125,0
8787.787,49.805,30.762,28.809,58.105,-792.969,0
8787.791,3.418,28.320,28.809,32.715,273.438,0
8787.794,-14.648,22.461,23.926,-7.324,-1000.000,0
8787.798,30.273,20.996,29.297,17.578,-493.164,0
8787.802,50.781,24.902,30.762,51.270,-891.113,0
8787.806,24.414,25.391,29.785,37.598,500.000,0
8787.810,3.906,21.484,23.926,8.789,-1000.000,0
8787.814,31.250,27.344,28.809,9.766,-991.699,0
8787.818,50.293,31.738,27.832,40.039,473.145,0
8787.822,17.578,30.762,16.113,53.711,-982.422,0
8787.826,-7.812,29.297,26.855,20.996,-469.238,0
8787.830,17.578,32.715,23.926,-4.395,-1000.000,0
8787.833,47.852,30.762,12.207,27.832,-83.008,0
8787.837,25.391,25.391,21.484,46.875,-794.434,0
8787.841,-6.348,29.297,34.180,17.578,130.859,0
8787.845,-3.418,28.809,34.668,-8.789,-1000.000,0
8787.849,41.992,25.879,32.715,15.137,-242.188,0
8787.853,62.988,26.367,29.297,61.035,-795.410,0
8787.857,7.324,29.297,23.438,46.387,286.621,0
8787.861,3.906,33.691,24.414,3.418,-1000.000,0
8787.865,36.621,31.738,30.762,8.789,-609.375,0
8787.869,27.832,30.762,34.180,41.992,-985.840,0
8787.873,5.859,24.414,37.109,42.480,624.512,0
8787.876,-2.441,22.461,32.227,7.812,-912.598,0
8787.880,13.184,17.090,34.180,7.812,-1000.000,0
8787.884,38.574,13.184,35.645,51.270,298.828,0
8787.888,41.504,25.391,20.020,71.777,-869.629,0
8787.892,17.090,30.273,23.926,38.574,-266.113,0
8787.896,14.160,19.043,34.180,11.230,-1000.000,0
8787.900,31.738,17.578,19.531,21.973,-151.367,0
8787.904,35.156,34.180,13.672,42.480,-793.945,0
8787.908,29.297,36.621,22.461,12.695,214.844,0
8787.912,1.465,30.762,20.508,-18.555,-1000.000,0
8787.916,7.324,36.133,31.738,14.160,-307.129,0
8787.919,37.109,33.691,26.855,47.363,-811.035,0
8787.923,12.695,31.250,9.277,22.461,336.426,0
8787.927,0.488,35.156,15.625,6.348,-1000.000,0
8787.931,20.508,33.691,23.438,22.461,-751.465,0
8787.935,41.504,30.762,31.250,47.363,849.121,0
8787.939,33.203,31.738,29.297,53.711,769.043,0
8787.943,9.277,29.297,23.438,24.902,-777.832,0
8787.947,17.578,16.602,26.855,8.789,-1000.000,0
8787.951,48.828,8.301,15.137,30.762,134.277,0
8787.955,53.711,27.344,5.371,48.340,-814.941,0
8787.958,16.113,47.852,13.184,21.484,-107.422,0
8787.962,5.859,42.969,27.832,6.348,-1000.000,0
8787.966,44.922,37.598,32.715,32.715,-191.406,0
8787.970,41.016,31.738,29.785,49.316,-794.434,0
8787.974,10.742,29.297,35.156,25.391,260.742,0
8787.978,16.602,31.250,32.227,4.395,-1000.000,0
8787.982,46.387,21.973,23.438,20.508,-409.668,0
8787.986,68.848,14.160,31.250,47.852,-850.098,0
8787.990,34.180,23.926,36.133,45.898,435.059,0
8787.994,31.738,29.785,33.691,25.879,-1000.000,0
8787.998,34.668,30.273,37.109,19.531,-875.977,0
8788.001,24.902,37.109,27.344,35.645,670.898,0
8788.005,34.180,41.992,25.879,47.363,917.480,0
8788.009,18.066,36.621,37.109,14.648,-605.957,0
8788.013,41.504,38.086,38.086,8.789,-1000.000,0
8788.017,43.457,33.691,26.855,48.340,7.324,0
8788.021,24.414,21.973,28.809,65.430,-790.039,0
8788.025,1.953,26.855,33.203,33.203,48.340,0
8788.029,-5.371,33.203,24.414,0.000,-1000.000,0
8788.033,41.504,29.785,24.414,28.320,-208.008,0
8788.037,58.594,26.855,31.250,58.594,-790.039,0
8788.041,7.812,26.855,36.133,28.320,272.461,0
8788.044,11.719,28.809,38.086,-8.301,-1000.000,0
8788.048,44.434,29.785,29.297,12.695,-509.277,0
8788.052,35.156,28.320,24.902,57.129,-903.320,0
8788.056,21.484,27.344,26.855,46.387,529.785,0
8788.060,14.160,31.250,29.785,14.160,-988.770,0
8788.064,29.297,34.668,30.273,13.672,-997.070,0
8788.068,62.012,31.738,25.879,48.828,451.172,0
8788.072,41.992,31.250,20.996,55.176,-939.941,0
8788.076,2.930,32.715,11.230,30.273,-397.461,0
8788.080,13.184,25.879,22.949,7.812,-1000.000,0
8788.083,30.762,26.367,37.598,25.879,-100.098,0
8788.087,54.199,30.273,31.738,63.477,-792.480,0
8788.091,16.113,30.762,32.715,36.133,155.762,0
8788.095,-18.555,24.902,36.621,3.906,-1000.000,0
8788.099,27.832,26.855,34.180,23.438,-252.930,0
8788.103,54.199,31.738,22.949,51.270,-796.875,0
8788.107,17.578,28.809,16.602,39.551,293.457,0
8788.111,-1.953,31.250,22.461,8.301,-1000.000,0
8788.115,32.715,28.320,23.438,11.719,-644.531,0
8788.119,60.059,19.043,20.508,52.734,973.633,0
8788.123,26.855,20.996,20.508,57.617,669.434,0
8788.126,6.836,31.738,20.996,24.414,-880.371,0
8788.130,27.344,24.902,28.320,10.254,-1000.000,0
8788.134,41.504,21.484,29.297,30.273,275.879,0
8788.138,34.180,33.203,22.949,41.992,-854.492,0
8788.142,-1.465,35.645,25.879,20.020,-229.492,0
8788.146,0.977,29.297,23.926,3.906,-1000.000,0
8788.150,47.852,27.344,19.043,24.414,-160.156,0
8788.154,46.387,29.297,29.297,50.781,-794.434,0
8788.158,-0.977,28.320,26.367,20.020,224.609,0
8788.162,1.465,22.461,19.043,4.883,-1000.000,0
8788.166,46.387,20.020,21.973,33.203,-332.031,0
8788.169,52.734,23.438,28.320,56.641,-819.824,0
8788.173,23.438,24.414,32.227,50.293,353.027,0
8788.177,4.395,26.855,26.855,18.555,-1000.000,0
8788.181,33.691,34.180,23.438,24.414,-778.320,0
8788.185,59.082,32.715,24.902,52.734,811.035,0
8788.189,28.809,27.832,25.879,49.805,803.711,0
8788.193,-5.371,29.785,25.391,10.254,-742.188,0
8788.197,11.230,27.344,26.367,7.812,-1000.000,0
8788.201,42.480,27.832,34.668,53.711,109.375,0
8788.205,38.574,34.668,31.250,71.289,-805.664,0
8788.208,10.742,32.715,21.973,34.180,-70.312,0
8788.212,8.789,24.414,24.902,12.207,-1000.000,0
8788.216,41.016,22.949,28.320,33.691,-193.848,0
8788.220,47.852,28.320,29.785,48.828,-793.457,0
8788.224,15.137,34.668,30.273,28.809,261.230,0
8788.228,10.254,33.691,26.855,1.953,-1000.000,0
8788.232,29.785,32.227,33.203,7.812,-431.641,0
8788.236,44.922,28.320,31.250,50.293,-860.352,0
8788.240,24.902,26.367,23.438,41.992,437.988,0
8788.244,13.672,30.762,26.855,3.906,-1000.000,0
8788.248,29.785,25.391,27.344,27.832,-921.387,0
8788.251,47.852,20.508,28.809,50.293,590.820,0
8788.255,34.668,25.879,29.785,41.992,957.520,0
8788.259,-3.906,35.156,19.043,20.508,-558.594,0
8788.263,8.301,37.109,9.766,13.672,-1000.000,0
8788.267,53.223,27.832,19.043,42.480,-21.484,0
8788.271,50.781,22.949,32.715,60.547,-795.898,0
8788.275,17.090,27.344,32.715,32.227,49.805,0
8788.279,29.297,35.645,28.320,1.465,-1000.000,0
8788.283,32.227,32.227,29.785,21.973,-215.332,0
8788.287,16.602,26.855,31.738,51.270,-793.457,0
8788.291,9.766,35.645,28.320,34.668,273.438,0
8788.294,1.953,42.480,25.391,-0.977,-1000.000,0
8788.298,20.508,35.645,25.879,-0.977,-550.293,0
8788.302,57.129,32.715,26.855,45.410,-935.059,0
8788.306,41.992,36.621,28.320,58.594,564.941,0
8788.310,-5.859,36.133,34.180,13.672,-971.680,0
8788.314,9.277,32.715,37.109,9.766,-1000.000,0
8788.318,41.016,28.809,26.855,46.875,423.340,0
8788.322,24.902,21.973,16.602,59.082,-915.527,0
8788.326,8.789,18.555,22.461,22.949,-357.422,0
8788.330,15.625,25.879,26.855,2.441,-1000.000,0
8788.333,28.320,30.273,37.598,34.668,-108.398,0
8788.337,35.645,29.297,38.086,58.594,-790.527,0
8788.341,16.113,31.738,31.250,37.109,175.293,0
8788.345,10.254,28.809,31.250,14.160,-1000.000,0
8788.349,41.504,27.832,26.855,20.020,-262.207,0
8788.353,44.434,33.691,23.926,41.504,-797.852,0
8788.357,11.230,34.668,26.367,29.297,305.176,0
8788.361,-3.418,30.762,26.367,-1.953,-1000.000,0
8788.365,20.508,27.832,24.414,13.184,-673.828,0
8788.369,69.824,30.762,21.484,58.594,949.219,0
8788.373,47.852,34.180,23.438,53.711,667.480,0
8788.376,-26.855,35.645,25.879,7.812,-875.488,0
8788.380,-9.277,27.832,23.438,-4.395,-1000.000,0
8788.384,39.551,19.043,22.949,31.738,221.680,0
8788.388,33.203,20.020,33.203,52.246,-855.957,0
8788.392,9.277,22.949,33.691,15.137,-224.121,0
8788.396,17.578,27.344,20.996,0.488,-1000.000,0
8788.400,41.992,31.738,22.461,17.090,-172.363,0
8788.404,34.668,38.086,24.902,36.133,-798.828,0
8788.408,-7.812,38.574,22.949,22.949,226.562,0
8788.412,-4.883,31.738,30.762,-1.953,-1000.000,0
8788.416,33.691,27.344,32.227,18.555,-368.652,0
8788.419,41.992,26.855,34.180,58.594,-835.938,0
8788.423,20.508,25.879,32.227,41.992,358.398,0
8788.427,-11.719,29.297,20.996,-2.930,-1000.000,0
8788.431,11.230,28.320,20.996,5.859,-840.332,0
8788.435,49.316,24.414,36.133,41.504,740.723,0
8788.439,35.156,20.996,32.227,46.387,787.598,0
8788.443,18.555,26.367,28.809,22.461,-760.742,0
8788.447,22.949,32.227,38.086,13.184,-1000.000,0
8788.451,47.363,30.273,28.809,50.781,49.316,0
8788.455,50.293,38.574,22.461,68.359,-819.336,0
8788.458,0.977,38.086,21.484,19.531,-82.031,0
8788.462,-1.953,30.273,17.090,-1.465,-1000.000,0
8788.466,36.621,26.367,29.785,21.484,-196.289,0
8788.470,34.180,27.832,43.945,37.109,-796.875,0
8788.474,2.930,26.855,41.504,11.719,263.184,0
8788.478,17.090,28.809,49.316,-1.465,-1000.000,0
8788.482,39.551,32.715,46.875,29.785,-466.309,0
8788.486,48.828,21.973,33.691,54.199,-876.953,0
8788.490,24.902,28.809,22.461,43.945,439.453,0
8788.494,-9.766,39.551,-0.488,12.207,-1000.000,0
8788.498,10.742,34.180,8.789,11.719,-959.473,0
8788.501,52.734,27.832,43.945,48.828,534.180,0
8788.505,38.086,17.090,39.551,54.199,957.520,0
8788.509,6.348,28.320,38.574,21.973,-560.547,0
8788.513,27.344,28.320,38.086,12.207,-1000.000,0
8788.517,64.941,20.020,18.066,43.457,-51.270,0
8788.521,43.457,33.691,22.949,58.594,-795.410,0
8788.525,10.742,31.738,38.086,30.762,87.891,0
8788.529,21.973,23.438,41.992,8.301,-1000.000,0
8788.533,49.805,37.598,40.527,48.828,-220.703,0
8788.537,59.570,42.969,26.367,77.148,-791.992,0
8788.541,39.551,28.809,26.367,44.434,272.949,0
8788.544,17.090,26.367,39.551,7.812,-1000.000,0
8788.548,36.133,35.156,30.273,25.391,-556.641,0
8788.552,50.293,29.297,4.883,59.082,-942.871,0
8788.556,22.461,17.578,8.789,34.180,584.961,0
8788.560,0.000,24.902,31.250,-3.418,-946.777,0
8788.564,22.949,27.344,42.969,5.859,-1000.000,0
8788.568,65.430,22.949,29.297,44.922,376.953,0
8788.572,46.387,19.531,17.578,60.547,-908.203,0
8788.576,23.926,26.367,23.438,31.250,-341.309,0
8788.580,35.156,27.344,23.438,9.277,-1000.000,0
8788.583,43.945,22.461,30.273,48.340,-136.230,0
8788.587,58.594,30.762,32.227,71.289,-797.363,0
8788.591,26.367,29.297,22.949,39.062,185.059,0
8788.595,6.348,23.438,20.508,9.766,-1000.000,0
8788.599,41.016,25.879,19.531,38.086,-296.387,0
8788.603,60.547,28.320,26.855,77.637,-811.035,0
8788.607,32.715,23.438,28.809,44.922,301.758,0
8788.611,24.414,16.113,26.855,12.207,-1000.000,0
8788.615,35.645,19.043,32.715,28.809,-715.332,0
8788.619,43.457,24.414,34.180,61.523,898.438,0
8788.623,37.598,26.367,23.438,64.453,694.336,0
8788.626,24.414,31.250,15.625,25.391,-853.027,0
8788.630,33.691,34.180,17.578,22.949,-1000.000,0
8788.634,58.594,30.762,24.902,55.176,178.223,0
8788.638,51.758,31.250,28.809,53.711,-834.473,0
8788.642,9.766,30.762,26.367,40.527,-167.480,0
8788.646,4.883,25.391,25.391,19.043,-1000.000,0
8788.650,40.039,26.367,23.438,32.715,-179.688,0
8788.654,44.922,23.926,21.973,55.176,-793.457,0
8788.658,24.902,27.832,16.113,31.738,250.977,0
8788.662,16.113,21.484,11.230,-2.930,-1000.000,0
8788.666,43.457,17.578,8.301,15.625,-352.539,0
8788.669,63.477,27.344,26.855,61.035,-826.172,0
8788.673,23.438,29.297,33.203,42.969,403.320,0
8788.677,-11.230,32.715,27.832,6.348,-1000.000,0
8788.681,19.531,34.668,29.785,11.230,-799.805,0
8788.685,56.641,36.133,15.625,43.945,772.949,0
8788.689,34.180,30.762,17.090,52.734,884.766,0
8788.693,12.207,28.809,23.438,22.461,-642.090,0
8788.697,18.555,28.320,18.555,11.230,-1000.000,0
8788.701,65.918,21.973,21.484,42.480,68.848,0
8788.705,59.082,20.020,24.414,54.199,-790.527,0
8788.708,-12.207,16.602,23.438,27.344,-3.906,0
8788.712,-11.719,15.625,14.648,6.348,-1000.000,0
8788.716,31.250,24.902,5.859,24.902,-204.590,0
8788.720,66.406,30.273,12.207,51.270,-791.992,0
8788.724,24.414,25.391,12.695,21.484,271.484,0
8788.728,-14.648,22.461,18.066,-6.836,-1000.000,0
8788.732,21.973,18.555,22.461,14.648,-478.516,0
8788.736,45.898,16.602,13.184,48.828,-883.789,0
8788.740,23.926,24.414,15.137,54.199,484.375,0
8788.744,2.930,28.809,19.043,11.230,-1000.000,0
8788.748,20.508,25.391,21.484,-7.324,-969.727,0
8788.751,43.457,21.484,28.320,32.715,513.672,0
8788.755,41.992,22.949,24.902,42.480,998.047,0
8788.759,-9.277,20.508,19.531,10.254,-498.047,0
8788.763,-12.207,17.090,15.625,-6.348,-1000.000,0
8788.767,44.434,20.508,22.461,32.715,-70.312,0
8788.771,40.527,22.461,16.113,56.152,-793.945,0
8788.775,-7.324,26.367,17.578,25.879,115.723,0
8788.779,-2.930,23.438,31.738,-1.953,-1000.000,0
8788.783,36.133,20.020,23.438,10.742,-234.863,0
8788.787,32.227,25.879,20.996,43.945,-794.922,0
8788.791,11.719,23.926,28.809,40.039,281.250,0
8788.794,-12.207,23.438,23.926,4.395,-1000.000,0
8788.798,0.488,23.438,11.719,13.672,-610.840,0
8788.802,31.250,12.207,9.766,48.340,-983.887,0
8788.806,28.809,15.137,22.461,49.316,597.656,0
8788.810,-1.953,25.391,35.156,5.371,-933.594,0
8788.814,-14.160,22.949,32.715,1.465,-1000.000,0
8788.818,37.598,16.602,34.180,37.598,312.500,0
8788.822,46.387,17.090,30.762,41.016,-897.461,0
8788.826,2.441,27.832,19.043,20.020,-316.895,0
8788.830,9.277,34.668,17.090,10.742,-1000.000,0
8788.833,27.832,20.020,23.438,31.738,-147.949,0
8788.837,20.996,14.160,24.414,39.062,-800.781,0
8788.841,-10.254,25.391,31.250,24.902,185.547,0
8788.845,-5.859,23.438,31.250,4.883,-1000.000,0
8788.849,43.457,20.996,19.043,20.020,-321.289,0
8788.853,43.945,28.809,12.207,44.434,-821.289,0
8788.857,-1.465,29.785,19.531,35.156,307.617,0
8788.861,-20.020,29.785,23.926,13.672,-1000.000,0
8788.865,14.648,33.691,28.320,8.301,-759.766,0
8788.869,59.082,30.273,26.855,45.898,844.238,0
8788.873,34.668,22.949,21.973,56.152,713.867,1
8788.876,-9.277,19.531,29.785,13.184,-829.102,0
8788.880,7.812,22.949,32.227,10.254,-1000.000,0
8788.884,39.062,22.949,25.879,29.785,119.141,0
8788.888,40.039,27.344,21.973,37.598,-848.633,0
8788.892,5.859,26.855,18.555,18.066,-178.711,0
8788.896,15.625,24.414,21.484,0.000,-1000.000,0
8788.900,29.785,32.227,26.855,26.855,-185.547,0
8788.904,24.902,34.668,22.949,45.898,-800.781,0
8788.908,13.184,30.762,15.137,17.090,241.699,0
8788.912,-4.883,25.879,18.555,-7.324,-1000.000,0
8788.916,13.184,25.879,15.137,16.113,-419.922,0
8788.919,38.574,25.391,9.277,50.781,-857.422,0
8788.923,27.832,32.227,12.207,32.227,379.395,0
8788.927,0.977,43.945,24.414,-6.348,-1000.000,0
8788.931,11.230,25.879,38.086,3.906,-888.672,0
8788.935,29.297,10.742,41.016,31.738,654.297,0
8788.939,21.484,20.996,36.133,46.387,861.816,0
8788.943,-4.883,21.973,28.809,17.578,-680.664,0
8788.947,12.695,19.531,29.785,-12.207,-1000.000,0
8788.951,41.504,28.320,21.973,30.762,9.766,0
8788.955,37.598,33.203,8.789,55.664,-804.199,0
8788.958,5.371,31.250,14.648,20.996,-2.930,0
8788.962,-22.461,33.691,23.438,-7.324,-1000.000,0
8788.966,25.391,34.180,28.320,11.230,-202.637,0
8788.970,40.527,34.180,26.855,45.898,-793.457,0
8788.974,2.930,26.855,25.879,32.227,270.996,0
8788.978,-6.348,19.531,34.668,2.930,-1000.000,0
8788.982,17.090,19.531,35.645,7.812,-506.836,0
8788.986,28.809,24.902,25.391,44.434,-899.902,0
8788.990,15.625,30.762,20.508,51.270,507.324,0
8788.994,-16.602,32.227,20.020,19.043,-997.559,0
8788.998,11.230,29.297,20.020,1.953,-999.512,0
8789.001,60.547,23.926,25.879,21.973,451.660,0
8789.005,34.180,33.203,29.297,33.203,-966.309,0
8789.009,1.953,41.016,26.855,5.371,-443.359,0
8789.013,5.371,37.109,21.484,-9.766,-1000.000,0
8789.017,31.250,31.738,25.391,20.508,-93.750,0
8789.021,33.691,23.438,26.855,45.410,-793.457,0
8789.025,1.465,29.785,23.438,22.949,145.508,0
8789.029,-3.418,34.180,29.785,7.324,-1000.000,0
8789.033,29.785,28.809,28.320,27.832,-244.629,0
8789.037,40.527,27.344,17.090,53.711,-794.922,0
8789.041,5.859,25.391,15.625,31.738,288.574,0
8789.044,-13.672,21.484,17.090,-0.488,-1000.000,0
8789.048,24.902,27.832,15.625,18.066,-621.094,0
8789.052,58.105,23.926,18.555,53.223,-1000.000,0
8789.056,34.668,31.250,20.996,42.969,651.367,0
8789.060,16.602,42.480,26.367,10.742,-893.555,0
8789.064,20.020,35.156,31.738,5.859,-1000.000,0
8789.068,33.203,28.320,35.645,34.668,286.621,0
8789.072,38.086,26.855,29.297,60.059,-855.469,0
8789.076,-1.953,28.320,18.555,30.273,-234.863,0
8789.080,-3.418,26.367,26.855,14.160,-1000.000,0
8789.083,41.504,24.902,29.785,45.898,-153.809,0
8789.087,51.270,26.367,31.250,55.664,-792.480,0
8789.091,19.531,25.879,26.367,22.949,221.191,0
8789.095,13.672,33.203,23.438,10.254,-1000.000,0
8789.099,47.363,29.785,30.762,29.785,-314.453,0
8789.103,57.617,24.902,31.250,56.152,-813.477,0
8789.107,26.367,34.180,24.414,39.551,340.820,0
8789.111,-2.930,29.785,20.996,8.789,-1000.000,0
8789.115,8.789,12.695,29.785,14.648,-742.676,0
8789.119,49.316,21.484,28.320,43.945,854.980,0
8789.123,49.805,34.180,16.113,52.734,791.992,0
8789.126,-7.812,30.762,17.578,7.324,-754.395,0
8789.130,-6.348,32.227,23.926,-9.277,-1000.000,0
8789.134,43.457,34.180,25.391,35.645,135.742,0
8789.138,50.293,31.738,28.320,58.105,-805.664,0
8789.142,16.602,27.832,29.785,24.902,-78.125,0
8789.146,2.441,32.715,32.227,4.395,-1000.000,0
8789.150,27.344,31.250,27.344,38.574,-191.406,0
8789.154,35.645,24.902,21.484,62.500,-792.480,0
8789.158,8.789,29.297,22.949,45.898,261.230,0
8789.162,5.371,24.414,33.203,31.738,-1000.000,0
8789.166,40.527,17.090,28.809,36.621,-408.691,0
8789.169,41.992,20.996,26.855,48.828,-849.609,0
8789.173,8.301,28.320,36.133,25.391,433.594,0
8789.177,-22.461,34.180,34.668,-18.066,-1000.000,0
8789.181,6.836,25.879,27.344,-18.066,-890.625,0
8789.185,58.105,21.973,20.508,26.855,639.648,0
8789.189,25.391,31.250,12.207,43.945,944.824,0
8789.193,-12.695,34.668,18.555,5.371,-570.801,0
8789.197,6.348,30.762,30.273,-5.859,-1000.000,0
8789.201,35.645,29.785,21.484,24.902,-0.977,0
8789.205,46.387,32.227,18.555,44.922,-790.527,0
8789.208,17.578,30.273,24.414,34.180,52.734,0
8789.212,-4.883,23.438,25.391,11.719,-1000.000,0
8789.216,23.926,20.996,22.461,18.066,-208.496,0
8789.220,55.664,22.949,22.461,57.617,-790.039,0
8789.224,33.203,26.855,25.879,49.316,272.461,0
8789.228,-3.906,34.180,27.832,6.348,-1000.000,0
8789.232,30.273,35.645,20.020,6.348,-524.902,0
8789.236,46.387,32.715,14.160,42.480,-913.574,0
8789.240,25.391,37.598,23.438,54.688,538.086,0
8789.244,24.414,34.668,28.809,11.230,-987.305,0
8789.248,30.273,26.367,20.996,-3.906,-996.094,0
8789.251,35.156,21.484,15.137,41.504,448.730,0
8789.255,28.809,21.973,22.949,55.664,-928.711,0
8789.259,0.488,29.297,20.508,23.438,-379.883,0
8789.263,5.371,31.738,18.066,13.184,-1000.000,0
8789.267,45.898,20.020,24.414,41.016,-105.957,0
8789.271,48.828,13.672,30.273,53.711,-791.992,0
8789.275,13.672,23.438,32.227,20.996,163.086,0
8789.279,18.066,34.180,23.926,-9.277,-1000.000,0
8789.283,56.641,35.645,17.578,18.555,-249.023,0
8789.287,60.059,34.668,29.297,62.500,-793.945,0
8789.291,23.438,28.320,28.320,38.574,306.641,0
8789.294,14.160,20.508,21.973,7.324,-1000.000,0
8789.298,33.203,19.531,22.461,25.879,-611.816,0
8789.302,40.039,25.391,16.113,48.340,997.559,0
8789.306,23.926,34.668,21.484,40.039,713.867,0
8789.310,1.953,29.785,28.320,-0.488,-832.520,0
8789.314,15.625,21.484,28.809,4.883,-1000.000,0
8789.318,47.852,20.996,26.855,45.898,281.250,0
8789.322,45.898,24.902,24.414,49.805,-830.566,0
8789.326,11.230,29.297,26.855,25.879,-175.781,0
8789.330,9.277,27.832,26.367,12.207,-1000.000,0
8789.333,45.410,25.391,22.949,40.039,-160.645,0
8789.337,61.035,18.555,20.020,62.012,-788.574,0
8789.341,26.855,20.996,24.902,40.039,241.211,0
8789.345,8.301,32.715,32.715,26.855,-1000.000,0
8789.349,36.621,33.203,26.855,35.156,-327.637,0
8789.353,59.570,26.367,25.879,48.340,-815.430,0
8789.357,31.250,26.367,31.250,44.922,375.977,0
8789.361,2.930,29.785,31.250,16.113,-1000.000,0
8789.365,37.109,33.203,14.648,24.902,-775.391,0
8789.369,59.570,31.738,10.742,52.246,812.012,0
8789.373,27.344,28.809,24.902,45.410,831.055,0
8789.376,4.883,28.320,12.207,22.461,-708.496,0
8789.380,21.484,24.902,13.672,25.391,-1000.000,0
8789.384,50.293,23.926,32.227,51.270,103.516,0
8789.388,41.504,26.855,31.738,56.152,-799.805,0
8789.392,15.137,31.250,28.320,22.949,-46.875,0
8789.396,17.578,31.250,32.715,4.883,-1000.000,0
8789.400,40.039,23.438,31.250,23.926,-200.195,0
8789.404,41.016,15.625,23.926,54.199,-792.969,0
8789.408,1.465,7.812,27.344,32.227,266.113,0
8789.412,-14.648,5.859,27.344,-3.906,-1000.000,0
8789.416,23.926,23.926,20.020,19.043,-427.734,0
8789.419,58.594,34.668,19.043,46.387,-858.398,0
8789.423,36.621,31.738,14.648,37.109,446.777,0
8789.427,14.160,33.691,24.902,28.320,-1000.000,0
8789.431,35.645,35.156,36.133,18.555,-913.086,0
8789.435,51.270,29.785,32.715,42.969,603.027,0
8789.439,34.180,25.391,29.297,63.965,959.473,0
8789.443,11.230,30.762,30.762,30.762,-548.828,0
8789.447,14.160,29.297,31.250,20.020,-1000.000,0
8789.451,45.410,21.484,19.531,52.734,-32.715,0
8789.455,48.340,24.902,12.695,64.941,-792.480,0
8789.458,30.273,31.738,25.879,35.645,80.078,0
8789.462,10.254,35.156,30.273,0.977,-1000.000,0
8789.466,50.293,34.180,26.367,22.949,-217.773,0
8789.470,67.871,32.715,29.297,69.824,-791.016,0
8789.474,4.883,32.715,24.902,55.664,272.949,0
8789.478,-5.371,21.484,26.855,13.184,-1000.000,0
8789.482,33.203,18.555,35.156,30.273,-535.156,0
8789.486,56.641,29.297,31.738,55.664,-929.199,0
8789.490,38.574,35.156,27.832,39.062,595.703,0
8789.494,3.418,34.180,21.973,8.789,-941.895,0
8789.498,12.695,29.785,20.996,6.836,-1000.000,0
8789.501,59.570,27.832,16.113,55.664,401.367,0
8789.505,54.688,27.344,21.973,60.059,-888.672,0
8789.509,6.836,26.367,30.762,0.488,-309.082,0
8789.513,16.602,24.902,31.250,-1.953,-1000.000,0
8789.517,54.688,31.738,29.297,40.527,-110.840,0
8789.521,34.668,32.227,22.949,56.152,-784.668,0
8789.525,-0.488,28.809,16.113,20.508,202.148,0
8789.529,1.465,27.832,27.832,-8.301,-1000.000,0
8789.533,31.738,28.809,39.062,20.508,-256.836,0
8789.537,51.270,27.344,31.738,52.246,-791.992,0
8789.541,34.180,20.996,29.297,35.645,327.148,0
8789.544,13.672,22.461,31.738,3.418,-1000.000,0
8789.548,25.391,26.855,26.855,20.996,-636.719,0
8789.552,41.504,29.297,29.785,52.734,972.168,0
8789.556,12.695,28.320,34.668,35.156,735.352,0
8789.560,-2.441,24.414,29.785,1.953,-811.035,0
8789.564,21.484,24.414,21.973,5.371,-1000.000,0
8789.568,53.223,25.391,21.484,32.715,255.859,0
8789.572,38.086,27.344,22.461,41.504,-815.430,0
8789.576,2.930,26.855,16.602,15.137,-135.742,0
8789.580,8.301,22.949,20.508,-0.488,-1000.000,0
8789.583,40.527,27.344,35.156,37.598,-171.875,0
8789.587,42.969,25.391,31.738,54.688,-788.086,0
8789.591,4.395,15.625,25.879,11.719,253.418,0
8789.595,-3.418,18.555,23.926,-5.371,-1000.000,0
8789.599,42.480,27.344,26.367,31.250,-341.309,0
8789.603,58.594,32.715,26.855,47.852,-820.801,0
8789.607,26.367,30.762,13.672,39.062,416.504,0
8789.611,2.441,25.879,19.531,15.137,-1000.000,0
8789.615,10.742,27.344,22.949,9.277,-780.762,0
8789.619,37.598,21.484,27.832,41.504,794.922,0
8789.623,23.438,13.672,29.785,45.410,894.531,0
8789.626,1.953,23.926,26.855,9.277,-630.859,0
8789.630,27.344,25.879,32.227,8.301,-1000.000,0
8789.634,42.480,20.020,35.156,36.133,104.980,0
8789.638,36.621,25.879,40.527,59.570,-782.715,0
8789.642,3.418,27.832,39.551,30.762,9.277,0
8789.646,-1.953,29.785,20.508,-4.395,-1000.000,0
8789.650,52.246,22.461,21.973,29.297,-202.637,0
8789.654,62.500,14.648,28.809,58.105,-788.086,0
8789.658,8.301,19.043,23.438,24.414,270.996,0
8789.662,-6.348,27.344,27.344,-14.648,-1000.000,0
8789.666,26.367,36.621,31.250,8.789,-434.082,0
8789.669,45.410,33.203,29.297,50.781,-863.770,0
8789.673,32.715,30.273,25.391,25.879,519.531,0
8789.677,0.488,27.832,26.367,-1.953,-1000.000,0
8789.681,2.441,23.438,20.996,13.184,-915.039,0
8789.685,42.969,23.926,27.344,35.645,593.262,0
8789.689,32.227,22.949,20.996,36.621,-967.773,0
8789.693,4.395,23.926,11.719,-6.348,-440.918,0
8789.697,17.090,26.855,26.855,-6.836,-1000.000,0
8789.701,52.734,28.809,35.645,27.344,-30.762,0
8789.705,45.410,27.832,36.621,48.828,-778.809,0
8789.708,6.836,22.461,34.668,24.414,142.578,0
8789.712,6.836,26.367,42.969,5.371,-1000.000,0
8789.716,35.645,34.180,38.086,32.227,-221.191,0
8789.720,55.664,30.762,32.227,47.363,-784.180,0
8789.724,44.434,29.785,27.832,20.020,289.551,0
8789.728,6.348,35.156,20.020,-0.977,-1000.000,0
8789.732,21.973,27.832,23.438,11.719,-523.438,0
8789.736,44.922,23.438,33.203,45.898,-924.805,0
8789.740,27.832,32.715,40.527,36.133,646.973,0
8789.744,23.438,28.320,35.645,3.906,-903.320,0
8789.748,26.855,16.602,34.180,6.348,-1000.000,0
8789.751,37.109,23.438,33.691,22.461,405.762,0
8789.755,49.316,26.367,25.879,50.293,-849.121,0
8789.759,20.508,22.461,25.879,32.715,-230.469,0
8789.763,22.461,28.809,29.785,8.301,-1000.000,0
8789.767,51.758,29.297,24.902,34.668,-108.398,0
8789.771,56.152,32.227,20.508,72.266,-777.832,0
8789.775,47.852,35.156,24.902,49.805,223.145,0
8789.779,23.926,32.715,31.250,4.883,-1000.000,0
8789.783,33.203,24.414,29.297,33.203,-265.137,0
8789.787,63.477,22.949,19.531,78.125,-791.992,0
8789.791,41.504,28.320,24.414,59.570,356.445,0
8789.794,23.438,26.367,39.062,5.371,-1000.000,0
8789.798,41.992,25.391,34.668,4.395,-638.672,0
8789.802,62.988,26.367,30.762,45.410,956.543,0
8789.806,38.574,18.066,36.621,50.781,817.383,0
8789.810,4.395,20.508,33.203,7.812,-723.145,0
8789.814,26.855,35.156,22.461,-8.789,-1000.000,0
8789.818,64.941,31.250,23.438,30.762,248.535,0
8789.822,52.734,30.273,24.414,56.152,-789.551,0
8789.826,-4.395,36.621,22.949,15.625,-58.105,0
8789.830,0.000,37.109,32.715,-3.418,-1000.000,0
8789.833,40.527,30.273,34.668,43.457,-175.781,0
8789.837,38.574,23.926,28.809,58.594,-781.250,0
8789.841,17.090,20.508,25.879,21.484,264.160,0
8789.845,18.066,20.996,25.879,-2.930,-1000.000,0
8789.849,38.574,27.344,26.367,9.766,-322.266,0
8789.853,49.316,35.156,30.273,45.410,-812.988,0
8789.857,26.367,36.621,29.785,48.828,465.332,0
8789.861,-3.906,25.391,31.738,6.348,-1000.000,0
8789.865,10.254,23.926,30.762,-4.883,-748.047,0
8789.869,46.875,31.738,20.020,17.090,824.219,0
8789.873,37.598,32.227,10.254,25.879,958.496,0
8789.876,-7.324,35.645,20.508,1.953,-534.668,0
8789.880,14.648,23.438,30.273,-11.230,-1000.000,0
8789.884,50.293,17.090,37.598,23.438,113.770,0
8789.888,24.414,31.250,37.109,46.387,-768.555,0
8789.892,-7.324,30.762,25.879,19.531,73.242,0
8789.896,-8.789,28.809,25.391,-10.254,-1000.000,0
8789.900,36.621,23.438,33.203,18.066,-210.449,0
8789.904,58.105,20.020,34.180,53.223,-783.203,0
8789.908,16.113,32.227,26.855,21.484,270.020,0
8789.912,-0.488,31.250,22.949,-11.719,-1000.000,0
8789.916,28.320,23.438,19.531,7.812,-424.316,0
8789.919,49.316,23.438,19.043,43.945,-864.258,0
8789.923,23.438,24.414,27.344,38.574,572.266,0
8789.927,7.324,29.785,35.645,1.953,-977.051,0
8789.931,31.738,28.320,32.715,2.930,-921.875,0
8789.935,42.480,27.832,30.273,43.457,572.266,0
8789.939,27.344,27.344,36.621,55.664,-908.203,0
8789.943,-0.977,27.344,30.273,22.461,-338.379,0
8789.947,9.277,28.809,27.832,-3.906,-1000.000,0
8789.951,61.523,23.438,31.738,23.926,-29.297,0
8789.955,61.035,20.020,34.180,54.199,-770.508,0
8789.958,12.695,27.832,19.531,35.156,173.340,0
8789.962,-0.488,25.391,12.695,6.348,-1000.000,0
8789.966,30.762,21.484,27.832,30.273,-229.980,0
8789.970,49.316,26.367,23.926,71.289,-782.715,0
8789.974,25.879,33.691,7.812,52.734,309.082,0
8789.978,11.719,35.645,22.461,9.766,-1000.000,0
8789.982,36.621,26.367,42.480,8.301,-541.504,0
8789.986,52.734,28.320,39.551,45.898,-948.730,0
8789.990,35.156,32.227,28.320,43.945,710.938,0
8789.994,3.906,27.832,26.367,-2.930,-847.656,0
8789.998,12.207,23.438,27.832,-8.301,-1000.000,0
8790.001,42.969,28.320,20.996,26.367,392.090,0
8790.005,37.598,35.645,20.020,41.992,-811.035,0
8790.009,12.207,33.203,26.855,15.625,-139.648,0
8790.013,14.648,33.203,22.949,-7.812,-1000.000,0
8790.017,45.410,31.738,18.066,26.367,-112.793,0
8790.021,44.434,30.273,18.555,48.340,-770.996,0
8790.025,10.742,30.273,17.578,12.207,244.141,0
8790.029,16.602,31.250,24.414,-8.789,-1000.000,0
8790.033,33.203,25.879,20.996,21.484,-265.137,0
8790.037,40.039,19.043,18.066,55.664,-790.039,0
8790.041,18.066,22.461,20.996,35.156,416.504,0
8790.044,-2.930,23.926,20.020,-7.324,-1000.000,0
8790.048,24.902,32.227,18.066,7.324,-643.555,0
8790.052,62.988,37.598,13.184,61.035,946.289,0
8790.056,37.598,32.715,9.766,47.363,878.906,0
8790.060,-23.438,33.691,9.766,-18.066,-645.996,0
8790.064,-0.488,26.855,18.555,-20.508,-1000.000,0
8790.068,42.969,21.973,33.691,39.551,248.047,0
8790.072,21.484,24.414,37.598,49.316,-773.438,0
8790.076,-8.789,21.484,26.855,3.906,1.953,0
8790.080,-5.859,25.879,21.484,-5.859,-1000.000,0
8790.083,31.738,34.180,23.438,31.738,-187.988,0
8790.087,37.109,28.320,16.602,45.898,-780.273,0
8790.091,7.812,25.879,19.043,20.020,265.625,0
8790.095,2.930,28.320,23.438,-0.488,-1000.000,0
8790.099,43.457,18.066,27.832,26.367,-343.262,0
8790.103,58.594,14.648,22.461,65.918,-824.219,0
8790.107,10.254,24.902,13.184,48.340,514.160,0
8790.111,-18.555,31.250,21.973,6.348,-1000.000,0
8790.115,5.371,25.391,26.855,11.719,-778.320,0
8790.119,45.410,23.438,24.902,46.875,773.438,0
8790.123,41.016,29.785,14.648,54.688,-971.191,0
8790.126,5.859,25.391,11.230,19.043,-436.035,0
8790.130,11.230,21.484,28.320,-3.906,-1000.000,0
8790.134,34.668,21.484,37.109,39.551,96.191,0
8790.138,35.645,22.461,34.180,58.594,-760.742,0
8790.142,10.742,24.902,25.391,24.414,118.164,0
8790.146,1.953,23.438,19.043,6.348,-1000.000,0
8790.150,38.574,22.461,25.879,28.320,-216.309,0
8790.154,46.875,26.367,25.879,59.082,-780.273,0
8790.158,13.184,32.715,15.137,54.688,286.133,0
8790.162,-0.977,32.227,20.996,16.602,-1000.000,0
8790.166,22.949,22.949,31.738,17.578,-441.895,0
8790.169,44.922,22.461,30.273,53.223,-877.930,0
8790.173,23.438,32.715,27.832,44.922,621.094,1
8790.177,-10.742,27.344,34.180,11.719,-938.477,0
8790.181,12.207,12.695,26.855,-5.859,-937.500,0
8790.185,44.434,11.230,21.484,30.762,548.828,0
8790.189,31.738,23.926,26.855,59.082,-875.488,0
8790.193,-0.488,25.391,24.414,21.484,-276.855,0
8790.197,12.695,22.461,32.715,4.883,-1000.000,0
8790.201,54.199,35.156,25.391,26.855,-49.805,0
8790.205,59.570,36.133,18.555,51.270,-767.578,0
8790.208,23.438,28.809,20.020,23.438,204.590,0
8790.212,1.953,27.344,20.996,1.465,-1000.000,0
8790.216,30.762,24.414,32.227,40.527,-236.328,0
8790.220,52.246,34.668,24.902,59.082,-781.738,0
8790.224,24.414,41.504,24.414,42.969,335.938,0
8790.228,16.113,20.508,33.691,20.508,-1000.000,0
8790.232,41.016,0.977,33.691,22.949,-556.152,0
8790.236,47.852,12.695,31.250,56.152,-964.355,0
8790.240,28.320,28.320,26.367,45.898,756.348,0
8790.244,2.930,22.461,22.949,-1.953,-796.875,0
8790.248,10.254,24.414,22.949,-2.441,-1000.000,0
8790.251,50.781,31.738,17.090,38.574,364.746,0
8790.255,52.246,28.320,8.789,59.082,-805.176,0
8790.259,-0.488,28.320,14.648,27.344,-119.141,0
8790.263,-7.324,31.738,23.438,11.230,-1000.000,0
8790.267,46.387,23.926,30.273,43.945,-136.719,0
8790.271,60.547,13.672,36.621,63.477,-776.367,0
8790.275,5.371,19.043,33.691,36.621,248.047,0
8790.279,-12.207,22.949,34.668,2.441,-1000.000,0
8790.283,28.809,26.855,38.086,18.066,-292.969,0
8790.287,53.223,26.367,30.273,53.711,-801.270,0
8790.291,23.438,23.438,20.508,42.969,411.621,0
8790.294,-3.418,26.855,23.438,20.996,-1000.000,0
8790.298,25.391,29.297,26.855,27.344,-688.477,0
8790.302,44.922,34.668,29.297,47.363,894.531,0
8790.306,40.039,27.832,26.855,42.969,898.438,0
8790.310,14.648,19.043,20.508,13.184,-624.512,0
8790.314,-13.184,12.207,21.484,12.207,-1000.000,0
8790.318,21.973,15.137,31.738,40.527,197.754,0
8790.322,35.645,28.809,42.480,58.594,-769.043,0
8790.326,-6.836,36.621,41.504,23.926,33.691,0
8790.330,0.977,31.738,34.180,-3.418,-1000.000,0
8790.333,46.387,25.879,29.785,26.855,-193.848,0
8790.337,53.223,29.785,21.484,50.293,-779.297,0
8790.341,22.949,35.156,21.973,20.996,266.113,0
8790.345,5.859,27.832,30.273,8.301,-1000.000,0
8790.349,47.363,16.602,20.996,31.738,-358.887,0
8790.353,78.613,22.461,17.578,47.852,-831.055,0
8790.357,38.086,25.879,27.832,41.016,523.438,0
8790.361,-6.348,26.855,33.691,11.230,-1000.000,0
8790.365,20.020,35.645,20.508,11.719,-818.848,0
8790.369,56.641,33.691,22.949,54.688,724.121,0
8790.373,46.387,32.715,34.668,64.453,-964.844,0
8790.376,20.996,35.645,34.668,22.461,-425.293,0
8790.380,26.855,27.832,34.180,12.695,-1000.000,0
8790.384,48.828,20.996,24.414,42.480,46.875,0
8790.388,39.551,26.367,27.832,53.711,-764.160,0
8790.392,13.672,25.879,35.156,33.691,129.883,0
8790.396,7.812,19.043,24.414,17.090,-1000.000,0
8790.400,34.180,24.414,20.508,26.855,-220.703,0
8790.404,56.641,33.691,22.949,49.805,-782.715,0
8790.408,26.367,36.133,11.230,38.086,288.086,0
8790.412,-2.930,34.180,9.766,18.066,-1000.000,0
8790.416,27.832,38.086,21.484,32.715,-483.398,0
8790.419,64.453,36.133,31.250,62.012,-898.926,0
8790.423,37.109,26.855,36.621,54.688,630.859,0
8790.427,-5.859,33.203,26.855,6.836,-925.293,0
8790.431,13.184,31.250,21.484,3.418,-979.004,0
8790.435,45.898,25.879,27.344,48.828,486.816,0
8790.439,47.852,27.344,30.762,65.430,-869.141,0
8790.443,17.090,18.555,30.273,20.996,-268.066,0
8790.447,-2.441,16.602,25.391,1.465,-1000.000,0
8790.451,24.902,23.926,26.367,28.320,-91.797,0
8790.455,36.133,36.133,28.320,52.734,-776.855,0
8790.458,6.836,41.016,27.344,32.715,208.984,0
8790.462,2.441,33.203,32.715,11.230,-1000.000,0
8790.466,41.016,36.621,26.367,28.320,-252.441,0
8790.470,60.059,37.598,22.461,40.527,-789.062,0
8790.474,29.785,35.156,27.832,29.297,335.449,0
8790.478,-1.465,26.855,25.879,5.371,-1000.000,0
8790.482,17.578,14.160,29.297,10.742,-619.629,0
8790.486,62.500,23.438,30.762,49.316,985.352,0
8790.490,45.410,39.551,35.156,57.617,759.766,0
8790.494,-8.789,39.551,32.227,17.578,-787.109,0
8790.498,11.230,32.715,20.996,-3.418,-1000.000,0
8790.501,35.645,26.855,24.902,15.137,273.438,0
8790.505,33.203,29.785,27.832,27.344,-809.570,0
8790.509,3.418,30.762,26.855,7.812,-123.047,0
8790.513,-17.578,27.344,24.902,-6.348,-1000.000,0
8790.517,18.555,29.785,13.672,20.996,-162.598,0
8790.521,40.039,25.391,3.418,50.781,-783.691,0
8790.525,12.695,19.531,20.508,24.414,251.465,0
8790.529,4.395,24.902,36.621,-0.488,-1000.000,0
8790.533,28.320,31.250,31.738,13.672,-312.988,0
8790.537,45.898,34.668,25.391,39.062,-809.570,0
8790.541,26.855,32.715,16.602,32.227,431.641,0
8790.544,-6.348,25.879,16.602,2.441,-1000.000,0
8790.548,15.137,23.926,15.137,15.625,-735.352,0
8790.552,57.129,23.926,7.812,49.805,842.285,0
8790.556,57.617,34.180,20.996,48.340,928.223,0
8790.560,29.785,38.574,21.484,17.090,-586.914,0
8790.564,22.949,21.973,23.926,10.254,-1000.000,0
8790.568,46.875,19.531,26.367,46.875,149.414,0
8790.572,40.527,30.762,20.996,62.988,-769.043,0
8790.576,16.113,33.691,26.367,30.762,52.246,0
8790.580,11.230,28.320,28.809,9.277,-1000.000,0
8790.583,34.668,30.762,18.066,35.645,-204.102,0
8790.587,55.664,34.180,17.090,65.918,-782.227,0
8790.591,27.832,32.715,25.391,41.016,268.555,0
8790.595,25.391,30.762,22.949,11.230,-1000.000,0
8790.599,48.828,22.949,25.879,32.227,-397.949,0
8790.603,52.246,20.996,35.156,58.105,-849.121,0
8790.607,21.484,33.691,32.715,56.641,549.316,0
8790.611,1.953,35.156,24.414,20.508,-1000.000,0
8790.615,22.461,28.809,18.066,10.742,-864.258,0
8790.619,58.105,32.227,20.020,49.316,660.156,0
8790.623,52.246,30.762,16.602,61.523,-935.059,0
8790.626,0.488,25.391,15.137,31.250,-377.441,0
8790.630,0.977,23.438,23.926,6.836,-1000.000,0
8790.634,47.363,20.996,28.320,37.109,-0.488,0
8790.638,48.828,21.484,25.879,59.570,-769.043,0
8790.642,13.184,26.367,31.250,29.785,147.461,0
8790.646,9.766,28.320,29.297,16.113,-1000.000,0
8790.650,54.199,28.320,23.926,38.574,-221.680,0
8790.654,66.895,31.738,24.414,62.500,-782.715,0
8790.658,21.484,35.645,28.809,48.340,291.504,0
8790.662,-10.254,34.180,36.621,14.648,-1000.000,0
8790.666,24.902,25.391,35.645,31.250,-516.602,0
8790.669,52.734,23.926,25.879,65.918,-920.898,0
8790.673,32.715,28.320,23.438,47.852,649.902,0
8790.677,17.578,24.902,17.578,18.555,-902.832,0
8790.681,10.742,22.461,15.625,16.113,-1000.000,0
8790.685,36.621,36.133,22.461,38.086,424.316,0
8790.689,34.180,32.715,23.926,53.711,-849.121,0
8790.693,-3.906,13.672,28.809,29.297,-229.980,0
8790.697,19.531,13.672,37.598,20.508,-1000.000,0
8790.701,53.223,28.809,41.504,42.480,-102.539,0
8790.705,34.668,37.598,32.227,52.246,-776.367,0
8790.708,11.230,27.832,24.902,34.668,220.703,0
8790.712,2.930,21.973,27.832,19.531,-1000.000,0
8790.716,41.016,25.879,30.273,25.879,-257.324,0
8790.720,60.547,23.926,30.273,41.016,-789.062,0
8790.724,14.648,20.996,26.367,35.645,354.492,0
8790.728,-0.977,24.414,15.137,18.066,-1000.000,0
8790.732,27.344,30.762,24.414,33.691,-647.461,0
8790.736,46.387,37.109,34.180,53.223,950.195,0
8790.740,16.113,35.645,23.926,45.898,808.594,0
8790.744,-9.277,30.762,29.297,18.066,-736.328,0
8790.748,13.672,24.414,30.762,14.160,-1000.000,0
8790.751,41.504,20.020,24.414,40.527,251.465,0
8790.755,35.645,29.297,25.879,45.898,-789.551,0
8790.759,9.766,25.391,27.344,20.508,-60.547,0
8790.763,0.488,18.555,15.137,4.883,-1000.000,0
8790.767,27.832,25.879,21.973,31.250,-168.945,0
8790.771,48.828,25.879,26.855,59.082,-780.273,0
8790.775,21.973,35.156,16.602,29.785,258.301,0
8790.779,9.766,43.945,22.461,2.930,-1000.000,0
8790.783,36.621,35.645,20.020,20.508,-323.730,0
8790.787,56.641,29.297,24.414,56.641,-812.988,0
8790.791,33.203,28.809,35.156,51.758,442.871,0
8790.794,-0.977,22.949,37.109,4.883,-1000.000,0
8790.798,9.766,17.578,33.203,4.883,-765.137,0
8790.802,38.574,20.996,33.203,47.363,799.316,0
8790.806,24.902,24.414,36.621,50.781,958.008,0
8790.810,-0.488,29.297,30.762,13.672,-542.480,0
8790.814,9.766,33.203,25.391,0.977,-1000.000,0
8790.818,26.367,29.785,26.367,37.109,108.398,0
8790.822,43.457,26.367,30.762,49.805,-768.066,0
8790.826,28.809,27.344,28.320,11.719,76.172,0
8790.830,5.371,30.762,19.043,-5.371,-1000.000,0
8790.833,30.273,22.949,18.066,16.602,-208.496,0
8790.837,37.109,25.391,21.973,47.363,-781.738,0
8790.841,9.277,32.715,26.367,36.621,270.996,0
8790.845,4.395,26.367,30.762,-1.953,-1000.000,0
8790.849,34.668,29.297,31.250,14.648,-401.367,0
8790.853,48.340,32.715,32.715,56.641,-859.375,0
8790.857,20.508,31.250,36.133,50.293,604.492,0
8790.861,-3.906,24.902,23.438,21.484,-969.727,0
8790.865,13.184,24.902,25.879,14.648,-867.676,0
8790.869,60.059,32.227,28.320,38.574,655.762,0
8790.873,55.664,29.297,23.926,46.387,-899.414,0
8790.876,5.859,26.367,26.367,22.461,-311.523,0
8790.880,-0.977,21.484,23.926,2.930,-1000.000,0
8790.884,34.180,18.555,37.109,35.645,9.766,0
8790.888,34.180,24.902,38.574,57.129,-760.742,0
8790.892,9.766,29.785,22.461,16.602,174.316,0
8790.896,11.230,32.715,24.902,-5.859,-1000.000,0
8790.900,35.645,34.668,38.086,25.391,-227.051,0
8790.904,50.781,17.578,37.598,63.965,-780.273,0
8790.908,26.367,14.160,35.645,46.387,315.430,0
8790.912,11.230,29.785,28.809,8.301,-1000.000,0
8790.916,41.016,25.391,18.555,18.066,-521.484,0
8790.919,51.270,24.414,21.973,42.480,-930.176,0
8790.923,17.578,41.016,28.320,53.223,697.754,0
8790.927,-15.137,41.504,27.344,35.156,-855.469,0
8790.931,12.207,31.738,30.762,14.160,-1000.000,0
8790.935,61.035,31.738,26.367,53.711,408.691,0
8790.939,51.270,32.715,27.344,66.406,-836.426,0
8790.943,10.742,23.438,40.039,29.297,-193.848,0
8790.947,13.672,23.926,37.109,25.391,-1000.000,0
8790.951,51.758,26.367,32.227,44.434,-127.930,0
8790.955,50.781,23.926,27.832,57.617,-778.809,0
8790.958,8.789,25.391,24.414,48.828,236.328,0
8790.962,-4.395,27.344,27.344,15.625,-1000.000,0
8790.966,39.062,26.367,30.762,31.738,-276.367,0
8790.970,44.434,28.809,33.203,67.871,-795.410,0
8790.974,3.906,29.297,29.785,42.480,368.652,0
8790.978,-6.836,15.625,25.391,12.207,-1000.000,0
8790.982,25.879,17.578,24.902,20.020,-672.363,0
8790.986,55.664,29.785,35.645,49.805,927.734,0
8790.990,29.785,35.645,32.715,51.758,813.965,0
8790.994,-8.789,30.273,24.414,18.066,-725.586,0
8790.998,0.000,31.250,28.320,4.395,-1000.000,0
8791.001,45.898,40.039,29.297,36.621,208.984,0
8791.005,46.875,32.227,23.926,60.547,-792.969,0
8791.009,11.230,18.066,21.973,26.855,-61.523,0
8791.013,-0.977,21.973,23.438,-2.441,-1000.000,0
8791.017,29.297,35.156,26.855,31.738,-186.035,0
8791.021,35.645,36.621,32.715,60.059,-787.109,0
8791.025,2.441,26.855,31.738,25.879,261.230,0
8791.029,-6.836,25.879,27.344,-6.348,-1000.000,0
8791.033,35.156,34.668,14.648,14.160,-369.141,0
8791.037,61.523,39.551,25.391,60.059,-832.520,0
8791.041,28.809,32.715,34.180,46.875,447.266,0
8791.044,4.883,30.273,31.250,-4.883,-1000.000,0
8791.048,34.668,32.227,44.434,11.230,-826.660,0
8791.052,55.664,22.949,45.898,45.410,729.004,0
8791.056,36.621,25.879,37.109,54.688,946.777,0
8791.060,1.953,33.203,34.180,32.227,-561.523,0
8791.064,-0.977,21.973,39.062,6.836,-1000.000,0
8791.068,47.363,18.555,37.109,40.527,46.875,0
8791.072,52.246,26.367,30.762,64.453,-776.855,0
8791.076,20.020,27.344,32.227,40.527,72.754,0
8791.080,20.020,32.227,35.156,12.207,-1000.000,0
8791.083,37.109,31.738,31.250,35.645,-212.402,0
8791.087,41.504,27.832,26.367,67.871,-786.133,0
8791.091,23.438,30.273,34.668,43.945,271.484,0
8791.095,19.043,33.691,39.062,17.090,-1000.000,0
8791.099,50.781,30.273,29.785,35.645,-465.332,0
8791.103,66.895,14.648,32.715,71.289,-882.812,0
8791.107,34.180,12.695,39.062,60.059,563.477,0
8791.111,1.465,29.785,32.715,17.578,-974.121,0
8791.115,22.461,27.344,31.738,17.090,-968.750,0
8791.119,61.035,26.367,35.645,52.734,505.859,0
8791.123,43.945,35.645,38.086,68.359,-919.434,0
8791.126,11.719,39.551,27.832,25.391,-365.234,0
8791.130,17.090,39.551,11.719,7.324,-1000.000,0
8791.134,39.551,36.133,30.273,33.203,-65.430,0
8791.138,53.711,32.227,38.086,58.594,-780.273,0
8791.142,28.809,21.973,25.879,35.645,171.875,0
8791.146,7.812,8.789,31.738,5.859,-1000.000,0
8791.150,39.551,12.695,30.762,39.062,-243.164,0
8791.154,62.500,27.832,27.832,73.242,-789.551,0
8791.158,19.043,32.715,36.133,37.598,299.805,0
8791.162,-0.977,37.109,38.574,7.324,-1000.000,0
8791.166,30.762,28.809,34.668,27.344,-589.844,0
8791.169,58.594,22.949,27.832,53.711,-982.422,0
8791.173,36.133,25.879,27.344,58.105,687.500,0
8791.177,7.812,27.832,26.855,36.621,-861.328,0
8791.181,34.180,27.832,19.531,26.855,-1000.000,0
8791.185,65.918,23.926,20.996,59.570,320.801,0
8791.189,51.270,20.996,30.273,65.430,-836.426,0
8791.193,4.395,24.902,31.250,28.809,-197.754,0
8791.197,10.254,32.227,17.090,11.230,-1000.000,0
8791.201,51.758,33.691,14.160,43.457,-141.602,0
8791.205,57.617,32.715,27.344,57.129,-784.180,0
8791.208,28.809,35.645,32.715,15.137,236.328,0
8791.212,12.695,31.250,36.133,-12.207,-1000.000,0
8791.216,41.016,21.973,22.461,13.672,-298.828,0
8791.220,53.223,23.926,22.461,45.410,-804.688,0
8791.224,11.719,26.367,34.668,29.297,375.977,0
8791.228,7.324,25.879,30.762,-2.441,-1000.000,0
8791.232,31.738,32.227,28.320,11.719,-713.867,0
8791.236,35.645,31.738,28.320,45.898,887.207,0
8791.240,20.020,35.156,30.273,43.457,816.406,0
8791.244,-7.324,37.109,33.691,11.719,-718.262,0
8791.248,6.348,34.180,32.227,-0.977,-1000.000,0
8791.251,44.434,23.926,26.367,25.879,148.438,0
8791.255,44.922,22.949,14.160,36.133,-798.828,0
8791.259,11.230,30.273,13.672,18.066,-62.500,0
8791.263,22.461,28.320,32.715,7.324,-1000.000,0
8791.267,46.875,32.227,41.504,26.855,-191.895,0
8791.271,27.832,29.297,34.180,53.223,-791.016,0
8791.275,-4.395,26.367,28.809,38.086,262.207,0
8791.279,-2.441,34.180,19.531,11.230,-1000.000,0
8791.283,39.551,36.133,22.949,26.367,-405.762,0
8791.287,67.383,29.297,35.645,63.477,-848.145,0
8791.291,44.434,31.738,39.551,59.570,436.035,0
8791.294,2.441,33.203,37.109,15.625,-1000.000,0
8791.298,25.391,25.391,29.785,14.648,-874.512,0
8791.302,52.734,24.414,30.762,56.641,662.109,0
8791.306,36.621,27.832,25.391,61.035,943.359,0
8791.310,13.184,27.344,20.508,18.066,-569.336,0
8791.314,12.207,28.809,31.250,1.953,-1000.000,0
8791.318,42.969,35.645,31.250,40.039,-6.836,0
8791.322,57.129,43.945,26.855,53.711,-790.039,0
8791.326,8.301,44.922,34.668,20.996,62.500,0
8791.330,-6.348,34.180,36.133,-5.371,-1000.000,0
8791.333,43.945,26.855,36.621,25.879,-209.473,0
8791.337,55.176,21.973,31.250,68.359,-789.062,0
8791.341,11.719,17.578,28.320,27.832,272.461,0
8791.345,-17.578,28.809,27.832,-12.695,-1000.000,0
8791.349,26.855,32.715,25.391,12.207,-517.578,0
8791.353,61.035,26.367,23.438,51.758,-911.133,0
8791.357,22.461,32.715,18.066,44.434,556.641,0
8791.361,-2.441,33.691,25.879,9.766,-969.727,0
8791.365,15.625,33.203,33.203,15.137,-1000.000,0
8791.369,45.410,34.668,35.645,49.316,430.176,0
8791.373,50.781,37.109,41.016,65.430,-918.457,0
8791.376,1.465,32.227,32.715,40.527,-362.793,0
8791.380,-4.883,24.414,34.668,13.672,-1000.000,0
8791.384,45.898,24.414,42.969,46.387,-95.703,0
8791.388,48.340,22.949,31.738,66.406,-785.645,0
8791.392,1.465,29.785,23.438,27.832,184.570,0
8791.396,-1.953,31.738,31.250,0.977,-1000.000,0
8791.400,33.691,22.949,26.855,19.043,-248.535,0
8791.404,45.410,26.367,20.020,48.828,-790.527,0
8791.408,25.391,38.086,26.855,34.180,317.383,0
8791.412,-3.906,41.504,31.250,11.719,-1000.000,0
8791.416,24.902,42.480,23.926,8.301,-596.680,0
8791.419,65.918,41.504,30.762,45.410,-993.164,0
8791.423,33.203,34.668,23.438,50.781,731.934,0
8791.427,-6.836,23.926,9.277,10.742,-816.895,0
8791.431,17.090,22.461,16.113,5.371,-1000.000,0
8791.435,53.711,38.574,20.020,34.180,307.129,0
8791.439,52.246,41.016,28.809,45.410,-825.195,0
8791.443,27.344,32.227,31.250,16.602,-164.551,0
8791.447,17.578,32.227,28.320,5.371,-1000.000,0
8791.451,41.504,34.180,25.391,39.551,-158.203,0
8791.455,52.246,42.480,29.297,50.293,-786.621,0
8791.458,29.297,43.945,26.855,15.625,241.211,0
8791.462,5.371,20.996,21.973,-4.395,-1000.000,0
8791.466,18.066,15.625,22.949,20.020,-319.824,0
8791.470,45.898,27.344,25.391,76.660,-812.012,0
8791.474,21.484,32.227,27.832,61.035,370.605,1
8791.478,5.371,35.156,14.648,3.418,-1000.000,0
8791.482,32.227,31.250,22.461,6.348,-764.648,0
8791.486,41.504,29.785,37.109,32.227,817.871,0
8791.490,31.250,26.855,31.738,48.828,847.168,0
8791.494,11.230,16.113,25.879,20.508,-688.477,0
8791.498,8.789,21.484,28.809,5.371,-1000.000,0
8791.501,43.945,33.203,36.621,42.969,116.211,0
8791.505,47.363,34.668,37.109,69.824,-798.340,0
8791.509,5.859,27.344,24.902,37.109,-45.410,0
8791.513,2.930,26.367,22.949,2.930,-1000.000,0
8791.517,45.410,39.551,40.527,19.531,-201.172,0
8791.521,61.035,29.785,36.621,52.734,-793.457,0
8791.525,11.719,25.391,24.414,36.133,266.602,0
8791.529,-8.301,34.180,31.250,-0.977,-1000.000,0
8791.533,30.273,21.973,31.738,15.137,-447.754,0
8791.537,55.176,19.531,31.250,54.688,-867.676,0
8791.541,21.484,27.344,39.062,42.969,440.430,0
8791.544,-14.160,29.785,35.645,9.277,-1000.000,0
8791.548,8.301,27.344,24.902,9.766,-948.730,0
8791.552,46.875,26.855,21.484,39.062,557.617,0
8791.556,45.410,29.297,22.949,50.293,942.871,0
8791.560,28.809,33.203,27.832,23.438,-577.148,0
8791.564,30.762,39.062,28.320,5.859,-1000.000,0
8791.568,39.062,37.109,30.273,40.527,-47.363,0
8791.572,39.062,35.156,36.133,61.035,-805.664,0
8791.576,3.906,32.227,25.391,28.809,43.457,0
8791.580,3.418,26.367,16.113,9.277,-1000.000,0
8791.583,42.969,27.832,27.832,33.691,-218.262,0
8791.587,50.293,30.762,36.133,64.941,-795.898,0
8791.591,26.855,31.738,38.574,41.992,273.926,0
8791.595,3.906,27.344,29.785,0.488,-1000.000,0
8791.599,27.344,31.738,22.461,19.531,-574.707,0
8791.603,71.289,37.109,24.902,56.152,-952.148,0
8791.607,38.574,35.156,32.227,49.316,556.641,0
8791.611,-8.789,34.180,33.691,25.879,-971.191,0
8791.615,27.344,35.156,28.809,29.297,-1000.000,0
8791.619,64.941,29.785,29.785,51.758,376.465,0
8791.623,58.105,28.320,22.949,49.316,-914.551,0
8791.626,20.996,28.320,25.391,26.367,-355.469,0
8791.630,21.484,25.879,37.598,16.113,-1000.000,0
8791.634,44.434,34.668,34.668,43.945,-125.488,0
8791.638,44.922,39.551,34.180,72.266,-794.922,0
8791.642,20.996,37.598,41.016,30.762,176.758,0
8791.646,4.395,35.645,32.227,-6.348,-1000.000,0
8791.650,30.273,25.879,35.156,22.949,-272.949,0
8791.654,45.898,21.973,31.250,56.152,-802.246,0
8791.658,20.508,37.109,17.090,54.199,305.664,0
8791.662,7.812,39.551,23.438,11.230,-1000.000,0
8791.666,33.203,25.391,26.855,9.277,-674.316,0
8791.669,64.941,28.320,37.598,61.523,938.477,0
8791.673,30.273,31.738,48.340,59.570,706.055,0
8791.677,-9.766,28.809,32.715,20.996,-836.426,0
8791.681,24.902,29.297,21.484,9.766,-1000.000,0
8791.685,53.223,24.902,32.715,36.621,202.637,0
8791.689,28.320,25.879,33.203,52.246,-839.355,0
8791.693,11.230,26.855,28.320,22.461,-185.547,0
8791.697,20.508,35.156,24.902,11.719,-1000.000,0
8791.701,39.551,39.062,19.531,32.715,-177.734,0
8791.705,49.805,29.297,30.273,50.781,-796.387,0
8791.708,21.973,34.180,41.016,33.691,239.258,0
8791.712,13.184,36.133,45.410,10.254,-1000.000,0
8791.716,42.969,22.949,36.621,26.367,-367.188,0
8791.720,59.570,22.461,17.090,43.945,-833.496,0
8791.724,35.645,30.273,14.648,34.180,364.258,0
8791.728,8.301,28.320,32.227,10.254,-1000.000,0
8791.732,42.969,26.855,39.062,13.672,-833.008,0
8791.736,76.172,30.762,30.273,60.059,738.770,0
8791.740,32.227,26.855,26.855,62.500,828.125,0
8791.744,-1.465,25.879,36.621,25.391,-713.379,0
8791.748,32.227,31.738,34.668,7.812,-1000.000,0
8791.751,57.129,28.809,28.809,42.969,46.875,0
8791.755,45.898,28.809,30.273,72.754,-807.617,0
8791.759,12.207,27.832,24.902,20.996,-42.480,0
8791.763,21.973,22.461,20.020,4.395,-1000.000,0
8791.767,64.941,20.508,20.020,36.133,-199.707,0
8791.771,53.223,27.832,20.020,51.758,-794.922,0
8791.775,12.207,34.668,21.484,35.156,264.648,0
8791.779,5.371,38.086,26.367,6.836,-1000.000,0
8791.783,43.457,36.621,27.344,25.879,-479.980,0
8791.787,54.199,27.344,27.832,51.758,-884.277,0
8791.791,21.484,28.809,30.273,36.133,457.031,0
8791.794,-3.418,30.762,31.250,1.953,-1000.000,0
8791.798,17.090,34.180,35.156,0.977,-961.426,0
8791.802,41.992,37.109,30.273,34.180,525.391,0
8791.806,22.461,38.574,22.461,54.199,980.957,0
8791.810,1.465,37.598,24.902,20.996,-522.949,0
8791.814,18.066,24.902,27.832,9.277,-1000.000,0
8791.818,46.875,20.996,23.438,45.898,-63.965,0
8791.822,49.316,32.227,21.973,48.828,-799.316,0
8791.826,15.625,36.133,30.762,19.043,82.520,0
8791.830,3.418,21.973,32.715,14.160,-1000.000,0
8791.833,39.551,21.484,32.715,50.293,-227.539,0
8791.837,53.711,31.250,33.691,69.336,-795.410,0
8791.841,29.297,35.156,24.902,39.551,274.902,0
8791.845,7.324,32.715,26.855,10.742,-1000.000,0
8791.849,16.113,29.785,29.785,22.461,-584.961,0
8791.853,44.922,35.156,24.414,51.758,-964.844,0
8791.857,39.551,37.598,27.832,52.246,584.961,0
8791.861,4.883,31.250,36.133,18.066,-943.848,0
8791.865,11.230,32.715,34.668,12.207,-1000.000,0
8791.869,53.223,29.297,22.949,54.199,342.285,0
8791.873,48.828,25.879,25.391,72.754,-900.879,0
8791.876,3.906,29.785,35.645,31.738,-328.613,0
8791.880,0.488,25.879,38.574,13.184,-1000.000,0
8791.884,42.969,30.273,35.645,58.105,-134.766,0
8791.888,62.012,33.691,31.250,69.336,-795.410,0
8791.892,28.320,23.438,27.832,35.156,191.406,0
8791.896,9.277,22.461,25.879,21.484,-1000.000,0
8791.900,37.109,30.762,31.250,39.062,-294.434,0
8791.904,49.316,40.527,34.180,62.012,-809.082,0
8791.908,28.809,49.316,30.273,57.129,307.129,0
8791.912,17.090,45.410,28.809,26.367,-1000.000,0
8791.916,38.086,31.250,35.645,25.879,-718.262,0
8791.919,55.176,28.809,32.715,52.246,894.043,0
8791.923,27.832,33.203,31.738,53.711,700.684,0
8791.927,-2.930,28.809,33.691,25.879,-841.309,0
8791.931,11.719,25.391,29.785,14.648,-1000.000,0
8791.935,55.664,31.250,33.691,43.945,164.062,0
8791.939,46.875,40.039,36.621,58.105,-844.238,0
8791.943,5.859,42.480,32.715,26.855,-184.570,0
8791.947,3.906,36.133,25.391,9.277,-1000.000,0
8791.951,31.250,31.250,26.367,32.227,-182.129,0
8791.955,41.992,22.461,36.133,54.199,-798.828,0
8791.958,16.113,18.555,34.668,36.133,241.211,0
8791.962,6.836,26.367,29.297,10.254,-1000.000,0
8791.966,51.270,37.109,35.156,22.949,-395.508,0
8791.970,70.801,44.434,38.086,65.430,-845.215,0
8791.974,30.762,44.434,33.203,50.293,370.117,0
8791.978,5.371,38.574,28.320,6.836,-1000.000,0
8791.982,24.414,28.809,27.344,17.090,-876.465,0
8791.986,47.363,32.227,24.902,49.805,677.246,0
8791.990,41.016,31.738,20.020,49.805,837.402,0
8791.994,10.742,18.555,23.926,14.648,-703.125,0
8791.998,23.438,30.762,28.809,14.160,-1000.000,0
8792.001,67.383,40.039,19.043,42.969,10.742,0
8792.005,47.363,36.133,22.461,60.059,-815.918,0
8792.009,6.836,38.086,37.598,33.203,-44.434,0
8792.013,22.461,41.016,38.574,0.488,-1000.000,0
8792.017,53.711,36.133,32.227,26.367,-198.730,0
8792.021,53.223,29.297,30.762,60.059,-795.898,0
8792.025,26.855,30.762,21.484,47.852,268.066,0
8792.029,21.484,28.320,16.602,15.625,-1000.000,0
8792.033,43.945,23.438,20.508,27.832,-504.883,0
8792.037,58.105,33.203,25.391,60.547,-899.414,0
8792.041,53.711,34.668,30.762,45.410,471.680,0
8792.044,25.879,26.855,27.832,8.789,-1000.000,0
8792.048,17.578,32.227,24.902,10.254,-994.141,0
8792.052,47.852,42.480,22.949,49.316,475.586,0
8792.056,42.969,32.715,26.367,58.594,972.656,0
8792.060,11.719,24.414,33.203,12.207,-531.250,0
8792.064,12.695,30.762,30.762,-5.859,-1000.000,0
8792.068,43.945,32.715,26.367,36.133,-91.309,0
8792.072,56.152,32.715,32.227,59.570,-805.176,0
8792.076,26.367,29.785,30.273,37.109,91.309,0
8792.080,4.395,24.414,29.785,4.395,-1000.000,0
8792.083,37.109,26.855,35.156,23.438,-244.141,0
8792.087,61.035,30.762,32.715,61.035,-801.758,0
8792.091,17.090,25.391,24.902,41.504,273.926,0
8792.095,-5.859,21.973,23.438,-5.859,-1000.000,0
8792.099,32.715,32.227,25.391,10.254,-654.297,0
8792.103,58.594,31.738,24.902,58.105,971.680,0
8792.107,47.363,27.344,27.832,62.500,588.867,0
8792.111,14.648,33.203,33.691,28.809,-939.941,0
8792.115,18.066,38.574,31.738,19.043,-1000.000,0
8792.119,61.035,37.598,28.320,47.363,283.203,0
8792.123,47.852,21.973,31.250,49.805,-915.527,0
8792.126,-1.465,17.090,27.344,26.367,-347.168,0
8792.130,9.277,33.691,15.625,14.648,-1000.000,0
8792.134,47.363,24.902,27.832,39.551,-154.297,0
8792.138,43.945,15.625,33.203,59.570,-803.711,0
8792.142,13.672,25.879,32.715,29.785,187.012,0
8792.146,20.020,35.156,23.438,5.371,-1000.000,0
8792.150,44.434,41.992,14.160,30.762,-326.172,0
8792.154,40.039,30.762,29.785,50.781,-823.242,0
8792.158,19.043,25.879,32.227,36.133,311.523,0
8792.162,-1.465,34.668,20.508,15.625,-1000.000,0
8792.166,31.738,33.691,25.391,10.254,-791.016,0
8792.169,54.199,24.414,29.297,31.738,807.129,0
8792.173,14.160,31.250,30.762,37.109,716.797,0
8792.177,-12.695,39.551,33.203,6.348,-833.496,0
8792.181,5.371,31.738,28.809,0.000,-1000.000,0
8792.185,50.293,26.367,27.344,44.922,119.141,0
8792.189,57.617,28.320,17.090,54.199,-845.703,0
8792.193,4.883,38.086,17.090,16.602,-174.316,0
8792.197,-14.160,29.297,26.367,4.883,-1000.000,0
8792.201,23.926,7.812,26.367,33.691,-186.035,0
8792.205,33.691,21.973,30.273,55.664,-800.781,0
8792.208,4.395,48.340,28.809,31.738,242.676,0
8792.212,0.488,40.039,24.902,4.395,-1000.000,0
8792.216,25.879,31.250,23.438,24.414,-422.363,0
8792.220,51.758,33.203,26.855,62.500,-857.910,0
8792.224,37.598,40.527,26.367,49.805,389.160,0
8792.228,0.000,44.434,21.973,20.020,-1000.000,0
8792.232,19.531,31.250,21.484,32.227,-908.691,0
8792.236,46.875,19.531,24.414,53.711,621.094,0
8792.240,25.391,17.578,29.785,45.898,880.859,0
8792.244,0.488,31.250,18.066,25.391,-653.809,0
8792.248,19.531,40.527,11.230,15.625,-1000.000,0
8792.251,42.480,33.691,21.973,34.668,-13.672,0
8792.255,28.809,36.621,20.020,57.129,-814.941,0
8792.259,1.953,33.691,20.020,33.203,-21.484,0
8792.263,-2.930,19.531,30.762,4.395,-1000.000,0
8792.267,31.738,25.879,36.621,32.715,-207.031,0
8792.271,42.969,33.203,27.344,62.012,-797.852,0
8792.275,0.000,32.227,22.461,31.738,269.043,0
8792.279,-14.160,32.715,30.762,9.766,-1000.000,0
8792.283,22.949,26.855,34.180,30.273,-542.480,0
8792.287,52.734,28.320,34.180,46.387,-926.270,0
8792.291,34.668,30.762,32.715,37.598,484.863,0
8792.294,-3.418,24.414,33.203,9.277,-1000.000,0
8792.298,12.207,21.973,25.391,9.766,-1000.000,0
8792.302,43.457,27.832,22.461,49.805,409.668,0
8792.306,25.391,25.391,31.250,57.617,985.840,0
8792.310,4.883,28.320,36.621,21.484,-513.672,0
8792.314,9.766,36.621,27.344,9.277,-1000.000,0
8792.318,44.922,34.180,11.230,40.039,-116.699,0
8792.322,53.223,26.367,18.555,59.082,-812.012,0
8792.326,15.625,21.973,36.621,34.180,90.820,0
8792.330,15.137,22.461,34.180,12.695,-1000.000,0
8792.333,55.176,20.996,34.668,41.016,-266.602,0
8792.337,57.129,21.484,36.133,81.543,-811.523,0
8792.341,9.766,32.715,27.832,44.434,277.344,0
8792.345,-10.742,37.598,32.227,0.000,-1000.000,0
8792.349,15.137,32.715,32.227,21.484,-681.641,0
8792.353,41.992,24.414,32.715,54.688,942.871,0
8792.357,17.578,21.973,30.762,54.688,608.887,0
8792.361,-2.441,23.926,28.809,19.531,-924.805,0
8792.365,11.719,16.113,22.461,-0.977,-1000.000,0
8792.369,45.410,18.555,22.461,33.691,242.676,0
8792.373,63.477,29.297,26.855,59.570,-887.207,0
8792.376,30.762,38.086,23.926,31.738,-289.551,0
8792.380,7.812,35.156,20.996,8.789,-1000.000,0
8792.384,35.645,33.203,25.879,42.480,-166.992,0
8792.388,52.246,37.598,38.574,72.266,-804.199,0
8792.392,21.484,30.273,44.434,38.086,200.195,0
8792.396,4.395,20.508,36.133,8.301,-1000.000,0
8792.400,36.621,20.508,36.133,25.879,-360.352,0
8792.404,57.617,28.809,30.762,57.617,-835.938,0
8792.408,15.137,27.344,22.461,44.922,327.148,0
8792.412,-11.719,21.973,25.879,10.254,-1000.000,0
8792.416,23.438,28.320,30.762,17.090,-818.848,0
8792.419,51.270,31.250,30.273,47.852,770.508,0
8792.423,34.180,33.691,29.297,52.734,736.816,0
8792.427,0.977,33.203,27.344,14.648,-813.477,0
8792.431,9.766,26.367,33.691,5.859,-1000.000,0
8792.435,42.969,29.785,35.156,44.434,90.820,0
8792.439,38.086,34.180,29.297,49.316,-835.449,0
8792.443,4.883,35.645,26.367,11.719,-136.719,0
8792.447,12.695,25.879,26.367,-8.301,-1000.000,0
8792.451,42.969,12.207,20.996,15.137,-192.871,0
8792.455,31.250,9.766,26.855,43.457,-799.805,0
8792.458,-1.465,19.531,31.250,21.484,255.859,0
8792.462,-7.812,40.527,22.949,-2.441,-1000.000,0
8792.466,32.715,42.969,24.414,8.789,-453.125,0
8792.470,58.105,31.250,26.367,35.645,-871.582,0
8792.474,19.531,26.855,28.320,33.691,410.645,0
8792.478,-16.602,22.461,26.855,-5.371,-1000.000,0
8792.482,13.672,20.508,24.414,-1.953,-940.430,0
8792.486,51.758,22.461,29.785,47.363,573.242,0
8792.490,38.574,22.461,33.203,62.012,902.832,0
8792.494,10.742,27.344,17.578,12.695,-627.441,0
8792.498,17.090,44.434,17.090,-4.395,-1000.000,0
8792.501,49.316,35.156,35.156,41.016,-43.945,0
8792.505,61.035,29.297,41.016,61.523,-818.359,0
8792.509,24.414,34.180,31.250,19.043,-7.812,0
8792.513,5.859,24.902,23.926,-2.930,-1000.000,0
8792.517,38.086,24.902,33.203,25.879,-221.191,0
8792.521,53.711,30.762,37.109,50.781,-802.734,0
8792.525,24.902,28.809,28.809,46.387,270.996,0
8792.529,9.766,32.715,27.832,20.996,-1000.000,0
8792.533,46.875,29.785,36.621,21.484,-587.402,0
8792.537,77.148,37.109,33.203,57.617,-960.938,0
8792.541,45.410,41.504,28.809,48.828,498.047,0
8792.544,18.066,32.227,27.832,15.137,-991.211,0
8792.548,32.227,33.203,28.320,8.789,-1000.000,0
8792.552,54.688,34.180,19.531,36.133,350.586,0
8792.556,45.898,39.551,20.996,46.387,999.512,0
8792.560,15.137,29.297,27.344,9.277,-487.793,0
8792.564,10.254,13.184,25.391,-0.488,-1000.000,0
8792.568,45.410,30.273,22.949,28.809,-128.906,0
8792.572,49.316,36.133,23.926,42.969,-814.453,0
8792.576,13.184,35.156,28.809,16.602,104.492,0
8792.580,6.348,43.457,26.367,-1.953,-1000.000,0
8792.583,37.109,37.109,22.461,23.926,-295.410,0
8792.587,62.500,29.297,26.855,49.316,-821.289,0
8792.591,32.227,34.180,27.832,26.367,283.203,0
8792.595,8.789,33.691,26.855,2.441,-1000.000,0
8792.599,27.832,20.996,25.879,14.160,-721.191,0
8792.603,50.781,20.020,23.438,32.715,896.973,0
8792.607,33.203,30.273,22.461,39.551,632.324,0
8792.611,7.324,35.645,25.879,1.953,-900.879,0
8792.615,18.066,31.250,23.926,-1.953,-1000.000,0
8792.619,53.711,35.156,17.578,39.551,184.082,0
8792.623,48.340,34.180,22.461,31.250,-901.855,0
8792.626,4.883,23.926,25.879,1.465,-304.688,0
8792.630,16.602,26.855,28.809,-5.859,-1000.000,0
8792.634,49.316,22.949,28.320,25.391,-171.875,0
8792.638,46.387,25.879,25.391,47.852,-807.617,0
8792.642,17.090,32.227,24.414,12.207,202.637,0
8792.646,1.465,26.855,33.691,-12.695,-1000.000,0
8792.650,30.273,28.320,35.156,8.301,-386.719,0
8792.654,58.105,30.762,24.414,34.180,-847.168,0
8792.658,39.062,37.109,25.391,25.391,319.824,0
8792.662,11.230,36.621,27.832,-5.371,-1000.000,0
8792.666,20.508,27.344,30.762,-3.418,-871.582,0
8792.669,39.062,29.785,22.949,23.926,693.359,0
8792.673,30.762,36.133,19.043,23.926,753.906,0
8792.677,6.836,28.320,21.973,-2.441,-797.852,0
8792.681,23.438,24.902,25.879,-15.625,-1000.000,0
8792.685,60.547,31.738,35.645,15.137,35.156,0
8792.689,40.527,31.738,38.086,49.316,-844.727,0
8792.693,3.418,23.438,38.574,21.484,-130.371,0
8792.697,13.184,25.391,37.109,-13.184,-1000.000,0
8792.701,49.805,33.203,32.227,12.695,-192.383,0
8792.705,53.223,36.621,32.715,38.574,-800.293,0
8792.708,15.625,30.273,25.879,18.066,254.883,0
8792.712,3.418,22.949,14.160,-3.418,-1000.000,0
8792.716,34.668,25.391,19.531,16.602,-468.750,0
8792.720,54.199,20.996,19.531,39.551,-879.395,0
8792.724,24.902,27.344,24.414,22.949,423.828,0
8792.728,2.930,32.227,34.668,-5.859,-1000.000,0
8792.732,40.527,24.902,36.621,0.488,-971.191,0
8792.736,64.453,22.949,24.414,41.992,523.926,0
8792.740,27.832,18.555,28.320,41.992,917.480,0
8792.744,-4.883,24.902,34.668,2.441,-611.816,0
8792.748,3.906,33.691,21.973,-1.953,-1000.000,0
8792.751,45.898,27.344,25.879,34.180,-57.129,0
8792.755,56.152,28.320,32.715,47.363,-814.941,0
8792.759,8.789,32.715,34.180,9.766,18.555,0
8792.763,-4.883,21.973,33.203,-4.395,-1000.000,0
8792.767,37.109,19.043,21.484,26.855,-224.609,0
8792.771,47.852,26.855,24.902,53.711,-801.758,1
8792.775,12.207,19.043,33.691,39.062,272.949,0
8792.779,-0.977,15.625,27.344,1.465,-1000.000,0
8792.783,45.410,23.438,23.438,-1.953,-594.238,0
8792.787,74.219,32.715,20.996,41.992,-966.309,0
8792.791,36.133,31.738,26.367,40.039,523.438,0
8792.794,1.953,29.297,29.785,1.465,-979.492,0
8792.798,19.043,35.156,28.320,4.395,-1000.000,0
8792.802,51.270,25.391,31.738,43.945,334.961,0
8792.806,46.875,13.184,33.691,55.176,-954.590,0
8792.810,20.020,22.461,34.180,27.832,-419.922,0
8792.814,16.602,35.645,33.203,16.113,-1000.000,0
8792.818,37.598,27.344,18.066,35.645,-136.719,0
8792.822,59.082,26.855,19.531,52.246,-805.176,0
8792.826,21.484,28.809,35.156,33.691,153.320,0
8792.830,-6.836,16.602,36.621,20.508,-1000.000,0
8792.833,31.738,19.043,29.785,41.504,-290.039,0
8792.837,55.664,35.156,19.531,67.383,-812.500,0
8792.841,33.691,36.133,22.461,55.664,301.758,0
8792.845,12.207,31.250,23.438,18.555,-1000.000,0
8792.849,29.785,27.832,21.484,8.789,-710.938,0
8792.853,53.223,26.367,30.762,43.457,908.203,0
8792.857,36.133,23.438,31.250,45.898,669.922,0
8792.861,9.277,26.367,33.203,20.020,-873.047,0
8792.865,24.414,33.203,41.504,31.250,-1000.000,0
8792.869,66.895,31.250,36.621,55.176,181.152,0
8792.873,57.129,19.043,34.180,69.336,-849.609,0
8792.876,20.020,23.926,36.133,42.480,-200.195,0
8792.880,32.715,28.809,36.133,20.508,-1000.000,0
8792.884,59.570,24.902,35.156,57.129,-179.199,0
8792.888,55.176,28.809,33.203,82.520,-797.852,0
8792.892,29.785,24.902,36.133,52.734,239.746,0
8792.896,17.578,29.297,22.461,21.484,-1000.000,0
8792.900,40.527,30.762,20.020,37.598,-374.023,0
8792.904,60.059,31.738,34.180,72.266,-836.426,0
8792.908,36.621,32.715,32.715,54.199,370.605,0
8792.912,14.160,30.762,33.691,12.695,-1000.000,0
8792.916,34.668,28.320,34.668,21.973,-836.914,0
8792.919,68.359,30.762,35.645,60.547,730.469,0
8792.923,59.082,34.180,38.574,62.012,843.750,0
8792.927,13.184,32.227,37.598,21.973,-695.801,0
