timestamps,TP9,AF7,AF8,TP10,Right AUX,Marker0
8034.126,20.996,33.691,60.059,66.406,478.027,0
8034.130,25.879,34.668,50.293,74.219,972.656,0
8034.134,37.598,37.109,51.270,87.891,-931.152,0
8034.138,38.086,34.180,56.152,83.984,872.559,0
8034.142,37.598,37.109,53.711,76.660,447.754,0
8034.146,42.969,34.668,46.387,73.730,812.500,0
8034.150,51.270,34.180,41.016,82.520,-941.406,0
8034.154,32.715,39.551,46.875,78.125,-972.168,0
8034.158,11.719,34.180,63.477,68.359,331.543,0
8034.162,34.668,32.227,65.918,74.707,416.992,0
8034.165,45.898,33.691,60.547,81.055,-945.801,0
8034.169,32.715,34.668,59.082,82.031,-896.973,0
8034.173,27.832,32.227,56.641,82.031,444.824,0
8034.177,34.180,32.715,52.734,59.570,217.285,0
8034.181,37.109,32.715,51.758,57.617,-999.023,0
8034.185,22.461,29.297,54.199,67.871,-877.441,0
8034.189,15.625,28.809,52.246,62.500,604.980,0
8034.193,36.133,32.715,52.734,41.016,178.223,0
8034.197,41.016,32.715,53.711,28.809,901.855,0
8034.201,33.691,25.391,49.805,37.598,-897.461,0
8034.205,20.508,28.809,48.340,32.715,857.910,0
8034.208,10.254,36.133,58.105,21.973,106.445,0
8034.212,38.086,30.762,56.641,15.625,545.898,0
8034.216,47.363,29.297,54.199,19.531,-916.016,0
8034.220,25.879,30.762,57.617,4.395,-925.781,0
8034.224,21.484,25.391,50.293,-19.531,145.996,0
8034.228,24.902,26.855,50.293,-12.695,82.031,0
8034.232,29.297,30.762,50.293,8.301,-955.566,0
8034.236,21.973,32.227,49.805,-8.301,-848.145,0
8034.240,10.742,35.156,52.734,-23.438,298.828,0
8034.244,12.207,29.785,53.223,-18.066,-73.242,0
8034.248,24.902,24.902,54.688,-20.508,959.473,0
8034.251,18.555,31.738,59.082,-26.855,-829.590,0
8034.255,8.789,33.691,62.012,-24.414,498.535,0
8034.259,16.602,30.762,52.734,-33.691,-382.324,0
8034.263,29.297,30.273,49.316,-38.086,610.840,0
8034.267,31.250,33.203,53.223,-18.555,-837.891,0
8034.271,16.113,34.668,60.059,-29.785,864.258,0
8034.275,17.578,34.180,63.965,-50.781,-360.352,0
8034.279,41.504,31.250,53.223,-52.734,41.016,0
8034.283,45.898,30.273,58.594,-40.039,-884.766,0
8034.287,29.297,36.133,61.523,-20.508,-895.020,0
8034.290,14.648,36.621,55.176,-34.180,-134.766,0
8034.294,25.391,27.344,58.105,-48.828,-286.621,0
8034.298,51.758,27.344,67.871,-34.668,-972.656,0
8034.302,51.758,36.133,61.035,-23.926,-800.781,0
8034.306,31.250,37.598,59.570,-34.668,136.719,0
8034.310,24.902,40.039,71.777,-58.594,-472.656,0
8034.314,42.480,40.039,65.918,-51.758,847.656,0
8034.318,48.828,36.133,60.059,-32.227,-790.527,0
8034.322,27.832,31.250,62.012,-47.363,458.984,0
8034.326,20.020,37.109,66.895,-59.570,-696.289,0
8034.330,32.715,39.062,63.477,-54.688,329.102,0
8034.333,28.320,36.133,57.617,-49.316,-803.223,0
8034.337,17.090,35.156,67.383,-53.223,833.008,0
8034.341,5.371,32.715,60.547,-67.871,-563.477,0
8034.345,19.531,31.738,54.688,-64.453,-169.922,0
8034.349,36.133,34.668,64.941,-60.059,-892.578,0
8034.353,33.691,37.109,62.012,-61.523,-885.254,0
8034.357,17.578,36.621,59.082,-59.570,-157.227,0
8034.361,10.254,32.227,57.129,-50.293,-375.000,0
8034.365,34.668,25.879,59.082,-49.316,992.188,0
8034.369,25.391,28.320,57.129,-49.805,-790.039,0
8034.373,8.789,31.250,57.617,-38.574,151.367,0
8034.376,18.066,33.691,72.754,-49.316,-641.113,0
8034.380,38.574,40.527,79.590,-39.551,697.266,0
8034.384,44.922,41.504,71.777,-26.367,-775.879,0
8034.388,18.066,35.645,58.594,-33.691,504.395,0
8034.392,20.996,33.203,57.129,-33.691,-795.898,0
8034.396,42.480,29.297,62.500,-37.598,121.094,0
8034.400,35.645,26.367,64.453,-34.180,-818.359,0
8034.404,21.973,29.785,62.988,-38.574,911.133,0
8034.408,13.184,35.156,58.594,-41.992,-509.766,0
8034.412,21.973,35.645,66.895,-34.668,-256.348,0
8034.415,37.109,33.691,77.148,-6.348,-919.922,0
8034.419,35.156,35.645,69.336,-8.301,-847.168,0
8034.423,19.043,37.109,63.477,-36.133,-84.473,0
8034.427,28.320,28.320,59.082,-37.109,-497.559,0
8034.431,44.434,27.832,63.965,-13.672,911.133,0
8034.435,31.250,30.273,64.453,-12.695,-772.949,0
8034.439,24.902,26.367,59.570,-22.461,193.359,0
8034.443,19.531,20.508,68.359,-29.785,-810.059,0
8034.447,26.855,23.438,71.289,-24.902,487.793,0
8034.451,46.875,26.367,73.242,-4.395,-759.277,0
8034.455,36.621,26.367,79.102,-8.301,544.922,0
8034.458,12.695,31.250,73.730,-20.020,-870.605,0
8034.462,32.227,34.668,67.383,-18.555,-61.035,0
8034.466,43.457,30.762,67.383,-7.324,-832.520,0
8034.470,23.926,22.949,70.801,-2.930,948.242,0
8034.474,17.090,24.414,73.730,0.000,-477.539,0
8034.478,17.578,29.297,64.941,3.418,-322.754,0
8034.482,29.785,27.344,62.500,27.832,-948.242,0
8034.486,28.320,18.555,63.477,32.227,-827.637,0
8034.490,23.926,25.391,60.547,4.883,-43.945,0
8034.494,21.973,31.250,63.965,9.766,-592.285,0
8034.498,29.297,28.320,66.895,24.414,821.777,0
8034.501,52.246,34.668,72.754,39.551,-767.090,0
8034.505,26.855,32.227,73.730,55.176,246.094,0
8034.509,10.742,31.250,71.289,40.039,-938.477,0
8034.513,47.363,32.715,70.312,42.480,268.066,0
8034.517,38.086,29.297,65.918,56.641,-762.207,0
8034.521,15.625,28.320,61.523,58.105,621.582,0
8034.525,24.414,25.879,56.152,46.387,-861.816,0
8034.529,32.227,26.855,61.035,37.598,-201.660,0
8034.533,35.645,22.949,71.777,50.781,-854.980,0
8034.537,25.879,25.879,70.312,53.711,986.816,0
8034.540,13.184,28.809,64.941,33.691,-447.754,0
8034.544,12.695,26.367,68.848,27.344,-439.941,0
8034.548,35.156,24.902,68.359,43.945,-997.559,0
8034.552,45.410,23.926,67.383,47.852,-822.266,0
8034.556,20.996,24.902,64.941,35.645,-12.695,0
8034.560,18.066,25.391,68.848,34.180,-840.820,0
8034.564,44.434,26.367,85.449,35.645,553.711,0
8034.568,38.086,24.414,77.637,48.340,-740.723,0
8034.572,20.996,27.832,66.895,46.387,264.160,0
8034.576,31.738,30.762,78.613,18.066,-1000.000,0
8034.580,31.250,31.738,75.684,17.578,-5.859,0
8034.583,26.367,37.109,64.453,35.645,-760.254,0
8034.587,23.438,29.785,70.801,31.250,572.266,0
8034.591,12.695,25.879,68.359,18.066,-965.820,0
8034.595,27.832,32.715,61.035,13.184,-298.828,0
8034.599,45.898,35.156,70.312,26.855,-886.230,0
8034.603,44.922,36.133,75.195,28.809,992.188,0
8034.607,27.344,38.086,74.707,23.926,-464.355,0
8034.611,14.160,38.086,74.707,20.508,-633.789,0
8034.615,32.227,34.668,77.637,21.973,861.328,0
8034.619,43.457,37.109,71.777,24.414,-804.688,0
8034.623,19.043,33.203,65.918,22.949,21.973,0
8034.626,12.695,30.762,69.336,10.254,-1000.000,0
8034.630,40.527,36.621,72.266,15.137,291.992,0
8034.634,41.016,35.156,79.102,20.020,-729.980,0
8034.638,18.066,31.250,77.148,9.277,271.484,0
8034.642,19.043,27.344,78.613,14.160,-1000.000,0
8034.646,25.391,28.320,80.566,17.578,-140.625,0
8034.650,25.879,33.691,74.707,28.809,-790.527,0
8034.654,32.715,35.645,77.637,34.668,666.016,0
8034.658,21.973,37.598,73.242,0.977,-900.391,0
8034.662,12.207,31.738,66.406,-4.883,-386.719,0
8034.665,41.504,28.320,65.430,17.090,-932.617,0
8034.669,28.320,37.109,64.941,25.879,-953.125,0
8034.673,11.230,37.109,71.777,17.578,-336.914,0
8034.677,23.926,33.203,74.707,13.672,-770.020,0
8034.681,36.133,31.250,77.637,27.344,698.730,0
8034.685,27.832,30.273,73.242,29.785,-766.602,0
8034.689,24.414,35.156,70.801,28.320,94.727,0
8034.693,23.926,32.227,72.266,20.508,-1000.000,0
8034.697,26.855,31.250,74.707,29.785,176.758,0
8034.701,40.527,31.250,76.172,52.246,-730.469,0
8034.705,21.484,30.762,76.660,54.199,348.145,0
8034.708,10.254,35.156,78.125,43.457,-1000.000,0
8034.712,32.227,36.133,78.613,45.898,-184.570,0
8034.716,46.387,30.762,83.984,61.523,-814.941,0
8034.720,27.344,27.344,83.984,71.289,777.344,0
8034.724,19.531,30.273,80.078,57.617,-779.297,0
8034.728,31.250,36.621,79.590,49.316,-446.777,0
8034.732,53.223,36.133,80.078,73.730,-973.145,0
8034.736,43.945,33.691,83.008,73.242,-896.484,0
8034.740,15.137,36.133,80.566,64.941,-213.379,0
8034.744,33.203,29.297,74.219,60.547,-845.215,0
8034.748,46.875,29.297,78.125,78.613,599.121,0
8034.751,37.598,37.109,83.984,108.398,-752.930,0
8034.755,21.973,36.621,80.078,76.172,151.367,0
8034.759,18.066,37.598,81.543,47.363,-1000.000,0
8034.763,35.156,35.156,89.844,75.684,40.527,0
8034.767,51.270,32.715,85.938,90.332,-742.676,2
8034.771,40.039,35.156,79.590,85.449,431.641,0
8034.775,12.207,30.273,82.031,69.336,-1000.000,0
8034.779,24.902,26.855,88.379,65.430,-253.906,0
8034.783,41.504,30.273,88.379,83.496,-844.727,0
8034.787,34.668,33.203,92.773,96.191,858.887,0
8034.790,25.879,37.109,94.238,89.844,-677.734,0
8034.794,28.320,36.133,91.797,75.684,-560.547,0
8034.798,42.969,34.668,94.727,80.566,936.035,0
8034.802,42.480,35.156,96.680,97.656,-849.609,0
8034.806,34.180,35.156,92.285,84.473,-95.215,0
8034.810,16.113,37.109,82.031,70.801,-978.516,0
8034.814,18.066,35.156,85.449,85.449,395.508,0
8034.818,34.668,33.691,87.891,87.891,-737.793,0
8034.822,32.715,37.109,89.844,80.566,203.613,0
8034.826,15.137,34.180,99.609,65.918,-1000.000,0
8034.830,17.578,35.156,93.262,72.266,-112.793,0
8034.833,35.156,37.109,82.520,86.426,-762.695,0
8034.837,20.508,30.273,83.496,76.172,507.324,0
8034.841,13.184,29.297,85.449,72.266,-1000.000,0
8034.845,28.320,35.645,83.008,82.031,-337.891,0
8034.849,38.086,35.156,92.773,92.773,-884.277,0
8034.853,31.250,30.273,90.820,85.449,916.016,0
8034.857,18.066,30.762,84.473,73.730,-589.355,0
8034.861,14.648,29.785,90.820,83.008,-705.078,0
8034.865,18.066,26.367,87.891,79.102,795.898,0
8034.869,18.555,31.250,87.891,80.566,-812.500,0
8034.873,5.859,34.668,91.797,83.496,-15.137,0
8034.876,14.648,31.738,90.820,59.570,-1000.000,0
8034.880,28.320,25.879,90.820,65.430,217.285,0
8034.884,26.855,28.320,101.074,87.402,-735.840,0
8034.888,13.184,36.133,106.445,86.914,258.789,0
8034.892,3.906,33.203,94.238,81.055,-1000.000,0
8034.896,20.996,26.855,83.008,81.055,-169.922,0
8034.900,33.691,29.297,89.844,89.355,-782.715,0
8034.904,20.508,32.227,96.680,78.613,594.727,0
8034.908,3.418,27.344,95.703,61.035,-975.586,0
8034.912,15.137,24.414,87.891,66.895,-407.715,0
8034.915,32.715,27.344,89.355,75.684,-935.547,0
8034.919,23.438,28.320,96.191,74.219,-990.723,0
8034.923,15.137,35.156,99.121,71.289,-425.781,0
8034.927,30.762,36.133,97.656,79.102,-812.012,0
8034.931,33.203,23.438,98.633,87.891,667.969,0
8034.935,11.719,22.949,106.445,74.707,-774.902,0
8034.939,8.301,29.785,104.492,45.410,74.219,0
8034.943,17.090,30.273,97.168,53.223,-1000.000,0
8034.947,50.293,31.738,92.285,81.055,106.445,0
8034.951,35.645,30.273,92.285,81.055,-734.375,0
8034.955,12.207,26.855,96.191,61.035,327.637,0
8034.958,17.578,28.320,94.727,52.734,-1000.000,0
8034.962,24.902,29.785,93.750,65.430,-213.867,0
8034.966,27.344,26.855,93.750,78.613,-812.500,0
8034.970,5.371,26.855,102.051,83.008,729.492,0
8034.974,1.465,23.438,104.980,75.195,-840.332,0
8034.978,20.508,20.508,91.797,64.453,-482.422,0
8034.982,43.945,23.438,87.891,75.195,-987.305,0
8034.986,28.320,24.902,97.656,73.242,-929.199,0
8034.990,8.789,29.297,98.633,59.082,-285.645,0
8034.994,13.672,29.785,101.562,59.082,-916.992,0
8034.998,23.438,24.902,104.492,70.801,520.508,0
8035.001,29.785,34.180,108.398,64.941,-758.789,0
8035.005,15.625,36.133,104.492,51.758,128.906,0
8035.009,9.766,30.762,96.191,45.898,-1000.000,0
8035.013,26.367,29.297,89.844,58.594,-58.594,0
8035.017,42.969,28.809,91.309,58.594,-748.047,0
8035.021,36.133,35.156,106.445,45.898,372.070,0
8035.025,26.855,35.156,106.934,47.363,-1000.000,0
8035.029,37.109,30.762,94.727,61.523,-303.223,0
8035.033,52.246,27.344,95.703,75.684,-836.914,0
8035.037,48.340,29.297,104.004,88.867,719.238,0
8035.040,32.227,34.180,98.145,78.613,-836.914,0
8035.044,35.156,32.227,94.238,47.852,-671.875,0
8035.048,45.410,32.715,99.609,60.059,846.680,0
8035.052,45.410,33.691,97.656,76.660,-904.297,0
8035.056,29.297,35.645,90.332,54.688,-228.516,0
8035.060,31.738,38.574,91.797,44.922,-1000.000,0
8035.064,48.828,36.133,87.891,62.500,216.309,0
8035.068,28.809,31.738,88.867,79.102,-754.883,0
8035.072,13.184,33.203,98.633,81.055,147.461,0
8035.076,27.832,31.250,96.680,68.359,-1000.000,0
8035.080,37.598,28.320,97.656,62.500,-176.758,0
8035.083,47.363,30.273,98.145,77.637,-769.043,0
8035.087,29.297,23.926,100.098,64.453,387.695,0
8035.091,-1.953,25.391,103.516,41.504,-1000.000,0
8035.095,18.066,34.180,95.215,49.316,-420.898,0
8035.099,34.180,37.109,89.355,72.754,-908.691,0
8035.103,38.086,34.668,91.797,69.824,795.410,0
8035.107,27.832,25.879,97.656,56.152,-741.211,0
8035.111,20.508,25.879,98.633,54.688,-838.379,0
8035.115,30.762,33.203,94.727,69.336,646.973,0
8035.119,34.668,37.598,100.098,72.754,-845.703,0
8035.123,53.223,39.551,104.492,59.570,-123.535,0
8035.126,25.391,34.668,96.680,54.199,-1000.000,0
8035.130,26.855,30.762,83.008,64.941,73.242,0
8035.134,54.199,31.738,83.984,78.613,-751.465,0
8035.138,38.574,33.203,96.680,74.707,202.148,0
8035.142,35.156,31.250,101.074,58.105,-1000.000,0
8035.146,43.945,33.691,98.633,59.570,-228.027,0
8035.150,51.758,41.016,104.492,88.867,-785.645,0
8035.154,51.270,33.691,101.562,87.891,472.168,0
8035.158,39.062,26.367,94.238,61.523,-1000.000,0
8035.162,30.273,32.715,111.328,55.664,-496.094,0
8035.165,39.062,37.598,125.000,73.730,-977.539,0
8035.169,51.270,34.180,107.910,85.449,908.691,0
8035.173,25.879,27.344,98.145,65.918,-582.031,0
8035.177,30.762,29.297,113.770,59.570,-957.520,0
8035.181,57.617,32.227,113.281,71.777,492.188,0
8035.185,33.203,30.762,101.074,80.566,-794.434,0
8035.189,15.625,32.227,113.770,75.684,4.883,0
8035.193,31.250,31.738,122.559,62.500,-1000.000,0
8035.197,42.480,28.809,116.699,70.312,-44.922,0
8035.201,41.504,29.785,112.305,76.660,-751.953,0
8035.205,32.227,35.645,122.559,75.195,270.020,0
8035.208,25.879,36.621,125.977,64.941,-1000.000,0
8035.212,35.645,28.320,102.539,59.082,-270.508,0
8035.216,38.086,24.902,98.145,82.031,-809.082,0
8035.220,24.902,26.367,104.492,76.172,565.430,0
8035.224,17.090,30.762,105.957,58.105,-988.770,0
8035.228,17.578,30.273,102.051,61.523,-628.418,0
8035.232,27.832,23.438,101.074,62.988,904.785,0
8035.236,48.828,22.949,107.422,57.617,992.188,0
8035.240,27.344,29.785,105.469,59.570,-442.871,0
8035.244,13.184,32.715,96.191,45.898,-1000.000,0
8035.248,34.180,25.879,97.656,59.570,314.453,0
8035.251,41.016,27.344,112.793,70.801,-774.902,0
8035.255,17.090,28.320,112.793,47.852,76.660,0
8035.259,8.789,25.879,115.234,37.109,-1000.000,0
8035.263,38.086,29.785,111.328,50.781,-137.695,0
8035.267,41.504,29.785,107.422,68.359,-762.695,0
8035.271,9.766,26.367,111.328,57.617,317.871,0
8035.275,3.906,25.879,106.934,42.480,-1000.000,0
8035.279,29.297,31.738,104.004,50.781,-354.492,0
8035.283,40.527,33.203,106.445,66.406,-852.051,0
8035.287,31.250,26.855,103.516,60.547,655.273,0
8035.290,5.859,26.367,102.051,38.574,-902.344,0
8035.294,12.207,30.762,106.934,42.480,-745.605,0
8035.298,36.621,36.621,109.863,62.988,753.906,0
8035.302,25.391,31.738,104.004,72.754,-895.996,0
8035.306,15.137,23.926,107.910,62.500,-234.375,0
8035.310,25.391,29.785,106.445,39.551,-1000.000,0
8035.314,37.598,30.273,98.633,55.664,169.434,0
8035.318,34.180,26.855,106.934,68.848,-752.930,0
8035.322,7.812,23.438,108.887,49.805,157.715,0
8035.326,6.836,23.926,111.328,41.016,-1000.000,0
8035.330,28.320,24.414,120.605,62.500,-176.270,0
8035.333,30.273,22.461,106.445,66.895,-768.066,0
8035.337,20.996,29.297,103.027,40.039,400.879,0
8035.341,31.250,36.133,116.699,37.598,-1000.000,0
8035.345,28.809,28.320,108.398,43.945,-396.484,0
8035.349,17.578,24.902,103.027,54.199,-899.902,0
8035.353,10.254,27.344,107.422,63.477,825.195,0
8035.357,-2.441,24.414,107.910,56.641,-710.449,0
8035.361,21.973,25.391,105.957,36.133,-816.406,0
8035.365,27.344,25.879,97.168,41.016,683.594,0
8035.369,16.602,27.344,96.191,57.129,-843.750,0
8035.373,15.137,27.344,103.516,53.711,-110.840,0
8035.376,24.414,32.715,105.469,39.062,-1000.000,0
8035.380,32.715,27.832,103.516,56.641,83.496,0
8035.384,15.137,19.531,102.539,72.266,-750.000,0
8035.388,13.184,26.367,93.750,58.105,208.496,0
8035.392,15.625,28.809,88.867,41.504,-1000.000,0
8035.396,30.273,22.949,97.168,35.645,-224.121,0
8035.400,47.852,21.973,92.285,60.059,-785.156,0
8035.404,15.625,27.344,89.355,59.082,476.562,0
8035.408,3.418,34.180,97.656,44.922,-1000.000,0
8035.412,14.160,28.809,93.262,49.805,-498.535,0
8035.415,40.039,26.367,93.262,62.500,-977.539,0
8035.419,37.109,32.227,104.980,64.453,908.691,0
8035.423,12.207,28.809,99.121,61.035,-574.219,0
8035.427,20.508,27.344,97.168,58.105,-959.961,0
8035.431,31.738,27.344,90.820,66.406,478.516,0
8035.435,46.387,28.320,84.961,55.664,-798.340,0
8035.439,33.691,32.715,93.262,47.363,-9.277,0
8035.443,19.043,35.156,92.285,49.805,-1000.000,0
8035.447,35.645,35.156,96.680,49.316,-43.945,0
8035.451,30.762,33.691,93.262,64.941,-755.859,0
8035.455,23.926,33.691,96.191,57.129,261.719,0
8035.458,22.949,34.668,95.215,41.504,-1000.000,0
8035.462,26.367,32.227,89.844,53.711,-297.363,0
8035.466,46.875,29.297,93.750,64.941,-814.453,0
8035.470,21.973,29.785,91.309,63.965,531.250,0
8035.474,-1.465,26.367,89.355,35.156,-1000.000,0
8035.478,16.602,25.391,92.773,25.879,-675.781,0
8035.482,39.062,27.344,95.215,50.781,863.770,0
8035.486,44.922,27.344,89.844,54.688,949.219,0
8035.490,11.230,23.926,89.355,33.203,-506.836,0
8035.494,2.930,18.555,87.891,30.273,-1000.000,0
8035.498,34.668,23.438,89.355,49.805,258.301,0
8035.501,38.574,26.855,91.309,47.852,-790.527,0
8035.505,9.766,32.227,102.051,37.109,41.016,0
8035.509,2.441,38.574,100.586,45.410,-1000.000,0
8035.513,22.461,31.738,71.777,46.875,-160.645,0
8035.517,49.805,29.297,77.148,40.039,-771.484,0
8035.521,28.809,34.180,86.914,41.504,293.945,0
8035.525,1.465,36.621,87.402,35.645,-1000.000,0
8035.529,23.438,37.109,84.961,47.852,-387.207,0
8035.533,17.578,34.668,81.543,63.965,-860.840,0
8035.537,25.391,30.762,87.891,53.223,588.867,0
8035.540,34.180,34.668,87.402,41.992,-949.219,0
8035.544,19.531,36.621,85.449,38.086,-820.801,0
8035.548,11.230,30.762,77.148,54.199,687.012,0
8035.552,25.879,28.809,69.336,67.383,-960.449,0
8035.556,34.668,33.203,80.078,59.082,-375.488,0
8035.560,10.254,33.691,75.195,53.711,-1000.000,0
8035.564,35.645,32.227,68.359,57.617,113.770,0
8035.568,43.945,36.621,83.496,51.758,-773.926,0
8035.572,23.926,41.992,83.008,41.504,115.234,0
8035.576,26.855,36.133,68.359,28.320,-1000.000,0
8035.580,39.062,29.785,70.312,37.109,-193.359,0
8035.583,31.250,29.785,85.449,51.270,-776.855,0
8035.587,22.949,32.715,84.961,45.898,370.605,0
8035.591,28.320,33.203,74.707,33.203,-1000.000,0
8035.595,12.207,29.785,79.590,32.715,-467.773,0
8035.599,27.344,26.855,86.426,46.387,-938.965,0
8035.603,37.598,30.762,82.520,42.969,789.551,0
8035.607,16.113,36.133,83.984,32.227,-761.719,0
8035.611,19.531,32.227,76.660,44.922,-869.629,0
8035.615,45.898,26.367,75.195,51.758,618.652,0
8035.619,41.016,26.855,78.613,39.062,-853.516,0
8035.623,27.832,24.902,82.520,31.250,-139.648,0
8035.626,20.996,22.461,97.168,19.043,-1000.000,0
8035.630,30.762,27.344,98.633,22.461,25.879,0
8035.634,28.809,30.762,93.262,37.109,-755.371,0
8035.638,-5.859,33.691,89.844,22.461,208.496,0
8035.642,-6.348,32.227,89.844,1.953,-1000.000,0
8035.646,12.207,27.832,86.426,23.438,-246.094,0
8035.650,27.832,34.668,86.914,39.551,-792.969,0
8035.654,43.457,37.109,90.332,27.344,475.098,0
8035.658,26.855,31.738,76.172,9.766,-1000.000,0
8035.662,8.789,31.250,84.473,12.695,-526.367,0
8035.665,27.832,29.297,98.633,32.715,-995.605,0
8035.669,24.902,28.809,93.262,23.438,895.996,0
8035.673,2.441,31.250,87.402,3.418,-591.797,0
8035.677,20.020,33.203,80.078,12.207,-987.793,0
8035.681,48.828,33.203,93.262,17.090,442.383,0
8035.685,29.785,33.203,93.750,23.438,-807.617,0
8035.689,7.812,32.715,82.031,15.625,-30.762,0
8035.693,13.672,33.203,88.867,15.137,-1000.000,0
8035.697,38.574,31.250,87.891,28.320,-71.289,0
8035.701,24.414,27.832,91.309,33.203,-759.277,0
8035.705,9.277,32.715,91.797,24.414,243.652,0
8035.708,15.137,33.691,85.449,17.578,-1000.000,0
8035.712,15.625,34.180,86.914,21.484,-300.781,0
8035.716,35.156,37.598,98.145,31.250,-821.289,0
8035.720,24.902,37.109,95.215,33.203,552.246,0
8035.724,4.883,27.344,83.496,26.855,-1000.000,0
8035.728,20.020,26.367,85.449,27.832,-664.062,0
8035.732,39.551,31.738,87.891,37.109,869.629,0
8035.736,27.832,35.156,94.727,67.871,980.957,0
8035.740,14.648,32.227,95.703,54.199,-457.031,0
8035.744,23.926,27.832,90.820,28.320,-1000.000,0
8035.748,30.273,31.738,84.473,32.227,242.676,0
8035.751,36.621,38.086,85.449,29.785,-784.668,0
8035.755,16.113,39.551,100.098,31.250,47.363,0
8035.759,17.090,33.203,101.562,31.250,-1000.000,0
8035.763,48.340,28.809,89.355,31.250,-155.273,0
8035.767,29.785,27.344,78.125,23.926,-770.020,0
8035.771,2.930,32.227,91.797,16.113,289.062,0
8035.775,-3.906,36.621,96.680,21.484,-1000.000,0
8035.779,18.066,32.715,99.609,25.391,-387.695,0
8035.783,46.387,27.344,99.609,35.156,-863.770,0
8035.787,34.180,30.762,94.727,39.062,610.352,0
8035.790,3.906,39.062,102.051,28.320,-946.289,0
8035.794,29.785,37.109,100.586,25.391,-778.809,0
8035.798,49.316,30.762,95.215,38.574,735.840,0
8035.802,29.785,34.668,93.750,45.410,-958.008,0
8035.806,4.395,35.645,92.285,33.691,-364.258,0
8035.810,10.742,31.250,92.285,24.902,-1000.000,0
8035.814,35.645,31.738,86.426,30.273,130.859,0
8035.818,40.527,28.809,92.285,46.387,-767.578,0
8035.822,14.160,24.414,90.820,36.133,132.812,0
8035.826,20.996,25.879,89.355,18.066,-1000.000,0
8035.830,55.176,29.297,102.539,37.598,-203.613,0
8035.833,30.273,30.762,98.145,62.988,-777.344,0
8035.837,1.953,31.250,86.426,59.570,363.770,0
8035.841,9.766,36.133,94.727,47.363,-1000.000,0
8035.845,51.270,38.574,105.957,48.828,-460.938,0
8035.849,67.383,40.039,102.539,55.176,-926.270,0
8035.853,26.855,44.922,104.492,44.434,736.816,0
8035.857,20.996,46.875,116.699,40.527,-799.316,0
8035.861,32.715,35.156,101.562,41.992,-905.762,0
8035.865,44.434,29.297,87.891,43.945,567.871,0
8035.869,36.621,37.109,95.703,57.617,-871.094,0
8035.873,18.066,41.016,101.074,38.574,-179.688,0
8035.876,25.879,38.086,99.121,21.973,-1000.000,0
8035.880,43.945,36.133,100.098,37.598,-24.414,0
8035.884,33.691,35.645,101.562,47.363,-764.648,0
8035.888,19.043,36.621,96.191,43.945,191.895,0
8035.892,26.855,32.227,100.586,28.320,-1000.000,0
8035.896,29.297,29.785,98.145,25.879,-259.277,0
8035.900,27.832,35.156,97.168,49.316,-794.434,0
8035.904,18.555,29.297,94.238,42.969,424.316,0
8035.908,9.277,31.738,85.938,24.902,-1000.000,0
8035.912,26.855,38.086,86.426,34.668,-564.941,0
8035.915,41.016,37.598,86.914,47.852,976.074,0
8035.919,15.625,34.668,95.215,57.617,847.168,0
8035.923,11.230,33.203,104.004,40.527,-657.715,0
8035.927,13.672,34.668,100.098,19.531,-1000.000,0
8035.931,49.805,33.691,96.191,37.109,399.902,0
8035.935,50.781,34.180,94.238,40.039,-824.707,0
8035.939,-5.859,30.273,87.891,31.738,-67.383,0
8035.943,2.930,27.344,91.797,21.973,-1000.000,0
8035.947,15.625,29.297,96.191,30.762,-83.984,0
8035.951,14.648,35.645,101.562,53.223,-767.090,0
8035.955,10.742,37.598,101.074,49.316,226.074,0
8035.958,9.766,35.156,96.191,36.621,-1000.000,0
8035.962,23.438,37.598,96.191,41.016,-328.613,0
8035.966,39.062,35.156,103.516,62.500,-827.148,0
8035.970,23.438,30.273,104.492,65.918,495.605,0
8035.974,6.348,31.250,98.145,44.434,-1000.000,0
8035.978,28.320,34.180,100.586,41.016,-727.051,0
8035.982,42.969,34.668,101.562,47.852,814.941,0
8035.986,30.762,34.668,105.957,51.758,926.758,0
8035.990,20.508,41.016,106.934,46.875,-542.969,0
8035.994,33.203,40.039,96.680,39.551,-1000.000,0
8035.998,41.992,36.621,100.586,47.363,161.621,0
8036.001,46.875,41.992,106.445,53.223,-803.711,0
8036.005,41.504,39.062,97.656,39.551,21.484,0
8036.009,12.695,30.273,87.402,32.715,-1000.000,0
8036.013,21.973,32.715,88.867,49.805,-176.270,0
8036.017,42.969,34.180,95.703,67.871,-778.809,0
8036.021,22.461,33.203,97.168,62.012,270.508,0
8036.025,3.906,31.738,92.773,39.062,-1000.000,0
8036.029,25.879,27.344,93.750,29.785,-424.805,0
8036.033,54.688,34.668,101.074,45.898,-883.789,0
8036.037,40.039,35.156,97.168,54.199,557.129,0
8036.040,29.785,28.320,94.727,46.875,-968.262,0
8036.044,47.852,23.926,92.773,41.992,-866.699,0
8036.048,33.203,27.832,88.867,45.898,625.000,0
8036.052,22.949,37.598,87.891,41.992,-989.258,0
8036.056,17.090,39.551,86.914,28.809,-413.086,0
8036.060,15.625,40.039,85.449,33.691,-1000.000,0
8036.064,21.973,40.527,83.008,50.293,26.367,0
8036.068,26.367,38.086,89.355,53.711,-790.527,1
8036.072,19.043,34.668,88.867,45.410,94.238,0
8036.076,25.879,34.180,86.914,26.855,-1000.000,0
8036.080,36.621,26.367,100.586,29.297,-219.238,0
8036.083,33.691,23.926,97.168,47.852,-786.621,0
8036.087,21.973,34.180,94.727,53.223,333.984,0
8036.091,4.395,32.227,101.562,49.316,-1000.000,0
8036.095,17.578,25.879,95.703,29.297,-512.207,0
8036.099,46.387,28.809,83.496,42.480,-959.961,0
8036.103,26.855,30.762,81.543,60.547,692.383,0
8036.107,12.695,32.715,91.309,42.480,-826.660,0
8036.111,17.090,31.738,86.914,38.086,-975.098,0
8036.115,26.855,22.461,78.613,60.059,449.219,0
8036.119,29.785,24.902,84.961,69.336,-885.254,0
8036.123,9.766,27.344,91.309,53.223,-225.098,0
8036.126,9.766,24.414,90.820,33.203,-1000.000,0
8036.130,28.320,27.344,86.426,34.180,-47.852,0
8036.134,40.527,31.250,85.449,54.688,-773.926,0
8036.138,28.809,30.273,90.820,59.570,184.082,0
8036.142,3.418,25.391,92.285,37.598,-1000.000,0
8036.146,20.996,25.391,88.379,44.922,-292.480,0
8036.150,47.363,27.832,85.938,59.570,-809.082,0
8036.154,29.297,30.273,94.238,63.477,420.898,0
8036.158,13.672,35.645,92.773,59.570,-1000.000,0
8036.162,31.250,31.738,75.195,55.176,-624.512,0
8036.165,54.688,28.809,80.566,65.430,929.199,0
8036.169,31.738,33.691,88.867,56.152,820.312,0
8036.173,21.484,37.109,97.656,41.504,-697.266,0
8036.177,31.250,34.668,98.145,43.457,-1000.000,0
8036.181,40.039,31.738,93.750,51.270,342.285,0
8036.185,51.270,35.645,100.586,54.688,-842.773,0
8036.189,28.809,38.086,100.098,43.457,-96.680,0
8036.193,20.020,32.715,88.379,39.062,-1000.000,0
8036.197,39.062,25.391,85.449,55.176,-136.719,0
8036.201,52.246,29.785,91.797,61.523,-778.809,0
8036.205,40.527,36.621,97.656,53.223,218.750,0
8036.208,17.090,35.156,94.727,43.457,-1000.000,0
8036.212,37.598,34.180,90.820,35.645,-348.145,0
8036.216,54.199,35.645,84.473,46.387,-832.520,0
8036.220,34.180,40.039,76.172,47.852,437.988,0
8036.224,10.742,37.109,80.566,25.391,-1000.000,0
8036.228,16.113,31.738,84.473,36.621,-785.645,0
8036.232,52.246,30.762,83.008,41.504,742.188,0
8036.236,44.434,27.344,73.730,32.227,881.348,0
8036.240,6.348,35.156,82.520,30.273,-601.562,0
8036.244,7.812,35.645,82.031,21.484,-1000.000,0
8036.248,30.273,30.273,70.801,21.484,119.629,0
8036.251,33.203,34.180,75.684,25.879,-821.777,0
8036.255,33.203,33.203,74.707,27.832,-18.066,0
8036.259,20.508,33.691,66.895,13.672,-1000.000,0
8036.263,22.949,33.691,75.195,16.113,-178.711,0
8036.267,40.527,33.203,74.707,34.180,-782.715,0
8036.271,19.531,39.062,67.871,29.785,276.855,0
8036.275,16.602,38.574,72.754,12.207,-1000.000,0
8036.279,32.715,37.109,69.824,5.859,-430.664,0
8036.283,34.668,37.109,58.105,16.113,-887.207,0
8036.287,23.926,35.156,66.895,29.297,558.105,0
8036.290,12.695,31.738,70.312,16.602,-964.355,0
8036.294,21.484,30.762,64.941,5.371,-884.766,0
8036.298,35.645,36.621,79.102,27.832,610.352,0
8036.302,32.715,35.645,80.078,44.434,989.746,0
8036.306,27.344,33.203,77.148,41.504,-451.660,0
8036.310,28.320,30.762,78.125,24.902,-1000.000,0
8036.314,13.184,26.855,72.754,10.254,49.316,0
8036.318,7.812,33.691,78.125,19.043,-804.688,0
8036.322,11.719,38.574,73.242,15.137,58.594,0
8036.326,18.066,34.180,67.871,4.395,-1000.000,0
8036.330,37.598,34.180,73.242,-1.953,-244.141,0
8036.333,45.410,32.715,74.707,11.230,-798.828,0
8036.337,28.320,33.203,75.195,15.137,299.805,0
8036.341,18.066,39.062,65.918,1.953,-1000.000,0
8036.345,31.250,34.180,52.734,6.836,-570.801,0
8036.349,31.250,32.715,51.270,24.902,-998.535,0
8036.353,21.973,34.668,47.852,35.156,614.258,0
8036.357,14.160,25.391,46.875,10.254,-904.297,0
8036.361,11.719,25.391,58.594,2.930,-1000.000,0
8036.365,36.133,33.691,65.430,30.273,405.273,0
8036.369,35.645,38.086,58.105,30.762,-947.266,0
8036.373,6.348,36.621,49.316,9.277,-333.984,0
8036.376,18.066,35.156,38.574,10.742,-1000.000,0
8036.380,56.152,33.203,33.691,30.762,-87.402,0
8036.384,54.688,32.715,39.551,34.180,-801.270,0
8036.388,20.996,40.527,49.316,26.367,129.883,0
8036.392,12.207,40.527,52.246,14.160,-1000.000,0
8036.396,28.320,25.879,48.828,24.902,-318.848,0
8036.400,26.367,26.855,48.828,32.227,-825.195,0
8036.404,18.555,34.180,42.480,30.273,368.164,0
8036.408,12.207,32.227,37.598,27.832,-1000.000,0
8036.412,35.645,28.320,46.387,31.250,-693.848,0
8036.415,52.734,29.785,47.852,38.086,866.211,0
8036.419,28.809,31.738,46.387,41.016,750.488,0
8036.423,20.020,29.785,48.340,28.809,-762.695,0
8036.427,23.438,29.785,47.852,18.555,-1000.000,0
8036.431,29.297,31.250,42.480,29.785,244.141,0
8036.435,41.504,34.668,33.691,34.180,-885.742,0
8036.439,21.484,36.133,34.668,17.578,-196.777,0
8036.443,7.812,39.551,37.598,8.301,-1000.000,0
8036.447,28.809,38.574,41.504,25.879,-147.461,0
8036.451,39.551,36.133,42.969,34.180,-794.434,0
8036.455,13.184,33.203,34.668,13.672,195.801,0
8036.458,5.371,25.879,38.086,4.883,-1000.000,0
8036.462,25.391,25.879,46.875,13.184,-405.762,0
8036.466,30.273,30.762,45.410,28.809,-867.188,0
8036.470,21.973,30.273,39.551,39.551,419.922,0
8036.474,12.207,32.227,42.969,27.832,-1000.000,0
8036.478,20.020,36.133,47.363,25.879,-813.477,0
8036.482,43.457,35.645,47.852,39.062,707.031,0
8036.486,41.992,33.203,46.387,45.898,844.727,0
8036.490,22.461,28.809,41.992,37.109,-639.648,0
8036.494,17.090,32.227,33.203,33.691,-1000.000,0
8036.498,20.020,32.227,36.133,35.645,73.730,0
8036.501,32.715,29.297,52.734,41.016,-861.816,0
8036.505,22.949,33.691,59.570,41.504,-89.355,0
8036.509,1.465,30.273,51.758,33.691,-1000.000,0
8036.513,11.719,24.902,59.082,37.598,-206.543,0
8036.517,35.645,33.203,58.105,49.805,-804.688,0
8036.521,32.715,32.715,46.875,47.852,224.121,0
8036.525,21.484,28.320,60.059,37.598,-1000.000,0
8036.529,37.598,32.227,57.617,55.176,-520.996,0
8036.533,52.246,32.715,52.734,62.988,-955.566,0
8036.537,36.621,34.180,56.641,47.852,501.953,0
8036.540,27.344,35.156,41.016,46.875,-1000.000,0
8036.544,30.762,31.250,46.875,44.922,-922.852,0
8036.548,37.109,27.344,63.965,46.875,539.551,0
8036.552,34.668,27.344,55.664,55.176,947.754,0
8036.556,19.043,30.273,55.664,52.246,-511.719,0
8036.560,23.438,36.133,65.430,49.316,-1000.000,0
8036.564,34.668,31.738,59.082,47.852,-16.602,0
8036.568,40.039,25.879,53.223,56.641,-819.336,0
8036.572,25.391,29.785,54.688,51.758,41.992,0
8036.576,19.531,30.762,56.152,32.715,-1000.000,0
8036.580,36.621,24.414,60.547,45.898,-263.184,0
8036.583,38.086,30.762,59.082,72.266,-810.059,0
8036.587,18.066,36.621,50.781,50.781,294.922,0
8036.591,5.859,37.598,67.871,25.879,-1000.000,0
8036.595,32.715,37.109,72.266,42.480,-592.285,0
8036.599,45.898,25.879,65.430,48.340,984.863,0
8036.603,22.949,23.438,77.148,37.109,581.543,0
8036.607,20.996,22.461,80.078,42.969,-926.758,0
8036.611,29.297,18.066,71.777,48.340,-1000.000,0
8036.615,37.598,20.996,68.848,56.152,373.047,0
8036.619,25.879,26.367,81.055,59.082,-963.867,0
8036.623,17.090,30.762,75.684,31.738,-363.281,0
8036.626,26.367,36.621,74.219,39.551,-1000.000,0
8036.630,20.020,32.715,88.379,63.965,-82.031,0
8036.634,30.762,30.273,90.332,59.082,-803.223,0
8036.638,34.180,28.320,86.426,56.152,122.070,0
8036.642,36.621,29.297,102.051,48.340,-1000.000,0
8036.646,38.574,28.809,111.816,44.434,-327.637,0
8036.650,36.621,25.879,97.168,61.523,-830.078,0
8036.654,30.762,31.250,93.262,64.453,355.469,0
8036.658,20.996,32.227,91.309,44.434,-1000.000,0
8036.662,28.320,31.738,84.961,44.922,-710.449,0
8036.665,49.805,27.832,86.914,57.617,839.844,0
8036.669,42.969,30.762,94.238,57.617,757.812,0
8036.673,15.137,33.691,93.750,49.805,-762.695,0
8036.677,29.297,31.250,85.449,38.086,-1000.000,0
8036.681,37.109,28.320,79.590,41.016,259.277,0
8036.685,22.949,34.180,89.844,50.781,-876.953,0
8036.689,5.371,40.527,97.168,34.180,-177.734,0
8036.693,9.766,36.133,74.707,23.926,-1000.000,0
8036.697,29.785,30.762,71.289,42.969,-140.625,0
8036.701,36.621,31.250,94.727,52.246,-793.457,0
8036.705,28.320,33.691,100.098,37.109,187.988,0
8036.708,15.137,34.180,97.168,26.367,-1000.000,0
8036.712,5.371,30.273,83.496,30.273,-408.691,0
8036.716,15.137,25.391,81.055,41.504,-868.652,0
8036.720,18.555,29.297,87.891,48.828,414.551,0
8036.724,2.441,35.156,81.543,41.504,-1000.000,0
8036.728,17.090,37.109,78.613,42.969,-816.895,0
8036.732,41.992,34.180,85.938,49.316,708.496,0
8036.736,35.156,29.297,91.309,51.270,821.289,0
8036.740,11.230,23.926,83.984,46.387,-664.062,0
8036.744,33.691,20.996,65.918,41.992,-1000.000,0
8036.748,36.133,24.902,67.383,51.270,45.410,0
8036.751,6.836,30.762,67.383,62.988,-857.910,0
8036.755,12.207,35.156,73.242,50.781,-85.938,0
8036.759,0.488,29.297,78.125,42.969,-1000.000,0
8036.763,17.090,25.391,69.336,44.922,-209.961,0
8036.767,36.621,26.855,73.730,42.969,-803.223,0
8036.771,12.207,22.949,70.801,40.039,235.840,0
8036.775,10.254,27.344,71.777,33.691,-1000.000,0
8036.779,19.531,31.250,66.895,32.715,-526.855,0
8036.783,16.602,29.785,68.359,46.875,-956.543,0
8036.787,13.184,27.832,80.078,54.688,497.559,0
8036.790,13.184,25.879,71.289,26.855,-1000.000,0
8036.794,8.301,25.879,84.473,19.531,-949.219,0
8036.798,18.066,26.367,91.309,36.621,508.789,0
8036.802,20.508,24.902,80.566,42.480,933.105,0
8036.806,17.090,27.344,75.195,32.227,-533.203,0
8036.810,16.602,28.809,71.777,28.320,-1000.000,0
8036.814,14.648,25.391,76.660,35.156,-16.113,0
8036.818,29.785,25.879,74.219,42.969,-822.266,0
8036.822,20.996,28.320,73.730,33.691,34.668,0
8036.826,4.883,33.691,81.055,20.996,-1000.000,0
8036.830,35.156,35.156,92.773,32.715,-270.020,0
8036.833,42.969,30.273,81.543,25.391,-812.988,0
8036.837,1.465,25.879,75.684,24.902,303.711,0
8036.841,0.488,28.320,83.008,31.250,-1000.000,0
8036.845,18.555,23.438,86.426,28.809,-611.816,0
8036.849,39.062,20.996,88.867,43.457,966.309,0
8036.853,19.043,31.250,85.449,39.062,601.562,0
8036.857,4.883,33.203,83.496,23.926,-916.504,0
8036.861,23.926,31.738,79.590,28.809,-1000.000,0
8036.865,22.949,32.715,84.473,44.922,385.742,0
8036.869,31.738,36.133,85.938,49.316,-963.379,0
8036.873,21.973,38.574,80.078,39.062,-361.328,0
8036.876,24.414,31.738,66.895,34.668,-1000.000,0
8036.880,40.039,28.320,72.754,54.199,-93.750,0
8036.884,27.344,31.738,80.566,54.688,-799.316,0
8036.888,13.184,30.273,76.172,34.180,144.531,0
8036.892,4.395,30.762,72.266,34.668,-1000.000,0
8036.896,31.250,34.180,69.336,29.785,-333.984,0
8036.900,45.898,38.574,80.566,40.039,-831.543,0
8036.904,23.438,40.039,79.590,50.781,358.887,0
8036.908,26.367,38.086,62.012,36.621,-1000.000,0
8036.912,41.504,39.551,62.988,27.344,-737.305,0
8036.915,45.410,37.598,70.312,47.852,831.055,0
8036.919,33.203,31.738,64.453,52.734,702.148,0
8036.923,15.137,32.715,63.965,39.551,-806.152,0
8036.927,34.668,36.133,63.965,40.039,-1000.000,0
8036.931,47.363,37.109,63.477,55.664,183.594,0
8036.935,37.109,36.133,59.082,55.664,-892.090,0
8036.939,25.391,38.574,59.082,35.156,-207.520,0
8036.943,25.879,41.016,59.082,32.227,-1000.000,0
8036.947,51.270,39.062,57.129,54.199,-139.648,0
8036.951,59.570,37.598,58.105,62.500,-789.551,0
8036.955,14.160,40.039,59.082,50.293,214.355,0
8036.958,9.277,41.504,62.500,38.574,-1000.000,0
8036.962,30.273,37.109,48.828,41.992,-376.953,0
8036.966,49.316,35.156,49.805,51.270,-847.168,0
8036.970,32.715,33.691,55.176,52.734,437.012,0
8036.974,11.230,31.738,53.223,35.156,-1000.000,0
8036.978,31.250,27.344,54.199,27.344,-836.426,0
8036.982,39.551,26.855,50.781,49.316,694.336,0
8036.986,37.598,31.738,57.617,47.852,838.867,0
8036.990,21.484,35.645,54.688,22.461,-654.297,0
8036.994,16.602,35.156,44.434,22.949,-1000.000,0
8036.998,35.645,33.203,47.852,41.992,77.637,0
8037.001,43.945,38.086,58.105,51.270,-847.168,0
8037.005,28.809,34.668,41.992,37.109,-76.172,0
8037.009,23.926,22.949,38.086,38.574,-1000.000,0
8037.013,33.691,23.438,41.504,53.223,-215.820,0
8037.017,40.527,34.180,43.457,60.059,-802.246,0
8037.021,31.250,39.062,53.711,50.293,258.301,0
8037.025,33.203,37.598,36.621,27.344,-1000.000,0
8037.029,34.180,34.668,28.809,38.086,-489.746,0
8037.033,27.832,35.645,38.086,50.781,-925.781,0
8037.037,27.832,41.504,41.992,41.504,508.789,0
8037.040,22.461,39.551,31.738,26.855,-998.047,0
8037.044,35.156,31.250,27.832,27.832,-929.199,0
8037.048,56.641,30.762,24.902,50.293,533.691,0
8037.052,48.828,31.250,24.414,45.410,970.215,0
8037.056,20.996,29.785,32.227,30.273,-477.051,0
8037.060,19.531,31.738,30.273,23.438,-1000.000,0
8037.064,31.250,29.785,33.691,31.250,-15.625,0
8037.068,31.738,25.879,34.668,49.316,-814.941,0
8037.072,24.414,28.809,34.668,38.574,54.688,0
8037.076,15.137,31.250,26.367,18.066,-1000.000,0
8037.080,51.758,28.809,28.809,28.320,-291.016,0
8037.083,54.199,30.762,41.016,44.434,-822.266,0
8037.087,23.438,27.832,27.344,39.551,268.555,0
8037.091,17.090,20.020,21.973,33.203,-1000.000,0
8037.095,25.391,22.949,37.109,30.762,-687.988,0
8037.099,38.574,27.832,32.715,30.273,882.812,0
8037.103,26.855,27.832,25.391,36.621,548.340,0
8037.107,8.789,28.809,21.484,28.809,-938.477,0
8037.111,12.695,24.902,15.625,15.625,-1000.000,0
8037.115,32.227,22.461,21.484,38.086,248.535,0
8037.119,33.203,27.832,28.809,48.828,925.293,0
8037.123,14.648,28.320,24.902,26.855,-499.512,0
8037.126,9.277,22.949,25.879,16.602,-1000.000,0
8037.130,26.855,24.414,29.785,26.367,-152.344,0
8037.134,28.809,24.414,24.414,36.621,-885.742,0
8037.138,24.414,25.879,29.297,26.367,-15.625,0
8037.142,18.555,33.203,32.227,12.695,-1000.000,0
8037.146,15.625,33.203,31.250,21.973,-485.840,0
8037.150,21.484,29.785,33.203,40.039,-962.891,0
8037.154,18.555,30.273,42.480,55.664,241.699,0
8037.158,23.438,28.320,39.062,31.250,-1000.000,0
8037.162,37.109,27.832,34.180,14.648,-928.711,0
8037.165,32.227,28.809,39.062,31.738,550.293,0
8037.169,16.113,27.344,36.133,29.785,497.070,0
8037.173,14.648,23.438,35.156,20.020,-962.891,0
8037.177,18.066,20.996,37.598,24.414,-1000.000,0
8037.181,20.020,26.855,43.945,36.621,56.641,0
8037.185,25.391,32.227,44.922,50.293,897.461,0
8037.189,15.137,29.785,43.457,39.062,-501.953,0
8037.193,7.812,25.879,33.691,26.855,-1000.000,0
8037.197,30.762,23.438,32.227,41.992,-218.262,0
8037.201,20.508,24.414,42.480,44.434,-862.793,0
8037.205,11.719,24.902,44.922,34.668,113.770,0
8037.208,11.719,26.855,44.434,26.855,-1000.000,0
8037.212,19.531,29.297,35.156,23.438,-500.977,0
8037.216,37.109,25.879,31.250,36.621,-952.637,0
8037.220,29.297,22.949,34.668,39.551,400.879,0
8037.224,20.996,26.367,41.016,39.551,-1000.000,0
8037.228,31.738,28.809,48.828,49.805,-858.398,0
8037.232,39.062,23.926,43.945,55.176,640.625,0
8037.236,31.250,21.484,44.434,60.059,862.305,0
8037.240,18.555,24.414,47.852,38.574,-645.508,0
8037.244,12.207,23.438,48.340,20.020,-1000.000,0
8037.248,23.926,22.461,38.574,34.668,83.496,0
8037.251,25.391,28.809,36.133,54.199,-809.082,0
8037.255,21.973,33.691,42.480,41.992,25.879,0
8037.259,19.531,30.762,48.340,20.996,-1000.000,0
8037.263,35.156,30.273,48.340,30.762,-175.781,0
8037.267,44.434,31.738,46.387,47.363,-779.785,0
8037.271,20.508,30.273,45.898,41.504,285.645,0
8037.275,14.648,30.273,48.828,20.508,-1000.000,0
8037.279,33.691,29.785,50.781,33.203,-443.359,0
8037.283,42.969,34.180,46.875,54.688,-897.461,0
8037.287,29.785,35.645,41.016,40.039,588.379,0
8037.290,16.113,27.832,40.527,39.551,-942.871,0
8037.294,26.855,22.949,41.016,28.320,-878.906,0
8037.298,49.316,31.738,40.527,27.832,601.562,0
8037.302,47.852,32.227,42.969,41.504,-953.125,0
8037.306,23.438,33.691,49.805,26.855,-357.910,0
8037.310,12.207,37.598,49.805,20.020,-1000.000,0
8037.314,37.598,35.156,44.922,43.457,41.016,0
8037.318,32.227,32.227,51.270,58.594,-777.832,0
8037.322,5.371,25.391,49.805,35.645,129.883,0
8037.326,16.602,26.367,42.969,20.020,-1000.000,0
8037.330,45.410,33.203,49.316,28.320,-240.723,0
8037.333,50.781,32.715,51.758,56.152,-791.992,0
8037.337,18.066,29.297,47.852,53.711,325.195,0
8037.341,5.371,34.668,50.293,27.344,-1000.000,0
8037.345,33.203,37.109,50.293,22.461,-569.824,0
8037.349,54.199,36.133,48.828,28.809,-999.023,0
8037.353,26.855,37.598,45.898,29.297,646.973,0
8037.357,7.812,30.762,41.016,24.414,-863.770,0
8037.361,25.391,25.879,41.016,32.227,-1000.000,0
8037.365,43.945,28.809,47.852,52.246,368.164,0
8037.369,50.781,33.203,52.246,61.523,-946.777,1
8037.373,34.668,35.156,51.270,40.039,-320.312,0
8037.376,12.695,34.180,51.758,21.484,-1000.000,0
8037.380,34.180,34.668,51.758,35.156,-104.980,0
8037.384,36.621,30.762,48.828,40.039,-800.781,0
8037.388,17.090,31.250,41.504,22.949,139.648,0
8037.392,11.719,32.715,39.062,17.578,-1000.000,0
8037.396,30.762,24.902,47.363,37.109,-336.914,0
8037.400,43.945,26.855,47.852,46.875,-833.008,0
8037.404,27.832,28.320,46.875,28.809,358.887,0
8037.408,20.508,30.762,38.086,16.113,-1000.000,0
8037.412,28.809,33.203,36.621,21.484,-742.676,0
8037.415,37.109,29.297,47.852,35.156,809.570,0
8037.419,38.086,28.809,49.316,34.668,731.934,0
8037.423,17.090,28.809,42.480,20.508,-778.809,0
8037.427,7.324,23.438,36.621,25.879,-1000.000,0
8037.431,20.508,20.996,35.156,31.738,182.617,0
8037.435,19.043,26.855,30.762,20.020,-886.719,0
8037.439,13.184,32.227,34.180,14.160,-178.223,0
8037.443,23.926,33.203,31.738,10.742,-1000.000,0
8037.447,27.344,30.762,28.320,21.484,-162.109,0
8037.451,21.484,34.180,34.668,43.457,-795.410,0
8037.455,12.207,32.227,39.551,30.273,208.008,0
8037.458,22.949,32.715,39.062,20.508,-1000.000,0
8037.462,31.738,37.598,39.551,22.461,-393.066,0
8037.466,27.832,34.180,44.434,27.832,-860.352,0
8037.470,27.344,28.809,43.945,37.598,456.543,0
8037.474,14.160,27.344,34.668,34.668,-1000.000,0
8037.478,23.926,34.180,27.832,24.414,-807.617,0
8037.482,41.992,35.156,32.715,38.086,706.055,0
8037.486,33.691,30.273,35.645,41.992,932.617,0
8037.490,24.414,30.762,26.855,15.137,-554.199,0
8037.494,13.672,31.738,27.344,8.789,-1000.000,0
8037.498,20.508,33.203,29.297,28.809,145.996,0
8037.501,36.133,34.668,35.645,43.457,-806.641,0
8037.505,24.414,36.133,47.363,33.691,22.949,0
8037.509,2.930,35.645,46.875,29.785,-1000.000,0
8037.513,14.160,28.809,39.551,43.945,-181.152,0
8037.517,24.902,25.391,34.668,44.922,-779.297,0
8037.521,11.719,26.855,34.668,33.691,291.992,0
8037.525,20.508,30.762,31.738,26.855,-1000.000,0
8037.529,37.109,37.598,34.668,33.203,-431.152,0
8037.533,31.738,41.016,36.133,37.109,-888.672,0
8037.537,21.973,36.133,30.762,33.691,585.449,0
8037.540,24.902,34.180,35.156,20.996,-935.547,0
8037.544,30.273,35.156,41.504,15.625,-901.855,0
8037.548,29.297,34.180,27.832,34.180,587.891,0
8037.552,16.602,36.133,26.855,43.457,-994.141,0
8037.556,1.953,35.645,46.875,30.273,-418.457,0
8037.560,8.789,31.250,44.922,23.438,-1000.000,0
8037.564,33.691,31.250,36.133,33.203,-9.277,0
8037.568,31.738,29.785,44.922,29.785,-793.945,0
8037.572,4.395,27.344,46.875,24.902,103.516,0
8037.576,11.719,31.250,43.945,15.625,-1000.000,0
8037.580,37.598,29.785,44.922,17.090,-258.789,0
8037.583,36.133,26.367,46.875,38.086,-801.270,0
8037.587,20.996,25.391,52.246,33.203,325.195,0
8037.591,17.090,35.645,49.316,9.277,-1000.000,0
8037.595,41.992,36.133,43.945,18.555,-611.816,0
8037.599,41.016,28.320,44.434,38.086,964.355,0
8037.603,8.301,31.738,44.434,46.875,642.090,0
8037.607,18.066,38.574,49.316,41.016,-884.277,0
8037.611,27.344,41.016,51.270,28.320,-1000.000,0
8037.615,28.809,37.598,42.480,38.574,381.348,0
8037.619,22.461,34.180,48.340,39.062,-925.293,0
8037.623,7.812,34.668,62.988,11.719,-298.340,0
8037.626,25.391,38.574,56.641,16.113,-1000.000,0
8037.630,37.598,32.715,42.969,49.805,-89.844,0
8037.634,29.297,28.809,44.434,59.082,-792.969,0
8037.638,28.809,28.809,53.711,35.645,161.133,0
8037.642,17.578,26.855,59.082,25.879,-1000.000,0
8037.646,9.766,23.926,49.805,31.738,-338.379,0
8037.650,24.414,27.832,39.551,41.016,-831.055,0
8037.654,34.668,26.855,43.457,48.828,372.559,0
8037.658,19.043,23.926,47.363,37.598,-1000.000,0
8037.662,18.066,29.785,49.805,39.062,-704.590,0
8037.665,48.828,29.785,46.875,49.805,854.492,0
8037.669,43.457,32.227,55.664,62.988,750.977,0
8037.673,19.531,34.180,50.781,41.504,-757.812,0
8037.677,19.531,29.297,31.250,24.414,-1000.000,0
8037.681,43.945,31.738,44.922,49.805,201.172,0
8037.685,60.059,38.086,60.059,56.152,-871.582,0
8037.689,20.996,42.969,66.406,37.109,-151.367,0
8037.693,4.395,37.109,72.266,32.227,-1000.000,0
8037.697,32.227,30.273,78.613,39.551,-155.273,0
8037.701,30.273,31.250,90.332,40.039,-791.992,0
8037.705,30.273,35.156,111.816,40.527,207.031,0
8037.708,21.484,38.574,115.234,41.992,-1000.000,0
8037.712,18.066,34.668,103.027,38.574,-414.062,0
8037.716,33.691,27.344,105.469,48.340,-873.047,0
8037.720,18.066,25.879,118.652,51.758,450.684,0
8037.724,5.371,28.320,131.348,36.621,-1000.000,0
8037.728,26.367,30.762,126.953,33.691,-849.609,0
8037.732,41.504,27.344,121.582,32.715,663.574,0
8037.736,20.508,29.785,129.395,29.785,885.742,0
8037.740,4.395,31.738,130.859,26.367,-600.098,0
8037.744,24.902,30.273,132.324,24.414,-1000.000,0
8037.748,48.340,37.109,137.695,44.922,64.453,0
8037.751,48.340,41.016,136.719,55.664,-834.961,0
8037.755,41.504,41.992,125.488,44.434,-25.391,0
8037.759,30.273,35.645,113.770,26.855,-1000.000,0
8037.763,28.809,30.762,117.676,27.344,-218.262,0
8037.767,42.480,34.668,122.070,53.223,-801.270,0
8037.771,26.855,32.715,120.605,44.434,248.535,0
8037.775,11.719,30.762,108.887,17.090,-1000.000,0
8037.779,30.273,26.855,106.934,27.832,-547.852,0
8037.783,37.109,26.367,104.004,40.039,-970.215,0
8037.787,32.227,32.227,90.820,37.109,505.859,0
8037.790,11.719,31.250,82.520,27.832,-998.047,0
8037.794,19.531,33.203,82.031,24.414,-960.938,0
8037.798,44.922,32.227,83.984,41.016,480.469,0
8037.802,46.387,27.344,78.125,58.105,963.867,0
8037.806,27.832,30.762,61.035,40.527,-480.469,0
8037.810,21.973,34.180,59.570,22.949,-1000.000,0
8037.814,40.039,35.156,57.129,28.809,-66.406,0
8037.818,36.621,33.203,49.316,43.945,-826.172,0
8037.822,28.320,31.738,50.293,30.762,53.223,0
8037.826,17.578,26.367,49.805,28.320,-1000.000,0
8037.830,18.066,25.879,50.781,52.246,-304.199,0
8037.833,36.621,26.367,42.480,48.340,-829.590,0
8037.837,24.902,30.273,44.922,39.551,274.414,0
8037.841,21.973,34.668,55.664,28.809,-1000.000,0
8037.845,36.133,34.180,54.688,36.133,-723.633,0
8037.849,32.715,31.738,52.734,55.176,849.121,0
8037.853,26.367,34.180,46.387,55.176,573.242,0
8037.857,11.230,30.273,45.898,51.758,-927.246,0
8037.861,31.738,30.273,42.969,31.250,-1000.000,0
8037.865,56.152,33.691,34.180,26.367,244.629,0
8037.869,29.297,33.691,42.480,47.363,971.680,0
8037.873,6.348,35.156,30.762,36.621,-446.289,0
8037.876,6.348,30.762,13.672,25.391,-1000.000,0
8037.880,40.527,27.832,22.949,39.062,-123.047,0
8037.884,54.688,29.297,27.832,56.152,-844.238,0
8037.888,20.020,30.273,28.320,48.828,56.152,0
8037.892,1.953,32.227,28.320,35.156,-1000.000,0
8037.896,25.879,34.180,17.090,37.598,-418.457,0
8037.900,54.199,35.156,20.996,47.363,-892.578,0
8037.904,36.133,37.109,21.973,42.969,305.664,0
8037.908,8.789,33.203,8.789,21.973,-1000.000,0
8037.912,20.508,32.227,14.160,15.625,-882.324,0
8037.915,44.922,30.762,20.020,36.133,634.277,0
8037.919,45.898,29.785,16.113,51.758,633.789,0
8037.923,20.020,34.668,4.883,44.922,-860.840,0
8037.927,27.344,31.738,11.719,32.227,-1000.000,0
8037.931,34.180,34.180,14.648,31.738,61.523,0
8037.935,14.648,35.645,8.301,48.340,-995.117,0
8037.939,16.602,28.809,20.996,44.922,-350.586,0
8037.943,23.438,32.227,29.297,31.738,-1000.000,0
8037.947,41.504,35.156,24.414,49.316,-226.074,0
8037.951,40.527,33.691,21.973,62.988,-854.492,0
8037.955,13.184,33.691,24.414,42.969,126.465,0
8037.958,16.602,27.832,23.926,32.227,-1000.000,0
8037.962,26.855,24.414,16.602,40.527,-585.449,0
8037.966,41.992,32.227,0.977,55.176,975.586,0
8037.970,42.969,35.156,9.277,61.035,341.797,0
8037.974,6.348,33.691,12.207,37.598,-1000.000,0
8037.978,12.207,38.086,-0.488,25.879,-1000.000,0
8037.982,50.293,41.992,7.812,47.363,396.973,0
8037.986,39.551,34.668,8.789,54.688,651.367,0
8037.990,26.855,35.156,-4.883,36.133,-829.102,0
8037.994,35.645,40.527,1.953,34.180,-1000.000,0
8037.998,14.160,33.203,11.230,44.922,-44.434,0
8038.001,8.301,33.203,8.789,48.828,-995.605,0
8038.005,12.695,34.668,15.625,34.668,-306.152,0
8038.009,16.113,33.203,14.648,28.320,-1000.000,0
8038.013,23.926,32.227,5.859,43.945,-321.777,0
8038.017,30.273,27.832,7.812,64.941,-889.648,0
8038.021,20.508,30.762,11.719,51.270,151.855,0
8038.025,41.992,33.691,8.789,33.203,-1000.000,0
8038.029,46.387,34.668,17.090,41.016,-776.367,0
8038.033,23.438,34.668,26.367,40.039,760.254,0
8038.037,15.625,27.344,22.461,37.109,386.719,0
8038.040,16.113,26.367,14.160,31.250,-1000.000,0
8038.044,31.738,33.203,7.324,33.691,-1000.000,0
8038.048,41.504,36.133,13.184,51.758,244.141,0
8038.052,36.133,38.086,11.230,55.664,714.355,0
8038.056,24.414,35.156,5.859,33.691,-747.070,0
8038.060,26.367,32.715,16.113,32.715,-1000.000,0
8038.064,37.598,27.832,24.902,52.734,-122.559,0
8038.068,39.551,26.367,27.344,60.059,-963.867,0
8038.072,12.695,30.273,22.461,43.457,-200.684,0
8038.076,7.324,22.949,10.254,14.648,-1000.000,0
8038.080,33.203,24.414,6.348,28.320,-446.777,0
8038.083,34.180,30.762,20.020,45.898,-969.238,0
8038.087,22.461,25.879,20.996,34.668,188.965,0
8038.091,12.207,23.926,13.672,20.020,-1000.000,0
8038.095,7.812,25.391,20.508,33.691,-885.742,0
8038.099,19.043,34.668,29.785,42.969,599.121,0
8038.103,18.555,37.109,34.180,33.203,424.316,0
8038.107,16.113,31.738,40.039,29.785,-994.141,0
8038.111,28.809,29.785,40.039,30.273,-1000.000,0
8038.115,31.738,29.297,31.738,38.086,63.965,0
8038.119,12.207,29.297,25.879,38.574,738.281,0
8038.123,11.719,31.738,23.926,27.344,-687.012,0
8038.126,19.043,37.109,24.902,25.391,-1000.000,0
8038.130,35.156,36.133,30.273,42.969,-217.285,0
8038.134,37.109,31.738,19.531,53.711,-979.980,0
8038.138,30.762,37.598,20.996,45.410,-153.320,0
8038.142,25.391,39.551,42.480,34.180,-1000.000,0
8038.146,20.020,32.715,44.434,31.250,-633.789,0
8038.150,38.574,28.809,41.016,44.922,853.027,0
8038.154,35.645,27.832,39.062,58.105,217.285,0
8038.158,9.766,34.180,37.598,34.180,-1000.000,0
8038.162,24.414,38.086,38.574,25.879,-1000.000,0
8038.165,44.922,34.668,42.480,45.898,348.145,0
8038.169,31.738,33.203,37.598,39.551,449.707,0
8038.173,24.414,35.156,32.227,33.691,-963.379,0
8038.177,28.809,36.133,35.156,36.133,-1000.000,0
8038.181,35.156,34.668,29.785,42.480,-45.898,0
8038.185,47.363,34.668,28.320,49.805,770.508,0
8038.189,30.273,36.133,21.973,39.551,-609.375,0
8038.193,18.555,33.203,24.902,23.926,-1000.000,0
8038.197,44.922,32.227,30.273,33.691,-334.473,0
8038.201,49.316,39.062,23.926,50.781,970.215,0
8038.205,33.203,41.016,27.344,25.391,-92.285,0
8038.208,23.438,35.156,31.738,15.137,-1000.000,0
8038.212,32.227,34.180,30.762,22.461,-822.754,0
8038.216,43.457,39.062,35.645,38.086,628.906,0
8038.220,24.902,41.016,39.062,49.805,253.906,0
8038.224,2.930,36.133,20.020,35.156,-1000.000,0
8038.228,8.301,35.156,14.160,28.320,-1000.000,0
8038.232,24.902,36.621,23.438,43.457,184.570,0
8038.236,26.855,32.227,20.508,42.969,466.309,0
8038.240,13.672,35.645,20.020,27.344,-936.035,0
8038.244,12.695,40.039,25.391,21.973,-1000.000,0
8038.248,37.598,39.551,21.484,37.598,-116.699,0
8038.251,40.527,35.156,19.043,43.457,827.148,0
8038.255,11.719,30.273,28.809,22.949,-509.277,0
8038.259,16.113,37.598,36.133,20.020,-1000.000,0
8038.263,39.551,40.039,20.508,32.227,-454.590,0
8038.267,40.527,31.738,17.578,38.574,946.289,0
8038.271,23.926,33.691,23.926,45.410,44.434,0
8038.275,11.719,33.691,12.695,33.203,-1000.000,0
8038.279,37.109,30.762,15.625,36.133,-906.250,0
8038.283,57.129,33.691,27.832,47.852,532.715,0
8038.287,27.344,36.133,24.902,32.715,316.406,0
8038.290,24.414,36.621,16.602,32.227,-1000.000,0
8038.294,43.457,34.668,13.184,29.785,-1000.000,0
8038.298,24.414,33.203,14.160,23.438,95.215,0
8038.302,13.184,30.273,26.855,29.297,554.688,0
8038.306,5.859,32.715,32.715,22.949,-859.863,0
8038.310,8.789,27.832,19.531,15.137,-1000.000,0
8038.314,28.320,23.926,15.137,27.832,-187.012,0
8038.318,34.668,32.715,20.508,37.109,928.711,0
8038.322,27.344,34.180,17.090,23.438,-336.914,0
8038.326,33.203,29.785,23.438,4.883,-1000.000,0
8038.330,35.156,28.320,33.691,15.625,-582.520,0
8038.333,52.734,31.738,32.227,41.504,848.633,0
8038.337,41.504,32.227,31.250,43.457,126.465,0
8038.341,16.113,28.320,20.996,24.902,-1000.000,0
8038.345,22.949,27.832,14.160,19.043,-969.238,0
8038.349,41.504,35.156,27.832,41.016,428.223,0
8038.353,44.434,35.645,36.133,48.340,375.488,0
8038.357,20.508,34.180,33.691,37.598,-1000.000,0
8038.361,16.113,34.668,26.855,40.039,-1000.000,0
8038.365,43.945,34.180,26.855,39.551,37.598,0
8038.369,45.898,30.273,29.297,37.598,666.504,0
8038.373,24.902,31.738,27.832,32.715,-743.164,0
8038.376,35.645,31.738,26.367,30.273,-1000.000,0
8038.380,47.363,26.855,22.949,36.621,-291.992,0
8038.384,31.250,25.391,20.508,49.316,905.762,0
8038.388,27.344,24.902,27.832,46.875,-253.906,0
8038.392,32.715,26.367,35.156,40.039,-1000.000,0
8038.396,29.785,31.738,29.297,36.133,-742.676,0
8038.400,42.480,31.250,20.508,28.320,671.387,0
8038.404,27.344,27.832,25.391,41.016,150.391,0
8038.408,1.465,30.273,26.855,40.527,-1000.000,0
8038.412,18.555,32.715,25.879,35.645,-1000.000,0
8038.415,39.062,33.203,38.086,42.969,206.055,0
8038.419,34.180,36.621,31.738,45.898,356.445,0
8038.423,18.555,32.715,21.484,28.809,-985.352,0
8038.427,29.785,27.344,21.973,20.996,-1000.000,0
8038.431,41.016,27.832,19.531,37.598,-117.676,0
8038.435,22.461,26.855,20.508,40.527,574.219,0
8038.439,-5.371,28.320,21.484,22.461,-765.137,0
8038.443,0.488,32.227,20.996,15.625,-1000.000,0
8038.447,23.438,33.203,24.902,31.738,-500.000,0
8038.451,24.902,30.273,17.578,47.852,709.961,0
8038.455,24.902,29.785,25.391,43.457,-219.727,0
8038.458,21.973,29.785,32.715,33.691,-1000.000,0
8038.462,29.785,28.809,24.414,38.086,-869.629,0
8038.466,27.344,27.832,28.320,46.875,502.441,0
8038.470,16.113,29.297,31.250,40.039,226.562,0
8038.474,28.320,28.809,29.785,22.461,-1000.000,0
8038.478,18.555,21.973,21.973,20.020,-1000.000,0
8038.482,24.414,24.902,24.414,40.527,166.016,0
8038.486,37.598,32.227,23.438,49.805,486.328,0
8038.490,7.812,32.715,17.090,22.949,-926.270,0
8038.494,7.324,26.855,29.785,13.672,-1000.000,0
8038.498,24.902,22.949,29.785,30.762,-93.262,0
8038.501,31.738,29.785,22.949,47.363,899.902,0
8038.505,40.039,31.738,22.461,39.062,-431.641,0
8038.509,24.902,35.156,20.508,20.020,-1000.000,0
8038.513,18.555,36.621,20.996,29.785,-377.441,0
8038.517,34.180,30.273,18.555,32.227,-952.637,0
8038.521,20.508,30.273,18.555,39.551,125.977,0
8038.525,13.672,26.367,21.973,30.273,-1000.000,0
8038.529,32.715,26.855,27.832,27.344,-778.320,0
8038.533,49.316,28.809,29.785,39.062,756.836,0
8038.537,39.551,29.785,23.438,40.039,409.180,0
8038.540,6.348,34.180,18.555,19.531,-1000.000,0
8038.544,-0.488,32.227,18.555,12.207,-1000.000,0
8038.548,26.367,28.320,18.555,29.297,229.492,0
8038.552,25.391,27.344,20.996,35.645,769.531,0
8038.556,11.230,27.832,18.555,38.086,-690.918,0
8038.560,14.648,31.250,17.578,32.227,-1000.000,0
8038.564,22.949,36.621,17.090,31.250,-110.840,0
8038.568,27.344,37.109,11.719,41.992,-936.523,0
8038.572,9.766,33.691,12.207,19.531,-158.203,0
8038.576,5.371,29.785,17.578,16.602,-1000.000,0
8038.580,32.227,32.227,16.113,30.273,-444.336,0
8038.583,42.969,35.156,20.020,37.598,-950.684,0
8038.587,25.879,38.086,22.949,41.504,214.355,0
8038.591,20.020,39.551,18.066,16.602,-1000.000,0
8038.595,21.484,32.227,20.508,7.324,-899.902,0
8038.599,26.855,30.762,23.438,38.086,597.656,0
8038.603,17.578,32.715,19.531,43.457,451.660,0
8038.607,6.348,31.738,15.137,19.531,-988.770,0
8038.611,10.254,33.203,12.207,19.531,-1000.000,0
8038.615,26.855,33.203,14.160,41.992,73.730,0
8038.619,40.039,32.715,18.555,35.156,776.367,0
8038.623,32.227,33.203,24.414,8.301,-641.113,0
8038.626,11.719,32.227,18.066,10.254,-1000.000,0
8038.630,17.578,29.785,10.254,29.297,-218.750,0
8038.634,39.062,32.227,17.578,46.387,-981.934,0
8038.638,21.973,37.109,12.207,41.504,-139.160,0
8038.642,9.277,35.645,7.812,28.320,-1000.000,0
8038.646,38.086,34.668,19.043,38.574,-607.910,0
8038.650,37.598,35.156,27.832,55.176,895.020,0
8038.654,11.719,33.203,20.020,40.039,233.398,0
8038.658,15.137,34.180,8.789,24.902,-1000.000,0
8038.662,32.715,36.133,12.207,26.855,-1000.000,0
8038.665,33.691,30.762,15.625,36.621,390.625,0
8038.669,37.109,32.715,20.508,54.688,464.355,2
8038.673,34.668,37.109,25.879,51.758,-963.379,0
8038.677,25.391,38.086,28.320,44.922,-1000.000,0
8038.681,49.316,37.109,20.508,41.504,-23.926,0
8038.685,45.410,34.668,15.625,47.363,798.828,0
8038.689,16.602,33.203,12.207,42.480,-588.379,0
8038.693,37.598,33.691,16.602,29.297,-1000.000,0
8038.697,40.039,32.227,22.949,42.480,-333.496,0
8038.701,25.391,30.762,13.672,57.617,-986.328,0
8038.705,33.691,29.297,12.695,48.340,-13.184,0
8038.708,21.973,31.250,24.414,28.320,-1000.000,0
8038.712,24.902,32.227,25.879,25.879,-731.934,0
8038.716,41.992,31.250,31.250,29.785,781.738,0
8038.720,36.621,34.668,32.715,41.504,317.383,0
8038.724,16.602,28.320,24.902,27.832,-1000.000,0
8038.728,6.836,26.855,22.949,17.090,-1000.000,0
8038.732,38.574,33.203,23.926,35.645,279.785,0
8038.736,22.949,35.156,29.297,42.969,615.723,0
8038.740,-2.441,33.203,30.273,33.203,-847.168,0
8038.744,11.230,34.180,26.855,20.996,-1000.000,0
8038.748,26.367,35.645,24.414,25.879,-78.125,0
8038.751,34.180,34.180,22.461,37.109,997.559,0
8038.755,18.066,32.227,18.555,25.391,-290.039,0
8038.759,7.812,30.762,17.578,18.555,-1000.000,0
8038.763,17.578,29.297,14.648,17.090,-343.750,0
8038.767,21.973,28.320,17.578,32.715,-895.996,0
8038.771,24.902,33.691,23.438,44.922,178.711,0
8038.775,27.344,33.691,29.785,38.086,-1000.000,0
8038.779,23.926,24.902,30.762,31.738,-749.023,0
8038.783,21.484,21.484,24.902,30.762,797.363,0
8038.787,17.090,28.320,22.461,38.574,421.875,0
8038.790,2.441,31.250,13.672,29.297,-1000.000,0
8038.794,13.184,28.320,17.090,20.508,-1000.000,0
8038.798,38.086,32.227,19.043,31.250,231.445,0
8038.802,39.062,35.645,9.766,42.969,827.637,0
8038.806,23.438,36.133,8.301,29.785,-625.000,0
8038.810,0.488,33.203,3.418,15.625,-1000.000,0
8038.814,26.855,29.785,9.277,31.738,-117.676,0
8038.818,48.340,34.668,20.508,50.293,-904.785,0
8038.822,31.738,34.668,17.090,46.875,-86.426,0
8038.826,22.949,26.855,12.207,38.086,-1000.000,0
8038.830,40.039,30.762,15.625,42.969,-390.625,0
8038.833,52.734,38.086,22.461,45.898,-896.973,0
8038.837,22.461,31.738,16.113,40.039,235.840,0
8038.841,15.137,29.785,10.742,34.668,-1000.000,0
8038.845,33.691,29.297,12.207,34.180,-850.098,0
8038.849,32.715,31.250,16.602,49.316,673.340,0
8038.853,23.926,33.203,27.344,51.758,499.023,0
8038.857,27.344,26.855,20.508,35.645,-965.820,0
8038.861,34.668,29.297,14.160,26.367,-1000.000,0
8038.865,32.715,34.668,16.602,29.297,102.051,0
8038.869,18.555,33.203,16.113,40.527,920.898,0
8038.873,8.789,32.227,16.602,39.062,-493.164,0
8038.876,22.461,36.621,20.508,33.691,-1000.000,0
8038.880,27.344,31.738,25.879,51.758,-180.664,0
8038.884,28.320,19.043,18.066,63.477,-876.465,0
8038.888,32.715,24.902,16.602,52.734,34.180,0
8038.892,27.832,38.086,20.508,32.227,-1000.000,0
8038.896,28.320,37.598,24.902,30.273,-519.043,0
8038.900,34.180,30.273,23.438,32.227,-980.469,0
8038.904,35.645,31.738,9.766,33.691,301.270,0
8038.908,16.602,37.598,11.719,26.367,-1000.000,0
8038.912,8.301,38.086,10.254,16.113,-930.176,0
8038.915,32.715,36.133,8.301,32.227,545.898,0
8038.919,29.297,28.809,14.648,42.969,624.512,0
8038.923,10.254,32.227,12.207,35.156,-868.652,0
8038.927,18.066,32.715,4.883,33.691,-1000.000,0
8038.931,20.020,27.344,7.812,38.574,23.926,0
8038.935,15.625,31.250,14.648,34.668,-973.145,0
8038.939,8.301,32.715,8.301,17.090,-302.246,0
8038.943,5.859,33.203,5.371,11.230,-1000.000,0
8038.947,20.996,30.273,8.301,31.250,-231.445,0
8038.951,33.203,26.367,13.672,44.434,-843.262,0
8038.955,20.020,28.320,18.555,34.668,163.574,0
8038.958,7.324,31.738,12.695,23.438,-1000.000,0
8038.962,25.879,28.320,12.207,31.738,-568.848,0
8038.966,55.176,32.715,15.625,43.945,994.629,0
8038.970,26.367,32.715,5.859,47.852,397.949,0
8038.974,0.977,26.367,10.742,28.809,-1000.000,0
8038.978,19.531,25.391,15.137,19.531,-992.676,0
8038.982,30.762,26.367,9.766,35.156,434.082,0
8038.986,24.902,31.738,14.160,39.551,776.855,0
8038.990,22.461,37.598,13.672,37.109,-709.961,0
8038.994,40.527,34.668,6.348,33.203,-1000.000,0
8038.998,43.457,31.250,5.859,31.738,-47.363,0
8039.001,25.391,32.227,10.254,48.340,-908.691,0
8039.005,13.184,32.715,13.184,40.527,-145.996,0
8039.009,12.207,31.738,6.348,25.391,-1000.000,0
8039.013,26.855,29.297,0.488,41.504,-303.711,0
8039.017,39.062,30.762,2.441,43.457,-853.027,0
8039.021,26.367,36.621,6.348,22.461,219.727,0
8039.025,24.902,36.133,5.371,16.113,-1000.000,0
8039.029,42.969,30.273,3.418,29.785,-689.941,0
8039.033,34.668,30.762,9.766,46.387,879.883,0
8039.037,23.926,35.156,10.742,42.969,490.723,0
8039.040,7.812,32.715,13.672,24.414,-993.164,0
8039.044,25.879,28.320,17.578,20.996,-1000.000,0
8039.048,49.316,32.715,13.184,34.668,298.340,0
8039.052,32.715,37.109,9.766,47.363,911.621,0
8039.056,22.461,33.203,6.836,36.133,-535.645,0
8039.060,24.902,27.832,4.883,24.414,-1000.000,0
8039.064,23.438,28.320,5.371,36.133,-99.609,0
8039.068,25.879,33.691,7.812,55.176,-858.887,0
8039.072,20.996,30.273,14.648,48.828,0.977,0
8039.076,18.066,24.414,17.090,24.902,-1000.000,0
8039.080,34.180,26.855,16.602,24.414,-374.512,0
8039.083,43.945,28.809,18.066,46.387,-870.605,0
8039.087,19.043,25.879,20.996,41.016,290.039,0
8039.091,18.555,31.250,14.160,27.832,-1000.000,0
8039.095,42.969,38.086,4.395,34.180,-795.898,0
8039.099,40.039,37.109,13.184,46.387,754.883,0
8039.103,35.156,37.109,15.625,47.852,582.031,0
8039.107,4.883,37.109,7.324,41.016,-914.551,0
8039.111,6.836,27.832,8.301,35.645,-1000.000,0
8039.115,42.969,28.809,16.602,42.480,152.832,0
8039.119,28.809,32.715,15.625,56.152,995.605,0
8039.123,6.348,28.809,11.719,44.922,-392.090,0
8039.126,26.855,28.809,5.371,32.227,-1000.000,0
8039.130,37.598,30.273,1.953,24.902,-161.621,0
8039.134,30.273,32.227,3.418,34.668,-836.914,0
8039.138,20.996,34.180,12.695,42.480,104.980,0
8039.142,32.715,33.691,22.461,26.855,-1000.000,0
8039.146,36.621,32.227,24.902,41.504,-456.055,0
8039.150,29.297,34.180,25.391,57.617,-913.086,0
8039.154,26.367,31.738,21.973,53.223,336.426,0
8039.158,22.949,30.273,5.859,41.992,-1000.000,0
8039.162,23.926,33.691,4.883,34.180,-902.832,0
8039.165,33.691,34.180,21.973,38.574,597.168,0
8039.169,24.902,33.203,23.438,37.598,680.664,0
8039.173,0.488,29.297,16.113,22.949,-817.383,0
8039.177,8.301,28.320,13.672,16.602,-1000.000,0
8039.181,29.785,29.297,17.090,35.156,42.969,0
8039.185,30.762,27.344,19.043,41.016,-935.547,0
8039.189,19.531,29.785,23.438,33.203,-236.328,0
8039.193,24.414,34.668,20.996,38.574,-1000.000,0
8039.197,35.156,38.086,17.090,44.922,-219.727,0
8039.201,28.320,35.156,18.066,43.457,-825.195,0
8039.205,34.668,28.320,17.578,38.574,188.965,0
8039.208,25.879,33.203,21.484,43.945,-1000.000,0
8039.212,9.766,30.762,20.508,43.457,-558.105,0
8039.216,32.715,21.484,15.625,26.855,-991.211,0
8039.220,30.762,25.879,16.113,23.438,420.898,0
8039.224,12.695,31.250,12.695,25.879,-1000.000,0
8039.228,15.625,28.320,11.230,35.645,-957.520,0
8039.232,39.062,28.809,20.508,45.898,497.559,0
8039.236,46.875,28.809,18.555,38.086,810.547,0
8039.240,21.484,30.273,15.625,20.020,-672.852,0
8039.244,3.418,29.297,25.879,23.926,-1000.000,0
8039.248,13.184,29.785,30.762,44.922,-46.875,0
8039.251,44.922,35.156,20.020,41.504,-855.469,0
8039.255,33.691,31.250,16.602,21.973,-31.738,0
8039.259,20.020,32.227,22.461,40.527,-1000.000,0
8039.263,39.062,35.156,17.578,41.992,-275.879,0
8039.267,31.738,28.320,14.160,30.273,-824.219,0
8039.271,14.648,30.273,21.484,41.992,261.230,0
8039.275,11.230,31.738,20.020,26.367,-1000.000,0
8039.279,20.996,23.926,18.555,20.996,-627.441,0
8039.283,32.715,28.809,26.367,46.387,949.219,0
8039.287,25.391,37.598,32.227,56.152,544.434,0
8039.290,7.812,36.621,32.715,31.250,-965.820,0
8039.294,19.531,34.180,15.625,21.973,-1000.000,0
8039.298,32.227,27.832,12.207,41.504,382.324,0
8039.302,18.066,26.367,27.344,50.781,992.188,0
8039.306,21.973,27.344,27.832,40.039,-433.594,0
8039.310,32.715,30.762,18.555,27.832,-1000.000,0
8039.314,27.344,29.785,12.695,27.832,-85.938,0
8039.318,31.738,24.902,23.438,33.203,-816.406,0
8039.322,14.160,29.785,26.367,33.203,91.309,0
8039.326,-0.977,33.691,24.414,21.973,-1000.000,0
8039.330,13.672,27.344,21.973,21.973,-335.938,0
8039.333,18.555,23.926,16.602,34.668,-837.891,0
8039.337,0.977,25.879,14.160,42.480,327.637,0
8039.341,2.930,17.578,15.137,29.297,-1000.000,0
8039.345,26.367,18.066,24.414,12.695,-703.125,0
8039.349,29.297,33.691,33.203,32.227,862.305,0
8039.353,25.879,38.086,31.250,44.922,664.551,0
8039.357,20.020,33.691,24.902,30.762,-847.656,0
8039.361,14.160,33.203,35.156,33.691,-1000.000,0
8039.365,28.809,30.273,31.250,45.898,238.281,0
8039.369,29.785,26.855,18.555,56.152,-897.949,0
8039.373,8.789,27.344,13.672,43.945,-226.562,0
8039.376,1.953,32.715,13.672,23.438,-1000.000,0
8039.380,23.438,31.738,30.273,29.785,-125.488,0
8039.384,30.762,27.832,43.457,50.781,-789.062,0
8039.388,16.602,30.273,33.691,45.410,197.266,0
8039.392,24.414,26.367,28.320,30.762,-1000.000,0
8039.396,36.621,27.832,31.738,33.691,-354.492,0
8039.400,29.785,22.461,23.438,50.293,-840.332,0
8039.404,20.020,20.020,29.297,53.711,446.777,0
8039.408,9.766,32.227,34.180,41.016,-1000.000,0
8039.412,17.578,36.621,31.250,39.062,-747.559,0
8039.415,35.156,33.691,32.227,41.504,791.992,0
8039.419,35.645,32.715,29.297,32.227,891.602,0
8039.423,22.461,35.645,21.484,20.996,-612.305,0
8039.427,14.648,37.109,22.461,20.996,-1000.000,0
8039.431,24.414,39.062,25.391,41.504,212.891,0
8039.435,40.527,36.133,24.902,51.758,-803.223,0
8039.439,31.250,33.203,24.902,33.691,11.230,0
8039.443,20.996,32.227,20.996,34.668,-1000.000,0
8039.447,39.551,32.715,21.973,44.922,-150.879,0
8039.451,46.387,32.227,23.926,54.688,-770.996,0
8039.455,26.855,27.344,20.508,55.176,291.016,0
8039.458,20.996,32.715,20.996,31.250,-1000.000,0
8039.462,20.020,36.133,17.090,32.715,-366.211,0
8039.466,42.480,28.809,18.555,46.875,-858.398,0
8039.470,44.434,29.297,28.320,41.992,631.348,0
8039.474,21.484,32.715,37.109,20.996,-924.805,0
8039.478,19.531,33.691,34.668,19.043,-765.137,0
8039.482,24.414,27.344,27.344,23.438,749.023,0
8039.486,24.414,27.344,35.156,34.668,-932.129,0
8039.490,22.949,32.715,25.879,40.527,-327.148,0
8039.494,24.902,30.762,2.441,26.855,-1000.000,0
8039.498,20.020,27.832,12.695,31.738,183.105,0
8039.501,23.438,24.902,33.203,45.898,-759.766,0
8039.505,16.602,22.461,39.062,36.133,138.672,0
8039.509,29.785,20.020,35.645,16.602,-1000.000,0
8039.513,57.129,23.926,33.203,33.203,-171.875,0
8039.517,34.180,26.367,22.949,49.316,-769.531,0
8039.521,12.207,16.113,14.648,41.016,414.551,0
8039.525,13.184,16.113,22.949,35.645,-1000.000,0
8039.529,31.738,19.531,20.996,39.551,-384.277,0
8039.533,47.852,17.578,23.926,48.828,-895.508,0
8039.537,35.156,25.391,26.855,69.336,837.891,0
8039.540,20.996,28.809,26.367,51.758,-698.730,0
8039.544,27.344,24.902,33.691,29.297,-773.926,0
8039.548,48.828,25.391,40.039,54.199,717.773,0
8039.552,39.062,27.832,38.086,56.641,-820.801,0
8039.556,13.184,27.344,25.391,33.203,-53.711,0
8039.560,23.438,22.461,15.625,35.156,-1000.000,0
8039.564,42.480,23.926,21.973,48.340,159.668,0
8039.568,30.762,28.320,39.551,60.059,-738.281,0
8039.572,25.391,32.227,34.668,45.898,236.816,0
8039.576,35.645,35.645,16.602,28.320,-1000.000,0
8039.580,28.809,33.203,9.277,31.250,-180.176,0
8039.583,40.039,30.273,22.949,48.828,-785.156,0
8039.587,33.691,24.414,32.715,59.570,585.449,0
8039.591,10.742,28.320,25.391,41.016,-988.281,0
8039.595,44.922,33.691,24.902,27.344,-410.645,0
8039.599,62.500,30.762,20.020,39.551,-939.453,0
8039.603,35.156,28.320,23.438,46.875,-985.352,0
8039.607,23.438,32.227,28.809,30.762,-431.152,0
8039.611,34.668,35.156,20.508,23.926,-781.738,0
8039.615,33.691,34.668,28.320,37.109,703.613,0
8039.619,17.578,32.715,36.133,46.875,-777.832,0
8039.623,16.602,29.297,29.297,29.297,86.914,0
8039.626,19.043,31.250,25.391,22.461,-1000.000,0
8039.630,34.180,34.180,27.344,40.527,102.051,0
8039.634,36.621,29.297,21.973,28.809,-733.887,0
8039.638,16.113,20.996,19.531,29.785,357.910,0
8039.642,8.789,23.926,26.367,31.250,-1000.000,0
8039.646,11.230,26.367,30.762,27.344,-193.359,0
8039.650,9.766,20.508,32.227,37.109,-819.336,0
8039.654,13.672,24.902,37.598,44.922,794.922,0
8039.658,23.438,27.832,35.645,44.434,-762.207,0
8039.662,39.551,24.902,37.109,35.156,-418.457,0
8039.665,38.086,27.832,39.062,30.762,-969.727,0
8039.669,21.973,29.785,30.273,22.461,-867.188,0
8039.673,7.812,31.250,29.297,22.461,-157.227,0
8039.677,7.324,27.344,20.996,22.949,-769.531,0
8039.681,31.738,21.484,12.207,28.809,674.316,0
8039.685,15.137,23.926,24.414,39.551,-749.512,0
8039.689,0.000,28.320,28.320,39.062,186.523,0
8039.693,18.066,26.855,24.414,26.367,-1000.000,0
8039.697,31.738,30.273,29.297,38.574,168.457,0
8039.701,26.855,34.180,34.180,51.270,-753.418,0
8039.705,17.090,31.738,33.691,45.410,549.316,0
8039.708,20.508,33.691,31.250,41.016,-958.008,0
8039.712,21.484,32.227,29.297,39.551,-197.266,0
8039.716,28.320,29.297,16.113,39.551,-864.746,0
8039.720,20.020,34.668,9.766,37.598,-995.117,0
8039.724,3.418,29.785,7.812,36.133,-421.387,0
8039.728,25.391,27.344,-0.977,23.926,-426.758,0
8039.732,28.809,33.203,-1.953,38.574,-994.629,0
8039.736,29.785,27.832,-5.371,37.109,-810.059,0
8039.740,14.648,26.855,-13.184,13.184,-14.648,0
8039.744,-3.418,33.203,-17.578,14.648,-705.078,0
8039.748,25.391,32.715,-30.762,25.391,703.125,0
8039.751,24.902,27.832,-35.156,37.109,-753.906,0
8039.755,1.953,22.461,-39.062,27.832,310.547,0
8039.759,-0.977,20.996,-52.734,16.602,-960.449,0
8039.763,25.391,23.926,-59.082,26.855,167.969,0
8039.767,30.762,26.855,-63.477,33.203,-789.551,0
8039.771,13.184,24.414,-61.035,25.879,785.645,0
8039.775,12.695,27.832,-57.617,17.578,-681.641,0
8039.779,15.137,32.227,-61.035,26.367,-199.707,0
8039.783,30.762,34.180,-70.312,40.527,-892.090,0
8039.787,21.484,35.645,-73.730,30.273,-888.184,0
8039.790,8.789,37.109,-77.637,15.625,-173.828,0
8039.794,16.602,34.668,-85.449,8.301,-383.301,0
8039.798,29.785,35.645,-85.938,26.367,991.211,0
8039.802,39.062,31.738,-90.332,42.480,-790.039,0
8039.806,10.254,27.832,-87.891,41.016,163.574,0
8039.810,0.000,30.273,-86.914,21.484,-613.281,0
8039.814,24.414,25.391,-99.609,13.184,716.797,0
8039.818,28.320,29.785,-103.516,30.273,-789.062,0
8039.822,10.254,32.227,-106.934,22.949,572.754,0
8039.826,13.184,29.785,-110.840,11.230,-670.410,0
8039.830,22.949,31.250,-106.445,33.691,199.219,0
8039.833,17.090,32.715,-109.375,38.086,-836.426,0
8039.837,25.879,31.738,-105.957,26.367,979.980,0
8039.841,14.648,31.738,-98.633,26.367,-319.336,0
8039.845,19.043,32.715,-108.398,25.879,-167.480,0
8039.849,41.504,26.855,-106.445,47.852,-923.340,0
8039.853,28.809,25.879,-97.656,58.594,-832.031,0
8039.857,20.996,34.180,-108.887,50.293,44.922,0
8039.861,30.762,35.156,-112.305,39.551,-304.199,0
8039.865,41.504,34.180,-104.980,42.480,988.770,0
8039.869,37.598,37.598,-107.422,53.223,-815.918,0
8039.873,27.832,38.086,-113.281,39.062,396.484,0
8039.876,38.574,31.738,-115.234,16.602,-354.004,0
8039.880,47.363,31.738,-112.305,42.969,747.070,0
8039.884,43.945,33.203,-110.840,67.383,-847.168,0
8039.888,24.414,29.297,-105.469,41.016,830.566,0
8039.892,13.184,32.227,-101.562,23.926,-129.883,0
8039.896,21.484,37.598,-107.910,33.203,364.258,0
8039.900,32.227,38.086,-120.605,38.574,-891.113,0
8039.904,27.832,32.227,-123.047,41.016,-924.805,0
8039.908,30.273,33.203,-114.258,34.180,149.414,0
8039.912,39.062,35.645,-120.117,22.949,79.590,0
8039.915,34.668,27.832,-126.465,40.039,-942.383,0
8039.919,14.160,24.414,-124.023,50.781,-877.441,0
8039.923,1.953,29.785,-115.723,36.133,421.875,0
8039.927,24.414,31.738,-113.281,28.320,152.344,0
8039.931,34.668,33.691,-120.605,38.086,998.047,0
8039.935,12.207,32.715,-128.418,38.086,-895.020,0
8039.939,5.371,32.227,-135.742,30.273,704.590,0
8039.943,9.766,35.645,-140.137,21.973,306.641,0
8039.947,23.438,36.621,-123.535,30.762,894.531,0
8039.951,37.598,33.691,-117.676,49.316,-925.781,0
8039.955,22.949,32.715,-125.488,44.434,949.219,0
8039.958,6.836,35.156,-116.699,35.156,456.055,0
8039.962,17.578,33.203,-119.141,45.410,693.848,0
8039.966,39.062,29.785,-120.117,58.594,-945.801,0
8039.970,14.648,27.832,-118.164,47.852,-937.500,1
8039.974,2.441,24.902,-120.117,33.203,515.625,0
8039.978,24.414,26.855,-120.605,24.414,424.316,0
8039.982,23.926,30.762,-124.512,41.504,-975.586,0
8039.986,10.254,28.320,-118.652,37.109,-900.879,0
8039.990,-3.418,30.762,-111.328,23.926,591.797,0
8039.994,-1.465,30.273,-110.352,29.785,338.379,0
8039.998,18.066,28.320,-107.422,27.344,977.051,0
8040.001,28.809,30.762,-108.398,31.250,-907.715,0
8040.005,14.648,31.738,-109.375,22.949,788.086,0
8040.009,3.418,33.203,-104.980,23.926,301.758,0
8040.013,33.203,32.715,-100.098,33.203,812.012,0
8040.017,45.898,30.273,-100.586,35.645,-929.199,0
8040.021,18.555,30.273,-105.469,43.945,-991.211,0
8040.025,10.254,32.715,-95.703,41.016,242.188,0
8040.029,8.789,34.668,-92.285,34.668,375.000,0
8040.033,12.695,34.668,-95.703,38.086,-942.383,0
8040.037,33.203,37.598,-89.844,48.340,-867.188,0
8040.040,22.461,29.785,-84.961,42.480,199.707,0
8040.044,11.719,25.879,-89.844,25.391,-36.621,0
8040.048,28.809,35.156,-96.191,32.715,-989.746,0
8040.052,28.809,38.086,-86.914,46.875,-824.707,0
8040.056,16.113,37.109,-80.566,36.621,351.562,0
8040.060,5.859,32.715,-75.684,28.809,-311.035,0
8040.064,16.113,29.297,-71.777,31.250,808.105,0
8040.068,25.391,28.320,-75.684,29.297,-814.941,0
8040.072,9.766,33.691,-79.590,31.250,637.695,0
8040.076,3.418,35.156,-71.777,22.461,-549.316,0
8040.080,26.367,32.715,-65.430,33.691,244.141,0
8040.083,38.574,23.438,-82.520,48.828,-830.566,0
8040.087,27.832,25.391,-83.496,48.340,950.684,0
8040.091,24.414,32.227,-74.219,41.504,-409.180,0
8040.095,20.020,30.273,-80.078,22.949,-248.535,0
8040.099,20.508,30.273,-75.684,42.480,-919.922,0
8040.103,23.438,27.344,-68.359,48.340,-851.074,0
8040.107,8.789,26.367,-70.801,24.414,-105.469,0
8040.111,10.254,31.250,-67.383,20.996,-507.812,0
8040.115,43.945,37.598,-67.871,30.273,911.133,0
8040.119,47.852,40.527,-68.848,43.945,-780.762,0
8040.123,9.766,34.668,-66.895,33.691,179.688,0
8040.126,2.441,28.320,-71.777,17.578,-916.992,0
8040.130,23.926,28.320,-68.359,41.016,357.422,0
8040.134,34.668,35.645,-60.059,55.176,-738.281,0
8040.138,12.695,34.668,-73.730,44.922,458.984,0
8040.142,1.953,33.203,-80.078,39.551,-1000.000,0
8040.146,35.645,39.062,-60.547,38.574,-146.973,0
8040.150,48.828,37.598,-61.035,41.016,-833.984,0
8040.154,23.438,31.738,-71.289,31.738,914.062,0
8040.158,10.742,32.715,-59.570,26.367,-576.172,0
8040.162,25.879,36.133,-64.941,38.574,-387.695,0
8040.165,30.273,31.250,-66.895,51.270,-956.543,0
8040.169,33.691,31.738,-55.664,50.293,-853.516,0
8040.173,29.785,35.645,-53.223,44.922,-99.609,0
8040.177,21.973,30.762,-57.617,36.133,-789.551,0
8040.181,28.809,27.832,-54.688,40.039,648.926,0
8040.185,25.879,32.715,-50.781,43.457,-754.883,0
8040.189,14.160,40.039,-55.664,42.480,192.383,0
8040.193,21.484,39.062,-54.688,36.133,-1000.000,0
8040.197,41.504,36.133,-52.246,30.762,11.230,0
8040.201,32.227,33.691,-50.293,39.062,-746.094,0
8040.205,16.113,33.691,-52.734,46.875,449.219,0
8040.208,25.391,34.668,-56.641,40.039,-1000.000,0
8040.212,34.668,36.133,-51.270,17.578,-281.250,0
8040.216,42.480,39.062,-43.457,34.180,-850.586,0
8040.220,38.574,30.273,-40.527,49.805,852.051,0
8040.224,15.137,26.367,-39.062,25.879,-678.223,0
8040.228,23.926,30.273,-37.598,17.578,-647.949,0
8040.232,36.133,29.297,-32.715,22.949,866.699,0
8040.236,25.879,28.320,-33.203,27.832,-854.004,0
8040.240,11.719,31.250,-42.480,27.832,-114.258,0
8040.244,9.277,31.250,-44.922,21.484,-1000.000,0
8040.248,36.621,28.320,-45.410,35.645,279.297,0
8040.251,38.086,30.762,-46.387,42.969,-744.141,0
8040.255,28.320,29.297,-37.598,29.785,170.898,0
8040.259,22.949,29.785,-30.762,21.973,-1000.000,0
8040.263,25.391,30.273,-30.762,32.227,-182.129,0
8040.267,50.293,29.297,-25.879,45.410,-769.043,0
8040.271,33.691,30.273,-28.809,37.109,413.574,0
8040.275,9.277,28.809,-33.691,21.973,-1000.000,0
8040.279,19.043,27.344,-28.320,28.320,-455.078,0
8040.283,33.203,32.227,-24.414,48.340,-920.898,0
8040.287,26.367,35.645,-25.879,62.988,774.902,0
8040.290,12.207,33.691,-29.785,45.898,-728.516,0
8040.294,32.227,33.203,-28.809,26.367,-958.008,0
8040.298,55.664,32.227,-14.648,46.875,510.742,0
8040.302,24.902,34.180,-5.371,51.270,-895.508,0
8040.306,-2.930,35.156,-7.812,27.832,-234.863,0
8040.310,1.953,31.738,-7.324,19.043,-1000.000,0
8040.314,34.668,29.297,-19.531,30.273,-68.848,0
8040.318,51.270,38.086,-28.320,49.805,-784.180,0
8040.322,27.832,41.504,-6.348,44.434,169.434,0
8040.326,20.020,33.691,10.254,29.297,-1000.000,0
8040.330,33.203,32.227,16.602,37.598,-325.684,0
8040.333,42.480,31.250,24.902,42.969,-823.730,0
8040.337,26.367,32.715,45.410,37.598,373.535,0
8040.341,11.230,32.715,57.129,32.715,-1000.000,0
8040.345,27.344,33.203,61.523,35.156,-746.582,0
8040.349,41.016,32.715,68.359,41.992,811.035,0
8040.353,22.949,35.156,76.172,26.855,740.234,0
8040.357,16.113,38.574,89.355,8.789,-771.973,0
8040.361,26.855,36.133,104.004,18.066,-1000.000,0
8040.365,46.387,38.574,109.375,36.133,199.219,0
8040.369,37.109,41.016,109.863,38.086,-893.066,0
8040.373,4.395,26.855,110.840,26.855,-193.848,0
8040.376,15.137,28.320,125.977,31.250,-1000.000,0
8040.380,32.227,36.133,131.836,37.598,-158.691,0
8040.384,35.645,30.762,131.836,47.852,-795.898,0
8040.388,24.414,33.691,148.926,43.457,209.961,0
8040.392,13.672,37.598,154.297,28.809,-1000.000,0
8040.396,36.621,37.109,153.809,42.969,-430.176,0
8040.400,37.598,28.809,146.484,57.129,-880.371,0
8040.404,23.926,27.832,147.949,45.898,437.500,0
8040.408,28.809,33.203,164.551,38.574,-1000.000,0
8040.412,37.598,28.809,152.344,39.062,-847.656,0
8040.415,44.434,33.203,153.320,50.781,656.738,0
8040.419,38.574,35.645,172.852,65.430,894.531,0
8040.423,32.227,29.785,163.086,34.668,-588.379,0
8040.427,25.391,27.832,166.504,12.695,-1000.000,0
8040.431,26.367,31.738,171.875,36.621,77.148,0
8040.435,36.133,33.203,164.551,42.480,-837.402,0
8040.439,21.973,35.156,169.922,38.574,-39.062,0
8040.443,26.855,33.203,171.387,33.691,-1000.000,0
8040.447,43.457,31.738,160.156,26.855,-212.402,0
8040.451,34.180,37.109,159.180,47.363,-799.316,0
8040.455,30.762,39.062,166.992,51.270,247.070,0
8040.458,11.719,35.645,160.645,30.762,-1000.000,0
8040.462,17.578,32.227,165.527,28.809,-531.250,0
8040.466,46.387,34.668,182.129,36.621,-958.496,0
8040.470,25.391,29.297,178.711,44.922,507.812,0
8040.474,6.348,24.414,176.270,36.621,-992.188,0
8040.478,24.902,27.344,177.734,33.691,-960.449,0
8040.482,58.594,35.645,167.480,42.969,485.352,0
8040.486,42.969,41.016,163.086,45.410,927.246,0
8040.490,3.906,41.504,147.949,40.527,-525.879,0
8040.494,21.973,36.133,150.391,29.785,-1000.000,0
8040.498,38.086,31.738,169.434,37.598,-58.105,0
8040.501,27.344,29.297,167.480,59.082,-829.590,0
8040.505,29.785,27.344,162.598,44.922,36.133,0
8040.509,25.879,33.691,158.691,29.785,-1000.000,0
8040.513,22.461,33.203,152.344,37.598,-285.156,0
8040.517,36.621,29.785,146.973,48.340,-819.824,0
8040.521,27.344,31.738,156.738,50.781,300.781,0
8040.525,17.578,30.762,155.273,20.996,-1000.000,0
8040.529,21.484,29.785,139.160,25.879,-650.879,0
8040.533,25.879,33.691,140.625,46.875,923.340,0
8040.537,26.855,28.809,147.949,31.738,622.070,0
8040.540,13.672,31.250,142.578,19.043,-898.926,0
8040.544,24.902,30.273,136.719,25.879,-1000.000,0
8040.548,41.992,21.484,136.719,42.969,333.984,0
8040.552,36.621,25.391,137.207,50.293,-941.406,0
8040.556,20.996,39.062,143.066,34.180,-320.801,0
8040.560,21.973,38.574,144.043,29.297,-1000.000,0
8040.564,40.039,26.367,135.742,25.879,-95.215,0
8040.568,43.457,33.203,129.395,26.855,-800.781,0
8040.572,19.043,32.715,128.906,36.621,135.742,0
8040.576,-0.488,29.785,126.953,17.090,-1000.000,0
8040.580,27.832,29.785,121.094,29.297,-348.145,0
8040.583,44.434,28.320,135.254,67.383,-838.867,0
8040.587,26.367,31.738,131.836,56.641,364.258,0
8040.591,18.066,34.180,123.047,37.109,-1000.000,0
8040.595,32.715,31.250,125.977,27.832,-758.301,0
8040.599,29.297,28.320,124.023,39.062,796.387,0
8040.603,39.062,33.203,132.324,62.500,737.305,0
8040.607,46.387,27.344,126.465,38.574,-776.855,0
8040.611,8.789,22.461,124.512,20.508,-1000.000,0
8040.615,24.414,28.320,131.348,40.039,180.176,0
8040.619,32.715,31.250,125.000,47.363,-887.695,0
8040.623,17.578,28.320,112.793,35.156,-184.570,0
8040.626,32.227,28.320,116.699,25.391,-1000.000,0
8040.630,23.438,31.250,124.023,45.898,-166.504,0
8040.634,20.508,29.297,118.164,44.922,-801.270,0
8040.638,24.902,26.855,117.188,21.973,193.359,0
8040.642,13.184,23.926,115.723,22.949,-1000.000,0
8040.646,26.367,24.414,110.840,30.762,-447.266,0
8040.650,45.410,26.367,104.980,41.992,-895.996,0
8040.654,28.320,30.273,107.910,54.199,438.965,0
8040.658,17.578,36.621,109.863,36.621,-1000.000,0
8040.662,29.297,37.598,94.727,24.902,-868.652,0
8040.665,56.152,39.551,104.004,49.316,637.695,0
8040.669,48.340,36.621,113.281,55.176,851.562,0
8040.673,3.906,30.273,100.586,29.297,-634.277,0
8040.677,20.508,31.250,99.121,27.832,-1000.000,0
8040.681,60.547,30.273,103.516,43.945,41.992,0
8040.685,43.945,29.785,100.586,42.969,-845.703,0
8040.689,31.738,29.785,97.656,41.016,-40.527,0
8040.693,31.738,23.926,98.633,32.227,-1000.000,0
8040.697,20.508,24.414,99.121,22.461,-225.586,0
8040.701,27.832,27.344,98.633,40.039,-802.246,0
8040.705,7.324,29.297,89.844,41.504,261.230,0
8040.708,-1.465,33.203,101.562,20.508,-1000.000,0
8040.712,19.043,27.832,98.633,24.414,-540.039,0
8040.716,45.898,24.902,87.891,41.992,-969.238,0
8040.720,38.574,31.250,104.004,30.762,534.668,0
8040.724,10.254,32.227,102.051,13.184,-974.609,0
8040.728,26.367,32.227,93.262,17.578,-968.262,0
8040.732,29.297,24.902,85.938,29.785,473.633,0
8040.736,3.418,26.367,81.543,41.016,971.191,0
8040.740,8.301,31.738,83.984,24.902,-469.727,0
8040.744,31.250,28.809,78.613,12.695,-1000.000,0
8040.748,48.828,28.320,79.590,33.691,-64.453,0
8040.751,29.785,28.320,81.055,40.527,-824.707,0
8040.755,19.531,31.250,76.172,28.320,60.547,0
8040.759,28.320,32.715,83.008,26.855,-1000.000,0
8040.763,28.809,32.715,81.543,30.273,-301.270,0
8040.767,39.551,32.227,66.406,44.922,-824.707,0
8040.771,36.621,30.762,73.242,54.688,309.570,0
8040.775,19.043,32.227,87.402,22.949,-1000.000,0
8040.779,24.414,38.574,79.590,20.996,-615.234,0
8040.783,30.762,40.039,68.848,31.250,945.801,0
8040.787,26.855,39.062,73.242,24.902,674.805,0
8040.790,19.043,32.715,70.801,15.137,-861.328,0
8040.794,35.645,34.180,69.336,17.578,-992.188,0
8040.798,43.457,38.086,67.871,44.922,392.578,0
8040.802,30.762,37.109,67.871,57.617,-862.793,0
8040.806,22.949,33.203,71.777,47.852,-165.039,0
8040.810,17.090,34.180,75.195,41.992,-1000.000,0
8040.814,45.898,41.504,82.520,48.340,-87.402,0
8040.818,45.898,34.180,65.918,56.152,-775.879,0
8040.822,29.785,27.344,51.270,45.410,192.871,0
8040.826,33.203,31.738,61.035,28.809,-1000.000,0
8040.830,41.992,31.738,64.941,30.762,-321.289,0
8040.833,61.035,32.227,68.848,45.898,-820.312,0
8040.837,27.832,31.738,65.430,39.062,399.414,0
8040.841,-0.977,29.785,58.594,30.762,-1000.000,0
8040.845,20.020,27.832,57.129,41.504,-753.906,0
8040.849,42.480,28.320,72.266,54.199,791.016,0
8040.853,36.133,34.668,72.754,50.293,824.707,0
8040.857,14.160,35.156,54.199,30.762,-681.641,0
8040.861,28.320,37.109,52.734,24.414,-1000.000,0
8040.865,56.641,36.621,60.547,37.598,189.453,0
8040.869,41.992,34.180,65.430,44.434,-851.074,0
8040.873,9.277,32.715,46.387,40.527,-106.934,0
8040.876,15.625,33.203,32.227,34.668,-1000.000,0
8040.880,38.574,37.598,54.688,31.738,-171.387,0
8040.884,37.598,33.691,68.359,35.156,-794.434,0
8040.888,15.137,30.762,56.152,34.180,208.496,0
8040.892,8.789,31.250,55.664,39.062,-1000.000,0
8040.896,33.203,29.297,62.012,45.898,-456.055,0
8040.900,39.551,28.809,60.059,45.410,-905.762,0
8040.904,17.578,25.879,52.246,45.410,475.586,0
8040.908,-3.418,20.508,40.527,18.066,-1000.000,0
8040.912,6.348,24.414,34.180,13.184,-850.586,0
8040.915,39.062,30.762,47.363,35.645,645.996,0
8040.919,32.227,27.832,58.105,41.016,934.082,0
8040.923,15.137,28.320,59.082,35.156,-531.250,0
8040.927,23.926,30.762,50.781,35.156,-1000.000,0
8040.931,40.527,36.133,50.293,51.758,49.805,0
8040.935,34.668,32.227,51.758,48.828,-827.637,0
8040.939,31.250,28.809,43.457,29.785,2.441,0
8040.943,21.973,34.668,50.293,29.297,-1000.000,0
8040.947,33.691,32.715,48.828,48.828,-246.582,0
8040.951,42.480,28.320,42.969,52.246,-807.129,0
8040.955,18.555,23.438,43.457,40.039,263.184,0
8040.958,23.926,25.391,52.246,28.320,-1000.000,0
8040.962,44.922,30.273,45.898,30.273,-615.234,0
8040.966,37.109,26.367,35.156,39.062,965.332,0
8040.970,7.812,30.762,38.574,39.062,471.680,0
8040.974,13.672,34.180,40.527,29.297,-990.234,0
8040.978,37.598,31.738,33.203,29.297,-1000.000,0
8040.982,35.156,31.250,27.344,32.227,315.918,0
8040.986,28.809,34.180,35.645,30.762,838.867,0
8040.990,13.184,34.668,37.109,28.320,-611.816,0
8040.994,9.766,26.855,30.273,17.090,-1000.000,0
8040.998,39.551,25.391,35.645,27.344,-111.816,0
8041.001,37.109,34.180,34.180,43.457,-936.523,0
8041.005,5.859,36.621,30.273,20.508,-150.879,0
8041.009,-10.254,32.715,31.250,10.742,-1000.000,0
8041.013,15.137,36.621,31.250,24.902,-454.102,0
8041.017,39.062,38.086,33.691,30.762,-958.496,0
8041.021,30.273,33.203,24.902,33.203,218.262,0
8041.025,15.625,32.715,21.484,25.879,-1000.000,0
8041.029,28.809,33.203,27.344,28.320,-885.742,0
8041.033,47.363,29.297,31.738,32.715,614.746,0
8041.037,25.391,26.855,32.715,36.133,487.793,0
8041.040,1.953,26.367,35.645,33.203,-980.469,0
8041.044,9.766,26.855,39.551,30.273,-1000.000,0
8041.048,41.504,33.203,38.574,50.781,112.793,0
8041.052,62.012,35.645,35.645,41.016,931.641,0
8041.056,24.414,31.250,33.691,10.742,-465.820,0
8041.060,-0.488,26.367,39.551,20.996,-1000.000,0
8041.064,14.648,26.855,44.434,30.273,-167.480,0
8041.068,16.602,26.367,39.551,31.250,-846.680,0
8041.072,16.113,28.320,40.527,25.879,95.215,0
8041.076,23.438,25.879,35.156,22.461,-1000.000,0
8041.080,27.832,22.949,28.809,41.016,-421.875,0
8041.083,30.762,30.762,29.785,46.387,-891.113,0
8041.087,29.297,36.133,29.785,24.902,368.164,0
8041.091,9.766,36.133,25.879,22.949,-1000.000,0
8041.095,13.672,32.227,23.438,28.809,-805.176,0
8041.099,28.320,31.250,24.902,26.367,714.355,0
8041.103,17.578,32.715,28.320,23.926,791.992,0
8041.107,-7.324,32.715,38.086,31.738,-716.309,0
8041.111,3.418,31.250,32.715,24.902,-1000.000,0
8041.115,34.668,31.738,30.762,21.973,138.672,0
8041.119,27.344,31.250,34.668,38.086,-873.047,0
8041.123,13.672,31.250,34.668,26.855,-133.301,0
8041.126,23.926,29.297,29.785,14.160,-1000.000,0
8041.130,26.367,27.832,22.461,20.996,-179.199,0
8041.134,23.438,30.273,26.367,28.809,-795.410,0
8041.138,15.137,31.250,28.809,31.250,230.469,0
8041.142,7.324,28.320,29.297,16.602,-1000.000,0
8041.146,24.902,30.273,33.203,22.949,-461.426,0
8041.150,40.527,34.668,29.297,46.387,-904.785,0
8041.154,21.484,33.203,22.949,32.715,461.914,0
8041.158,1.953,27.832,34.180,19.043,-1000.000,0
8041.162,16.113,29.297,38.574,22.461,-900.879,0
8041.165,12.207,31.738,30.273,32.227,579.590,0
8041.169,11.719,26.855,36.133,42.969,902.344,0
8041.173,5.371,28.320,36.621,30.762,-566.895,0
8041.177,5.371,28.320,32.715,16.602,-1000.000,0
8041.181,27.832,25.391,31.738,28.809,-13.672,0
8041.185,20.996,26.855,33.691,36.133,-861.816,0
8041.189,22.461,28.809,37.109,31.738,-56.641,0
8041.193,21.973,23.926,37.109,30.273,-1000.000,0
8041.197,20.020,22.949,37.598,29.785,-267.090,0
8041.201,38.574,32.715,32.715,38.574,-827.148,0
8041.205,28.809,30.762,32.715,33.203,221.680,0
8041.208,17.090,28.809,36.621,22.949,-1000.000,0
8041.212,23.438,29.785,38.086,29.785,-684.082,0
8041.216,34.180,30.273,38.086,38.574,893.066,0
8041.220,20.020,29.785,37.109,32.715,460.449,0
8041.224,8.789,27.832,37.109,15.137,-1000.000,0
8041.228,22.461,33.203,38.086,26.367,-1000.000,0
8041.232,44.434,33.691,33.203,48.340,307.129,0
8041.236,39.062,28.320,25.391,41.016,865.234,0
8041.240,7.324,27.832,28.809,14.648,-595.215,0
8041.244,0.488,26.855,35.645,6.348,-1000.000,0
8041.248,23.438,23.926,39.551,20.508,-102.051,0
8041.251,32.715,28.809,41.016,38.086,-863.770,0
8041.255,21.484,33.203,34.668,30.762,-7.324,0
8041.259,20.996,28.809,21.973,17.090,-1000.000,0
8041.263,38.086,31.738,23.926,24.414,-355.469,0
8041.267,64.941,33.691,33.691,46.875,-860.840,1
8041.271,41.016,28.320,39.551,50.781,275.879,0
8041.275,8.301,30.273,36.621,34.668,-1000.000,0
8041.279,31.738,26.367,38.086,23.438,-753.418,0
8041.283,50.781,19.531,40.039,27.832,807.129,0
8041.287,42.480,29.785,39.062,37.109,602.051,0
8041.290,16.113,37.598,39.551,30.762,-902.832,0
8041.294,18.066,33.691,35.645,18.555,-1000.000,0
8041.298,36.133,30.273,33.691,33.691,184.570,0
8041.302,41.504,31.738,25.879,46.875,-963.379,0
8041.306,33.691,38.574,25.391,31.738,-332.031,0
8041.310,16.113,40.039,31.250,33.203,-1000.000,0
8041.314,33.691,34.180,33.203,36.133,-145.020,0
8041.318,47.363,32.715,31.250,35.645,-814.453,0
8041.322,20.996,31.738,25.879,31.738,141.602,0
8041.326,8.301,29.297,25.879,23.926,-1000.000,0
8041.330,24.902,36.133,26.367,25.879,-397.949,0
8041.333,35.156,36.133,27.832,23.926,-869.141,0
8041.337,32.227,27.344,23.438,22.461,372.070,0
8041.341,36.621,35.156,27.344,21.484,-1000.000,0
8041.345,35.645,35.156,24.902,20.996,-828.125,0
8041.349,32.715,33.691,24.414,24.902,705.566,0
8041.353,36.621,38.574,28.809,25.879,752.441,0
8041.357,32.227,33.203,20.020,25.391,-757.324,0
8041.361,20.996,32.715,23.438,19.531,-1000.000,0
8041.365,11.230,35.156,35.156,36.133,122.559,0
8041.369,14.648,34.180,35.156,46.875,-889.160,0
8041.373,12.695,31.738,25.879,24.414,-169.434,0
8041.376,10.742,29.297,29.297,17.578,-1000.000,0
8041.380,19.043,32.227,29.785,38.574,-186.523,0
8041.384,42.480,36.621,29.785,60.059,-801.758,0
8041.388,42.480,37.598,28.809,41.016,217.773,0
8041.392,20.508,35.156,22.949,4.883,-1000.000,0
8041.396,14.160,33.691,27.832,19.043,-465.820,0
8041.400,20.996,30.273,36.621,31.738,-911.621,0
8041.404,19.043,28.809,35.645,29.785,482.910,0
8041.408,24.414,34.180,27.832,30.762,-1000.000,0
8041.412,30.762,33.691,21.484,25.879,-866.699,0
8041.415,27.344,31.738,26.367,28.809,623.047,0
8041.419,24.414,34.668,33.691,39.551,954.590,0
8041.423,23.926,35.645,25.391,38.086,-506.836,0
8041.427,18.555,35.156,19.531,39.062,-1000.000,0
8041.431,32.227,35.645,18.555,44.922,38.086,0
8041.435,41.016,37.109,27.832,41.992,-804.199,0
8041.439,28.320,38.574,27.832,26.367,58.594,0
8041.443,24.902,40.527,21.484,18.066,-1000.000,0
8041.447,36.621,38.574,29.297,31.250,-231.445,0
8041.451,49.805,37.109,31.250,42.480,-793.457,0
8041.455,36.133,34.180,25.879,49.316,313.965,0
8041.458,6.348,27.832,22.949,37.109,-1000.000,0
8041.462,5.371,26.855,21.484,23.438,-512.695,0
8041.466,14.648,32.715,20.508,28.320,-956.543,0
8041.470,15.137,37.598,18.555,30.762,646.973,0
8041.474,11.719,37.109,18.555,19.531,-879.395,0
8041.478,18.555,35.156,23.438,21.973,-955.078,0
8041.482,30.273,34.668,33.691,40.039,479.004,0
8041.486,40.039,30.273,35.645,42.969,-909.180,0
8041.490,22.949,29.297,24.902,27.832,-272.461,0
8041.494,-0.977,32.715,28.320,13.672,-1000.000,0
8041.498,21.484,32.715,25.391,25.391,-34.180,0
8041.501,38.086,33.203,14.648,40.527,-778.320,0
8041.505,26.367,31.738,15.625,18.066,152.344,0
8041.509,15.137,31.738,12.695,1.953,-1000.000,0
8041.513,6.348,37.598,19.043,16.113,-252.930,0
8041.517,21.973,36.621,22.461,26.855,-795.410,0
8041.521,24.414,30.762,18.066,32.227,400.879,0
8041.525,-3.906,28.320,18.555,16.602,-1000.000,0
8041.529,3.906,29.297,18.555,19.531,-554.199,0
8041.533,35.645,34.668,14.648,39.062,988.770,0
8041.537,41.992,38.574,6.836,31.738,817.871,0
8041.540,15.625,39.062,8.301,9.277,-696.289,0
8041.544,-0.488,34.668,13.184,0.488,-998.047,0
8041.548,13.184,28.809,14.160,26.855,410.645,0
8041.552,15.137,30.762,15.137,25.391,-816.406,0
8041.556,0.488,29.785,22.461,17.578,-62.500,0
8041.560,12.207,26.855,27.832,15.137,-1000.000,0
8041.564,37.598,27.832,24.414,12.695,-69.336,0
8041.568,35.156,30.273,17.090,26.855,-760.742,0
8041.572,21.484,30.762,15.137,27.832,249.023,0
8041.576,10.254,26.367,16.602,25.391,-1000.000,0
8041.580,15.625,27.832,17.578,34.668,-294.434,0
8041.583,36.133,34.180,17.090,41.504,-812.500,0
8041.587,26.367,33.691,20.020,48.340,519.043,0
8041.591,23.926,32.227,22.949,44.922,-1000.000,0
8041.595,37.109,26.855,17.578,30.273,-661.621,0
8041.599,39.062,20.508,18.066,41.016,876.953,0
8041.603,41.504,22.461,20.508,52.246,942.383,0
8041.607,30.762,23.926,23.438,46.875,-518.555,0
8041.611,17.578,28.320,20.508,45.410,-1000.000,0
8041.615,37.598,28.809,26.855,53.711,278.320,0
8041.619,47.363,28.320,26.855,53.711,-787.109,0
8041.623,13.672,30.762,20.020,41.016,37.598,0
8041.626,5.859,24.414,20.996,20.508,-1000.000,0
8041.630,21.973,23.926,15.625,20.508,-147.461,0
8041.634,38.086,32.715,22.461,40.527,-768.066,0
8041.638,21.484,38.086,29.785,41.016,292.480,0
8041.642,12.695,39.551,33.691,28.320,-1000.000,0
8041.646,28.809,33.691,21.973,37.109,-381.348,0
8041.650,23.926,28.809,10.742,48.340,-857.910,0
8041.654,22.461,27.832,23.438,34.668,596.680,0
8041.658,17.090,31.250,24.902,17.578,-951.172,0
8041.662,27.344,36.621,20.020,25.879,-798.828,0
8041.665,40.039,35.645,21.484,43.457,720.215,0
8041.669,25.391,28.809,20.508,40.039,-976.074,0
8041.673,19.043,28.809,19.531,27.344,-383.789,0
8041.677,23.438,36.621,15.625,37.109,-1000.000,0
8041.681,43.945,41.504,20.020,50.781,75.195,0
8041.685,51.270,31.738,20.996,43.457,-778.320,0
8041.689,12.207,30.762,24.414,37.598,111.816,0
8041.693,11.230,38.574,31.250,23.926,-1000.000,0
8041.697,41.016,36.133,23.438,17.090,-208.008,0
8041.701,45.410,36.133,20.508,44.434,-779.785,0
8041.705,16.602,36.133,24.902,52.246,352.051,0
8041.708,10.742,28.320,15.137,32.715,-1000.000,0
8041.712,32.227,27.344,18.066,30.273,-462.402,0
8041.716,28.809,27.344,25.391,45.410,-923.340,0
8041.720,14.160,24.414,17.578,42.480,717.773,0
8041.724,12.695,26.855,13.672,20.508,-814.941,0
8041.728,21.484,26.367,14.160,18.555,-915.527,0
8041.732,32.227,24.902,15.137,28.320,545.898,0
8041.736,26.367,31.738,9.277,40.527,-862.793,0
8041.740,22.949,33.203,8.789,43.945,-174.316,0
8041.744,22.461,29.297,19.043,30.762,-1000.000,0
8041.748,32.227,32.715,20.508,38.086,4.395,0
8041.751,24.414,31.738,12.207,54.688,-761.230,0
8041.755,11.230,28.320,11.230,46.875,187.012,0
8041.759,26.855,30.762,10.254,21.484,-1000.000,0
8041.763,28.320,30.273,15.137,29.785,-251.465,0
8041.767,15.137,24.902,9.766,40.039,-791.504,0
8041.771,11.230,31.250,11.230,42.969,419.434,0
8041.775,-10.254,28.809,23.926,24.414,-1000.000,0
8041.779,2.930,18.555,18.555,11.719,-543.945,0
8041.783,27.344,17.090,9.277,37.598,991.699,0
8041.787,28.809,23.438,14.648,45.898,850.098,0
8041.790,26.367,35.156,18.066,32.227,-641.602,0
8041.794,17.090,34.668,11.719,29.297,-1000.000,0
8041.798,25.879,30.762,17.090,31.738,382.324,0
8041.802,29.297,36.621,24.414,38.086,-812.500,0
8041.806,17.578,39.062,22.949,33.691,-48.340,0
8041.810,27.832,33.691,16.602,28.809,-1000.000,0
8041.814,47.852,27.832,13.184,36.621,-75.195,0
8041.818,49.316,35.156,34.668,43.457,-762.695,0
8041.822,23.438,40.039,32.227,39.062,238.281,0
8041.826,14.648,33.691,21.973,19.531,-1000.000,0
8041.830,32.227,33.203,22.949,32.715,-317.383,0
8041.833,42.480,29.297,24.414,54.199,-822.754,0
8041.837,43.945,32.227,35.156,45.898,515.137,0
8041.841,29.297,35.156,39.551,23.926,-1000.000,0
8041.845,28.320,26.855,32.715,15.137,-666.016,0
8041.849,32.227,29.297,23.926,35.156,850.098,0
8041.853,30.762,32.715,31.250,43.945,995.605,0
8041.857,12.695,30.762,22.949,25.879,-436.523,0
8041.861,18.555,32.715,18.066,25.879,-1000.000,0
8041.865,42.969,29.297,28.320,56.641,238.770,0
8041.869,32.715,28.320,18.555,62.500,-786.621,0
8041.873,17.090,25.879,11.230,23.926,46.387,0
8041.876,33.203,24.414,16.602,10.742,-1000.000,0
8041.880,52.734,32.715,22.949,32.227,-151.855,0
8041.884,66.406,39.062,33.203,47.852,-768.066,0
8041.888,32.715,34.668,28.320,40.527,313.477,0
8041.892,-5.371,29.785,22.949,23.926,-1000.000,0
8041.896,23.438,32.227,25.879,22.461,-373.047,0
8041.900,52.734,35.645,20.996,38.086,-863.770,0
8041.904,52.246,37.598,7.812,36.133,658.203,0
8041.908,29.785,32.715,20.508,30.273,-901.855,0
8041.912,33.691,30.762,35.645,33.691,-751.953,0
8041.915,46.875,35.645,28.320,40.527,753.418,0
8041.919,42.480,36.621,30.273,44.434,-909.668,0
8041.923,20.508,33.203,42.480,41.504,-259.766,0
8041.927,38.086,34.180,28.320,39.062,-1000.000,0
8041.931,40.039,38.574,21.973,39.062,156.250,0
8041.935,26.367,36.133,30.762,39.551,-756.348,0
8041.939,30.762,32.715,33.203,30.273,159.180,0
8041.943,19.043,32.227,36.621,20.020,-1000.000,0
8041.947,45.410,28.320,39.062,34.180,-187.012,0
8041.951,51.758,28.320,37.109,41.504,-770.508,0
8041.955,17.090,33.203,26.855,25.879,389.160,0
8041.958,14.160,39.062,23.926,15.625,-1000.000,0
8041.962,26.855,37.109,31.250,25.391,-434.570,0
8041.966,37.109,27.344,39.062,54.688,-913.086,0
8041.970,13.184,24.902,37.598,51.270,787.598,0
8041.974,0.000,26.367,34.668,24.902,-727.539,0
8041.978,23.438,25.879,38.086,20.996,-934.082,0
8041.982,24.902,24.902,26.367,26.367,532.227,0
8041.986,22.949,28.809,28.320,40.039,-859.375,0
8041.990,9.277,34.668,38.086,46.387,-150.879,0
8041.994,2.930,31.738,25.391,23.926,-1000.000,0
8041.998,16.602,26.855,26.855,17.578,-49.805,0
8042.001,29.297,32.227,28.809,31.738,-771.973,0
8042.005,30.762,36.133,33.691,29.785,173.340,0
8042.009,9.277,35.645,34.180,30.273,-1000.000,0
8042.013,14.160,37.109,20.020,27.344,-282.227,0
8042.017,29.785,27.832,11.230,28.809,-805.176,0
8042.021,23.926,24.414,20.508,32.715,396.484,0
8042.025,18.066,28.320,32.715,17.090,-1000.000,0
8042.029,20.020,24.414,26.367,21.973,-661.621,0
8042.033,29.785,24.414,23.438,23.438,902.832,0
8042.037,25.879,30.762,23.438,21.484,777.344,0
8042.040,12.695,29.297,24.414,22.949,-725.098,0
8042.044,10.742,29.297,20.508,18.066,-1000.000,0
8042.048,37.109,34.180,20.508,27.344,244.141,0
8042.052,32.227,29.297,15.625,28.320,-876.953,0
8042.056,5.859,20.508,4.395,24.902,-181.152,0
8042.060,22.461,25.879,16.602,21.973,-1000.000,0
8042.064,50.293,38.574,30.762,27.832,-152.832,0
8042.068,31.738,35.156,28.320,40.039,-796.875,0
8042.072,11.230,36.621,16.602,39.551,191.406,0
8042.076,23.438,37.109,12.695,26.855,-1000.000,0
8042.080,32.227,28.320,31.250,34.668,-425.293,0
8042.083,39.551,26.367,37.598,45.898,-878.418,0
8042.087,36.133,34.668,29.785,42.969,407.227,0
8042.091,31.738,35.156,33.203,32.715,-1000.000,0
8042.095,46.387,30.762,33.691,34.180,-874.512,0
8042.099,41.992,32.715,24.414,50.293,631.836,0
8042.103,28.809,33.691,24.902,54.688,812.988,0
8042.107,24.902,29.297,28.320,36.133,-678.711,0
8042.111,29.297,27.832,28.809,20.996,-1000.000,0
8042.115,43.457,29.297,32.227,38.086,44.434,0
8042.119,34.668,27.832,27.344,60.547,-893.066,0
8042.123,24.414,25.391,22.949,53.223,-151.855,0
8042.126,30.273,22.949,22.461,37.598,-1000.000,0
8042.130,50.293,35.156,26.855,39.062,-235.352,0
8042.134,73.730,40.527,32.227,53.223,-823.242,0
8042.138,50.781,32.227,25.879,55.176,202.637,0
8042.142,14.648,32.227,32.715,40.527,-1000.000,0
8042.146,17.578,26.367,39.062,24.902,-612.793,0
8042.150,35.156,23.438,35.156,31.250,963.379,0
8042.154,15.625,29.297,41.992,38.086,447.754,0
8042.158,-2.930,27.344,38.086,32.227,-1000.000,0
8042.162,21.484,21.973,32.227,32.715,-976.562,0
8042.165,36.621,21.484,29.297,38.574,435.547,0
8042.169,29.297,24.902,29.297,49.316,935.059,0
8042.173,16.602,25.879,24.902,41.992,-532.227,0
8042.177,15.137,20.996,24.414,32.715,-1000.000,0
8042.181,31.738,22.461,39.551,49.316,-39.062,0
8042.185,29.297,25.879,39.551,42.969,-832.031,0
8042.189,15.137,22.949,31.738,34.180,20.996,0
8042.193,21.484,25.879,31.250,27.832,-1000.000,0
8042.197,48.828,25.879,28.809,29.785,-277.344,0
8042.201,56.152,22.949,18.555,55.664,-818.359,0
8042.205,30.762,25.391,16.113,48.828,284.180,0
8042.208,20.508,30.273,20.508,23.926,-1000.000,0
8042.212,27.344,32.227,19.531,15.137,-647.461,0
8042.216,36.621,34.180,20.508,37.109,929.199,0
8042.220,33.203,32.227,22.949,55.664,584.961,0
8042.224,19.043,24.414,27.832,22.461,-920.410,0
8042.228,19.531,24.414,29.785,10.742,-1000.000,0
8042.232,28.320,21.973,20.996,33.203,312.012,0
8042.236,32.227,17.578,21.973,45.410,-971.680,0
8042.240,15.625,26.855,23.926,35.156,-378.906,0
8042.244,3.418,30.273,20.508,21.973,-1000.000,0
8042.248,20.020,25.391,32.227,25.879,-105.469,0
8042.251,35.156,27.832,27.832,35.156,-812.012,0
8042.255,14.160,30.762,18.066,25.879,119.141,0
8042.259,7.324,30.762,25.391,14.648,-1000.000,0
8042.263,23.438,30.762,22.461,26.855,-345.703,0
8042.267,37.598,28.320,28.809,37.598,-839.355,0
8042.271,29.297,28.320,30.762,33.691,351.562,0
8042.275,30.762,33.203,17.090,23.926,-1000.000,0
8042.279,41.504,34.180,17.578,24.414,-770.020,0
8042.283,25.879,26.367,19.531,19.531,778.809,0
8042.287,9.766,24.902,21.973,32.227,722.656,0
8042.290,17.578,33.691,24.902,40.527,-784.180,0
8042.294,23.926,30.762,20.508,20.508,-1000.000,0
8042.298,43.457,31.250,21.973,28.320,160.645,0
8042.302,47.363,36.621,27.344,41.016,-914.551,0
8042.306,36.133,39.062,16.602,26.367,-237.793,0
8042.310,34.180,40.039,12.695,14.648,-1000.000,0
8042.314,36.621,31.738,21.484,32.715,-157.227,0
8042.318,34.668,31.738,18.555,45.410,-812.500,0
8042.322,19.531,39.062,25.391,41.504,159.180,0
8042.326,18.066,36.621,27.344,25.879,-1000.000,0
8042.330,29.785,37.598,18.066,32.715,-502.930,0
8042.333,47.852,37.598,16.602,48.340,-945.801,0
8042.337,35.156,36.133,16.113,37.598,359.375,0
8042.341,24.902,33.203,18.066,24.902,-1000.000,0
8042.345,30.762,30.762,26.367,22.949,-969.727,0
8042.349,32.715,27.832,28.809,33.691,476.074,0
8042.353,28.320,28.809,25.391,40.039,678.223,0
8042.357,25.879,38.086,26.855,31.250,-797.363,0
8042.361,36.133,39.551,28.809,27.344,-1000.000,0
8042.365,53.223,32.715,30.762,36.133,-43.945,0
8042.369,38.574,32.715,28.320,41.504,999.512,0
8042.373,8.789,33.203,29.297,22.949,-311.035,0
8042.376,13.672,30.273,29.785,17.578,-1000.000,0
8042.380,34.668,35.156,28.809,20.996,-333.984,0
8042.384,48.828,36.621,21.484,19.531,-921.387,0
8042.388,17.578,35.645,20.996,24.902,110.840,0
8042.392,8.789,34.668,35.156,27.344,-1000.000,0
8042.396,38.086,34.180,42.480,39.062,-771.973,0
8042.400,39.551,34.180,40.039,51.270,756.836,0
8042.404,42.969,35.645,37.598,48.340,397.949,0
8042.408,26.367,33.691,36.133,37.109,-1000.000,0
8042.412,12.207,31.250,33.203,21.973,-1000.000,0
8042.415,30.762,30.762,29.297,20.020,263.184,0
8042.419,24.902,33.691,30.762,25.391,769.043,0
8042.423,21.973,35.156,35.645,12.207,-697.266,0
8042.427,19.043,33.691,34.668,6.348,-1000.000,0
8042.431,20.508,32.227,36.621,19.043,-89.844,0
8042.435,27.344,34.668,39.551,40.039,-874.512,0
8042.439,25.879,35.156,33.691,31.250,-41.992,0
8042.443,11.230,34.180,30.762,27.344,-1000.000,0
8042.447,10.254,33.691,38.086,34.180,-323.242,0
8042.451,24.414,33.203,28.320,36.133,-847.656,0
8042.455,16.602,31.738,28.320,21.484,266.113,0
8042.458,-3.418,30.273,43.945,7.812,-1000.000,0
8042.462,15.625,32.227,43.945,13.184,-686.035,0
8042.466,34.180,33.691,43.945,27.832,869.629,0
8042.470,-0.488,26.367,41.992,30.273,602.051,0
8042.474,-4.395,24.414,33.691,26.367,-903.809,0
8042.478,11.230,30.762,24.902,21.484,-1000.000,0
8042.482,17.578,30.762,26.367,25.879,274.902,0
8042.486,21.973,28.809,34.668,46.387,-989.258,0
8042.490,1.465,32.227,38.086,35.645,-382.812,0
8042.494,3.418,28.809,33.203,11.230,-1000.000,0
8042.498,35.645,24.902,27.344,13.672,-124.512,0
8042.501,20.020,30.762,24.414,31.250,-816.406,0
8042.505,7.812,31.250,25.391,26.367,123.047,0
8042.509,1.465,25.391,26.367,2.930,-1000.000,0
8042.513,-3.906,18.555,26.855,7.324,-393.555,0
8042.517,3.418,18.066,27.344,30.762,-868.652,0
8042.521,4.395,26.855,31.250,34.668,321.289,0
8042.525,6.836,27.832,38.574,22.461,-1000.000,0
8042.529,12.695,23.926,30.273,24.902,-836.426,0
8042.533,35.645,26.367,30.762,33.691,701.660,0
8042.537,20.508,26.855,36.621,50.293,660.156,0
8042.540,7.812,25.391,29.785,35.645,-842.285,0
8042.544,24.414,22.461,29.785,24.902,-1000.000,0
8042.548,35.156,27.344,34.180,43.945,94.238,0
8042.552,24.902,33.691,23.438,39.062,-967.285,0
8042.556,8.789,36.133,28.320,23.926,-312.012,0
8042.560,4.395,32.227,42.480,18.066,-1000.000,0
8042.564,6.836,28.809,35.645,26.855,-197.754,0
8042.568,19.043,32.227,33.691,42.969,-837.891,2
8042.572,11.719,27.832,33.691,44.922,134.766,0
8042.576,0.977,27.344,35.645,27.832,-1000.000,0
8042.580,11.719,31.738,36.621,20.996,-516.113,0
8042.583,33.203,32.715,28.809,36.621,-960.938,0
8042.587,31.738,32.227,28.320,41.016,370.605,0
8042.591,19.531,29.785,27.344,28.320,-1000.000,0
8042.595,32.227,28.809,21.484,26.855,-980.957,0
8042.599,41.504,26.367,32.715,27.832,474.121,0
8042.603,17.578,24.414,42.969,34.180,708.008,0
8042.607,3.418,28.809,42.969,37.109,-784.180,0
8042.611,11.230,33.203,41.504,34.668,-1000.000,0
8042.615,36.621,25.391,29.785,44.434,-31.738,0
8042.619,28.320,18.066,24.902,51.270,-916.016,0
8042.623,-5.371,24.414,28.320,40.527,-172.363,0
8042.626,-3.418,28.320,24.902,32.227,-1000.000,0
8042.630,7.812,24.414,28.809,45.410,-271.484,0
8042.634,13.672,23.438,36.621,52.246,-842.773,0
8042.638,5.859,28.809,32.227,30.762,197.754,0
8042.642,-0.977,33.203,26.855,16.602,-1000.000,0
8042.646,17.578,30.273,35.645,26.855,-674.316,0
8042.650,22.461,30.273,36.133,38.574,897.949,0
8042.654,10.254,37.109,41.016,45.410,443.848,0
8042.658,9.277,31.738,29.785,37.598,-1000.000,0
8042.662,16.602,24.902,18.066,24.902,-1000.000,0
8042.665,28.809,31.738,29.785,33.691,314.453,0
8042.669,24.414,31.738,33.691,33.203,855.957,0
8042.673,2.441,30.273,33.691,18.555,-608.887,0
8042.677,12.207,32.227,31.738,20.508,-1000.000,0
8042.681,32.715,32.227,21.973,35.156,-99.121,0
8042.685,43.457,35.645,22.949,41.504,-859.863,0
8042.689,28.320,37.109,21.484,38.574,-4.395,0
8042.693,4.395,30.762,9.277,27.344,-1000.000,0
8042.697,25.391,31.250,20.996,37.598,-328.125,0
8042.701,35.645,30.762,31.250,43.457,-845.703,0
8042.705,8.789,26.367,28.809,20.020,280.762,0
8042.708,0.977,34.668,26.367,21.484,-1000.000,0
8042.712,18.066,34.180,26.855,37.598,-712.402,0
8042.716,30.762,32.227,19.531,32.715,852.051,0
8042.720,36.621,32.715,19.043,39.551,590.332,0
8042.724,15.137,33.691,28.320,30.762,-912.109,0
8042.728,0.977,32.227,25.879,22.949,-1000.000,0
8042.732,16.602,27.832,16.113,48.828,229.492,0
8042.736,24.414,28.320,28.809,66.406,-973.633,0
8042.740,16.602,31.738,41.016,38.086,-358.887,0
8042.744,18.555,34.668,41.504,20.020,-1000.000,0
8042.748,35.156,37.109,39.551,44.434,-137.695,0
8042.751,36.621,33.203,25.391,50.293,-827.637,0
8042.755,26.367,35.156,16.602,41.992,102.539,0
8042.759,8.301,38.086,20.020,40.527,-1000.000,0
8042.763,25.879,30.762,23.926,30.762,-410.156,0
8042.767,51.270,35.645,31.738,40.039,-881.836,0
8042.771,21.973,39.062,33.203,55.176,320.801,0
8042.775,-2.441,34.180,26.855,15.625,-1000.000,0
8042.779,21.484,34.668,22.461,18.555,-903.809,0
8042.783,34.180,36.621,23.926,47.852,602.051,0
8042.787,28.320,29.297,26.855,35.156,678.711,0
8042.790,10.254,25.391,31.738,27.832,-827.637,0
8042.794,2.441,23.438,33.691,22.461,-1000.000,0
8042.798,47.852,23.926,40.527,23.438,70.801,0
8042.802,46.875,27.344,40.039,37.598,-944.824,0
8042.806,-5.859,23.926,38.086,35.156,-266.113,0
8042.810,-4.883,27.832,45.410,29.297,-1000.000,0
8042.814,13.672,31.250,35.156,32.715,-207.031,0
8042.818,13.184,28.320,31.738,36.621,-822.266,0
8042.822,17.090,28.809,33.203,36.133,189.453,0
8042.826,18.066,30.273,33.203,21.973,-1000.000,0
8042.830,20.996,33.691,41.504,22.949,-498.535,0
8042.833,32.227,32.227,36.621,31.250,-936.523,0
8042.837,21.484,25.391,30.273,30.273,420.410,0
8042.841,14.160,26.367,39.551,19.043,-1000.000,0
8042.845,24.902,29.297,38.086,18.066,-945.801,0
8042.849,30.273,30.762,31.738,37.598,519.043,0
8042.853,27.832,31.738,40.039,46.875,837.402,0
8042.857,17.090,23.438,35.645,34.668,-650.391,0
8042.861,26.367,23.926,31.250,33.203,-1000.000,0
8042.865,33.203,26.855,37.598,45.410,-14.648,0
8042.869,19.043,29.785,31.250,55.176,-879.395,0
8042.873,13.672,34.668,30.762,45.410,-90.332,0
8042.876,29.297,29.297,25.879,42.480,-1000.000,0
8042.880,63.965,27.832,34.668,54.199,-272.949,0
8042.884,43.945,30.273,48.828,55.664,-829.590,0
8042.888,3.418,28.809,33.203,41.016,241.699,0
8042.892,13.184,26.367,26.367,29.297,-1000.000,0
8042.896,32.715,31.250,43.457,36.133,-627.930,0
8042.900,23.438,31.250,41.016,41.504,947.266,0
8042.904,26.367,24.414,28.809,50.293,499.512,0
8042.908,29.785,30.762,38.086,41.992,-996.582,0
8042.912,21.973,36.621,48.828,25.391,-1000.000,0
8042.915,24.902,29.297,47.852,40.039,392.090,0
8042.919,40.527,35.645,40.039,56.641,937.500,0
8042.923,31.250,40.527,37.598,49.316,-510.254,0
8042.927,8.301,25.391,35.645,36.133,-1000.000,0
8042.931,37.598,29.297,35.645,43.945,-80.078,0
8042.935,55.664,36.621,38.574,61.523,-838.867,0
8042.939,21.973,28.809,31.250,42.969,33.691,0
8042.943,13.184,31.250,30.762,24.902,-1000.000,0
8042.947,38.086,31.250,44.434,33.691,-343.750,0
8042.951,47.363,29.297,37.109,44.434,-849.609,0
8042.955,43.457,38.574,35.156,41.992,285.645,0
8042.958,28.809,42.480,45.898,30.762,-1000.000,0
8042.962,28.320,31.738,37.598,38.086,-757.324,0
8042.966,39.551,25.879,31.250,40.527,804.688,0
8042.970,26.855,26.367,32.715,43.945,600.098,0
8042.974,14.648,29.785,37.598,42.969,-909.668,0
8042.978,21.484,32.715,38.086,44.434,-1000.000,0
8042.982,30.762,29.297,41.016,60.547,216.797,0
8042.986,46.875,30.762,41.992,60.547,-967.773,0
8042.990,36.621,33.203,37.109,39.551,-341.309,0
8042.994,2.930,31.250,36.621,29.785,-1000.000,0
8042.998,18.555,33.203,39.062,45.898,-142.090,0
8043.001,33.203,37.109,33.691,55.176,-814.453,0
8043.005,17.090,34.668,33.691,29.297,140.625,0
8043.009,13.184,30.762,38.086,14.160,-1000.000,0
8043.013,33.691,33.691,34.180,32.227,-396.484,0
8043.017,55.664,30.762,34.180,47.852,-869.141,0
8043.021,35.156,29.297,31.738,35.645,364.746,0
8043.025,4.883,31.738,24.902,22.461,-1000.000,0
8043.029,20.508,33.691,38.086,23.926,-807.617,0
8043.033,39.551,32.715,50.781,35.156,729.004,0
8043.037,28.320,29.297,39.551,37.598,733.887,0
8043.040,10.742,30.273,37.109,19.531,-767.578,0
8043.044,15.625,31.250,44.922,15.625,-1000.000,0
8043.048,33.691,36.133,44.434,44.922,109.375,0
8043.052,38.086,34.180,34.180,63.477,-897.461,0
8043.056,18.066,26.367,33.691,41.992,-183.594,0
8043.060,3.418,26.855,32.227,19.531,-1000.000,0
8043.064,25.391,24.902,20.020,12.207,-190.430,0
8043.068,41.016,23.926,28.320,25.879,-804.199,0
8043.072,13.672,30.273,32.715,28.809,217.285,0
8043.076,-4.395,32.227,29.785,12.695,-1000.000,0
8043.080,10.254,34.668,35.156,21.973,-479.980,0
8043.083,20.508,31.250,31.250,24.902,-920.898,0
8043.087,19.043,24.902,29.785,26.367,470.215,0
8043.091,15.137,28.320,29.785,20.996,-1000.000,0
8043.095,15.625,32.715,29.297,15.625,-895.996,0
8043.099,30.273,27.344,36.621,31.250,580.566,0
8043.103,33.691,23.926,40.527,33.203,936.035,0
8043.107,21.484,27.344,32.715,19.043,-529.785,0
8043.111,17.578,33.203,16.113,21.484,-1000.000,0
8043.115,34.180,29.785,24.902,36.621,12.207,0
8043.119,36.133,22.949,45.410,43.457,-816.406,0
8043.123,31.250,25.391,38.574,32.227,31.250,0
8043.126,34.668,27.344,34.180,29.785,-1000.000,0
8043.130,29.785,28.809,32.227,34.668,-225.098,0
8043.134,32.715,35.156,36.621,53.223,-794.434,0
8043.138,20.508,30.762,40.039,57.129,298.828,0
8043.142,17.090,21.484,33.691,32.715,-1000.000,0
8043.146,28.809,25.391,40.039,32.715,-502.930,0
8043.150,25.879,29.785,30.762,44.434,-944.824,0
8043.154,7.324,29.785,21.973,35.156,615.723,0
8043.158,-0.977,23.926,31.738,15.625,-919.434,0
8043.162,22.949,29.297,41.504,12.207,-913.086,0
8043.165,27.832,34.668,40.039,24.414,539.062,0
8043.169,15.137,30.273,35.156,38.574,-926.758,0
8043.173,8.789,33.203,41.992,29.297,-302.734,0
8043.177,15.625,33.691,44.434,23.438,-1000.000,0
8043.181,49.316,37.109,37.598,29.785,-23.438,0
8043.185,56.641,38.574,36.133,39.062,-777.344,0
8043.189,16.602,23.438,29.785,38.086,158.691,0
8043.193,-3.906,30.273,34.668,27.832,-1000.000,0
8043.197,9.766,34.668,36.133,39.551,-251.465,0
8043.201,26.855,26.855,38.574,58.105,-794.922,0
8043.205,21.484,30.762,37.109,50.293,397.461,0
8043.208,14.160,32.715,15.137,30.273,-1000.000,0
8043.212,21.973,36.621,29.297,37.598,-561.523,0
8043.216,37.598,35.156,50.293,41.016,987.793,0
8043.220,41.016,32.715,40.527,36.133,800.293,0
8043.224,21.973,31.250,22.461,28.809,-707.520,0
8043.228,25.879,26.367,20.020,32.227,-1000.000,0
8043.232,40.039,29.297,31.250,31.738,384.766,0
8043.236,42.969,34.180,32.715,31.250,-845.703,0
8043.240,32.227,32.227,25.391,31.250,-123.047,0
8043.244,2.930,32.715,28.320,16.602,-1000.000,0
8043.248,23.926,42.969,37.109,34.668,-96.680,0
8043.251,27.344,51.758,27.832,52.246,-772.461,0
8043.255,6.836,44.922,27.832,30.273,227.539,0
8043.259,7.812,37.109,36.133,17.578,-1000.000,0
8043.263,25.879,35.156,20.996,26.367,-327.637,0
8043.267,35.156,32.227,22.949,37.598,-823.242,0
8043.271,15.137,34.180,37.598,28.320,464.355,0
8043.275,1.953,38.086,35.645,27.344,-1000.000,0
8043.279,15.625,40.527,26.367,27.832,-705.078,0
8043.283,21.973,35.156,24.414,24.902,828.125,0
8043.287,20.508,36.133,34.180,46.875,902.344,0
8043.290,23.926,35.645,35.645,36.621,-558.594,0
8043.294,20.508,28.809,31.738,16.602,-1000.000,0
8043.298,36.133,30.762,30.762,17.090,161.133,0
8043.302,32.715,34.180,30.762,37.109,-828.613,0
8043.306,3.906,31.250,36.621,35.645,-49.805,0
8043.310,13.672,32.715,36.621,20.508,-1000.000,0
8043.314,31.250,30.762,31.738,35.645,-185.547,0
8043.318,23.926,29.297,37.598,46.387,-790.527,0
8043.322,9.277,26.855,42.480,27.344,238.281,0
8043.326,22.461,23.926,40.039,14.160,-1000.000,0
8043.330,23.926,26.367,37.109,25.879,-472.656,0
8043.333,15.625,22.949,38.574,29.785,-910.645,0
8043.337,9.277,21.973,43.457,25.391,476.562,0
8043.341,-2.930,18.555,27.344,16.602,-1000.000,0
8043.345,11.230,19.531,25.879,16.113,-908.203,0
8043.349,24.414,31.250,37.598,25.879,575.684,0
8043.353,18.555,30.762,39.551,13.672,901.367,0
8043.357,0.977,20.508,36.133,1.953,-559.570,0
8043.361,5.371,25.391,46.875,2.441,-1000.000,0
8043.365,28.809,30.762,47.363,30.273,-29.297,0
8043.369,22.949,24.902,34.180,40.527,-866.211,0
8043.373,20.508,28.809,35.645,-0.488,-62.500,0
8043.376,30.273,27.832,31.738,-19.043,-1000.000,0
8043.380,28.809,20.996,26.367,1.953,-288.574,0
8043.384,34.668,21.973,29.297,11.719,-835.449,0
8043.388,20.996,27.832,33.203,3.906,241.211,0
8043.392,-0.488,33.691,38.086,4.395,-1000.000,0
8043.396,5.371,22.461,29.785,0.488,-651.855,0
8043.400,45.410,12.207,29.297,27.344,919.434,0
8043.404,32.715,14.648,39.551,43.945,533.691,0
8043.408,-2.930,24.902,24.414,15.137,-964.844,0
8043.412,13.184,34.180,18.066,13.672,-1000.000,0
8043.415,18.066,27.832,31.738,20.508,328.125,0
8043.419,7.324,29.297,35.156,15.625,965.820,0
8043.423,5.859,29.297,40.527,-1.953,-464.844,0
8043.427,17.578,26.367,41.016,3.906,-1000.000,0
8043.431,32.715,30.762,29.297,32.715,-103.516,0
8043.435,38.574,31.738,35.156,39.551,-828.613,0
8043.439,26.367,30.762,46.387,39.551,76.660,0
8043.443,15.625,29.297,40.039,35.156,-1000.000,0
8043.447,15.137,34.668,31.738,29.785,-337.402,0
8043.451,35.156,35.156,28.320,34.668,-840.332,0
8043.455,32.227,33.691,27.832,35.645,322.754,0
8043.458,0.488,40.039,34.180,26.367,-1000.000,0
8043.462,17.090,37.598,31.738,27.344,-743.164,0
8043.466,50.781,32.715,29.297,32.715,822.754,0
8043.470,35.156,28.320,32.227,28.809,655.273,0
8043.474,6.836,24.902,33.203,28.320,-847.656,0
8043.478,11.230,31.250,25.391,22.461,-1000.000,0
8043.482,36.621,37.598,22.949,28.809,173.828,0
8043.486,31.738,35.645,37.109,37.598,-995.605,0
8043.490,6.836,39.062,37.109,29.297,-373.535,0
8043.494,12.695,39.551,31.250,20.996,-1000.000,0
8043.498,23.926,36.621,29.297,28.809,-177.246,0
8043.501,22.949,34.180,29.297,41.504,-853.027,0
8043.505,15.625,28.809,33.203,24.902,62.988,0
8043.509,24.902,25.879,26.855,25.879,-1000.000,0
8043.513,42.969,23.926,30.762,39.062,-622.070,0
8043.517,37.598,29.785,45.410,50.293,910.156,0
8043.521,35.156,33.691,39.551,48.828,250.000,0
8043.525,22.461,34.180,36.133,28.320,-1000.000,0
8043.529,9.766,36.133,40.039,20.508,-1000.000,0
8043.533,21.973,32.227,30.762,34.668,246.582,0
8043.537,33.203,37.109,35.156,50.781,433.594,0
8043.540,31.738,40.527,41.504,41.016,-957.031,0
8043.544,24.414,28.320,45.410,48.340,-1000.000,0
8043.548,40.039,21.484,43.945,56.641,-113.770,0
8043.552,54.688,25.879,37.109,52.734,625.488,0
8043.556,28.809,32.227,39.062,41.992,-730.957,0
8043.560,20.020,32.715,36.621,35.156,-1000.000,0
8043.564,39.551,28.320,32.715,39.551,-602.539,0
8043.568,31.738,27.832,35.645,47.852,487.305,0
8043.572,26.855,37.598,39.062,29.297,-339.844,0
8043.576,16.113,38.574,34.180,13.184,-1000.000,0
8043.580,23.926,35.645,30.273,17.578,-999.023,0
8043.583,45.898,41.504,29.297,31.250,120.605,0
8043.587,32.715,41.992,37.109,38.574,61.523,0
8043.591,16.602,42.480,38.086,25.879,-1000.000,0
8043.595,30.273,41.016,29.785,33.691,-1000.000,0
8043.599,51.758,32.227,31.250,38.574,-209.961,0
8043.603,42.969,27.832,30.273,31.250,74.707,0
8043.607,20.996,36.133,27.344,29.297,-988.281,0
8043.611,26.367,32.715,32.227,25.391,-1000.000,0
8043.615,43.457,21.484,34.180,44.434,-554.688,0
8043.619,30.273,27.344,35.645,50.293,-166.992,0
8043.623,9.766,39.062,31.738,10.254,-906.250,0
8043.626,18.066,37.598,19.043,1.953,-1000.000,0
8043.630,30.762,34.180,19.043,17.090,-875.977,0
8043.634,24.902,33.691,20.020,36.133,-430.664,0
8043.638,15.625,31.738,22.949,29.297,-739.746,0
8043.642,13.672,30.273,24.414,18.066,-1000.000,0
8043.646,28.809,25.391,17.578,19.043,-998.535,0
8043.650,34.668,26.855,19.043,27.832,-618.652,0
8043.654,19.531,26.855,25.391,22.461,-616.211,0
8043.658,-3.418,21.484,32.227,11.230,-1000.000,0
8043.662,-0.977,24.414,30.273,8.301,-1000.000,0
8043.665,15.625,26.367,23.926,20.020,-763.184,0
8043.669,22.949,31.738,26.855,30.273,-650.391,0
8043.673,4.395,33.691,34.180,11.719,-981.934,0
8043.677,8.301,33.691,32.227,12.207,-986.816,0
8043.681,28.809,31.738,28.809,28.320,-937.988,0
8043.685,37.598,25.391,29.297,26.855,-893.066,0
8043.689,31.738,23.926,27.344,19.043,-962.402,0
8043.693,13.672,24.414,26.367,15.137,-977.051,0
8043.697,28.809,30.762,23.926,24.414,-965.332,0
8043.701,31.250,37.598,24.414,29.785,-971.191,0
8043.705,25.391,40.527,33.691,31.250,-970.215,0
8043.708,15.625,36.621,34.180,20.996,-970.215,0
8043.712,9.277,30.273,29.785,10.254,-970.215,0
8043.716,32.715,33.203,40.039,13.184,-970.215,0
8043.720,29.297,32.715,41.992,6.836,-970.215,0
8043.724,15.137,32.227,30.273,8.789,-970.215,0
8043.728,18.066,35.156,23.926,19.531,-970.215,0
8043.732,44.434,35.156,27.344,20.996,-970.215,0
8043.736,38.574,31.738,32.227,17.578,-970.215,0
8043.740,8.789,30.273,33.691,14.160,-970.215,0
8043.744,11.719,30.273,30.762,8.789,-970.215,0
8043.748,37.598,29.785,36.133,7.812,-970.215,0
8043.751,34.668,31.250,40.039,24.414,-970.215,0
8043.755,9.277,28.320,36.621,18.066,-970.215,0
8043.759,9.766,24.902,37.598,11.719,-970.215,0
8043.763,31.738,22.461,24.414,27.344,-970.215,0
8043.767,37.598,26.855,26.367,24.414,-970.215,0
8043.771,15.625,32.227,39.551,18.066,-970.215,0
8043.775,10.742,31.250,27.832,4.395,-970.215,0
8043.779,29.785,30.273,32.227,10.254,-970.215,0
8043.783,34.668,29.297,40.527,19.531,-970.215,0
8043.787,28.320,31.250,39.551,14.648,-970.215,0
8043.790,15.137,31.738,37.598,5.371,-970.215,0
8043.794,20.020,29.785,26.855,-8.301,-970.215,0
8043.798,34.180,32.227,28.809,7.324,-970.215,0
8043.802,27.832,35.645,27.832,20.020,-970.215,0
8043.806,11.230,30.762,18.066,12.695,-970.215,0
8043.810,19.531,28.809,16.113,2.930,-970.215,0
8043.814,42.969,30.273,20.996,5.371,-970.215,0
8043.818,36.621,27.832,24.414,6.348,-970.215,0
8043.822,17.578,28.320,24.414,5.371,-970.215,0
8043.826,20.996,30.273,30.273,4.883,-970.215,0
8043.830,28.809,31.738,24.414,3.418,-970.215,0
8043.833,31.738,32.227,27.344,6.348,-970.215,0
8043.837,30.273,35.645,35.156,10.742,-970.215,0
8043.841,12.695,34.180,26.367,1.465,-970.215,0
8043.845,18.555,32.227,14.160,3.418,-970.215,0
8043.849,39.551,31.738,18.066,26.855,-970.215,0
8043.853,34.180,34.180,28.320,20.020,-970.215,0
8043.857,18.555,33.691,22.949,-3.418,-970.215,0
8043.861,7.812,27.832,19.531,5.859,-970.215,0
8043.865,17.578,26.367,25.391,20.020,-970.215,0
8043.869,28.809,25.391,27.832,25.879,-970.215,1
8043.873,14.648,30.762,31.738,20.508,-970.215,0
8043.876,16.113,32.227,27.344,15.625,-970.215,0
8043.880,36.621,30.273,21.484,21.484,-970.215,0
8043.884,33.691,29.297,29.297,19.531,-970.215,0
8043.888,22.949,28.320,37.109,12.695,-970.215,0
8043.892,23.926,29.785,36.133,15.625,-970.215,0
8043.896,20.996,28.320,29.785,30.273,-970.215,0
8043.900,22.949,30.762,28.809,23.438,-970.215,0
8043.904,33.203,34.668,32.715,14.160,-975.098,0
8043.908,21.973,33.203,30.273,30.762,-906.738,0
8043.912,16.113,30.762,19.531,45.898,-1000.000,0
