timestamps,TP9,AF7,AF8,TP10,Right AUX,Marker0
1553632066.424,-8.789,36.133,17.090,20.508,44.922,0
1553632066.428,12.207,48.828,26.855,27.344,38.086,0
1553632066.432,34.668,62.500,45.898,34.668,14.648,0
1553632066.436,33.203,50.293,45.410,24.902,14.160,0
1553632066.440,22.949,33.691,32.227,22.461,88.867,0
1553632066.444,15.137,39.551,22.461,22.949,96.680,0
1553632066.447,34.180,46.387,20.508,38.086,16.113,0
1553632066.451,59.082,41.992,27.832,52.246,40.039,0
1553632066.455,32.227,32.715,31.738,38.086,66.406,0
1553632066.459,-7.812,27.344,31.250,14.648,40.527,0
1553632066.463,8.789,28.320,28.809,32.227,36.621,0
1553632066.467,20.020,22.461,13.184,49.805,21.973,0
1553632066.471,-19.043,17.090,9.766,18.066,60.059,0
1553632066.475,-35.156,13.672,30.273,-16.113,31.250,0
1553632066.479,-39.551,21.973,23.438,-24.902,40.039,0
1553632066.483,-41.016,33.691,13.672,-23.438,2.930,0
1553632066.487,-39.551,26.855,26.367,-21.484,-0.977,0
1553632066.490,-57.129,16.113,31.738,-23.926,26.855,0
1553632066.494,-37.598,6.836,33.691,-25.391,21.973,0
1553632066.498,-8.789,-1.953,17.090,-6.836,26.855,0
1553632066.502,-8.301,14.648,10.254,0.488,53.711,0
1553632066.506,-14.160,36.621,13.672,20.508,20.996,0
1553632066.510,-6.836,31.250,15.625,19.043,-2.441,0
1553632066.514,6.348,27.344,17.578,-1.465,62.012,0
1553632066.518,0.977,28.809,28.809,0.977,49.316,0
1553632066.522,-2.441,29.785,40.527,10.254,10.254,0
1553632066.526,5.371,28.320,43.945,20.020,74.707,0
1553632066.530,30.762,17.090,43.457,20.508,70.801,0
1553632066.533,41.992,14.160,34.180,26.855,-32.715,0
1553632066.537,11.230,24.902,11.719,22.461,63.965,0
1553632066.541,20.020,33.203,2.441,19.043,94.727,0
1553632066.545,32.227,25.391,20.020,30.273,23.438,0
1553632066.549,20.508,-8.301,36.621,42.480,26.367,0
1553632066.553,21.973,0.488,30.762,35.645,20.996,0
1553632066.557,20.020,41.016,1.953,32.227,106.934,0
1553632066.561,25.391,51.758,0.000,36.133,113.281,0
1553632066.565,26.367,47.363,14.648,38.086,72.754,0
1553632066.569,14.648,41.016,19.531,29.785,63.965,0
1553632066.572,25.879,41.504,40.527,27.832,46.387,0
1553632066.576,35.156,41.504,49.316,31.738,67.871,0
1553632066.580,42.969,37.598,43.457,35.645,56.152,0
1553632066.584,41.992,33.203,17.578,45.410,33.203,0
1553632066.588,25.391,17.090,8.301,47.852,77.148,0
1553632066.592,56.641,16.602,38.574,64.453,75.684,0
1553632066.596,73.242,20.020,46.875,70.801,35.156,0
1553632066.600,14.160,18.555,37.598,42.480,19.531,0
1553632066.604,-12.207,33.203,36.133,29.297,-3.906,0
1553632066.608,2.930,39.062,31.250,27.344,-23.926,0
1553632066.612,0.977,32.227,12.695,18.555,-30.273,0
1553632066.615,12.695,24.414,7.812,20.508,29.297,0
1553632066.619,24.902,24.902,27.832,27.344,20.020,0
1553632066.623,29.785,29.785,42.480,27.832,0.488,0
1553632066.627,29.785,34.668,42.480,20.508,80.078,0
1553632066.631,24.414,34.180,19.531,21.484,102.539,0
1553632066.635,24.902,21.484,4.883,23.926,-8.789,0
1553632066.639,31.738,20.020,20.020,34.180,-36.133,0
1553632066.643,20.996,30.762,46.875,41.016,23.926,0
1553632066.647,13.672,33.203,65.918,25.391,48.828,0
1553632066.651,33.691,34.180,63.965,20.508,12.695,0
1553632066.655,40.039,31.738,45.898,28.809,-17.090,0
1553632066.658,29.297,23.438,10.742,33.203,52.734,0
1553632066.662,11.230,26.855,-2.441,36.621,35.645,0
1553632066.666,15.137,38.086,0.977,36.621,45.410,0
1553632066.670,32.227,49.805,5.859,42.969,75.684,0
1553632066.674,32.227,55.176,27.344,43.457,52.246,0
1553632066.678,17.578,55.176,32.227,29.297,92.285,0
1553632066.682,5.859,44.922,36.621,27.344,80.078,0
1553632066.686,26.367,31.250,44.434,30.273,63.965,0
1553632066.690,32.715,27.832,39.062,20.996,100.098,0
1553632066.694,20.508,33.203,16.113,18.066,-0.488,0
1553632066.697,32.227,38.086,-13.184,32.715,21.973,0
1553632066.701,37.598,41.504,13.184,13.672,70.312,0
1553632066.705,20.996,41.016,37.109,6.836,54.688,0
1553632066.709,11.230,34.668,28.320,17.578,77.148,0
1553632066.713,15.137,30.273,32.715,15.137,77.148,0
1553632066.717,20.996,20.508,32.715,20.996,62.500,0
1553632066.721,20.508,16.113,26.367,14.160,67.871,0
1553632066.725,21.484,34.668,18.066,15.137,86.914,0
1553632066.729,16.113,50.293,23.438,36.621,43.945,0
1553632066.733,0.000,49.805,35.156,38.086,41.992,0
1553632066.737,-43.945,46.387,37.109,22.949,30.762,0
1553632066.740,-86.426,43.457,37.109,18.555,0.977,0
1553632066.744,-64.941,36.133,39.062,8.789,41.016,0
1553632066.748,-5.371,31.738,37.109,9.277,10.254,0
1553632066.752,9.766,32.227,28.320,6.348,-10.254,0
1553632066.756,5.859,38.086,24.414,-4.883,13.184,0
1553632066.760,14.648,38.574,36.621,10.254,-20.020,0
1553632066.764,19.531,41.016,42.480,11.230,49.316,0
1553632066.768,-5.859,46.875,44.922,3.906,62.012,0
1553632066.772,-7.812,47.852,59.082,5.371,57.617,0
1553632066.776,-5.859,43.457,58.105,-7.812,135.742,0
1553632066.780,-31.738,39.551,50.781,-23.438,96.191,0
1553632066.783,-28.809,44.922,45.898,-30.762,58.594,0
1553632066.787,-28.809,52.246,36.621,-19.043,46.875,0
1553632066.791,-34.668,44.922,41.504,-24.414,66.406,0
1553632066.795,-65.430,40.527,41.016,-47.363,94.727,0
1553632066.799,-99.609,43.457,53.711,-66.406,54.199,0
1553632066.803,-125.488,39.551,83.496,-85.449,14.648,0
1553632066.807,-129.883,41.992,87.402,-97.168,12.695,0
1553632066.811,-107.910,37.109,76.660,-106.445,14.160,0
1553632066.815,-107.910,20.508,63.477,-95.703,16.602,0
1553632066.819,-114.258,29.785,53.223,-91.797,73.242,0
1553632066.822,-96.680,41.992,25.879,-87.402,56.641,0
1553632066.826,-67.871,40.527,19.531,-76.660,20.020,0
1553632066.830,-78.613,30.762,58.594,-71.777,-18.555,0
1553632066.834,-81.055,29.297,77.637,-63.477,-36.133,0
1553632066.838,-76.172,42.480,89.355,-49.316,-19.043,0
1553632066.842,-69.336,35.156,88.379,-38.086,-29.785,0
1553632066.846,-39.551,17.578,62.500,-51.270,3.418,0
1553632066.850,-31.738,19.531,43.457,-32.715,25.879,0
1553632066.854,-26.855,33.691,43.457,1.465,-0.488,0
1553632066.858,8.301,40.039,43.457,-1.953,34.180,0
1553632066.862,0.488,40.527,43.945,15.137,60.547,0
1553632066.865,-23.438,37.109,42.969,29.785,25.391,0
1553632066.869,3.906,31.738,29.785,35.156,63.477,0
1553632066.873,16.113,37.598,17.578,44.434,16.602,0
1553632066.877,20.996,25.879,18.555,46.875,6.836,0
1553632066.881,41.504,9.766,17.578,52.734,67.383,0
1553632066.885,56.152,17.090,16.602,48.828,23.926,0
1553632066.889,60.547,28.320,19.531,50.293,2.930,0
1553632066.893,67.871,29.785,17.090,70.801,-31.250,0
1553632066.897,73.242,31.250,8.301,91.309,3.906,0
1553632066.901,97.656,34.668,1.465,88.379,37.598,0
1553632066.905,104.004,33.203,13.184,72.754,-2.930,0
1553632066.908,61.523,25.391,29.785,59.570,35.156,0
1553632066.912,44.922,17.090,29.785,59.570,49.805,0
1553632066.916,70.312,13.184,24.902,83.008,7.812,0
1553632066.920,74.219,13.184,20.996,83.496,61.035,0
1553632066.924,72.754,20.508,11.719,79.590,77.148,0
1553632066.928,61.035,25.879,9.277,86.426,47.363,0
1553632066.932,40.039,33.691,12.207,68.848,26.367,0
1553632066.936,56.641,33.691,3.418,66.406,-5.859,0
1553632066.940,69.336,28.809,2.930,60.547,42.969,0
1553632066.944,68.848,32.227,11.719,55.664,70.312,0
1553632066.947,61.523,32.715,15.137,58.105,38.574,0
1553632066.951,69.336,33.691,19.043,62.012,40.039,0
1553632066.955,67.871,39.062,26.367,82.520,82.031,0
1553632066.959,63.965,44.434,36.133,71.777,73.730,0
1553632066.963,54.688,36.133,35.645,44.922,50.781,0
1553632066.967,28.320,26.367,30.273,43.457,56.152,0
1553632066.971,31.250,20.996,29.785,38.574,7.812,0
1553632066.975,18.555,12.695,24.902,33.203,38.574,0
1553632066.979,-2.930,15.625,19.531,55.664,38.086,0
1553632066.983,2.930,24.902,21.484,40.527,-15.625,0
1553632066.987,30.273,29.785,27.344,11.230,24.414,0
1553632066.990,26.367,39.062,24.902,31.738,11.719,0
1553632066.994,-4.883,34.180,21.973,44.922,42.480,0
1553632066.998,21.973,27.344,32.227,35.645,60.059,0
1553632067.002,39.062,29.785,32.715,28.809,0.488,0
1553632067.006,0.977,29.785,25.391,30.273,-35.645,0
1553632067.010,-9.766,33.691,26.367,31.250,6.348,0
1553632067.014,2.441,41.016,27.832,23.926,41.504,0
1553632067.018,-3.906,41.016,33.691,15.137,47.363,0
1553632067.022,-14.160,42.480,42.480,2.930,49.805,0
1553632067.026,-27.344,46.875,49.805,-20.508,43.457,0
1553632067.030,-38.574,45.898,49.805,-25.391,40.039,0
1553632067.033,-39.062,37.598,39.551,-19.043,26.367,0
1553632067.037,-49.805,35.645,42.969,-35.645,79.590,0
1553632067.041,-57.617,41.016,49.316,-53.711,61.035,0
1553632067.045,-43.945,37.598,48.828,-49.805,9.277,0
1553632067.049,-32.715,38.086,47.363,-23.438,5.859,0
1553632067.053,-54.688,52.734,45.410,-32.227,25.391,0
1553632067.057,-68.359,62.012,41.016,-42.969,40.527,0
1553632067.061,-42.969,57.617,29.785,-13.672,13.672,0
1553632067.065,-45.410,39.062,26.855,-3.418,35.645,0
1553632067.069,-57.617,22.461,49.316,-1.465,32.227,0
1553632067.072,-50.293,24.414,61.035,9.277,-10.742,0
1553632067.076,-12.207,37.598,53.223,18.066,67.383,0
1553632067.080,36.621,36.621,45.410,37.598,111.328,0
1553632067.084,55.176,16.113,32.227,50.293,83.496,0
1553632067.088,55.664,10.254,14.648,60.059,87.891,0
1553632067.092,75.684,32.227,6.348,67.871,57.617,0
1553632067.096,87.402,53.711,5.859,79.590,13.184,0
1553632067.100,69.824,54.688,17.090,79.102,-1.465,0
1553632067.104,69.336,48.340,25.391,61.523,-38.574,0
1553632067.108,85.938,33.203,19.531,67.383,-3.906,0
1553632067.112,91.797,16.602,12.695,84.473,20.020,0
1553632067.115,107.910,15.137,15.625,102.051,9.766,0
1553632067.119,93.750,17.090,15.625,101.074,39.551,0
1553632067.123,65.430,20.508,10.742,104.980,58.594,0
1553632067.127,71.777,29.785,7.324,103.027,70.312,0
1553632067.131,87.402,18.555,2.930,70.801,17.578,0
1553632067.135,96.191,8.301,6.348,66.895,48.340,0
1553632067.139,101.562,21.973,6.836,84.961,127.441,0
1553632067.143,75.195,33.691,7.812,82.031,66.406,0
1553632067.147,50.781,29.785,14.160,79.102,26.367,0
1553632067.151,74.707,13.672,15.625,95.215,37.598,0
1553632067.155,91.309,15.137,9.766,104.980,15.625,0
1553632067.158,92.773,32.715,6.348,88.867,23.926,0
1553632067.162,90.332,41.504,7.812,76.660,100.098,0
1553632067.166,102.051,38.086,10.254,83.984,41.016,0
1553632067.170,106.934,34.668,8.301,84.961,9.766,0
1553632067.174,92.285,35.156,4.395,98.145,56.152,0
1553632067.178,104.980,19.043,6.836,99.609,38.574,0
1553632067.182,135.742,5.859,11.719,98.633,40.527,0
1553632067.186,100.586,31.738,20.508,100.098,52.734,0
1553632067.190,76.660,43.945,25.391,65.918,14.160,0
1553632067.194,82.520,28.809,17.578,54.688,37.598,0
1553632067.197,53.223,27.832,4.395,72.754,58.105,0
1553632067.201,80.566,35.156,6.836,86.426,14.648,0
1553632067.205,122.559,35.156,12.207,99.121,33.691,0
1553632067.209,96.191,33.203,11.230,97.168,38.574,0
1553632067.213,57.617,35.156,16.602,67.383,60.059,0
1553632067.217,65.918,44.434,16.602,61.523,55.664,0
1553632067.221,64.941,47.852,19.043,74.707,7.812,0
1553632067.225,42.480,42.480,26.367,82.031,26.367,0
1553632067.229,45.410,31.250,14.648,78.125,94.238,0
1553632067.233,46.875,18.066,9.277,60.547,90.820,0
1553632067.237,39.551,0.977,12.207,62.012,34.180,0
1553632067.240,40.527,7.812,15.625,74.707,13.672,0
1553632067.244,33.691,30.762,27.344,69.336,18.555,0
1553632067.248,24.902,37.598,33.203,55.664,35.645,0
1553632067.252,57.617,46.875,24.902,56.152,8.301,0
1553632067.256,36.621,38.574,14.160,64.941,30.762,0
1553632067.260,13.184,29.785,10.254,61.523,46.387,0
1553632067.264,39.062,34.668,11.719,53.223,-28.320,0
1553632067.268,41.504,35.156,11.230,55.176,-28.809,0
1553632067.272,35.156,33.203,4.395,70.801,14.160,0
1553632067.276,43.457,28.320,6.348,72.266,-4.395,0
1553632067.280,42.969,29.297,12.207,50.781,22.949,0
1553632067.283,46.387,35.156,10.254,53.711,36.133,0
1553632067.287,36.621,35.645,9.277,70.801,-7.324,0
1553632067.291,43.945,15.625,14.160,79.102,22.461,0
1553632067.295,76.660,9.766,21.484,79.590,71.289,0
1553632067.299,65.430,21.484,20.508,75.684,54.688,0
1553632067.303,37.598,24.414,19.531,67.383,5.371,0
1553632067.307,52.734,24.414,-0.488,63.477,3.418,0
1553632067.311,62.012,31.738,-22.461,61.035,18.555,0
1553632067.315,26.367,44.922,7.324,49.316,99.609,0
1553632067.319,27.832,51.270,21.484,62.500,174.805,0
1553632067.322,40.039,50.293,21.973,65.430,72.754,0
1553632067.326,10.254,40.527,42.480,40.039,-16.113,0
1553632067.330,-18.555,33.691,42.969,48.340,13.672,0
1553632067.334,5.859,33.203,32.227,56.152,61.523,0
1553632067.338,30.273,17.578,27.832,54.199,45.898,0
1553632067.342,24.414,7.324,31.738,48.340,2.441,0
1553632067.346,11.719,26.367,32.227,52.734,-1.465,0
1553632067.350,3.418,34.668,29.785,62.500,27.344,0
1553632067.354,-14.648,35.645,28.809,28.809,10.742,0
1553632067.358,-3.418,38.086,22.949,9.766,-50.781,0
1553632067.362,14.648,28.320,18.555,33.691,-20.996,0
1553632067.365,0.000,18.555,16.113,54.688,37.598,0
1553632067.369,-0.977,27.832,6.348,65.918,44.434,0
1553632067.373,-0.488,33.203,-12.695,54.688,75.195,0
1553632067.377,4.883,36.133,-4.883,40.039,74.707,0
1553632067.381,-4.883,42.969,21.484,34.180,46.875,0
1553632067.385,-20.996,48.340,25.391,28.809,70.801,0
1553632067.389,-18.555,42.480,28.320,28.809,72.266,0
1553632067.393,-32.227,27.344,35.156,31.738,49.805,0
1553632067.397,-41.016,14.160,33.691,32.227,41.504,0
1553632067.401,-42.969,18.066,27.344,31.250,16.113,0
1553632067.405,-45.410,32.227,21.973,32.715,-6.348,0
1553632067.408,-28.809,37.598,25.879,39.062,17.578,0
1553632067.412,-31.738,41.992,22.949,48.340,30.273,0
1553632067.416,-33.691,42.969,21.484,49.805,22.949,0
1553632067.420,-27.832,35.156,17.090,45.898,30.273,0
1553632067.424,-23.438,30.273,15.625,40.039,17.578,0
1553632067.428,-40.527,26.367,25.879,13.184,21.973,0
1553632067.432,-60.547,26.367,29.297,6.836,-5.371,0
1553632067.436,-62.012,28.809,30.273,18.555,-32.715,0
1553632067.440,-70.312,32.227,26.367,0.000,-9.766,0
1553632067.444,-43.457,33.691,24.414,4.883,23.438,0
1553632067.447,-29.785,37.598,22.949,43.457,26.855,0
1553632067.451,-51.270,41.504,22.461,28.320,17.090,0
1553632067.455,-43.945,39.062,25.391,7.324,3.906,0
1553632067.459,-30.273,27.832,31.250,18.555,30.762,0
1553632067.463,-26.367,16.113,35.156,18.555,27.344,0
1553632067.467,-45.410,20.508,33.691,22.461,29.785,0
1553632067.471,-55.664,34.668,30.762,28.809,66.895,0
1553632067.475,-53.223,43.945,28.320,26.855,35.156,0
1553632067.479,-34.668,47.852,34.180,26.855,-14.648,0
1553632067.483,-26.367,53.223,41.992,20.996,20.508,0
1553632067.487,-32.715,52.246,42.480,-0.977,25.391,0
1553632067.490,-42.480,41.016,40.527,-7.812,0.977,0
1553632067.494,-45.898,33.691,40.039,-6.836,25.879,0
1553632067.498,-66.895,38.086,36.133,1.465,61.035,0
1553632067.502,-92.285,45.410,32.227,-2.441,77.637,0
1553632067.506,-77.637,50.293,38.086,-14.648,92.773,0
1553632067.510,-65.430,54.199,37.598,-28.809,98.145,0
1553632067.514,-68.359,61.035,27.832,-43.945,59.570,0
1553632067.518,-94.238,66.406,30.273,-54.199,54.688,0
1553632067.522,-105.469,61.035,51.270,-53.711,45.898,0
1553632067.526,-133.301,43.457,66.406,-52.734,49.316,0
1553632067.530,-135.742,32.227,67.871,-83.984,88.867,0
1553632067.533,-113.770,34.180,60.547,-83.984,41.016,0
1553632067.537,-108.887,46.387,41.992,-65.430,16.113,0
1553632067.541,-126.953,65.430,35.156,-71.777,45.410,0
1553632067.545,-113.281,59.570,42.480,-79.102,33.203,0
1553632067.549,-87.891,41.504,41.992,-77.637,2.441,0
1553632067.553,-98.145,40.039,41.992,-78.613,28.809,0
1553632067.557,-89.844,48.340,44.922,-78.125,47.852,0
1553632067.561,-98.145,50.781,38.574,-62.500,71.777,0
1553632067.565,-88.867,44.434,32.227,-51.758,34.180,0
1553632067.569,-64.941,39.062,33.691,-27.344,20.996,0
1553632067.572,-43.945,43.457,29.297,7.812,37.109,0
1553632067.576,-36.133,42.969,8.301,21.973,-14.160,0
1553632067.580,-21.973,32.715,11.719,18.066,19.531,0
1553632067.584,-8.789,38.574,34.668,24.414,1.953,0
1553632067.588,-6.836,46.387,44.434,30.762,12.207,0
1553632067.592,-16.113,38.574,44.434,25.879,28.809,0
1553632067.596,-4.395,15.137,38.086,29.297,0.000,0
1553632067.600,2.930,2.930,28.320,47.852,0.000,0
1553632067.604,1.465,21.484,18.555,61.523,-11.230,0
1553632067.608,13.672,38.574,11.719,66.895,33.691,0
1553632067.612,21.484,36.133,14.648,73.242,51.758,0
1553632067.615,35.645,29.297,17.090,87.891,38.086,0
1553632067.619,51.758,27.832,10.254,92.285,1.465,0
1553632067.623,32.227,20.508,8.301,92.773,-28.809,0
1553632067.627,24.902,2.930,16.602,73.730,17.578,0
1553632067.631,57.617,-14.648,17.578,63.965,42.480,0
1553632067.635,53.223,-5.859,3.418,75.195,-5.371,0
1553632067.639,53.711,26.367,0.977,78.613,-5.859,0
1553632067.643,54.199,48.828,1.953,84.473,33.203,0
1553632067.647,67.383,51.270,-3.906,91.797,54.199,0
1553632067.651,78.125,44.434,16.113,76.172,80.566,0
1553632067.655,43.945,26.367,36.621,81.543,41.992,0
1553632067.658,35.156,12.695,36.621,95.215,14.160,0
1553632067.662,28.320,13.672,26.855,80.566,12.207,0
1553632067.666,31.250,20.020,18.555,67.383,18.066,0
1553632067.670,35.645,25.879,14.160,59.570,41.992,0
1553632067.674,52.734,31.250,13.184,80.566,14.160,0
1553632067.678,75.684,31.250,9.766,92.285,-0.977,0
1553632067.682,59.082,33.691,12.695,78.613,39.062,0
1553632067.686,62.012,38.086,14.648,80.078,64.941,0
1553632067.690,48.340,33.203,9.277,84.961,65.918,0
1553632067.694,10.742,23.438,16.113,76.172,38.086,0
1553632067.697,-4.883,21.484,23.926,60.547,-6.348,0
1553632067.701,27.344,24.902,24.414,59.082,20.996,0
1553632067.705,65.430,22.949,24.414,83.984,74.707,0
1553632067.709,56.641,18.066,27.344,98.145,44.922,0
1553632067.713,27.344,11.719,29.297,74.219,-10.254,0
1553632067.717,5.859,6.348,35.156,68.359,-39.062,0
1553632067.721,35.645,-0.977,34.180,69.336,-39.551,0
1553632067.725,52.734,-10.254,27.832,55.176,63.477,0
1553632067.729,34.668,-10.742,20.996,63.477,73.730,0
1553632067.733,42.480,-6.836,17.090,71.289,41.504,0
1553632067.737,36.621,1.953,9.766,69.824,54.688,0
1553632067.740,40.527,6.348,3.906,83.984,35.645,0
1553632067.744,27.832,2.441,10.742,85.938,88.379,0
1553632067.748,39.551,0.000,22.949,86.914,139.648,0
1553632067.752,58.594,-13.184,20.020,77.148,88.379,0
1553632067.756,40.527,-13.672,17.090,80.078,54.688,0
1553632067.760,43.457,4.395,21.484,83.008,21.973,0
1553632067.764,34.180,10.254,17.578,61.035,17.090,0
1553632067.768,13.672,1.465,16.113,65.430,48.828,0
1553632067.772,35.156,-7.812,21.484,65.918,20.996,0
1553632067.776,42.480,-0.977,29.297,60.547,-9.766,0
1553632067.780,33.203,9.766,30.762,69.336,20.020,0
1553632067.783,46.387,18.066,29.297,71.777,28.809,0
1553632067.787,31.250,13.184,30.762,76.172,53.223,0
1553632067.791,23.438,6.348,11.230,78.613,38.086,0
1553632067.795,32.715,21.973,-3.906,84.961,45.898,0
1553632067.799,48.828,14.160,5.371,85.938,82.031,0
1553632067.803,44.434,-11.719,18.555,80.566,74.707,0
1553632067.807,34.180,-1.953,25.391,60.059,49.805,0
1553632067.811,33.203,23.926,23.438,40.039,9.766,0
1553632067.815,35.645,34.668,24.414,51.270,4.883,0
1553632067.819,36.621,37.598,18.066,60.059,29.785,0
1553632067.822,37.109,32.227,14.160,73.730,20.996,0
1553632067.826,40.039,20.996,23.438,63.477,12.695,0
1553632067.830,39.062,15.625,21.973,43.945,28.809,0
1553632067.834,35.645,20.020,15.625,55.176,13.672,0
1553632067.838,35.645,25.879,13.672,73.242,-14.160,0
1553632067.842,11.719,22.461,23.926,77.637,-17.090,0
1553632067.846,0.977,20.020,32.715,53.223,61.523,0
1553632067.850,20.020,14.160,27.832,40.039,44.922,0
1553632067.854,55.176,1.953,13.184,53.711,46.875,0
1553632067.858,54.688,4.883,3.418,46.387,76.172,0
1553632067.862,22.461,20.508,-0.488,43.457,16.602,0
1553632067.865,8.789,19.531,6.836,66.406,-1.465,0
1553632067.869,0.488,14.648,19.531,62.012,-6.836,0
1553632067.873,22.461,9.766,22.461,52.734,10.742,0
1553632067.877,31.250,-0.977,26.367,55.176,31.738,0
1553632067.881,32.715,-0.488,31.250,62.012,1.953,0
1553632067.885,40.527,8.789,24.414,58.594,38.086,0
1553632067.889,34.180,16.113,9.277,51.758,58.105,0
1553632067.893,43.457,20.996,3.906,46.387,31.738,0
1553632067.897,47.363,21.484,6.348,41.504,23.926,0
1553632067.901,27.344,15.625,14.648,42.480,28.809,0
1553632067.905,2.930,5.371,25.879,31.250,56.641,0
1553632067.908,4.883,2.930,23.926,33.691,92.285,0
1553632067.912,31.738,2.441,20.020,46.387,96.191,0
1553632067.916,38.574,-3.906,21.973,62.500,30.273,0
1553632067.920,21.484,-10.254,20.508,59.082,9.766,0
1553632067.924,16.602,-5.859,17.090,41.992,73.730,0
1553632067.928,27.344,10.742,13.672,43.945,29.297,0
1553632067.932,32.227,25.391,7.812,40.527,-2.441,0
1553632067.936,43.457,26.367,4.883,39.062,18.066,0
1553632067.940,48.340,15.137,5.371,35.645,19.531,0
1553632067.944,30.762,7.812,15.137,39.551,26.367,0
1553632067.947,2.930,5.371,21.973,52.734,20.508,0
1553632067.951,9.766,9.766,15.137,48.340,38.574,0
1553632067.955,29.297,6.836,8.301,50.293,41.504,0
1553632067.959,39.551,-9.766,11.230,45.410,44.434,0
1553632067.963,37.598,-27.832,21.973,47.363,55.664,0
1553632067.967,8.301,-15.625,25.879,54.199,43.457,0
1553632067.971,10.254,26.367,15.137,49.316,25.879,0
1553632067.975,31.738,43.945,11.230,47.363,-7.812,0
1553632067.979,25.391,34.668,22.949,41.992,-41.504,0
1553632067.983,15.625,29.785,29.297,51.758,-1.953,0
1553632067.987,42.480,23.926,30.273,66.895,14.160,0
1553632067.990,34.180,17.090,30.762,57.129,47.363,0
1553632067.994,16.602,19.043,23.926,41.504,72.754,0
1553632067.998,49.805,22.461,12.695,39.062,44.922,0
1553632068.002,59.570,24.414,12.695,50.781,33.203,0
1553632068.006,60.547,21.973,13.672,49.316,78.613,0
1553632068.010,33.691,23.438,12.207,44.434,51.758,0
1553632068.014,-3.418,21.973,10.254,37.598,2.441,0
1553632068.018,-2.930,18.066,1.953,22.949,26.855,0
1553632068.022,-14.648,14.160,1.465,46.387,20.508,0
1553632068.026,7.812,9.277,14.160,56.152,-12.207,0
1553632068.030,35.645,8.789,19.531,45.898,-50.293,0
1553632068.033,37.109,8.301,13.184,54.199,-18.555,0
1553632068.037,47.852,0.488,12.207,57.617,10.742,0
1553632068.041,56.152,-13.184,19.531,68.848,2.930,0
1553632068.045,53.223,-24.902,23.438,70.312,45.410,0
1553632068.049,27.832,-36.133,24.902,48.828,73.730,0
1553632068.053,26.855,-45.898,27.344,41.016,47.363,0
1553632068.057,21.484,-58.594,21.973,44.434,-15.625,0
1553632068.061,20.996,-74.219,11.230,54.688,3.906,0
1553632068.065,35.645,-67.383,12.695,62.988,62.988,0
1553632068.069,23.926,-43.945,17.578,73.242,27.344,0
1553632068.072,34.180,-34.180,16.602,78.125,7.812,0
1553632068.076,38.086,-35.156,24.902,54.688,28.320,0
1553632068.080,19.043,-38.086,28.320,38.574,-2.930,0
1553632068.084,28.320,-45.410,20.508,45.410,13.672,0
1553632068.088,30.273,-51.270,19.531,52.734,35.645,0
1553632068.092,39.062,-50.293,24.414,46.387,27.344,0
1553632068.096,29.297,-45.410,21.484,55.664,41.016,0
1553632068.100,36.133,-47.852,16.113,57.617,83.008,0
1553632068.104,32.227,-50.781,20.996,47.363,106.934,0
1553632068.108,27.344,-45.410,26.855,33.203,91.309,0
1553632068.112,31.738,-46.875,12.207,39.551,109.863,0
1553632068.115,34.668,-44.922,-13.184,60.547,37.109,0
1553632068.119,39.551,-45.410,-8.789,59.082,25.879,0
1553632068.123,48.340,-54.199,15.625,44.434,89.355,0
1553632068.127,35.645,-39.551,38.574,43.457,29.297,0
1553632068.131,11.719,-25.391,40.527,57.129,56.641,0
1553632068.135,30.762,-24.902,35.156,65.430,78.125,0
1553632068.139,30.762,-20.996,38.086,64.941,23.438,0
1553632068.143,20.996,-23.438,32.715,42.480,62.500,0
1553632068.147,17.578,-39.062,26.367,28.809,50.293,0
1553632068.151,12.695,-44.434,21.973,49.805,-21.973,0
1553632068.155,28.809,-35.156,22.949,62.988,-7.324,0
1553632068.158,48.828,-29.785,31.250,43.457,46.387,0
1553632068.162,33.691,-26.367,36.133,46.387,54.688,0
1553632068.166,18.066,-27.832,40.039,62.012,47.852,0
1553632068.170,19.531,-31.250,41.504,50.293,14.648,0
1553632068.174,16.113,-29.785,32.227,24.414,-7.812,0
1553632068.178,30.762,-25.391,25.391,28.320,34.668,0
1553632068.182,51.270,-25.391,19.043,50.293,46.875,0
1553632068.186,30.762,-24.414,0.488,68.848,22.461,0
1553632068.190,29.297,-21.973,1.953,61.035,12.695,0
1553632068.194,48.340,-22.461,27.344,39.551,50.293,0
1553632068.197,61.523,-26.367,16.602,43.457,74.219,0
1553632068.201,55.664,-48.828,18.555,53.711,92.773,0
1553632068.205,23.926,-65.918,52.246,58.105,52.734,0
1553632068.209,15.137,-41.016,46.875,55.176,-17.090,0
1553632068.213,-0.488,-11.719,36.621,41.504,28.809,0
1553632068.217,-15.625,1.465,50.293,44.434,27.344,0
1553632068.221,11.230,6.836,61.523,55.176,8.301,0
1553632068.225,20.508,5.859,62.012,51.270,54.688,0
1553632068.229,16.602,2.930,59.082,43.457,89.355,0
1553632068.233,18.555,-5.371,52.734,30.273,59.570,0
1553632068.237,2.930,-7.812,49.316,28.320,14.648,0
1553632068.240,10.254,1.953,49.805,27.832,-0.977,0
1553632068.244,6.836,11.230,41.992,37.598,69.824,0
1553632068.248,-13.672,15.625,35.645,46.875,91.309,0
1553632068.252,-17.578,21.973,42.480,48.828,46.387,0
1553632068.256,-1.953,21.973,50.781,42.480,32.715,0
1553632068.260,14.160,20.996,59.082,46.875,85.938,0
1553632068.264,-20.020,24.414,61.035,46.875,36.133,0
1553632068.268,-14.648,24.902,57.617,53.223,10.742,0
1553632068.272,23.926,27.832,57.129,56.152,38.086,0
1553632068.276,33.203,33.203,45.898,49.805,-20.996,0
1553632068.280,19.043,31.738,41.016,42.969,31.250,0
1553632068.283,15.625,35.156,41.992,39.062,66.895,0
1553632068.287,18.066,33.691,42.480,40.039,5.371,0
1553632068.291,22.461,35.156,47.852,32.227,19.043,0
1553632068.295,41.016,46.387,55.664,35.156,58.105,0
1553632068.299,26.367,36.621,64.453,33.203,51.758,0
1553632068.303,13.184,24.414,66.895,39.551,6.836,0
1553632068.307,-8.301,31.738,61.523,39.062,19.043,0
1553632068.311,-16.113,45.410,51.758,24.414,49.805,0
1553632068.315,-6.836,57.129,35.156,8.301,0.000,0
1553632068.319,-27.344,59.082,26.367,-2.441,-6.348,0
1553632068.322,-35.156,63.477,29.785,-21.973,-10.254,0
1553632068.326,-42.969,77.148,38.086,-40.527,-18.066,0
1553632068.330,-63.965,73.242,45.410,-44.434,-23.926,0
1553632068.334,-74.707,56.641,34.668,-68.359,-16.113,0
1553632068.338,-88.867,62.988,26.855,-73.242,7.812,0
1553632068.342,-116.211,76.660,34.180,-71.777,11.230,0
1553632068.346,-132.324,93.750,28.809,-101.562,6.348,0
1553632068.350,-151.367,100.586,14.648,-125.488,16.113,0
1553632068.354,-167.969,84.473,28.320,-135.742,27.832,0
1553632068.358,-175.293,73.730,46.875,-150.879,60.059,0
1553632068.362,-157.715,65.918,51.270,-145.020,46.387,0
1553632068.365,-162.598,65.918,45.410,-134.277,30.762,0
1553632068.369,-155.762,76.660,31.250,-125.488,53.223,0
1553632068.373,-115.234,81.055,23.438,-91.797,40.527,0
1553632068.377,-88.867,91.797,27.344,-79.102,84.961,0
1553632068.381,-104.004,87.891,40.039,-100.586,108.887,0
1553632068.385,-107.910,62.988,43.945,-98.145,98.145,0
1553632068.389,-107.422,65.430,48.340,-70.801,80.566,0
1553632068.393,-120.117,84.473,51.758,-62.012,2.930,0
1553632068.397,-86.914,82.031,45.898,-59.570,2.441,0
1553632068.401,-77.637,67.383,41.992,-50.293,32.227,0
1553632068.405,-76.172,61.523,45.898,-29.297,47.852,0
1553632068.408,-40.039,54.688,44.434,-1.953,71.289,0
1553632068.412,-62.988,38.574,36.621,4.395,59.570,0
1553632068.416,-69.336,36.621,34.180,6.348,37.598,0
1553632068.420,-47.852,54.688,36.621,24.902,52.734,0
1553632068.424,-60.059,62.988,38.574,41.016,-5.859,0
1553632068.428,-15.625,57.129,46.875,45.410,15.625,0
1553632068.432,18.555,50.293,46.387,52.734,131.348,0
1553632068.436,5.859,47.363,42.969,61.523,51.758,0
1553632068.440,5.371,41.016,48.340,69.336,48.828,0
1553632068.444,24.414,31.250,54.199,69.824,3.906,0
1553632068.447,26.367,29.785,40.039,68.848,-23.438,0
1553632068.451,24.414,31.250,17.578,95.703,45.410,0
1553632068.455,25.391,33.203,24.902,98.633,57.129,0
1553632068.459,47.363,41.504,39.551,95.703,85.938,0
1553632068.463,58.105,45.410,40.039,106.934,59.082,0
1553632068.467,33.203,41.992,40.527,114.258,31.250,0
1553632068.471,35.156,41.992,44.922,100.098,5.859,0
1553632068.475,60.547,48.340,37.598,84.961,-2.441,0
1553632068.479,75.684,47.852,31.738,89.355,-2.441,0
1553632068.483,81.543,46.387,28.809,96.191,40.527,0
1553632068.487,88.867,48.340,28.809,103.027,46.387,0
1553632068.490,97.656,43.457,29.785,106.445,33.691,0
1553632068.494,73.242,45.410,21.973,109.375,93.750,0
1553632068.498,54.688,46.387,26.367,99.121,109.375,0
1553632068.502,88.379,44.434,41.504,91.309,19.531,0
1553632068.506,65.430,49.316,44.922,92.285,-42.480,0
1553632068.510,34.180,38.086,42.969,83.496,-31.738,0
1553632068.514,39.062,22.949,46.387,86.914,15.137,0
1553632068.518,41.016,41.992,33.203,76.660,46.387,0
1553632068.522,43.945,45.410,23.926,63.965,6.836,0
1553632068.526,48.340,29.785,21.973,68.848,8.301,0
1553632068.530,50.781,47.852,2.441,76.172,12.207,0
1553632068.533,48.340,63.477,3.418,71.777,30.273,0
1553632068.537,33.691,61.035,28.320,58.594,43.945,0
1553632068.541,28.320,55.664,43.945,51.270,48.828,0
1553632068.545,37.109,51.758,47.852,48.340,11.230,0
1553632068.549,44.922,51.270,32.227,42.480,-45.410,0
1553632068.553,48.828,50.293,22.949,60.059,-5.859,0
1553632068.557,47.363,41.016,18.066,69.336,42.969,0
1553632068.561,51.758,41.504,6.836,62.988,8.789,0
1553632068.565,52.734,45.898,19.043,55.176,64.453,0
1553632068.569,46.875,49.805,35.156,57.129,34.180,0
1553632068.572,50.781,39.551,44.922,63.477,-12.695,0
1553632068.576,64.453,32.715,53.223,53.711,32.227,0
1553632068.580,38.574,44.922,55.664,57.129,23.438,0
1553632068.584,18.555,49.805,47.852,60.059,-7.324,0
1553632068.588,33.691,47.852,13.184,63.477,44.922,0
1553632068.592,36.133,54.199,-0.488,62.988,4.395,0
1553632068.596,48.828,59.082,29.297,56.152,-1.465,0
1553632068.600,48.828,47.363,54.199,60.059,71.777,0
1553632068.604,38.574,44.922,59.570,67.871,53.223,0
1553632068.608,24.902,32.715,54.199,49.805,43.457,0
1553632068.612,28.809,20.508,49.805,35.156,24.902,0
1553632068.615,35.156,21.973,42.480,43.945,42.480,0
1553632068.619,19.043,34.180,28.809,60.059,109.863,0
1553632068.623,32.227,61.523,23.438,68.359,66.406,0
1553632068.627,46.875,80.078,16.113,61.035,28.809,0
1553632068.631,35.156,69.824,15.137,62.988,33.203,0
1553632068.635,28.320,55.664,29.297,51.758,-22.949,0
1553632068.639,35.156,45.898,38.574,41.992,-4.883,0
1553632068.643,40.039,36.133,41.016,53.223,17.090,0
1553632068.647,26.367,34.668,24.414,55.664,-25.879,0
1553632068.651,16.602,37.109,19.531,56.152,-15.137,0
1553632068.655,30.273,48.340,40.527,69.336,42.480,0
1553632068.658,48.828,56.641,50.293,76.660,103.027,0
1553632068.662,48.828,54.688,46.875,46.387,82.031,0
1553632068.666,16.602,47.363,41.016,32.227,44.922,0
1553632068.670,8.789,41.504,34.668,33.203,52.246,0
1553632068.674,23.438,45.898,21.973,36.621,52.246,0
1553632068.678,15.137,49.805,-0.488,34.180,35.156,0
1553632068.682,2.930,48.828,-13.184,14.160,60.547,0
1553632068.686,2.930,38.574,13.672,8.301,32.227,0
1553632068.690,-2.441,32.227,37.109,13.672,-32.715,0
1553632068.694,-14.648,41.016,29.297,14.648,-19.043,0
1553632068.697,-3.418,33.691,33.203,10.254,31.738,0
1553632068.701,2.930,29.297,41.016,5.371,12.207,0
1553632068.705,-1.953,38.086,43.945,8.301,2.441,0
1553632068.709,10.254,42.969,46.387,16.113,83.008,0
1553632068.713,-4.883,45.898,40.527,8.789,76.660,0
1553632068.717,-12.207,37.598,28.320,27.344,20.508,0
1553632068.721,14.648,30.762,15.625,55.664,42.480,0
1553632068.725,20.508,34.180,21.973,35.645,62.500,0
1553632068.729,24.902,36.133,40.039,20.996,79.102,0
1553632068.733,38.086,40.039,44.922,36.133,106.934,0
1553632068.737,26.367,41.504,44.922,46.875,67.871,0
1553632068.740,21.973,33.691,41.504,44.434,26.367,0
1553632068.744,25.879,16.602,41.504,36.621,35.645,0
1553632068.748,22.949,15.137,39.062,29.297,27.832,0
1553632068.752,27.344,33.203,31.738,29.785,24.902,0
1553632068.756,15.137,39.551,29.785,34.180,61.035,0
1553632068.760,24.902,41.016,29.297,42.480,-10.254,0
1553632068.764,35.645,37.109,27.832,51.758,-41.016,0
1553632068.768,30.762,33.203,15.625,58.105,-2.441,0
1553632068.772,49.805,36.621,6.836,65.918,41.016,0
1553632068.776,45.410,23.926,1.465,57.617,19.043,0
1553632068.780,29.785,18.066,1.465,48.340,-5.371,0
1553632068.783,37.109,29.785,27.832,50.293,30.273,0
1553632068.787,27.832,42.480,42.480,59.570,25.391,0
1553632068.791,24.902,52.734,30.273,55.176,17.578,0
1553632068.795,43.457,52.246,37.109,45.898,55.176,0
1553632068.799,44.922,41.992,43.945,65.918,62.012,0
1553632068.803,25.879,41.016,33.203,74.219,52.734,0
1553632068.807,30.273,39.551,31.250,51.758,90.332,0
1553632068.811,49.316,31.250,34.668,50.781,65.430,0
1553632068.815,41.016,28.320,38.086,48.340,35.156,0
1553632068.819,20.020,35.156,38.086,37.109,71.289,0
1553632068.822,32.715,37.109,34.668,47.852,45.898,0
1553632068.826,53.223,28.320,30.762,61.035,25.879,0
1553632068.830,52.246,31.250,33.691,74.707,48.828,0
1553632068.834,59.570,47.363,39.551,77.637,79.102,0
1553632068.838,58.105,38.574,38.086,63.965,50.781,0
1553632068.842,46.387,18.066,36.621,64.453,20.508,0
1553632068.846,34.180,24.902,40.527,61.035,27.832,0
1553632068.850,36.621,41.992,31.738,52.246,37.598,0
1553632068.854,38.574,51.270,17.578,59.570,37.109,0
1553632068.858,29.785,49.316,25.391,50.293,-2.930,0
1553632068.862,30.762,49.805,24.414,38.086,43.457,0
1553632068.865,42.480,52.246,11.719,51.270,105.469,0
1553632068.869,50.293,47.363,19.043,73.242,74.707,0
1553632068.873,51.270,34.180,41.016,74.219,76.172,0
1553632068.877,47.363,22.949,58.594,71.289,110.840,0
1553632068.881,35.156,28.809,60.059,66.406,53.223,0
1553632068.885,39.551,46.875,44.922,71.777,-17.578,0
1553632068.889,48.828,30.762,36.621,95.215,-19.531,0
1553632068.893,58.105,7.812,41.992,87.891,5.371,0
1553632068.897,61.523,30.762,39.062,68.359,1.465,0
1553632068.901,59.570,53.711,25.879,67.383,1.953,0
1553632068.905,47.852,52.246,23.438,74.707,29.785,0
1553632068.908,37.598,47.852,29.297,76.172,56.641,0
1553632068.912,45.898,45.410,30.762,75.195,51.270,0
1553632068.916,52.734,47.363,25.391,78.613,34.668,0
1553632068.920,41.992,52.734,22.949,86.426,65.430,0
1553632068.924,35.645,50.781,35.645,79.590,61.035,0
1553632068.928,37.109,39.062,42.480,73.730,44.434,0
1553632068.932,35.156,29.785,43.457,79.102,46.387,0
1553632068.936,42.969,29.297,41.504,69.824,41.504,0
1553632068.940,55.664,29.785,19.531,72.266,17.090,0
1553632068.944,47.363,37.598,7.812,75.684,12.695,0
1553632068.947,38.086,44.434,18.555,78.613,39.551,0
1553632068.951,56.152,35.156,20.020,60.547,-13.672,0
1553632068.955,51.758,28.809,14.648,38.574,-6.348,0
1553632068.959,49.805,31.738,26.367,56.152,79.102,0
1553632068.963,63.477,33.691,45.410,62.988,44.922,0
1553632068.967,64.941,40.527,50.293,43.457,2.930,0
1553632068.971,46.387,49.316,45.410,36.621,59.082,0
1553632068.975,37.109,52.734,41.992,49.805,81.543,0
1553632068.979,35.156,60.059,35.645,56.641,79.102,0
1553632068.983,41.016,59.082,32.227,48.340,64.941,0
1553632068.987,43.945,49.805,31.250,29.297,39.551,0
1553632068.990,31.738,45.410,28.320,21.484,58.594,0
1553632068.994,24.902,35.645,20.020,30.762,31.738,0
1553632068.998,20.020,34.668,24.414,28.320,27.344,0
1553632069.002,31.738,35.645,41.016,32.227,22.461,0
1553632069.006,24.902,38.086,38.086,31.738,7.812,0
1553632069.010,20.020,49.805,30.273,11.719,25.879,0
1553632069.014,41.016,51.270,23.438,17.090,-2.441,0
1553632069.018,26.855,46.387,29.785,17.090,16.113,0
1553632069.022,7.324,45.410,47.852,4.883,54.199,0
1553632069.026,9.277,52.246,47.363,6.836,41.992,0
1553632069.030,-19.043,51.758,46.387,-15.137,65.918,0
1553632069.033,-28.809,49.805,57.617,-57.129,86.426,0
1553632069.037,-21.973,58.594,62.988,-57.617,96.191,0
1553632069.041,-35.645,63.477,62.012,-49.316,93.262,0
1553632069.045,-48.828,65.430,52.734,-65.918,57.617,0
1553632069.049,-50.293,65.918,50.293,-82.031,9.277,0
1553632069.053,-64.941,70.801,62.500,-83.008,-26.367,0
1553632069.057,-85.449,70.312,60.547,-94.727,18.555,0
1553632069.061,-88.867,57.129,70.312,-101.562,90.332,0
1553632069.065,-104.492,40.527,88.867,-124.512,18.066,0
1553632069.069,-130.859,35.156,69.824,-154.297,-21.484,0
1553632069.072,-155.762,51.758,68.848,-164.062,26.855,0
1553632069.076,-175.781,75.684,88.379,-194.336,-0.977,0
1553632069.080,-184.570,84.961,83.008,-216.797,17.578,0
1553632069.084,-173.828,79.102,82.520,-216.797,31.738,0
1553632069.088,-169.922,75.195,90.820,-216.797,19.043,0
1553632069.092,-167.480,73.730,83.008,-207.031,12.207,0
1553632069.096,-150.879,68.848,76.660,-186.035,-33.691,0
1553632069.100,-143.066,65.918,68.359,-177.734,-55.664,0
1553632069.104,-125.000,60.547,52.246,-151.367,12.695,0
1553632069.108,-107.422,57.617,56.152,-123.047,-5.859,0
1553632069.112,-96.680,65.430,60.059,-113.281,-10.742,0
1553632069.115,-83.496,67.871,61.523,-108.887,33.203,0
1553632069.119,-68.848,66.895,56.152,-102.539,11.719,0
1553632069.123,-41.016,57.129,59.082,-70.801,68.359,0
1553632069.127,-32.227,41.016,70.312,-36.621,41.992,0
1553632069.131,-31.250,36.133,62.012,-20.020,-13.672,0
1553632069.135,-4.395,39.551,57.129,-8.301,24.414,0
1553632069.139,20.996,40.039,55.664,11.719,38.086,0
1553632069.143,28.320,31.250,44.434,25.391,1.465,0
1553632069.147,48.340,37.109,38.574,35.645,28.809,0
1553632069.151,69.824,46.875,33.691,54.688,42.480,0
1553632069.155,78.613,40.039,28.809,69.336,39.062,0
1553632069.158,81.543,36.621,22.949,70.312,13.184,0
1553632069.162,79.590,38.574,25.391,69.336,-12.695,0
1553632069.166,82.520,29.297,36.133,70.801,-15.625,0
1553632069.170,108.887,22.461,41.992,71.777,-3.906,0
1553632069.174,133.301,30.273,34.180,99.121,65.918,0
1553632069.178,134.277,40.039,22.461,111.328,50.781,0
1553632069.182,129.883,33.691,16.602,96.191,-4.395,0
1553632069.186,110.352,21.973,16.602,102.051,46.387,0
1553632069.190,90.820,17.578,20.996,117.676,57.617,0
1553632069.194,101.074,18.555,18.555,94.727,63.965,0
1553632069.197,116.699,27.832,14.648,76.660,35.645,0
1553632069.201,119.629,34.668,12.207,100.098,-3.418,0
1553632069.205,125.977,34.180,-1.465,120.605,5.859,0
1553632069.209,112.305,35.645,-4.395,112.305,19.043,0
1553632069.213,109.863,41.016,1.465,93.750,5.859,0
1553632069.217,123.047,39.062,6.836,95.215,11.230,0
1553632069.221,126.953,33.691,12.695,97.168,38.574,0
1553632069.225,117.188,33.691,16.113,84.473,92.773,0
1553632069.229,104.980,28.320,20.996,76.660,95.703,0
1553632069.233,116.211,13.184,22.461,86.426,50.781,0
1553632069.237,134.277,13.672,23.926,100.586,105.957,0
1553632069.240,133.301,22.461,21.484,104.004,92.773,0
1553632069.244,128.418,33.691,14.648,101.562,32.227,0
1553632069.248,107.910,37.598,12.695,79.590,40.039,0
1553632069.252,91.797,28.320,6.836,73.242,39.551,0
1553632069.256,101.074,28.320,4.883,73.730,74.219,0
1553632069.260,99.121,30.273,3.906,65.430,105.469,0
1553632069.264,102.051,30.762,-0.488,81.055,12.695,0
1553632069.268,113.770,36.133,10.742,102.539,-2.441,0
1553632069.272,110.840,39.551,22.461,87.402,15.137,0
1553632069.276,100.586,40.039,24.414,76.172,-13.672,0
1553632069.280,119.629,37.109,24.414,86.426,10.254,0
1553632069.283,124.512,33.691,33.691,82.520,70.801,0
1553632069.287,104.980,35.645,33.691,82.031,51.270,0
1553632069.291,119.629,32.715,23.438,81.055,12.207,0
1553632069.295,124.512,21.973,28.320,77.148,16.113,0
1553632069.299,107.422,20.508,28.809,72.754,11.719,0
1553632069.303,102.539,32.715,14.160,77.148,69.336,0
1553632069.307,98.633,37.109,12.207,88.867,87.891,0
1553632069.311,90.820,31.250,23.438,70.801,49.805,0
1553632069.315,92.285,26.367,22.461,55.176,0.000,0
1553632069.319,98.633,24.902,23.438,67.871,-36.133,0
1553632069.322,104.004,25.879,31.250,78.613,-11.230,0
1553632069.326,94.238,34.180,34.668,66.895,32.715,0
1553632069.330,82.031,37.109,30.762,53.223,64.941,0
1553632069.334,86.914,37.109,18.555,69.824,30.273,0
1553632069.338,90.820,53.223,4.395,75.684,-1.465,0
1553632069.342,109.863,62.012,4.883,64.941,36.621,0
1553632069.346,128.418,58.105,24.414,65.430,36.133,0
1553632069.350,130.371,48.828,36.621,77.637,32.227,0
1553632069.354,108.398,37.109,26.367,100.098,56.641,0
1553632069.358,99.121,28.809,22.949,88.379,15.625,0
1553632069.362,113.770,24.414,30.762,39.551,20.508,0
1553632069.365,103.516,33.691,33.203,38.086,28.809,0
1553632069.369,89.355,46.387,32.227,56.641,87.402,0
1553632069.373,109.375,52.734,27.832,75.684,53.711,0
1553632069.377,108.398,54.688,23.926,66.895,-26.855,0
1553632069.381,88.379,47.363,22.949,42.480,48.340,0
1553632069.385,105.469,32.227,29.297,55.176,47.852,0
1553632069.389,104.492,22.949,20.020,57.129,22.949,0
1553632069.393,95.215,10.742,8.789,56.641,71.777,0
1553632069.397,121.094,17.090,19.531,72.754,66.406,0
1553632069.401,113.281,42.480,26.367,70.312,8.301,0
1553632069.405,87.402,51.758,17.578,45.410,45.898,0
1553632069.408,97.656,56.152,7.812,49.316,73.730,0
1553632069.412,92.285,51.270,15.625,60.059,74.707,0
1553632069.416,94.727,41.016,31.250,44.434,84.961,0
1553632069.420,96.191,32.227,47.363,35.156,54.688,0
1553632069.424,86.914,31.738,42.969,45.410,4.883,0
1553632069.428,90.820,35.645,30.273,48.828,3.906,0
1553632069.432,107.422,32.227,36.133,60.059,55.176,0
1553632069.436,110.352,40.527,36.621,86.426,62.500,0
1553632069.440,112.305,56.641,23.926,68.848,81.055,0
1553632069.444,111.816,56.152,15.137,53.711,21.484,0
1553632069.447,100.586,49.316,22.949,55.664,27.344,0
1553632069.451,84.961,45.410,28.320,37.598,91.309,0
1553632069.455,70.801,41.992,27.832,32.227,52.246,0
1553632069.459,80.078,35.645,22.949,48.828,47.363,0
1553632069.463,85.938,20.020,17.578,50.781,13.184,0
1553632069.467,86.914,12.207,13.672,27.344,61.035,0
1553632069.471,96.191,28.809,7.812,46.875,97.656,0
1553632069.475,100.098,45.898,15.137,69.824,30.762,0
1553632069.479,104.004,47.363,25.391,65.918,52.246,0
1553632069.483,107.422,38.574,37.109,78.613,105.957,0
1553632069.487,107.422,36.133,43.945,64.941,63.965,0
1553632069.490,98.633,43.457,40.527,43.945,28.320,0
1553632069.494,83.984,41.992,39.551,48.828,40.039,0
1553632069.498,91.797,44.434,40.039,49.805,-11.719,0
1553632069.502,88.379,45.410,31.738,51.758,-12.695,0
1553632069.506,89.844,39.551,27.832,44.434,0.488,0
1553632069.510,82.031,37.109,25.391,41.016,-53.711,0
1553632069.514,70.312,34.668,21.484,34.668,-32.715,0
1553632069.518,72.754,21.973,22.461,25.879,13.184,0
1553632069.522,71.777,13.184,27.832,44.922,41.504,0
1553632069.526,80.078,18.555,27.832,66.895,48.340,0
1553632069.530,78.613,29.297,16.602,52.734,24.902,0
1553632069.533,76.660,46.875,10.254,45.410,-8.789,0
1553632069.537,83.008,53.711,21.484,54.688,6.348,0
1553632069.541,81.055,49.805,39.062,55.664,49.805,0
1553632069.545,76.172,41.992,49.316,56.641,34.668,0
1553632069.549,89.355,27.344,41.016,43.945,17.578,0
1553632069.553,78.125,18.555,27.344,39.551,15.137,0
1553632069.557,53.223,28.320,29.785,42.969,38.086,0
1553632069.561,40.527,42.969,36.621,34.180,3.906,0
1553632069.565,42.480,53.711,38.086,31.738,6.348,0
1553632069.569,51.758,52.246,41.016,38.086,89.355,0
1553632069.572,41.016,38.086,39.551,35.156,88.379,0
1553632069.576,36.621,36.133,33.691,28.320,-4.883,0
1553632069.580,62.988,28.809,32.227,20.508,-28.809,0
1553632069.584,72.754,5.371,35.156,22.949,50.293,0
1553632069.588,61.523,10.254,36.133,39.062,51.758,0
1553632069.592,55.664,34.668,36.133,62.988,31.738,0
1553632069.596,70.312,48.828,33.203,61.035,23.926,0
1553632069.600,83.984,49.805,30.762,31.738,-19.043,0
1553632069.604,83.496,42.480,24.902,38.086,-1.465,0
1553632069.608,68.359,33.203,20.508,66.895,43.945,0
1553632069.612,50.293,31.738,33.203,67.871,63.477,0
1553632069.615,56.641,34.180,38.086,40.039,22.461,0
1553632069.619,60.059,38.574,36.133,31.250,-0.977,0
1553632069.623,39.551,41.016,38.086,30.273,49.805,0
1553632069.627,34.668,41.504,36.621,29.297,27.344,0
1553632069.631,52.246,45.898,33.691,49.805,11.719,0
1553632069.635,76.660,49.805,33.203,54.688,4.883,0
1553632069.639,75.684,53.711,27.344,46.387,8.301,0
1553632069.643,57.617,43.945,25.391,52.246,43.945,0
1553632069.647,67.871,24.414,34.668,50.293,62.988,0
1553632069.651,59.082,27.344,36.621,37.598,77.148,0
1553632069.655,54.688,40.527,35.156,23.926,66.895,0
1553632069.658,56.641,46.387,33.691,17.090,63.965,0
1553632069.662,45.898,47.852,31.250,29.785,43.945,0
1553632069.666,59.570,47.852,28.320,35.156,31.738,0
1553632069.670,45.898,42.480,23.926,40.039,71.777,0
1553632069.674,26.367,37.598,25.391,40.527,71.289,0
1553632069.678,28.320,32.227,31.738,29.785,95.703,0
1553632069.682,36.621,27.832,35.645,23.926,101.074,0
1553632069.686,32.227,32.715,36.621,18.066,60.059,0
1553632069.690,3.906,37.598,14.160,18.066,84.961,0
1553632069.694,4.883,38.574,10.254,33.203,61.035,0
1553632069.697,30.273,39.551,34.180,27.832,21.484,0
1553632069.701,38.574,39.551,45.898,26.367,27.832,0
1553632069.705,31.250,36.133,53.223,46.387,8.789,0
1553632069.709,21.973,25.879,52.734,41.016,38.574,0
1553632069.713,22.949,23.926,46.387,27.832,3.906,0
1553632069.717,41.016,28.809,40.039,18.555,-26.855,0
1553632069.721,49.316,31.250,34.668,27.344,29.785,0
1553632069.725,32.227,31.738,26.855,31.250,58.594,0
1553632069.729,20.020,40.039,23.438,20.508,56.152,0
1553632069.733,33.203,50.293,28.320,24.902,28.809,0
1553632069.737,46.875,43.457,27.832,28.809,32.227,0
1553632069.740,43.457,31.250,27.832,30.273,-20.996,0
1553632069.744,37.109,30.273,33.691,45.898,-30.762,0
1553632069.748,29.297,25.879,41.016,42.969,-2.930,0
1553632069.752,33.203,30.762,43.945,28.320,47.852,0
1553632069.756,31.738,44.434,40.039,12.695,53.223,0
1553632069.760,30.762,44.434,25.391,18.066,78.125,0
1553632069.764,33.691,43.945,9.766,38.086,107.422,0
1553632069.768,-4.883,41.016,11.230,39.551,68.848,0
1553632069.772,-9.277,35.645,26.855,25.391,58.105,0
1553632069.776,15.625,28.809,43.945,31.738,-0.977,0
1553632069.780,36.621,20.508,49.316,31.738,-62.988,0
1553632069.783,49.316,27.832,42.480,23.926,29.785,0
1553632069.787,30.273,43.457,32.227,38.574,49.316,0
1553632069.791,30.762,52.734,15.625,51.270,37.598,0
1553632069.795,28.809,51.270,5.859,41.992,41.016,0
1553632069.799,21.484,47.852,15.625,22.949,55.664,0
1553632069.803,30.762,47.363,35.645,12.695,84.473,0
1553632069.807,31.250,42.969,48.828,26.367,13.184,0
1553632069.811,18.066,37.109,44.922,38.086,3.418,0
1553632069.815,16.602,29.785,37.109,27.344,34.180,0
1553632069.819,9.766,20.996,38.086,20.020,-3.906,0
1553632069.822,7.324,33.203,40.039,36.621,42.480,0
1553632069.826,27.344,44.922,38.574,30.762,69.336,0
1553632069.830,34.668,46.387,37.598,28.320,42.480,0
1553632069.834,41.504,50.293,35.645,42.969,28.809,0
1553632069.838,29.297,45.898,31.250,41.992,99.609,0
1553632069.842,11.719,33.691,25.391,48.340,63.477,0
1553632069.846,30.273,30.273,27.832,47.852,15.137,0
1553632069.850,42.480,20.508,33.203,22.461,80.566,0
1553632069.854,28.320,18.066,38.574,15.137,42.480,0
1553632069.858,18.066,37.598,41.016,24.902,20.020,0
1553632069.862,11.719,47.363,34.180,33.203,38.574,0
1553632069.865,26.367,45.898,24.902,26.367,46.875,0
1553632069.869,37.598,44.922,15.137,46.875,58.594,0
1553632069.873,19.531,43.945,16.113,51.758,29.297,0
1553632069.877,12.207,39.062,22.949,21.973,6.348,0
1553632069.881,42.480,35.156,27.344,46.387,53.711,0
1553632069.885,35.645,31.250,19.043,68.359,71.289,0
1553632069.889,7.812,36.133,31.250,44.922,52.246,0
1553632069.893,-0.977,40.039,49.316,40.039,46.875,0
1553632069.897,15.137,37.109,42.969,28.320,31.250,0
1553632069.901,28.809,42.480,32.227,21.484,15.137,0
1553632069.905,35.645,28.320,31.250,27.832,41.016,0
1553632069.908,42.969,20.020,31.738,33.203,83.496,0
1553632069.912,44.434,34.180,30.273,26.855,-5.859,0
1553632069.916,50.781,49.805,31.738,34.180,-0.977,0
1553632069.920,39.062,55.664,34.180,49.316,66.406,0
1553632069.924,39.062,45.410,31.738,42.969,8.301,0
1553632069.928,55.664,42.969,29.785,31.250,-49.316,0
1553632069.932,40.039,43.945,31.250,32.715,7.324,0
1553632069.936,18.066,41.504,31.738,34.180,50.781,0
1553632069.940,32.715,36.621,29.297,43.457,38.574,0
1553632069.944,47.363,32.715,24.414,55.176,76.660,0
1553632069.947,47.363,39.062,26.367,40.527,71.289,0
1553632069.951,39.551,30.273,33.203,51.270,4.883,0
1553632069.955,13.184,13.184,38.574,48.340,42.480,0
1553632069.959,-1.465,23.438,44.922,30.273,48.340,0
1553632069.963,-1.465,43.457,38.574,24.902,7.812,0
1553632069.967,4.395,48.340,20.508,17.090,19.531,0
1553632069.971,12.207,29.785,20.508,42.969,25.391,0
1553632069.975,24.414,15.137,25.391,42.969,20.996,0
1553632069.979,40.039,23.438,28.320,27.344,48.828,0
1553632069.983,13.184,29.785,37.598,26.855,30.273,0
1553632069.987,7.324,39.551,24.902,18.066,4.395,0
1553632069.990,24.414,53.711,12.695,23.438,38.574,0
1553632069.994,46.387,53.223,28.320,37.109,29.785,0
1553632069.998,58.105,50.293,35.156,41.992,28.809,0
1553632070.002,41.992,54.199,28.809,40.039,37.109,0
1553632070.006,40.039,46.387,31.250,55.176,38.574,0
1553632070.010,21.973,42.480,31.738,47.852,14.160,0
1553632070.014,19.043,41.504,33.203,17.578,14.648,0
1553632070.018,42.969,38.086,33.691,23.438,28.320,0
1553632070.022,40.039,37.598,27.832,40.527,-4.395,0
1553632070.026,36.621,35.645,30.273,43.457,-1.953,0
1553632070.030,18.066,29.297,26.855,63.477,14.160,0
1553632070.033,11.230,24.902,26.855,49.316,9.766,0
1553632070.037,22.461,31.250,31.250,16.602,11.230,0
1553632070.041,0.488,33.203,27.832,23.926,50.293,0
1553632070.045,2.930,33.691,31.738,34.180,45.410,0
1553632070.049,17.578,33.203,38.574,39.551,44.922,0
1553632070.053,18.066,35.156,41.016,33.203,55.664,0
1553632070.057,20.996,43.945,38.574,34.668,130.371,0
1553632070.061,18.555,29.785,35.645,35.156,82.520,0
1553632070.065,35.645,22.949,31.738,9.766,19.043,0
1553632070.069,47.852,37.598,19.531,10.254,22.461,0
1553632070.072,45.410,47.852,17.578,40.039,16.602,0
1553632070.076,25.391,46.875,31.250,56.641,33.691,0
1553632070.080,24.902,42.969,32.715,43.945,28.320,0
1553632070.084,56.641,33.691,30.762,21.484,24.414,0
1553632070.088,29.297,24.902,31.738,18.555,-4.395,0
1553632070.092,-0.977,35.156,20.020,20.508,54.688,0
1553632070.096,12.695,40.039,13.184,23.438,41.016,0
1553632070.100,15.137,43.945,18.555,44.434,-1.953,0
1553632070.104,11.719,36.621,25.879,46.387,33.691,0
1553632070.108,18.555,22.461,34.668,33.203,47.363,0
1553632070.112,36.133,31.738,32.715,26.855,104.004,0
1553632070.115,27.344,35.645,30.762,37.109,89.355,0
1553632070.119,19.043,29.785,36.621,52.734,54.199,0
1553632070.123,65.918,34.180,34.668,13.184,36.621,0
1553632070.127,61.035,42.969,27.832,-9.277,37.109,0
1553632070.131,17.578,46.875,18.066,30.273,87.891,0
1553632070.135,9.766,41.992,17.090,49.805,106.934,0
1553632070.139,9.277,37.598,22.461,38.086,83.984,0
1553632070.143,34.668,42.969,27.832,38.574,63.477,0
1553632070.147,43.945,43.945,30.273,49.316,11.719,0
1553632070.151,34.668,41.504,25.391,49.316,13.672,0
1553632070.155,40.039,40.527,28.320,40.039,50.781,0
1553632070.158,49.805,41.992,23.926,17.090,35.156,0
1553632070.162,58.105,45.898,4.883,33.691,27.832,0
1553632070.166,71.289,45.410,6.348,56.641,28.320,0
1553632070.170,54.199,37.109,20.508,43.457,41.504,0
1553632070.174,8.789,27.344,27.344,14.160,41.504,0
1553632070.178,3.418,28.320,33.691,15.625,62.988,0
1553632070.182,28.809,30.273,40.039,44.922,43.945,0
1553632070.186,36.621,31.738,34.668,56.641,16.113,0
1553632070.190,43.945,35.645,17.578,43.457,20.020,0
1553632070.194,57.129,39.551,14.648,20.508,50.293,0
1553632070.197,53.223,40.039,28.320,-1.953,49.805,0
1553632070.201,44.922,39.551,32.715,25.391,22.949,0
1553632070.205,45.410,43.457,29.785,50.293,-8.301,0
1553632070.209,72.754,40.039,33.691,51.270,42.969,0
1553632070.213,74.707,32.227,42.480,61.523,54.688,0
1553632070.217,39.551,27.344,43.457,62.012,-20.020,0
1553632070.221,27.344,26.855,33.691,44.922,12.207,0
1553632070.225,44.922,35.645,25.879,52.734,6.348,0
1553632070.229,59.082,41.992,25.391,57.129,-15.137,0
1553632070.233,64.453,46.387,20.020,31.738,8.301,0
1553632070.237,64.941,44.434,22.461,38.086,26.367,0
1553632070.240,43.945,40.039,21.484,51.758,55.664,0
1553632070.244,46.875,37.109,17.090,51.270,42.480,0
1553632070.248,65.430,30.762,25.879,56.641,20.020,0
1553632070.252,75.684,29.785,39.062,62.988,41.992,0
1553632070.256,64.453,37.598,40.527,53.223,59.082,0
1553632070.260,46.387,42.480,24.414,33.691,35.156,0
1553632070.264,67.383,42.969,23.438,34.180,6.348,0
1553632070.268,62.012,33.203,30.762,46.387,0.977,0
1553632070.272,59.082,27.832,35.645,62.988,36.621,0
1553632070.276,65.918,28.809,39.551,52.734,36.133,0
1553632070.280,43.457,24.902,34.180,24.902,75.195,0
1553632070.283,34.180,25.391,29.297,36.133,61.035,0
1553632070.287,54.199,36.133,32.227,60.059,41.504,0
1553632070.291,58.594,41.992,29.297,50.781,62.500,0
1553632070.295,65.918,35.645,25.391,52.246,61.035,0
1553632070.299,84.473,20.996,26.855,64.453,95.703,0
1553632070.303,59.570,27.344,38.574,26.855,73.730,0
1553632070.307,32.227,40.527,36.133,20.996,-7.812,0
1553632070.311,60.059,41.504,33.203,51.758,-2.930,0
1553632070.315,57.129,45.410,45.898,46.387,29.785,0
1553632070.319,43.945,44.922,50.781,37.598,36.133,0
1553632070.322,67.383,39.062,43.945,38.574,77.637,0
1553632070.326,88.867,42.969,31.738,52.246,82.031,0
1553632070.330,66.895,45.898,29.785,79.102,31.250,0
1553632070.334,66.406,41.016,27.344,92.773,46.387,0
1553632070.338,66.406,45.410,25.879,51.270,79.102,0
1553632070.342,30.762,45.410,33.203,16.113,73.242,0
1553632070.346,51.270,34.180,38.086,19.043,11.719,0
1553632070.350,76.172,31.250,35.156,42.969,3.906,0
1553632070.354,69.336,31.738,30.273,60.059,-25.879,0
1553632070.358,80.566,32.227,25.391,58.105,-48.828,0
1553632070.362,83.008,42.480,12.695,63.477,-5.371,0
1553632070.365,75.195,52.734,9.766,61.035,10.742,0
1553632070.369,69.824,53.223,23.438,28.320,40.039,0
1553632070.373,57.129,44.434,32.227,15.625,27.832,0
1553632070.377,77.637,36.621,35.156,32.715,-33.691,0
1553632070.381,66.406,25.879,38.574,28.809,-12.207,0
1553632070.385,46.875,23.438,34.668,27.832,67.383,0
1553632070.389,75.684,31.738,28.809,37.109,40.039,0
1553632070.393,84.961,35.156,20.996,27.344,25.391,0
1553632070.397,85.449,39.062,20.020,34.180,50.781,0
1553632070.401,90.820,44.922,26.855,36.621,42.480,0
1553632070.405,90.332,46.387,25.879,30.273,25.391,0
1553632070.408,84.961,39.551,31.250,20.996,-4.395,0
1553632070.412,71.777,23.926,38.574,1.465,20.020,0
1553632070.416,68.359,20.020,38.086,2.441,33.203,0
1553632070.420,68.848,32.715,36.621,-7.812,50.293,0
1553632070.424,69.336,41.504,32.227,-1.465,62.988,0
1553632070.428,65.430,43.457,27.832,19.531,9.766,0
1553632070.432,57.617,40.039,21.484,0.488,-17.090,0
1553632070.436,50.293,31.738,21.484,-5.371,7.324,0
1553632070.440,35.156,27.344,33.203,10.742,32.227,0
1553632070.444,14.648,32.715,38.574,-7.812,38.086,0
1553632070.447,43.457,33.691,32.715,-31.250,15.625,0
1553632070.451,64.453,26.855,28.320,-5.859,-30.273,0
1553632070.455,56.152,20.508,34.180,7.324,-14.160,0
1553632070.459,63.477,20.508,31.738,4.395,16.602,0
1553632070.463,60.547,24.902,24.902,2.441,36.621,0
1553632070.467,76.172,24.414,14.648,21.973,31.738,0
1553632070.471,84.473,24.902,16.602,26.367,25.391,0
1553632070.475,57.129,25.879,36.621,18.066,31.250,0
1553632070.479,63.477,30.273,41.992,21.484,31.738,0
1553632070.483,72.266,30.762,33.691,22.949,82.031,0
1553632070.487,69.824,27.832,32.227,37.598,34.668,0
1553632070.490,79.590,33.203,31.250,51.758,0.488,0
1553632070.494,84.473,37.109,27.832,13.184,27.344,0
1553632070.498,80.078,31.738,26.367,13.184,11.719,0
1553632070.502,60.059,21.484,25.879,37.598,24.414,0
1553632070.506,46.875,21.973,26.855,35.645,51.270,0
1553632070.510,62.500,28.809,29.297,23.438,61.035,0
1553632070.514,80.078,28.809,35.156,11.719,25.391,0
1553632070.518,60.059,31.738,34.668,18.066,25.879,0
1553632070.522,60.059,33.691,31.738,27.344,33.203,0
1553632070.526,77.148,31.738,22.461,35.645,-22.461,0
1553632070.530,85.938,38.574,19.531,33.203,-27.344,0
1553632070.533,93.750,45.410,21.484,25.879,-7.324,0
1553632070.537,83.984,42.480,24.902,14.648,21.484,0
1553632070.541,69.336,33.691,24.414,23.438,25.391,0
1553632070.545,64.941,30.762,21.484,21.973,5.371,0
1553632070.549,82.520,36.621,20.020,5.371,49.316,0
1553632070.553,95.703,35.156,10.254,35.645,45.898,0
1553632070.557,78.613,30.273,12.695,36.133,20.996,0
1553632070.561,83.008,32.227,21.484,27.344,-21.484,0
1553632070.565,85.938,34.668,22.949,47.363,-24.902,0
1553632070.569,86.426,36.133,23.438,45.898,32.227,0
1553632070.572,87.402,36.621,31.250,37.598,53.711,0
1553632070.576,78.613,32.227,33.203,36.621,-25.879,0
1553632070.580,71.777,31.250,21.484,27.344,-20.508,0
1553632070.584,80.078,33.691,19.531,20.996,56.152,0
1553632070.588,88.867,38.086,27.344,24.414,99.121,0
1553632070.592,90.820,34.668,28.809,23.926,62.012,0
1553632070.596,96.191,28.320,19.043,41.016,17.090,0
1553632070.600,93.262,26.367,25.391,23.438,-5.371,0
1553632070.604,96.680,27.344,38.574,21.484,53.223,0
1553632070.608,79.102,29.297,43.457,46.387,64.941,0
1553632070.612,71.777,26.367,46.387,64.941,-0.977,0
1553632070.615,97.656,37.109,39.062,63.477,99.121,0
1553632070.619,110.352,40.039,35.156,36.133,101.562,0
1553632070.623,76.172,37.109,33.203,27.832,53.711,0
1553632070.627,74.219,36.621,24.414,47.852,51.270,0
1553632070.631,88.867,34.668,25.879,56.641,-8.789,0
1553632070.635,88.867,32.227,28.320,48.340,16.602,0
1553632070.639,63.965,27.832,23.438,55.664,16.113,0
1553632070.643,68.359,27.832,30.273,62.012,-17.090,0
1553632070.647,102.051,31.738,32.715,36.133,80.566,0
1553632070.651,97.656,34.180,19.531,24.414,99.121,0
1553632070.655,94.727,37.598,16.113,34.180,65.430,0
1553632070.658,84.473,36.133,20.996,57.129,69.824,0
1553632070.662,80.566,31.738,17.578,68.359,45.898,0
1553632070.666,79.102,31.738,22.461,51.270,45.898,0
1553632070.670,76.660,34.668,38.574,44.434,63.477,0
1553632070.674,108.887,31.250,45.898,49.316,49.316,0
1553632070.678,89.355,26.855,46.387,51.270,63.477,0
1553632070.682,58.594,32.715,34.180,43.457,97.168,0
1553632070.686,91.309,31.250,22.461,51.270,10.254,0
1553632070.690,90.332,25.879,28.320,55.664,1.465,0
1553632070.694,84.961,27.832,29.297,41.992,34.668,0
1553632070.697,82.031,36.133,28.809,31.250,15.137,0
1553632070.701,84.961,41.016,35.645,56.641,34.668,0
1553632070.705,92.773,31.250,38.086,50.781,7.812,0
1553632070.709,72.266,21.973,40.527,56.641,27.832,0
1553632070.713,103.027,35.156,35.156,71.777,31.738,0
1553632070.717,121.582,41.992,31.738,33.691,23.438,0
1553632070.721,65.918,36.133,33.203,31.738,63.477,0
1553632070.725,42.480,31.738,31.738,42.480,49.805,0
1553632070.729,66.895,31.250,34.180,36.133,20.020,0
1553632070.733,106.445,36.133,30.762,58.105,29.297,0
1553632070.737,93.750,36.133,32.227,45.410,41.504,0
1553632070.740,71.777,34.180,34.668,34.180,13.672,0
1553632070.744,70.801,35.156,29.785,68.359,-11.719,0
1553632070.748,83.984,41.016,26.855,76.172,46.387,0
1553632070.752,91.309,48.340,21.484,41.504,64.941,0
1553632070.756,75.195,49.316,20.020,25.879,25.391,0
1553632070.760,61.035,40.527,27.832,16.113,-0.977,0
1553632070.764,41.504,30.273,25.879,12.207,21.973,0
1553632070.768,54.688,25.879,20.508,31.738,49.316,0
1553632070.772,65.918,28.320,25.391,29.785,31.250,0
1553632070.776,36.621,38.574,29.785,26.367,23.926,0
1553632070.780,56.152,47.363,25.879,38.086,38.086,0
1553632070.783,95.703,53.711,12.695,17.090,43.457,0
1553632070.787,74.219,45.898,12.695,23.926,45.898,0
1553632070.791,34.180,30.273,18.066,54.688,21.484,0
1553632070.795,48.828,25.879,22.949,36.133,17.578,0
1553632070.799,60.547,29.785,36.133,25.391,7.324,0
1553632070.803,48.340,31.250,26.367,17.090,-19.043,0
1553632070.807,41.016,27.344,14.648,15.625,42.969,0
1553632070.811,42.480,28.320,30.273,24.414,105.469,0
1553632070.815,55.176,36.133,37.109,29.785,37.109,0
1553632070.819,37.598,36.621,30.762,26.367,4.883,0
1553632070.822,41.016,28.809,18.066,9.277,51.270,0
1553632070.826,48.828,21.484,26.367,18.066,16.602,0
1553632070.830,45.410,19.531,42.480,13.184,38.086,0
1553632070.834,53.711,20.508,35.156,1.465,64.941,0
1553632070.838,59.082,28.809,30.273,36.133,10.742,0
1553632070.842,22.949,38.086,36.133,31.250,44.922,0
1553632070.846,-11.230,34.668,36.621,7.812,41.016,0
1553632070.850,39.062,37.109,32.227,27.344,39.062,0
1553632070.854,43.945,39.551,36.133,31.738,45.898,0
1553632070.858,34.668,33.203,32.227,9.277,25.391,0
1553632070.862,59.570,32.227,21.484,35.156,20.996,0
1553632070.865,53.711,32.715,17.090,61.035,29.785,0
1553632070.869,32.227,27.832,20.020,59.570,17.090,0
1553632070.873,44.922,23.438,25.391,37.598,35.645,0
1553632070.877,48.828,26.855,33.203,13.672,53.223,0
1553632070.881,32.715,36.133,14.648,27.832,21.484,0
1553632070.885,39.062,38.086,-7.324,31.738,59.570,0
1553632070.889,52.734,36.133,12.695,26.367,64.453,0
1553632070.893,47.852,33.203,38.574,27.832,93.750,0
1553632070.897,58.105,31.738,47.363,17.090,89.355,0
1553632070.901,61.035,28.320,38.574,15.625,23.438,0
1553632070.905,25.391,27.832,29.785,28.809,13.184,0
1553632070.908,31.738,33.203,27.832,31.738,-17.578,0
1553632070.912,49.805,38.574,26.367,20.020,-18.066,0
1553632070.916,36.133,40.527,32.227,0.977,98.633,0
1553632070.920,20.020,33.691,34.668,16.113,132.812,0
1553632070.924,32.227,32.715,29.785,49.316,74.707,0
1553632070.928,52.734,34.180,29.785,48.340,56.641,0
1553632070.932,46.875,28.320,32.227,20.508,42.480,0
1553632070.936,36.621,35.645,26.367,5.371,40.527,0
1553632070.940,24.414,40.039,26.367,20.020,-14.648,0
1553632070.944,49.316,35.645,17.090,32.227,-23.438,0
1553632070.947,54.688,44.434,-0.488,31.250,37.598,0
1553632070.951,12.695,48.828,5.371,21.973,38.574,0
1553632070.955,23.926,45.410,30.762,23.438,-0.488,0
1553632070.959,48.340,39.551,41.016,20.508,30.273,0
1553632070.963,73.730,34.180,40.527,22.949,97.656,0
1553632070.967,45.410,34.668,45.898,38.574,28.320,0
1553632070.971,14.648,36.621,46.875,15.625,-14.648,0
1553632070.975,47.852,37.598,39.551,12.695,21.973,0
1553632070.979,54.688,34.180,28.809,25.879,47.363,0
1553632070.983,35.156,31.250,27.344,19.043,16.602,0
1553632070.987,47.363,35.156,16.602,10.254,8.789,0
1553632070.990,61.523,39.062,19.043,26.855,54.688,0
1553632070.994,62.988,34.180,49.805,52.734,73.730,0
1553632070.998,44.922,34.180,61.523,43.945,12.695,0
1553632071.002,6.348,36.621,59.570,44.922,-44.922,0
1553632071.006,33.203,33.691,49.316,60.059,-16.602,0
1553632071.010,72.266,36.133,40.527,59.570,13.672,0
1553632071.014,77.637,36.621,31.250,35.156,8.789,0
1553632071.018,55.664,38.574,30.762,46.387,6.348,0
1553632071.022,54.688,38.574,37.109,55.176,44.922,0
1553632071.026,48.828,38.574,20.020,47.852,27.832,0
1553632071.030,24.414,41.504,8.301,22.949,2.930,0
1553632071.033,57.617,43.457,30.273,20.996,23.438,0
1553632071.037,58.105,41.016,38.574,52.246,55.176,0
1553632071.041,67.871,37.598,29.785,44.434,53.711,0
1553632071.045,97.656,36.133,34.668,29.785,50.293,0
1553632071.049,75.684,33.691,25.879,34.180,43.945,0
1553632071.053,55.664,37.109,-2.441,44.922,-4.395,0
1553632071.057,60.547,33.203,5.859,46.875,-27.832,0
1553632071.061,72.266,19.531,29.785,32.715,34.668,0
1553632071.065,86.426,26.367,38.086,26.367,52.246,0
1553632071.069,84.961,42.969,41.016,33.691,48.340,0
1553632071.072,71.289,45.410,35.156,50.781,90.332,0
1553632071.076,63.477,45.410,30.273,17.578,62.988,0
1553632071.080,62.500,40.527,29.297,-2.441,18.066,0
1553632071.084,65.918,42.480,24.414,19.043,93.262,0
1553632071.088,81.055,44.434,23.438,24.414,53.223,0
1553632071.092,81.055,36.621,23.926,31.250,-5.859,0
1553632071.096,63.477,32.227,14.648,22.461,53.223,0
1553632071.100,72.266,32.227,9.277,12.207,88.379,0
1553632071.104,63.477,30.762,14.160,31.250,95.703,0
1553632071.108,60.059,34.668,18.555,45.410,20.996,0
1553632071.112,82.031,38.086,36.621,48.828,11.230,0
1553632071.115,94.727,23.926,49.316,36.133,73.242,0
1553632071.119,78.125,19.043,43.457,33.203,64.941,0
1553632071.123,77.148,24.414,40.039,28.809,1.465,0
1553632071.127,115.723,28.320,30.273,25.391,20.020,0
1553632071.131,94.727,28.809,13.184,33.203,33.691,0
1553632071.135,53.711,26.855,19.043,18.066,73.730,0
1553632071.139,76.660,27.344,38.574,12.207,68.848,0
1553632071.143,75.195,29.297,43.945,33.691,16.113,0
1553632071.147,56.152,32.715,42.969,28.809,85.938,0
1553632071.151,76.660,35.156,38.574,22.461,99.121,0
1553632071.155,83.008,28.809,35.156,35.156,48.828,0
1553632071.158,61.523,26.367,27.344,37.109,64.941,0
1553632071.162,80.078,37.109,15.625,33.691,50.781,0
1553632071.166,102.539,37.598,21.484,24.902,-0.488,0
1553632071.170,87.402,38.574,24.902,9.766,10.254,0
1553632071.174,79.590,41.504,29.297,17.090,-29.297,0
1553632071.178,90.332,36.133,37.109,22.949,-24.902,0
1553632071.182,89.355,26.855,40.527,33.203,50.293,0
1553632071.186,77.148,25.879,41.504,39.551,49.805,0
1553632071.190,74.219,35.156,29.785,11.230,53.223,0
1553632071.194,98.633,38.574,15.625,13.672,88.379,0
1553632071.197,97.168,34.668,20.020,20.508,82.031,0
1553632071.201,84.961,35.156,16.602,25.879,36.621,0
1553632071.205,94.727,40.527,5.371,32.227,11.719,0
1553632071.209,107.910,38.574,12.695,-6.348,45.410,0
1553632071.213,106.445,35.156,26.855,8.789,7.324,0
1553632071.217,109.863,37.109,25.391,43.457,17.578,0
1553632071.221,96.680,47.363,18.555,16.602,9.766,0
1553632071.225,100.586,45.410,11.230,14.648,39.551,0
1553632071.229,138.184,38.574,20.020,23.926,99.609,0
1553632071.233,115.234,36.133,30.273,0.977,42.480,0
1553632071.237,75.195,26.367,28.809,8.789,34.668,0
1553632071.240,87.891,24.414,30.273,23.926,67.383,0
1553632071.244,101.562,28.320,29.785,24.902,88.867,0
1553632071.248,108.887,34.668,33.203,21.973,68.359,0
1553632071.252,124.512,36.621,33.691,31.250,24.902,0
1553632071.256,153.320,44.434,14.160,46.875,75.195,0
1553632071.260,125.977,47.852,3.418,24.902,45.898,0
1553632071.264,100.098,33.203,17.090,7.812,22.461,0
1553632071.268,128.418,21.973,25.391,26.855,64.453,0
1553632071.272,125.000,27.344,21.973,33.203,58.594,0
1553632071.276,101.074,40.527,14.648,23.438,49.316,0
1553632071.280,108.887,37.109,23.438,22.461,8.301,0
1553632071.283,105.469,30.762,32.227,18.066,-24.902,0
1553632071.287,100.586,35.645,29.785,22.949,-12.695,0
1553632071.291,117.676,27.832,27.832,22.461,3.418,0
1553632071.295,121.094,19.043,20.020,26.367,11.719,0
1553632071.299,145.020,20.020,18.555,41.992,8.789,0
1553632071.303,181.641,23.926,27.344,50.781,21.484,0
1553632071.307,161.621,34.180,29.297,36.133,47.363,0
1553632071.311,122.559,37.109,28.320,5.859,65.918,0
1553632071.315,136.719,38.574,23.438,10.254,72.266,0
1553632071.319,142.090,29.297,29.297,36.621,32.227,0
1553632071.322,127.441,18.555,25.391,37.109,4.883,0
1553632071.326,138.184,26.367,1.465,35.156,20.996,0
1553632071.330,153.320,40.039,4.395,48.828,4.883,0
1553632071.334,182.129,42.480,21.484,44.434,29.785,0
1553632071.338,173.828,38.574,32.227,37.109,55.176,0
1553632071.342,157.227,36.621,41.016,24.902,40.527,0
1553632071.346,145.020,33.203,37.109,9.766,25.391,0
1553632071.350,136.230,34.668,32.227,28.320,6.348,0
1553632071.354,148.926,37.109,37.109,28.320,35.645,0
1553632071.358,138.184,32.227,39.062,8.301,22.461,0
1553632071.362,135.742,28.809,41.504,20.508,6.348,0
1553632071.365,139.160,31.738,39.551,15.137,41.992,0
1553632071.369,136.719,23.926,38.574,-1.465,62.500,0
1553632071.373,108.398,11.719,34.180,-9.766,17.578,0
1553632071.377,103.516,12.695,25.391,-15.625,-32.227,0
1553632071.381,89.355,6.836,24.902,-12.695,-40.039,0
1553632071.385,75.195,4.395,30.762,-29.785,-69.824,0
1553632071.389,67.383,13.672,14.160,-38.086,-12.207,0
1553632071.393,72.754,7.812,-11.719,-34.180,40.527,0
1553632071.397,90.332,-13.672,12.207,-29.297,61.035,0
1553632071.401,73.730,-18.555,47.852,-29.297,47.363,0
1553632071.405,71.289,-7.324,60.059,-25.879,44.922,0
1553632071.408,78.613,-3.418,56.152,-11.719,74.219,0
1553632071.412,93.750,3.418,45.410,-5.371,35.645,0
1553632071.416,117.188,10.254,41.992,-3.418,13.184,0
1553632071.420,125.977,9.766,37.598,-22.949,11.230,0
1553632071.424,83.984,8.789,20.996,-18.066,33.203,0
1553632071.428,81.055,9.277,15.137,4.395,92.773,0
1553632071.432,123.047,12.207,12.695,31.738,51.758,0
1553632071.436,124.512,14.160,2.930,47.852,7.324,0
1553632071.440,131.836,13.672,15.625,17.578,8.789,0
1553632071.444,113.770,20.508,33.203,18.555,14.648,0
1553632071.447,95.215,22.949,38.574,30.273,29.785,0
1553632071.451,127.441,24.414,29.785,16.113,-13.672,0
1553632071.455,115.234,20.508,18.555,10.254,-23.438,0
1553632071.459,94.238,8.301,28.809,22.461,-0.977,0
1553632071.463,100.586,10.742,35.156,28.320,5.859,0
1553632071.467,102.539,16.602,37.109,25.879,38.574,0
1553632071.471,115.234,19.531,42.969,15.625,55.176,0
1553632071.475,105.469,23.926,36.133,14.160,13.184,0
1553632071.479,93.750,26.367,29.785,0.977,5.859,0
1553632071.483,98.145,24.902,35.156,22.461,44.434,0
1553632071.487,113.770,28.320,33.691,41.992,41.992,0
1553632071.490,117.188,27.344,39.062,17.090,5.371,0
1553632071.494,101.562,25.879,35.156,32.227,26.367,0
1553632071.498,113.281,30.273,29.297,50.293,27.832,0
1553632071.502,99.609,28.809,44.434,74.707,0.488,0
1553632071.506,98.145,28.320,48.340,67.871,79.102,0
1553632071.510,125.000,32.227,38.086,19.043,117.676,0
1553632071.514,106.934,34.180,28.809,25.879,58.105,0
1553632071.518,102.539,33.203,8.789,38.086,48.828,0
1553632071.522,113.281,35.156,-10.742,47.363,87.402,0
1553632071.526,84.961,31.738,14.160,56.641,14.648,0
1553632071.530,84.473,24.414,43.457,52.246,-9.277,0
1553632071.533,104.492,24.902,48.828,52.734,58.594,0
1553632071.537,106.934,28.809,52.246,67.383,73.242,0
1553632071.541,112.305,25.879,46.875,38.086,48.828,0
1553632071.545,106.934,20.996,37.109,6.348,43.457,0
1553632071.549,103.027,23.438,32.227,14.160,54.688,0
1553632071.553,105.957,29.785,29.785,28.320,-1.465,0
1553632071.557,77.637,29.785,32.715,42.969,29.785,0
1553632071.561,68.359,28.809,27.344,58.594,75.195,0
1553632071.565,89.355,17.578,12.695,52.246,88.867,0
1553632071.569,117.188,11.230,16.602,28.809,84.473,0
1553632071.572,125.488,23.926,25.391,47.363,23.438,0
1553632071.576,100.098,36.133,27.832,61.523,-0.488,0
1553632071.580,95.703,41.504,42.480,45.410,29.785,0
1553632071.584,80.566,38.574,30.273,29.785,7.324,0
1553632071.588,94.238,34.668,13.672,16.602,-1.953,0
1553632071.592,93.262,27.832,31.250,24.902,30.762,0
1553632071.596,78.613,26.855,39.062,41.992,16.602,0
1553632071.600,107.422,28.809,41.016,46.387,9.277,0
1553632071.604,98.145,29.785,41.992,46.875,-15.137,0
1553632071.608,95.215,33.691,40.039,33.691,15.625,0
1553632071.612,83.984,34.668,37.598,44.434,49.805,0
1553632071.615,90.332,34.668,28.320,48.828,47.363,0
1553632071.619,112.305,34.180,18.066,25.879,84.473,0
1553632071.623,126.953,29.785,17.578,49.805,38.574,0
1553632071.627,107.910,24.902,30.762,62.988,2.441,0
1553632071.631,72.754,26.367,43.945,30.762,76.172,0
1553632071.635,69.336,31.738,45.410,25.879,74.219,0
1553632071.639,67.383,28.809,41.992,49.316,20.996,0
1553632071.643,79.590,24.414,32.715,38.086,54.199,0
1553632071.647,91.309,28.320,12.207,36.133,87.402,0
1553632071.651,76.660,33.203,6.836,49.805,73.730,0
1553632071.655,67.871,30.273,26.367,29.297,78.613,0
1553632071.658,73.730,34.180,44.922,45.410,48.340,0
1553632071.662,61.523,34.180,45.410,68.359,-26.855,0
1553632071.666,56.641,29.297,38.086,21.973,-2.441,0
1553632071.670,54.688,32.227,40.527,10.742,41.992,0
1553632071.674,65.918,40.039,32.227,29.785,16.602,0
1553632071.678,79.102,32.715,19.043,44.434,28.320,0
1553632071.682,86.426,20.996,19.043,46.875,16.602,0
1553632071.686,59.570,16.113,30.273,50.293,5.371,0
1553632071.690,50.293,14.648,32.227,45.898,40.527,0
1553632071.694,41.992,30.762,23.926,37.109,60.059,0
1553632071.697,28.809,41.504,28.320,17.090,57.617,0
1553632071.701,54.199,38.574,29.297,-10.254,41.504,0
1553632071.705,75.195,32.227,26.367,-2.930,33.691,0
1553632071.709,83.008,30.273,25.879,29.785,19.043,0
1553632071.713,67.383,35.156,19.531,49.805,1.953,0
1553632071.717,45.898,25.391,17.090,26.367,8.301,0
1553632071.721,37.598,16.602,23.438,31.738,12.695,0
1553632071.725,66.406,23.438,30.273,45.898,52.246,0
1553632071.729,87.891,25.879,23.438,32.715,88.867,0
1553632071.733,72.754,31.250,11.719,23.926,58.105,0
1553632071.737,80.566,32.227,18.555,41.016,11.230,0
1553632071.740,86.914,33.203,15.625,46.875,10.254,0
1553632071.744,66.406,33.691,0.000,41.992,68.848,0
1553632071.748,66.406,28.809,9.766,42.969,35.645,0
1553632071.752,85.938,26.367,33.691,31.738,-49.805,0
1553632071.756,56.152,29.297,41.992,36.133,-17.090,0
1553632071.760,17.090,31.250,41.992,50.781,16.113,0
1553632071.764,39.551,23.438,32.227,35.156,52.246,0
1553632071.768,55.664,25.391,18.555,26.855,63.477,0
1553632071.772,42.969,31.738,22.461,37.109,37.598,0
1553632071.776,51.270,29.297,33.203,18.555,25.879,0
1553632071.780,60.059,32.227,34.180,52.246,29.297,0
1553632071.783,60.059,35.645,23.926,80.078,51.758,0
1553632071.787,58.594,27.344,27.832,43.457,21.973,0
1553632071.791,53.711,21.973,43.945,14.648,47.363,0
1553632071.795,74.219,14.648,43.945,10.742,64.941,0
1553632071.799,76.660,12.207,32.715,17.578,44.434,0
1553632071.803,39.062,29.785,21.484,28.320,50.781,0
1553632071.807,40.527,41.016,21.484,36.621,-24.902,0
1553632071.811,53.223,38.086,28.320,42.969,-13.184,0
1553632071.815,57.129,34.180,27.832,42.480,63.477,0
1553632071.819,67.871,27.832,21.484,31.738,55.664,0
1553632071.822,62.988,28.809,21.484,19.043,62.988,0
1553632071.826,32.715,34.180,24.902,29.785,65.918,0
1553632071.830,33.203,28.320,27.832,43.945,61.035,0
1553632071.834,49.805,16.113,34.180,14.648,59.082,0
1553632071.838,44.922,14.160,35.156,-6.348,60.059,0
1553632071.842,50.293,22.461,23.926,-3.906,56.152,0
1553632071.846,41.504,31.250,17.090,9.766,24.414,0
1553632071.850,47.852,35.156,16.113,26.367,-21.973,0
1553632071.854,56.152,36.621,25.391,50.293,-58.594,0
1553632071.858,55.176,36.133,25.391,82.031,-15.137,0
1553632071.862,56.641,37.109,21.973,81.543,62.988,0
1553632071.865,86.426,36.621,27.832,38.574,58.594,0
1553632071.869,49.316,30.762,30.762,2.441,32.227,0
1553632071.873,9.277,28.320,27.344,3.418,24.902,0
1553632071.877,40.039,22.461,21.973,32.715,52.734,0
1553632071.881,66.406,20.996,13.672,46.387,44.922,0
1553632071.885,86.426,28.320,8.789,37.598,41.016,0
1553632071.889,83.008,32.227,21.484,48.828,57.617,0
1553632071.893,76.172,35.645,28.320,55.664,30.273,0
1553632071.897,52.734,36.621,21.484,45.410,5.859,0
1553632071.901,39.551,33.203,25.879,51.270,-9.277,0
1553632071.905,48.340,30.273,35.156,54.688,-4.395,0
1553632071.908,38.086,24.414,25.391,36.133,29.297,0
1553632071.912,62.500,20.508,17.090,35.645,9.277,0
1553632071.916,80.566,30.762,20.020,36.133,11.719,0
1553632071.920,24.902,33.203,22.461,33.203,27.832,0
1553632071.924,30.762,24.902,24.902,40.527,2.930,0
1553632071.928,61.523,26.855,34.668,20.508,-7.812,0
1553632071.932,53.223,26.855,37.598,30.273,27.832,0
1553632071.936,21.973,25.391,32.227,65.918,49.805,0
1553632071.940,21.484,25.879,24.902,78.125,12.695,0
1553632071.944,26.367,28.809,15.625,57.129,41.992,0
1553632071.947,23.438,32.715,12.695,39.551,58.105,0
1553632071.951,51.758,33.203,22.461,21.973,-20.996,0
1553632071.955,74.219,25.879,31.738,12.695,-51.758,0
1553632071.959,63.965,21.973,20.996,26.367,47.363,0
1553632071.963,63.965,31.250,9.766,24.902,119.629,0
1553632071.967,62.012,33.691,22.949,33.691,80.078,0
1553632071.971,41.992,26.855,35.156,45.898,42.480,0
1553632071.975,65.918,32.227,32.227,32.227,1.465,0
1553632071.979,101.562,34.180,27.344,51.270,-21.973,0
1553632071.983,65.918,26.855,29.297,74.219,-2.441,0
1553632071.987,25.391,34.668,26.367,55.176,67.871,0
1553632071.990,42.969,32.715,12.207,50.293,70.801,0
1553632071.994,47.363,24.414,18.066,24.414,28.809,0
1553632071.998,56.641,28.809,31.738,40.527,60.059,0
1553632072.002,78.613,27.344,26.855,61.035,68.848,0
1553632072.006,69.824,29.785,34.180,73.242,42.969,0
1553632072.010,34.180,30.273,39.551,65.918,64.453,0
1553632072.014,33.203,32.715,26.367,18.066,67.383,0
1553632072.018,79.590,37.109,23.926,29.785,30.762,0
1553632072.022,67.383,31.738,29.297,54.199,32.227,0
1553632072.026,60.547,28.809,28.809,54.199,66.895,0
1553632072.030,53.223,31.738,28.320,63.965,79.102,0
1553632072.033,52.246,31.250,32.715,62.988,50.781,0
1553632072.037,83.008,32.715,28.809,47.852,29.785,0
1553632072.041,59.570,36.621,21.484,41.992,42.480,0
1553632072.045,69.336,45.410,12.207,66.406,30.273,0
1553632072.049,102.539,50.293,16.602,89.844,43.457,0
1553632072.053,101.562,46.875,23.438,63.477,70.801,0
1553632072.057,87.891,46.875,27.344,46.387,81.055,0
1553632072.061,75.195,40.527,27.344,69.824,80.566,0
1553632072.065,62.988,32.227,17.090,63.477,31.250,0
1553632072.069,58.594,32.227,15.625,49.316,14.160,0
1553632072.072,56.152,31.250,23.926,37.109,15.625,0
1553632072.076,69.336,37.598,20.996,28.809,25.391,0
1553632072.080,76.172,41.016,16.113,59.570,88.379,0
1553632072.084,83.008,33.691,20.020,59.082,41.016,0
1553632072.088,104.980,37.109,14.648,75.195,27.832,0
1553632072.092,95.215,43.945,9.766,87.402,102.539,0
1553632072.096,75.195,43.457,25.391,49.316,90.820,0
1553632072.100,68.848,39.062,38.574,45.898,64.453,0
1553632072.104,65.430,33.691,39.062,58.594,37.109,0
1553632072.108,65.430,30.762,41.992,64.941,-24.414,0
1553632072.112,63.965,30.762,41.992,54.688,-0.488,0
1553632072.115,70.801,24.414,37.598,47.852,11.230,0
1553632072.119,104.492,23.926,41.016,46.387,10.742,0
1553632072.123,108.887,27.344,45.410,57.129,5.859,0
1553632072.127,48.828,20.508,32.715,87.402,26.367,0
1553632072.131,21.484,26.367,22.461,79.590,66.895,0
1553632072.135,51.758,41.992,24.902,67.383,39.551,0
1553632072.139,82.520,43.457,31.738,61.523,6.836,0
1553632072.143,83.496,40.039,34.668,54.688,-23.438,0
1553632072.147,67.871,41.016,40.527,47.852,-27.344,0
1553632072.151,84.473,39.551,33.203,67.383,25.879,0
1553632072.155,80.566,39.062,19.043,76.660,13.184,0
1553632072.158,42.480,38.574,10.742,69.336,-9.277,0
1553632072.162,34.668,40.527,9.277,65.918,66.895,0
1553632072.166,53.711,36.133,18.066,39.551,4.395,0
1553632072.170,70.801,31.738,21.973,32.227,-28.320,0
1553632072.174,77.637,27.832,29.785,53.711,59.570,0
1553632072.178,42.480,18.555,34.180,61.035,65.430,0
1553632072.182,15.625,22.949,31.250,57.129,37.109,0
1553632072.186,40.527,34.668,37.109,42.969,-33.691,0
1553632072.190,61.035,33.203,44.922,26.855,-0.488,0
1553632072.194,67.871,36.621,38.086,28.809,29.297,0
1553632072.197,66.406,37.109,32.715,33.691,-10.254,0
1553632072.201,57.617,21.973,29.785,45.410,-37.598,0
1553632072.205,70.801,22.949,22.461,44.922,-28.809,0
1553632072.209,67.383,33.203,21.973,35.645,8.789,0
1553632072.213,40.527,34.668,26.855,36.133,43.945,0
1553632072.217,44.922,33.203,29.297,41.992,71.289,0
1553632072.221,56.152,32.227,26.367,35.645,59.082,0
1553632072.225,8.789,28.320,31.738,39.551,65.918,0
1553632072.229,13.672,25.879,30.273,19.043,91.797,0
1553632072.233,58.105,29.785,22.461,21.484,91.797,0
1553632072.237,68.848,25.879,28.320,46.875,93.750,0
1553632072.240,45.898,22.461,28.320,53.223,83.008,0
1553632072.244,53.711,22.949,20.508,43.945,69.336,0
1553632072.248,39.062,19.043,31.250,33.691,63.477,0
1553632072.252,10.254,17.578,44.434,47.852,0.977,0
1553632072.256,47.852,27.344,36.133,33.203,1.465,0
1553632072.260,36.133,32.715,18.555,18.066,26.367,0
1553632072.264,36.621,32.715,16.113,22.461,32.227,0
1553632072.268,49.805,28.809,14.160,27.344,39.551,0
1553632072.272,55.664,24.414,0.000,43.945,65.430,0
1553632072.276,58.105,29.297,-12.207,54.199,104.980,0
1553632072.280,59.082,35.156,1.953,40.527,46.387,0
1553632072.283,47.852,15.625,41.504,36.133,41.016,0
1553632072.287,41.504,7.324,59.082,47.363,91.797,0
1553632072.291,58.594,23.438,46.387,37.109,72.754,0
1553632072.295,62.988,34.668,36.133,22.949,24.414,0
1553632072.299,28.320,42.969,22.949,28.320,30.273,0
1553632072.303,4.395,40.039,24.414,45.898,32.227,0
1553632072.307,17.090,30.273,34.668,53.223,27.344,0
1553632072.311,49.316,35.645,28.809,32.715,-4.395,0
1553632072.315,58.105,33.691,29.785,13.184,0.488,0
1553632072.319,52.246,24.902,33.691,21.484,66.895,0
1553632072.322,56.641,27.344,34.668,34.668,76.660,0
1553632072.326,34.180,31.738,27.344,21.484,49.316,0
1553632072.330,40.039,32.715,17.578,19.531,58.594,0
1553632072.334,61.035,27.344,7.812,59.570,37.109,0
1553632072.338,64.941,28.809,8.789,68.359,18.066,0
1553632072.342,72.754,40.039,28.809,44.922,42.480,0
1553632072.346,64.453,44.922,42.480,49.316,-6.836,0
1553632072.350,52.246,36.621,46.387,46.387,6.348,0
1553632072.354,64.453,28.809,42.480,49.805,84.961,0
1553632072.358,74.219,29.785,34.668,41.504,70.312,0
1553632072.362,36.621,36.133,26.855,45.898,40.527,0
1553632072.365,42.969,38.086,25.391,73.730,23.926,0
1553632072.369,70.801,34.180,27.344,48.828,20.020,0
1553632072.373,19.043,35.156,34.180,41.016,17.090,0
1553632072.377,5.859,26.367,42.969,60.547,62.012,0
1553632072.381,35.156,17.578,41.016,41.504,70.801,0
1553632072.385,47.363,25.391,39.551,41.016,63.965,0
1553632072.389,59.082,32.227,43.945,27.832,41.504,0
1553632072.393,43.457,34.668,35.156,21.973,-5.859,0
1553632072.397,48.340,35.645,18.555,46.387,-0.977,0
1553632072.401,55.664,35.645,7.324,35.156,59.570,0
1553632072.405,40.527,30.273,10.742,28.809,41.016,0
1553632072.408,15.625,21.973,22.949,24.902,-3.418,0
1553632072.412,33.203,32.227,28.320,13.184,67.871,0
1553632072.416,48.340,42.969,30.273,30.762,65.430,0
1553632072.420,36.621,37.109,25.391,40.039,20.508,0
1553632072.424,44.434,35.645,26.367,46.875,56.152,0
1553632072.428,46.387,34.180,13.672,54.688,65.430,0
1553632072.432,46.875,33.691,-5.859,39.551,31.738,0
1553632072.436,59.570,36.621,6.348,34.180,27.832,0
1553632072.440,68.848,35.645,24.414,30.273,98.145,0
1553632072.444,44.922,32.715,32.227,27.344,31.738,0
1553632072.447,31.738,33.203,32.227,41.016,2.930,0
1553632072.451,34.668,30.762,37.598,54.199,43.457,0
1553632072.455,23.438,25.879,40.527,46.875,47.852,0
1553632072.459,50.781,33.691,29.297,38.086,66.895,0
1553632072.463,66.895,41.016,28.809,48.340,42.969,0
1553632072.467,31.250,35.156,32.715,47.363,19.043,0
1553632072.471,16.602,31.250,31.250,54.688,25.391,0
1553632072.475,41.504,35.156,36.133,81.543,15.625,0
1553632072.479,97.168,40.527,38.574,87.402,16.113,0
1553632072.483,99.609,42.480,35.645,82.031,26.367,0
1553632072.487,60.547,41.504,40.039,95.703,-27.344,0
1553632072.490,72.266,45.410,45.410,104.004,-13.184,0
1553632072.494,93.750,48.828,38.574,117.188,42.969,0
1553632072.498,94.238,43.945,42.480,106.934,22.949,0
1553632072.502,83.008,35.156,46.387,83.984,15.625,0
1553632072.506,88.379,34.180,36.621,92.285,22.461,0
1553632072.510,111.816,33.203,41.992,93.262,15.625,0
1553632072.514,107.422,31.250,49.805,88.867,78.613,0
1553632072.518,87.402,31.738,46.387,96.680,94.727,0
1553632072.522,96.680,32.227,44.434,90.820,55.176,0
1553632072.526,102.539,41.016,48.828,76.172,52.734,0
1553632072.530,113.281,45.898,46.387,89.844,25.391,0
1553632072.533,134.766,45.410,30.273,117.676,-24.414,0
1553632072.537,124.512,44.922,34.668,109.375,-41.992,0
1553632072.541,83.008,39.062,47.363,60.547,-5.859,0
1553632072.545,73.242,31.738,48.340,62.012,22.461,0
1553632072.549,47.852,29.785,52.246,87.891,20.020,0
1553632072.553,45.410,26.367,54.199,73.242,27.344,0
1553632072.557,70.312,13.672,51.758,66.406,16.113,0
1553632072.561,57.617,17.090,53.223,72.266,46.875,0
1553632072.565,46.387,40.527,47.852,62.012,70.312,0
1553632072.569,62.500,48.828,44.434,62.500,24.414,0
1553632072.572,108.398,45.898,47.363,69.824,36.621,0
1553632072.576,71.777,46.875,33.203,54.199,82.520,0
1553632072.580,16.602,47.852,23.438,47.852,99.121,0
1553632072.584,53.223,49.316,37.109,78.613,40.527,0
1553632072.588,76.172,50.781,47.852,69.824,-12.207,0
1553632072.592,82.031,52.734,48.340,72.754,-25.879,0
1553632072.596,77.637,44.434,52.246,68.848,14.648,0
1553632072.600,75.195,32.227,55.176,41.016,59.082,0
1553632072.604,72.754,36.133,43.945,70.312,81.055,0
1553632072.608,45.898,42.480,46.387,73.730,76.660,0
1553632072.612,25.879,41.016,51.758,36.621,32.715,0
1553632072.615,70.312,43.457,41.504,23.438,66.406,0
1553632072.619,51.758,41.016,39.062,30.762,53.223,0
1553632072.623,18.066,38.574,30.273,48.828,71.777,0
1553632072.627,65.430,40.527,25.391,57.129,112.793,0
1553632072.631,71.289,41.016,35.156,60.059,32.715,0
1553632072.635,59.570,37.109,40.527,46.387,0.977,0
1553632072.639,69.336,38.086,45.898,52.246,17.090,0
1553632072.643,47.363,40.039,51.758,69.824,17.090,0
1553632072.647,17.578,40.039,48.340,39.062,55.176,0
1553632072.651,41.992,38.574,43.457,13.184,46.387,0
1553632072.655,26.855,31.738,40.039,25.391,11.719,0
1553632072.658,10.254,28.320,37.109,33.203,72.754,0
1553632072.662,26.855,33.203,38.086,34.668,90.820,0
1553632072.666,49.805,38.086,40.039,39.062,50.781,0
1553632072.670,62.500,38.574,39.551,46.387,38.574,0
1553632072.674,38.574,27.344,39.062,51.270,21.973,0
1553632072.678,39.062,24.414,38.086,48.828,24.902,0
1553632072.682,59.082,33.691,39.551,54.199,63.477,0
1553632072.686,46.875,34.668,38.086,18.066,37.598,0
1553632072.690,32.715,35.645,32.227,4.883,39.062,0
1553632072.694,57.617,33.203,33.203,35.156,69.824,0
1553632072.697,43.457,24.902,38.086,34.180,-24.902,0
1553632072.701,14.160,29.297,42.480,41.016,13.184,0
1553632072.705,28.809,35.645,42.969,33.691,42.480,0
1553632072.709,37.109,32.715,48.340,25.391,62.988,0
1553632072.713,24.902,25.391,54.688,36.133,93.750,0
1553632072.717,14.648,22.461,53.223,40.039,57.129,0
1553632072.721,36.621,20.996,49.805,48.828,38.086,0
1553632072.725,32.715,16.602,53.711,23.438,20.020,0
1553632072.729,15.137,12.695,51.270,-1.465,21.973,0
1553632072.733,15.625,12.207,37.598,15.137,14.160,0
1553632072.737,22.461,16.113,37.598,22.949,33.203,0
1553632072.740,51.270,20.996,42.969,21.484,30.762,0
1553632072.744,46.387,23.438,47.363,27.832,14.648,0
1553632072.748,20.508,22.949,50.293,16.602,18.555,0
1553632072.752,30.762,20.020,50.293,13.672,48.828,0
1553632072.756,40.039,25.879,43.945,40.527,9.766,0
1553632072.760,0.000,25.879,40.039,42.969,-13.184,0
1553632072.764,2.930,7.812,40.039,26.855,32.715,0
1553632072.768,39.062,6.836,35.156,23.438,15.137,0
1553632072.772,51.270,26.855,29.297,30.762,24.414,0
1553632072.776,44.434,34.668,32.715,21.973,45.410,0
1553632072.780,7.812,30.273,34.668,5.859,49.316,0
1553632072.783,-2.441,26.367,35.156,9.277,23.438,0
1553632072.787,19.531,28.809,37.598,25.879,-22.461,0
1553632072.791,20.020,32.715,31.738,41.016,18.555,0
1553632072.795,51.758,29.297,28.809,29.785,65.430,0
1553632072.799,48.340,28.320,41.504,40.039,80.078,0
1553632072.803,23.438,31.250,48.340,55.664,85.938,0
1553632072.807,42.969,28.320,41.504,42.480,57.617,0
1553632072.811,40.039,21.484,41.504,33.203,16.113,0
1553632072.815,41.504,20.020,33.691,39.062,-8.789,0
1553632072.819,34.180,20.508,32.715,49.316,-51.270,0
1553632072.822,-19.043,22.461,41.016,39.062,-18.066,0
1553632072.826,-8.789,28.320,38.086,37.109,65.430,0
1553632072.830,29.297,30.762,36.133,65.918,4.395,0
1553632072.834,13.672,33.203,41.992,52.246,1.465,0
1553632072.838,41.016,25.879,44.922,37.109,65.918,0
1553632072.842,62.988,18.555,38.574,61.523,48.340,0
1553632072.846,30.273,21.484,40.527,67.871,45.410,0
1553632072.850,53.223,29.297,33.691,56.152,33.203,0
1553632072.854,53.711,36.621,20.508,28.320,18.555,0
1553632072.858,3.906,35.645,21.973,13.184,15.137,0
1553632072.862,-7.812,36.133,32.715,30.762,-19.531,0
1553632072.865,13.672,37.598,37.598,31.250,-2.441,0
1553632072.869,31.738,28.320,40.039,25.391,21.484,0
1553632072.873,31.738,22.461,41.992,29.297,-5.371,0
1553632072.877,30.273,22.949,46.387,42.969,43.945,0
1553632072.881,40.527,26.367,48.340,59.570,67.383,0
1553632072.885,37.598,32.715,37.109,68.359,-18.555,0
1553632072.889,38.086,27.832,29.297,62.012,15.625,0
1553632072.893,43.457,26.367,24.414,48.340,39.551,0
1553632072.897,69.336,34.180,22.461,46.875,-2.930,0
1553632072.901,62.988,33.691,19.531,57.129,32.227,0
1553632072.905,28.809,31.738,15.137,55.176,2.441,0
1553632072.908,23.438,35.156,24.414,59.570,-55.664,0
1553632072.912,27.344,32.715,38.574,52.734,7.812,0
1553632072.916,42.969,18.066,42.480,43.945,29.297,0
1553632072.920,33.691,14.160,37.598,40.527,-16.113,0
1553632072.924,56.152,26.855,30.273,48.340,52.246,0
1553632072.928,43.945,30.273,34.180,50.293,108.398,0
1553632072.932,13.672,32.227,32.227,21.973,57.129,0
1553632072.936,42.480,27.344,19.043,33.203,51.270,0
1553632072.940,19.531,16.602,13.184,51.270,30.273,0
1553632072.944,0.000,20.020,25.391,58.594,30.762,0
1553632072.947,20.508,26.855,35.156,61.523,45.410,0
1553632072.951,20.996,32.227,32.715,41.016,8.301,0
1553632072.955,61.523,35.156,39.551,61.523,61.523,0
1553632072.959,51.758,37.109,41.992,77.637,95.215,0
1553632072.963,24.414,31.250,37.109,50.293,53.223,0
1553632072.967,53.711,24.902,37.598,41.504,74.219,0
1553632072.971,44.922,33.203,40.527,57.129,49.316,0
1553632072.975,54.199,35.645,30.762,60.547,44.434,0
1553632072.979,52.734,32.715,25.879,62.012,54.199,0
1553632072.983,-0.488,25.879,25.879,59.082,44.922,0
1553632072.987,11.719,15.137,25.879,48.340,69.824,0
1553632072.990,58.105,29.785,23.438,58.594,29.297,0
1553632072.994,41.016,47.852,28.320,50.781,39.062,0
1553632072.998,38.574,46.875,32.715,28.809,61.523,0
1553632073.002,45.898,48.340,31.250,38.574,21.973,0
1553632073.006,21.484,36.133,33.691,33.691,37.598,0
1553632073.010,40.527,28.809,34.668,34.180,79.102,0
1553632073.014,58.594,40.527,30.273,38.086,41.504,0
1553632073.018,45.410,45.410,19.531,40.527,-15.137,0
1553632073.022,39.062,40.039,19.531,30.273,22.949,0
1553632073.026,43.457,38.574,27.832,19.531,73.730,0
1553632073.030,16.602,34.180,33.203,33.203,49.805,0
1553632073.033,11.230,42.969,26.855,29.297,29.297,0
1553632073.037,28.320,46.387,19.043,40.039,46.875,0
1553632073.041,36.133,18.066,15.625,53.711,53.223,0
1553632073.045,41.016,12.695,24.902,37.109,20.508,0
1553632073.049,49.805,33.691,36.133,47.852,14.648,0
1553632073.053,45.898,42.969,41.504,29.297,49.316,0
1553632073.057,13.184,42.969,36.133,5.371,17.578,0
1553632073.061,11.230,38.574,32.227,24.902,37.598,0
1553632073.065,38.086,40.527,33.691,11.719,105.957,0
1553632073.069,32.227,55.176,26.855,2.930,65.430,0
1553632073.072,18.066,55.664,24.414,25.391,-17.578,0
1553632073.076,25.879,42.480,24.414,45.898,-6.348,0
1553632073.080,42.969,34.180,22.461,46.875,114.258,0
1553632073.084,54.199,34.668,23.438,18.066,116.699,0
1553632073.088,19.531,33.203,28.809,40.039,69.336,0
1553632073.092,11.230,28.320,33.691,57.129,67.871,0
1553632073.096,62.012,30.762,35.156,21.973,16.602,0
1553632073.100,42.969,23.926,35.156,21.973,54.199,0
1553632073.104,23.438,11.230,38.086,58.105,55.176,0
1553632073.108,24.902,27.832,36.133,57.129,33.203,0
1553632073.112,-8.789,42.480,29.297,-13.672,-18.066,0
1553632073.115,3.418,36.621,11.230,-2.441,-2.441,0
1553632073.119,-11.719,26.855,-3.418,12.207,24.902,0
1553632073.123,-29.297,28.809,14.648,-43.945,-16.602,0
1553632073.127,-27.344,16.602,31.250,-59.082,0.977,0
1553632073.131,-49.316,-26.367,37.109,-57.129,0.488,0
1553632073.135,-82.031,-20.508,28.809,-61.523,21.973,0
1553632073.139,-69.824,19.043,14.160,-60.059,39.551,0
1553632073.143,-55.664,33.203,0.977,-73.242,-10.742,0
1553632073.147,-77.637,34.180,-21.973,-84.961,10.742,0
1553632073.151,-64.941,33.203,-15.137,-62.012,31.738,0
1553632073.155,-56.641,30.762,7.812,-57.129,32.227,0
1553632073.158,-75.684,20.508,8.789,-64.453,82.520,0
1553632073.162,-67.383,1.465,4.883,-50.781,20.996,0
1553632073.166,-53.223,-4.883,2.930,-42.480,-4.883,0
1553632073.170,-34.668,11.230,-5.371,-23.438,67.383,0
1553632073.174,-21.973,32.715,-0.488,-3.418,12.207,0
1553632073.178,-22.461,31.738,18.555,-9.766,15.625,0
1553632073.182,-29.297,8.789,28.809,1.953,46.387,0
1553632073.186,-16.602,-3.906,33.203,18.555,32.715,0
1553632073.190,-1.465,9.277,33.203,10.742,13.672,0
1553632073.194,-13.184,26.855,23.926,3.418,22.949,0
1553632073.197,-20.996,25.879,10.254,0.977,16.602,0
1553632073.201,-0.488,21.484,0.000,7.324,3.418,0
1553632073.205,5.371,19.531,9.766,15.625,41.992,0
1553632073.209,8.789,13.672,27.344,0.488,26.367,0
1553632073.213,-13.184,19.531,35.156,1.953,35.156,0
1553632073.217,-2.441,28.809,20.020,4.883,49.805,0
1553632073.221,10.742,33.691,4.395,16.113,-8.301,0
1553632073.225,1.953,37.598,4.395,13.672,58.594,0
1553632073.229,1.953,41.504,6.348,5.859,116.699,0
1553632073.233,-3.906,38.574,-0.977,35.156,48.340,0
1553632073.237,-3.906,15.137,1.465,40.039,74.219,0
1553632073.240,7.324,-1.953,26.367,43.945,98.633,0
1553632073.244,56.641,11.230,41.992,22.949,28.320,0
1553632073.248,53.223,27.344,55.176,6.836,46.387,0
1553632073.252,-18.066,32.227,50.293,27.832,12.207,0
1553632073.256,-38.086,32.227,34.668,1.953,4.883,0
1553632073.260,11.230,29.297,20.996,-11.719,2.930,0
1553632073.264,19.043,30.273,20.996,6.836,29.785,0
1553632073.268,1.953,38.574,27.832,15.625,46.387,0
1553632073.272,20.020,40.039,30.762,21.973,38.574,0
1553632073.276,34.668,29.297,16.602,30.762,65.918,0
1553632073.280,33.203,32.227,-9.766,13.184,32.227,0
1553632073.283,15.137,39.062,-1.465,22.461,45.410,0
1553632073.287,-10.254,16.602,34.180,15.137,32.715,0
1553632073.291,-16.113,8.301,35.156,-12.207,-12.695,0
1553632073.295,11.230,28.320,38.086,9.277,-9.766,0
1553632073.299,20.508,37.598,53.223,13.672,-16.602,0
1553632073.303,1.953,41.504,30.273,3.418,-6.836,0
1553632073.307,-30.762,34.180,20.020,25.391,114.258,0
1553632073.311,-9.766,17.090,37.109,12.207,55.176,0
1553632073.315,-10.742,12.695,28.809,-8.789,-4.883,0
1553632073.319,-18.555,20.996,18.066,5.371,32.715,0
1553632073.322,19.531,29.297,25.391,9.766,4.395,0
1553632073.326,0.488,37.598,38.574,7.324,9.277,0
1553632073.330,-20.020,43.945,39.551,13.184,27.344,0
1553632073.334,5.859,35.156,29.785,16.113,47.363,0
1553632073.338,-2.441,23.438,37.598,15.137,29.785,0
1553632073.342,-19.043,22.461,48.340,43.945,-10.254,0
1553632073.346,0.000,26.855,45.898,45.410,72.266,0
1553632073.350,-17.578,30.273,43.945,29.297,25.879,0
1553632073.354,-27.344,20.020,43.457,40.039,-3.418,0
1553632073.358,-12.207,18.555,36.621,22.949,36.621,0
1553632073.362,-17.578,28.320,31.250,20.996,60.059,0
1553632073.365,-20.020,30.273,21.484,35.156,49.805,0
1553632073.369,-4.395,34.668,11.230,32.715,-14.648,0
1553632073.373,10.742,35.645,9.766,25.391,13.672,0
1553632073.377,-0.488,36.621,13.184,25.879,59.570,0
1553632073.381,-8.789,35.156,40.039,32.715,69.336,0
1553632073.385,-37.109,27.344,54.688,25.879,54.199,0
1553632073.389,-35.156,28.320,51.758,12.695,-14.160,0
1553632073.393,-24.902,32.715,45.410,20.020,-3.906,0
1553632073.397,-8.789,32.227,36.621,18.066,61.035,0
1553632073.401,3.418,28.809,34.180,34.180,34.180,0
1553632073.405,-12.207,25.879,35.156,59.082,38.086,0
1553632073.408,11.230,24.414,36.133,44.922,21.484,0
1553632073.412,12.207,25.879,38.574,31.738,10.742,0
1553632073.416,-24.414,30.762,37.598,34.180,-10.742,0
1553632073.420,-23.438,33.203,33.203,35.156,1.465,0
1553632073.424,-8.789,30.273,26.855,34.180,78.125,0
1553632073.428,6.836,36.621,14.648,46.875,92.285,0
1553632073.432,12.695,43.457,9.766,41.504,60.059,0
1553632073.436,9.766,38.086,21.973,35.156,10.742,0
1553632073.440,7.812,34.180,40.527,37.109,44.922,0
1553632073.444,13.184,31.250,51.758,33.203,52.734,0
1553632073.447,12.207,31.250,41.016,34.180,28.809,0
1553632073.451,-9.277,39.551,24.902,24.902,32.227,0
1553632073.455,12.207,42.480,36.133,26.855,-1.465,0
1553632073.459,54.688,39.062,36.133,27.344,15.625,0
1553632073.463,51.270,24.414,29.785,38.574,40.527,0
1553632073.467,5.371,20.508,29.297,66.406,33.691,0
1553632073.471,-1.953,37.109,25.391,43.945,17.090,0
1553632073.475,40.527,39.551,44.922,33.691,30.762,0
1553632073.479,12.695,29.785,57.617,36.621,50.293,0
1553632073.483,-58.105,21.973,56.152,6.348,70.801,0
1553632073.487,-55.176,20.996,48.828,0.000,41.016,0
1553632073.490,17.578,28.809,35.645,5.859,31.738,0
1553632073.494,45.410,32.227,28.809,27.344,50.293,0
1553632073.498,3.906,25.391,31.738,37.598,40.039,0
1553632073.502,5.371,22.949,31.738,56.152,24.414,0
1553632073.506,36.621,36.621,35.645,70.801,54.199,0
1553632073.510,36.621,44.922,45.898,51.270,66.895,0
1553632073.514,62.500,34.180,38.086,33.691,-3.906,0
1553632073.518,62.012,28.809,23.926,30.273,-46.875,0
1553632073.522,4.395,30.762,18.555,9.277,-63.477,0
1553632073.526,-25.391,29.297,17.578,15.137,-20.508,0
1553632073.530,-3.906,32.227,24.902,55.664,23.438,0
1553632073.533,-3.418,37.598,36.133,31.250,-9.766,0
1553632073.537,-18.066,34.668,29.785,21.973,-24.414,0
1553632073.541,-1.465,29.297,19.531,37.598,54.688,0
1553632073.545,31.738,23.926,27.344,43.457,70.312,0
1553632073.549,44.434,23.438,35.156,54.688,37.598,0
1553632073.553,-1.953,28.320,44.922,49.316,-3.906,0
1553632073.557,-2.930,35.645,51.758,55.664,13.184,0
1553632073.561,8.789,37.598,46.387,61.523,94.238,0
1553632073.565,21.973,31.738,31.738,29.297,56.641,0
1553632073.569,26.367,27.344,28.809,28.320,15.137,0
1553632073.572,3.906,29.785,34.180,35.156,53.223,0
1553632073.576,26.367,33.203,36.133,22.949,100.586,0
1553632073.580,44.922,40.039,31.738,33.203,60.547,0
1553632073.584,34.668,37.598,25.879,59.570,36.133,0
1553632073.588,14.160,28.809,32.227,94.727,53.223,0
1553632073.592,31.738,36.133,23.926,86.914,32.227,0
1553632073.596,18.066,40.039,15.137,66.895,61.523,0
1553632073.600,-23.438,37.109,29.785,71.289,51.758,0
1553632073.604,41.016,39.062,38.086,57.129,48.828,0
1553632073.608,56.152,39.062,39.062,50.293,57.129,0
1553632073.612,3.906,31.738,35.156,60.059,4.395,0
1553632073.615,-14.160,22.461,34.668,70.312,-11.230,0
1553632073.619,-4.395,29.785,32.715,74.219,67.383,0
1553632073.623,6.836,40.527,23.438,62.012,98.633,0
1553632073.627,35.645,40.527,16.602,55.664,70.312,0
1553632073.631,32.715,41.016,7.324,62.012,93.262,0
1553632073.635,41.504,40.527,-1.465,48.340,66.406,0
1553632073.639,26.367,27.832,14.160,45.898,19.043,0
1553632073.643,-13.672,20.996,35.156,61.035,75.195,0
1553632073.647,2.930,30.762,30.273,57.617,69.824,0
1553632073.651,11.230,29.297,36.133,51.270,55.176,0
1553632073.655,16.602,18.555,46.875,52.734,29.785,0
1553632073.658,8.789,29.785,41.504,64.453,3.418,0
1553632073.662,28.320,43.457,36.621,54.688,62.012,0
1553632073.666,47.852,43.457,34.180,53.223,46.875,0
1553632073.670,31.250,42.969,31.738,77.148,20.508,0
1553632073.674,16.602,33.203,29.785,62.988,36.621,0
1553632073.678,11.230,22.949,33.691,55.176,55.176,0
1553632073.682,-2.441,20.996,38.086,43.945,44.922,0
1553632073.686,1.465,20.020,36.133,38.086,51.270,0
1553632073.690,25.879,25.879,37.598,62.500,76.172,0
1553632073.694,47.852,33.203,17.090,76.172,48.828,0
1553632073.697,54.199,34.180,-13.672,61.035,35.645,0
1553632073.701,0.488,30.273,9.277,58.105,30.273,0
1553632073.705,-48.340,25.879,39.062,55.176,67.871,0
1553632073.709,-6.836,23.926,40.039,34.180,30.762,0
1553632073.713,32.715,28.809,41.992,45.898,23.438,0
1553632073.717,36.621,36.621,40.527,64.941,93.750,0
1553632073.721,41.504,41.016,30.762,41.992,59.570,0
1553632073.725,47.852,37.598,26.367,25.879,44.922,0
1553632073.729,45.898,29.297,25.879,50.781,55.664,0
1553632073.733,48.828,32.227,21.973,60.059,26.855,0
1553632073.737,39.551,44.434,24.414,67.383,36.621,0
1553632073.740,41.504,48.340,22.461,87.891,44.434,0
1553632073.744,37.598,45.410,14.160,67.383,27.344,0
1553632073.748,36.133,39.062,23.438,58.105,34.668,0
1553632073.752,38.086,35.645,30.762,86.426,33.203,0
1553632073.756,42.969,33.691,31.738,101.074,27.832,0
1553632073.760,41.992,23.926,33.203,78.613,12.695,0
1553632073.764,34.180,12.207,34.180,54.199,-11.230,0
1553632073.768,22.461,9.277,31.738,53.223,31.250,0
1553632073.772,35.645,20.020,28.320,66.895,15.625,0
1553632073.776,39.551,31.250,27.344,56.641,15.625,0
1553632073.780,5.859,37.598,20.020,47.363,62.012,0
1553632073.783,10.742,34.180,14.648,51.270,56.152,0
1553632073.787,18.555,28.320,22.461,32.715,51.758,0
1553632073.791,20.996,40.527,29.297,34.180,74.219,0
1553632073.795,31.738,51.270,30.273,54.688,82.031,0
1553632073.799,20.996,46.387,36.133,65.918,85.938,0
1553632073.803,10.742,36.621,39.551,53.223,60.547,0
1553632073.807,10.254,26.855,41.504,44.434,63.477,0
1553632073.811,8.301,23.438,37.109,35.645,69.824,0
1553632073.815,13.672,30.273,27.832,32.715,47.852,0
1553632073.819,20.996,36.621,32.715,42.480,45.898,0
1553632073.822,29.297,36.133,33.203,42.480,33.203,0
1553632073.826,21.973,30.762,29.297,43.457,10.742,0
1553632073.830,25.391,26.855,21.484,62.012,9.277,0
1553632073.834,21.973,26.855,20.020,68.848,20.508,0
1553632073.838,9.277,21.973,32.227,69.336,0.488,0
1553632073.842,10.742,17.090,39.062,60.547,1.953,0
1553632073.846,13.672,30.273,38.086,53.223,-3.906,0
1553632073.850,7.324,43.457,40.527,52.734,-11.230,0
1553632073.854,0.000,47.852,40.039,55.176,-20.996,0
1553632073.858,20.020,47.363,36.621,62.012,20.996,0
1553632073.862,41.504,43.457,37.598,57.129,62.500,0
1553632073.865,37.598,45.898,21.973,62.012,22.461,0
1553632073.869,47.363,42.480,7.812,78.125,2.441,0
1553632073.873,63.477,36.621,17.090,62.500,4.395,0
1553632073.877,30.273,36.621,29.785,41.504,27.344,0
1553632073.881,28.320,27.832,36.621,43.945,19.531,0
1553632073.885,49.316,18.066,40.039,66.406,22.949,0
1553632073.889,32.715,25.879,41.992,59.082,48.340,0
1553632073.893,29.297,42.480,37.109,40.527,27.832,0
1553632073.897,18.066,55.664,30.273,65.918,45.410,0
1553632073.901,37.109,52.734,26.367,69.824,78.125,0
1553632073.905,64.941,42.969,32.715,50.781,-11.719,0
1553632073.908,22.461,38.574,38.574,52.246,-40.039,0
1553632073.912,15.137,38.086,36.133,56.641,53.223,0
1553632073.916,62.012,35.645,35.156,46.387,96.680,0
1553632073.920,64.941,35.645,31.738,55.664,55.664,0
1553632073.924,40.527,42.480,22.461,72.266,2.930,0
1553632073.928,46.875,38.574,26.367,72.754,34.180,0
1553632073.932,79.590,34.180,31.738,70.312,53.223,0
1553632073.936,59.082,31.250,30.273,52.734,40.039,0
1553632073.940,30.762,24.414,37.109,46.875,-3.906,0
1553632073.944,48.828,26.367,45.410,43.457,-0.488,0
1553632073.947,31.738,24.414,41.992,15.625,52.734,0
1553632073.951,4.883,20.020,33.203,23.438,61.523,0
1553632073.955,15.625,28.809,33.691,51.270,-0.488,0
1553632073.959,36.621,47.852,29.297,52.734,14.160,0
1553632073.963,46.875,50.781,25.391,62.012,41.504,0
1553632073.967,42.480,40.527,24.414,71.777,14.648,0
1553632073.971,34.668,32.227,26.855,56.152,38.574,0
1553632073.975,19.531,30.762,20.020,42.969,19.531,0
1553632073.979,21.484,30.273,13.672,41.504,39.062,0
1553632073.983,43.457,36.621,15.137,44.434,50.293,0
1553632073.987,42.480,37.598,18.555,26.367,20.996,0
1553632073.990,33.691,25.391,28.809,33.691,16.602,0
1553632073.994,32.227,27.344,28.809,55.664,45.898,0
1553632073.998,47.363,29.297,32.227,54.688,60.547,0
1553632074.002,48.340,31.250,40.039,52.246,49.316,0
1553632074.006,27.832,34.668,41.504,41.504,55.664,0
1553632074.010,27.832,34.180,35.156,32.715,20.020,0
1553632074.014,2.930,28.809,22.461,26.367,-2.441,0
1553632074.018,3.418,25.879,20.996,39.551,-4.395,0
1553632074.022,29.785,29.785,24.902,42.480,13.184,0
1553632074.026,34.180,29.297,29.785,29.297,28.809,0
1553632074.030,25.391,28.809,35.156,30.273,63.477,0
1553632074.033,37.598,27.344,32.227,41.016,31.738,0
1553632074.037,11.719,32.715,26.855,21.484,16.602,0
1553632074.041,-20.508,32.715,31.738,15.137,17.090,0
1553632074.045,-6.836,22.949,36.621,25.391,20.996,0
1553632074.049,15.625,25.391,32.227,-4.883,59.570,0
1553632074.053,18.066,22.461,30.762,26.855,12.695,0
1553632074.057,0.977,15.625,30.762,43.457,-19.531,0
1553632074.061,21.484,22.461,28.320,26.367,46.875,0
1553632074.065,21.484,28.809,20.996,43.945,56.152,0
1553632074.069,36.133,24.414,16.602,59.570,-14.648,0
1553632074.072,18.555,23.926,29.785,37.598,-7.324,0
1553632074.076,-10.254,28.809,36.133,33.203,27.344,0
1553632074.080,27.832,30.273,34.180,31.738,41.992,0
1553632074.084,22.461,32.715,40.527,39.551,36.133,0
1553632074.088,25.391,30.762,41.016,52.734,-3.906,0
1553632074.092,40.039,31.250,32.715,37.109,9.766,0
1553632074.096,15.625,33.203,31.250,40.527,83.008,0
1553632074.100,16.602,30.762,32.715,58.105,86.914,0
1553632074.104,35.645,28.320,33.203,52.246,71.289,0
1553632074.108,41.504,24.414,40.527,41.016,80.078,0
1553632074.112,18.066,24.414,39.062,42.480,54.688,0
1553632074.115,16.113,28.809,28.809,40.527,67.383,0
1553632074.119,55.664,32.227,26.367,50.781,29.297,0
1553632074.123,79.102,32.227,31.250,42.480,42.480,0
1553632074.127,49.805,25.391,31.250,42.969,94.727,0
1553632074.131,31.738,26.855,23.926,72.754,41.992,0
1553632074.135,61.523,28.809,23.926,53.223,43.457,0
1553632074.139,46.387,28.809,13.672,44.922,99.609,0
1553632074.143,31.250,26.855,16.113,40.039,43.457,0
1553632074.147,18.555,20.020,40.039,32.227,23.926,0
1553632074.151,5.859,19.531,45.410,44.434,29.785,0
1553632074.155,27.832,20.996,34.180,32.227,54.688,0
1553632074.158,55.176,29.297,31.738,42.969,66.406,0
1553632074.162,65.430,29.785,35.156,51.270,10.254,0
1553632074.166,32.227,26.367,32.715,35.645,16.602,0
1553632074.170,3.418,30.762,38.086,31.250,12.207,0
1553632074.174,-17.578,32.715,50.781,34.180,5.371,0
1553632074.178,1.953,19.531,44.922,66.895,11.719,0
1553632074.182,40.039,17.090,24.414,72.266,0.488,0
1553632074.186,36.621,33.691,26.367,28.809,-10.742,0
1553632074.190,22.949,34.180,40.527,14.160,44.922,0
1553632074.194,12.207,29.785,41.992,20.996,114.258,0
1553632074.197,32.715,35.645,26.855,29.785,124.512,0
1553632074.201,62.988,20.996,23.438,34.180,-1.953,0
1553632074.205,10.254,16.602,33.203,39.062,5.859,0
1553632074.209,-36.621,31.250,30.762,38.574,64.453,0
1553632074.213,-7.812,30.762,24.902,41.016,7.812,0
1553632074.217,16.602,28.320,21.484,50.781,27.344,0
1553632074.221,18.555,31.738,16.113,73.730,40.527,0
1553632074.225,41.016,34.668,13.184,41.992,-33.203,0
1553632074.229,15.625,32.227,10.742,-5.371,-53.711,0
1553632074.233,-5.371,24.902,20.996,30.762,31.738,0
1553632074.237,53.711,34.180,41.016,74.219,98.145,0
1553632074.240,37.109,34.668,38.574,61.523,91.797,0
1553632074.244,-6.836,23.926,31.250,28.320,52.246,0
1553632074.248,30.273,27.832,33.691,6.348,43.945,0
1553632074.252,20.508,27.344,33.691,33.691,43.945,0
1553632074.256,7.324,26.855,31.250,54.199,37.109,0
1553632074.260,46.387,26.855,20.508,62.988,48.340,0
1553632074.264,43.945,19.043,17.090,59.570,54.199,0
1553632074.268,11.719,19.043,12.207,48.340,61.035,0
1553632074.272,50.781,38.574,8.789,52.246,61.523,0
1553632074.276,57.129,45.410,34.180,52.734,42.969,0
1553632074.280,8.301,33.691,48.828,48.340,36.133,0
1553632074.283,14.648,28.320,42.480,57.129,60.547,0
1553632074.287,18.066,28.320,35.645,54.688,1.953,0
1553632074.291,14.160,29.297,23.926,29.785,2.441,0
1553632074.295,27.344,35.645,25.879,41.504,76.660,0
1553632074.299,15.137,38.574,36.133,66.406,58.105,0
1553632074.303,7.812,30.762,40.527,35.156,42.969,0
1553632074.307,11.230,23.438,43.945,7.324,43.945,0
1553632074.311,29.297,21.973,37.598,16.602,13.672,0
1553632074.315,42.969,25.391,28.320,31.250,38.574,0
1553632074.319,4.883,27.832,22.949,46.387,-6.836,0
1553632074.322,-1.465,27.832,19.531,40.527,-23.438,0
1553632074.326,-8.789,28.320,13.184,30.273,26.367,0
1553632074.330,-9.766,25.391,11.719,53.223,39.062,0
1553632074.334,-1.465,21.484,25.391,71.289,89.844,0
1553632074.338,-45.898,19.531,34.180,56.152,84.473,0
1553632074.342,-23.438,20.508,42.480,54.199,25.391,0
1553632074.346,6.836,25.879,41.504,35.156,-4.395,0
1553632074.350,-4.395,35.156,20.508,18.555,26.855,0
1553632074.354,23.438,39.551,14.648,37.109,42.480,0
1553632074.358,55.176,43.457,32.715,52.246,72.266,0
1553632074.362,12.207,41.504,43.945,50.781,57.617,0
1553632074.365,-9.766,33.691,32.227,35.156,14.648,0
1553632074.369,5.859,30.762,10.254,31.250,32.715,0
1553632074.373,-33.691,29.785,15.137,35.156,37.598,0
1553632074.377,-48.340,20.020,32.715,26.855,-11.719,0
1553632074.381,-31.250,13.184,41.992,31.738,-52.734,0
1553632074.385,-23.926,15.625,45.410,39.551,22.461,0
1553632074.389,-35.156,14.648,46.387,36.133,65.918,0
1553632074.393,-40.039,17.578,43.457,25.391,-2.930,0
1553632074.397,-8.789,20.508,39.062,9.766,-43.945,0
1553632074.401,-17.578,24.902,39.551,16.113,-33.203,0
1553632074.405,-25.879,29.785,37.109,31.250,8.789,0
1553632074.408,-32.715,25.391,31.250,36.621,3.906,0
1553632074.412,-36.621,19.043,29.785,21.484,27.832,0
1553632074.416,-6.836,23.926,29.785,13.184,56.152,0
1553632074.420,-27.344,23.438,32.227,13.672,42.969,0
1553632074.424,-56.152,26.855,34.180,11.230,29.785,0
1553632074.428,-29.785,26.855,33.691,26.367,26.367,0
1553632074.432,-16.602,21.484,37.598,26.855,35.645,0
1553632074.436,-19.531,28.320,31.738,8.301,31.738,0
1553632074.440,-7.324,30.273,18.066,0.977,16.602,0
1553632074.444,-7.812,26.367,23.438,15.137,68.848,0
1553632074.447,-11.719,24.902,37.598,40.527,25.879,0
1553632074.451,-2.441,23.438,43.945,24.902,-8.789,0
1553632074.455,-20.996,23.926,46.387,21.973,90.332,0
1553632074.459,-17.090,27.344,44.434,26.367,65.918,0
1553632074.463,0.488,27.344,41.992,25.391,-19.043,0
1553632074.467,13.672,25.391,42.969,33.691,-23.926,0
1553632074.471,1.465,25.391,38.574,13.184,44.434,0
1553632074.475,-16.602,31.250,34.668,13.672,101.562,0
1553632074.479,-7.812,35.156,31.250,30.762,68.359,0
1553632074.483,16.113,32.227,26.367,41.504,38.086,0
1553632074.487,33.691,23.926,27.832,49.316,31.738,0
1553632074.490,34.180,28.320,30.762,55.664,23.926,0
1553632074.494,30.762,37.598,28.809,44.434,44.922,0
1553632074.498,35.156,36.133,27.832,17.578,80.078,0
1553632074.502,12.695,34.180,32.715,-2.441,61.523,0
1553632074.506,-19.043,36.133,34.668,12.207,38.086,0
1553632074.510,11.719,39.062,26.367,27.344,21.973,0
1553632074.514,50.781,38.086,19.531,25.879,79.590,0
1553632074.518,34.668,41.016,24.414,26.367,82.520,0
1553632074.522,27.344,44.922,29.297,28.809,65.430,0
1553632074.526,37.109,43.457,31.738,31.250,52.734,0
1553632074.530,23.926,40.527,34.180,32.715,14.160,0
1553632074.533,1.465,39.062,38.086,26.855,-24.902,0
1553632074.537,23.438,37.598,36.621,21.973,1.465,0
1553632074.541,37.598,34.668,24.902,25.879,56.152,0
1553632074.545,18.066,32.227,18.555,30.762,52.734,0
1553632074.549,44.434,24.902,13.672,41.016,31.738,0
1553632074.553,58.594,26.367,5.371,39.062,6.348,0
1553632074.557,45.410,39.062,-0.977,28.809,-4.883,0
1553632074.561,52.734,39.062,4.395,35.156,15.625,0
1553632074.565,63.477,26.855,16.113,33.691,1.953,0
1553632074.569,41.016,28.320,8.789,42.480,-10.742,0
1553632074.572,47.852,31.250,5.371,44.922,32.227,0
1553632074.576,51.270,31.738,13.672,28.320,21.973,0
1553632074.580,16.602,30.762,13.672,35.156,68.359,0
1553632074.584,30.762,26.367,26.855,51.270,86.426,0
1553632074.588,43.945,26.367,39.062,42.480,34.668,0
1553632074.592,22.461,30.273,43.457,35.645,51.270,0
1553632074.596,46.875,28.809,46.875,58.105,42.480,0
1553632074.600,60.059,19.043,40.039,55.664,7.812,0
1553632074.604,47.852,17.578,31.738,42.969,27.832,0
1553632074.608,61.523,27.832,22.461,32.715,56.152,0
1553632074.612,68.359,27.344,21.973,33.203,99.121,0
1553632074.615,52.734,22.949,31.250,41.016,82.520,0
1553632074.619,33.203,29.297,34.180,49.805,48.828,0
1553632074.623,24.414,40.039,35.156,45.410,52.734,0
1553632074.627,31.250,35.645,31.250,16.602,56.152,0
1553632074.631,11.719,21.484,24.902,11.719,107.422,0
1553632074.635,17.090,25.391,25.879,41.016,108.398,0
1553632074.639,54.199,27.832,28.809,44.922,85.938,0
1553632074.643,43.945,27.344,31.738,31.738,72.266,0
1553632074.647,33.203,29.785,30.762,42.969,74.707,0
1553632074.651,37.598,27.344,33.691,60.059,83.008,0
1553632074.655,52.734,31.250,35.645,55.176,35.156,0
1553632074.658,41.504,35.645,32.227,54.199,-16.113,0
1553632074.662,4.883,38.086,27.832,42.480,7.324,0
1553632074.666,6.348,39.062,24.902,16.602,6.348,0
1553632074.670,32.227,37.109,25.879,28.320,19.531,0
1553632074.674,46.387,34.180,30.273,60.547,42.969,0
1553632074.678,73.730,33.691,29.785,52.734,33.691,0
1553632074.682,66.406,18.066,25.391,37.109,63.965,0
1553632074.686,49.805,10.254,18.066,54.199,38.574,0
1553632074.690,62.988,31.250,11.230,49.805,56.152,0
1553632074.694,62.988,38.574,30.273,41.016,91.309,0
1553632074.697,38.086,33.203,47.852,49.805,35.156,0
1553632074.701,26.855,29.297,40.039,48.828,37.598,0
1553632074.705,46.875,27.832,31.738,43.457,-16.602,0
1553632074.709,27.344,25.391,36.621,51.758,-47.363,0
1553632074.713,20.996,21.484,40.039,42.480,27.832,0
1553632074.717,48.340,18.555,39.062,20.508,45.410,0
1553632074.721,34.180,21.973,37.598,36.621,26.367,0
1553632074.725,16.602,24.902,33.691,44.434,-25.879,0
1553632074.729,44.922,20.996,31.250,44.434,-18.555,0
1553632074.733,59.570,24.414,27.832,57.129,12.207,0
1553632074.737,30.273,26.855,23.438,63.965,-21.484,0
1553632074.740,20.020,27.344,19.531,72.266,-22.949,0
1553632074.744,34.668,28.320,17.090,61.523,-7.324,0
1553632074.748,25.879,26.367,24.902,37.598,26.855,0
1553632074.752,52.734,21.484,32.227,34.668,1.953,0
1553632074.756,54.199,20.996,31.738,47.363,0.000,0
1553632074.760,16.113,27.832,27.832,45.410,57.129,0
1553632074.764,17.578,35.645,29.297,49.316,39.551,0
1553632074.768,39.551,29.785,30.762,48.340,39.062,0
1553632074.772,48.828,18.555,17.090,42.480,41.016,0
1553632074.776,39.551,16.602,19.043,37.598,56.641,0
1553632074.780,31.250,19.043,37.109,36.621,67.383,0
1553632074.783,42.969,19.043,48.828,38.574,26.855,0
1553632074.787,47.852,18.555,50.293,42.969,26.855,0
1553632074.791,29.297,21.973,36.133,31.250,40.527,0
1553632074.795,54.688,22.949,14.160,47.363,-9.277,0
1553632074.799,54.199,24.902,9.277,54.688,-15.625,0
1553632074.803,26.367,33.691,27.344,40.527,22.949,0
1553632074.807,18.066,32.227,42.480,43.945,107.422,0
1553632074.811,11.230,18.066,48.828,43.945,131.348,0
1553632074.815,12.207,12.695,49.316,47.852,27.832,0
1553632074.819,13.184,21.973,37.109,28.320,21.973,0
1553632074.822,11.719,26.855,24.902,16.113,55.664,0
1553632074.826,6.836,24.902,23.926,37.109,53.223,0
1553632074.830,16.602,21.484,28.320,45.410,37.598,0
1553632074.834,25.391,23.926,33.691,31.250,18.066,0
1553632074.838,42.969,28.809,29.785,22.949,33.691,0
1553632074.842,53.711,26.367,34.180,52.734,6.348,0
1553632074.846,40.039,26.855,31.738,42.969,-4.883,0
1553632074.850,61.035,33.203,21.973,20.996,47.363,0
1553632074.854,43.457,33.203,36.621,38.574,94.727,0
1553632074.858,-23.926,27.344,48.828,23.926,64.941,0
1553632074.862,-14.648,27.832,41.992,11.230,4.395,0
1553632074.865,16.113,29.297,32.715,21.973,-2.441,0
1553632074.869,24.902,28.320,27.344,33.691,-1.465,0
1553632074.873,-5.859,23.926,27.832,32.715,-20.020,0
1553632074.877,-7.324,23.438,30.273,14.648,4.883,0
1553632074.881,20.508,26.367,34.668,19.531,32.715,0
1553632074.885,0.000,24.414,32.715,49.805,9.277,0
1553632074.889,-9.277,26.855,21.484,47.363,40.527,0
1553632074.893,26.855,31.250,20.996,34.668,79.102,0
1553632074.897,49.316,32.227,28.320,37.598,5.371,0
1553632074.901,33.691,30.273,33.203,36.621,18.555,0
1553632074.905,26.855,33.691,35.645,45.898,24.902,0
1553632074.908,-1.953,33.691,36.621,41.016,12.207,0
1553632074.912,9.766,27.832,32.227,17.090,85.938,0
1553632074.916,48.340,26.855,27.832,35.156,65.918,0
1553632074.920,26.855,27.344,30.762,58.105,1.465,0
1553632074.924,31.250,35.156,27.832,31.738,-22.949,0
1553632074.928,27.344,37.598,15.625,16.602,-27.832,0
1553632074.932,-1.465,25.879,22.949,27.832,-42.480,0
1553632074.936,-13.184,12.695,37.109,34.180,-8.789,0
1553632074.940,-18.555,6.836,42.969,39.551,28.809,0
1553632074.944,-26.367,18.555,41.504,41.992,68.848,0
1553632074.947,-14.648,30.273,39.062,43.945,65.430,0
1553632074.951,-15.137,30.273,40.527,49.805,32.715,0
1553632074.955,-18.066,28.809,36.621,40.039,41.016,0
1553632074.959,-29.297,33.203,32.227,39.062,89.844,0
1553632074.963,-30.273,29.785,31.738,55.176,75.684,0
1553632074.967,-1.953,27.344,30.762,31.250,27.344,0
1553632074.971,1.953,32.227,25.391,4.883,73.730,0
1553632074.975,-13.184,34.180,20.020,10.742,32.227,0
1553632074.979,-12.695,26.367,18.555,24.414,-18.555,0
1553632074.983,-15.137,17.578,26.367,35.645,11.719,0
1553632074.987,-30.762,16.602,37.109,30.273,47.363,0
1553632074.990,-56.641,20.996,34.180,11.719,52.734,0
1553632074.994,-42.969,26.855,31.250,25.879,42.480,0
1553632074.998,-36.621,25.391,33.203,37.598,70.801,0
1553632075.002,-57.617,26.367,31.738,18.066,92.285,0
1553632075.006,-41.016,32.715,28.320,28.320,74.219,0
1553632075.010,-33.203,32.227,28.320,28.320,23.926,0
1553632075.014,6.836,31.250,37.109,24.902,-28.320,0
1553632075.018,4.395,29.785,40.527,26.367,34.180,0
1553632075.022,-9.277,29.297,36.133,36.621,51.270,0
1553632075.026,3.906,35.156,29.785,43.945,56.641,0
1553632075.030,2.930,43.457,25.391,39.551,72.266,0
1553632075.033,12.207,44.434,22.461,41.504,44.434,0
1553632075.037,17.090,35.645,27.832,17.090,7.812,0
1553632075.041,4.395,32.227,27.832,-1.465,-51.758,0
1553632075.045,-40.039,38.086,26.367,16.113,-19.531,0
1553632075.049,-37.598,39.551,38.574,37.598,99.121,0
1553632075.053,8.301,35.645,50.293,54.199,102.051,0
1553632075.057,-3.906,34.180,51.270,69.824,19.531,0
1553632075.061,10.742,33.691,35.645,41.992,18.066,0
1553632075.065,18.555,37.598,35.156,19.531,40.527,0
1553632075.069,-30.273,28.320,50.293,27.832,62.988,0
1553632075.072,-23.926,17.578,51.270,28.320,50.293,0
1553632075.076,14.160,22.949,43.457,37.598,-3.418,0
1553632075.080,-1.465,22.949,39.551,41.992,-9.277,0
1553632075.084,-18.066,20.508,40.527,42.969,59.570,0
1553632075.088,-18.555,21.484,41.016,36.621,106.445,0
1553632075.092,-3.418,21.484,40.527,36.133,70.801,0
1553632075.096,32.715,20.996,42.969,59.082,38.086,0
1553632075.100,42.969,22.461,50.293,72.266,15.137,0
1553632075.104,44.922,15.625,59.570,58.105,-6.836,0
1553632075.108,47.852,11.719,57.617,78.613,73.242,0
1553632075.112,34.180,21.484,53.711,85.938,85.938,0
1553632075.115,17.090,26.855,52.246,87.402,30.762,0
1553632075.119,33.203,25.879,51.270,104.004,27.832,0
1553632075.123,58.105,25.391,55.664,97.168,25.391,0
1553632075.127,56.641,21.484,56.641,103.516,53.711,0
1553632075.131,48.340,19.531,58.594,110.840,48.828,0
1553632075.135,37.109,20.508,65.430,111.816,5.371,0
1553632075.139,53.711,23.926,65.430,118.652,66.895,0
1553632075.143,59.082,29.785,57.617,119.629,47.363,0
1553632075.147,49.805,25.879,58.594,111.816,34.180,0
1553632075.151,49.316,21.973,58.105,103.027,44.434,0
1553632075.155,47.363,19.531,54.688,97.656,-10.254,0
1553632075.158,47.363,24.902,52.734,107.422,24.902,0
1553632075.162,39.062,25.879,58.105,114.746,28.809,0
1553632075.166,51.758,18.066,49.805,121.094,22.461,0
1553632075.170,66.895,21.484,17.578,96.191,30.273,0
1553632075.174,32.227,26.855,20.996,71.289,-14.648,0
1553632075.178,12.695,26.855,52.246,71.289,-51.758,0
1553632075.182,16.113,21.484,68.848,70.312,19.043,0
1553632075.186,11.230,21.973,71.777,64.453,41.016,0
1553632075.190,12.207,19.531,73.730,62.012,7.812,0
1553632075.194,-7.812,20.996,68.359,72.266,13.672,0
1553632075.197,-17.578,28.320,57.129,84.961,-12.207,0
1553632075.201,4.883,19.531,55.176,79.590,-70.801,0
1553632075.205,24.414,18.066,59.570,73.242,-15.137,0
1553632075.209,-2.930,27.832,61.035,84.961,22.949,0
1553632075.213,-17.090,28.809,52.734,109.863,-18.066,0
1553632075.217,-40.039,17.578,51.270,86.426,4.883,0
1553632075.221,-52.246,10.742,42.969,48.340,-12.207,0
1553632075.225,-21.973,17.578,25.879,56.641,64.941,0
1553632075.229,-16.113,27.832,38.574,58.105,65.918,0
1553632075.233,-20.508,27.832,49.805,61.523,33.691,0
1553632075.237,-17.090,20.020,49.316,64.453,53.223,0
1553632075.240,-8.301,20.996,59.570,74.707,31.250,0
1553632075.244,-14.160,20.020,66.895,56.641,97.168,0
1553632075.248,-25.391,7.812,63.965,50.781,98.633,0
1553632075.252,-46.387,0.977,58.105,68.359,46.387,0
1553632075.256,-33.203,14.160,44.922,53.223,46.387,0
1553632075.260,-28.809,21.484,30.762,56.641,31.250,0
1553632075.264,-37.109,20.996,26.367,76.660,35.156,0
1553632075.268,-47.852,23.926,35.645,70.801,32.715,0
1553632075.272,-60.547,17.090,39.062,73.242,27.344,0
1553632075.276,-51.758,9.766,37.109,71.289,-18.555,0
1553632075.280,-52.734,11.719,41.504,39.062,-9.766,0
1553632075.283,-35.645,17.578,44.922,27.832,17.578,0
1553632075.287,-23.438,24.414,42.969,25.879,-28.809,0
1553632075.291,-66.406,31.738,25.879,20.996,26.855,0
1553632075.295,-71.777,26.855,18.066,38.574,69.336,0
1553632075.299,-47.852,17.090,34.668,46.387,18.555,0
1553632075.303,-51.270,11.230,41.992,42.969,68.848,0
1553632075.307,-43.457,10.254,46.387,36.133,105.957,0
1553632075.311,-44.922,16.602,41.016,31.250,48.340,0
1553632075.315,-71.777,19.531,37.109,36.133,17.090,0
1553632075.319,-73.730,18.555,42.969,30.762,15.137,0
1553632075.322,-91.309,22.949,44.434,32.715,16.113,0
1553632075.326,-99.121,22.949,43.457,34.180,0.000,0
1553632075.330,-79.102,17.578,42.969,36.133,2.930,0
1553632075.334,-57.617,14.160,44.922,72.266,10.742,0
1553632075.338,-52.734,26.367,45.410,67.383,27.832,0
1553632075.342,-84.961,32.715,37.109,23.438,26.855,0
1553632075.346,-100.098,27.832,23.926,22.949,48.828,0
1553632075.350,-73.242,32.715,21.973,19.531,41.504,0
1553632075.354,-87.402,34.180,27.832,7.812,-13.672,0
1553632075.358,-152.344,33.691,25.879,-21.484,2.930,0
1553632075.362,-171.387,17.090,-22.461,-48.340,45.410,0
1553632075.365,-195.801,1.465,-42.480,-50.781,36.133,0
1553632075.369,-209.473,6.836,7.324,-46.875,49.805,0
1553632075.373,-173.828,15.137,40.039,-57.617,68.359,0
1553632075.377,-145.508,33.691,37.598,-63.477,23.438,0
1553632075.381,-156.738,36.621,20.508,-63.965,16.113,0
1553632075.385,-208.496,15.625,15.137,-77.148,38.086,0
1553632075.389,-229.980,12.207,10.254,-80.078,7.812,0
1553632075.393,-200.684,21.484,-3.418,-42.969,31.250,0
