timestamps,TP9,AF7,AF8,TP10,Right AUX,Marker0
1542907309.724,-11.230,12.207,20.996,24.902,52.246,0
1542907309.727,-14.160,14.648,12.207,29.297,51.758,0
1542907309.731,-19.531,27.344,6.836,33.691,63.477,0
1542907309.735,-14.160,24.414,20.020,33.203,31.738,0
1542907309.739,-13.672,13.184,31.250,31.250,54.199,0
1542907309.743,-19.043,4.395,32.227,23.926,95.215,0
1542907309.747,-10.742,13.184,35.156,21.973,75.684,0
1542907309.751,-5.371,19.043,34.668,18.555,69.336,0
1542907309.755,-19.043,12.695,27.344,19.531,56.152,0
1542907309.759,-18.066,15.625,22.949,28.809,35.156,0
1542907309.763,-16.113,24.414,22.461,24.902,34.668,0
1542907309.767,-6.836,33.691,15.137,15.625,51.270,0
1542907309.770,-1.953,30.762,10.254,6.836,59.082,0
1542907309.774,-5.371,25.879,24.414,6.348,55.176,0
1542907309.778,-25.391,23.926,35.156,3.906,76.172,0
1542907309.782,-37.109,19.531,31.250,-6.836,72.754,0
1542907309.786,-14.648,10.254,29.297,-9.766,55.176,0
1542907309.790,-14.160,-3.906,31.738,-5.371,62.500,0
1542907309.794,-13.672,-5.371,21.973,-9.766,76.172,0
1542907309.798,-10.742,-17.578,15.137,-7.812,38.086,0
1542907309.802,-13.184,-18.066,19.043,-5.371,53.711,0
1542907309.806,-9.766,-20.508,21.484,-11.230,70.312,0
1542907309.810,-20.996,-32.227,31.250,0.000,17.090,0
1542907309.813,-10.742,3.418,40.527,8.789,34.668,0
1542907309.817,1.953,41.504,33.691,3.906,78.125,0
1542907309.821,9.277,38.574,29.297,0.488,16.602,0
1542907309.825,14.160,28.809,35.645,20.020,12.207,0
1542907309.829,2.930,27.344,38.086,32.227,73.242,0
1542907309.833,-5.859,15.625,35.645,12.207,83.984,0
1542907309.837,-16.602,12.207,29.785,7.324,66.895,0
1542907309.841,1.465,21.973,29.297,3.418,22.461,0
1542907309.845,23.926,5.859,34.180,2.930,55.664,0
1542907309.849,-4.883,-3.418,36.621,12.695,91.309,0
1542907309.852,-0.488,17.090,36.133,6.836,74.219,0
1542907309.856,-0.977,21.484,36.621,3.906,39.062,0
1542907309.860,-10.742,20.020,27.344,-0.488,26.855,0
1542907309.864,8.301,12.695,27.832,-1.953,22.461,0
1542907309.868,21.484,7.812,40.039,11.230,31.738,0
1542907309.872,15.137,10.742,45.898,7.324,41.016,0
1542907309.876,15.625,0.000,49.805,4.883,9.766,0
1542907309.880,15.625,-3.906,49.805,27.832,4.883,0
1542907309.884,8.789,5.859,52.734,36.621,50.293,0
1542907309.888,29.785,10.254,59.570,37.109,99.121,0
1542907309.892,46.875,6.836,64.453,26.855,80.078,0
1542907309.895,44.434,0.977,65.918,33.691,29.785,0
1542907309.899,32.715,4.395,70.801,53.223,-31.738,0
1542907309.903,33.203,7.812,78.613,58.105,43.945,0
1542907309.907,55.176,7.812,77.148,71.777,153.320,0
1542907309.911,58.594,6.836,73.242,61.523,129.883,0
1542907309.915,58.105,5.859,74.707,53.711,115.723,0
1542907309.919,74.219,11.230,75.195,56.641,97.656,0
1542907309.923,87.891,16.113,73.242,57.129,23.438,0
1542907309.927,86.914,15.137,78.125,76.172,13.184,0
1542907309.931,65.918,6.836,78.613,69.336,7.324,0
1542907309.935,62.988,3.906,69.336,69.824,18.066,0
1542907309.938,79.102,14.648,69.336,37.109,60.547,0
1542907309.942,88.379,-0.977,76.660,-56.641,73.730,0
1542907309.946,75.195,0.000,73.730,-71.289,32.715,0
1542907309.950,67.871,37.109,68.359,-35.645,63.477,0
1542907309.954,66.895,54.688,58.105,-11.230,89.355,0
1542907309.958,72.754,41.504,48.828,13.184,14.160,0
1542907309.962,64.941,24.414,55.664,29.297,62.988,0
1542907309.966,52.734,16.113,65.918,37.109,85.449,0
1542907309.970,48.340,13.184,66.895,41.504,26.855,0
1542907309.974,48.340,34.180,65.918,46.387,20.996,0
1542907309.977,63.965,48.340,61.523,45.898,50.293,0
1542907309.981,53.711,42.480,62.988,51.270,100.098,0
1542907309.985,44.922,23.438,60.059,55.176,62.988,0
1542907309.989,41.016,27.344,50.293,51.270,44.434,0
1542907309.993,36.621,34.668,50.781,42.969,56.641,0
1542907309.997,38.086,22.949,48.340,49.316,33.691,0
1542907310.001,50.781,27.344,51.758,52.734,55.176,0
1542907310.005,46.875,36.133,51.758,35.156,83.984,0
1542907310.009,11.230,37.109,43.457,38.086,70.312,0
1542907310.013,28.320,11.719,44.922,61.035,12.695,0
1542907310.017,39.551,-41.992,51.270,67.383,1.953,0
1542907310.020,12.207,-14.648,42.969,57.129,33.691,0
1542907310.024,3.418,60.547,36.133,57.129,4.883,0
1542907310.028,21.973,68.359,36.621,66.406,64.941,0
1542907310.032,29.785,55.664,40.039,62.012,75.195,0
1542907310.036,24.414,51.758,45.898,60.547,-8.301,0
1542907310.040,30.273,43.457,42.480,66.895,48.340,0
1542907310.044,28.809,34.668,44.922,68.359,57.129,0
1542907310.048,38.086,30.762,48.340,71.289,38.574,0
1542907310.052,44.434,29.785,40.039,61.035,23.926,0
1542907310.056,28.809,19.043,36.621,54.199,5.859,0
1542907310.060,40.527,14.160,39.551,73.242,25.391,0
1542907310.063,25.879,24.414,41.016,78.613,33.203,0
1542907310.067,14.648,29.785,40.039,74.707,20.508,0
1542907310.071,39.551,32.715,36.133,77.637,21.973,0
1542907310.075,49.316,32.715,31.250,73.730,54.688,0
1542907310.079,51.270,33.203,26.367,67.871,70.312,0
1542907310.083,72.266,34.668,30.762,77.637,75.684,0
1542907310.087,59.570,30.762,41.016,81.055,33.691,0
1542907310.091,22.461,20.020,49.805,81.055,8.789,0
1542907310.095,36.621,20.508,50.293,89.355,42.480,0
1542907310.099,57.617,25.879,43.457,89.844,64.453,0
1542907310.102,69.824,20.020,46.875,98.633,72.266,0
1542907310.106,67.383,13.184,48.828,102.539,52.734,0
1542907310.110,48.340,9.766,39.062,88.379,70.312,0
1542907310.114,44.922,14.160,38.086,86.426,77.637,0
1542907310.118,47.852,19.043,40.527,94.727,26.367,0
1542907310.122,40.039,20.508,36.621,91.309,47.363,0
1542907310.126,45.410,14.648,33.203,86.426,35.156,0
1542907310.130,54.688,6.348,37.109,83.008,63.477,0
1542907310.134,52.734,18.555,35.645,89.844,69.824,0
1542907310.138,53.711,26.367,27.832,82.031,36.133,0
1542907310.142,39.062,12.207,31.250,74.219,102.051,0
1542907310.145,41.016,20.508,35.645,80.078,88.867,0
1542907310.149,59.082,34.180,36.133,77.637,118.652,0
1542907310.153,48.340,30.273,37.109,70.801,170.410,0
1542907310.157,35.156,27.344,36.621,64.453,107.422,0
1542907310.161,50.781,25.879,38.086,63.965,73.730,0
1542907310.165,53.223,19.043,34.180,53.711,89.844,0
1542907310.169,44.922,21.484,31.250,50.781,62.988,0
1542907310.173,51.758,31.738,32.715,56.641,63.477,0
1542907310.177,59.570,30.762,34.180,53.223,20.996,0
1542907310.181,50.293,20.020,36.621,49.316,-27.344,0
1542907310.185,42.969,4.883,41.504,57.617,-37.598,0
1542907310.188,58.594,1.465,50.293,53.223,-21.973,0
1542907310.192,52.246,14.160,47.363,25.391,23.438,0
1542907310.196,42.480,32.715,41.504,11.719,23.926,0
1542907310.200,42.969,50.293,41.504,12.207,30.273,0
1542907310.204,35.645,55.664,37.109,1.465,29.297,0
1542907310.208,18.066,43.945,32.227,-12.207,16.113,0
1542907310.212,1.953,49.805,32.715,-21.484,6.836,0
1542907310.216,-24.414,61.523,41.992,-38.086,18.555,0
1542907310.220,-54.688,52.734,44.922,-50.293,42.969,0
1542907310.224,-54.688,52.246,41.016,-56.152,4.883,0
1542907310.227,-55.664,80.566,34.180,-82.031,3.906,0
1542907310.231,-104.492,105.469,23.438,-145.020,-15.625,0
1542907310.235,-142.090,114.746,21.973,-186.035,-20.508,0
1542907310.239,-162.598,121.582,17.090,-218.262,22.461,0
1542907310.243,-185.547,117.188,12.695,-248.535,-30.273,0
1542907310.247,-216.309,122.559,15.625,-263.672,-5.371,0
1542907310.251,-244.141,133.789,10.742,-285.156,19.043,0
1542907310.255,-246.094,141.113,1.465,-297.363,38.086,0
1542907310.259,-254.883,149.902,-0.488,-304.199,57.617,0
1542907310.263,-250.000,146.973,-4.395,-304.199,92.285,0
1542907310.267,-236.328,131.348,-13.184,-317.871,69.336,0
1542907310.270,-229.980,124.512,-11.230,-304.688,20.020,0
1542907310.274,-220.703,161.621,-16.113,-298.828,21.973,0
1542907310.278,-205.566,171.387,-26.855,-303.223,13.672,0
1542907310.282,-163.574,132.812,-26.367,-248.047,12.207,0
1542907310.286,-162.598,87.402,-32.715,-221.191,22.949,0
1542907310.290,-151.367,80.078,-43.945,-214.355,67.871,0
1542907310.294,-104.492,104.004,-45.898,-181.641,77.637,0
1542907310.298,-106.934,102.539,-36.621,-156.738,47.363,0
1542907310.302,-91.797,81.543,-21.973,-120.117,68.359,0
1542907310.306,-60.059,65.918,-25.391,-92.773,43.945,0
1542907310.310,-49.316,54.688,-30.273,-86.426,34.180,0
1542907310.313,-38.086,38.574,-27.344,-70.801,28.809,0
1542907310.317,-19.043,26.367,-27.832,-47.852,44.434,0
1542907310.321,0.488,22.461,-27.832,-29.785,63.477,0
1542907310.325,23.926,16.113,-29.297,-10.742,-1.953,0
1542907310.329,33.203,1.953,-30.273,6.836,33.691,0
1542907310.333,40.039,-5.859,-29.785,13.184,63.965,0
1542907310.337,52.246,-8.301,-28.809,21.973,32.715,0
1542907310.341,56.152,-8.789,-23.926,38.574,27.344,0
1542907310.345,50.293,-8.301,-18.555,42.480,22.949,0
1542907310.349,39.062,-13.672,-17.578,44.922,27.344,0
1542907310.352,51.758,0.488,-21.973,51.758,33.691,0
1542907310.356,61.523,7.812,-26.367,55.664,54.688,0
1542907310.360,64.453,-2.441,-17.090,65.918,33.691,0
1542907310.364,70.312,-15.137,-10.742,70.312,42.969,0
1542907310.368,68.848,-20.996,-12.207,64.941,30.273,0
1542907310.372,67.871,-18.066,-5.859,77.148,27.344,0
1542907310.376,78.613,-12.695,4.883,80.566,124.023,0
1542907310.380,74.707,-27.344,8.301,89.355,120.605,0
1542907310.384,64.941,-56.641,0.000,101.074,12.207,0
1542907310.388,73.242,-22.461,-2.441,103.027,37.598,0
1542907310.392,68.359,9.277,4.395,104.980,36.621,0
1542907310.395,72.754,-6.836,19.043,116.699,6.836,0
1542907310.399,77.148,-13.672,27.344,129.395,80.078,0
1542907310.403,63.965,-8.301,21.973,125.488,60.547,0
1542907310.407,61.035,-3.418,13.184,121.582,63.477,0
1542907310.411,65.918,-5.859,16.113,127.930,76.660,0
1542907310.415,85.449,-15.625,28.320,135.254,46.875,0
1542907310.419,96.191,-24.902,26.367,133.301,41.504,0
1542907310.423,91.309,-19.531,20.508,126.953,83.496,0
1542907310.427,74.707,-30.273,21.973,116.211,59.082,0
1542907310.431,64.941,-27.344,24.902,110.840,27.832,0
1542907310.435,62.988,-12.207,22.949,96.680,91.797,0
1542907310.438,60.059,-10.742,26.367,81.543,76.660,0
1542907310.442,52.734,-15.625,29.785,74.707,43.945,0
1542907310.446,46.875,-14.648,30.762,64.941,37.598,0
1542907310.450,64.453,-11.719,34.668,77.148,-9.277,0
1542907310.454,74.707,-28.320,30.762,81.055,3.906,0
1542907310.458,71.777,-26.855,34.180,77.637,23.438,0
1542907310.462,71.289,-13.184,32.715,93.262,1.953,0
1542907310.466,55.664,-29.785,31.250,97.168,11.719,0
1542907310.470,53.223,-17.090,42.969,90.332,43.457,0
1542907310.474,62.012,11.719,41.992,91.797,38.086,0
1542907310.477,54.199,12.207,39.062,89.844,38.574,0
1542907310.481,44.434,3.906,37.598,88.379,83.984,0
1542907310.485,58.105,0.000,32.715,87.402,103.027,0
1542907310.489,60.547,-25.391,37.109,94.727,79.590,0
1542907310.493,33.691,-47.363,33.691,95.703,57.129,0
1542907310.497,35.156,-7.324,38.086,83.496,84.473,0
1542907310.501,34.180,22.949,42.480,74.219,109.375,0
1542907310.505,31.250,17.578,33.203,71.289,75.684,0
1542907310.509,28.809,10.254,33.203,70.801,31.738,0
1542907310.513,29.785,6.836,39.062,72.754,37.109,0
1542907310.517,28.320,4.395,39.062,70.312,63.477,0
1542907310.520,22.949,1.953,40.527,68.848,67.383,0
1542907310.524,33.691,4.883,36.133,66.895,114.746,0
1542907310.528,33.691,-13.672,28.809,62.500,85.449,0
1542907310.532,16.113,-18.555,32.227,57.617,44.434,0
1542907310.536,16.602,7.324,29.297,50.293,61.035,0
1542907310.540,22.949,12.207,26.855,47.363,53.711,0
1542907310.544,19.531,6.348,28.320,35.645,58.594,0
1542907310.548,23.926,-0.977,28.809,28.809,75.195,0
1542907310.552,23.926,5.859,34.180,41.992,94.727,0
1542907310.556,17.578,14.648,34.668,39.062,111.816,0
1542907310.560,12.695,6.348,31.738,31.738,50.293,0
1542907310.563,20.020,2.930,31.738,37.109,20.508,0
1542907310.567,32.715,2.930,33.203,55.176,72.754,0
1542907310.571,14.160,1.953,41.504,52.734,103.516,0
1542907310.575,-18.555,6.348,48.828,31.738,90.332,0
1542907310.579,-13.184,5.371,48.340,33.203,35.156,0
1542907310.583,-25.391,-0.977,49.316,34.668,24.414,0
1542907310.587,-40.527,-6.348,54.688,34.668,49.805,0
1542907310.591,-28.320,-3.906,58.594,30.762,38.086,0
1542907310.595,-11.719,0.977,56.641,28.809,46.387,0
1542907310.599,-8.789,-1.465,47.363,30.762,-32.715,0
1542907310.602,-18.555,-7.324,39.551,21.484,11.719,0
1542907310.606,-11.719,-18.066,37.598,21.973,41.504,0
1542907310.610,-3.418,-11.230,33.691,27.832,1.953,0
1542907310.614,-8.301,6.836,40.527,29.785,92.285,0
1542907310.618,-16.113,-4.395,48.340,34.180,28.809,0
1542907310.622,-18.066,-9.766,42.969,27.344,16.602,0
1542907310.626,-1.953,-1.953,43.945,26.855,101.074,0
1542907310.630,-1.465,-5.371,41.992,26.855,41.016,0
1542907310.634,-14.160,-11.719,40.039,29.297,45.898,0
1542907310.638,-16.113,6.348,34.668,29.785,83.984,0
1542907310.642,-9.277,20.996,29.297,27.344,47.363,0
1542907310.645,-2.930,14.160,38.574,37.109,81.055,0
1542907310.649,-3.418,-6.348,41.504,43.945,42.480,0
1542907310.653,-9.766,-12.695,32.227,40.527,41.992,0
1542907310.657,-6.836,-0.488,32.715,39.551,62.500,0
1542907310.661,4.395,7.812,43.457,37.598,11.230,0
1542907310.665,-7.324,14.160,45.898,38.086,10.254,0
1542907310.669,-7.812,12.695,35.645,39.062,23.926,0
1542907310.673,0.977,5.371,25.879,47.363,72.754,0
1542907310.677,-4.883,-5.371,34.180,45.410,27.344,0
1542907310.681,-8.301,-3.906,41.992,33.203,10.254,0
1542907310.685,-8.789,5.371,38.086,39.062,-5.371,0
1542907310.688,-13.184,-2.441,38.574,36.621,-5.859,0
1542907310.692,-22.949,-11.230,32.227,27.344,38.086,0
1542907310.696,-16.602,7.324,22.949,35.156,34.180,0
1542907310.700,-3.418,15.137,23.926,43.457,26.855,0
1542907310.704,3.906,1.465,28.320,40.039,3.906,0
1542907310.708,-2.441,-1.953,34.668,30.762,-23.926,0
1542907310.712,-15.137,-7.324,39.551,29.297,8.301,0
1542907310.716,-19.043,-8.789,42.480,37.598,88.867,0
1542907310.720,-3.906,-4.395,32.227,33.691,60.547,0
1542907310.724,-0.977,-13.672,23.438,38.574,21.484,0
1542907310.727,-11.719,-4.395,29.297,40.039,67.871,0
1542907310.731,-8.301,18.066,40.527,26.855,65.918,0
1542907310.735,-19.531,21.484,43.945,26.367,69.824,0
1542907310.739,-15.137,8.789,41.992,32.227,41.992,0
1542907310.743,-12.695,4.883,41.016,40.039,14.160,0
1542907310.747,-13.672,-2.930,39.062,49.805,18.555,0
1542907310.751,-14.160,-17.090,31.738,44.922,31.738,0
1542907310.755,-9.277,1.465,28.320,36.621,20.996,0
1542907310.759,-6.348,24.414,30.273,40.527,11.230,0
1542907310.763,-18.066,19.531,30.273,50.781,51.758,0
1542907310.767,-11.719,13.184,35.156,48.340,67.383,0
1542907310.770,-4.395,19.531,33.203,41.992,78.125,0
1542907310.774,-5.859,14.648,25.391,43.945,80.566,0
1542907310.778,-3.906,9.766,32.715,40.039,22.949,0
1542907310.782,-10.254,11.230,34.668,38.086,-25.879,0
1542907310.786,-8.789,12.695,26.855,41.504,17.578,0
1542907310.790,-6.348,16.602,30.273,43.945,15.625,0
1542907310.794,-9.277,19.043,35.645,52.246,27.832,0
1542907310.798,2.930,20.996,36.621,55.176,64.941,0
1542907310.802,0.977,10.254,38.574,48.340,54.199,0
1542907310.806,-12.207,6.348,40.527,52.246,34.668,0
1542907310.810,-9.766,12.207,37.109,53.711,32.227,0
1542907310.813,-7.324,6.836,33.691,49.805,43.945,0
1542907310.817,6.836,13.672,35.645,52.734,4.883,0
1542907310.821,0.977,23.438,35.645,57.617,44.434,0
1542907310.825,-6.348,23.926,32.227,52.734,85.449,0
1542907310.829,1.953,19.531,31.738,43.945,56.641,0
1542907310.833,4.395,7.812,34.180,49.805,43.457,0
1542907310.837,8.789,3.418,36.621,54.199,50.781,0
1542907310.841,8.301,13.184,35.645,54.199,53.223,0
1542907310.845,16.602,21.973,32.227,57.129,13.184,0
1542907310.849,8.789,19.531,28.320,57.129,-40.039,0
1542907310.852,-3.418,16.602,28.809,49.316,2.441,0
1542907310.856,-0.977,18.066,35.156,43.945,83.008,0
1542907310.860,1.465,-2.930,45.410,60.059,53.711,0
1542907310.864,4.883,-18.066,40.039,68.359,7.324,0
1542907310.868,0.488,6.836,26.367,46.387,21.973,0
1542907310.872,-12.695,31.738,18.555,20.996,46.875,0
1542907310.876,-14.160,39.062,14.160,19.531,20.020,0
1542907310.880,-16.602,35.156,16.113,30.762,6.348,0
1542907310.884,-21.973,31.250,20.508,24.414,81.055,0
1542907310.888,-23.438,29.297,22.949,25.391,147.949,0
1542907310.892,-27.832,27.832,21.484,21.484,62.500,0
1542907310.895,-21.973,24.902,17.578,15.137,13.672,0
1542907310.899,-5.371,21.484,14.648,12.207,4.883,0
1542907310.903,-12.695,18.066,18.066,0.488,31.738,0
1542907310.907,-10.254,9.277,20.508,10.254,46.387,0
1542907310.911,-18.066,18.555,20.996,13.672,77.637,0
1542907310.915,-25.391,30.273,23.926,14.160,101.562,0
1542907310.919,-12.207,26.367,25.391,17.578,99.121,0
1542907310.923,-6.348,29.785,27.832,25.391,72.754,0
1542907310.927,2.930,32.715,25.391,30.762,40.527,0
1542907310.931,-3.418,27.832,21.973,38.574,74.219,0
1542907310.935,2.441,20.508,23.926,48.828,36.621,0
1542907310.938,2.930,14.160,23.438,44.434,-7.812,0
1542907310.942,1.953,18.555,24.414,39.062,0.000,0
1542907310.946,10.742,28.320,28.809,41.016,60.059,0
1542907310.950,11.230,29.297,30.273,43.457,48.828,0
1542907310.954,13.672,23.926,25.391,36.621,2.930,0
1542907310.958,19.531,19.043,26.855,36.133,-9.277,0
1542907310.962,15.137,15.625,28.809,30.762,-5.371,0
1542907310.966,6.348,14.160,26.855,29.785,61.523,0
1542907310.970,3.418,14.648,25.391,32.715,71.289,0
1542907310.974,-1.465,18.066,27.344,33.691,61.523,0
1542907310.977,-1.465,17.090,27.832,37.109,76.172,0
1542907310.981,4.395,8.301,26.367,37.109,73.242,0
1542907310.985,-0.488,8.789,22.949,37.598,53.711,0
1542907310.989,-0.977,2.930,25.391,42.969,41.016,0
1542907310.993,8.789,1.953,33.203,41.016,70.801,0
1542907310.997,9.766,16.113,37.109,36.133,75.195,0
1542907311.001,11.719,20.020,35.645,37.598,42.480,0
1542907311.005,16.113,22.461,36.621,40.039,50.781,0
1542907311.009,4.883,23.438,33.691,41.504,67.383,0
1542907311.013,13.184,16.602,29.785,39.062,51.270,0
1542907311.017,18.555,12.207,27.344,37.109,50.293,0
1542907311.020,0.977,12.207,23.926,40.527,-15.137,0
1542907311.024,5.859,12.207,25.391,38.574,-43.945,0
1542907311.028,11.719,15.625,26.367,38.086,6.348,0
1542907311.032,9.277,19.043,25.391,46.387,2.441,0
1542907311.036,13.184,19.531,24.414,47.852,31.250,0
1542907311.040,12.207,24.902,22.949,44.922,60.059,0
1542907311.044,11.230,26.855,26.367,43.457,3.418,0
1542907311.048,15.137,18.066,30.273,45.898,16.602,0
1542907311.052,12.695,15.137,29.297,42.969,105.469,0
1542907311.056,24.414,9.277,26.855,39.551,101.562,0
1542907311.060,41.016,3.418,27.832,33.691,61.035,0
1542907311.063,23.926,-3.418,32.715,38.574,77.148,0
1542907311.067,8.301,2.930,32.715,46.387,60.059,0
1542907311.071,21.973,23.926,32.715,46.875,23.926,0
1542907311.075,17.578,28.809,34.180,59.570,56.641,0
1542907311.079,20.508,28.320,29.785,62.500,92.285,0
1542907311.083,24.902,15.625,28.809,53.223,58.105,0
1542907311.087,22.461,16.113,30.762,52.246,10.742,0
1542907311.091,23.926,23.438,31.738,52.734,21.973,0
1542907311.095,26.367,10.254,34.180,58.105,32.227,0
1542907311.099,34.668,22.949,25.879,64.453,36.621,0
1542907311.102,26.367,31.738,21.484,60.059,22.461,0
1542907311.106,15.137,5.859,24.414,72.754,62.988,0
1542907311.110,-7.324,-7.812,34.180,84.473,91.309,0
1542907311.114,-3.418,5.859,36.621,58.594,59.082,0
1542907311.118,8.789,9.766,23.438,45.898,41.016,0
1542907311.122,0.977,5.859,18.555,57.129,65.918,0
1542907311.126,2.441,0.977,19.043,66.406,85.938,0
1542907311.130,16.113,18.066,20.996,59.570,83.496,0
1542907311.134,17.578,39.551,28.809,54.688,92.285,0
1542907311.138,11.230,35.645,39.062,65.918,46.387,0
1542907311.142,-1.953,18.555,36.621,77.637,40.527,0
1542907311.145,-2.930,7.812,29.297,73.242,41.992,0
1542907311.149,6.836,12.695,37.598,58.594,31.738,0
1542907311.153,0.000,16.602,37.598,47.363,44.922,0
1542907311.157,-7.812,19.531,31.738,43.457,58.105,0
1542907311.161,-0.488,11.230,37.109,58.105,61.523,0
1542907311.165,3.418,7.812,41.504,69.824,99.121,0
1542907311.169,13.672,19.531,22.461,69.824,125.488,0
1542907311.173,37.109,5.371,16.113,77.148,85.449,0
1542907311.177,25.879,-3.906,38.086,75.684,33.203,0
1542907311.181,-8.301,16.113,49.316,64.453,-1.953,0
1542907311.185,-2.930,17.578,43.457,69.824,27.832,0
1542907311.188,5.859,36.621,43.945,67.871,65.918,0
1542907311.192,5.859,45.410,43.945,51.758,34.668,0
1542907311.196,26.855,7.324,28.809,58.594,20.020,0
1542907311.200,14.648,10.742,28.320,58.105,45.898,0
1542907311.204,-9.766,38.574,36.133,45.410,38.574,0
1542907311.208,-6.836,38.086,32.715,47.363,56.152,0
1542907311.212,-16.113,26.367,29.785,54.199,2.441,0
1542907311.216,15.625,-10.254,28.809,80.566,-38.086,0
1542907311.220,21.973,-26.855,39.062,82.520,15.137,0
1542907311.224,9.766,24.414,53.223,58.594,28.320,0
1542907311.227,0.977,39.551,56.152,61.523,-5.859,0
1542907311.231,-14.648,17.578,50.781,46.875,2.930,0
1542907311.235,-4.883,19.531,49.316,54.688,-4.883,0
1542907311.239,-14.160,25.879,40.039,57.129,18.066,0
1542907311.243,-15.625,21.973,31.738,28.809,43.945,0
1542907311.247,4.883,15.137,39.062,63.965,50.781,0
1542907311.251,3.906,6.836,44.922,87.402,42.480,0
1542907311.255,-5.371,-1.465,36.133,60.059,25.391,0
1542907311.259,16.602,13.672,34.180,50.781,5.859,0
1542907311.263,-0.488,2.930,35.156,57.617,-8.301,0
1542907311.267,11.719,-11.230,40.039,62.988,7.812,0
1542907311.270,15.625,29.297,52.734,61.035,34.180,0
1542907311.274,-8.301,33.203,52.734,47.363,58.105,0
1542907311.278,6.348,-4.395,50.781,42.969,77.637,0
1542907311.282,30.273,0.000,48.340,56.641,59.082,0
1542907311.286,22.949,13.184,42.480,62.988,42.480,0
1542907311.290,6.836,32.715,42.480,69.824,20.508,0
1542907311.294,10.254,64.453,45.898,62.500,19.043,0
1542907311.298,29.297,56.641,44.434,67.871,-4.883,0
1542907311.302,32.227,39.062,41.504,71.289,30.762,0
1542907311.306,7.324,35.645,29.297,57.129,22.461,0
1542907311.310,2.930,17.578,32.227,62.500,7.812,0
1542907311.313,20.020,-2.930,44.434,59.570,31.250,0
1542907311.317,16.113,1.465,43.945,47.852,26.367,0
1542907311.321,12.207,-1.465,43.945,52.734,39.062,0
1542907311.325,23.926,3.418,44.922,50.781,53.711,0
1542907311.329,19.043,29.297,44.434,41.504,74.219,0
1542907311.333,7.812,46.387,33.203,33.203,34.180,0
1542907311.337,10.254,49.316,21.973,39.551,-1.953,0
1542907311.341,24.902,42.969,32.715,52.246,27.344,0
1542907311.345,34.180,41.016,49.316,47.363,67.871,0
1542907311.349,34.180,42.480,48.340,38.574,49.805,0
1542907311.352,35.645,32.715,42.480,25.391,24.902,0
1542907311.356,44.434,17.090,42.480,11.719,14.160,0
1542907311.360,31.250,8.301,39.062,5.859,62.500,0
1542907311.364,20.996,16.602,26.855,1.953,71.777,0
1542907311.368,23.438,13.672,23.438,9.277,31.738,0
1542907311.372,27.344,10.742,31.250,22.949,54.199,0
1542907311.376,30.273,2.441,33.691,18.555,74.219,0
1542907311.380,23.438,19.531,35.645,17.578,55.664,0
1542907311.384,22.949,44.922,29.297,17.578,1.465,0
1542907311.388,29.297,25.879,25.879,13.184,28.320,0
1542907311.392,29.297,19.043,34.668,17.578,56.641,0
1542907311.395,27.832,20.508,41.992,16.602,52.246,0
1542907311.399,27.344,11.230,38.086,11.230,38.574,0
1542907311.403,31.738,7.324,37.109,14.648,47.852,0
1542907311.407,35.156,7.812,44.434,19.531,49.805,0
1542907311.411,24.902,16.113,44.434,9.277,58.105,0
1542907311.415,16.113,19.531,41.504,-1.465,45.898,0
1542907311.419,29.297,15.137,40.039,-5.859,6.348,0
1542907311.423,38.574,1.953,35.156,-1.953,11.719,0
1542907311.427,28.809,-1.465,27.832,-5.371,54.688,0
1542907311.431,29.785,23.926,31.250,-5.371,43.945,0
1542907311.435,27.344,19.531,37.598,-5.371,13.672,0
1542907311.438,20.508,11.719,42.969,-10.254,64.941,0
1542907311.442,9.766,19.043,45.898,-12.695,100.098,0
1542907311.446,-6.348,24.902,41.992,-22.461,101.074,0
1542907311.450,12.207,21.973,39.062,-27.832,55.664,0
1542907311.454,13.672,15.625,33.691,-26.367,20.020,0
1542907311.458,8.301,24.414,28.809,-15.137,58.105,0
1542907311.462,18.066,21.973,33.203,7.812,66.895,0
1542907311.466,0.977,11.719,39.062,-2.930,81.055,0
1542907311.470,-19.043,8.789,43.945,-23.438,89.355,0
1542907311.474,-16.113,7.324,49.316,-17.578,46.875,0
1542907311.477,-16.113,4.395,47.363,-10.742,49.805,0
1542907311.481,-19.043,-0.977,41.504,-12.695,66.895,0
1542907311.485,-8.789,-5.859,42.480,-19.531,94.238,0
1542907311.489,-19.043,-1.465,46.387,-20.508,63.477,0
1542907311.493,-24.414,-2.930,43.945,-11.230,51.758,0
1542907311.497,-9.766,-4.395,40.039,-8.301,41.504,0
1542907311.501,-4.883,3.906,39.551,2.441,32.715,0
1542907311.505,-10.742,5.371,34.668,-0.977,65.918,0
1542907311.509,-6.836,-1.465,33.691,-4.883,18.066,0
1542907311.513,-19.043,-6.348,35.156,0.000,-12.695,0
1542907311.517,-19.531,6.836,40.039,3.906,30.273,0
1542907311.520,-8.301,5.371,36.133,10.254,58.594,0
1542907311.524,-5.859,-4.883,26.855,16.602,108.398,0
1542907311.528,0.000,2.930,32.227,22.949,122.559,0
1542907311.532,-0.488,1.465,39.551,24.902,79.590,0
1542907311.536,-0.488,11.230,36.133,21.973,91.797,0
1542907311.540,-6.836,13.672,37.598,15.625,117.676,0
1542907311.544,-1.953,-12.695,31.738,19.531,58.594,0
1542907311.548,-0.977,8.301,22.949,16.602,44.922,0
1542907311.552,-2.441,51.270,29.297,10.254,6.348,0
1542907311.556,-11.719,52.734,36.621,11.719,-20.996,0
1542907311.560,-18.066,40.039,36.621,24.902,18.066,0
1542907311.563,2.930,29.297,31.250,32.715,39.062,0
1542907311.567,5.859,22.949,26.855,27.832,31.250,0
1542907311.571,-10.742,13.184,35.156,37.109,-5.371,0
1542907311.575,-10.254,2.441,34.180,47.852,9.277,0
1542907311.579,-22.949,10.742,20.508,34.180,26.367,0
1542907311.583,-16.113,21.973,31.250,33.691,35.156,0
1542907311.587,-4.883,30.273,41.016,31.250,65.918,0
1542907311.591,-15.137,35.645,35.156,26.855,56.641,0
1542907311.595,-13.672,27.832,32.227,29.785,24.902,0
1542907311.599,-6.348,0.000,28.809,26.367,39.551,0
1542907311.602,-1.465,5.859,26.855,25.391,33.691,0
1542907311.606,-25.391,27.832,34.180,23.926,47.363,0
1542907311.610,-32.715,32.227,34.180,20.020,91.797,0
1542907311.614,-34.180,32.227,32.227,18.066,78.125,0
1542907311.618,-32.227,25.391,28.320,18.066,18.066,0
1542907311.622,-14.160,14.648,23.926,22.949,24.902,0
1542907311.626,-2.441,4.883,27.832,20.020,68.359,0
1542907311.630,0.000,14.648,34.180,13.672,44.922,0
1542907311.634,-16.602,21.973,32.227,11.719,23.926,0
1542907311.638,-20.020,2.441,32.227,10.254,44.434,0
1542907311.642,-5.859,14.160,38.574,13.672,51.758,0
1542907311.645,-12.695,33.691,34.668,20.996,25.879,0
1542907311.649,-15.137,26.855,23.438,25.879,4.883,0
1542907311.653,-10.742,13.672,25.391,26.367,8.789,0
1542907311.657,-9.766,13.184,37.109,29.785,32.715,0
1542907311.661,-9.277,22.949,36.621,30.762,42.969,0
1542907311.665,-8.301,30.762,30.273,29.297,50.781,0
1542907311.669,-3.418,33.691,31.738,30.762,41.016,0
1542907311.673,-4.395,28.809,34.180,29.297,11.719,0
1542907311.677,-0.977,25.879,40.527,37.109,37.598,0
1542907311.681,-0.488,20.996,40.527,35.156,58.594,0
1542907311.685,7.812,21.484,39.062,26.367,45.898,0
1542907311.688,4.883,25.391,40.039,26.855,70.801,0
1542907311.692,0.488,29.297,39.062,25.879,53.223,0
1542907311.696,3.906,24.902,34.180,28.320,15.625,0
1542907311.700,5.371,23.438,28.320,38.086,94.238,0
1542907311.704,4.395,26.367,31.250,42.480,120.117,0
1542907311.708,3.418,18.066,37.109,44.434,52.734,0
1542907311.712,-5.371,16.113,37.598,48.828,66.895,0
1542907311.716,-19.531,20.020,33.203,45.410,41.992,0
1542907311.720,-20.508,7.324,27.344,48.828,-10.254,0
1542907311.724,-20.996,4.883,25.879,49.805,37.109,0
1542907311.727,-17.578,8.789,27.832,37.109,28.320,0
1542907311.731,-12.695,3.906,37.109,34.180,36.133,0
1542907311.735,-29.297,19.043,41.992,33.691,38.086,0
1542907311.739,-37.598,27.832,31.738,13.184,15.625,0
1542907311.743,-33.203,22.461,27.832,10.742,31.250,0
1542907311.747,-16.602,14.648,35.156,19.043,6.348,0
1542907311.751,-9.766,12.207,35.156,18.555,-16.602,0
1542907311.755,-14.160,6.348,33.691,31.250,43.945,0
1542907311.759,0.977,0.000,41.016,48.828,48.828,0
1542907311.763,7.324,15.625,42.969,45.898,5.859,0
1542907311.767,2.930,24.902,41.016,41.992,6.348,0
1542907311.770,-4.395,22.949,40.527,42.969,46.875,0
1542907311.774,-14.160,25.879,35.156,31.738,61.035,0
1542907311.778,-8.789,19.531,33.691,26.367,19.531,0
1542907311.782,-4.883,8.789,39.551,23.926,48.340,0
1542907311.786,-7.812,11.719,41.992,23.926,74.707,0
1542907311.790,-17.090,13.184,41.504,27.832,94.727,0
1542907311.794,-17.578,7.812,35.645,26.855,42.480,0
1542907311.798,-7.324,19.531,23.438,17.578,-1.465,0
1542907311.802,-7.324,22.949,25.879,5.371,31.738,0
1542907311.806,-20.508,28.809,31.250,0.000,22.949,0
1542907311.810,-21.484,31.250,34.668,3.418,41.992,0
1542907311.813,-20.996,16.602,37.109,-1.953,51.270,0
1542907311.817,-28.320,9.766,32.227,-10.742,51.270,0
1542907311.821,-38.574,9.766,30.273,-14.160,91.797,0
1542907311.825,-38.574,7.812,32.227,-15.137,67.871,0
1542907311.829,-31.250,5.371,31.250,-5.859,25.391,0
1542907311.833,-16.602,8.789,25.391,-2.930,106.934,0
1542907311.837,-10.742,1.953,28.320,-5.371,116.699,0
1542907311.841,-22.461,-7.812,32.715,3.906,51.758,0
1542907311.845,-22.949,-10.254,35.156,-5.859,57.617,0
1542907311.849,-26.855,-14.160,27.344,-25.879,54.688,0
1542907311.852,-21.484,6.348,13.672,-21.973,17.578,0
1542907311.856,-2.441,18.555,11.719,-18.066,50.293,0
1542907311.860,-6.348,12.695,11.719,-17.578,49.316,0
1542907311.864,-20.996,22.461,9.277,-16.602,77.637,0
1542907311.868,-16.602,23.438,14.648,-12.695,59.082,0
1542907311.872,-10.254,11.230,19.531,-8.301,23.926,0
1542907311.876,-6.348,6.348,16.602,-9.766,62.988,0
1542907311.880,-11.719,3.906,20.020,-8.301,104.492,0
1542907311.884,4.395,3.418,25.391,-1.953,49.805,0
1542907311.888,12.695,13.672,23.438,8.301,-5.371,0
1542907311.892,-0.977,-1.465,20.508,1.953,54.688,0
1542907311.895,14.648,-9.277,30.273,7.324,90.820,0
1542907311.899,27.832,14.160,36.621,21.973,41.504,0
1542907311.903,17.578,20.020,23.438,13.184,21.973,0
1542907311.907,15.625,18.066,22.949,6.348,29.785,0
1542907311.911,20.508,18.555,27.832,-1.465,11.719,0
1542907311.915,23.926,19.531,28.320,6.836,38.086,0
1542907311.919,23.438,16.602,24.414,21.973,61.035,0
1542907311.923,32.715,10.254,22.461,24.414,48.828,0
1542907311.927,42.480,5.859,33.691,28.809,20.996,0
1542907311.931,39.062,9.277,32.227,23.926,-8.789,0
1542907311.935,44.434,23.926,24.902,25.391,33.203,0
1542907311.938,41.504,24.414,23.926,26.367,28.809,0
1542907311.942,38.086,17.578,28.809,18.555,-8.301,0
1542907311.946,34.668,20.996,31.738,20.508,0.977,0
1542907311.950,27.344,20.508,28.320,16.602,13.672,0
1542907311.954,28.320,23.926,22.949,11.230,43.945,0
1542907311.958,25.391,33.203,21.484,18.555,98.145,0
1542907311.962,25.391,31.738,33.203,20.020,52.246,0
1542907311.966,31.250,20.020,36.621,12.207,0.977,0
1542907311.970,25.879,20.020,32.227,13.184,40.527,0
1542907311.974,38.086,20.020,37.109,18.066,95.215,0
1542907311.977,43.457,19.043,35.156,17.090,77.148,0
1542907311.981,20.996,24.902,28.809,14.648,46.875,0
1542907311.985,12.695,17.578,26.855,7.324,35.156,0
1542907311.989,32.715,22.949,24.414,8.789,1.953,0
1542907311.993,40.039,39.062,26.367,10.742,15.625,0
1542907311.997,19.043,25.879,28.320,21.484,86.426,0
1542907312.001,36.133,11.719,27.832,26.855,54.688,0
1542907312.005,24.414,24.414,24.414,18.066,18.066,0
1542907312.009,11.719,28.809,22.949,19.043,74.707,0
1542907312.013,11.230,15.625,30.273,26.855,26.855,0
1542907312.017,5.859,1.953,35.645,35.156,26.855,0
1542907312.020,19.043,15.137,28.809,21.484,80.566,0
1542907312.024,14.648,35.156,18.555,-3.906,68.359,0
1542907312.028,18.555,38.086,12.207,-7.324,60.059,0
1542907312.032,24.414,33.691,16.113,-2.441,12.695,0
1542907312.036,6.836,25.391,22.949,-7.812,15.137,0
1542907312.040,54.199,25.391,21.484,-1.953,79.590,0
1542907312.044,102.539,28.320,22.461,7.812,99.121,0
1542907312.048,84.473,24.414,23.926,9.277,77.148,0
1542907312.052,69.336,20.996,21.484,14.160,45.410,0
1542907312.056,54.688,24.902,20.508,3.418,31.738,0
1542907312.060,47.852,22.949,15.137,-7.324,35.156,0
1542907312.063,30.273,14.648,15.625,-4.395,96.191,0
1542907312.067,17.578,9.766,23.926,-7.324,49.805,0
1542907312.071,33.691,17.090,17.090,-5.859,30.762,0
1542907312.075,25.391,24.414,13.184,3.418,77.637,0
1542907312.079,11.719,23.926,25.391,3.418,85.449,0
1542907312.083,12.207,25.391,27.344,-6.348,104.492,0
1542907312.087,6.348,19.043,26.367,-16.602,82.031,0
1542907312.091,6.348,19.043,25.879,-14.160,60.059,0
1542907312.095,2.930,24.902,18.555,-19.043,94.238,0
1542907312.099,-1.465,13.184,18.555,-33.203,74.219,0
1542907312.102,4.883,5.859,22.461,-33.691,44.434,0
1542907312.106,-0.488,8.789,26.367,-35.156,72.266,0
1542907312.110,-5.371,20.996,25.879,-37.109,1.465,0
1542907312.114,0.488,31.738,23.926,-30.762,36.133,0
1542907312.118,0.488,20.508,24.902,-32.715,124.023,0
1542907312.122,-6.348,9.766,29.785,-33.691,15.625,0
1542907312.126,0.000,15.137,31.738,-34.180,57.617,0
1542907312.130,2.930,22.461,27.832,-38.086,93.262,0
1542907312.134,-7.812,21.484,27.344,-36.133,14.160,0
1542907312.138,-15.137,26.855,28.320,-31.738,-14.648,0
1542907312.142,-23.438,26.367,25.879,-30.762,4.395,0
1542907312.145,-21.484,20.996,18.555,-25.391,21.484,0
1542907312.149,-18.066,25.879,15.137,-19.531,4.395,0
1542907312.153,-8.301,24.414,22.949,-16.602,-5.371,0
1542907312.157,-1.465,11.719,33.203,-7.324,30.762,0
1542907312.161,-16.113,8.789,40.039,-3.906,40.039,0
1542907312.165,-22.949,10.742,41.992,-0.488,62.988,0
1542907312.169,-18.066,3.418,43.945,6.348,68.359,0
1542907312.173,-13.672,-1.953,46.875,6.836,55.664,0
1542907312.177,-15.625,-6.836,47.363,12.207,99.121,0
1542907312.181,-14.648,-5.859,47.852,11.230,69.824,0
1542907312.185,0.000,-6.348,43.945,2.441,31.250,0
1542907312.188,-7.324,-6.836,41.016,-0.977,64.941,0
1542907312.192,-17.090,-2.930,40.527,6.836,79.590,0
1542907312.196,-8.789,-8.789,35.156,8.789,56.641,0
1542907312.200,3.906,-11.230,37.109,7.324,34.180,0
1542907312.204,-1.953,-3.418,38.574,19.043,46.875,0
1542907312.208,-9.766,-0.977,37.598,27.832,75.684,0
1542907312.212,-5.859,0.488,37.598,27.344,58.105,0
1542907312.216,-6.836,-2.441,30.762,23.438,38.574,0
1542907312.220,-1.465,-3.418,32.715,20.508,87.891,0
1542907312.224,8.301,-3.418,39.062,25.879,92.773,0
1542907312.227,4.395,-9.277,32.715,32.227,59.082,0
1542907312.231,0.977,-15.625,26.367,33.691,55.664,0
1542907312.235,0.000,-5.371,25.391,31.738,0.977,0
1542907312.239,-3.418,6.836,31.738,22.461,-6.836,0
1542907312.243,7.812,8.301,40.039,22.949,57.617,0
1542907312.247,7.812,5.371,41.504,30.762,57.617,0
1542907312.251,5.859,1.953,31.738,33.203,11.230,0
1542907312.255,16.113,7.324,29.785,39.062,7.324,0
1542907312.259,18.066,0.488,40.527,39.062,51.270,0
1542907312.263,18.555,5.859,41.016,26.855,16.113,0
1542907312.267,14.160,25.879,38.574,21.484,-11.719,0
1542907312.270,0.000,16.113,37.109,27.344,17.578,0
1542907312.274,2.930,10.742,36.621,26.855,10.254,0
1542907312.278,3.906,3.418,27.344,29.785,-4.395,0
1542907312.282,3.418,-14.160,28.809,29.297,42.480,0
1542907312.286,11.230,5.859,29.297,21.484,50.293,0
1542907312.290,9.277,23.438,21.484,15.137,-9.766,0
1542907312.294,-0.488,16.113,31.738,9.766,-21.484,0
1542907312.298,12.695,20.508,35.645,12.207,26.855,0
1542907312.302,15.625,18.066,34.180,14.648,40.039,0
1542907312.306,12.207,12.695,41.016,6.348,47.363,0
1542907312.310,18.066,20.020,44.434,4.883,72.266,0
1542907312.313,2.441,18.066,38.574,9.766,62.500,0
1542907312.317,1.953,10.742,37.598,10.254,41.992,0
1542907312.321,6.836,9.277,38.574,6.348,75.684,0
1542907312.325,2.930,19.043,34.180,8.789,93.750,0
1542907312.329,-9.766,19.531,34.668,9.277,52.734,0
1542907312.333,-8.301,17.090,38.086,2.441,28.809,0
1542907312.337,5.859,18.555,37.109,4.395,15.625,0
1542907312.341,1.953,11.230,36.133,17.090,41.992,0
1542907312.345,13.672,10.254,35.645,20.508,39.551,0
1542907312.349,29.785,14.648,35.645,21.973,52.246,0
1542907312.352,26.367,7.812,32.715,26.855,98.633,0
1542907312.356,16.602,3.418,23.926,27.832,53.223,0
1542907312.360,14.648,12.207,29.785,30.273,41.992,0
1542907312.364,24.902,18.555,35.156,28.320,51.758,0
1542907312.368,14.160,23.438,28.320,28.809,37.598,0
1542907312.372,1.465,23.438,28.320,23.926,76.172,0
1542907312.376,-1.953,20.020,29.297,15.137,56.152,0
1542907312.380,8.789,18.555,24.414,21.973,47.363,0
1542907312.384,18.555,15.625,29.297,26.855,43.945,0
1542907312.388,23.438,0.488,39.062,20.996,-18.555,0
1542907312.392,20.996,-6.348,37.109,27.344,27.344,0
1542907312.395,9.766,16.113,33.691,34.180,7.324,0
1542907312.399,15.625,29.785,31.738,31.738,1.465,0
1542907312.403,19.043,29.785,31.738,31.250,52.246,0
1542907312.407,16.602,23.926,25.879,34.180,39.062,0
1542907312.411,29.297,22.461,21.484,30.273,32.227,0
1542907312.415,39.062,23.926,28.320,30.762,59.082,0
1542907312.419,26.855,16.602,36.621,35.156,49.805,0
1542907312.423,22.461,10.254,37.598,33.691,2.441,0
1542907312.427,24.414,11.719,30.273,32.715,17.090,0
1542907312.431,17.578,15.625,29.785,30.762,37.109,0
1542907312.435,11.230,20.020,34.180,26.855,41.992,0
1542907312.438,27.832,14.648,31.738,30.762,9.277,0
1542907312.442,33.691,14.648,28.809,31.738,16.602,0
1542907312.446,31.250,19.531,31.250,39.551,31.250,0
1542907312.450,29.297,13.184,40.527,37.109,13.184,0
1542907312.454,6.348,1.953,40.527,27.832,35.156,0
1542907312.458,4.395,-5.859,37.598,33.691,-8.301,0
1542907312.462,21.973,-5.371,44.434,31.250,9.766,0
1542907312.466,13.184,-2.930,47.852,31.250,68.359,0
1542907312.470,10.742,1.953,46.875,42.969,69.824,0
1542907312.474,23.438,1.953,46.875,41.016,62.500,0
1542907312.477,15.625,-2.930,46.875,29.297,56.152,0
1542907312.481,19.531,6.836,42.480,33.203,39.062,0
1542907312.485,6.348,14.648,36.621,43.457,24.902,0
1542907312.489,-4.395,9.766,34.180,45.410,43.945,0
1542907312.493,14.160,11.230,31.738,38.574,65.430,0
1542907312.497,21.484,14.648,32.715,28.320,76.660,0
1542907312.501,31.738,16.602,36.133,39.062,85.449,0
1542907312.505,39.551,11.230,38.086,44.922,64.453,0
1542907312.509,21.973,9.766,37.109,39.551,59.082,0
1542907312.513,23.438,18.066,37.109,44.434,80.078,0
1542907312.517,32.715,15.625,32.227,43.945,13.184,0
1542907312.520,30.273,0.977,31.738,51.270,-15.625,0
1542907312.524,29.785,-6.348,41.016,47.852,12.207,0
1542907312.528,28.320,1.953,38.086,32.715,41.504,0
1542907312.532,28.320,6.836,36.621,47.852,52.246,0
1542907312.536,29.785,-0.488,38.086,47.363,56.641,0
1542907312.540,21.484,0.000,26.367,39.062,43.945,0
1542907312.544,41.504,19.043,20.508,49.316,13.672,0
1542907312.548,47.852,17.090,28.809,50.293,46.875,0
1542907312.552,18.066,11.719,37.598,48.828,55.664,0
1542907312.556,13.184,22.461,41.016,44.922,23.438,0
1542907312.560,20.996,20.508,41.504,43.945,-16.602,0
1542907312.563,33.691,23.438,39.551,42.480,-47.852,0
1542907312.567,40.039,27.832,34.668,43.457,-15.137,0
1542907312.571,33.691,19.531,31.738,28.809,0.977,0
1542907312.575,41.016,13.184,33.203,20.508,3.418,0
1542907312.579,44.434,6.348,34.668,33.203,11.230,0
1542907312.583,35.645,2.930,40.527,42.480,16.113,0
1542907312.587,35.645,5.859,44.922,46.387,22.949,0
1542907312.591,38.574,0.488,41.504,49.805,62.012,0
1542907312.595,37.598,-11.230,38.574,63.965,62.988,0
1542907312.599,56.641,-0.977,34.668,60.547,41.504,0
1542907312.602,41.504,21.484,32.227,54.688,66.895,0
1542907312.606,7.324,23.438,32.715,60.059,47.363,0
1542907312.610,22.949,17.578,34.180,52.734,23.926,0
1542907312.614,29.785,17.578,35.645,47.363,51.758,0
1542907312.618,31.250,9.277,35.156,50.293,113.281,0
1542907312.622,38.086,7.812,32.715,51.758,111.816,0
1542907312.626,41.504,0.977,36.621,73.242,88.379,0
1542907312.630,54.688,-7.812,41.992,86.914,96.680,0
1542907312.634,70.312,10.742,37.109,76.660,93.262,0
1542907312.638,46.875,24.414,30.762,63.477,46.875,0
1542907312.642,18.555,14.648,23.438,44.434,45.898,0
1542907312.645,46.387,13.184,17.090,41.992,54.199,0
1542907312.649,65.918,27.344,15.137,46.387,70.801,0
1542907312.653,43.457,35.645,12.207,36.621,51.758,0
1542907312.657,48.340,32.227,6.836,34.180,20.508,0
1542907312.661,58.594,33.691,7.812,44.922,52.734,0
1542907312.665,55.664,32.227,17.578,56.641,39.551,0
1542907312.669,49.805,24.902,15.137,51.758,59.082,0
1542907312.673,53.711,36.133,7.812,38.574,104.004,0
1542907312.677,54.688,26.367,11.719,45.898,98.145,0
1542907312.681,51.758,17.578,12.695,47.363,66.895,0
1542907312.685,68.848,28.320,13.184,37.109,72.754,0
1542907312.688,55.664,19.531,12.207,42.480,88.379,0
1542907312.692,61.035,14.648,9.766,47.363,91.309,0
1542907312.696,68.359,11.230,11.719,48.340,46.875,0
1542907312.700,46.387,21.973,18.066,53.223,11.230,0
1542907312.704,50.293,37.598,10.742,42.480,46.875,0
1542907312.708,52.734,37.109,8.789,44.922,6.348,0
1542907312.712,54.688,23.926,18.066,57.617,20.508,0
1542907312.716,46.875,15.137,22.949,58.105,21.973,0
1542907312.720,51.270,15.625,21.973,61.523,13.672,0
1542907312.724,56.641,23.926,20.020,62.988,4.395,0
1542907312.727,59.570,34.668,24.902,58.594,20.508,0
1542907312.731,63.965,32.227,26.855,63.477,72.754,0
1542907312.735,65.918,17.090,26.367,77.637,68.848,0
1542907312.739,80.078,8.789,24.414,79.590,49.805,0
1542907312.743,68.359,2.930,20.508,99.121,56.641,0
1542907312.747,51.758,11.230,18.555,111.328,24.902,0
1542907312.751,56.641,23.926,21.484,97.656,50.781,0
1542907312.755,76.660,24.902,29.785,93.750,36.133,0
1542907312.759,77.637,23.926,37.109,89.844,21.484,0
1542907312.763,60.547,12.695,37.598,94.727,32.227,0
1542907312.767,60.059,15.625,35.645,98.633,37.598,0
1542907312.770,67.383,20.508,31.738,95.703,62.012,0
1542907312.774,76.172,20.020,28.809,85.449,50.293,0
1542907312.778,76.172,21.484,33.203,90.820,38.086,0
1542907312.782,57.129,19.531,31.250,88.867,89.844,0
1542907312.786,52.734,24.902,27.344,69.824,24.414,0
1542907312.790,61.035,19.043,30.273,75.684,8.301,0
1542907312.794,56.641,3.418,25.391,93.262,58.594,0
1542907312.798,64.453,3.418,27.344,88.379,1.953,0
1542907312.802,67.383,8.789,29.297,73.730,50.293,0
1542907312.806,56.641,21.973,26.367,61.523,115.723,0
1542907312.810,56.641,34.180,20.996,47.852,60.547,0
1542907312.813,62.988,31.738,15.625,53.223,-5.859,0
1542907312.817,72.754,23.926,25.391,64.453,22.949,0
1542907312.821,64.453,20.508,29.785,66.406,46.387,0
1542907312.825,74.219,23.926,27.344,66.406,-15.625,0
1542907312.829,86.914,16.113,31.738,65.918,43.457,0
1542907312.833,64.941,17.578,33.691,61.523,80.078,0
1542907312.837,64.941,31.250,24.902,55.176,32.227,0
1542907312.841,64.941,34.668,16.602,39.551,44.922,0
1542907312.845,68.359,29.785,22.949,33.203,16.602,0
1542907312.849,88.379,21.484,31.250,27.832,24.902,0
1542907312.852,88.379,19.043,31.738,39.062,53.223,0
1542907312.856,90.332,20.996,29.297,54.199,57.617,0
1542907312.860,85.938,17.578,30.273,62.012,62.012,0
1542907312.864,71.289,13.672,31.250,66.895,51.270,0
1542907312.868,62.500,12.695,31.250,70.312,40.039,0
1542907312.872,63.965,20.996,29.297,82.520,-8.301,0
1542907312.876,63.965,14.160,32.227,83.008,31.250,0
1542907312.880,58.105,2.930,43.457,80.566,47.363,0
1542907312.884,46.387,17.090,43.945,88.867,16.113,0
1542907312.888,40.039,19.043,37.109,90.820,45.410,0
1542907312.892,49.316,8.789,37.109,68.848,34.668,0
1542907312.895,50.293,3.906,41.504,61.035,55.664,0
1542907312.899,32.715,13.672,43.457,62.012,63.477,0
1542907312.903,32.715,22.461,37.109,59.570,20.996,0
1542907312.907,41.016,21.973,30.762,62.012,-6.348,0
1542907312.911,45.898,22.949,30.762,72.266,1.465,0
1542907312.915,46.875,19.531,32.227,74.707,62.500,0
1542907312.919,42.969,13.672,34.180,67.383,83.496,0
1542907312.923,46.387,7.812,35.645,64.453,37.598,0
1542907312.927,38.086,-2.441,36.133,65.430,20.020,0
1542907312.931,27.832,-8.301,34.668,59.570,22.461,0
1542907312.935,18.066,3.906,32.715,48.340,69.824,0
1542907312.938,23.926,17.090,34.668,49.316,47.363,0
1542907312.942,26.367,18.066,33.203,41.016,23.438,0
1542907312.946,25.391,10.742,35.156,41.504,56.152,0
1542907312.950,28.320,3.906,39.062,52.246,38.086,0
1542907312.954,13.672,2.930,36.133,52.246,50.293,0
1542907312.958,6.836,9.277,37.598,58.105,80.078,0
1542907312.962,19.531,10.254,41.992,66.895,42.480,0
1542907312.966,31.738,9.277,43.457,67.383,53.223,0
1542907312.970,16.602,8.301,43.457,64.453,72.266,0
1542907312.974,-1.953,-3.418,44.922,66.895,46.387,0
1542907312.977,14.160,-7.324,46.875,65.430,-16.113,0
1542907312.981,20.020,1.953,44.922,57.129,30.273,0
1542907312.985,-0.977,9.766,37.598,39.062,96.191,0
1542907312.989,15.137,5.859,34.180,43.457,100.098,0
1542907312.993,42.969,11.230,34.668,67.383,68.359,0
1542907312.997,45.410,17.578,39.551,83.496,39.062,0
1542907313.001,37.109,16.602,40.527,88.867,70.801,0
1542907313.005,49.316,19.043,41.016,84.961,48.340,0
1542907313.009,60.059,20.996,40.039,78.125,24.414,0
1542907313.013,67.383,19.531,35.156,81.055,47.363,0
1542907313.017,60.059,20.020,36.621,80.566,58.594,0
1542907313.020,55.664,25.391,36.133,79.590,35.645,0
1542907313.024,68.848,24.414,33.203,77.637,75.195,0
1542907313.028,62.500,17.578,34.180,80.566,67.383,0
1542907313.032,63.965,20.508,34.180,88.379,35.645,0
1542907313.036,68.848,26.367,37.109,81.543,56.152,0
1542907313.040,65.918,22.949,41.016,83.496,73.242,0
1542907313.044,70.801,25.879,42.969,86.914,55.664,0
1542907313.048,69.336,29.785,41.504,78.125,68.359,0
1542907313.052,67.871,22.461,41.016,74.219,50.293,0
1542907313.056,74.219,22.949,46.875,65.430,10.742,0
1542907313.060,67.383,32.715,44.922,64.941,74.707,0
1542907313.063,51.758,26.367,35.156,71.777,48.340,0
1542907313.067,43.457,12.207,40.039,74.707,24.902,0
1542907313.071,41.504,17.090,44.922,75.684,63.965,0
1542907313.075,41.504,24.414,40.527,61.035,36.621,0
1542907313.079,40.527,24.414,39.062,41.016,32.715,0
1542907313.083,42.969,18.555,40.039,42.480,37.109,0
1542907313.087,44.922,10.254,40.039,56.152,36.621,0
1542907313.091,36.621,11.230,39.551,63.477,24.902,0
1542907313.095,41.504,5.371,40.039,69.824,46.875,0
1542907313.099,51.270,2.441,41.992,72.754,69.336,0
1542907313.102,38.086,11.719,36.621,65.918,39.551,0
1542907313.106,35.156,16.113,28.809,68.359,52.246,0
1542907313.110,38.574,19.531,29.785,68.359,62.012,0
1542907313.114,45.898,16.602,32.227,59.082,14.160,0
1542907313.118,43.945,10.742,35.156,64.453,-6.836,0
1542907313.122,28.320,5.371,30.762,60.547,50.293,0
1542907313.126,25.391,4.883,30.762,52.734,45.898,0
1542907313.130,28.809,9.766,40.039,62.012,8.301,0
1542907313.134,23.926,10.742,41.504,57.129,35.156,0
1542907313.138,21.973,13.184,41.504,57.617,25.391,0
1542907313.142,29.785,20.508,39.551,61.523,40.039,0
1542907313.145,36.133,20.996,37.598,59.570,61.035,0
1542907313.149,42.480,9.277,41.016,69.336,49.805,0
1542907313.153,32.715,6.348,38.086,64.941,23.438,0
1542907313.157,23.926,10.254,34.180,61.523,36.133,0
1542907313.161,29.785,6.836,36.133,57.129,79.102,0
1542907313.165,30.273,7.324,39.062,50.293,33.203,0
1542907313.169,28.809,11.230,40.039,52.246,57.129,0
1542907313.173,22.949,11.230,41.016,53.711,94.238,0
1542907313.177,18.555,13.184,36.621,52.246,67.871,0
1542907313.181,15.137,13.672,34.668,52.246,98.633,0
1542907313.185,18.555,14.160,40.527,51.270,111.328,0
1542907313.188,32.715,0.000,41.016,48.828,121.094,0
1542907313.192,22.461,-3.906,30.273,33.203,51.270,0
1542907313.196,13.184,10.742,26.855,20.996,-2.930,0
1542907313.200,13.672,20.996,36.133,29.785,9.766,0
1542907313.204,19.531,27.344,41.504,34.668,-13.184,0
1542907313.208,33.691,20.020,37.598,31.738,-21.973,0
1542907313.212,50.781,14.648,30.273,37.109,15.137,0
1542907313.216,45.898,11.719,28.320,42.480,23.926,0
1542907313.220,46.387,15.625,29.297,45.410,5.371,0
1542907313.224,44.434,12.207,27.344,38.574,6.348,0
1542907313.227,40.527,0.977,24.902,37.598,62.500,0
1542907313.231,34.668,6.348,29.785,42.480,66.895,0
1542907313.235,36.621,10.254,33.691,41.016,42.480,0
1542907313.239,31.738,9.766,31.738,36.133,39.062,0
1542907313.243,23.926,10.254,32.715,27.344,-0.977,0
1542907313.247,25.391,8.301,37.109,24.414,20.020,0
1542907313.251,28.320,4.395,35.156,28.809,89.844,0
1542907313.255,25.391,6.836,35.645,29.785,74.707,0
1542907313.259,22.461,12.695,34.180,27.344,66.406,0
1542907313.263,15.137,13.672,29.785,35.156,83.984,0
1542907313.267,19.043,10.742,28.809,37.109,58.594,0
1542907313.270,18.555,-0.488,27.344,36.133,44.434,0
1542907313.274,20.020,6.836,29.785,34.180,80.566,0
1542907313.278,19.531,22.949,34.668,34.668,102.051,0
1542907313.282,16.113,19.043,34.668,29.297,71.289,0
1542907313.286,19.531,11.230,33.203,28.809,69.336,0
1542907313.290,22.461,19.531,30.762,41.016,67.383,0
1542907313.294,32.715,15.625,26.855,37.598,92.773,0
1542907313.298,34.180,0.000,31.738,29.297,52.734,0
1542907313.302,16.602,2.930,26.367,13.184,4.883,0
1542907313.306,16.602,9.766,14.160,17.578,10.254,0
1542907313.310,27.832,18.555,31.738,34.180,60.059,0
1542907313.313,-3.418,19.043,53.711,1.953,59.570,0
1542907313.317,-47.852,8.301,60.059,-26.855,-0.977,0
1542907313.321,-50.293,0.488,58.105,-34.668,4.883,0
1542907313.325,-44.434,2.441,57.129,-43.945,58.105,0
1542907313.329,-87.891,-0.488,54.688,-58.105,89.355,0
1542907313.333,-102.539,-6.348,41.992,-65.918,53.711,0
1542907313.337,-81.055,-1.465,36.133,-72.754,43.457,0
1542907313.341,-82.031,4.395,54.199,-79.102,60.547,0
1542907313.345,-95.703,3.906,64.453,-81.543,50.781,0
1542907313.349,-104.004,0.977,50.781,-78.613,20.020,0
1542907313.352,-85.938,2.930,46.387,-70.312,38.086,0
1542907313.356,-77.148,3.418,32.715,-78.613,-15.137,0
1542907313.360,-71.777,-3.906,30.273,-77.148,-42.969,0
1542907313.364,-60.547,-4.883,52.246,-57.129,8.301,0
1542907313.368,-53.711,5.371,50.293,-50.293,15.137,0
1542907313.372,-24.902,1.953,36.621,-49.316,22.461,0
1542907313.376,-12.695,-11.719,33.691,-34.180,19.043,0
1542907313.380,-8.789,-12.207,25.879,-13.672,10.254,0
1542907313.384,0.000,-6.836,19.043,-3.418,22.461,0
1542907313.388,7.812,-12.207,27.344,-4.395,74.219,0
1542907313.392,11.719,-5.371,36.133,-2.441,50.293,0
1542907313.395,15.625,0.488,31.250,0.488,-10.254,0
1542907313.399,32.227,-3.906,25.391,8.789,48.340,0
1542907313.403,49.316,-0.977,26.367,23.438,115.234,0
1542907313.407,27.344,-6.836,35.156,17.090,95.703,0
1542907313.411,30.273,-13.184,34.668,20.020,27.832,0
1542907313.415,51.758,-0.977,23.926,30.762,25.391,0
1542907313.419,46.875,-2.930,27.832,16.602,14.160,0
1542907313.423,46.875,-18.555,34.180,22.461,9.277,0
1542907313.427,49.316,-6.348,30.273,40.527,1.465,0
1542907313.431,64.453,15.137,32.227,56.152,33.691,0
1542907313.435,66.406,23.438,30.762,56.152,56.152,0
1542907313.438,50.293,20.508,27.832,51.270,26.855,0
1542907313.442,37.598,0.000,22.461,55.176,15.625,0
1542907313.446,41.504,-1.953,23.926,64.453,25.879,0
1542907313.450,48.340,17.578,34.668,65.430,51.758,0
1542907313.454,48.340,14.160,31.738,57.129,53.711,0
1542907313.458,42.969,5.371,30.273,56.152,37.598,0
1542907313.462,43.457,6.348,31.738,58.105,45.410,0
1542907313.466,41.992,9.766,25.391,56.641,58.594,0
1542907313.470,38.574,11.230,26.855,59.570,57.617,0
1542907313.474,50.781,6.348,26.367,55.664,74.219,0
1542907313.477,56.152,4.883,26.367,58.594,85.938,0
1542907313.481,52.734,16.602,29.297,61.523,65.430,0
1542907313.485,47.363,2.441,31.250,53.223,69.336,0
1542907313.489,41.504,-20.508,34.668,50.293,58.594,0
1542907313.493,47.363,6.836,30.762,69.336,70.312,0
1542907313.497,36.621,25.391,35.156,70.312,40.527,0
1542907313.501,33.691,15.625,37.598,52.246,11.230,0
1542907313.505,46.387,11.230,37.598,50.293,58.105,0
1542907313.509,31.738,12.695,38.086,59.082,62.012,0
1542907313.513,39.062,12.695,32.715,72.754,9.766,0
1542907313.517,39.062,6.348,23.926,61.523,44.922,0
1542907313.520,42.480,-1.465,26.855,56.641,60.547,0
1542907313.524,47.852,-1.953,34.180,58.105,45.410,0
1542907313.528,38.086,-3.906,30.273,62.012,31.250,0
1542907313.532,46.387,-4.395,31.250,68.359,18.555,0
1542907313.536,56.152,-0.977,33.203,58.105,7.812,0
1542907313.540,55.176,-6.836,22.949,51.758,19.043,0
1542907313.544,52.246,-8.789,23.926,38.574,37.598,0
1542907313.548,48.828,9.766,32.227,22.461,13.672,0
1542907313.552,47.363,24.902,36.621,19.531,18.066,0
1542907313.556,37.598,17.578,43.457,14.648,42.480,0
1542907313.560,35.645,11.719,43.945,7.324,50.293,0
1542907313.563,41.992,17.578,39.062,6.836,53.711,0
1542907313.567,42.969,24.414,34.668,10.742,23.438,0
1542907313.571,50.781,9.277,34.668,13.184,41.504,0
1542907313.575,56.152,-12.695,35.156,6.348,20.508,0
1542907313.579,55.176,2.441,34.180,-8.789,-19.043,0
1542907313.583,46.387,31.738,39.551,-21.484,62.988,0
1542907313.587,33.691,24.902,42.480,-40.527,98.145,0
1542907313.591,29.785,17.578,34.668,-39.062,60.059,0
1542907313.595,40.039,21.973,30.273,-24.902,85.938,0
1542907313.599,48.828,20.020,32.227,-23.438,87.402,0
1542907313.602,61.523,1.953,35.645,-26.367,44.922,0
1542907313.606,54.688,-8.301,37.109,-21.484,49.316,0
1542907313.610,54.688,3.906,31.738,-23.926,58.594,0
1542907313.614,53.711,12.207,28.320,-24.902,27.832,0
1542907313.618,33.203,26.367,25.879,-11.230,33.691,0
1542907313.622,33.203,30.762,29.297,-20.996,43.945,0
1542907313.626,26.855,27.344,41.016,-34.180,-11.719,0
1542907313.630,42.969,23.438,44.434,-39.551,42.480,0
1542907313.634,56.641,20.996,41.992,-33.203,81.543,0
1542907313.638,46.387,7.324,42.480,-21.484,55.176,0
1542907313.642,42.969,-7.812,45.410,-13.184,28.320,0
1542907313.645,36.621,3.906,35.156,4.883,32.715,0
1542907313.649,26.367,23.438,22.949,-12.207,71.777,0
1542907313.653,30.273,22.949,29.297,-18.066,29.785,0
1542907313.657,39.551,20.508,33.203,-3.906,17.578,0
1542907313.661,30.762,20.508,31.250,1.953,51.270,0
1542907313.665,38.086,15.137,33.691,-2.930,63.477,0
1542907313.669,28.809,9.766,32.715,-12.207,78.125,0
1542907313.673,17.578,14.160,29.297,-25.879,88.379,0
1542907313.677,33.203,16.113,30.273,-30.762,45.898,0
1542907313.681,49.316,10.254,31.250,-24.414,24.414,0
1542907313.685,46.875,7.812,24.414,-23.438,63.477,0
1542907313.688,35.645,13.672,21.973,-28.320,73.242,0
1542907313.692,28.320,21.484,30.273,-26.855,98.145,0
1542907313.696,31.738,20.508,34.668,-19.043,66.895,0
1542907313.700,33.691,14.160,35.645,-18.555,32.715,0
1542907313.704,46.875,16.602,38.086,-12.207,74.219,0
1542907313.708,60.547,15.625,35.156,-4.395,63.965,0
1542907313.712,59.082,10.742,40.039,-3.418,67.383,0
1542907313.716,40.527,10.742,41.504,1.465,81.543,0
1542907313.720,41.016,19.043,27.344,7.324,27.344,0
1542907313.724,51.758,20.508,25.391,16.113,4.395,0
1542907313.727,39.551,9.766,35.645,20.020,24.902,0
1542907313.731,34.668,8.789,31.738,28.320,32.715,0
1542907313.735,55.176,11.719,30.273,37.598,54.688,0
1542907313.739,52.246,20.996,37.598,31.738,62.012,0
1542907313.743,42.480,29.785,42.480,26.855,77.148,0
1542907313.747,42.480,26.367,42.480,27.832,80.566,0
1542907313.751,33.691,15.137,35.645,28.320,81.055,0
1542907313.755,37.109,12.695,31.250,34.180,33.691,0
1542907313.759,40.527,21.973,34.180,33.691,48.340,0
1542907313.763,28.320,10.254,35.645,32.715,89.844,0
1542907313.767,27.832,6.348,34.180,44.434,28.320,0
1542907313.770,41.016,17.578,32.715,44.434,15.137,0
1542907313.774,44.922,22.461,35.156,47.852,11.230,0
1542907313.778,28.809,26.855,38.574,59.570,8.301,0
1542907313.782,33.691,26.367,33.691,54.688,52.246,0
1542907313.786,40.039,27.344,28.320,48.828,95.703,0
1542907313.790,25.391,19.043,32.715,52.246,93.750,0
1542907313.794,30.273,14.648,34.180,53.711,27.832,0
1542907313.798,39.551,21.484,31.250,49.805,14.648,0
1542907313.802,41.504,23.926,36.133,49.805,91.309,0
1542907313.806,33.691,20.508,32.227,49.316,80.078,0
1542907313.810,30.273,9.766,24.414,49.316,71.777,0
1542907313.813,32.715,15.137,31.250,54.199,90.332,0
1542907313.817,36.621,22.949,33.691,48.828,50.293,0
1542907313.821,33.203,18.555,29.297,52.246,57.129,0
1542907313.825,23.926,18.555,29.297,60.059,100.098,0
1542907313.829,31.738,21.484,34.180,61.035,72.754,0
1542907313.833,37.598,22.949,36.621,57.617,51.270,0
1542907313.837,53.223,24.414,32.227,53.711,52.734,0
1542907313.841,47.852,24.414,31.738,54.688,7.812,0
1542907313.845,28.320,20.508,33.203,41.504,19.531,0
1542907313.849,47.852,16.602,31.250,36.133,26.855,0
1542907313.852,46.387,11.230,36.133,32.227,-34.180,0
1542907313.856,34.180,7.324,38.086,10.254,-52.246,0
1542907313.860,21.973,14.648,38.086,9.277,11.230,0
1542907313.864,5.859,16.602,40.527,4.883,30.273,0
1542907313.868,7.812,7.812,47.852,0.977,11.230,0
1542907313.872,23.438,3.906,53.711,8.789,47.852,0
1542907313.876,35.156,7.812,49.316,-7.324,46.387,0
1542907313.880,47.363,8.301,47.363,0.977,59.570,0
1542907313.884,33.691,5.371,41.504,0.977,42.480,0
1542907313.888,48.828,5.859,37.598,-18.066,26.367,0
1542907313.892,57.129,6.836,39.551,-12.695,27.832,0
1542907313.895,53.223,5.859,37.598,-3.906,16.113,0
1542907313.899,60.059,1.953,37.598,-0.488,41.992,0
1542907313.903,52.734,8.789,35.156,-13.184,66.895,0
1542907313.907,36.621,14.160,34.180,-12.207,22.949,0
1542907313.911,19.531,12.207,39.551,-6.348,-8.789,0
1542907313.915,24.414,20.020,36.621,-15.137,63.477,0
1542907313.919,30.273,11.230,34.180,3.906,106.445,0
1542907313.923,28.809,5.859,32.715,16.602,57.129,0
1542907313.927,28.320,15.137,23.926,13.184,-1.465,0
1542907313.931,15.137,9.277,32.227,16.602,29.785,0
1542907313.935,11.719,2.441,41.504,13.672,93.750,0
1542907313.938,25.879,11.230,37.109,19.043,58.594,0
1542907313.942,21.484,23.438,41.992,26.855,23.926,0
1542907313.946,20.996,20.020,49.316,19.531,62.988,0
1542907313.950,28.809,19.043,42.480,13.672,67.871,0
1542907313.954,29.785,17.090,30.273,22.461,25.391,0
1542907313.958,29.297,8.789,30.762,25.391,60.059,0
1542907313.962,31.738,16.113,40.527,18.555,24.414,0
1542907313.966,41.504,18.555,43.457,22.949,54.199,0
1542907313.970,44.434,14.160,38.574,36.133,75.195,0
1542907313.974,31.250,5.371,41.504,37.598,17.090,0
1542907313.977,32.227,3.418,42.480,35.156,52.246,0
1542907313.981,30.762,11.719,34.668,36.133,19.531,0
1542907313.985,27.344,7.812,35.156,33.691,16.602,0
1542907313.989,40.039,5.371,41.016,38.086,97.168,0
1542907313.993,50.781,5.859,42.969,46.387,55.176,0
1542907313.997,42.480,6.836,42.969,47.852,-4.883,0
1542907314.001,33.203,7.324,45.410,43.945,60.547,0
1542907314.005,26.855,-6.836,44.434,38.086,32.227,0
1542907314.009,29.297,-7.812,42.969,36.133,14.648,0
1542907314.013,38.574,11.719,45.410,35.645,60.059,0
1542907314.017,50.293,20.508,46.875,34.180,43.457,0
1542907314.020,39.551,17.090,42.480,30.762,71.777,0
1542907314.024,31.738,16.602,40.527,35.156,50.293,0
1542907314.028,38.086,16.602,48.828,34.668,22.949,0
1542907314.032,34.668,9.277,53.711,34.668,26.855,0
1542907314.036,37.109,2.441,57.129,42.969,42.480,0
1542907314.040,44.922,-3.906,62.988,50.781,34.668,0
1542907314.044,62.500,-11.719,64.453,63.477,34.668,0
1542907314.048,70.801,-10.254,63.965,71.289,47.852,0
1542907314.052,69.824,-8.789,66.895,69.824,39.062,0
1542907314.056,62.500,-11.230,67.383,81.055,83.496,0
1542907314.060,71.289,-5.859,68.848,99.609,110.352,0
1542907314.063,105.957,0.977,69.824,98.145,85.938,0
1542907314.067,94.238,9.766,63.965,89.844,67.871,0
1542907314.071,62.012,12.207,64.453,82.031,35.645,0
1542907314.075,72.266,10.742,67.383,88.379,24.414,0
1542907314.079,94.727,12.207,62.988,88.379,32.227,0
1542907314.083,84.961,14.160,61.035,71.777,57.617,0
1542907314.087,66.406,17.578,62.500,59.570,56.152,0
1542907314.091,63.965,18.555,59.082,64.941,54.199,0
1542907314.095,69.336,19.043,56.152,61.035,55.664,0
1542907314.099,59.570,24.902,58.105,48.340,49.316,0
1542907314.102,57.129,25.391,51.270,50.781,81.055,0
1542907314.106,69.336,13.672,44.922,50.293,62.988,0
1542907314.110,64.941,12.695,48.340,55.176,48.340,0
1542907314.114,70.312,18.066,54.688,60.059,65.918,0
1542907314.118,78.125,12.207,56.641,62.500,13.184,0
1542907314.122,73.242,15.137,55.176,62.012,-21.484,0
1542907314.126,80.078,18.066,51.758,51.270,3.906,0
1542907314.130,70.312,13.184,45.410,51.270,-18.555,0
1542907314.134,66.406,14.160,48.340,60.547,7.324,0
1542907314.138,105.469,1.953,52.734,60.059,33.691,0
1542907314.142,103.027,-3.418,50.781,62.988,62.012,0
1542907314.145,72.754,8.789,52.246,70.312,86.914,0
1542907314.149,75.195,11.230,54.199,64.453,38.574,0
1542907314.153,93.750,9.277,50.781,59.082,36.133,0
1542907314.157,97.656,11.719,46.387,61.035,70.801,0
1542907314.161,86.426,6.348,48.340,47.363,68.848,0
1542907314.165,86.426,1.953,55.176,45.410,63.477,0
1542907314.169,84.961,-1.465,62.012,62.500,33.203,0
1542907314.173,95.215,-7.324,63.965,68.359,25.391,0
1542907314.177,99.609,-6.348,62.988,59.082,25.391,0
1542907314.181,102.051,-10.742,64.453,60.059,9.766,0
1542907314.185,116.211,-12.695,59.082,71.777,1.953,0
1542907314.188,122.070,-8.789,49.805,82.031,62.988,0
1542907314.192,121.094,-5.371,48.340,88.867,57.129,0
1542907314.196,104.980,-3.418,48.828,87.891,50.781,0
1542907314.200,117.188,-4.395,48.340,93.750,48.340,0
1542907314.204,138.184,2.930,44.922,92.773,-15.625,0
1542907314.208,130.859,5.859,47.852,76.660,10.254,0
1542907314.212,131.836,1.953,48.340,69.824,47.852,0
1542907314.216,141.602,-2.441,40.527,62.500,20.020,0
1542907314.220,131.836,-4.395,41.016,56.641,-36.621,0
1542907314.224,144.043,-0.977,42.480,79.102,14.648,0
1542907314.227,186.523,-4.395,45.898,106.445,58.594,0
1542907314.231,182.617,-9.766,50.781,101.562,56.641,0
1542907314.235,154.297,-5.371,50.781,88.379,85.938,0
1542907314.239,159.180,4.883,48.828,80.566,57.129,0
1542907314.243,174.316,8.789,47.852,82.031,87.402,0
1542907314.247,175.781,11.230,46.875,91.797,64.941,0
1542907314.251,167.969,8.789,45.410,86.914,66.895,0
1542907314.255,171.875,7.812,42.969,99.609,89.844,0
1542907314.259,173.828,8.789,40.039,103.516,28.320,0
1542907314.263,178.711,6.836,38.086,106.934,5.371,0
1542907314.267,182.129,9.766,37.109,127.441,46.387,0
1542907314.270,174.805,5.859,41.504,123.535,28.809,0
1542907314.274,170.898,6.836,38.086,132.812,66.895,0
1542907314.278,176.758,9.766,35.645,148.438,81.543,0
1542907314.282,190.430,5.371,39.062,157.227,42.480,0
1542907314.286,187.500,7.324,36.133,156.738,78.125,0
1542907314.290,188.965,14.648,34.668,157.715,14.648,0
1542907314.294,180.176,11.719,36.621,151.367,-25.879,0
1542907314.298,166.016,6.836,40.039,150.879,-18.555,0
1542907314.302,166.016,4.883,43.457,162.598,-1.465,0
1542907314.306,165.039,4.883,42.969,149.902,60.547,0
1542907314.310,154.297,25.391,31.250,129.395,19.531,0
1542907314.313,167.480,25.879,29.785,119.141,11.230,0
1542907314.317,183.594,7.812,43.457,128.906,56.641,0
1542907314.321,184.570,0.000,34.668,144.043,41.992,0
1542907314.325,186.523,6.836,22.949,145.508,49.316,0
1542907314.329,173.340,23.438,27.832,131.348,102.539,0
1542907314.333,175.293,26.855,33.203,129.395,98.633,0
1542907314.337,183.594,22.949,40.039,136.719,48.828,0
1542907314.341,186.523,19.043,37.109,140.137,74.219,0
1542907314.345,177.734,11.719,29.297,147.461,80.078,0
1542907314.349,167.480,-2.441,37.109,143.555,78.613,0
1542907314.352,182.617,-7.324,38.574,129.883,74.219,0
1542907314.356,182.617,-13.672,38.086,142.578,16.602,0
1542907314.360,186.035,10.254,30.273,151.855,49.316,0
1542907314.364,165.039,39.551,16.602,101.074,82.520,0
1542907314.368,134.277,35.645,26.855,56.152,7.812,0
1542907314.372,107.910,32.227,30.273,29.785,23.438,0
1542907314.376,98.633,42.969,28.809,16.602,45.410,0
1542907314.380,82.520,46.875,22.461,2.441,65.918,0
1542907314.384,39.551,26.855,3.418,-18.066,87.891,0
1542907314.388,39.551,30.273,-11.719,-29.785,91.797,0
1542907314.392,30.273,54.688,-14.648,-45.410,88.379,0
1542907314.395,-0.488,65.918,-23.438,-55.176,30.762,0
1542907314.399,26.855,76.172,-35.645,-64.941,51.758,0
1542907314.403,40.527,65.430,-29.785,-52.734,98.145,0
1542907314.407,5.859,51.758,-14.648,-49.805,83.984,0
1542907314.411,5.371,55.176,-10.742,-40.527,58.594,0
1542907314.415,46.875,51.758,-16.602,-7.812,85.449,0
1542907314.419,62.012,50.781,-16.602,-7.324,106.934,0
1542907314.423,68.359,53.711,-15.137,5.371,60.059,0
1542907314.427,70.312,44.434,-24.902,44.922,55.664,0
1542907314.431,90.332,37.109,-22.461,79.102,73.730,0
1542907314.435,100.586,41.016,-12.695,110.352,31.250,0
1542907314.438,98.145,27.832,-10.742,138.184,23.926,0
1542907314.442,129.395,18.066,-6.836,166.992,18.066,0
1542907314.446,137.695,31.738,-9.766,176.758,17.578,0
1542907314.450,108.887,41.992,-14.648,187.500,39.551,0
1542907314.454,122.559,41.016,-6.348,202.148,25.879,0
1542907314.458,153.809,35.645,0.000,205.078,40.527,0
1542907314.462,140.625,28.320,-6.836,205.566,73.242,0
1542907314.466,107.422,23.926,-9.277,210.938,58.105,0
1542907314.470,121.094,17.578,-0.977,213.379,-18.066,0
1542907314.474,120.117,10.742,5.859,188.965,-5.859,0
1542907314.477,101.074,14.160,7.324,177.734,-23.926,0
1542907314.481,130.859,11.719,4.883,183.105,-13.184,0
1542907314.485,140.137,14.648,12.695,178.711,41.016,0
1542907314.489,124.512,21.484,14.648,169.434,-15.625,0
1542907314.493,128.418,23.926,2.441,160.156,9.766,0
1542907314.497,116.699,25.879,6.348,157.715,62.988,0
1542907314.501,103.516,18.066,19.043,153.320,38.086,0
1542907314.505,114.746,21.484,18.066,148.926,20.508,0
1542907314.509,116.699,32.227,17.578,136.719,55.664,0
1542907314.513,89.355,30.762,21.484,122.070,139.160,0
1542907314.517,98.633,25.391,18.555,114.258,115.234,0
1542907314.520,127.441,25.879,16.602,127.930,51.270,0
1542907314.524,109.863,23.926,17.578,125.000,46.387,0
1542907314.528,103.516,23.438,17.578,117.188,72.266,0
1542907314.532,112.305,25.879,23.926,128.906,101.074,0
1542907314.536,83.984,21.973,27.344,125.977,111.816,0
1542907314.540,97.168,12.695,21.973,119.629,94.238,0
1542907314.544,107.910,12.695,13.672,112.305,38.086,0
1542907314.548,89.844,18.066,16.113,111.816,9.766,0
1542907314.552,78.613,22.949,25.391,116.699,82.031,0
1542907314.556,79.102,15.137,27.344,122.070,108.398,0
1542907314.560,79.102,-5.859,31.250,135.254,26.367,0
1542907314.563,89.844,17.090,30.273,133.301,3.418,0
1542907314.567,59.570,41.504,25.391,112.305,60.547,0
1542907314.571,47.363,35.645,17.578,91.309,66.895,0
1542907314.575,68.359,34.668,14.160,94.238,84.473,0
1542907314.579,61.523,26.367,22.461,91.309,100.586,0
1542907314.583,70.801,22.461,22.461,90.820,90.820,0
1542907314.587,53.223,21.484,21.973,88.867,72.754,0
1542907314.591,45.410,19.531,23.926,71.777,46.875,0
1542907314.595,65.918,22.949,20.020,79.102,92.285,0
1542907314.599,71.289,23.438,17.578,78.125,99.121,0
1542907314.602,61.035,12.695,20.020,77.637,60.547,0
1542907314.606,37.598,4.883,19.531,80.566,70.312,0
1542907314.610,35.156,24.902,20.020,73.242,38.574,0
1542907314.614,51.758,38.574,26.367,65.430,66.895,0
1542907314.618,48.340,29.297,33.691,74.707,72.266,0
1542907314.622,43.945,25.391,33.203,76.660,42.969,0
1542907314.626,35.156,26.367,23.926,69.824,41.504,0
1542907314.630,38.086,21.484,17.578,68.359,61.035,0
1542907314.634,55.176,20.508,20.508,64.941,90.332,0
1542907314.638,49.316,21.973,26.367,64.453,101.074,0
1542907314.642,33.691,17.578,30.273,62.988,7.812,0
1542907314.645,29.785,20.020,27.344,63.965,-77.637,0
1542907314.649,28.320,22.461,24.902,62.988,-37.109,0
1542907314.653,40.039,16.113,22.949,55.664,15.625,0
1542907314.657,43.457,7.324,26.367,61.035,56.641,0
1542907314.661,39.062,-0.488,33.691,72.266,58.594,0
1542907314.665,46.387,4.395,33.203,75.195,-15.625,0
1542907314.669,39.551,20.020,26.367,70.801,-49.316,0
1542907314.673,28.809,22.949,16.602,55.176,-24.414,0
1542907314.677,27.832,10.742,20.020,51.270,5.859,0
1542907314.681,34.668,1.465,30.762,71.289,-2.441,0
1542907314.685,31.250,3.906,25.391,68.848,41.016,0
1542907314.688,52.246,13.184,22.949,47.852,61.035,0
1542907314.692,41.992,11.719,32.715,56.152,31.738,0
1542907314.696,10.742,11.719,36.621,58.594,22.949,0
1542907314.700,20.508,20.020,33.203,47.363,13.672,0
1542907314.704,24.414,18.066,31.738,23.926,56.641,0
1542907314.708,24.414,7.812,31.738,0.488,53.711,0
1542907314.712,43.457,3.906,30.762,9.277,16.602,0
1542907314.716,41.504,4.883,34.668,4.883,62.988,0
1542907314.720,36.621,-2.930,33.203,3.906,86.426,0
1542907314.724,47.852,3.906,33.691,15.625,30.273,0
1542907314.727,48.828,15.137,37.109,0.977,51.758,0
1542907314.731,35.156,13.184,28.809,-8.789,100.098,0
1542907314.735,37.598,8.301,20.508,-8.789,65.430,0
1542907314.739,79.102,12.207,25.879,-2.930,5.371,0
1542907314.743,56.641,13.184,37.598,5.859,28.809,0
1542907314.747,19.531,10.254,41.992,-7.324,30.762,0
1542907314.751,16.602,6.348,46.387,-25.879,18.555,0
1542907314.755,7.812,-1.465,49.316,-9.277,11.719,0
1542907314.759,48.340,-8.301,51.270,-3.906,25.879,0
1542907314.763,52.246,-12.207,52.246,-7.812,81.543,0
1542907314.767,9.277,-2.930,49.805,6.348,93.750,0
1542907314.770,21.484,5.371,48.340,11.719,69.336,0
1542907314.774,32.227,0.000,45.898,17.090,23.926,0
1542907314.778,40.527,-5.371,46.875,22.461,12.695,0
1542907314.782,36.133,4.883,51.758,28.320,70.801,0
1542907314.786,27.344,10.742,51.758,41.992,97.168,0
1542907314.790,31.738,2.441,47.363,32.227,95.215,0
1542907314.794,34.668,0.488,46.875,24.414,117.676,0
1542907314.798,44.434,8.301,46.387,34.180,52.246,0
1542907314.802,55.176,10.254,45.898,38.574,25.879,0
1542907314.806,37.109,5.859,43.457,44.434,31.738,0
1542907314.810,17.090,-1.465,42.969,37.598,77.637,0
1542907314.813,32.227,5.859,41.016,22.461,106.934,0
1542907314.817,53.223,14.648,39.062,14.160,9.766,0
1542907314.821,61.523,10.742,40.039,14.648,55.664,0
1542907314.825,48.340,9.277,37.109,14.160,137.695,0
1542907314.829,24.902,16.602,42.969,11.230,90.332,0
1542907314.833,44.922,19.531,47.852,16.602,57.617,0
1542907314.837,50.781,21.484,38.574,28.320,85.449,0
1542907314.841,28.809,27.832,28.809,15.137,91.309,0
1542907314.845,34.668,18.066,35.645,0.977,49.805,0
1542907314.849,54.199,16.113,53.223,6.348,24.414,0
1542907314.852,45.410,19.531,54.688,8.301,41.504,0
1542907314.856,31.250,15.625,47.363,15.625,71.289,0
1542907314.860,35.645,16.113,43.945,14.648,34.180,0
1542907314.864,40.039,18.555,40.039,-5.371,25.879,0
1542907314.868,41.992,21.484,40.039,-20.508,77.148,0
1542907314.872,41.016,23.438,38.086,-0.488,83.984,0
1542907314.876,50.781,22.949,40.039,-7.812,33.203,0
1542907314.880,45.898,23.926,43.457,-42.480,34.180,0
1542907314.884,27.344,21.484,35.645,-53.223,46.875,0
1542907314.888,49.805,12.207,28.809,-38.086,79.590,0
1542907314.892,42.480,13.184,32.227,-18.555,89.355,0
1542907314.895,27.344,27.344,38.086,-22.461,26.855,0
1542907314.899,30.273,30.762,40.039,-20.996,19.531,0
1542907314.903,30.762,21.973,38.574,-15.137,78.125,0
1542907314.907,42.480,18.555,39.062,-22.461,95.703,0
1542907314.911,40.527,20.508,42.480,-20.996,65.918,0
1542907314.915,28.809,17.090,44.434,-16.602,-1.953,0
1542907314.919,37.109,18.555,44.434,-4.883,6.836,0
1542907314.923,47.852,14.160,30.762,-4.395,116.699,0
1542907314.927,50.781,20.508,36.133,-13.672,113.770,0
1542907314.931,30.273,32.227,55.176,-42.480,67.383,0
1542907314.935,20.020,34.180,52.734,-104.004,6.348,0
1542907314.938,31.738,27.832,48.340,-161.621,-0.977,0
1542907314.942,22.461,19.043,43.457,-216.309,64.453,0
1542907314.946,23.438,18.555,41.016,-251.953,44.434,0
1542907314.950,17.090,14.648,41.016,-276.855,61.523,0
1542907314.954,30.273,14.160,37.598,-312.500,83.496,0
1542907314.958,30.762,7.812,37.598,-334.961,42.480,0
1542907314.962,21.973,4.395,35.645,-342.773,6.348,0
1542907314.966,13.672,16.113,27.344,-370.117,13.672,0
1542907314.970,19.531,15.625,28.320,-385.742,28.809,0
1542907314.974,44.434,20.020,30.273,-383.301,30.273,0
1542907314.977,33.203,19.043,29.297,-384.766,62.500,0
1542907314.981,28.809,7.324,30.273,-383.789,121.582,0
1542907314.985,34.668,18.555,24.902,-381.836,135.742,0
1542907314.989,36.133,20.508,21.973,-381.348,71.289,0
1542907314.993,36.621,17.090,28.809,-379.883,38.574,0
1542907314.997,15.137,27.344,32.715,-374.023,80.566,0
1542907315.001,-3.418,29.785,30.762,-361.816,33.691,0
1542907315.005,14.648,22.461,26.367,-368.652,5.371,0
1542907315.009,17.578,-5.859,29.785,-372.070,36.621,0
1542907315.013,1.953,-0.977,32.227,-368.164,31.250,0
1542907315.017,-1.953,34.180,27.832,-384.766,44.922,0
1542907315.020,18.066,34.668,28.320,-384.766,64.941,0
1542907315.024,21.973,27.832,30.273,-370.117,36.621,0
1542907315.028,2.441,30.762,25.879,-364.746,9.277,0
1542907315.032,13.672,25.391,23.926,-352.539,61.035,0
1542907315.036,39.551,5.859,28.809,-343.262,78.613,0
1542907315.040,45.898,12.695,25.879,-352.539,13.672,0
1542907315.044,23.926,29.785,18.555,-378.418,20.508,0
1542907315.048,14.648,24.902,17.578,-375.977,71.289,0
1542907315.052,25.879,18.066,16.602,-337.891,56.152,0
1542907315.056,13.184,20.020,18.066,-331.543,13.184,0
1542907315.060,0.977,22.461,11.230,-347.168,18.066,0
1542907315.063,10.742,22.461,7.812,-342.773,5.371,0
1542907315.067,20.020,16.602,13.672,-334.473,-20.508,0
1542907315.071,26.367,5.371,13.672,-310.547,-20.020,0
1542907315.075,29.785,6.348,12.695,-303.711,-11.719,0
1542907315.079,22.461,12.695,15.625,-302.246,10.254,0
1542907315.083,7.812,9.766,20.996,-278.320,80.566,0
1542907315.087,13.672,1.465,22.461,-263.672,76.172,0
1542907315.091,28.320,0.488,16.113,-266.602,37.598,0
1542907315.095,15.625,14.648,15.625,-269.043,15.137,0
1542907315.099,17.090,25.879,21.973,-263.672,54.199,0
1542907315.102,36.621,4.395,20.508,-255.371,17.578,0
1542907315.106,9.766,-2.930,17.578,-236.816,35.156,0
1542907315.110,17.578,15.625,20.020,-235.352,91.797,0
1542907315.114,29.785,19.531,24.902,-239.258,11.230,0
1542907315.118,20.508,16.602,32.227,-230.469,19.531,0
1542907315.122,22.949,6.348,33.691,-218.262,63.965,0
1542907315.126,30.273,9.277,25.391,-219.727,49.805,0
1542907315.130,37.598,11.719,23.438,-214.355,52.734,0
1542907315.134,27.832,8.301,30.273,-202.148,20.508,0
1542907315.138,32.227,12.695,35.156,-212.402,22.461,0
1542907315.142,39.062,13.184,37.598,-214.844,-4.883,0
1542907315.145,44.434,16.113,40.039,-205.078,14.160,0
1542907315.149,50.293,1.953,37.109,-193.359,33.691,0
1542907315.153,49.805,-3.906,31.738,-194.824,40.039,0
1542907315.157,34.180,22.461,25.391,-203.613,37.109,0
1542907315.161,26.367,29.785,20.996,-203.613,-21.484,0
1542907315.165,28.809,20.996,20.508,-204.590,50.781,0
1542907315.169,35.156,18.066,21.484,-187.988,41.992,0
1542907315.173,36.621,19.531,25.879,-178.711,-2.441,0
1542907315.177,48.340,14.648,31.738,-182.129,40.527,0
1542907315.181,56.641,10.254,35.645,-186.035,36.621,0
1542907315.185,22.949,7.812,34.668,-185.059,50.781,0
1542907315.188,-1.465,2.441,31.738,-172.363,60.547,0
1542907315.192,4.395,2.441,35.156,-166.992,76.172,0
1542907315.196,34.180,5.859,34.180,-161.133,91.309,0
1542907315.200,36.133,9.277,33.203,-152.832,42.969,0
1542907315.204,13.672,7.812,34.668,-152.344,36.621,0
1542907315.208,18.066,11.719,33.691,-137.695,85.938,0
1542907315.212,32.715,9.277,31.250,-122.070,70.801,0
1542907315.216,48.340,-0.488,26.855,-137.695,16.602,0
1542907315.220,44.922,5.859,26.855,-138.672,16.602,0
1542907315.224,24.902,15.625,31.250,-128.418,69.824,0
1542907315.227,49.316,10.742,33.203,-133.301,48.828,0
1542907315.231,42.969,14.648,38.574,-116.211,2.441,0
1542907315.235,20.508,23.926,38.574,-108.887,1.953,0
1542907315.239,52.734,11.719,36.621,-111.816,41.992,0
1542907315.243,48.340,6.348,32.715,-114.746,38.574,0
1542907315.247,34.180,23.926,20.508,-112.305,52.246,0
1542907315.251,54.688,16.113,19.043,-101.562,75.684,0
1542907315.255,64.453,3.418,34.180,-112.305,19.043,0
1542907315.259,28.320,18.555,40.039,-141.602,7.812,0
1542907315.263,25.391,27.344,34.668,-164.062,59.570,0
1542907315.267,38.086,26.855,32.227,-157.715,47.363,0
1542907315.270,28.809,18.555,33.203,-147.461,-19.531,0
1542907315.274,27.832,13.672,37.109,-150.391,14.648,0
1542907315.278,27.344,16.602,38.574,-149.902,52.246,0
1542907315.282,38.086,16.113,40.527,-145.996,59.082,0
1542907315.286,48.340,13.672,40.039,-149.902,56.641,0
1542907315.290,45.898,12.695,38.086,-143.555,42.969,0
1542907315.294,41.504,8.789,38.086,-145.996,74.219,0
1542907315.298,60.059,-7.324,37.598,-160.156,61.035,0
1542907315.302,38.574,-6.348,39.062,-163.574,23.438,0
1542907315.306,20.508,9.766,40.527,-162.598,-8.789,0
1542907315.310,40.527,14.648,33.691,-161.621,33.691,0
1542907315.313,54.688,13.672,33.691,-151.855,58.594,0
1542907315.317,39.551,9.766,30.273,-140.625,63.965,0
1542907315.321,28.809,12.695,30.273,-144.043,85.938,0
1542907315.325,42.480,9.277,35.645,-143.066,74.219,0
1542907315.329,44.434,-0.977,36.621,-136.719,79.590,0
1542907315.333,36.621,1.953,35.156,-126.465,58.594,0
1542907315.337,36.133,5.859,34.180,-126.465,0.000,0
1542907315.341,31.250,4.395,28.809,-128.418,14.648,0
1542907315.345,16.113,-5.859,21.973,-125.000,34.668,0
1542907315.349,9.277,-3.418,26.855,-131.836,28.809,0
1542907315.352,16.113,1.953,37.109,-125.488,53.223,0
1542907315.356,39.062,-4.395,33.203,-111.328,-19.531,0
1542907315.360,53.711,-9.277,20.508,-108.398,-0.977,0
1542907315.364,46.387,-0.488,22.949,-103.027,63.965,0
1542907315.368,28.809,0.977,33.691,-109.375,8.301,0
1542907315.372,30.762,-1.465,40.527,-124.512,9.766,0
1542907315.376,17.578,9.277,44.922,-130.859,69.336,0
1542907315.380,16.113,6.348,47.852,-128.906,61.523,0
1542907315.384,24.414,-5.371,47.852,-129.395,30.762,0
1542907315.388,9.766,-12.695,46.387,-133.301,33.203,0
1542907315.392,19.531,-11.230,46.387,-141.113,57.617,0
1542907315.395,24.902,-2.441,42.969,-153.320,91.309,0
1542907315.399,13.184,0.488,40.527,-144.043,67.383,0
1542907315.403,20.508,0.488,41.504,-135.742,65.918,0
1542907315.407,45.898,1.465,37.598,-142.090,55.664,0
1542907315.411,45.410,-10.742,37.109,-133.301,59.082,0
1542907315.415,20.996,-15.137,36.621,-126.465,45.410,0
1542907315.419,35.156,-6.836,33.203,-119.629,46.387,0
1542907315.423,52.734,-6.836,41.504,-110.840,78.125,0
1542907315.427,42.969,-17.090,40.039,-107.910,59.082,0
1542907315.431,28.809,-7.324,29.297,-89.844,46.875,0
1542907315.435,12.695,5.859,28.809,-95.215,66.406,0
1542907315.438,32.227,10.742,37.109,-92.285,57.617,0
1542907315.442,44.922,20.996,37.109,-63.965,41.992,0
1542907315.446,22.461,18.555,35.156,-56.641,21.484,0
1542907315.450,14.160,11.719,39.551,-61.035,0.000,0
1542907315.454,23.926,8.301,44.922,-45.410,-36.621,0
1542907315.458,27.344,8.789,45.898,-32.227,14.648,0
1542907315.462,19.043,7.812,38.086,-27.344,64.941,0
1542907315.466,35.156,5.371,37.598,-12.207,24.902,0
1542907315.470,46.387,6.348,37.598,-2.441,59.082,0
1542907315.474,34.668,4.883,38.574,-5.371,41.992,0
1542907315.477,31.250,2.930,41.016,-4.883,44.434,0
1542907315.481,26.855,13.672,31.738,3.906,56.152,0
1542907315.485,25.879,22.461,32.715,11.719,30.273,0
1542907315.489,29.297,16.113,40.039,14.160,57.617,0
1542907315.493,42.969,11.719,41.016,13.184,37.109,0
1542907315.497,46.387,0.488,47.363,10.254,41.504,0
1542907315.501,50.293,-0.488,45.898,6.836,20.996,0
1542907315.505,37.598,23.926,41.992,0.977,26.367,0
1542907315.509,32.227,39.062,40.039,-3.906,74.219,0
1542907315.513,35.645,29.297,39.551,0.000,42.969,0
1542907315.517,27.344,17.578,39.062,3.906,52.246,0
1542907315.520,35.156,16.113,32.227,-20.020,70.801,0
1542907315.524,49.805,5.371,30.762,-36.133,21.484,0
1542907315.528,43.945,-1.953,33.691,-27.344,-0.977,0
1542907315.532,31.738,9.766,37.109,-20.996,41.016,0
1542907315.536,25.879,22.461,39.551,-25.391,30.273,0
1542907315.540,29.297,28.320,39.551,-27.344,96.680,0
1542907315.544,38.574,24.414,40.039,-16.113,130.859,0
1542907315.548,25.879,17.578,43.945,-13.672,99.609,0
1542907315.552,40.039,16.602,41.992,-26.855,116.699,0
1542907315.556,27.344,15.625,35.645,-25.879,81.543,0
1542907315.560,17.578,19.043,43.457,-3.906,54.199,0
1542907315.563,38.574,20.996,46.387,4.883,78.125,0
1542907315.567,36.133,-3.906,45.410,2.441,87.402,0
1542907315.571,35.156,-18.066,45.410,6.836,31.738,0
1542907315.575,53.223,11.230,40.527,7.812,44.922,0
1542907315.579,27.832,35.156,35.645,2.930,71.777,0
1542907315.583,12.695,35.156,38.574,-3.418,55.176,0
1542907315.587,33.691,28.809,37.109,7.324,73.242,0
1542907315.591,42.969,31.250,43.457,30.762,80.078,0
1542907315.595,36.133,23.926,55.176,30.273,49.805,0
1542907315.599,24.902,19.531,57.129,16.113,42.480,0
1542907315.602,13.184,24.902,58.594,4.883,6.836,0
1542907315.606,-14.160,15.625,50.293,-25.879,-4.883,0
1542907315.610,-45.898,27.832,54.199,-49.805,3.418,0
1542907315.614,-38.574,51.270,69.824,-67.383,9.277,0
1542907315.618,-52.246,60.059,65.430,-104.004,38.086,0
1542907315.622,-112.305,71.777,53.711,-131.836,34.668,0
1542907315.626,-151.855,94.238,53.223,-164.062,57.617,0
1542907315.630,-165.527,116.699,46.387,-196.289,72.266,0
1542907315.634,-189.453,137.207,39.551,-205.078,34.668,0
1542907315.638,-232.910,139.648,33.691,-232.422,4.883,0
1542907315.642,-227.051,139.160,39.551,-246.582,24.414,0
1542907315.645,-235.352,143.066,42.480,-258.301,47.363,0
1542907315.649,-250.977,142.090,34.180,-271.973,-6.348,0
1542907315.653,-248.535,143.555,27.344,-257.324,30.762,0
1542907315.657,-248.047,148.438,25.391,-261.719,57.129,0
1542907315.661,-213.379,147.461,24.902,-263.672,66.895,0
1542907315.665,-171.387,137.695,24.902,-250.977,93.750,0
1542907315.669,-172.852,132.324,20.996,-247.070,87.402,0
1542907315.673,-141.113,123.047,16.602,-229.492,62.012,0
1542907315.677,-126.953,105.957,15.137,-209.961,17.090,0
1542907315.681,-112.793,96.191,22.461,-187.500,54.199,0
1542907315.685,-87.891,85.938,25.879,-150.391,55.664,0
1542907315.688,-75.684,72.754,24.414,-125.000,57.129,0
1542907315.692,-51.758,48.340,20.508,-111.328,71.777,0
1542907315.696,-14.160,33.691,15.625,-89.844,61.523,0
1542907315.700,10.254,22.949,17.090,-81.055,55.664,0
1542907315.704,5.859,17.090,18.066,-71.777,35.645,0
1542907315.708,43.945,33.691,12.695,-55.176,48.340,0
1542907315.712,71.289,15.625,10.254,-33.691,105.957,0
1542907315.716,58.594,-10.742,9.766,-20.508,88.379,0
1542907315.720,73.242,7.812,0.977,-10.254,-3.418,0
1542907315.724,98.145,5.859,-6.836,4.395,33.203,0
1542907315.727,122.070,-12.695,6.836,9.277,3.418,0
1542907315.731,124.023,-4.395,22.461,25.879,-35.156,0
1542907315.735,113.770,-6.348,25.391,46.387,-35.645,0
1542907315.739,114.258,-15.625,24.414,57.129,-9.277,0
1542907315.743,111.816,-20.996,25.391,63.477,44.434,0
1542907315.747,120.117,-27.832,25.391,63.965,-9.277,0
1542907315.751,104.492,-28.809,19.043,52.734,-10.742,0
1542907315.755,98.145,-41.016,21.484,64.453,39.551,0
1542907315.759,108.887,-41.992,28.320,69.824,37.109,0
1542907315.763,127.441,-38.574,28.320,62.500,21.973,0
1542907315.767,143.066,-50.293,24.414,67.871,-15.137,0
1542907315.770,127.930,-39.551,22.949,76.660,-32.715,0
1542907315.774,108.887,-28.320,18.066,69.336,18.555,0
1542907315.778,105.469,-28.809,16.602,60.547,98.633,0
1542907315.782,127.930,-36.621,23.926,60.547,92.285,0
1542907315.786,131.348,-44.922,26.855,61.523,64.941,0
1542907315.790,107.910,-30.762,24.902,69.336,99.121,0
1542907315.794,97.656,-23.438,21.484,77.148,105.469,0
1542907315.798,102.051,-34.668,26.367,74.219,87.402,0
1542907315.802,122.559,-38.086,39.062,75.195,68.848,0
1542907315.806,126.953,-35.645,40.039,88.867,83.984,0
1542907315.810,129.883,-25.879,33.691,94.727,58.594,0
1542907315.813,123.535,-38.086,37.598,101.074,57.617,0
1542907315.817,104.492,-52.734,35.645,120.605,77.148,0
1542907315.821,117.676,-33.203,21.973,117.676,64.941,0
1542907315.825,109.863,-30.762,23.926,114.746,44.434,0
1542907315.829,95.215,-26.855,30.273,125.000,25.879,0
1542907315.833,91.797,-20.508,27.344,116.211,1.953,0
1542907315.837,72.754,-25.391,28.320,113.770,31.738,0
1542907315.841,81.055,-20.020,35.645,109.863,76.172,0
1542907315.845,97.168,-15.625,40.527,114.258,34.180,0
1542907315.849,81.543,-21.973,41.016,119.629,4.883,0
1542907315.852,89.355,-26.367,41.016,119.141,48.340,0
1542907315.856,97.656,-21.973,38.574,118.164,84.473,0
1542907315.860,86.914,-11.230,38.574,118.164,46.875,0
1542907315.864,97.656,-10.742,41.016,118.652,-5.859,0
1542907315.868,109.863,-10.742,38.086,118.164,-5.371,0
1542907315.872,83.984,-1.953,37.598,126.465,53.711,0
1542907315.876,71.289,-4.395,41.016,118.652,47.852,0
1542907315.880,70.312,-7.324,38.574,104.492,16.113,0
1542907315.884,56.641,-0.488,34.180,96.191,4.395,0
1542907315.888,49.316,-6.836,32.715,87.891,-31.738,0
1542907315.892,57.129,-2.441,32.227,91.797,-11.230,0
1542907315.895,63.477,2.930,34.668,99.121,26.855,0
1542907315.899,45.898,-6.348,35.156,95.703,35.156,0
1542907315.903,50.781,-4.395,34.668,97.656,12.207,0
1542907315.907,68.359,0.488,36.133,99.121,-2.441,0
1542907315.911,68.359,-0.488,38.574,94.238,41.016,0
1542907315.915,52.734,-3.906,36.133,90.332,50.293,0
1542907315.919,50.781,-6.348,32.227,94.238,80.566,0
1542907315.923,52.734,-6.836,39.062,86.426,62.988,0
1542907315.927,46.875,-9.766,41.016,81.543,9.277,0
1542907315.931,61.523,-9.277,37.598,78.125,26.855,0
1542907315.935,62.012,-7.324,40.527,77.148,34.180,0
1542907315.938,70.801,-7.324,43.945,83.496,75.684,0
1542907315.942,70.312,-8.789,41.992,72.266,94.238,0
1542907315.946,65.918,-24.414,40.039,58.594,31.738,0
1542907315.950,56.152,-17.090,37.109,63.965,19.043,0
1542907315.954,23.438,16.602,37.109,51.270,75.684,0
1542907315.958,30.762,15.625,46.387,34.668,44.434,0
1542907315.962,41.504,4.395,55.664,49.316,-7.324,0
1542907315.966,44.922,11.719,55.176,51.758,67.871,0
1542907315.970,46.387,13.184,47.852,43.457,66.406,0
1542907315.974,42.969,4.883,46.387,38.086,34.180,0
1542907315.977,37.109,7.324,42.969,29.297,79.590,0
1542907315.981,46.387,6.836,41.992,34.668,57.129,0
1542907315.985,46.875,6.836,43.945,42.969,56.641,0
1542907315.989,39.062,4.395,50.293,37.598,89.844,0
1542907315.993,44.922,5.371,53.711,32.715,56.641,0
1542907315.997,41.016,14.160,47.363,35.156,39.062,0
1542907316.001,56.641,12.695,41.504,36.133,57.617,0
1542907316.005,45.898,9.277,40.039,30.762,-0.488,0
1542907316.009,17.090,2.441,43.457,31.738,-5.859,0
1542907316.013,39.062,3.906,47.363,40.039,56.641,0
1542907316.017,20.508,12.695,47.363,36.133,46.387,0
1542907316.020,9.766,12.207,44.434,28.320,48.340,0
1542907316.024,36.621,13.184,44.922,32.715,6.348,0
1542907316.028,29.297,-1.465,39.062,33.691,-17.090,0
1542907316.032,31.738,4.883,35.645,24.902,14.160,0
1542907316.036,35.645,32.227,39.062,26.855,61.035,0
1542907316.040,42.969,32.227,41.504,31.738,65.430,0
1542907316.044,46.387,23.926,36.133,33.203,-13.184,0
1542907316.048,26.367,22.461,27.344,36.133,32.715,0
1542907316.052,30.762,21.484,30.273,34.668,112.305,0
1542907316.056,44.922,19.531,32.715,30.273,77.148,0
1542907316.060,45.410,10.742,28.320,39.062,70.312,0
1542907316.063,47.852,15.137,26.855,34.668,68.359,0
1542907316.067,44.922,24.902,28.320,29.297,61.523,0
1542907316.071,35.645,20.508,36.621,30.273,50.781,0
1542907316.075,45.410,20.020,42.969,31.738,32.227,0
1542907316.079,55.664,17.090,42.480,33.691,51.758,0
1542907316.083,37.109,12.695,38.574,44.922,39.062,0
1542907316.087,29.785,22.461,36.621,55.664,-20.508,0
1542907316.091,46.387,6.836,43.945,61.035,-18.066,0
1542907316.095,44.922,-7.324,47.363,69.824,62.012,0
1542907316.099,32.227,16.602,42.480,68.848,33.691,0
1542907316.102,19.531,33.691,32.715,54.199,40.039,0
1542907316.106,26.855,29.785,31.250,47.363,42.969,0
1542907316.110,34.180,12.695,32.715,48.340,30.273,0
1542907316.114,17.090,13.184,34.668,48.828,31.738,0
1542907316.118,20.996,19.531,35.645,55.664,-15.137,0
1542907316.122,29.297,20.996,34.180,60.547,47.363,0
1542907316.126,18.066,26.855,29.297,59.570,88.867,0
1542907316.130,31.738,23.926,23.926,61.035,46.875,0
1542907316.134,34.668,15.137,35.645,53.711,53.711,0
1542907316.138,39.062,13.672,39.062,40.039,59.570,0
1542907316.142,27.832,20.508,28.320,39.062,57.617,0
1542907316.145,10.742,28.320,29.785,44.434,28.809,0
1542907316.149,10.254,31.250,36.133,44.434,59.570,0
1542907316.153,12.695,26.855,39.062,39.062,58.105,0
1542907316.157,-14.648,21.973,38.574,38.574,20.020,0
1542907316.161,-20.996,34.180,37.109,41.504,46.875,0
1542907316.165,-5.371,30.273,35.156,37.109,31.250,0
1542907316.169,-13.672,10.742,26.367,36.621,75.195,0
1542907316.173,-37.109,10.742,28.809,42.969,66.406,0
1542907316.177,-41.992,22.949,38.574,46.875,8.789,0
1542907316.181,-55.664,20.508,35.645,46.875,27.344,0
1542907316.185,-64.941,14.648,31.738,52.246,23.926,0
1542907316.188,-60.547,21.973,36.621,62.500,48.340,0
1542907316.192,-38.574,21.973,35.156,64.453,71.777,0
1542907316.196,-41.992,13.184,30.762,59.082,83.496,0
1542907316.200,-64.941,6.348,38.574,58.594,108.887,0
1542907316.204,-73.242,2.930,38.086,70.801,65.430,0
1542907316.208,-60.059,7.324,32.715,76.172,30.762,0
1542907316.212,-49.316,6.836,35.156,73.730,33.203,0
1542907316.216,-65.918,13.672,36.133,64.453,31.250,0
1542907316.220,-71.289,14.648,31.250,53.223,27.832,0
1542907316.224,-93.262,9.277,27.832,53.223,0.977,0
1542907316.227,-87.402,24.902,29.785,50.781,68.359,0
1542907316.231,-67.383,21.973,34.668,67.383,82.520,0
1542907316.235,-59.570,8.301,43.457,96.191,25.391,0
1542907316.239,-53.223,15.625,42.480,82.520,22.949,0
1542907316.243,-75.195,20.508,29.785,53.223,40.527,0
1542907316.247,-76.660,20.020,25.879,52.246,44.922,0
1542907316.251,-55.664,24.414,29.297,58.105,69.336,0
1542907316.255,-67.383,23.438,29.785,57.617,58.105,0
1542907316.259,-63.965,20.508,27.344,57.129,42.969,0
1542907316.263,-63.477,24.414,30.273,66.895,43.945,0
1542907316.267,-40.527,25.879,33.203,55.176,27.832,0
1542907316.270,-23.438,18.555,30.762,41.992,62.988,0
1542907316.274,-22.949,15.625,28.809,37.598,38.086,0
1542907316.278,-7.812,14.160,34.180,33.691,-18.555,0
1542907316.282,-7.812,15.137,36.621,45.898,-7.324,0
1542907316.286,-10.254,14.648,29.297,55.176,54.688,0
1542907316.290,0.000,10.254,25.879,50.781,59.570,0
1542907316.294,10.254,8.301,25.879,39.551,51.270,0
1542907316.298,15.625,10.742,30.762,43.945,78.613,0
1542907316.302,6.348,18.066,36.133,44.922,51.758,0
1542907316.306,-15.137,8.301,37.109,39.062,19.043,0
1542907316.310,-14.648,3.418,34.180,41.504,45.410,0
1542907316.313,-4.883,16.113,32.715,34.180,65.918,0
1542907316.317,-3.906,9.277,35.645,32.227,32.227,0
1542907316.321,1.465,5.859,31.250,27.344,9.766,0
1542907316.325,24.414,9.766,31.250,30.273,5.371,0
1542907316.329,24.414,4.883,31.250,32.715,15.625,0
1542907316.333,19.043,12.695,26.855,27.832,49.316,0
1542907316.337,31.738,22.949,26.855,25.879,0.977,0
1542907316.341,23.438,27.344,31.738,22.949,-9.766,0
1542907316.345,43.457,21.484,33.691,27.344,75.195,0
1542907316.349,55.176,20.996,30.762,24.902,56.152,0
1542907316.352,24.902,18.555,28.320,18.066,2.441,0
1542907316.356,33.691,8.301,27.832,21.484,20.508,0
1542907316.360,51.270,7.324,27.344,24.902,16.113,0
1542907316.364,50.293,15.625,27.832,14.160,60.059,0
1542907316.368,48.828,18.066,33.203,16.602,87.891,0
1542907316.372,50.781,16.602,33.203,17.578,73.242,0
1542907316.376,45.898,17.090,28.320,6.348,63.965,0
1542907316.380,34.668,17.090,26.855,0.000,48.340,0
1542907316.384,63.477,15.137,25.879,3.906,76.660,0
1542907316.388,63.477,9.277,27.344,13.184,51.270,0
1542907316.392,57.617,6.836,26.367,16.113,44.922,0
1542907316.395,62.500,8.789,26.855,11.719,73.730,0
1542907316.399,32.715,-0.977,26.367,10.254,21.973,0
1542907316.403,36.621,2.930,24.414,22.949,18.555,0
1542907316.407,39.062,18.066,27.344,26.855,97.168,0
1542907316.411,6.836,18.066,25.879,24.902,106.934,0
1542907316.415,7.324,17.090,27.832,28.809,26.367,0
1542907316.419,0.488,17.578,32.227,39.062,36.621,0
1542907316.423,-3.418,9.277,35.645,45.898,101.562,0
1542907316.427,13.672,0.488,33.691,40.039,74.707,0
1542907316.431,18.066,2.441,29.785,47.363,63.477,0
1542907316.435,21.484,6.836,33.203,54.688,38.086,0
1542907316.438,27.344,7.324,32.715,43.945,-6.348,0
1542907316.442,31.738,-1.465,25.879,28.320,38.574,0
1542907316.446,21.973,-2.441,24.414,17.090,49.805,0
1542907316.450,11.230,3.906,31.250,18.555,95.215,0
1542907316.454,17.090,4.883,38.574,22.949,96.191,0
1542907316.458,39.062,6.348,36.133,16.602,6.836,0
1542907316.462,50.293,6.348,32.227,9.766,49.805,0
1542907316.466,43.945,6.836,34.180,19.043,114.746,0
1542907316.470,46.875,5.371,34.180,27.832,92.285,0
1542907316.474,39.062,4.883,35.156,24.414,48.340,0
1542907316.477,39.551,3.906,33.203,18.555,-13.672,0
1542907316.481,48.828,3.906,31.250,13.672,33.203,0
1542907316.485,49.805,6.836,34.180,14.160,66.406,0
1542907316.489,66.895,6.836,34.668,15.137,99.609,0
1542907316.493,69.336,10.254,31.738,12.695,97.168,0
1542907316.497,42.969,15.625,37.109,10.254,68.848,0
1542907316.501,35.156,9.766,44.434,-0.488,89.844,0
1542907316.505,41.504,6.348,37.109,0.977,63.477,0
1542907316.509,34.180,14.648,25.879,-0.488,33.691,0
1542907316.513,38.086,26.367,25.879,-4.395,35.156,0
1542907316.517,48.828,27.832,34.180,7.324,34.180,0
1542907316.520,48.340,20.508,37.109,16.113,65.430,0
1542907316.524,41.504,30.762,32.227,27.832,56.641,0
1542907316.528,37.598,27.832,26.855,32.227,47.363,0
1542907316.532,42.969,17.090,24.414,34.180,92.773,0
1542907316.536,38.574,18.555,28.809,52.734,54.199,0
1542907316.540,43.457,20.996,31.738,71.289,12.695,0
1542907316.544,51.270,21.973,34.180,72.754,55.176,0
1542907316.548,59.570,16.602,39.551,61.035,87.891,0
1542907316.552,50.781,7.812,37.598,64.941,67.871,0
1542907316.556,40.527,-1.465,37.109,92.773,15.137,0
1542907316.560,64.453,-3.418,43.457,104.004,40.039,0
1542907316.563,77.637,-4.395,48.340,106.445,83.984,0
1542907316.567,64.941,-4.883,53.223,117.676,83.008,0
1542907316.571,66.895,2.441,49.316,119.629,60.547,0
1542907316.575,83.008,8.301,43.945,115.723,68.359,0
1542907316.579,88.379,6.836,42.969,114.746,51.758,0
1542907316.583,88.379,0.000,41.504,125.000,23.438,0
1542907316.587,78.613,-2.441,43.457,121.582,52.734,0
1542907316.591,67.383,-0.488,45.410,118.164,17.090,0
1542907316.595,60.059,0.000,44.922,117.188,1.465,0
1542907316.599,61.035,0.000,45.410,107.422,54.199,0
1542907316.602,60.547,2.930,42.969,110.352,70.801,0
1542907316.606,74.219,7.324,38.086,127.930,47.363,0
1542907316.610,76.172,3.906,43.945,133.301,61.523,0
1542907316.614,54.688,8.789,51.270,120.605,74.219,0
1542907316.618,60.059,10.254,51.270,126.465,82.031,0
1542907316.622,69.336,-8.301,53.223,134.766,61.035,0
1542907316.626,63.965,-8.301,46.875,130.371,1.465,0
1542907316.630,43.945,9.277,40.039,123.535,13.672,0
1542907316.634,34.180,24.902,42.969,127.441,24.902,0
1542907316.638,51.270,21.973,42.969,126.465,20.996,0
1542907316.642,58.594,8.789,41.016,119.629,25.879,0
1542907316.645,41.504,0.977,37.598,116.211,36.133,0
1542907316.649,33.203,1.953,40.039,113.770,49.805,0
1542907316.653,43.457,4.395,42.480,118.164,0.000,0
1542907316.657,41.992,3.418,39.062,128.418,-1.465,0
1542907316.661,39.062,-3.418,43.457,126.465,32.715,0
1542907316.665,53.223,-1.465,44.434,110.840,3.418,0
1542907316.669,51.270,2.441,37.109,109.863,77.637,0
1542907316.673,23.926,4.395,37.109,114.258,69.824,0
1542907316.677,17.090,16.602,38.086,99.609,58.594,0
1542907316.681,31.250,17.578,37.598,94.727,112.793,0
1542907316.685,40.527,15.625,38.574,90.820,57.617,0
1542907316.688,47.363,9.766,32.227,87.891,39.062,0
1542907316.692,42.480,4.395,30.762,97.656,49.805,0
1542907316.696,19.043,9.277,34.180,92.285,12.695,0
1542907316.700,21.484,9.766,35.645,91.309,1.953,0
1542907316.704,50.293,0.977,37.109,106.445,49.316,0
1542907316.708,55.664,1.953,39.062,100.586,88.867,0
1542907316.712,44.922,14.160,39.551,86.426,31.250,0
1542907316.716,17.578,19.531,35.645,88.379,33.691,0
1542907316.720,14.160,17.578,37.598,93.262,32.227,0
1542907316.724,19.531,10.254,38.574,95.703,0.488,0
1542907316.727,-0.977,1.953,30.273,103.516,64.941,0
1542907316.731,28.320,3.418,30.762,100.098,71.289,0
1542907316.735,40.527,14.160,34.180,102.539,63.965,0
1542907316.739,21.484,16.602,36.621,111.816,60.059,0
1542907316.743,35.645,14.648,44.434,100.098,29.785,0
1542907316.747,28.809,13.184,43.457,96.191,46.387,0
1542907316.751,8.789,13.184,42.969,101.562,75.195,0
1542907316.755,-10.254,11.230,35.645,98.633,51.758,0
1542907316.759,-3.418,7.324,23.926,92.773,8.301,0
1542907316.763,20.996,1.465,25.391,93.262,34.180,0
1542907316.767,22.949,2.441,31.738,96.680,42.480,0
1542907316.770,-1.465,4.395,32.227,89.355,7.812,0
1542907316.774,-0.488,0.488,32.227,81.543,4.395,0
1542907316.778,20.508,5.371,33.691,83.984,-3.906,0
1542907316.782,-0.488,2.930,33.203,76.660,39.551,0
1542907316.786,-18.555,-8.301,34.180,66.406,88.867,0
1542907316.790,-7.812,-4.883,32.715,57.129,65.918,0
1542907316.794,-3.906,0.000,30.762,55.664,41.016,0
1542907316.798,-7.812,1.953,34.668,68.848,59.570,0
1542907316.802,-9.766,4.883,34.668,69.336,32.715,0
1542907316.806,5.371,10.742,30.273,53.711,42.969,0
1542907316.810,-11.230,10.254,27.344,43.457,70.312,0
1542907316.813,-3.906,2.441,28.809,48.340,61.523,0
1542907316.817,4.395,9.766,34.668,54.688,91.309,0
1542907316.821,0.977,5.371,35.156,54.688,67.871,0
1542907316.825,6.836,-12.207,35.645,63.477,41.016,0
1542907316.829,-18.555,10.254,36.133,56.641,17.578,0
1542907316.833,-32.227,31.250,31.738,26.855,43.457,0
1542907316.837,-44.922,22.949,32.227,16.602,49.316,0
1542907316.841,-58.594,11.719,37.109,12.695,29.297,0
1542907316.845,-66.895,12.695,36.133,2.441,70.801,0
1542907316.849,-76.660,19.531,27.344,-16.113,83.008,0
1542907316.852,-69.336,23.926,26.367,-12.207,61.523,0
1542907316.856,-74.707,24.902,33.203,-25.879,32.227,0
1542907316.860,-68.359,17.578,32.227,-40.039,48.340,0
1542907316.864,-62.988,15.137,28.809,-12.207,87.402,0
1542907316.868,-62.500,13.184,28.320,4.883,63.965,0
1542907316.872,-59.082,13.184,20.020,18.066,73.730,0
1542907316.876,-26.367,19.043,12.207,30.273,44.434,0
1542907316.880,-34.668,18.555,20.020,33.691,3.906,0
1542907316.884,-37.598,17.578,25.879,38.086,69.336,0
1542907316.888,-10.254,20.996,23.926,40.527,82.520,0
1542907316.892,-20.508,17.578,22.461,43.457,26.855,0
1542907316.895,-20.996,17.090,22.949,47.363,29.297,0
1542907316.899,-6.348,20.996,23.926,52.246,74.219,0
1542907316.903,0.488,26.855,27.832,63.477,91.797,0
1542907316.907,-13.184,25.879,33.691,68.359,31.738,0
1542907316.911,-9.277,20.996,31.738,60.059,-1.465,0
1542907316.915,-0.977,22.949,22.461,52.246,-69.824,0
1542907316.919,-26.855,23.438,22.949,41.992,-93.750,0
1542907316.923,-15.625,23.438,29.297,22.949,-33.203,0
1542907316.927,3.906,22.949,25.391,13.672,33.691,0
1542907316.931,-1.465,22.461,19.531,19.531,75.684,0
1542907316.935,-7.812,27.344,22.949,14.160,34.180,0
1542907316.938,-2.930,27.832,32.227,11.719,-1.465,0
1542907316.942,2.930,25.391,37.109,14.160,84.473,0
1542907316.946,-0.488,28.809,32.715,2.441,111.328,0
1542907316.950,0.000,32.227,35.645,9.766,29.297,0
1542907316.954,12.207,39.062,36.621,24.414,-10.254,0
1542907316.958,10.254,29.297,33.203,26.367,31.250,0
1542907316.962,11.230,11.230,33.691,23.926,83.984,0
1542907316.966,18.555,29.297,31.738,27.344,39.551,0
1542907316.970,28.809,37.109,28.320,36.133,29.785,0
1542907316.974,34.668,26.855,22.949,50.293,68.359,0
1542907316.977,8.789,31.738,23.926,51.758,30.762,0
1542907316.981,11.230,30.762,32.227,49.805,48.340,0
1542907316.985,41.992,31.250,39.062,52.734,124.023,0
1542907316.989,26.855,28.809,37.598,53.223,131.836,0
1542907316.993,0.977,26.855,34.668,58.594,73.242,0
1542907316.997,14.648,30.273,33.691,58.594,39.062,0
1542907317.001,22.461,22.949,36.133,61.523,5.371,0
1542907317.005,25.391,19.043,39.551,64.941,15.137,0
1542907317.009,28.320,13.672,37.598,67.871,41.016,0
1542907317.013,20.996,10.254,33.691,65.430,30.762,0
1542907317.017,9.766,18.555,32.715,61.523,13.672,0
1542907317.020,-0.488,14.160,33.203,56.641,63.477,0
1542907317.024,0.977,9.277,36.621,54.199,83.984,0
1542907317.028,22.949,10.742,35.645,59.570,4.883,0
1542907317.032,20.020,11.230,34.180,69.336,13.184,0
1542907317.036,-1.953,18.066,35.645,74.219,32.227,0
1542907317.040,10.254,25.391,33.691,69.824,-0.488,0
1542907317.044,24.902,24.902,29.297,67.383,13.672,0
1542907317.048,16.602,20.020,35.156,63.477,35.156,0
1542907317.052,8.789,14.648,45.898,73.730,30.273,0
1542907317.056,5.371,10.742,45.898,78.613,31.738,0
1542907317.060,9.766,19.531,42.969,78.125,22.949,0
1542907317.063,12.695,27.344,37.598,81.543,43.457,0
1542907317.067,18.555,19.531,36.133,73.730,55.176,0
1542907317.071,15.137,18.555,37.109,65.918,5.859,0
1542907317.075,4.395,27.344,31.738,80.566,20.508,0
1542907317.079,0.488,24.902,30.273,90.820,21.484,0
1542907317.083,-6.836,22.461,36.621,82.031,48.828,0
1542907317.087,-3.418,29.297,37.598,83.984,86.426,0
1542907317.091,10.742,25.391,30.762,79.102,36.621,0
1542907317.095,9.766,7.812,32.227,68.359,30.273,0
1542907317.099,11.230,5.371,41.016,65.430,71.777,0
1542907317.102,5.371,24.414,41.504,60.547,64.941,0
1542907317.106,3.906,36.133,32.227,63.477,79.102,0
1542907317.110,20.996,31.738,26.367,63.965,101.074,0
1542907317.114,27.344,25.879,34.668,60.547,84.961,0
1542907317.118,21.973,25.879,42.969,61.035,57.129,0
1542907317.122,16.602,22.949,39.551,64.941,41.992,0
1542907317.126,4.883,20.996,36.621,69.336,48.828,0
1542907317.130,17.090,17.578,37.598,66.895,65.918,0
1542907317.134,25.391,14.648,36.133,65.918,40.039,0
1542907317.138,13.672,15.137,39.062,65.430,22.461,0
1542907317.142,6.348,14.648,36.133,65.430,88.379,0
1542907317.145,7.812,20.508,30.762,74.707,83.984,0
1542907317.149,13.184,18.066,32.227,63.477,-3.418,0
1542907317.153,1.465,14.160,38.574,59.082,-2.930,0
1542907317.157,-15.137,10.742,38.574,58.105,42.480,0
1542907317.161,8.789,10.742,33.203,43.945,90.332,0
1542907317.165,32.715,13.184,32.227,42.969,112.305,0
1542907317.169,13.184,11.230,32.227,44.434,49.316,0
1542907317.173,8.301,1.953,32.227,38.574,33.691,0
1542907317.177,16.602,0.000,33.691,35.645,74.707,0
1542907317.181,27.832,5.371,39.551,46.875,33.691,0
1542907317.185,20.508,16.113,43.945,47.852,55.176,0
1542907317.188,0.000,23.438,41.504,37.598,88.867,0
1542907317.192,14.648,19.531,38.086,47.363,30.762,0
1542907317.196,14.160,13.184,36.621,51.758,41.016,0
1542907317.200,10.742,10.254,41.992,49.316,89.355,0
1542907317.204,9.277,11.719,40.527,50.293,54.688,0
1542907317.208,12.695,13.184,39.062,40.527,11.230,0
1542907317.212,18.555,8.301,40.527,44.922,42.969,0
1542907317.216,4.883,2.441,33.691,47.363,93.750,0
1542907317.220,30.762,4.395,30.273,46.875,76.660,0
1542907317.224,32.715,17.090,33.691,56.641,76.660,0
1542907317.227,10.254,28.809,33.691,55.176,92.773,0
1542907317.231,13.672,23.438,29.297,50.781,83.008,0
1542907317.235,2.930,16.602,22.461,44.922,57.129,0
1542907317.239,8.301,15.137,26.855,40.527,32.227,0
1542907317.243,13.672,13.184,36.133,47.363,39.551,0
1542907317.247,9.277,10.742,34.180,54.688,44.434,0
1542907317.251,5.371,9.766,37.109,60.547,61.035,0
1542907317.255,9.766,4.883,37.598,57.617,54.199,0
1542907317.259,20.020,0.488,37.598,55.664,-5.371,0
1542907317.263,20.508,4.395,38.086,52.246,12.695,0
1542907317.267,13.672,13.672,33.203,52.246,36.621,0
1542907317.270,12.695,14.160,32.715,66.406,-12.207,0
1542907317.274,32.715,11.719,31.738,69.824,-5.371,0
1542907317.278,36.133,12.207,25.879,57.617,18.555,0
1542907317.282,31.738,10.254,28.320,61.523,-2.930,0
1542907317.286,36.621,2.930,28.320,68.848,-46.875,0
1542907317.290,12.695,0.000,25.391,73.242,3.906,0
1542907317.294,22.461,13.184,25.879,76.172,65.430,0
1542907317.298,32.715,16.602,26.855,76.172,55.664,0
1542907317.302,24.902,10.742,34.668,76.172,34.668,0
1542907317.306,21.973,8.789,36.133,69.824,46.387,0
1542907317.310,34.668,7.324,30.762,71.777,35.156,0
1542907317.313,49.316,12.695,28.809,62.012,58.105,0
1542907317.317,29.785,12.207,27.832,62.988,51.758,0
1542907317.321,27.344,9.766,29.297,76.172,30.762,0
1542907317.325,18.066,11.719,29.785,67.871,32.715,0
1542907317.329,-2.441,10.254,22.461,62.500,-5.859,0
1542907317.333,-1.953,10.742,17.090,64.453,10.254,0
1542907317.337,-15.137,14.160,24.902,64.941,42.969,0
1542907317.341,-29.297,6.348,31.250,58.105,62.988,0
1542907317.345,-4.395,-0.488,28.809,47.852,93.262,0
1542907317.349,20.020,14.648,29.785,59.082,54.688,0
1542907317.352,20.996,23.926,28.320,52.246,37.598,0
1542907317.356,21.484,26.367,30.762,41.992,61.035,0
1542907317.360,20.508,21.973,31.738,54.199,50.781,0
1542907317.364,23.438,12.207,27.832,60.547,75.195,0
1542907317.368,28.809,14.648,31.738,63.477,55.176,0
1542907317.372,25.391,20.020,31.250,62.012,43.457,0
1542907317.376,23.438,17.090,24.902,58.105,69.336,0
1542907317.380,32.715,21.484,23.438,55.664,78.125,0
1542907317.384,43.457,14.160,29.297,55.664,126.953,0
1542907317.388,31.250,8.789,29.297,58.594,123.535,0
1542907317.392,36.621,20.996,21.484,53.223,84.473,0
1542907317.395,63.477,22.461,18.066,54.199,11.719,0
1542907317.399,57.617,17.090,21.484,57.129,5.371,0
1542907317.403,45.898,15.625,32.715,56.641,72.266,0
1542907317.407,50.293,17.578,33.691,59.570,43.457,0
1542907317.411,41.992,19.531,25.391,59.082,42.480,0
1542907317.415,32.227,20.508,26.855,60.547,45.410,0
1542907317.419,33.691,16.602,32.227,63.965,43.457,0
1542907317.423,30.273,13.184,32.227,58.594,35.645,0
1542907317.427,29.785,15.137,29.297,55.176,-4.395,0
1542907317.431,38.574,13.672,28.809,52.246,46.387,0
1542907317.435,28.320,9.277,32.227,57.129,52.246,0
1542907317.438,11.719,14.648,36.133,62.012,72.754,0
1542907317.442,15.137,16.602,29.297,71.777,31.738,0
1542907317.446,31.250,11.719,30.273,78.613,-59.570,0
1542907317.450,36.133,4.395,30.762,76.660,-23.926,0
1542907317.454,27.344,4.395,20.508,79.102,41.504,0
1542907317.458,22.461,12.207,26.855,75.684,72.754,0
1542907317.462,24.414,17.578,34.668,72.754,41.504,0
1542907317.466,33.691,22.461,37.598,72.754,-16.113,0
1542907317.470,15.137,12.207,39.062,73.730,-24.414,0
1542907317.474,0.977,7.324,35.645,79.102,37.109,0
1542907317.477,5.371,6.836,29.785,80.566,107.422,0
1542907317.481,3.906,8.789,25.391,74.219,113.281,0
1542907317.485,14.648,20.020,26.367,72.266,76.172,0
1542907317.489,14.648,22.949,28.809,69.336,62.988,0
1542907317.493,-1.953,15.137,28.809,63.477,27.832,0
1542907317.497,4.883,15.137,28.320,59.570,63.477,0
1542907317.501,-1.953,11.719,33.203,61.523,117.676,0
1542907317.505,-27.344,4.883,32.715,61.523,92.773,0
1542907317.509,-33.691,8.301,33.203,61.035,82.031,0
1542907317.513,-26.367,4.883,34.180,60.059,68.359,0
1542907317.517,-24.902,2.441,28.320,56.641,80.078,0
1542907317.520,-26.367,13.184,29.785,56.152,59.570,0
1542907317.524,-12.207,12.207,34.180,49.805,31.738,0
1542907317.528,-33.691,2.441,33.691,52.734,64.941,0
1542907317.532,-36.133,12.695,29.297,60.547,68.848,0
1542907317.536,-30.762,20.996,33.203,62.500,95.215,0
1542907317.540,-39.551,17.090,36.621,57.617,102.539,0
1542907317.544,-49.805,17.578,33.691,49.805,41.016,0
1542907317.548,-58.594,21.973,35.156,54.199,6.348,0
1542907317.552,-58.594,18.555,34.668,61.523,44.434,0
1542907317.556,-53.223,14.648,34.180,59.570,53.711,0
1542907317.560,-53.711,17.578,37.109,55.176,62.012,0
1542907317.563,-50.293,19.043,36.133,60.059,73.730,0
1542907317.567,-40.527,20.020,38.086,69.824,24.902,0
1542907317.571,-20.020,19.531,41.504,69.824,72.266,0
1542907317.575,-0.488,22.949,38.574,70.312,88.379,0
1542907317.579,-6.348,20.996,34.668,75.684,65.430,0
1542907317.583,-3.418,15.137,29.785,76.660,95.215,0
1542907317.587,6.836,14.160,30.273,83.008,62.988,0
1542907317.591,2.930,13.672,35.156,79.590,44.434,0
1542907317.595,0.488,14.648,34.180,72.754,0.000,0
1542907317.599,6.348,19.531,30.762,71.777,-41.504,0
1542907317.602,4.883,17.578,29.297,66.895,18.555,0
1542907317.606,22.461,17.578,28.809,71.289,67.383,0
1542907317.610,28.809,19.043,26.367,74.707,49.805,0
1542907317.614,16.113,15.625,24.414,79.102,74.219,0
1542907317.618,14.160,10.254,24.902,86.426,93.262,0
1542907317.622,35.156,9.277,30.273,80.078,61.035,0
1542907317.626,37.109,20.508,31.738,71.289,42.480,0
1542907317.630,36.133,23.926,29.785,70.312,36.621,0
1542907317.634,41.504,22.949,30.273,71.777,86.914,0
1542907317.638,20.508,22.461,28.809,68.848,60.059,0
1542907317.642,23.438,19.531,32.715,58.105,59.570,0
1542907317.645,27.832,21.973,40.039,55.176,36.621,0
1542907317.649,25.879,23.438,38.574,47.852,-5.371,0
1542907317.653,30.273,20.996,37.598,32.227,22.461,0
1542907317.657,18.555,18.066,36.621,17.090,62.988,0
1542907317.661,20.996,11.230,35.156,14.160,42.480,0
1542907317.665,32.715,11.719,37.109,20.996,-31.250,0
1542907317.669,35.645,22.949,40.039,11.230,1.953,0
1542907317.673,27.344,18.555,32.715,3.906,47.852,0
1542907317.677,38.574,6.348,23.926,17.090,38.574,0
1542907317.681,48.340,19.531,26.855,20.020,5.371,0
1542907317.685,39.551,29.785,31.738,24.414,-9.277,0
1542907317.688,41.504,28.320,29.785,26.367,54.688,0
1542907317.692,30.762,26.855,26.855,20.996,35.645,0
1542907317.696,7.812,20.996,31.250,19.043,28.809,0
1542907317.700,23.438,11.719,31.250,20.508,50.293,0
1542907317.704,33.691,11.719,28.320,26.367,41.504,0
1542907317.708,25.879,17.090,26.855,23.438,75.684,0
1542907317.712,19.531,17.578,20.020,20.020,61.035,0
1542907317.716,17.090,12.207,23.926,25.879,48.340,0
1542907317.720,18.066,10.254,34.668,23.438,109.375,0
1542907317.724,7.324,17.578,34.180,19.043,108.398,0
1542907317.727,11.719,17.578,37.109,26.367,54.688,0
1542907317.731,17.578,15.625,39.062,27.832,7.324,0
1542907317.735,26.367,14.160,35.156,32.227,11.230,0
1542907317.739,39.062,12.695,35.156,38.574,33.691,0
1542907317.743,20.996,14.160,33.203,36.621,30.762,0
1542907317.747,16.602,11.719,32.715,39.062,87.402,0
1542907317.751,40.527,4.395,30.762,34.180,70.801,0
1542907317.755,33.691,1.465,28.809,31.738,-11.719,0
1542907317.759,31.250,8.789,29.297,28.809,3.418,0
1542907317.763,45.898,13.672,33.203,33.691,60.547,0
1542907317.767,40.527,13.184,35.156,48.340,-5.371,0
1542907317.770,30.762,11.230,32.715,42.969,-65.430,0
1542907317.774,30.762,15.137,32.715,44.922,-36.621,0
1542907317.778,40.039,23.926,34.180,61.035,-11.230,0
1542907317.782,30.762,14.160,30.762,52.734,-6.348,0
1542907317.786,31.738,0.000,31.738,44.434,-19.531,0
1542907317.790,30.762,8.301,35.645,56.152,0.488,0
1542907317.794,28.320,20.508,30.273,57.129,21.484,0
1542907317.798,41.504,17.578,30.762,44.922,-27.832,0
1542907317.802,35.645,3.418,37.109,43.457,5.371,0
1542907317.806,36.621,-0.977,34.668,53.711,53.711,0
1542907317.810,36.133,20.996,28.320,55.664,46.387,0
1542907317.813,25.391,30.762,26.367,49.316,27.344,0
1542907317.817,24.902,18.066,28.320,46.875,82.520,0
1542907317.821,50.293,12.695,31.738,39.062,141.113,0
1542907317.825,39.551,15.625,36.133,38.574,116.211,0
1542907317.829,18.555,14.160,38.086,53.223,52.734,0
1542907317.833,25.391,14.648,40.527,57.129,25.391,0
1542907317.837,43.945,13.672,44.434,59.570,54.688,0
1542907317.841,51.758,15.625,43.945,55.176,89.844,0
1542907317.845,31.250,25.391,36.621,39.551,85.938,0
1542907317.849,18.555,28.320,30.762,44.922,52.734,0
1542907317.852,21.484,23.926,30.762,47.852,72.266,0
1542907317.856,27.832,19.043,33.203,40.039,74.707,0
1542907317.860,20.020,18.066,32.715,37.109,44.922,0
1542907317.864,36.621,24.902,31.250,27.832,73.730,0
1542907317.868,51.758,25.391,34.668,27.344,77.148,0
1542907317.872,46.387,20.996,34.668,32.227,44.922,0
1542907317.876,33.691,20.508,35.156,33.691,56.152,0
1542907317.880,29.297,17.578,29.297,36.133,48.828,0
1542907317.884,53.711,14.648,25.879,31.738,54.688,0
1542907317.888,50.781,5.859,35.156,27.344,62.500,0
1542907317.892,39.062,4.395,31.738,16.602,49.805,0
1542907317.895,35.156,16.113,27.344,16.602,60.059,0
1542907317.899,31.738,12.207,37.109,21.973,75.195,0
1542907317.903,32.227,5.371,39.551,15.137,67.383,0
1542907317.907,47.363,9.766,35.156,15.137,57.617,0
1542907317.911,39.551,15.625,34.180,15.137,64.453,0
1542907317.915,26.367,16.113,33.691,28.809,85.938,0
1542907317.919,43.457,15.625,31.250,32.715,117.676,0
1542907317.923,36.621,13.672,29.785,28.809,90.820,0
1542907317.927,37.598,14.648,27.344,33.691,36.133,0
1542907317.931,48.828,10.742,31.250,35.645,46.875,0
1542907317.935,45.898,7.812,35.156,35.156,46.387,0
1542907317.938,37.598,10.742,31.250,28.320,38.086,0
1542907317.942,39.551,9.277,30.273,35.645,52.734,0
1542907317.946,38.574,13.184,28.809,42.480,19.531,0
1542907317.950,29.785,14.160,33.691,36.133,49.805,0
1542907317.954,22.949,9.766,35.156,41.016,72.266,0
1542907317.958,22.461,7.324,33.691,37.109,39.551,0
1542907317.962,39.062,8.301,25.879,37.109,60.547,0
1542907317.966,52.734,10.742,23.438,52.734,49.316,0
1542907317.970,44.922,6.836,30.762,51.758,25.879,0
1542907317.974,37.598,4.395,30.273,46.387,16.602,0
1542907317.977,24.902,-2.930,30.273,50.781,38.574,0
1542907317.981,20.996,-1.953,31.250,57.617,1.465,0
1542907317.985,27.344,5.859,29.785,56.641,11.230,0
1542907317.989,31.250,2.930,26.367,59.082,72.754,0
1542907317.993,27.344,4.395,22.949,67.383,15.137,0
1542907317.997,35.645,0.488,25.879,73.730,9.766,0
1542907318.001,34.180,5.371,32.715,75.684,53.223,0
1542907318.005,34.668,19.043,33.691,70.312,50.293,0
1542907318.009,31.738,18.066,26.855,69.336,59.570,0
1542907318.013,26.855,18.555,27.832,77.637,105.469,0
1542907318.017,37.598,20.020,32.715,77.148,74.219,0
1542907318.020,32.227,15.625,34.668,78.125,20.020,0
1542907318.024,36.621,17.090,34.668,78.125,66.406,0
1542907318.028,49.805,15.625,35.645,74.707,72.754,0
1542907318.032,37.109,13.184,31.738,78.613,14.160,0
1542907318.036,23.438,13.672,24.902,84.473,7.812,0
1542907318.040,38.574,16.602,30.273,89.844,41.992,0
1542907318.044,49.316,17.090,34.180,78.613,45.410,0
1542907318.048,35.645,10.254,32.715,80.566,-10.742,0
1542907318.052,26.855,14.648,29.785,97.656,-27.344,0
1542907318.056,29.297,21.484,21.973,89.355,-20.996,0
1542907318.060,28.320,18.066,23.438,85.938,-20.508,0
1542907318.063,27.832,20.020,28.809,90.332,-2.930,0
1542907318.067,37.109,14.160,30.762,89.355,40.039,0
1542907318.071,48.828,-2.441,30.273,85.449,69.824,0
1542907318.075,28.320,5.859,27.832,83.984,46.875,0
1542907318.079,12.207,18.066,28.809,81.543,71.289,0
1542907318.083,29.297,18.555,32.227,76.660,35.156,0
1542907318.087,38.086,14.160,36.133,71.289,-28.320,0
1542907318.091,18.555,-3.906,38.574,55.664,39.551,0
1542907318.095,19.043,-0.488,45.410,51.270,37.109,0
1542907318.099,38.086,9.766,50.781,67.383,-4.883,0
1542907318.102,17.578,4.883,48.828,63.965,4.395,0
1542907318.106,2.930,4.883,49.805,53.711,50.293,0
1542907318.110,14.648,3.418,51.758,54.199,43.945,0
1542907318.114,15.137,-0.488,50.781,48.340,71.777,0
1542907318.118,25.879,2.441,47.852,48.828,76.660,0
1542907318.122,39.551,4.395,46.387,54.688,44.922,0
1542907318.126,23.926,0.977,47.852,51.758,46.387,0
1542907318.130,13.672,3.906,44.434,51.758,1.465,0
1542907318.134,25.391,13.672,41.992,42.480,6.348,0
1542907318.138,30.762,19.043,43.945,45.898,53.711,0
1542907318.142,34.668,15.625,42.969,60.059,51.758,0
1542907318.145,40.039,10.254,44.922,57.617,44.922,0
1542907318.149,22.949,13.672,45.898,53.711,38.086,0
1542907318.153,27.344,7.812,42.480,53.223,26.367,0
1542907318.157,19.043,3.418,39.062,62.988,28.809,0
1542907318.161,17.578,9.766,40.039,71.289,-34.180,0
1542907318.165,20.020,4.395,40.527,66.895,-60.059,0
1542907318.169,-14.160,1.953,36.621,66.895,42.969,0
1542907318.173,11.230,10.254,39.062,83.984,40.527,0
1542907318.177,22.461,13.184,43.457,62.012,5.859,0
1542907318.181,-14.160,9.277,41.016,31.250,33.691,0
1542907318.185,-9.277,9.277,38.574,34.668,26.855,0
1542907318.188,13.184,7.324,39.551,42.480,20.996,0
1542907318.192,10.742,2.930,36.621,38.086,48.340,0
1542907318.196,-6.348,1.953,33.691,30.273,75.684,0
1542907318.200,5.371,7.812,35.156,37.598,30.273,0
1542907318.204,19.043,9.277,35.156,42.969,22.949,0
1542907318.208,7.812,0.977,36.133,35.156,22.949,0
1542907318.212,15.137,0.000,40.527,32.227,54.199,0
1542907318.216,29.785,5.371,41.016,31.738,52.734,0
1542907318.220,29.297,7.324,35.156,35.645,30.273,0
1542907318.224,25.879,6.836,38.086,44.434,93.750,0
1542907318.227,20.020,9.766,41.504,42.969,89.355,0
1542907318.231,27.344,12.207,38.086,38.086,65.430,0
1542907318.235,44.922,12.695,34.180,34.668,79.102,0
1542907318.239,18.066,16.602,32.227,27.832,50.781,0
1542907318.243,7.812,15.137,35.156,2.441,39.062,0
1542907318.247,27.832,16.113,37.598,-26.367,8.301,0
1542907318.251,33.691,16.602,34.668,-39.062,20.020,0
1542907318.255,21.484,12.695,35.156,-51.758,49.316,0
1542907318.259,13.184,22.949,35.156,-54.688,52.734,0
1542907318.263,32.227,28.809,33.203,-56.641,73.242,0
1542907318.267,30.273,25.879,33.203,-59.570,62.988,0
1542907318.270,18.066,24.414,32.227,-59.082,63.477,0
1542907318.274,27.344,14.160,31.738,-48.340,45.410,0
1542907318.278,28.320,10.742,30.762,-42.480,17.578,0
1542907318.282,17.578,10.254,33.691,-45.410,49.805,0
1542907318.286,28.320,13.184,37.109,-34.668,74.219,0
1542907318.290,26.367,19.531,35.645,-24.902,43.457,0
1542907318.294,36.133,17.090,37.598,-21.973,20.996,0
1542907318.298,40.039,13.672,40.039,-31.738,80.078,0
1542907318.302,21.484,17.578,37.109,-28.320,56.641,0
1542907318.306,26.367,17.090,33.691,-19.531,32.715,0
1542907318.310,27.832,16.602,34.180,-15.137,60.547,0
1542907318.313,10.254,20.020,34.180,-7.812,40.039,0
1542907318.317,12.695,17.578,35.156,3.418,26.367,0
1542907318.321,34.668,19.043,37.598,15.625,36.133,0
1542907318.325,49.316,21.484,35.156,3.418,19.531,0
1542907318.329,26.855,20.020,31.250,-1.953,57.129,0
1542907318.333,4.883,17.090,31.250,2.441,47.363,0
1542907318.337,29.297,14.160,29.297,7.324,34.668,0
1542907318.341,40.527,15.137,26.855,15.625,68.848,0
1542907318.345,32.227,13.672,26.855,17.090,42.969,0
1542907318.349,32.715,13.184,27.344,12.695,14.160,0
1542907318.352,34.668,12.695,24.902,20.508,37.109,0
1542907318.356,31.250,10.254,28.809,22.949,35.645,0
1542907318.360,30.273,11.230,31.738,12.695,24.414,0
1542907318.364,27.832,13.184,29.297,5.859,13.184,0
1542907318.368,29.297,16.113,29.297,1.953,23.438,0
1542907318.372,34.668,17.090,28.320,3.906,0.488,0
1542907318.376,34.180,18.066,30.273,1.953,-16.602,0
1542907318.380,37.598,11.230,29.785,-4.883,77.148,0
1542907318.384,31.738,2.930,25.879,-4.883,76.172,0
1542907318.388,41.504,0.977,31.738,10.254,14.160,0
1542907318.392,49.805,8.301,28.320,-7.812,7.812,0
1542907318.395,21.484,19.043,17.578,-47.363,60.059,0
1542907318.399,2.441,19.531,20.996,-53.711,47.852,0
1542907318.403,10.254,15.137,24.902,-51.270,64.453,0
1542907318.407,6.348,12.695,25.391,-59.570,104.004,0
1542907318.411,-6.348,17.578,24.902,-75.684,92.285,0
1542907318.415,-13.184,23.438,25.391,-75.684,117.676,0
1542907318.419,-24.902,20.996,24.902,-68.848,104.492,0
1542907318.423,-4.395,18.066,21.973,-58.594,67.871,0
1542907318.427,18.066,16.602,23.926,-62.500,66.895,0
1542907318.431,9.766,19.043,28.320,-56.641,32.715,0
1542907318.435,4.395,20.020,26.367,-41.504,90.332,0
1542907318.438,9.277,17.090,26.367,-39.551,146.484,0
1542907318.442,-1.953,18.066,29.785,-32.227,129.395,0
1542907318.446,-1.953,17.578,30.762,-20.996,119.141,0
1542907318.450,8.789,14.648,27.344,-20.020,86.426,0
1542907318.454,4.395,11.719,25.879,-14.648,80.566,0
1542907318.458,8.301,13.184,24.902,-10.254,83.496,0
1542907318.462,12.695,-0.488,22.461,-4.883,47.852,0
1542907318.466,3.418,-1.953,20.020,-0.977,-22.461,0
1542907318.470,0.488,14.160,17.090,-0.488,20.996,0
1542907318.474,2.441,15.137,18.555,0.488,38.086,0
1542907318.477,-0.977,14.648,24.414,-0.977,59.082,0
1542907318.481,1.953,13.672,25.391,7.812,45.898,0
1542907318.485,11.230,4.883,25.879,12.695,-5.371,0
1542907318.489,11.230,3.418,27.344,14.160,55.176,0
1542907318.493,5.371,10.254,27.344,23.926,9.277,0
1542907318.497,7.324,15.625,28.809,20.020,43.457,0
1542907318.501,6.348,18.066,32.227,17.578,57.129,0
1542907318.505,11.719,12.695,32.227,26.855,-41.504,0
1542907318.509,12.695,15.137,28.809,26.855,-5.371,0
1542907318.513,15.137,19.531,26.367,20.020,71.777,0
1542907318.517,21.973,12.695,27.832,16.113,74.219,0
1542907318.520,9.766,9.277,32.227,23.438,71.777,0
1542907318.524,7.324,9.766,33.203,23.438,55.176,0
1542907318.528,21.973,11.230,30.762,22.461,55.664,0
1542907318.532,15.625,11.230,32.227,35.156,67.383,0
1542907318.536,18.555,4.395,37.598,52.734,37.598,0
1542907318.540,20.996,10.742,33.691,37.598,32.715,0
1542907318.544,4.395,21.973,24.414,4.395,57.617,0
1542907318.548,10.254,25.391,13.672,13.672,121.094,0
1542907318.552,16.113,23.926,18.066,27.832,140.625,0
1542907318.556,-5.371,21.484,31.738,21.484,50.293,0
1542907318.560,0.488,20.020,29.785,12.695,27.344,0
1542907318.563,-1.953,16.113,25.879,15.625,16.602,0
1542907318.567,-15.137,11.719,25.879,25.391,-10.742,0
1542907318.571,-0.488,12.695,25.391,31.738,-4.395,0
1542907318.575,9.277,15.137,27.344,33.691,32.715,0
1542907318.579,5.371,9.277,27.344,36.133,73.242,0
1542907318.583,9.766,4.395,25.391,42.969,72.266,0
1542907318.587,18.555,1.953,25.879,55.664,75.684,0
1542907318.591,18.066,0.000,26.367,63.477,29.297,0
1542907318.595,29.785,11.230,28.809,67.383,25.391,0
1542907318.599,30.273,20.508,31.738,67.871,91.309,0
1542907318.602,9.766,14.648,26.367,66.895,102.539,0
1542907318.606,11.230,14.648,20.020,62.988,83.496,0
1542907318.610,17.090,16.113,22.461,51.758,74.707,0
1542907318.614,11.230,3.418,25.391,45.410,27.344,0
1542907318.618,6.348,1.953,27.344,45.410,15.625,0
1542907318.622,15.625,7.812,23.438,58.594,50.781,0
1542907318.626,19.531,13.672,25.879,60.059,43.945,0
1542907318.630,16.113,14.648,31.738,52.734,39.062,0
1542907318.634,21.973,6.836,34.180,59.082,20.508,0
1542907318.638,28.320,6.836,36.621,58.105,36.621,0
1542907318.642,36.133,9.766,33.203,50.781,80.078,0
1542907318.645,33.203,12.695,31.738,55.176,80.566,0
1542907318.649,24.902,15.137,28.809,55.664,55.176,0
1542907318.653,28.809,16.113,25.879,55.176,8.301,0
1542907318.657,32.227,18.066,27.344,51.758,19.531,0
1542907318.661,26.367,18.555,24.902,51.758,40.527,0
1542907318.665,39.551,17.578,25.879,57.617,2.441,0
1542907318.669,24.902,19.531,30.273,54.199,50.781,0
1542907318.673,12.207,19.531,29.297,60.547,87.891,0
1542907318.677,43.945,19.043,28.809,62.500,32.227,0
1542907318.681,33.691,17.090,28.320,41.016,23.926,0
1542907318.685,16.113,16.113,28.809,44.434,57.617,0
1542907318.688,13.184,17.090,30.762,56.641,52.734,0
1542907318.692,16.113,18.066,33.691,63.477,11.230,0
1542907318.696,51.758,16.113,32.227,72.754,8.301,0
