timestamps,TP9,AF7,AF8,TP10,Right AUX,Marker0
1553635463.085,-3.418,50.293,17.578,5.371,16.602,0
1553635463.089,9.277,52.734,19.531,1.953,20.996,0
1553635463.093,11.719,45.898,16.602,7.324,27.832,0
1553635463.097,4.883,39.551,18.066,9.277,-3.418,0
1553635463.101,13.672,41.016,22.949,11.230,-21.973,0
1553635463.105,15.625,37.598,20.508,10.742,21.484,0
1553635463.109,14.648,43.945,19.531,11.719,44.434,0
1553635463.113,20.020,54.199,22.949,23.438,22.949,0
1553635463.117,13.672,55.176,23.438,10.742,61.523,0
1553635463.121,10.254,41.992,19.531,7.324,60.059,0
1553635463.124,21.973,17.090,20.508,26.367,-5.859,0
1553635463.128,23.438,25.879,18.555,21.973,-34.180,0
1553635463.132,27.344,56.641,12.207,23.438,45.410,0
1553635463.136,24.414,60.547,15.137,23.926,56.641,0
1553635463.140,20.508,61.523,17.578,20.020,-6.348,0
1553635463.144,22.461,60.059,16.113,24.902,2.441,0
1553635463.148,21.484,57.617,17.578,35.156,51.270,0
1553635463.152,23.926,55.176,20.996,35.645,77.637,0
1553635463.156,34.180,21.973,28.809,39.551,3.906,0
1553635463.160,26.367,2.441,35.645,47.852,42.969,0
1553635463.164,15.625,44.434,31.250,26.367,47.363,0
1553635463.167,8.301,68.848,19.531,0.000,8.789,0
1553635463.171,8.301,61.035,20.020,12.207,32.715,0
1553635463.175,3.906,57.129,20.996,0.000,12.207,0
1553635463.179,23.926,39.551,29.785,2.441,16.602,0
1553635463.183,56.152,-14.648,45.898,55.176,45.410,0
1553635463.187,28.809,-5.371,35.156,45.898,31.250,0
1553635463.191,4.395,67.383,26.855,29.297,41.992,0
1553635463.195,0.000,69.824,21.484,20.020,75.195,0
1553635463.199,-1.465,65.918,16.602,8.789,30.273,0
1553635463.203,27.832,45.410,33.203,33.691,33.691,0
1553635463.206,49.805,-41.504,52.734,44.434,87.891,0
1553635463.210,50.293,-8.301,65.430,41.016,12.695,0
1553635463.214,40.527,61.035,48.340,48.340,48.340,0
1553635463.218,-12.695,75.195,6.348,0.977,75.684,0
1553635463.222,-35.645,91.309,5.859,-24.414,33.203,0
1553635463.226,-22.461,78.613,15.625,-17.578,19.531,0
1553635463.230,-13.672,60.059,26.855,-14.160,39.551,0
1553635463.234,-11.230,42.480,31.738,-13.184,5.371,0
1553635463.238,-20.996,33.691,27.832,-13.184,5.371,0
1553635463.242,-29.297,42.969,28.320,-20.996,50.781,0
1553635463.246,-30.762,55.664,35.645,-24.414,69.824,0
1553635463.249,-34.180,58.105,39.062,-19.531,128.418,0
1553635463.253,-33.691,48.828,32.715,-21.973,97.168,0
1553635463.257,-18.066,36.133,29.785,-20.996,27.344,0
1553635463.261,-13.672,41.504,37.598,-4.395,49.316,0
1553635463.265,-13.672,44.922,41.504,3.418,46.875,0
1553635463.269,-4.395,21.484,12.207,-6.836,14.160,0
1553635463.273,0.977,-23.438,21.973,-9.277,49.316,0
1553635463.277,-15.137,-5.371,43.945,-23.438,64.941,0
1553635463.281,-25.391,99.609,27.344,-27.832,65.918,0
1553635463.285,-31.250,102.051,24.414,-24.414,56.641,0
1553635463.289,-32.715,67.383,30.273,-15.625,63.965,0
1553635463.292,-26.367,58.594,20.508,-33.691,72.754,0
1553635463.296,-23.438,53.711,17.090,-32.227,75.195,0
1553635463.300,-24.414,53.711,22.949,-2.441,103.516,0
1553635463.304,-22.461,33.203,29.785,4.395,50.293,0
1553635463.308,-4.395,22.949,40.039,24.414,73.242,0
1553635463.312,8.789,38.086,28.320,15.625,85.938,0
1553635463.316,19.043,9.766,28.320,25.879,31.250,0
1553635463.320,33.691,2.930,37.598,41.016,-35.156,0
1553635463.324,29.297,51.758,29.785,39.062,-16.113,0
1553635463.328,16.113,62.012,20.508,33.691,54.688,0
1553635463.331,15.137,51.270,17.578,30.762,78.125,0
1553635463.335,23.926,47.852,24.902,44.434,82.031,0
1553635463.339,25.879,43.457,24.414,52.734,59.082,0
1553635463.343,21.973,34.180,19.043,33.691,54.199,0
1553635463.347,23.926,33.203,15.625,26.855,89.844,0
1553635463.351,23.926,38.574,10.254,29.297,126.953,0
1553635463.355,28.809,43.945,12.207,30.273,54.688,0
1553635463.359,30.762,39.062,15.625,30.762,29.297,0
1553635463.363,27.344,20.508,11.719,22.461,18.555,0
1553635463.367,37.109,12.207,18.066,37.598,-11.230,0
1553635463.371,36.133,1.953,25.879,43.457,12.207,0
1553635463.374,24.414,24.414,16.602,27.344,61.035,0
1553635463.378,24.414,56.641,5.859,12.207,45.898,0
1553635463.382,21.973,61.035,13.672,26.367,-23.438,0
1553635463.386,14.648,52.734,21.973,34.180,42.969,0
1553635463.390,4.883,38.086,18.555,16.602,43.945,0
1553635463.394,11.719,34.180,17.578,24.902,-20.996,0
1553635463.398,40.527,-2.441,24.902,54.199,13.184,0
1553635463.402,40.527,-6.836,26.367,56.152,4.395,0
1553635463.406,8.301,45.898,13.672,27.832,28.809,0
1553635463.410,12.695,58.594,20.020,27.832,40.039,0
1553635463.414,19.043,60.547,28.320,34.668,-10.254,0
1553635463.417,29.785,16.113,28.809,28.809,28.809,0
1553635463.421,86.914,-89.844,59.082,67.871,68.359,0
1553635463.425,65.918,-29.297,50.781,74.707,24.414,0
1553635463.429,0.000,98.633,-2.930,16.602,9.277,0
1553635463.433,-4.883,100.586,-5.859,3.906,23.438,0
1553635463.437,1.953,71.289,8.301,24.902,56.152,0
1553635463.441,4.395,55.664,11.719,34.180,83.496,0
1553635463.445,24.902,30.762,16.602,36.621,70.801,0
1553635463.449,42.969,-8.301,27.344,37.109,52.734,0
1553635463.453,76.660,-5.371,49.316,58.105,42.969,0
1553635463.456,73.730,45.898,53.711,68.848,52.734,0
1553635463.460,0.000,82.520,12.695,20.020,28.320,0
1553635463.464,-18.066,65.430,-4.883,-1.953,-2.930,0
1553635463.468,25.879,48.828,25.391,28.809,35.156,0
1553635463.472,120.117,-155.762,60.547,93.262,58.105,0
1553635463.476,121.582,-176.758,46.387,81.543,17.578,0
1553635463.480,21.484,108.398,9.766,21.973,42.480,0
1553635463.484,-23.926,157.227,9.277,2.930,69.824,0
1553635463.488,-33.691,142.578,13.184,-6.836,61.035,0
1553635463.492,-24.902,109.863,12.695,-8.789,77.148,0
1553635463.496,-4.395,80.566,18.066,-11.719,92.773,0
1553635463.499,5.371,56.152,21.484,10.742,33.691,0
1553635463.503,16.113,25.879,25.879,28.809,13.184,0
1553635463.507,37.598,12.207,33.203,27.832,31.738,0
1553635463.511,43.457,-27.344,43.457,49.316,23.438,0
1553635463.515,15.137,16.113,35.156,41.504,25.391,0
1553635463.519,-11.719,157.227,6.348,13.184,30.273,0
1553635463.523,-15.137,166.504,3.418,10.742,37.109,0
1553635463.527,-0.977,115.723,14.648,16.602,64.941,0
1553635463.531,22.949,84.473,19.531,30.273,69.336,0
1553635463.535,40.039,81.055,26.367,37.598,17.090,0
1553635463.539,26.855,93.750,15.625,18.555,40.527,0
1553635463.542,15.625,81.055,10.742,7.324,46.387,0
1553635463.546,8.789,99.609,18.555,2.930,-0.488,0
1553635463.550,2.930,135.254,17.090,17.090,23.438,0
1553635463.554,9.766,125.000,20.996,34.180,81.543,0
1553635463.558,27.832,90.820,30.762,32.227,84.473,0
1553635463.562,25.879,85.938,23.926,15.137,14.648,0
1553635463.566,48.340,42.480,35.156,31.250,48.828,0
1553635463.570,49.805,21.484,49.316,54.199,44.922,0
1553635463.574,-7.324,167.969,17.090,20.508,24.902,0
1553635463.578,-5.859,196.777,10.742,16.113,51.758,0
1553635463.581,45.410,27.344,40.527,47.363,54.688,0
1553635463.585,25.879,3.906,38.574,35.156,18.066,0
1553635463.589,-20.996,198.242,23.438,23.438,36.133,0
1553635463.593,-17.578,238.281,13.672,25.879,54.199,0
1553635463.597,-13.184,174.805,6.348,17.090,-4.883,0
1553635463.601,-3.906,150.879,14.160,26.855,46.387,0
1553635463.605,2.441,148.926,20.020,25.391,85.449,0
1553635463.609,8.789,141.113,25.879,13.184,71.289,0
1553635463.613,6.348,142.578,24.902,9.277,66.406,0
1553635463.617,5.371,148.926,21.484,17.578,15.137,0
1553635463.621,10.254,156.738,23.926,-3.418,15.137,0
1553635463.624,19.531,166.992,26.367,4.395,75.684,0
1553635463.628,20.996,167.480,27.344,22.461,26.367,0
1553635463.632,24.902,166.504,25.879,15.625,70.312,0
1553635463.636,24.902,166.504,27.832,33.691,114.258,0
1553635463.640,19.531,158.203,27.832,32.715,5.859,0
1553635463.644,28.809,153.320,25.879,30.762,-46.387,0
1553635463.648,30.762,159.668,24.414,26.367,16.113,0
1553635463.652,20.996,158.203,19.531,13.672,43.945,0
1553635463.656,17.578,149.902,20.020,13.672,28.320,0
1553635463.660,18.555,137.695,24.414,17.578,26.855,0
1553635463.664,20.996,130.859,24.902,17.578,48.340,0
1553635463.667,19.531,128.906,24.902,24.414,58.105,0
1553635463.671,28.809,122.070,27.344,30.762,68.359,0
1553635463.675,26.855,122.070,24.902,15.137,35.645,0
1553635463.679,20.508,113.770,27.344,22.949,24.414,0
1553635463.683,14.160,101.074,32.227,17.090,67.871,0
1553635463.687,7.324,98.145,32.227,-4.395,107.422,0
1553635463.691,16.113,90.820,31.250,21.973,64.941,0
1553635463.695,22.461,85.449,34.668,31.738,-6.836,0
1553635463.699,19.043,81.055,36.133,26.367,-31.250,0
1553635463.703,7.812,72.754,32.227,34.180,-15.625,0
1553635463.706,11.719,71.289,28.809,26.367,44.922,0
1553635463.710,18.066,70.801,26.367,20.996,94.238,0
1553635463.714,18.555,67.383,25.391,26.367,59.570,0
1553635463.718,15.137,58.105,28.320,10.254,81.543,0
1553635463.722,7.812,50.781,25.879,4.883,26.367,0
1553635463.726,11.719,55.664,23.926,16.602,42.480,0
1553635463.730,11.719,54.688,29.297,20.020,146.484,0
1553635463.734,9.277,50.781,29.297,24.902,86.426,0
1553635463.738,12.207,49.316,28.320,26.855,35.156,0
1553635463.742,16.602,43.457,28.320,21.973,55.664,0
1553635463.746,19.531,36.621,29.785,22.949,95.703,0
1553635463.749,12.695,36.621,34.180,15.625,114.746,0
1553635463.753,6.836,39.551,37.109,1.953,64.941,0
1553635463.757,10.742,36.621,36.621,23.926,14.648,0
1553635463.761,12.207,32.227,36.133,35.156,33.203,0
1553635463.765,6.836,26.855,37.109,20.996,123.047,0
1553635463.769,3.906,24.902,40.527,34.180,93.262,0
1553635463.773,7.324,19.531,41.504,35.645,16.602,0
1553635463.777,16.113,21.973,39.551,31.250,9.766,0
1553635463.781,20.508,31.738,44.434,41.504,64.453,0
1553635463.785,16.602,34.180,47.363,43.945,88.867,0
1553635463.789,9.277,31.250,42.480,40.527,42.480,0
1553635463.792,18.555,33.203,43.457,40.527,13.184,0
1553635463.796,29.785,26.367,41.992,38.574,39.551,0
1553635463.800,14.160,21.973,34.180,33.691,46.387,0
1553635463.804,13.672,30.762,32.715,17.578,21.973,0
1553635463.808,19.043,32.715,33.203,23.926,34.180,0
1553635463.812,11.230,30.762,30.762,36.133,10.742,0
1553635463.816,12.207,31.250,32.227,37.109,72.754,0
1553635463.820,16.113,34.180,29.785,37.598,108.887,0
1553635463.824,20.508,30.273,30.273,34.180,68.848,0
1553635463.828,19.043,34.180,33.203,35.156,93.750,0
1553635463.831,25.879,41.016,34.668,34.668,45.410,0
1553635463.835,23.438,43.457,39.062,28.320,-6.348,0
1553635463.839,2.441,43.457,41.504,25.391,23.926,0
1553635463.843,8.301,38.574,35.156,27.344,84.961,0
1553635463.847,15.625,35.645,31.250,18.066,73.730,0
1553635463.851,5.371,31.738,34.668,14.160,27.344,0
1553635463.855,1.953,26.367,30.762,18.555,45.898,0
1553635463.859,0.488,26.367,32.227,18.066,18.555,0
1553635463.863,6.348,28.320,32.715,23.438,37.598,0
1553635463.867,10.742,23.926,30.273,16.113,45.410,0
1553635463.871,14.648,21.973,34.668,3.906,64.453,0
1553635463.874,8.301,31.250,36.621,20.020,68.359,0
1553635463.878,1.465,39.551,38.574,35.156,-11.230,0
1553635463.882,14.160,41.016,39.551,13.184,17.578,0
1553635463.886,13.672,44.434,28.809,-3.906,38.086,0
1553635463.890,22.461,44.922,24.902,29.297,48.340,0
1553635463.894,23.926,41.504,29.785,41.016,100.098,0
1553635463.898,19.531,42.480,30.273,41.504,91.797,0
1553635463.902,27.832,41.992,27.832,41.504,36.621,0
1553635463.906,22.461,38.086,26.367,35.645,86.914,0
1553635463.910,18.555,38.574,23.926,33.691,95.703,0
1553635463.914,19.043,39.551,19.043,20.996,4.883,0
1553635463.917,17.090,33.691,19.043,16.113,29.785,0
1553635463.921,6.836,33.691,22.949,22.461,66.406,0
1553635463.925,9.766,39.551,21.484,15.137,37.109,0
1553635463.929,12.207,41.016,23.926,14.648,53.223,0
1553635463.933,16.113,35.156,27.832,25.391,68.359,0
1553635463.937,13.672,34.668,30.762,10.742,2.930,0
1553635463.941,-2.441,40.527,35.156,10.254,23.438,0
1553635463.945,3.418,40.527,37.109,22.461,65.430,0
1553635463.949,-0.977,32.227,34.668,19.043,73.730,0
1553635463.953,-2.441,30.762,31.250,26.855,53.223,0
1553635463.956,1.953,31.738,30.273,36.621,53.711,0
1553635463.960,4.883,26.367,33.203,25.879,60.547,0
1553635463.964,15.137,33.691,30.273,29.785,65.430,0
1553635463.968,20.508,40.527,27.344,34.668,62.012,0
1553635463.972,17.090,37.109,25.879,23.926,40.527,0
1553635463.976,22.949,39.551,20.020,20.996,66.895,0
1553635463.980,35.645,41.016,20.020,20.508,16.113,0
1553635463.984,36.621,36.621,22.949,12.695,2.441,0
1553635463.988,20.996,41.016,22.949,20.020,29.785,0
1553635463.992,19.531,43.945,22.461,28.320,16.113,0
1553635463.996,20.996,40.039,22.461,27.344,40.527,0
1553635463.999,10.254,39.062,21.973,36.621,46.387,0
1553635464.003,14.160,41.016,20.020,20.508,18.066,0
1553635464.007,25.879,39.062,18.066,12.695,56.152,0
1553635464.011,24.414,31.738,20.020,27.832,60.547,0
1553635464.015,18.555,32.227,21.484,21.973,47.852,0
1553635464.019,15.625,33.691,20.020,15.625,-9.766,0
1553635464.023,18.066,27.832,21.484,29.785,-8.789,0
1553635464.027,17.090,25.879,28.320,26.367,61.523,0
1553635464.031,12.207,27.344,31.738,11.230,75.684,0
1553635464.035,20.508,31.738,29.297,27.344,43.945,0
1553635464.039,18.555,41.504,25.391,27.832,30.762,0
1553635464.042,19.531,43.945,25.391,23.438,45.898,0
1553635464.046,14.160,40.527,27.344,25.879,45.410,0
1553635464.050,11.230,39.551,22.461,14.648,65.430,0
1553635464.054,25.391,39.062,22.949,19.043,20.020,0
1553635464.058,24.902,39.062,23.438,29.297,-0.488,0
1553635464.062,18.066,39.551,17.578,26.855,49.805,0
1553635464.066,19.531,41.504,16.602,20.020,72.266,0
1553635464.070,6.348,41.992,17.578,21.484,57.617,0
1553635464.074,1.953,40.039,21.484,27.832,37.109,0
1553635464.078,14.648,36.621,26.855,13.672,68.359,0
1553635464.081,17.578,34.668,27.832,29.785,39.551,0
1553635464.085,11.719,33.203,25.391,41.992,39.551,0
1553635464.089,16.113,33.203,25.391,30.762,73.242,0
1553635464.093,22.949,34.180,24.414,7.324,56.152,0
1553635464.097,24.902,36.133,25.391,6.348,48.828,0
1553635464.101,23.438,38.086,26.367,23.926,44.922,0
1553635464.105,27.344,36.133,28.809,21.973,100.098,0
1553635464.109,28.320,36.621,28.809,23.438,80.566,0
1553635464.113,24.414,38.574,23.438,23.926,57.129,0
1553635464.117,9.766,33.691,26.855,20.996,39.062,0
1553635464.121,-6.836,30.762,30.273,23.926,-18.555,0
1553635464.124,-0.488,36.621,27.832,16.602,-2.930,0
1553635464.128,7.324,39.551,27.832,0.488,-0.488,0
1553635464.132,2.930,36.133,30.273,10.254,-34.668,0
1553635464.136,0.977,35.645,28.320,12.207,-29.785,0
1553635464.140,0.977,36.621,29.297,11.719,9.766,0
1553635464.144,0.488,36.133,35.156,24.414,61.523,0
1553635464.148,0.000,37.598,34.180,22.949,17.578,0
1553635464.152,6.836,40.527,29.785,22.949,10.742,0
1553635464.156,16.113,41.992,32.715,27.832,66.406,0
1553635464.160,26.855,45.898,34.668,17.090,20.020,0
1553635464.164,14.648,48.340,27.344,-8.301,5.859,0
1553635464.167,13.184,43.457,26.855,-14.648,44.434,0
1553635464.171,18.555,42.480,26.855,13.672,23.438,0
1553635464.175,14.160,46.875,31.738,26.367,47.363,0
1553635464.179,1.465,46.387,36.621,17.090,36.133,0
1553635464.183,-17.578,46.387,38.086,13.672,39.551,0
1553635464.187,-36.133,49.805,34.180,8.789,90.332,0
1553635464.191,-42.480,48.828,33.203,6.836,10.254,0
1553635464.195,-48.340,48.340,36.133,8.789,-27.344,0
1553635464.199,-52.734,50.781,34.180,-17.578,20.508,0
1553635464.203,-55.664,53.711,35.156,-38.574,27.344,0
1553635464.206,-58.594,52.246,32.715,-50.781,59.082,0
1553635464.210,-47.363,46.387,30.762,-45.898,65.430,0
1553635464.214,-39.062,35.156,34.668,-21.973,10.742,0
1553635464.218,-38.574,28.809,38.574,-17.090,27.344,0
1553635464.222,-38.086,33.203,35.645,-18.066,29.785,0
1553635464.226,-28.809,40.039,33.203,-24.902,13.184,0
1553635464.230,-12.695,44.922,39.062,-28.809,53.711,0
1553635464.234,6.836,37.109,37.109,-18.555,48.340,0
1553635464.238,18.555,24.414,34.180,0.977,86.914,0
1553635464.242,9.277,32.227,36.133,-1.465,109.375,0
1553635464.246,5.859,43.457,31.250,5.859,59.570,0
1553635464.249,27.832,47.363,27.832,33.203,-7.812,0
1553635464.253,43.945,47.363,28.320,49.316,20.996,0
1553635464.257,51.270,38.086,27.344,53.711,50.781,0
1553635464.261,56.641,34.180,27.832,61.035,2.441,0
1553635464.265,67.871,33.691,26.367,77.637,-16.602,0
1553635464.269,70.312,29.785,29.297,83.984,3.418,0
1553635464.273,57.617,22.461,32.227,80.078,49.805,0
1553635464.277,65.918,21.484,28.320,78.613,77.637,0
1553635464.281,60.059,28.320,28.809,79.590,72.266,0
1553635464.285,51.758,29.297,26.855,83.008,23.926,0
1553635464.289,56.152,24.414,23.438,69.336,50.293,0
1553635464.292,53.711,25.391,26.367,63.477,81.055,0
1553635464.296,58.594,21.973,25.879,46.875,17.090,0
1553635464.300,56.641,19.531,20.508,44.922,-22.949,0
1553635464.304,54.688,23.926,20.996,76.172,43.457,0
1553635464.308,57.129,23.926,25.879,76.172,67.383,0
1553635464.312,48.340,20.020,28.320,66.406,32.227,0
1553635464.316,46.387,12.207,29.297,63.965,3.418,0
1553635464.320,49.316,1.953,28.809,63.477,77.148,0
1553635464.324,47.852,4.395,28.320,57.617,54.199,0
1553635464.328,49.316,29.785,30.762,65.430,-25.879,0
1553635464.331,48.340,45.410,31.738,62.988,32.715,0
1553635464.335,54.688,41.992,26.855,46.875,95.215,0
1553635464.339,61.035,41.504,23.438,51.270,41.016,0
1553635464.343,63.477,40.527,26.855,40.039,-1.465,0
1553635464.347,57.617,31.250,20.996,38.574,-9.766,0
1553635464.351,48.828,21.484,15.137,45.410,7.324,0
1553635464.355,40.527,30.762,21.484,52.246,1.953,0
1553635464.359,35.645,41.016,20.996,46.875,-45.410,0
1553635464.363,31.250,37.598,19.043,39.551,46.387,0
1553635464.367,35.156,35.645,21.484,52.734,36.133,0
1553635464.371,41.504,36.133,21.484,68.848,4.883,0
1553635464.374,50.781,33.691,21.484,76.660,55.176,0
1553635464.378,46.875,32.227,25.391,66.406,101.562,0
1553635464.382,43.945,32.227,24.902,62.012,120.117,0
1553635464.386,35.645,32.715,25.391,52.734,106.934,0
1553635464.390,21.973,35.645,29.297,42.480,89.844,0
1553635464.394,28.809,35.645,30.762,60.059,66.406,0
1553635464.398,20.020,31.250,29.785,60.059,66.895,0
1553635464.402,14.648,29.785,28.809,58.105,75.684,0
1553635464.406,19.531,30.762,33.203,60.059,75.684,0
1553635464.410,26.367,34.180,31.738,44.434,39.551,0
1553635464.414,29.785,36.621,25.391,30.273,21.973,0
1553635464.417,29.785,35.645,26.855,39.062,36.133,0
1553635464.421,30.273,36.133,27.832,28.809,26.367,0
1553635464.425,29.785,40.527,26.367,20.020,25.879,0
1553635464.429,19.531,39.062,27.832,25.391,16.602,0
1553635464.433,12.207,33.203,28.320,16.602,53.223,0
1553635464.437,19.531,32.227,28.809,34.668,55.176,0
1553635464.441,22.949,38.086,27.832,48.340,-1.953,0
1553635464.445,25.391,41.992,29.297,41.504,-7.812,0
1553635464.449,23.926,34.180,29.297,34.180,37.598,0
1553635464.453,26.367,34.668,28.320,44.434,76.172,0
1553635464.456,25.391,40.527,30.273,47.852,44.434,0
1553635464.460,29.297,37.598,30.273,41.992,14.160,0
1553635464.464,31.250,33.691,31.250,40.527,-0.977,0
1553635464.468,22.949,37.109,32.227,22.461,43.945,0
1553635464.472,16.602,38.574,31.738,29.297,37.109,0
1553635464.476,25.391,37.598,29.297,35.156,15.137,0
1553635464.480,35.156,41.016,27.344,26.367,45.898,0
1553635464.484,28.809,34.668,27.344,45.410,75.195,0
1553635464.488,28.320,32.227,28.809,60.547,43.945,0
1553635464.492,25.879,39.062,27.832,52.734,6.836,0
1553635464.496,19.043,38.574,25.391,44.434,0.000,0
1553635464.499,17.090,35.645,26.367,51.758,36.133,0
1553635464.503,19.043,36.133,25.879,44.922,82.520,0
1553635464.507,21.973,36.133,25.879,36.621,50.781,0
1553635464.511,17.578,31.250,25.879,27.344,18.066,0
1553635464.515,21.973,31.250,21.973,31.250,50.293,0
1553635464.519,26.367,32.715,21.484,38.574,52.734,0
1553635464.523,24.902,34.180,25.879,28.809,5.371,0
1553635464.527,23.438,40.527,23.926,36.621,26.367,0
1553635464.531,20.020,41.016,21.973,34.180,83.008,0
1553635464.535,17.578,38.574,21.484,32.227,-22.461,0
1553635464.539,27.832,34.668,26.855,37.109,-24.902,0
1553635464.542,23.926,34.668,32.715,45.410,85.449,0
1553635464.546,24.902,41.992,31.250,51.758,68.848,0
1553635464.550,41.504,43.457,36.621,46.875,68.848,0
1553635464.554,36.133,39.062,36.621,37.109,37.598,0
1553635464.558,16.113,28.809,31.738,36.133,4.883,0
1553635464.562,16.602,21.484,31.250,43.457,26.367,0
1553635464.566,20.020,28.320,34.180,39.062,32.227,0
1553635464.570,22.949,41.016,36.133,26.855,82.520,0
1553635464.574,25.391,43.945,35.156,33.691,71.289,0
1553635464.578,23.926,41.504,29.297,29.297,52.734,0
1553635464.581,23.438,41.504,24.414,43.457,57.129,0
1553635464.585,32.715,43.457,29.297,42.969,3.906,0
1553635464.589,38.574,45.410,33.203,31.250,62.500,0
1553635464.593,26.367,41.016,32.715,36.133,114.258,0
1553635464.597,17.578,37.109,34.180,34.180,44.922,0
1553635464.601,13.184,37.598,36.621,25.879,34.668,0
1553635464.605,10.742,35.156,32.227,14.648,59.082,0
1553635464.609,15.625,35.645,26.855,7.324,62.500,0
1553635464.613,9.277,33.203,24.414,10.254,83.496,0
1553635464.617,12.695,28.809,27.344,16.113,111.328,0
1553635464.621,18.066,31.738,28.320,17.578,52.246,0
1553635464.624,23.438,35.645,23.926,19.531,68.848,0
1553635464.628,23.438,34.668,24.414,27.832,54.688,0
1553635464.632,21.973,40.039,24.902,21.484,39.062,0
1553635464.636,20.508,46.387,26.367,21.973,146.484,0
1553635464.640,41.016,46.387,26.367,44.434,80.566,0
1553635464.644,52.246,41.992,28.320,57.617,-34.180,0
1553635464.648,25.879,41.504,28.809,42.480,8.301,0
1553635464.652,11.230,30.762,26.855,22.949,19.043,0
1553635464.656,-0.977,26.367,27.832,26.367,32.715,0
1553635464.660,-6.348,33.203,20.508,12.695,81.055,0
1553635464.664,-11.719,31.738,13.184,-9.277,100.098,0
1553635464.667,-20.508,38.086,18.066,-13.184,28.320,0
1553635464.671,-20.508,43.457,17.578,-18.555,-11.719,0
1553635464.675,-22.461,40.039,14.648,-41.992,86.426,0
1553635464.679,-32.715,37.598,15.137,-40.039,71.777,0
1553635464.683,-39.551,39.062,16.602,-15.137,18.066,0
1553635464.687,-37.109,40.039,16.602,-26.855,16.602,0
1553635464.691,-38.086,36.133,22.949,-28.809,11.230,0
1553635464.695,-46.387,25.879,19.531,-38.086,55.664,0
1553635464.699,-53.223,28.809,15.625,-55.664,26.855,0
1553635464.703,-46.387,36.621,18.555,-53.711,2.441,0
1553635464.706,-38.574,35.156,17.090,-52.734,3.906,0
1553635464.710,-38.086,30.762,21.973,-50.781,17.578,0
1553635464.714,-30.762,20.020,20.996,-28.809,71.289,0
1553635464.718,-26.855,14.648,20.996,-12.207,68.848,0
1553635464.722,-25.879,24.902,23.438,-4.395,73.242,0
1553635464.726,-26.367,27.344,21.973,-22.461,62.012,0
1553635464.730,-26.855,22.949,20.996,-15.137,30.273,0
1553635464.734,-16.113,28.320,18.066,11.230,37.598,0
1553635464.738,-7.324,31.738,20.996,5.859,64.941,0
1553635464.742,-8.789,32.227,26.367,7.812,128.418,0
1553635464.746,-3.418,35.645,24.902,14.160,63.965,0
1553635464.749,7.324,35.156,29.297,14.648,-3.906,0
1553635464.753,1.465,33.691,33.203,9.277,37.109,0
1553635464.757,-2.930,42.480,26.367,6.348,74.219,0
1553635464.761,0.488,42.969,36.621,6.348,38.574,0
1553635464.765,8.301,43.945,39.551,11.230,10.254,0
1553635464.769,8.301,44.922,24.902,4.395,33.691,0
1553635464.773,5.371,41.992,27.344,-2.441,57.129,0
1553635464.777,2.930,43.457,32.227,-8.301,85.449,0
1553635464.781,-6.836,40.039,32.715,-24.414,99.609,0
1553635464.785,-17.090,37.598,33.691,-38.574,46.875,0
1553635464.789,-29.297,38.086,33.691,-35.156,-7.812,0
1553635464.792,-25.879,39.062,35.645,-33.691,5.859,0
1553635464.796,-35.645,36.621,33.691,-38.086,76.172,0
1553635464.800,-54.199,32.715,30.273,-45.898,62.500,0
1553635464.804,-60.547,37.109,27.344,-59.570,3.906,0
1553635464.808,-79.102,39.062,25.391,-69.824,-40.039,0
1553635464.812,-82.031,42.969,21.973,-69.824,-12.207,0
1553635464.816,-71.289,43.457,22.949,-57.129,30.273,0
1553635464.820,-67.871,40.527,33.691,-43.945,33.203,0
1553635464.824,-61.523,33.203,34.180,-44.922,37.109,0
1553635464.828,-62.012,27.344,18.555,-41.016,14.160,0
1553635464.831,-51.270,21.973,25.391,-15.625,31.738,0
1553635464.835,-46.387,37.109,42.480,-38.086,-9.277,0
1553635464.839,-60.059,59.570,33.203,-42.969,69.336,0
1553635464.843,-52.246,58.594,28.320,-22.949,83.008,0
1553635464.847,-47.363,56.641,23.926,-29.297,13.672,0
1553635464.851,-36.621,50.293,25.391,-0.977,66.895,0
1553635464.855,-25.879,43.945,27.344,6.836,57.129,0
1553635464.859,-19.043,42.969,22.949,2.441,36.621,0
1553635464.863,-8.789,42.480,21.484,1.953,36.133,0
1553635464.867,0.977,35.645,24.902,11.719,68.359,0
1553635464.871,11.230,28.809,21.484,18.555,95.703,0
1553635464.874,1.953,31.738,17.090,17.578,47.363,0
1553635464.878,0.488,32.227,19.043,17.578,82.520,0
1553635464.882,13.184,33.691,20.020,25.879,78.125,0
1553635464.886,11.719,39.551,20.508,18.066,37.598,0
1553635464.890,13.184,37.109,20.508,7.812,79.102,0
1553635464.894,23.926,35.156,22.949,17.090,78.125,0
1553635464.898,30.273,36.621,24.414,22.461,51.270,0
1553635464.902,34.180,37.109,22.949,30.273,2.930,0
1553635464.906,42.969,36.621,22.461,21.484,18.066,0
1553635464.910,41.504,36.621,22.461,31.738,83.008,0
1553635464.914,31.738,33.691,17.578,45.898,98.145,0
1553635464.917,47.852,34.180,17.578,46.875,95.215,0
1553635464.921,56.152,36.133,18.066,49.316,14.648,0
1553635464.925,41.992,31.738,15.137,39.551,-23.438,0
1553635464.929,34.180,36.133,17.090,41.016,-6.836,0
1553635464.933,29.297,43.945,22.461,35.156,8.301,0
1553635464.937,31.738,41.016,30.762,34.180,88.867,0
1553635464.941,28.809,38.086,34.668,41.992,100.098,0
1553635464.945,18.555,40.527,30.762,47.363,41.992,0
1553635464.949,20.508,41.016,25.879,42.480,48.340,0
1553635464.953,17.578,37.598,21.484,34.180,58.594,0
1553635464.956,21.484,29.297,26.855,36.621,56.641,0
1553635464.960,20.020,31.738,33.691,40.039,65.918,0
1553635464.964,14.160,34.180,28.809,37.598,69.336,0
1553635464.968,23.438,33.203,20.996,19.531,54.688,0
1553635464.972,29.785,35.645,22.461,27.344,28.320,0
1553635464.976,29.785,29.785,29.297,39.062,13.672,0
1553635464.980,39.551,31.250,31.738,36.133,51.758,0
1553635464.984,44.434,41.992,34.180,46.387,54.199,0
1553635464.988,42.480,43.945,37.598,48.828,0.488,0
1553635464.992,44.434,41.504,33.691,43.945,47.363,0
1553635464.996,35.645,38.086,27.344,32.715,47.852,0
1553635464.999,30.762,37.109,30.762,28.320,7.324,0
1553635465.003,39.062,37.598,36.621,37.109,26.855,0
1553635465.007,40.039,39.551,30.273,24.902,21.973,0
1553635465.011,29.297,43.457,22.461,15.137,17.090,0
1553635465.015,24.902,42.969,25.879,24.414,31.738,0
1553635465.019,21.973,42.969,27.344,24.902,73.242,0
1553635465.023,20.020,40.527,28.320,25.879,70.312,0
1553635465.027,15.625,43.945,28.320,23.438,84.961,0
1553635465.031,10.742,51.758,29.297,29.297,76.172,0
1553635465.035,4.395,51.270,28.809,34.180,-19.531,0
1553635465.039,11.719,47.363,28.320,18.555,50.781,0
1553635465.042,14.648,39.551,29.785,25.391,46.875,0
1553635465.046,18.555,41.992,29.785,13.672,8.301,0
1553635465.050,23.438,44.922,29.785,16.602,44.922,0
1553635465.054,10.254,41.992,30.762,44.922,55.176,0
1553635465.058,5.371,38.574,32.227,40.527,58.105,0
1553635465.062,12.695,40.039,36.621,44.922,13.672,0
1553635465.066,24.414,41.016,41.992,51.758,16.602,0
1553635465.070,20.020,36.621,39.551,49.805,13.672,0
1553635465.074,19.531,40.039,40.039,49.316,11.230,0
1553635465.078,29.785,37.109,34.180,33.691,44.922,0
1553635465.081,33.691,33.203,32.715,26.855,46.875,0
1553635465.085,35.645,41.016,30.273,26.855,25.391,0
1553635465.089,29.297,40.039,23.926,17.090,2.441,0
1553635465.093,22.461,43.457,26.855,11.230,28.809,0
1553635465.097,23.926,53.711,29.297,14.160,28.320,0
1553635465.101,24.902,51.270,29.297,15.625,33.203,0
1553635465.105,11.719,46.387,30.762,8.301,30.273,0
1553635465.109,14.648,44.434,32.227,7.324,-4.883,0
1553635465.113,15.625,41.016,33.691,2.441,41.992,0
1553635465.117,9.277,41.016,32.715,-9.766,46.875,0
1553635465.121,12.207,37.109,33.691,12.695,20.996,0
1553635465.124,8.301,33.203,31.738,24.902,94.727,0
1553635465.128,3.906,38.574,25.879,10.254,114.746,0
1553635465.132,7.812,36.621,26.367,9.766,85.938,0
1553635465.136,7.812,37.109,29.785,19.043,62.988,0
1553635465.140,3.418,45.410,23.926,22.461,59.082,0
1553635465.144,6.348,48.340,18.066,23.926,20.020,0
1553635465.148,11.230,40.039,23.926,24.414,32.227,0
1553635465.152,6.348,37.598,29.785,26.855,38.574,0
1553635465.156,1.953,38.086,29.297,32.227,27.832,0
1553635465.160,24.414,36.133,28.320,40.039,40.039,0
1553635465.164,25.391,32.715,28.320,45.410,47.363,0
1553635465.167,19.531,35.156,29.297,31.738,2.930,0
1553635465.171,28.320,40.527,30.762,18.066,43.945,0
1553635465.175,22.461,41.016,26.855,19.531,155.762,0
1553635465.179,24.414,39.551,24.902,19.043,80.078,0
1553635465.183,32.227,40.039,28.320,22.461,24.902,0
1553635465.187,42.480,43.457,31.250,35.645,48.828,0
1553635465.191,41.504,40.527,24.414,30.762,14.648,0
1553635465.195,22.949,35.156,17.578,18.555,-3.906,0
1553635465.199,20.508,30.762,24.902,26.855,10.254,0
1553635465.203,18.066,30.273,24.414,26.855,-8.789,0
1553635465.206,6.836,42.969,18.555,26.367,63.477,0
1553635465.210,10.254,47.363,24.414,21.973,113.281,0
1553635465.214,15.137,45.898,29.785,21.484,71.777,0
1553635465.218,13.672,44.434,24.414,-11.719,65.430,0
1553635465.222,15.625,41.504,21.973,-8.789,56.152,0
1553635465.226,6.836,38.574,20.508,27.832,54.199,0
1553635465.230,5.859,34.668,20.996,27.832,57.617,0
1553635465.234,-2.441,31.738,20.996,26.367,85.938,0
1553635465.238,-1.953,29.297,20.508,39.062,61.523,0
1553635465.242,18.066,35.645,27.832,39.062,21.484,0
1553635465.246,4.883,40.039,26.855,26.367,47.363,0
1553635465.249,-2.930,41.504,25.391,22.949,44.922,0
1553635465.253,-0.488,40.527,23.926,10.254,14.160,0
1553635465.257,-4.395,37.598,19.043,9.277,-1.953,0
1553635465.261,-9.277,38.574,16.602,9.766,47.852,0
1553635465.265,6.348,42.480,15.625,0.977,80.078,0
1553635465.269,2.930,40.527,17.090,10.254,55.664,0
1553635465.273,-10.254,40.527,19.531,17.090,70.312,0
1553635465.277,1.465,41.016,15.625,10.742,-5.859,0
1553635465.281,7.324,38.574,12.695,20.020,-5.371,0
1553635465.285,9.277,35.156,9.766,17.090,56.641,0
1553635465.289,9.766,35.645,12.695,14.648,107.910,0
1553635465.292,2.441,40.039,18.555,18.066,136.230,0
1553635465.296,7.812,40.039,21.484,19.043,30.273,0
1553635465.300,20.020,39.551,20.996,21.484,-36.133,0
1553635465.304,-7.324,39.551,18.066,17.578,29.785,0
1553635465.308,-17.578,35.645,20.996,0.977,35.645,0
1553635465.312,0.000,38.086,26.367,3.418,-49.316,0
1553635465.316,-1.465,36.621,24.414,20.020,-4.395,0
1553635465.320,-0.488,34.180,22.949,17.578,8.301,0
1553635465.324,0.977,37.598,22.461,12.695,18.066,0
1553635465.328,-3.418,40.039,21.973,15.137,130.859,0
1553635465.331,-2.930,40.527,21.484,18.066,124.512,0
1553635465.335,8.301,42.969,20.508,18.066,101.562,0
1553635465.339,3.418,37.598,22.461,20.996,132.324,0
1553635465.343,6.348,31.738,24.414,20.020,106.934,0
1553635465.347,9.766,34.180,29.297,26.367,23.926,0
1553635465.351,6.348,40.527,34.180,36.621,16.113,0
1553635465.355,10.742,38.574,27.832,36.621,36.621,0
1553635465.359,17.578,40.527,21.484,32.715,-14.160,0
1553635465.363,21.973,44.434,22.949,32.715,20.508,0
1553635465.367,27.832,37.598,28.809,30.762,44.922,0
1553635465.371,25.879,35.156,34.180,28.320,28.320,0
1553635465.374,17.090,34.668,34.668,28.809,35.645,0
1553635465.378,18.066,29.297,33.691,24.902,11.230,0
1553635465.382,19.531,33.203,33.203,34.668,30.273,0
1553635465.386,21.973,37.598,37.598,33.691,74.219,0
1553635465.390,26.367,41.992,35.156,27.832,48.828,0
1553635465.394,20.508,42.480,24.414,33.203,11.230,0
1553635465.398,21.484,43.457,23.438,28.320,98.145,0
1553635465.402,30.273,49.316,30.273,24.414,90.332,0
1553635465.406,26.855,48.828,32.227,28.320,59.082,0
1553635465.410,18.066,39.551,30.273,32.715,69.824,0
1553635465.414,23.438,28.320,27.832,24.902,75.195,0
1553635465.417,19.043,29.297,18.066,21.484,119.141,0
1553635465.421,9.277,32.227,19.043,31.738,23.438,0
1553635465.425,13.672,35.156,23.926,29.785,53.223,0
1553635465.429,19.531,38.574,26.367,20.996,131.348,0
1553635465.433,25.879,36.621,28.809,13.672,90.820,0
1553635465.437,31.250,37.109,29.297,16.602,62.988,0
1553635465.441,19.531,41.504,28.809,22.461,58.105,0
1553635465.445,14.160,39.062,24.902,21.973,108.887,0
1553635465.449,16.602,36.621,26.855,31.250,76.172,0
1553635465.453,12.207,36.133,24.902,37.109,58.594,0
1553635465.456,13.184,34.668,15.137,2.930,29.785,0
1553635465.460,13.184,37.598,16.602,5.371,1.953,0
1553635465.464,9.277,31.250,20.508,35.645,46.875,0
1553635465.468,6.836,29.785,24.414,29.785,30.273,0
1553635465.472,12.695,34.668,31.738,25.391,50.293,0
1553635465.476,18.066,35.156,32.715,20.508,62.012,0
1553635465.480,15.625,39.551,30.762,25.879,33.691,0
1553635465.484,13.672,44.434,31.250,34.180,49.316,0
1553635465.488,9.277,38.574,25.391,33.691,74.707,0
1553635465.492,11.719,30.273,21.973,24.902,24.414,0
1553635465.496,13.184,37.109,24.414,24.414,-10.254,0
1553635465.499,11.230,41.016,20.020,21.973,3.418,0
1553635465.503,11.719,40.527,22.461,11.230,28.809,0
1553635465.507,16.113,40.527,24.414,2.930,30.762,0
1553635465.511,11.719,35.156,23.926,3.906,50.293,0
1553635465.515,11.230,39.551,24.902,17.090,25.879,0
1553635465.519,16.602,45.898,21.484,13.184,3.906,0
1553635465.523,15.137,45.898,21.973,20.508,49.316,0
1553635465.527,19.043,44.922,24.414,28.320,53.711,0
1553635465.531,22.461,41.992,24.902,19.043,31.738,0
1553635465.535,32.227,41.016,22.461,26.855,41.992,0
1553635465.539,37.109,40.527,28.320,37.598,60.547,0
1553635465.542,34.668,32.227,34.180,41.016,51.270,0
1553635465.546,23.438,32.227,32.715,36.133,108.398,0
1553635465.550,16.113,37.109,34.668,30.762,107.422,0
1553635465.554,17.090,36.133,35.156,28.320,41.992,0
1553635465.558,4.883,30.762,28.320,22.949,32.715,0
1553635465.562,-4.883,29.297,24.414,32.227,47.852,0
1553635465.566,-6.836,35.156,30.762,28.320,59.570,0
1553635465.570,-2.441,35.156,37.109,14.648,63.477,0
1553635465.574,0.977,33.203,39.551,25.879,38.574,0
1553635465.578,8.789,31.738,35.645,11.719,83.984,0
1553635465.581,8.789,30.273,35.156,7.812,83.984,0
1553635465.585,-0.488,31.250,41.016,24.902,4.395,0
1553635465.589,0.488,30.273,41.016,17.578,64.453,0
1553635465.593,9.277,32.227,39.551,23.926,54.688,0
1553635465.597,8.789,30.273,37.598,27.344,34.668,0
1553635465.601,8.301,33.691,37.109,27.344,74.219,0
1553635465.605,14.160,36.133,39.551,36.621,10.254,0
1553635465.609,14.160,31.738,35.645,30.273,-3.906,0
1553635465.613,17.090,31.738,34.180,28.809,31.738,0
1553635465.617,14.648,28.320,36.133,29.785,41.992,0
1553635465.621,12.207,27.832,33.691,25.879,29.297,0
1553635465.624,12.207,32.227,31.250,26.855,42.480,0
1553635465.628,10.742,37.598,32.227,27.344,36.133,0
1553635465.632,8.301,38.086,32.715,21.484,8.301,0
1553635465.636,5.371,33.203,32.227,24.414,36.133,0
1553635465.640,9.277,31.738,25.879,27.344,14.160,0
1553635465.644,12.207,33.203,20.996,25.391,12.695,0
1553635465.648,8.301,36.133,24.414,21.973,53.223,0
1553635465.652,6.836,37.598,23.438,4.395,51.270,0
1553635465.656,0.488,35.645,24.902,-3.418,33.203,0
1553635465.660,-5.859,34.180,28.809,9.766,7.812,0
1553635465.664,3.906,33.691,24.414,13.184,25.391,0
1553635465.667,2.441,28.320,21.973,8.301,58.105,0
1553635465.671,-7.812,27.344,24.414,21.484,48.340,0
1553635465.675,-5.859,31.738,22.461,7.324,54.199,0
1553635465.679,-0.488,31.250,19.043,0.000,67.383,0
1553635465.683,11.230,32.227,18.555,32.227,74.219,0
1553635465.687,19.043,39.062,23.926,25.391,95.703,0
1553635465.691,11.719,41.504,24.902,13.672,75.684,0
1553635465.695,17.578,40.039,20.508,15.137,31.250,0
1553635465.699,20.020,39.062,16.602,13.672,25.879,0
1553635465.703,20.020,36.621,18.555,11.719,-9.766,0
1553635465.706,17.578,39.062,19.043,31.250,-29.785,0
1553635465.710,9.766,38.086,19.043,35.645,51.758,0
1553635465.714,13.184,33.203,20.996,18.066,18.066,0
1553635465.718,6.836,34.668,24.902,29.785,-4.883,0
1553635465.722,7.812,41.504,29.297,28.809,49.805,0
1553635465.726,20.508,41.992,28.809,11.719,-44.922,0
1553635465.730,18.555,41.016,20.996,8.789,-15.625,0
1553635465.734,11.230,41.504,17.578,11.719,97.168,0
1553635465.738,3.906,34.180,17.578,8.789,54.688,0
1553635465.742,0.977,37.109,18.066,0.000,21.484,0
1553635465.746,16.113,43.457,15.625,1.953,44.922,0
1553635465.749,12.695,38.574,9.766,8.789,56.152,0
1553635465.753,2.441,35.156,16.113,11.719,88.379,0
1553635465.757,3.418,35.156,21.484,4.883,81.055,0
1553635465.761,0.488,36.621,24.414,6.348,54.688,0
1553635465.765,1.465,34.180,25.391,14.648,13.672,0
1553635465.769,2.441,33.203,23.926,17.578,20.996,0
1553635465.773,4.883,37.109,25.879,26.855,92.285,0
1553635465.777,2.441,39.062,20.020,19.043,104.004,0
1553635465.781,-3.906,41.016,17.578,12.695,74.707,0
1553635465.785,-1.465,39.062,19.043,-5.859,64.941,0
1553635465.789,10.254,35.156,19.531,-8.789,46.387,0
1553635465.792,8.789,35.156,20.020,17.090,49.805,0
1553635465.796,9.277,32.715,24.414,15.137,39.062,0
1553635465.800,13.184,33.203,28.809,16.113,54.199,0
1553635465.804,15.137,38.086,28.320,14.648,109.863,0
1553635465.808,17.578,39.062,24.414,19.531,46.387,0
1553635465.812,10.742,41.504,23.438,25.879,-13.672,0
1553635465.816,7.324,40.039,21.484,17.090,59.082,0
1553635465.820,4.395,36.621,19.531,13.672,38.574,0
1553635465.824,5.371,36.133,21.484,7.812,2.930,0
1553635465.828,5.859,38.086,22.461,7.812,5.859,0
1553635465.831,6.348,41.504,22.461,11.230,-16.113,0
1553635465.835,1.953,43.457,25.391,11.719,81.055,0
1553635465.839,16.602,38.574,26.855,21.973,67.871,0
1553635465.843,22.949,38.574,26.367,19.531,15.137,0
1553635465.847,1.465,41.016,29.785,15.137,67.383,0
1553635465.851,0.000,41.504,27.832,17.578,9.766,0
1553635465.855,0.977,41.992,24.902,16.602,-20.020,0
1553635465.859,0.000,39.551,21.973,13.184,16.602,0
1553635465.863,1.953,36.133,20.996,16.113,18.066,0
1553635465.867,3.418,36.133,25.879,22.949,56.641,0
1553635465.871,7.324,44.434,27.344,17.090,74.707,0
1553635465.874,8.789,48.340,25.391,15.625,62.988,0
1553635465.878,9.766,45.410,22.949,11.230,79.590,0
1553635465.882,20.020,42.969,24.902,2.930,59.570,0
1553635465.886,25.391,42.969,17.090,16.113,32.227,0
1553635465.890,6.836,38.086,13.672,20.996,49.805,0
1553635465.894,3.906,35.156,20.996,16.113,72.754,0
1553635465.898,11.230,36.621,24.902,16.113,75.195,0
1553635465.902,8.301,37.598,32.715,29.785,78.125,0
1553635465.906,8.789,42.969,32.715,35.645,86.426,0
1553635465.910,19.043,39.551,27.832,23.926,61.523,0
1553635465.914,17.578,33.691,26.367,28.809,49.316,0
1553635465.917,10.254,41.016,23.926,24.902,33.691,0
1553635465.921,16.113,42.969,20.020,26.855,23.926,0
1553635465.925,12.207,43.945,20.020,6.348,61.523,0
1553635465.929,6.836,46.387,23.926,-9.766,64.453,0
1553635465.933,2.930,43.457,28.320,16.602,18.555,0
1553635465.937,2.930,41.504,30.762,12.695,-6.348,0
1553635465.941,-1.953,39.551,29.785,6.836,73.730,0
1553635465.945,-1.465,36.621,31.250,11.230,38.086,0
1553635465.949,5.859,36.133,34.668,14.648,-5.371,0
1553635465.953,4.395,37.598,34.668,21.973,44.434,0
1553635465.956,5.859,38.574,33.203,20.508,18.066,0
1553635465.960,10.742,41.992,25.391,18.066,50.781,0
1553635465.964,20.508,41.016,24.902,31.738,88.379,0
1553635465.968,32.227,36.621,29.297,38.086,26.367,0
1553635465.972,22.461,39.062,29.785,33.691,45.410,0
1553635465.976,3.418,38.574,32.715,31.250,-14.160,0
1553635465.980,0.488,38.574,31.738,23.438,-7.324,0
1553635465.984,10.254,37.598,28.809,15.625,66.406,0
1553635465.988,12.207,34.180,30.762,10.742,15.625,0
1553635465.992,11.230,33.203,30.273,11.230,-14.648,0
1553635465.996,11.230,33.691,27.832,22.949,35.156,0
1553635465.999,20.020,34.668,28.809,29.297,32.227,0
1553635466.003,15.625,37.109,29.297,25.391,25.879,0
1553635466.007,10.742,37.109,29.297,21.973,114.258,0
1553635466.011,5.859,30.273,32.227,20.020,145.996,0
1553635466.015,0.488,31.250,34.668,17.578,58.105,0
1553635466.019,1.953,40.527,37.109,12.207,-27.344,0
1553635466.023,-5.371,39.551,38.574,8.789,0.000,0
1553635466.027,0.977,35.156,36.621,12.207,47.852,0
1553635466.031,6.836,39.551,35.645,-6.348,76.172,0
1553635466.035,5.859,42.480,31.250,4.883,57.129,0
1553635466.039,6.836,38.574,30.762,41.016,44.434,0
1553635466.042,7.812,37.109,36.133,22.461,91.309,0
1553635466.046,16.602,36.621,34.668,17.578,68.848,0
1553635466.050,10.254,37.598,34.180,26.855,10.742,0
1553635466.054,7.324,37.598,35.645,11.719,-11.719,0
1553635466.058,12.207,39.062,35.645,8.301,58.594,0
1553635466.062,7.812,40.039,32.227,11.230,94.727,0
1553635466.066,5.859,35.645,28.809,13.672,87.891,0
1553635466.070,4.395,37.109,28.809,19.531,91.309,0
1553635466.074,-1.465,41.504,30.273,23.438,74.707,0
1553635466.078,3.906,40.039,28.320,32.715,93.750,0
1553635466.081,14.648,44.922,23.926,26.855,-2.441,0
1553635466.085,17.090,49.805,23.438,14.160,22.461,0
1553635466.089,14.648,50.293,25.391,26.855,81.055,0
1553635466.093,13.184,51.758,26.855,29.785,69.336,0
1553635466.097,16.113,47.363,26.367,33.203,9.277,0
1553635466.101,12.207,42.969,26.855,10.254,-11.230,0
1553635466.105,11.230,42.969,28.809,6.348,-17.578,0
1553635466.109,4.883,38.574,27.344,44.922,-29.297,0
1553635466.113,7.812,38.086,25.391,41.504,-5.371,0
1553635466.117,12.207,38.086,24.414,17.578,20.508,0
1553635466.121,15.137,41.992,19.043,2.441,55.176,0
1553635466.124,19.531,45.898,17.578,19.531,98.633,0
1553635466.128,17.090,44.922,17.090,21.484,70.312,0
1553635466.132,16.113,44.922,13.184,11.719,21.973,0
1553635466.136,8.301,45.410,18.066,22.949,72.266,0
1553635466.140,12.207,47.852,26.367,26.367,63.965,0
1553635466.144,21.973,49.805,25.879,25.879,18.555,0
1553635466.148,19.043,45.410,23.926,24.902,0.977,0
1553635466.152,17.090,43.457,25.391,22.461,-34.180,0
1553635466.156,18.066,42.480,21.973,19.531,30.273,0
1553635466.160,19.531,41.504,19.043,15.137,104.492,0
1553635466.164,26.855,43.945,26.367,5.859,83.984,0
1553635466.167,21.484,43.457,24.902,12.695,67.871,0
1553635466.171,11.230,35.645,20.020,27.832,17.090,0
1553635466.175,19.531,36.133,30.762,40.527,44.434,0
1553635466.179,22.949,30.273,37.109,41.016,13.672,0
1553635466.183,20.020,32.227,38.086,35.156,-18.555,0
1553635466.187,16.113,45.410,35.645,27.832,42.969,0
1553635466.191,15.137,42.480,27.832,22.949,40.039,0
1553635466.195,18.066,41.016,27.832,21.484,5.859,0
1553635466.199,8.789,39.062,32.715,14.160,5.371,0
1553635466.203,-1.953,40.039,25.879,18.066,63.477,0
1553635466.206,10.254,41.016,24.902,14.648,75.684,0
1553635466.210,11.230,38.574,28.320,9.277,75.195,0
1553635466.214,1.465,36.621,25.391,21.973,25.391,0
1553635466.218,3.418,40.039,27.832,15.137,-18.066,0
1553635466.222,-3.418,42.969,27.344,-8.789,-9.277,0
1553635466.226,2.441,44.922,29.785,8.301,12.695,0
1553635466.230,5.859,39.551,23.438,22.461,9.766,0
1553635466.234,2.441,34.668,19.531,20.508,-19.531,0
1553635466.238,3.906,43.945,22.461,26.855,72.754,0
1553635466.242,1.953,49.805,16.602,18.066,43.945,0
1553635466.246,22.461,45.898,11.230,20.020,-5.859,0
1553635466.249,25.391,40.039,12.207,19.043,24.414,0
1553635466.253,9.766,41.016,29.297,13.672,23.926,0
1553635466.257,6.836,40.039,41.992,21.484,48.340,0
1553635466.261,7.812,37.598,39.062,32.715,41.504,0
1553635466.265,10.742,39.062,30.762,24.414,33.203,0
1553635466.269,4.395,39.062,24.414,13.672,32.227,0
1553635466.273,4.395,41.016,20.508,17.090,56.641,0
1553635466.277,8.789,44.922,17.578,23.438,126.953,0
1553635466.281,7.812,43.457,18.555,16.113,108.398,0
1553635466.285,0.488,39.062,20.996,17.090,26.367,0
1553635466.289,-1.465,38.086,21.484,18.066,7.812,0
1553635466.292,5.859,39.551,22.949,17.578,11.719,0
1553635466.296,6.348,37.109,28.320,24.902,59.082,0
1553635466.300,2.930,34.180,25.391,24.902,62.988,0
1553635466.304,8.789,38.574,19.531,21.973,-3.418,0
1553635466.308,8.789,40.527,29.785,29.297,26.855,0
1553635466.312,6.836,33.203,36.621,52.734,65.430,0
1553635466.316,6.348,33.203,27.832,33.691,60.547,0
1553635466.320,5.371,37.598,22.461,25.879,42.480,0
1553635466.324,10.742,41.992,10.742,11.230,13.184,0
1553635466.328,15.625,47.363,11.230,-20.996,-4.395,0
1553635466.331,17.090,41.992,22.949,-2.441,28.320,0
1553635466.335,18.066,40.039,22.949,6.836,40.039,0
1553635466.339,15.625,44.434,19.531,11.719,0.488,0
1553635466.343,8.301,42.480,21.484,14.648,41.504,0
1553635466.347,3.418,41.504,30.762,7.812,92.773,0
1553635466.351,-1.465,39.551,32.227,12.695,21.973,0
1553635466.355,-9.277,37.598,27.344,17.578,103.027,0
1553635466.359,-6.348,40.527,20.996,3.906,149.414,0
1553635466.363,-5.859,39.551,17.090,11.719,44.922,0
1553635466.367,-16.113,33.691,22.949,26.367,54.199,0
1553635466.371,-2.930,31.738,26.855,14.648,64.453,0
1553635466.374,14.648,36.133,24.902,8.301,4.883,0
1553635466.378,6.348,36.133,22.949,6.836,6.348,0
1553635466.382,-2.930,36.621,24.414,12.695,4.395,0
1553635466.386,6.836,38.086,23.926,-3.906,10.742,0
1553635466.390,9.766,33.691,21.973,-7.812,95.215,0
1553635466.394,10.742,33.691,23.926,24.902,61.035,0
1553635466.398,16.113,34.668,26.855,24.414,88.867,0
1553635466.402,15.137,35.156,26.367,26.855,103.516,0
1553635466.406,15.137,36.133,26.367,28.809,31.250,0
1553635466.410,19.043,37.109,29.785,29.297,-16.113,0
1553635466.414,22.461,38.086,33.203,41.504,19.043,0
1553635466.417,18.555,35.645,32.227,35.156,83.008,0
1553635466.421,14.648,31.738,28.809,24.902,71.777,0
1553635466.425,15.625,34.668,27.832,24.414,74.219,0
1553635466.429,19.043,39.062,27.344,20.996,92.773,0
1553635466.433,15.137,34.180,22.949,9.766,11.719,0
1553635466.437,12.207,34.180,25.391,7.812,67.871,0
1553635466.441,11.230,40.527,25.391,20.996,83.008,0
1553635466.445,10.742,41.992,24.902,23.926,26.855,0
1553635466.449,20.508,41.016,22.461,17.578,68.848,0
1553635466.453,28.809,34.668,20.508,27.832,58.594,0
1553635466.456,22.461,37.109,21.973,39.062,12.695,0
1553635466.460,7.324,45.410,28.320,56.152,58.594,0
1553635466.464,10.742,45.410,31.250,50.781,71.777,0
1553635466.468,23.438,44.434,27.832,27.344,47.363,0
1553635466.472,23.438,43.457,28.809,5.859,-11.719,0
1553635466.476,12.695,42.969,32.715,7.324,28.320,0
1553635466.480,19.531,40.527,28.320,20.508,43.457,0
1553635466.484,27.832,41.504,29.785,13.184,53.711,0
1553635466.488,23.926,43.457,29.785,21.484,93.750,0
1553635466.492,16.602,36.621,25.391,13.184,23.926,0
1553635466.496,15.625,35.645,24.414,0.488,-7.324,0
1553635466.499,18.066,41.992,21.484,16.602,17.090,0
1553635466.503,21.973,44.434,21.484,23.926,60.059,0
1553635466.507,25.391,41.016,28.809,20.020,41.016,0
1553635466.511,17.090,38.086,35.156,21.973,44.434,0
1553635466.515,14.160,40.527,34.668,22.949,43.945,0
1553635466.519,14.160,41.992,33.691,21.484,-22.461,0
1553635466.523,10.742,41.992,23.926,22.949,-2.441,0
1553635466.527,-1.953,38.086,15.625,23.926,59.082,0
1553635466.531,7.812,41.992,16.602,22.949,75.195,0
1553635466.535,20.508,38.086,30.762,31.738,107.910,0
1553635466.539,18.066,29.297,40.527,4.395,98.145,0
1553635466.542,22.461,39.551,44.434,10.742,67.871,0
1553635466.546,23.438,49.805,47.363,43.945,37.109,0
1553635466.550,13.672,50.293,40.527,20.020,37.598,0
1553635466.554,7.812,44.922,39.551,11.719,106.445,0
1553635466.558,10.254,39.062,44.434,29.785,62.988,0
1553635466.562,18.066,37.598,46.387,28.320,12.695,0
1553635466.566,16.113,37.109,45.410,33.203,52.246,0
1553635466.570,8.301,36.133,45.410,41.504,48.340,0
1553635466.574,9.766,33.691,49.316,30.762,83.984,0
1553635466.578,12.695,29.785,48.340,24.902,56.152,0
1553635466.581,13.672,31.250,48.340,19.531,34.668,0
1553635466.585,21.484,29.785,49.316,2.930,124.512,0
1553635466.589,21.973,24.414,51.270,13.672,108.398,0
1553635466.593,14.160,24.902,54.199,32.715,68.359,0
1553635466.597,5.859,23.926,49.316,19.043,64.453,0
1553635466.601,4.395,17.090,46.875,25.391,100.586,0
1553635466.605,11.719,16.113,46.387,31.738,68.359,0
1553635466.609,4.395,20.996,40.527,16.602,8.789,0
1553635466.613,-3.906,23.926,37.598,29.785,0.000,0
1553635466.617,1.953,23.926,42.480,37.109,0.000,0
1553635466.621,11.719,23.926,46.387,37.109,53.711,0
1553635466.624,12.695,31.250,45.410,41.992,62.012,0
1553635466.628,9.766,32.227,43.945,44.922,15.625,0
1553635466.632,12.695,29.297,39.062,51.758,34.180,0
1553635466.636,4.395,28.809,41.016,45.410,36.621,0
1553635466.640,8.789,28.809,43.457,41.992,29.785,0
1553635466.644,17.090,26.855,38.086,29.785,42.480,0
1553635466.648,13.672,30.762,33.691,0.000,22.949,0
1553635466.652,17.090,33.691,31.738,3.906,42.969,0
1553635466.656,13.184,30.273,29.297,14.160,50.781,0
1553635466.660,10.742,31.250,29.785,12.207,47.363,0
1553635466.664,8.301,37.109,34.180,17.578,17.578,0
1553635466.667,7.324,38.086,34.668,15.137,35.156,0
1553635466.671,14.160,38.086,31.738,5.859,98.633,0
1553635466.675,17.090,37.598,29.785,13.184,88.379,0
1553635466.679,6.836,33.691,31.738,11.719,37.598,0
1553635466.683,13.672,35.156,29.297,25.391,25.879,0
1553635466.687,20.020,39.551,22.949,36.133,15.137,0
1553635466.691,15.625,41.992,25.879,42.969,15.137,0
1553635466.695,23.438,40.039,34.668,49.316,53.223,0
1553635466.699,23.926,36.621,32.715,61.523,25.879,0
1553635466.703,16.602,35.645,31.250,65.918,-19.531,0
1553635466.706,18.555,31.738,34.180,43.457,54.199,0
1553635466.710,13.672,30.273,37.109,33.691,18.555,0
1553635466.714,17.090,36.133,40.039,26.367,-30.273,0
1553635466.718,26.367,39.062,38.086,0.488,18.066,0
1553635466.722,16.113,40.039,31.250,-1.465,41.016,0
1553635466.726,15.625,38.574,27.832,8.789,54.688,0
1553635466.730,21.973,39.062,27.344,26.367,10.742,0
1553635466.734,20.020,42.480,31.738,30.273,7.812,0
1553635466.738,9.766,41.016,33.691,24.414,28.320,0
1553635466.742,20.020,39.062,29.297,31.738,-23.438,0
1553635466.746,25.879,36.133,30.273,39.551,17.090,0
1553635466.749,13.672,34.668,34.668,57.617,28.320,0
1553635466.753,16.113,33.203,34.180,45.410,-1.465,0
1553635466.757,11.230,31.738,26.367,27.344,41.504,0
1553635466.761,14.160,29.785,17.090,27.832,66.406,0
1553635466.765,17.090,28.320,19.043,10.742,42.480,0
1553635466.769,17.090,29.785,21.973,5.371,46.387,0
1553635466.773,20.508,41.016,29.297,13.672,71.289,0
1553635466.777,20.996,42.969,31.738,25.879,47.363,0
1553635466.781,16.602,38.574,27.832,8.301,46.875,0
1553635466.785,18.066,38.574,22.461,-1.465,85.938,0
1553635466.789,15.625,35.645,21.484,32.715,101.562,0
1553635466.792,9.766,34.180,31.250,30.762,86.914,0
1553635466.796,10.254,34.180,34.668,20.020,69.336,0
1553635466.800,3.906,35.645,32.227,23.926,39.062,0
1553635466.804,8.301,37.109,31.738,27.832,38.574,0
1553635466.808,16.602,39.551,36.621,29.297,24.414,0
1553635466.812,12.695,41.016,31.738,25.879,8.789,0
1553635466.816,13.184,40.527,24.414,25.391,63.477,0
1553635466.820,12.207,38.574,27.344,37.598,66.406,0
1553635466.824,10.742,37.598,31.738,32.227,82.520,0
1553635466.828,5.859,38.086,34.668,24.414,83.008,0
1553635466.831,2.441,36.133,33.691,26.855,44.922,0
1553635466.835,14.160,38.086,29.785,6.348,39.551,0
1553635466.839,15.625,42.969,29.297,16.113,86.426,0
1553635466.843,9.277,42.969,31.250,37.109,37.109,0
1553635466.847,15.625,40.527,26.855,28.809,46.387,0
1553635466.851,8.789,38.086,26.367,32.227,111.816,0
1553635466.855,1.953,43.945,29.297,28.320,84.961,0
1553635466.859,3.418,42.969,26.367,22.949,73.730,0
1553635466.863,5.859,42.480,26.367,27.344,48.340,0
1553635466.867,13.184,46.875,27.344,16.113,47.363,0
1553635466.871,11.719,41.992,29.297,7.324,67.383,0
1553635466.874,14.648,36.621,27.832,21.973,82.520,0
1553635466.878,14.648,40.039,27.832,31.250,43.457,0
1553635466.882,12.695,42.480,29.785,7.812,21.484,0
1553635466.886,14.160,37.598,30.273,16.602,-12.207,0
1553635466.890,23.926,38.086,31.738,34.180,12.207,0
1553635466.894,22.461,38.574,31.738,25.879,66.406,0
1553635466.898,5.371,36.621,30.762,34.180,57.129,0
1553635466.902,-1.465,37.598,28.320,40.039,-11.230,0
1553635466.906,4.883,36.133,27.832,41.504,29.785,0
1553635466.910,14.648,35.645,28.320,37.598,53.711,0
1553635466.914,9.766,40.039,27.832,13.672,49.805,0
1553635466.917,16.113,40.039,30.273,5.371,33.203,0
1553635466.921,21.973,36.133,32.715,16.113,-42.480,0
1553635466.925,19.531,38.086,26.367,19.531,-24.902,0
1553635466.929,17.578,39.551,23.926,4.883,41.504,0
1553635466.933,9.766,40.527,25.879,12.207,145.020,0
1553635466.937,4.395,40.527,24.902,26.855,103.027,0
1553635466.941,3.906,35.645,23.438,23.438,16.602,0
1553635466.945,3.418,37.109,24.414,20.508,30.273,0
1553635466.949,4.395,41.504,26.367,16.113,6.348,0
1553635466.953,6.836,40.039,25.391,19.531,41.016,0
1553635466.956,0.977,41.504,28.809,3.418,59.082,0
1553635466.960,1.953,42.480,30.762,-1.953,75.195,0
1553635466.964,2.441,37.598,26.855,9.766,95.215,0
1553635466.968,-0.977,37.598,22.949,11.230,67.871,0
1553635466.972,-3.418,36.133,22.461,15.137,47.363,0
1553635466.976,-4.395,36.133,22.949,0.000,93.262,0
1553635466.980,1.953,38.574,25.391,7.812,118.164,0
1553635466.984,0.000,38.574,21.484,28.320,25.879,0
1553635466.988,7.812,34.668,19.531,28.809,-2.441,0
1553635466.992,15.137,27.344,25.391,28.809,25.391,0
1553635466.996,4.395,30.762,27.832,21.973,55.176,0
1553635466.999,7.812,40.527,33.203,30.273,67.871,0
1553635467.003,11.230,42.969,37.109,28.320,53.223,0
1553635467.007,4.395,39.551,37.109,24.414,32.715,0
1553635467.011,10.254,39.551,32.227,40.039,3.418,0
1553635467.015,12.207,38.086,24.902,39.551,34.180,0
1553635467.019,16.602,38.574,19.531,26.855,19.043,0
1553635467.023,22.461,40.039,15.625,25.879,-28.809,0
1553635467.027,18.555,35.156,24.414,6.348,1.953,0
1553635467.031,12.207,34.180,33.203,-3.418,48.340,0
1553635467.035,17.090,42.969,26.367,13.184,81.055,0
1553635467.039,8.789,42.480,23.438,20.508,94.727,0
1553635467.042,0.488,38.086,25.879,21.484,55.664,0
1553635467.046,-5.371,39.062,25.391,19.531,45.898,0
1553635467.050,-14.160,38.574,24.902,3.418,-0.488,0
1553635467.054,-8.301,38.086,22.949,5.371,-32.227,0
1553635467.058,-2.441,35.645,25.879,13.672,45.898,0
1553635467.062,-0.977,32.227,20.508,-6.348,87.891,0
1553635467.066,-6.348,29.785,14.160,3.906,73.242,0
1553635467.070,-3.418,30.762,23.926,20.020,95.703,0
1553635467.074,7.812,36.621,29.785,17.090,33.691,0
1553635467.078,9.766,37.598,24.414,18.555,-7.812,0
1553635467.081,6.348,37.598,26.367,20.996,14.648,0
1553635467.085,4.395,36.133,34.180,25.879,0.977,0
1553635467.089,11.719,35.645,37.109,27.344,43.457,0
1553635467.093,16.602,37.598,32.227,20.508,14.160,0
1553635467.097,18.555,39.062,25.391,12.695,27.344,0
1553635467.101,19.531,38.086,25.391,29.297,6.348,0
1553635467.105,16.113,34.668,30.762,23.926,21.484,0
1553635467.109,12.207,36.133,37.598,16.113,60.547,0
1553635467.113,15.137,38.086,43.457,38.574,29.297,0
1553635467.117,30.762,41.016,41.992,39.551,87.891,0
1553635467.121,22.461,38.574,35.156,38.086,61.523,0
1553635467.124,9.766,37.109,39.062,34.668,32.227,0
1553635467.128,13.184,39.551,41.504,22.461,39.551,0
1553635467.132,12.207,35.156,35.156,9.766,28.809,0
1553635467.136,-0.488,30.762,31.738,6.836,43.457,0
1553635467.140,-1.465,31.738,36.621,13.184,44.434,0
1553635467.144,-10.254,32.227,37.598,18.555,29.785,0
1553635467.148,-15.137,36.621,37.598,26.855,-22.949,0
1553635467.152,0.977,41.992,37.598,28.320,3.906,0
1553635467.156,-1.953,40.527,38.086,0.977,38.574,0
1553635467.160,6.348,40.039,37.598,16.602,45.410,0
1553635467.164,17.090,38.086,34.668,46.387,18.555,0
1553635467.167,13.184,37.109,32.227,21.973,77.637,0
1553635467.171,18.066,38.574,36.621,0.488,41.504,0
1553635467.175,6.348,35.645,42.969,7.324,-19.531,0
1553635467.179,2.930,38.574,43.945,26.855,78.125,0
1553635467.183,19.043,41.016,43.945,1.953,53.223,0
1553635467.187,12.695,38.086,38.574,-5.371,-18.066,0
1553635467.191,1.465,37.598,35.156,15.625,39.551,0
1553635467.195,5.859,43.945,41.504,14.648,66.406,0
1553635467.199,18.066,48.828,44.434,13.184,53.711,0
1553635467.203,3.906,43.457,36.621,10.742,64.941,0
1553635467.206,-8.301,43.457,33.203,10.254,45.410,0
1553635467.210,-12.695,41.504,35.645,12.695,41.016,0
1553635467.214,-11.230,40.527,40.039,30.762,-6.348,0
1553635467.218,-5.371,45.410,44.922,20.996,-25.391,0
1553635467.222,-13.672,46.875,46.387,-17.578,52.246,0
1553635467.226,-23.438,42.480,43.945,-8.789,94.727,0
1553635467.230,-20.020,42.480,48.340,19.043,92.773,0
1553635467.234,-23.438,45.410,49.316,-0.488,70.801,0
1553635467.238,-29.785,44.434,47.852,-8.789,66.895,0
1553635467.242,-36.133,42.480,47.363,-29.297,62.988,0
1553635467.246,-48.828,41.992,43.457,-53.223,60.547,0
1553635467.249,-48.340,42.969,39.551,-41.992,83.496,0
1553635467.253,-49.805,41.992,38.086,-30.273,86.914,0
1553635467.257,-40.527,39.551,37.598,-32.227,39.062,0
1553635467.261,-40.527,37.598,36.621,-48.828,8.301,0
1553635467.265,-55.664,40.527,36.133,-36.621,92.285,0
1553635467.269,-47.363,44.922,38.574,-23.438,36.621,0
1553635467.273,-28.809,48.340,42.969,-27.832,38.574,0
1553635467.277,-30.273,48.828,41.016,-14.648,79.102,0
1553635467.281,-30.273,45.898,32.715,8.301,63.965,0
1553635467.285,-19.043,44.434,24.902,8.789,75.684,0
1553635467.289,-18.066,42.480,30.273,-2.930,85.938,0
1553635467.292,-18.555,43.457,34.668,18.555,98.633,0
1553635467.296,-16.602,46.387,33.203,0.000,80.566,0
1553635467.300,-9.766,43.945,33.691,-12.695,31.250,0
1553635467.304,-8.301,41.016,30.273,-26.367,-33.691,0
1553635467.308,-3.418,40.527,28.809,-39.551,8.301,0
1553635467.312,-9.277,37.109,29.297,-1.953,40.039,0
1553635467.316,-13.672,32.227,27.344,6.836,-39.551,0
1553635467.320,-6.836,36.621,31.738,3.906,-2.930,0
1553635467.324,-3.418,41.016,30.762,6.348,62.500,0
1553635467.328,1.465,38.574,23.438,14.648,46.875,0
1553635467.331,1.465,34.180,20.508,8.789,5.859,0
1553635467.335,1.465,33.691,24.902,30.762,6.348,0
1553635467.339,18.555,34.668,24.902,39.062,78.613,0
1553635467.343,22.949,32.715,23.438,3.906,69.336,0
1553635467.347,19.531,36.133,27.344,15.137,52.246,0
1553635467.351,37.598,41.016,27.344,22.949,64.941,0
1553635467.355,50.293,37.598,27.832,20.508,18.066,0
1553635467.359,60.059,36.621,29.785,19.531,-27.832,0
1553635467.363,38.086,34.180,33.203,36.133,-35.156,0
1553635467.367,24.414,33.203,34.180,50.293,49.316,0
1553635467.371,45.410,34.180,32.227,52.734,96.191,0
1553635467.374,41.016,26.367,29.785,54.199,108.887,0
1553635467.378,33.203,23.438,24.414,35.156,123.047,0
1553635467.382,24.414,32.227,21.973,7.812,59.570,0
1553635467.386,9.766,32.715,23.926,25.879,-1.953,0
1553635467.390,12.695,31.250,30.762,48.828,45.898,0
1553635467.394,8.789,32.227,32.227,40.039,27.832,0
1553635467.398,5.859,30.762,29.297,44.922,23.438,0
1553635467.402,4.883,27.832,28.809,41.016,20.996,0
1553635467.406,10.742,28.320,30.762,34.180,-21.973,0
1553635467.410,19.043,27.344,28.809,40.527,34.180,0
1553635467.414,17.090,30.273,25.391,44.434,46.875,0
1553635467.417,23.926,34.180,27.832,24.902,28.320,0
1553635467.421,28.809,37.598,26.855,27.344,39.551,0
1553635467.425,20.508,38.086,29.785,42.480,55.176,0
1553635467.429,20.508,36.133,34.668,32.715,27.344,0
1553635467.433,19.531,36.621,31.738,30.762,7.324,0
1553635467.437,-3.906,36.621,29.785,25.879,13.184,0
1553635467.441,3.906,39.062,33.691,17.090,32.227,0
1553635467.445,19.043,41.992,32.715,17.090,25.879,0
1553635467.449,17.090,41.016,31.250,21.484,50.293,0
1553635467.453,13.672,34.668,31.738,25.879,36.133,0
1553635467.456,13.184,35.645,34.180,23.438,34.180,0
1553635467.460,24.414,41.016,34.668,1.465,23.926,0
1553635467.464,28.809,39.062,33.691,12.695,30.273,0
1553635467.468,-6.348,38.086,33.691,21.484,81.055,0
1553635467.472,-16.602,40.039,36.133,16.113,64.453,0
1553635467.476,0.977,38.086,31.738,22.461,4.395,0
1553635467.480,-2.441,31.738,27.344,26.367,-4.883,0
1553635467.484,10.742,33.203,31.738,36.133,64.453,0
1553635467.488,14.648,39.062,33.691,31.250,40.527,0
1553635467.492,9.766,35.645,33.203,15.625,40.527,0
1553635467.496,6.836,36.621,32.227,35.156,32.227,0
1553635467.499,19.531,41.992,31.738,43.457,-5.859,0
1553635467.503,21.484,44.434,31.250,21.484,5.859,0
1553635467.507,13.672,43.457,29.785,20.996,-13.184,0
1553635467.511,8.789,39.062,26.855,15.137,-22.949,0
1553635467.515,9.766,41.992,25.879,2.441,42.969,0
1553635467.519,22.949,44.922,24.902,1.465,49.316,0
1553635467.523,14.160,42.969,23.926,0.488,0.977,0
1553635467.527,13.672,41.016,25.879,7.812,103.516,0
1553635467.531,8.301,40.039,21.973,6.836,135.254,0
1553635467.535,-3.906,37.598,21.484,-5.859,48.340,0
1553635467.539,13.672,34.668,23.438,26.855,79.590,0
1553635467.542,10.254,37.598,18.066,35.645,127.930,0
1553635467.546,8.301,41.016,14.648,15.625,106.445,0
1553635467.550,11.719,39.062,19.043,12.695,49.805,0
1553635467.554,9.277,36.621,24.414,14.160,9.766,0
1553635467.558,0.000,36.621,25.879,11.230,-9.277,0
1553635467.562,6.836,37.598,25.391,7.324,1.465,0
1553635467.566,17.090,39.551,27.344,17.090,3.906,0
1553635467.570,14.160,41.016,27.344,1.465,24.902,0
1553635467.574,17.578,40.039,27.344,-3.418,56.152,0
1553635467.578,9.277,40.039,28.320,21.484,19.531,0
1553635467.581,5.371,42.480,29.297,18.066,57.617,0
1553635467.585,20.020,42.480,32.227,12.207,128.906,0
1553635467.589,9.766,44.922,31.738,16.602,41.016,0
1553635467.593,-4.395,50.781,25.879,21.484,11.230,0
1553635467.597,5.859,47.852,28.320,20.996,81.543,0
1553635467.601,14.160,47.852,35.645,21.973,28.320,0
1553635467.605,8.301,48.340,34.180,-2.441,22.461,0
1553635467.609,8.301,41.992,33.691,-6.348,104.492,0
1553635467.613,20.996,38.574,36.621,17.090,62.500,0
1553635467.617,6.348,38.086,34.180,3.906,29.297,0
1553635467.621,-0.977,41.992,34.180,0.000,4.395,0
1553635467.624,6.348,41.504,32.715,10.254,-23.438,0
1553635467.628,14.160,48.828,38.574,22.949,16.113,0
1553635467.632,28.320,52.734,44.434,24.902,-3.418,0
1553635467.636,23.438,42.480,41.504,21.484,-23.926,0
1553635467.640,10.742,40.039,41.016,18.555,50.293,0
1553635467.644,11.230,41.992,39.551,20.508,83.008,0
1553635467.648,5.371,43.945,40.527,17.578,60.059,0
1553635467.652,-7.324,41.504,46.875,25.391,88.379,0
1553635467.656,-11.719,39.062,50.781,18.066,78.613,0
1553635467.660,-6.348,41.992,44.922,2.930,-28.320,0
1553635467.664,-17.090,41.992,39.551,-0.488,-7.812,0
1553635467.667,-21.484,36.621,35.645,-25.391,80.566,0
1553635467.671,-23.438,34.180,33.203,-41.992,64.941,0
1553635467.675,-35.645,38.086,47.363,-36.133,100.586,0
1553635467.679,-34.668,40.039,50.781,-29.785,121.094,0
1553635467.683,-36.621,41.016,44.434,-30.273,38.574,0
1553635467.687,-39.062,41.504,41.992,-18.555,0.000,0
1553635467.691,-37.598,41.016,44.434,-14.648,7.812,0
1553635467.695,-34.180,46.875,44.434,-42.480,21.973,0
1553635467.699,-29.785,48.340,34.180,-41.504,72.754,0
1553635467.703,-37.598,41.992,22.949,-7.812,130.371,0
1553635467.706,-36.621,40.527,28.809,-12.207,82.031,0
1553635467.710,-20.020,41.992,39.062,-12.695,67.871,0
1553635467.714,-9.277,40.039,37.109,-3.906,87.402,0
1553635467.718,-6.836,42.969,36.133,7.812,65.430,0
1553635467.722,-6.836,40.039,35.645,13.672,86.914,0
1553635467.726,12.207,39.551,33.203,25.391,97.656,0
1553635467.730,16.113,46.875,34.180,33.691,71.777,0
1553635467.734,11.719,44.922,29.297,-0.488,60.059,0
1553635467.738,12.695,41.992,25.391,8.789,23.438,0
1553635467.742,12.695,44.434,23.438,40.039,27.832,0
1553635467.746,15.137,44.922,24.414,32.227,83.984,0
1553635467.749,15.625,42.480,28.809,44.922,75.684,0
1553635467.753,24.414,41.504,24.902,45.898,75.684,0
1553635467.757,26.367,42.480,21.484,29.297,65.430,0
1553635467.761,26.855,40.527,23.438,27.832,-4.395,0
1553635467.765,34.180,41.016,29.785,30.273,-22.461,0
1553635467.769,40.527,42.480,29.785,40.039,32.715,0
1553635467.773,49.805,42.480,25.391,30.273,-15.625,0
1553635467.777,44.434,37.598,23.926,19.043,-49.316,0
1553635467.781,41.016,37.109,29.297,40.527,21.484,0
1553635467.785,36.621,42.969,36.133,51.758,29.297,0
1553635467.789,31.738,40.527,38.086,50.781,30.273,0
1553635467.792,42.480,42.480,36.133,57.617,32.227,0
1553635467.796,46.875,41.016,35.645,57.617,23.926,0
1553635467.800,36.133,31.250,34.180,53.223,44.922,0
1553635467.804,33.203,35.156,30.273,51.270,26.367,0
1553635467.808,43.457,40.039,23.926,44.922,33.203,0
1553635467.812,40.527,34.668,14.160,41.504,48.340,0
1553635467.816,43.457,35.156,15.137,48.340,40.039,0
1553635467.820,39.062,41.016,22.461,41.504,26.367,0
1553635467.824,19.043,38.574,22.461,41.016,60.547,0
1553635467.828,30.762,38.574,23.926,45.410,41.504,0
1553635467.831,44.434,41.504,27.832,49.316,6.836,0
1553635467.835,44.922,39.551,28.809,64.941,4.395,0
1553635467.839,47.363,34.180,19.531,68.359,33.691,0
1553635467.843,45.410,34.668,17.090,52.734,92.285,0
1553635467.847,41.016,37.598,21.484,40.527,30.762,0
1553635467.851,38.574,38.574,21.973,41.016,-18.066,0
1553635467.855,38.574,35.156,22.949,51.270,49.316,0
1553635467.859,46.387,34.180,20.996,50.781,68.359,0
1553635467.863,43.457,40.527,20.508,34.668,11.719,0
1553635467.867,34.180,43.457,21.484,51.758,-4.883,0
1553635467.871,38.574,45.410,22.949,62.988,1.465,0
1553635467.874,49.316,43.945,24.414,52.734,-20.508,0
1553635467.878,55.664,42.969,24.902,42.480,-6.836,0
1553635467.882,50.293,42.969,24.902,42.480,9.277,0
1553635467.886,44.922,44.922,29.297,42.969,41.504,0
1553635467.890,42.480,45.898,32.715,33.691,50.293,0
1553635467.894,38.574,41.016,27.344,38.574,56.152,0
1553635467.898,33.203,42.969,26.855,50.293,30.273,0
1553635467.902,28.320,44.434,26.855,47.363,9.277,0
1553635467.906,36.621,41.504,23.926,24.902,65.918,0
1553635467.910,38.086,31.738,24.902,18.066,80.566,0
1553635467.914,32.227,33.691,22.949,54.199,46.387,0
1553635467.917,30.762,42.969,22.949,59.570,10.742,0
1553635467.921,24.902,41.016,25.391,52.246,51.758,0
1553635467.925,17.578,37.109,26.367,59.082,11.230,0
1553635467.929,18.555,39.062,25.391,54.688,-0.977,0
1553635467.933,23.438,37.598,25.879,59.082,69.336,0
1553635467.937,26.855,34.180,28.320,50.781,53.223,0
1553635467.941,30.273,38.574,30.273,28.809,57.617,0
1553635467.945,25.391,41.992,31.738,27.344,65.430,0
1553635467.949,29.297,37.109,32.227,6.348,113.770,0
1553635467.953,34.180,37.598,33.203,17.578,112.305,0
1553635467.956,30.273,36.133,33.691,50.781,64.941,0
1553635467.960,25.391,31.250,32.715,32.715,39.062,0
1553635467.964,22.949,35.156,30.762,29.785,47.852,0
1553635467.968,20.996,37.109,30.762,44.922,75.684,0
1553635467.972,20.020,37.109,32.715,58.105,39.062,0
1553635467.976,22.461,40.039,27.832,51.270,1.953,0
1553635467.980,19.043,41.992,27.832,51.758,36.133,0
1553635467.984,16.113,40.527,31.250,58.105,64.453,0
1553635467.988,18.555,37.109,30.762,22.949,66.406,0
1553635467.992,35.645,37.109,28.809,10.254,28.809,0
1553635467.996,35.645,39.551,23.438,30.762,-6.348,0
1553635467.999,18.066,41.992,28.320,42.969,66.895,0
1553635468.003,18.555,44.434,30.273,43.457,36.621,0
1553635468.007,17.090,43.457,25.391,36.621,-16.602,0
1553635468.011,22.461,40.527,30.762,38.574,29.785,0
1553635468.015,28.320,41.992,30.273,36.621,2.930,0
1553635468.019,22.949,44.434,23.926,39.062,-10.254,0
1553635468.023,35.645,43.457,21.973,48.828,23.926,0
1553635468.027,44.922,44.922,23.438,26.367,18.555,0
1553635468.031,42.480,45.410,25.879,36.621,38.086,0
1553635468.035,49.805,42.480,23.438,66.895,33.203,0
1553635468.039,57.129,42.969,25.391,58.594,31.250,0
1553635468.042,44.434,46.387,25.391,45.898,72.266,0
1553635468.046,38.086,47.363,20.996,48.340,67.871,0
1553635468.050,35.156,43.457,22.461,59.570,67.383,0
1553635468.054,36.621,41.504,25.391,47.852,48.340,0
1553635468.058,37.109,42.480,23.926,33.691,16.602,0
1553635468.062,22.461,41.504,22.949,29.297,30.273,0
1553635468.066,13.672,40.039,24.902,36.133,58.105,0
1553635468.070,20.508,37.598,28.809,21.973,81.055,0
1553635468.074,29.297,35.156,28.809,9.766,36.621,0
1553635468.078,21.973,36.133,24.414,41.992,20.996,0
1553635468.081,6.348,39.551,27.832,34.668,73.730,0
1553635468.085,5.859,41.504,32.227,28.809,70.312,0
1553635468.089,2.930,40.039,27.344,42.480,104.492,0
1553635468.093,-1.953,39.062,28.809,49.316,55.176,0
1553635468.097,3.418,42.480,33.203,53.223,29.297,0
1553635468.101,13.672,38.574,31.250,40.527,116.699,0
1553635468.105,17.090,37.109,31.738,38.086,43.945,0
1553635468.109,33.203,40.527,33.691,42.969,15.625,0
1553635468.113,43.457,37.109,38.086,52.246,51.758,0
1553635468.117,49.805,36.133,37.598,50.781,101.074,0
1553635468.121,48.340,44.434,35.645,45.410,122.559,0
1553635468.124,42.969,44.922,36.621,59.082,38.574,0
1553635468.128,52.734,41.992,37.109,49.805,8.301,0
1553635468.132,47.852,40.527,36.621,47.363,47.852,0
1553635468.136,43.945,39.551,36.133,59.570,9.766,0
1553635468.140,41.992,39.551,36.621,60.547,-10.254,0
1553635468.144,41.992,38.574,36.621,60.547,24.414,0
1553635468.148,33.203,33.203,35.645,65.918,9.766,0
1553635468.152,24.414,31.250,40.527,61.035,18.066,0
1553635468.156,28.809,33.691,39.062,40.527,51.270,0
1553635468.160,25.391,32.227,35.645,34.668,69.336,0
1553635468.164,23.438,32.227,37.109,46.387,86.426,0
1553635468.167,15.137,32.227,34.180,33.203,45.410,0
1553635468.171,18.555,33.691,36.133,25.879,48.828,0
1553635468.175,18.555,35.645,35.645,31.250,62.500,0
1553635468.179,7.324,34.668,30.762,32.227,28.320,0
1553635468.183,5.371,34.180,26.367,43.457,20.996,0
1553635468.187,17.578,33.691,25.391,36.621,80.078,0
1553635468.191,24.902,30.762,31.250,36.133,69.336,0
1553635468.195,16.113,30.762,34.668,40.039,23.438,0
1553635468.199,20.996,37.109,35.645,39.551,41.992,0
1553635468.203,36.621,45.898,31.250,43.945,23.926,0
1553635468.206,36.621,50.293,28.320,21.484,83.496,0
1553635468.210,41.992,54.688,32.227,32.715,36.621,0
1553635468.214,46.875,53.223,34.180,65.918,-2.930,0
1553635468.218,45.898,47.363,32.715,46.875,31.738,0
1553635468.222,43.945,46.875,25.391,39.551,36.133,0
1553635468.226,41.016,43.945,22.949,55.664,62.012,0
1553635468.230,37.598,40.039,27.832,50.293,12.207,0
1553635468.234,28.320,41.992,30.762,41.504,35.645,0
1553635468.238,24.902,46.875,35.156,33.691,112.793,0
1553635468.242,30.273,48.828,36.621,23.438,85.449,0
1553635468.246,36.133,46.875,30.273,29.297,53.711,0
1553635468.249,35.645,43.457,30.762,25.879,40.527,0
1553635468.253,23.438,45.410,30.762,12.207,-7.324,0
1553635468.257,27.832,44.922,30.762,34.180,-10.254,0
1553635468.261,33.691,44.434,28.809,55.664,25.391,0
1553635468.265,20.508,44.434,23.926,39.062,5.371,0
1553635468.269,16.602,46.387,22.461,35.156,16.113,0
1553635468.273,9.277,46.387,27.832,52.246,18.066,0
1553635468.277,18.555,42.969,35.156,41.992,76.660,0
1553635468.281,29.297,40.039,35.645,38.086,92.773,0
1553635468.285,21.973,41.504,33.691,40.527,49.805,0
1553635468.289,20.508,47.363,31.250,11.230,13.184,0
1553635468.292,17.090,50.293,26.367,5.371,13.184,0
1553635468.296,15.625,46.875,25.879,39.551,20.996,0
1553635468.300,22.461,44.434,27.832,35.156,9.277,0
1553635468.304,25.879,46.875,27.832,26.855,63.965,0
1553635468.308,21.484,48.340,27.344,34.180,74.707,0
1553635468.312,20.996,48.828,24.902,35.156,65.430,0
1553635468.316,31.738,46.875,30.762,31.250,76.172,0
1553635468.320,33.691,42.480,34.180,37.598,70.312,0
1553635468.324,27.832,40.527,32.715,23.438,127.930,0
1553635468.328,40.039,41.016,30.273,23.926,112.793,0
1553635468.331,17.090,37.109,27.832,49.805,30.273,0
1553635468.335,-0.977,37.598,25.391,37.109,20.508,0
1553635468.339,19.531,44.434,24.414,23.438,36.133,0
1553635468.343,20.020,44.434,25.879,20.020,33.203,0
1553635468.347,17.090,45.898,27.344,21.484,68.359,0
1553635468.351,17.090,50.781,24.902,7.324,35.156,0
1553635468.355,11.719,44.434,24.414,8.789,44.922,0
1553635468.359,9.766,45.898,24.902,12.207,103.516,0
1553635468.363,8.789,46.387,21.484,17.578,48.340,0
1553635468.367,0.000,39.062,21.484,6.348,69.824,0
1553635468.371,5.371,35.645,25.879,11.230,90.820,0
1553635468.374,5.371,39.062,26.855,17.578,43.945,0
1553635468.378,-1.465,36.133,26.367,17.090,33.203,0
1553635468.382,1.953,27.832,27.832,22.461,21.484,0
1553635468.386,2.441,33.203,27.832,16.602,20.508,0
1553635468.390,8.301,35.645,30.762,24.902,44.922,0
1553635468.394,26.367,34.180,29.297,34.180,27.344,0
1553635468.398,8.789,37.598,27.344,11.719,11.719,0
1553635468.402,2.441,40.039,29.297,16.113,5.371,0
1553635468.406,26.855,37.109,25.391,48.828,21.484,0
1553635468.410,29.785,41.992,25.391,47.852,20.020,0
1553635468.414,33.203,44.434,27.344,35.645,25.879,0
1553635468.417,30.273,42.969,24.902,33.203,33.691,0
1553635468.421,29.297,50.781,25.391,33.203,49.805,0
1553635468.425,34.180,44.922,29.785,26.855,30.273,0
1553635468.429,29.785,40.527,30.762,29.297,32.715,0
1553635468.433,35.645,46.875,26.855,29.785,20.508,0
1553635468.437,31.738,45.898,27.344,28.320,36.133,0
1553635468.441,22.461,45.410,29.297,29.297,97.656,0
1553635468.445,25.391,40.039,27.344,18.066,57.617,0
1553635468.449,22.949,36.133,26.367,23.926,20.020,0
1553635468.453,18.555,39.551,23.926,38.086,77.148,0
1553635468.456,20.508,41.992,26.855,22.461,79.102,0
1553635468.460,24.902,39.062,28.320,16.113,10.742,0
1553635468.464,12.207,36.621,24.414,20.508,14.160,0
1553635468.468,13.184,33.203,28.320,25.879,54.688,0
1553635468.472,13.184,34.668,35.645,24.902,67.383,0
1553635468.476,3.906,40.039,33.691,27.832,75.684,0
1553635468.480,11.719,41.016,27.344,32.715,35.645,0
1553635468.484,0.000,47.363,31.250,41.992,55.664,0
1553635468.488,3.906,51.270,34.180,35.156,91.797,0
1553635468.492,21.484,44.434,31.250,10.742,79.590,0
1553635468.496,24.414,44.434,29.297,20.508,78.613,0
1553635468.499,26.367,42.480,24.414,37.109,64.941,0
1553635468.503,25.391,37.109,25.879,23.926,45.410,0
1553635468.507,26.367,39.551,30.762,19.531,43.945,0
1553635468.511,28.809,38.086,27.832,20.508,63.477,0
1553635468.515,36.133,39.062,30.273,20.996,61.035,0
1553635468.519,30.762,36.621,33.691,36.133,22.461,0
1553635468.523,28.320,32.715,33.203,41.992,41.016,0
1553635468.527,29.785,40.039,32.227,43.945,40.039,0
1553635468.531,17.578,49.316,26.855,17.090,4.395,0
1553635468.535,8.301,45.410,24.414,1.465,11.230,0
1553635468.539,11.719,40.039,24.902,23.438,29.297,0
1553635468.542,23.438,45.410,25.879,32.227,30.762,0
1553635468.546,19.531,48.828,28.809,36.621,37.598,0
1553635468.550,19.531,46.875,28.809,34.180,45.898,0
1553635468.554,17.578,43.457,26.855,35.645,71.777,0
1553635468.558,20.508,42.969,21.484,37.598,56.152,0
1553635468.562,27.344,41.504,24.414,27.344,17.090,0
1553635468.566,17.090,36.621,29.785,16.602,46.387,0
1553635468.570,8.301,38.086,26.855,27.832,58.105,0
1553635468.574,3.906,39.062,27.344,16.602,85.449,0
1553635468.578,0.488,39.551,24.902,12.207,77.148,0
1553635468.581,6.348,40.039,21.484,35.645,72.754,0
1553635468.585,-3.418,38.086,21.484,30.762,76.172,0
1553635468.589,-7.324,36.133,20.508,33.691,52.246,0
1553635468.593,6.836,36.621,17.578,22.949,91.309,0
1553635468.597,23.438,41.016,15.137,22.461,95.703,0
1553635468.601,19.531,41.504,16.113,31.250,-22.949,0
1553635468.605,2.441,29.785,19.531,21.973,-35.645,0
1553635468.609,0.488,28.320,21.484,29.785,22.949,0
1553635468.613,9.766,43.457,22.461,24.414,-25.879,0
1553635468.617,12.207,50.293,23.438,16.602,17.090,0
1553635468.621,11.230,46.875,23.926,13.184,71.777,0
1553635468.624,15.625,44.922,26.367,14.648,61.523,0
1553635468.628,22.461,48.340,25.879,42.969,29.785,0
1553635468.632,29.297,46.387,25.391,43.457,12.695,0
1553635468.636,23.926,42.480,27.832,36.621,46.875,0
1553635468.640,16.602,41.016,24.902,31.250,58.594,0
1553635468.644,14.160,42.480,20.996,26.855,-23.438,0
1553635468.648,15.625,42.480,20.508,18.555,41.992,0
1553635468.652,15.625,39.551,25.391,19.531,59.570,0
1553635468.656,20.508,41.992,30.273,13.184,45.410,0
1553635468.660,18.066,41.016,29.297,9.277,75.195,0
1553635468.664,21.484,41.016,25.391,35.645,65.918,0
1553635468.667,23.926,41.016,23.926,35.156,44.434,0
1553635468.671,12.695,37.598,21.484,28.809,-26.855,0
1553635468.675,11.719,33.691,20.508,31.250,0.977,0
1553635468.679,5.859,26.855,26.855,36.621,41.504,0
1553635468.683,5.859,33.203,29.297,32.715,10.742,0
1553635468.687,0.977,38.574,25.879,25.391,25.391,0
1553635468.691,-8.301,36.133,26.367,25.879,54.688,0
1553635468.695,0.488,37.598,26.367,22.949,50.781,0
1553635468.699,11.230,39.551,27.832,19.043,66.895,0
1553635468.703,13.184,40.527,30.762,21.484,67.871,0
1553635468.706,11.230,39.062,26.367,24.902,49.805,0
1553635468.710,14.160,41.016,22.461,23.926,-9.277,0
1553635468.714,15.137,45.410,24.902,19.531,-21.973,0
1553635468.718,16.602,41.992,24.414,9.766,23.926,0
1553635468.722,15.625,43.457,18.066,15.625,-8.301,0
1553635468.726,1.465,44.922,13.672,14.160,20.996,0
1553635468.730,1.953,37.598,18.555,8.789,61.523,0
1553635468.734,17.578,31.738,21.973,23.438,44.922,0
1553635468.738,13.672,32.715,24.414,22.949,75.684,0
1553635468.742,12.207,39.062,24.414,8.789,40.039,0
1553635468.746,22.949,44.922,24.902,11.719,32.227,0
1553635468.749,20.996,43.457,31.250,23.926,44.434,0
1553635468.753,11.230,39.551,29.297,26.367,18.555,0
1553635468.757,8.789,35.156,22.949,28.320,58.594,0
1553635468.761,8.789,36.621,20.020,29.785,99.121,0
1553635468.765,-1.465,40.527,20.020,28.809,52.734,0
1553635468.769,-1.953,41.504,24.902,19.531,30.273,0
1553635468.773,-4.395,44.434,25.879,10.742,32.227,0
1553635468.777,-0.977,47.852,23.438,30.273,16.602,0
1553635468.781,9.766,41.504,26.855,32.715,51.758,0
1553635468.785,13.184,34.668,26.855,27.832,80.566,0
1553635468.789,16.602,39.551,22.461,28.320,80.078,0
1553635468.792,15.137,46.875,22.949,30.762,60.547,0
1553635468.796,18.066,51.270,25.391,29.297,17.578,0
1553635468.800,31.738,45.410,26.855,29.785,-10.742,0
1553635468.804,25.391,40.527,27.832,19.531,15.625,0
1553635468.808,13.184,44.922,25.879,17.578,36.133,0
1553635468.812,17.578,46.387,25.879,8.789,29.785,0
1553635468.816,14.648,46.387,25.879,-8.789,1.953,0
1553635468.820,22.461,47.363,24.414,20.996,43.457,0
1553635468.824,23.438,45.410,25.391,28.809,45.898,0
1553635468.828,14.160,38.086,22.949,17.090,29.297,0
1553635468.831,14.160,34.180,24.414,17.578,69.336,0
1553635468.835,18.066,40.039,23.438,20.508,72.266,0
1553635468.839,5.371,41.016,11.719,15.625,47.363,0
1553635468.843,-7.324,48.340,10.254,3.906,58.594,0
1553635468.847,-5.859,53.223,20.020,4.395,60.059,0
1553635468.851,-9.277,47.363,18.066,-4.395,55.176,0
1553635468.855,-18.555,48.340,12.207,-7.812,54.688,0
1553635468.859,-13.672,46.387,17.578,3.418,46.875,0
1553635468.863,-10.254,43.945,15.625,-22.949,53.223,0
1553635468.867,-11.230,45.898,10.254,-13.672,0.488,0
1553635468.871,-9.766,38.574,10.742,11.719,-39.062,0
1553635468.874,-8.789,36.621,14.648,0.977,33.691,0
1553635468.878,-11.230,45.410,20.996,-2.930,86.914,0
1553635468.882,-12.207,47.852,21.973,-0.977,114.258,0
1553635468.886,0.977,50.781,20.508,9.277,79.102,0
1553635468.890,-3.906,53.223,18.066,5.859,44.922,0
1553635468.894,0.977,54.199,20.996,8.301,61.523,0
1553635468.898,9.766,51.270,26.855,23.438,39.062,0
1553635468.902,16.602,44.922,18.555,4.395,50.293,0
1553635468.906,24.902,49.805,13.672,0.488,109.375,0
1553635468.910,22.949,55.176,22.461,15.137,48.340,0
1553635468.914,26.367,54.688,23.438,11.230,65.430,0
1553635468.917,20.508,58.105,21.973,16.113,104.980,0
1553635468.921,14.160,52.734,22.461,12.207,33.691,0
1553635468.925,19.531,44.434,21.484,9.277,50.781,0
1553635468.929,16.113,42.480,21.484,23.926,78.125,0
1553635468.933,15.137,42.969,24.414,27.832,50.781,0
1553635468.937,5.371,41.504,22.949,19.043,43.457,0
1553635468.941,2.441,36.621,21.484,20.508,35.645,0
1553635468.945,11.719,40.527,20.996,20.996,27.344,0
1553635468.949,10.254,44.922,23.438,25.879,41.504,0
1553635468.953,13.184,46.387,28.809,20.020,51.758,0
1553635468.956,22.461,43.945,30.273,24.902,78.125,0
1553635468.960,21.973,41.016,34.180,32.227,93.262,0
1553635468.964,4.395,35.645,32.227,29.785,87.402,0
1553635468.968,7.812,36.133,25.879,29.785,59.082,0
1553635468.972,5.371,44.434,22.461,14.160,45.898,0
1553635468.976,4.395,45.410,20.020,10.742,25.879,0
1553635468.980,9.766,46.387,19.531,14.648,32.715,0
1553635468.984,5.859,42.480,20.508,20.020,48.340,0
1553635468.988,2.930,35.645,26.367,16.602,24.902,0
1553635468.992,4.883,32.227,28.320,8.789,0.488,0
1553635468.996,12.695,35.645,24.902,0.000,-38.574,0
1553635468.999,7.812,36.133,24.902,9.766,8.789,0
1553635469.003,4.883,31.738,27.344,26.367,-15.625,0
1553635469.007,10.742,30.273,28.320,25.879,-83.984,0
1553635469.011,8.301,38.086,27.344,16.113,-58.105,0
1553635469.015,1.465,39.551,25.879,8.789,5.371,0
1553635469.019,9.277,38.574,24.414,17.090,46.875,0
1553635469.023,8.301,41.992,23.926,18.555,41.992,0
1553635469.027,4.395,37.598,23.926,21.484,26.855,0
1553635469.031,21.484,36.133,18.066,34.180,20.020,0
1553635469.035,21.973,41.992,12.695,26.367,3.418,0
1553635469.039,17.578,42.480,13.672,18.066,18.066,0
1553635469.042,28.809,41.504,17.090,19.531,29.297,0
1553635469.046,17.578,45.898,16.602,20.996,28.809,0
1553635469.050,9.277,41.992,14.648,9.277,45.898,0
1553635469.054,12.695,35.156,16.113,10.254,60.059,0
1553635469.058,11.719,38.574,19.043,30.273,70.312,0
1553635469.062,8.301,46.387,17.578,24.414,40.039,0
1553635469.066,5.371,43.457,18.066,29.297,11.719,0
1553635469.070,12.695,41.016,14.160,20.508,-16.602,0
1553635469.074,15.625,44.434,13.184,9.277,22.949,0
1553635469.078,15.625,42.480,19.043,9.766,64.941,0
1553635469.081,21.973,39.551,21.484,14.160,28.320,0
1553635469.085,16.602,31.250,21.973,13.672,45.898,0
1553635469.089,1.953,27.832,22.949,14.648,91.797,0
1553635469.093,6.836,27.832,18.066,18.066,108.398,0
1553635469.097,0.977,32.715,12.207,16.113,63.477,0
1553635469.101,-2.930,40.039,16.602,23.438,-23.926,0
1553635469.105,13.672,38.086,20.508,27.344,-1.953,0
1553635469.109,16.113,39.062,18.555,25.879,80.078,0
1553635469.113,18.066,39.062,21.484,24.902,83.008,0
1553635469.117,29.297,39.551,24.414,11.719,106.934,0
1553635469.121,28.320,38.086,26.855,23.926,51.270,0
1553635469.124,21.484,33.203,33.203,40.527,24.902,0
1553635469.128,19.043,35.156,31.250,39.062,24.902,0
1553635469.132,28.809,40.527,25.391,38.086,48.340,0
1553635469.136,24.414,42.969,26.367,45.410,84.961,0
1553635469.140,12.695,43.945,26.855,41.992,30.762,0
1553635469.144,19.043,41.504,26.367,27.832,30.273,0
1553635469.148,23.438,37.598,26.855,30.273,62.012,0
1553635469.152,27.344,41.504,30.762,29.297,18.555,0
1553635469.156,29.785,45.898,33.203,24.414,66.406,0
1553635469.160,31.250,45.410,31.250,22.949,56.152,0
1553635469.164,30.762,43.945,28.809,29.785,15.625,0
1553635469.167,20.996,41.016,27.344,19.043,43.457,0
1553635469.171,12.695,33.691,26.367,18.555,40.039,0
1553635469.175,8.301,31.738,30.273,29.297,19.531,0
1553635469.179,0.977,38.574,31.250,8.789,2.441,0
1553635469.183,2.930,41.016,26.367,2.930,42.480,0
1553635469.187,0.000,41.992,26.855,12.207,68.359,0
1553635469.191,-3.418,44.434,30.273,18.066,49.316,0
1553635469.195,7.324,40.527,30.273,14.648,50.293,0
1553635469.199,19.531,36.621,30.762,14.648,70.312,0
1553635469.203,28.809,44.434,27.344,40.527,69.824,0
1553635469.206,35.645,47.363,28.320,43.945,66.895,0
1553635469.210,29.297,38.086,34.180,33.691,99.121,0
1553635469.214,24.414,38.086,31.250,36.621,43.457,0
1553635469.218,27.832,50.293,24.414,36.133,-21.973,0
1553635469.222,30.762,51.270,21.973,39.551,51.270,0
1553635469.226,20.508,49.805,26.367,34.180,80.078,0
1553635469.230,23.926,50.293,26.367,41.504,3.418,0
1553635469.234,36.133,46.387,26.855,52.246,-8.301,0
1553635469.238,28.320,40.527,33.203,30.273,33.691,0
1553635469.242,18.066,31.250,33.691,25.879,52.734,0
1553635469.246,18.555,33.203,28.320,30.273,83.984,0
1553635469.249,19.531,45.898,27.832,24.902,55.176,0
1553635469.253,2.441,42.480,24.902,22.461,49.316,0
1553635469.257,2.441,38.574,14.648,10.742,82.031,0
1553635469.261,7.812,39.551,15.625,11.719,83.008,0
1553635469.265,11.719,40.527,20.508,14.648,50.781,0
1553635469.269,10.742,39.551,21.484,12.207,40.039,0
1553635469.273,-0.977,38.574,27.344,25.879,13.672,0
1553635469.277,-2.441,41.016,32.227,13.672,44.434,0
1553635469.281,1.953,40.039,29.297,11.719,61.523,0
1553635469.285,11.719,38.086,28.809,41.016,20.996,0
1553635469.289,21.973,35.645,32.227,38.086,25.391,0
1553635469.292,25.391,35.645,29.297,33.691,47.363,0
1553635469.296,13.672,37.598,30.762,28.809,85.938,0
1553635469.300,11.719,37.109,35.156,16.113,97.168,0
1553635469.304,20.508,35.645,29.297,18.066,53.711,0
1553635469.308,20.020,36.621,23.926,30.273,34.180,0
1553635469.312,22.461,41.992,27.344,30.762,63.965,0
1553635469.316,19.531,41.992,30.273,24.902,84.473,0
1553635469.320,23.926,47.852,27.832,31.250,32.227,0
1553635469.324,29.785,52.246,20.508,42.480,-21.973,0
1553635469.328,23.926,44.922,18.066,38.574,42.480,0
1553635469.331,14.648,40.039,22.949,28.809,58.594,0
1553635469.335,16.602,36.621,26.367,19.531,-19.531,0
1553635469.339,20.508,35.645,25.391,20.020,-10.254,0
1553635469.343,16.602,40.039,20.020,23.438,30.762,0
1553635469.347,16.602,41.992,14.160,25.391,0.488,0
1553635469.351,24.902,44.434,18.555,33.203,-27.344,0
1553635469.355,23.438,38.086,21.484,37.109,18.066,0
1553635469.359,13.672,31.250,26.367,24.414,67.871,0
1553635469.363,9.277,39.062,34.668,18.066,41.504,0
1553635469.367,14.160,41.992,29.785,36.621,30.273,0
1553635469.371,21.484,37.109,24.414,30.273,75.195,0
1553635469.374,26.855,41.504,25.879,25.879,72.754,0
1553635469.378,23.926,45.410,26.367,30.762,59.082,0
1553635469.382,20.020,42.480,23.926,37.109,50.781,0
1553635469.386,14.160,40.039,27.344,37.109,42.480,0
1553635469.390,8.789,37.598,25.391,25.391,119.629,0
1553635469.394,23.438,41.016,20.020,22.461,108.887,0
1553635469.398,29.297,42.480,26.367,17.090,33.691,0
1553635469.402,22.461,36.621,28.809,19.043,18.066,0
1553635469.406,20.020,44.922,23.926,26.855,56.152,0
1553635469.410,14.648,46.875,23.926,24.414,85.449,0
1553635469.414,17.578,47.363,24.902,26.367,52.246,0
1553635469.417,25.879,51.270,27.344,34.668,43.457,0
1553635469.421,16.602,43.457,27.344,40.527,25.879,0
1553635469.425,2.930,42.969,22.949,24.902,66.895,0
1553635469.429,3.906,43.457,28.809,8.789,81.543,0
1553635469.433,13.672,40.039,36.621,24.902,20.996,0
1553635469.437,19.043,37.598,40.039,25.391,83.496,0
1553635469.441,3.418,37.109,41.504,24.414,72.266,0
1553635469.445,1.953,36.133,39.551,31.250,-2.930,0
1553635469.449,8.789,31.738,40.039,24.902,17.578,0
1553635469.453,1.953,26.855,38.574,26.367,41.992,0
1553635469.456,8.789,23.438,35.156,38.086,43.945,0
1553635469.460,19.531,27.344,31.738,39.551,80.078,0
1553635469.464,8.301,30.273,33.691,42.480,123.047,0
1553635469.468,0.977,26.855,35.156,40.039,27.832,0
1553635469.472,10.254,23.926,32.227,33.691,-48.340,0
1553635469.476,20.020,29.297,35.645,36.621,-33.691,0
1553635469.480,20.508,34.668,41.016,35.645,-0.977,0
1553635469.484,11.719,33.691,35.645,23.926,51.270,0
1553635469.488,8.301,33.203,30.273,20.996,25.879,0
1553635469.492,4.883,33.691,31.250,22.949,11.719,0
1553635469.496,7.812,35.645,27.832,15.137,23.438,0
1553635469.499,4.883,34.668,24.902,25.879,25.391,0
1553635469.503,-5.371,31.250,22.949,35.645,29.785,0
1553635469.507,-1.953,31.738,26.855,35.645,6.836,0
1553635469.511,5.371,36.133,33.203,33.691,88.379,0
1553635469.515,4.395,37.109,29.785,31.738,46.387,0
1553635469.519,12.695,34.668,33.203,33.203,-4.883,0
1553635469.523,12.207,31.250,38.574,19.043,64.453,0
1553635469.527,3.418,30.273,34.180,10.742,25.391,0
1553635469.531,0.977,31.250,30.273,17.090,56.641,0
1553635469.535,-4.395,32.227,30.273,19.043,66.406,0
1553635469.539,5.371,36.133,36.133,10.254,48.828,0
1553635469.542,8.301,36.133,38.086,12.695,69.336,0
1553635469.546,4.395,37.598,32.715,28.809,43.457,0
1553635469.550,0.488,47.852,26.855,20.996,14.648,0
1553635469.554,0.000,45.410,23.926,12.695,19.043,0
1553635469.558,13.672,36.621,29.785,16.602,20.996,0
1553635469.562,7.812,40.527,33.203,17.090,41.016,0
1553635469.566,5.859,42.969,26.855,16.113,51.270,0
1553635469.570,16.113,45.898,24.902,9.277,-2.441,0
1553635469.574,3.418,46.875,26.367,4.395,-32.715,0
1553635469.578,4.883,41.992,23.926,6.836,32.715,0
1553635469.581,9.766,40.039,26.367,8.789,52.734,0
1553635469.585,0.000,38.086,26.855,10.254,1.465,0
1553635469.589,0.488,39.062,20.020,1.465,-17.578,0
1553635469.593,-1.465,39.551,18.555,2.930,-17.578,0
1553635469.597,-5.859,38.086,28.320,25.391,37.109,0
1553635469.601,4.883,45.898,33.203,2.441,90.820,0
1553635469.605,6.348,48.828,28.320,1.465,44.922,0
1553635469.609,-1.953,46.387,31.250,22.949,32.227,0
1553635469.613,6.836,37.109,28.809,15.137,113.770,0
1553635469.617,3.906,29.297,20.996,4.883,47.363,0
1553635469.621,-7.812,41.504,17.090,3.418,5.371,0
1553635469.624,7.324,48.828,17.578,24.902,61.035,0
1553635469.628,9.766,44.922,28.320,23.926,78.125,0
1553635469.632,-3.906,41.992,38.086,9.277,56.152,0
1553635469.636,-19.531,39.062,37.109,14.648,-8.789,0
1553635469.640,-13.184,39.551,29.297,17.090,4.883,0
1553635469.644,-3.418,36.621,27.832,10.742,95.215,0
1553635469.648,-7.812,33.203,32.715,22.461,44.434,0
1553635469.652,-9.766,32.715,32.227,20.508,21.973,0
1553635469.656,-18.066,32.227,31.738,9.277,70.801,0
1553635469.660,-12.207,32.227,31.738,13.672,62.012,0
1553635469.664,-1.465,35.645,28.320,19.043,67.871,0
1553635469.667,5.859,37.598,32.715,20.508,109.375,0
1553635469.671,12.695,35.645,36.133,20.996,99.121,0
1553635469.675,9.277,38.086,31.250,18.555,33.691,0
1553635469.679,3.418,44.434,28.320,27.832,72.266,0
1553635469.683,12.207,39.551,30.273,33.203,64.453,0
1553635469.687,15.137,29.785,34.180,31.250,42.480,0
1553635469.691,-0.488,33.203,36.621,9.277,42.480,0
1553635469.695,6.836,38.574,35.156,13.184,3.418,0
1553635469.699,11.719,40.039,34.668,44.434,-27.832,0
1553635469.703,4.395,42.969,31.738,20.508,5.371,0
1553635469.706,12.207,48.828,29.785,20.996,60.547,0
1553635469.710,11.719,49.316,24.902,28.320,60.547,0
1553635469.714,4.883,47.363,27.832,28.809,46.875,0
1553635469.718,3.418,45.898,33.691,26.855,63.965,0
1553635469.722,4.395,41.504,31.250,21.973,56.641,0
1553635469.726,13.184,44.434,33.203,29.785,-18.066,0
1553635469.730,21.973,41.992,33.691,36.621,-48.340,0
1553635469.734,15.137,35.645,28.809,36.621,47.852,0
1553635469.738,15.625,34.668,23.926,35.645,82.520,0
1553635469.742,5.859,39.551,33.203,34.180,45.898,0
1553635469.746,-0.488,45.898,38.574,27.344,55.664,0
1553635469.749,8.301,44.434,32.715,23.926,56.152,0
1553635469.753,11.230,44.922,31.738,27.344,-3.418,0
1553635469.757,15.625,46.387,29.785,26.855,-10.742,0
1553635469.761,17.578,49.316,25.879,28.320,3.418,0
1553635469.765,11.230,43.457,27.832,26.367,32.227,0
1553635469.769,12.695,33.203,34.668,19.531,-15.137,0
1553635469.773,16.602,38.086,37.109,36.133,-1.465,0
1553635469.777,18.555,44.922,29.785,35.645,9.277,0
1553635469.781,13.672,49.805,25.879,18.555,51.270,0
1553635469.785,21.484,52.734,20.996,20.020,103.516,0
1553635469.789,24.902,47.363,20.996,12.207,61.035,0
1553635469.792,14.648,40.527,20.020,15.137,56.641,0
1553635469.796,7.812,36.621,20.508,14.160,53.223,0
1553635469.800,5.859,31.250,29.297,12.207,29.785,0
1553635469.804,18.555,34.668,23.438,26.367,30.762,0
1553635469.808,25.391,41.992,14.648,21.484,90.820,0
1553635469.812,15.137,49.316,14.648,22.461,74.219,0
1553635469.816,11.719,57.617,11.719,32.227,-40.527,0
1553635469.820,23.438,61.035,12.207,26.367,-19.531,0
1553635469.824,22.461,58.105,18.555,23.438,30.273,0
1553635469.828,19.043,56.152,18.555,25.879,18.066,0
1553635469.831,20.508,55.176,15.137,29.785,18.555,0
1553635469.835,13.184,38.574,12.207,29.297,42.969,0
1553635469.839,15.625,31.250,15.625,10.742,78.125,0
1553635469.843,24.414,45.410,25.391,20.508,83.008,0
1553635469.847,8.789,57.129,20.996,10.254,24.414,0
1553635469.851,15.137,58.105,15.137,3.418,15.137,0
1553635469.855,37.109,52.246,18.555,32.715,94.727,0
1553635469.859,25.879,50.781,16.602,22.949,76.172,0
1553635469.863,27.344,51.270,8.789,19.043,39.551,0
1553635469.867,41.992,41.992,0.488,19.531,-4.883,0
1553635469.871,28.809,40.039,-2.441,14.648,41.504,0
1553635469.874,20.508,40.039,10.742,28.809,102.539,0
1553635469.878,21.484,36.133,29.785,42.480,80.566,0
1553635469.882,30.273,48.828,35.645,63.965,25.879,0
1553635469.886,21.484,56.641,27.832,53.711,51.270,0
1553635469.890,20.020,51.270,31.250,10.254,68.848,0
1553635469.894,28.320,47.852,34.668,18.555,26.367,0
1553635469.898,27.832,46.387,23.926,50.781,66.895,0
1553635469.902,20.508,45.898,25.879,43.945,15.625,0
1553635469.906,24.902,43.945,25.391,49.316,-11.230,0
1553635469.910,20.508,39.551,21.973,43.945,28.809,0
1553635469.914,20.996,35.645,30.762,19.531,63.477,0
1553635469.917,39.551,34.668,33.691,8.301,69.824,0
1553635469.921,41.992,46.875,23.926,23.926,-4.395,0
1553635469.925,26.855,55.176,17.578,56.152,32.227,0
1553635469.929,42.480,57.129,18.555,48.828,63.965,0
1553635469.933,26.367,57.617,11.719,27.832,84.473,0
1553635469.937,9.766,43.457,20.996,38.086,79.102,0
1553635469.941,22.949,37.598,31.250,40.039,81.543,0
1553635469.945,7.812,42.480,30.273,22.949,72.266,0
1553635469.949,0.488,48.340,26.367,4.395,41.992,0
1553635469.953,20.508,46.875,17.578,15.137,26.367,0
1553635469.956,36.621,40.527,17.090,19.531,63.965,0
1553635469.960,10.254,33.203,12.695,-19.531,118.652,0
1553635469.964,1.465,34.180,14.648,-5.371,-9.766,0
1553635469.968,7.812,39.062,23.438,40.527,-30.273,0
1553635469.972,4.395,41.992,12.207,31.250,32.715,0
1553635469.976,9.277,36.621,12.207,39.062,51.270,0
1553635469.980,18.066,29.785,24.414,32.715,16.602,0
1553635469.984,23.438,29.297,28.320,12.695,20.508,0
1553635469.988,10.742,33.203,28.809,5.859,25.879,0
1553635469.992,-1.465,42.969,28.809,12.207,4.395,0
1553635469.996,-6.836,39.062,22.949,14.160,114.746,0
1553635469.999,4.883,35.156,14.648,5.371,67.871,0
1553635470.003,18.555,39.062,24.414,5.371,-10.742,0
1553635470.007,12.207,32.227,26.367,7.324,32.715,0
1553635470.011,5.859,33.691,22.461,8.301,67.871,0
1553635470.015,4.395,33.691,31.738,6.836,48.828,0
1553635470.019,6.348,39.062,32.227,2.930,76.660,0
1553635470.023,16.602,42.969,31.250,6.348,63.477,0
1553635470.027,11.230,35.645,32.715,18.066,69.824,0
1553635470.031,10.254,38.086,37.598,17.578,46.875,0
1553635470.035,19.043,37.109,30.273,11.719,53.223,0
1553635470.039,10.254,37.109,22.461,7.324,126.465,0
1553635470.042,-2.930,37.598,26.367,0.488,78.125,0
1553635470.046,7.812,39.062,28.320,-13.184,-11.230,0
1553635470.050,10.742,40.527,33.203,-18.066,126.465,0
1553635470.054,-0.488,33.691,32.227,6.836,158.203,0
1553635470.058,-27.344,35.156,38.086,0.000,50.781,0
1553635470.062,-39.551,40.039,39.062,3.418,54.688,0
1553635470.066,-33.203,48.340,30.273,-9.277,46.387,0
1553635470.070,-38.574,45.898,38.574,-54.199,36.621,0
1553635470.074,-43.457,37.598,32.715,-62.988,20.508,0
1553635470.078,-41.016,33.203,21.973,-52.246,68.359,0
1553635470.081,-40.527,26.367,35.645,-41.992,87.891,0
1553635470.085,-41.016,33.691,47.852,-32.227,0.977,0
1553635470.089,-71.289,29.785,51.758,-35.156,66.406,0
1553635470.093,-76.172,33.203,49.805,-41.016,105.957,0
1553635470.097,-33.203,58.105,41.992,-22.461,67.871,0
1553635470.101,-39.551,56.152,36.621,-19.043,27.344,0
1553635470.105,-44.922,47.852,27.832,-38.574,8.789,0
1553635470.109,-29.785,45.898,28.809,-25.391,-5.371,0
1553635470.113,-0.977,55.176,31.738,-12.695,24.902,0
1553635470.117,-6.836,60.547,37.109,-1.953,94.727,0
1553635470.121,-19.043,53.223,36.133,16.113,42.480,0
1553635470.124,-7.324,46.875,35.156,-1.465,1.953,0
1553635470.128,-1.953,41.992,37.109,9.766,10.254,0
1553635470.132,12.695,37.109,25.391,8.789,-14.648,0
1553635470.136,-7.812,36.621,21.484,-8.301,35.645,0
1553635470.140,-8.789,37.598,20.996,20.996,28.809,0
1553635470.144,19.531,26.855,23.438,35.645,30.273,0
1553635470.148,25.879,28.809,33.691,46.875,46.875,0
1553635470.152,16.113,34.180,33.691,45.898,51.758,0
1553635470.156,20.020,29.785,27.832,32.715,78.125,0
1553635470.160,27.344,31.250,29.297,28.320,91.309,0
1553635470.164,24.414,36.133,22.461,39.551,69.336,0
1553635470.167,25.391,36.621,16.602,40.039,-3.418,0
1553635470.171,18.555,41.016,29.297,42.969,17.578,0
1553635470.175,11.230,32.715,33.203,42.969,48.340,0
1553635470.179,21.484,22.461,28.320,50.293,21.484,0
1553635470.183,16.602,22.949,34.180,38.574,33.203,0
1553635470.187,17.090,27.832,32.715,41.504,45.898,0
1553635470.191,28.809,32.715,24.902,55.176,98.145,0
1553635470.195,8.789,40.039,20.020,31.250,48.828,0
1553635470.199,32.227,40.527,20.996,18.555,-4.883,0
1553635470.203,48.340,36.133,16.602,24.902,79.102,0
1553635470.206,30.762,35.156,20.508,40.039,35.645,0
1553635470.210,34.668,39.551,33.691,41.504,-10.742,0
1553635470.214,34.180,37.598,38.574,34.180,25.391,0
1553635470.218,29.785,35.645,30.273,27.832,69.336,0
1553635470.222,18.555,33.203,24.902,38.086,42.969,0
1553635470.226,12.207,32.715,20.020,36.621,29.785,0
1553635470.230,34.668,34.668,12.695,34.668,29.297,0
1553635470.234,38.086,37.109,10.254,43.945,57.617,0
1553635470.238,23.926,51.270,8.789,33.691,84.473,0
1553635470.242,22.949,45.898,13.184,23.438,28.809,0
1553635470.246,40.527,37.109,10.742,21.973,-12.695,0
1553635470.249,16.113,39.062,10.742,-1.953,25.391,0
1553635470.253,1.953,30.273,16.602,-7.324,33.203,0
1553635470.257,13.672,26.855,20.508,22.461,-36.133,0
1553635470.261,8.301,32.715,19.531,16.113,-24.414,0
1553635470.265,27.344,37.598,17.578,20.508,36.133,0
1553635470.269,37.109,43.457,13.184,41.016,26.367,0
1553635470.273,27.832,43.457,12.207,39.551,54.688,0
1553635470.277,14.648,40.527,16.113,28.809,52.246,0
1553635470.281,14.160,37.598,14.160,17.578,29.297,0
1553635470.285,24.902,35.645,21.484,29.297,49.316,0
1553635470.289,18.066,33.203,25.879,24.414,65.430,0
1553635470.292,13.184,25.391,23.926,19.043,105.957,0
1553635470.296,8.301,28.809,24.902,17.090,58.594,0
1553635470.300,9.766,40.527,39.551,34.668,17.578,0
1553635470.304,15.137,33.691,37.598,26.367,112.305,0
1553635470.308,21.973,19.531,23.438,27.832,66.406,0
1553635470.312,17.090,31.250,22.461,37.598,13.184,0
1553635470.316,15.137,44.434,31.738,24.414,73.242,0
1553635470.320,16.602,36.133,32.227,14.160,98.145,0
1553635470.324,14.648,33.691,36.133,11.230,92.285,0
1553635470.328,32.715,41.992,34.668,38.086,47.852,0
1553635470.331,22.461,44.434,23.926,27.344,51.270,0
1553635470.335,27.344,44.922,18.555,12.207,68.848,0
1553635470.339,18.555,38.574,24.414,23.926,-10.742,0
1553635470.343,14.160,34.668,27.832,19.531,7.812,0
1553635470.347,26.367,37.598,24.902,13.672,59.082,0
1553635470.351,6.348,33.691,23.926,27.832,44.434,0
1553635470.355,14.648,33.691,26.367,31.738,64.941,0
1553635470.359,14.648,34.668,27.832,20.508,40.527,0
1553635470.363,0.977,26.855,19.531,25.879,0.000,0
1553635470.367,16.602,35.156,20.508,36.621,-4.395,0
1553635470.371,16.602,37.109,26.855,31.250,20.508,0
1553635470.374,6.836,25.391,25.879,27.832,9.766,0
1553635470.378,2.930,35.156,20.508,18.555,24.902,0
1553635470.382,-0.977,44.434,23.438,20.020,48.828,0
1553635470.386,0.977,45.898,27.832,8.301,-21.484,0
1553635470.390,-1.953,54.688,24.902,13.184,-5.371,0
1553635470.394,-25.391,54.199,29.297,34.180,76.172,0
1553635470.398,-4.395,53.223,37.109,-2.930,87.402,0
1553635470.402,15.625,48.828,30.273,15.625,34.668,0
1553635470.406,-6.836,41.992,28.320,29.297,18.066,0
1553635470.410,-0.488,35.645,24.902,13.672,52.246,0
1553635470.414,6.348,30.273,20.020,24.902,65.430,0
1553635470.417,-1.465,34.668,23.926,16.602,66.895,0
1553635470.421,-28.809,36.133,27.344,1.465,69.336,0
1553635470.425,-22.461,36.621,29.785,-0.488,21.973,0
1553635470.429,-0.488,35.156,29.297,10.742,4.883,0
1553635470.433,-19.531,31.250,24.414,-4.883,82.520,0
1553635470.437,-9.277,35.156,20.996,6.348,70.801,0
1553635470.441,-1.465,41.016,27.832,33.691,34.180,0
1553635470.445,-17.090,36.133,37.598,26.367,27.832,0
1553635470.449,7.324,36.133,35.645,20.508,46.875,0
1553635470.453,5.859,33.203,39.551,29.785,50.781,0
1553635470.456,-0.488,32.715,33.691,31.738,95.215,0
1553635470.460,15.625,32.715,31.250,24.414,101.074,0
1553635470.464,-2.441,35.645,35.645,21.973,49.805,0
1553635470.468,-18.555,40.039,27.832,16.113,52.734,0
1553635470.472,-3.906,36.133,25.391,16.113,69.824,0
1553635470.476,-6.348,37.109,28.320,14.648,63.477,0
1553635470.480,-8.301,39.551,27.832,7.812,67.383,0
1553635470.484,4.883,35.645,31.250,20.020,104.004,0
1553635470.488,-2.930,28.809,34.668,14.160,106.445,0
1553635470.492,-22.949,23.926,23.926,0.977,49.805,0
1553635470.496,-0.488,20.020,19.043,-7.812,39.551,0
1553635470.499,0.000,38.086,31.738,-15.625,65.430,0
1553635470.503,-20.020,53.223,33.691,-8.789,43.457,0
1553635470.507,-34.668,48.828,40.527,-7.324,-0.488,0
1553635470.511,-51.270,51.270,50.293,-15.625,37.598,0
1553635470.515,-63.965,39.062,37.598,-23.926,47.363,0
1553635470.519,-40.527,32.715,33.691,-11.230,-33.203,0
1553635470.523,-14.160,43.457,36.133,-20.508,-27.832,0
1553635470.527,-17.090,45.410,28.809,-14.648,-4.883,0
1553635470.531,-3.418,33.691,35.645,18.066,43.457,0
1553635470.535,1.953,40.527,48.340,20.508,34.180,0
1553635470.539,2.441,60.547,40.039,9.766,-14.160,0
1553635470.542,-17.090,57.617,31.738,8.301,58.105,0
1553635470.546,-20.020,49.316,31.738,-18.066,59.082,0
1553635470.550,9.766,43.945,27.832,-3.906,32.715,0
1553635470.554,18.555,47.363,25.391,31.738,89.844,0
1553635470.558,9.277,43.945,29.785,24.902,150.879,0
1553635470.562,12.695,39.062,38.574,19.043,83.008,0
1553635470.566,34.180,44.922,32.715,9.766,-16.602,0
1553635470.570,34.668,44.922,29.297,36.621,27.832,0
1553635470.574,33.203,39.551,35.645,53.711,74.707,0
1553635470.578,34.180,36.133,31.250,28.809,81.543,0
1553635470.581,27.832,39.062,26.367,31.738,48.828,0
1553635470.585,28.809,36.621,29.785,41.504,102.539,0
1553635470.589,6.836,31.250,24.902,39.551,85.449,0
1553635470.593,15.137,31.250,17.578,51.758,15.625,0
1553635470.597,43.945,33.203,20.020,40.039,12.207,0
1553635470.601,17.578,32.715,28.809,35.156,4.883,0
1553635470.605,16.602,33.203,30.762,32.715,58.105,0
1553635470.609,16.602,36.621,21.484,10.742,77.637,0
1553635470.613,8.301,34.668,25.391,40.527,-12.695,0
1553635470.617,5.859,32.715,29.785,56.152,-0.977,0
1553635470.621,16.602,27.344,22.461,43.945,60.547,0
1553635470.624,16.602,30.762,14.160,21.973,55.176,0
1553635470.628,6.836,31.738,16.602,20.508,37.598,0
1553635470.632,15.137,33.691,22.949,35.645,82.520,0
1553635470.636,17.578,37.109,24.414,15.137,34.180,0
1553635470.640,23.926,33.203,19.531,5.371,-20.020,0
1553635470.644,27.344,32.227,26.855,33.691,28.809,0
1553635470.648,27.832,35.156,32.227,41.016,-23.438,0
1553635470.652,20.020,33.691,26.855,29.785,11.719,0
1553635470.656,4.883,39.551,24.902,43.945,75.195,0
1553635470.660,21.973,42.969,26.367,32.227,42.480,0
1553635470.664,38.574,41.016,27.344,9.766,53.711,0
1553635470.667,33.691,42.480,25.879,35.156,52.734,0
1553635470.671,44.922,40.527,27.832,49.316,56.152,0
1553635470.675,30.762,38.574,21.973,40.527,72.754,0
1553635470.679,22.949,40.039,17.578,41.016,24.414,0
1553635470.683,36.621,41.016,20.508,26.855,1.465,0
1553635470.687,31.250,35.156,22.949,39.551,-9.766,0
1553635470.691,8.301,30.273,22.461,46.387,-7.324,0
1553635470.695,2.930,34.668,24.902,25.391,23.438,0
1553635470.699,8.301,29.785,25.879,14.648,27.344,0
1553635470.703,24.902,27.832,27.832,47.363,35.156,0
1553635470.706,36.621,33.203,30.273,55.176,52.734,0
1553635470.710,21.973,33.203,30.273,10.254,39.551,0
1553635470.714,14.648,37.598,27.344,10.254,33.203,0
1553635470.718,-2.441,35.156,22.461,18.066,-11.230,0
1553635470.722,8.301,27.344,16.113,29.297,-50.293,0
1553635470.726,0.488,31.250,20.020,37.109,14.160,0
1553635470.730,-11.719,40.039,26.367,21.484,34.180,0
1553635470.734,13.184,39.062,22.461,31.250,6.836,0
1553635470.738,8.301,33.691,28.320,37.598,69.336,0
1553635470.742,12.695,30.273,32.227,47.852,85.449,0
1553635470.746,7.812,34.180,24.902,34.668,47.363,0
1553635470.749,1.465,38.086,20.996,21.484,81.055,0
1553635470.753,28.809,37.109,20.020,32.715,38.574,0
1553635470.757,25.391,36.133,25.879,9.766,68.848,0
1553635470.761,19.043,36.621,29.785,16.113,61.523,0
1553635470.765,23.438,29.785,22.461,47.852,26.367,0
1553635470.769,10.742,24.902,25.391,57.129,76.172,0
1553635470.773,18.066,36.621,24.414,25.391,64.453,0
1553635470.777,29.785,43.457,24.414,15.625,17.578,0
1553635470.781,27.344,42.480,37.109,29.297,33.203,0
1553635470.785,0.977,37.598,35.156,41.504,70.801,0
1553635470.789,10.254,36.133,23.926,37.598,91.797,0
1553635470.792,32.715,34.180,30.273,43.457,50.293,0
1553635470.796,11.230,31.250,30.762,39.551,44.922,0
1553635470.800,-0.977,33.691,30.762,29.297,59.082,0
1553635470.804,13.672,44.434,28.320,29.785,19.043,0
1553635470.808,8.301,41.504,22.461,31.250,37.109,0
1553635470.812,-1.465,41.504,24.414,46.875,100.586,0
1553635470.816,15.137,46.387,21.484,41.992,84.961,0
1553635470.820,20.020,32.715,25.879,29.785,23.438,0
1553635470.824,-4.883,28.809,26.855,32.715,39.551,0
1553635470.828,0.488,30.762,25.879,15.137,69.336,0
1553635470.831,8.789,31.738,28.320,26.855,0.977,0
1553635470.835,9.277,38.086,28.320,41.992,18.555,0
1553635470.839,16.602,39.062,31.738,25.391,46.387,0
1553635470.843,14.160,42.969,33.203,16.602,-1.953,0
1553635470.847,15.625,43.945,29.785,31.738,36.621,0
1553635470.851,18.555,33.691,28.809,43.945,36.133,0
1553635470.855,12.695,30.762,32.227,40.039,6.348,0
1553635470.859,20.508,37.109,29.297,26.367,-4.883,0
1553635470.863,21.973,38.574,31.738,16.113,0.977,0
1553635470.867,15.625,39.062,35.645,19.531,23.438,0
1553635470.871,22.461,40.527,28.320,30.762,-25.879,0
1553635470.874,26.855,38.086,25.391,36.621,8.789,0
1553635470.878,24.902,37.598,29.297,20.508,44.434,0
1553635470.882,15.625,40.039,27.832,35.645,70.801,0
1553635470.886,18.555,39.551,28.320,51.758,111.328,0
1553635470.890,27.832,41.016,33.203,29.297,-3.906,0
1553635470.894,17.578,34.180,27.832,25.391,-4.883,0
1553635470.898,14.648,27.344,24.414,26.855,35.156,0
1553635470.902,22.949,34.668,34.668,23.438,20.020,0
1553635470.906,16.113,41.016,38.574,26.855,50.781,0
1553635470.910,8.789,37.109,36.621,27.832,23.926,0
1553635470.914,16.113,37.109,34.668,34.180,62.012,0
1553635470.917,18.066,27.832,33.203,44.922,46.387,0
1553635470.921,17.090,24.414,34.668,45.410,-3.418,0
1553635470.925,24.902,39.062,28.809,38.574,8.301,0
1553635470.929,24.414,39.551,25.879,28.320,38.086,0
1553635470.933,18.555,34.180,27.832,37.109,66.895,0
1553635470.937,15.137,32.227,23.438,33.203,85.938,0
1553635470.941,10.254,29.785,25.391,25.879,43.945,0
1553635470.945,15.625,37.598,23.926,37.109,18.555,0
1553635470.949,19.043,35.645,23.926,28.809,80.566,0
1553635470.953,20.020,36.133,28.809,25.879,144.531,0
1553635470.956,18.066,42.969,26.367,27.832,34.180,0
1553635470.960,22.949,37.109,26.855,17.578,-15.625,0
1553635470.964,10.742,32.227,24.902,24.414,44.434,0
1553635470.968,5.371,34.668,21.484,33.203,17.578,0
1553635470.972,29.297,39.062,28.809,38.574,16.113,0
1553635470.976,23.438,39.062,34.180,12.207,39.062,0
1553635470.980,9.766,32.227,29.297,9.766,54.199,0
1553635470.984,8.301,22.461,23.438,31.738,14.648,0
1553635470.988,5.371,23.926,28.320,27.832,68.848,0
1553635470.992,12.207,38.574,29.785,17.578,122.559,0
1553635470.996,5.371,38.574,22.949,4.883,106.934,0
1553635470.999,4.395,34.180,17.090,8.301,82.520,0
1553635471.003,17.090,36.133,23.438,21.484,49.805,0
1553635471.007,14.648,36.133,32.227,19.531,76.660,0
1553635471.011,5.371,37.109,32.227,3.906,55.176,0
1553635471.015,1.465,39.551,31.250,9.766,7.812,0
1553635471.019,11.230,37.109,30.273,15.137,-4.395,0
1553635471.023,19.043,30.273,33.691,8.789,18.066,0
1553635471.027,12.695,34.180,29.297,10.254,22.461,0
1553635471.031,13.672,38.086,29.785,20.996,16.113,0
1553635471.035,18.066,42.969,36.133,30.273,40.527,0
1553635471.039,15.137,43.457,33.691,17.090,90.332,0
1553635471.042,19.043,36.621,32.715,9.277,38.086,0
1553635471.046,16.113,40.527,36.133,13.672,13.672,0
1553635471.050,16.602,41.504,38.086,11.230,92.773,0
1553635471.054,21.484,37.109,37.598,13.672,51.270,0
1553635471.058,12.207,34.180,37.598,20.508,12.695,0
1553635471.062,10.742,32.715,31.250,27.344,19.043,0
1553635471.066,13.184,31.738,22.949,29.785,19.043,0
1553635471.070,6.836,37.109,20.020,22.949,50.293,0
1553635471.074,3.418,32.227,28.809,15.625,63.965,0
1553635471.078,12.695,27.832,34.180,14.648,41.504,0
1553635471.081,16.602,35.645,32.715,20.020,66.406,0
1553635471.085,23.438,40.039,37.109,9.277,44.922,0
1553635471.089,24.902,41.504,36.621,3.906,4.395,0
1553635471.093,10.742,31.738,33.691,20.996,7.324,0
1553635471.097,8.789,30.762,20.996,11.230,18.066,0
1553635471.101,11.230,41.504,22.461,15.137,87.891,0
1553635471.105,9.766,43.457,35.645,-2.930,102.539,0
1553635471.109,3.906,42.969,38.086,-13.672,56.641,0
1553635471.113,1.953,42.969,37.598,21.973,22.461,0
1553635471.117,8.789,41.504,32.715,29.297,21.484,0
1553635471.121,13.184,41.016,34.180,20.020,6.348,0
1553635471.124,20.996,39.551,33.691,10.254,-14.160,0
1553635471.128,16.602,35.645,24.902,-1.953,50.781,0
1553635471.132,14.160,36.133,25.391,6.348,90.332,0
1553635471.136,20.020,38.574,24.414,17.090,42.969,0
1553635471.140,12.207,38.574,19.043,16.113,-1.953,0
1553635471.144,5.859,35.156,17.090,14.648,35.156,0
1553635471.148,2.930,41.016,24.414,8.789,77.148,0
1553635471.152,-7.324,43.457,28.809,5.859,11.230,0
1553635471.156,0.977,37.598,26.855,11.230,-8.789,0
1553635471.160,6.836,40.039,26.367,16.113,64.941,0
1553635471.164,5.859,41.992,24.902,8.301,71.777,0
1553635471.167,15.625,39.551,24.902,12.695,5.859,0
1553635471.171,16.113,39.062,25.391,15.625,27.832,0
1553635471.175,3.906,38.574,19.531,4.395,79.102,0
1553635471.179,-6.348,34.668,17.578,1.465,19.531,0
1553635471.183,1.465,37.598,24.414,22.949,15.625,0
1553635471.187,-0.977,38.574,22.949,-3.418,46.875,0
1553635471.191,-6.348,42.480,23.926,-11.230,124.512,0
1553635471.195,19.043,45.410,24.414,31.250,163.086,0
1553635471.199,28.320,44.434,19.531,21.973,109.863,0
1553635471.203,12.207,41.504,23.438,16.113,73.242,0
1553635471.206,-1.465,37.109,27.832,7.812,17.578,0
1553635471.210,2.441,33.691,32.715,17.578,-11.719,0
1553635471.214,4.883,33.203,36.621,29.297,24.414,0
1553635471.218,6.836,35.645,28.809,10.742,72.266,0
1553635471.222,6.348,33.691,30.762,6.348,66.406,0
1553635471.226,-2.441,32.715,31.738,20.020,21.484,0
1553635471.230,-3.418,37.109,26.855,20.020,-6.348,0
1553635471.234,5.859,38.086,24.414,6.348,6.348,0
1553635471.238,14.648,39.551,24.902,6.836,47.363,0
1553635471.242,8.301,39.551,27.344,13.672,31.250,0
1553635471.246,6.836,39.062,31.738,11.230,36.133,0
1553635471.249,8.301,41.504,32.715,13.184,76.172,0
1553635471.253,0.000,38.086,31.250,23.438,68.359,0
1553635471.257,-5.371,31.250,29.785,30.273,12.695,0
1553635471.261,0.000,29.785,30.273,6.836,19.531,0
1553635471.265,-10.742,28.320,29.785,-6.348,51.758,0
1553635471.269,-14.160,30.273,27.344,18.555,18.555,0
1553635471.273,-6.836,34.668,27.832,25.391,15.625,0
1553635471.277,-12.207,34.668,24.902,19.043,3.906,0
1553635471.281,-10.742,34.668,20.020,24.902,45.898,0
1553635471.285,-1.953,32.227,19.531,27.832,98.145,0
1553635471.289,-2.930,31.250,26.855,20.996,120.605,0
1553635471.292,-1.953,33.691,26.855,25.879,37.598,0
1553635471.296,0.000,37.109,25.879,26.367,47.363,0
1553635471.300,8.789,40.039,28.809,24.414,101.562,0
1553635471.304,23.926,43.457,25.391,23.438,31.250,0
1553635471.308,17.578,46.875,23.926,23.926,24.414,0
1553635471.312,10.254,41.992,26.367,17.090,67.383,0
1553635471.316,6.836,34.180,29.785,7.324,37.598,0
1553635471.320,5.371,34.668,23.438,2.930,7.812,0
1553635471.324,3.906,33.203,20.508,0.000,80.566,0
1553635471.328,3.418,34.180,19.531,2.441,70.801,0
1553635471.331,13.184,38.574,23.926,14.160,4.395,0
1553635471.335,10.742,36.133,25.391,16.602,-0.977,0
1553635471.339,8.789,35.156,21.484,18.555,34.668,0
1553635471.343,10.742,40.039,23.438,18.066,52.734,0
1553635471.347,3.418,41.016,25.879,19.043,88.867,0
1553635471.351,9.766,26.367,30.762,24.902,78.613,0
1553635471.355,14.648,19.531,27.832,26.367,19.531,0
1553635471.359,-2.441,30.273,24.902,26.367,57.617,0
1553635471.363,-1.465,37.598,23.926,38.574,60.059,0
1553635471.367,15.137,38.086,25.879,35.645,29.785,0
1553635471.371,12.207,36.133,27.344,18.066,30.273,0
1553635471.374,9.277,33.691,21.484,25.391,54.199,0
1553635471.378,11.719,36.621,26.367,21.973,42.969,0
1553635471.382,11.230,35.645,29.297,21.484,27.344,0
1553635471.386,15.137,28.320,20.996,1.465,-15.625,0
1553635471.390,17.090,25.391,17.578,-1.953,3.906,0
1553635471.394,28.809,34.668,20.020,34.180,71.289,0
1553635471.398,44.434,49.805,17.578,30.273,44.434,0
1553635471.402,37.109,46.387,16.113,25.879,28.809,0
1553635471.406,22.949,39.551,17.090,22.949,1.465,0
1553635471.410,19.043,39.551,18.555,22.461,-30.273,0
1553635471.414,21.973,39.551,20.996,20.996,6.348,0
1553635471.417,16.602,40.527,20.996,8.301,53.711,0
1553635471.421,13.184,36.621,18.066,14.160,69.336,0
1553635471.425,16.113,28.809,20.508,20.996,53.711,0
1553635471.429,19.531,31.250,24.414,22.949,37.109,0
1553635471.433,17.090,38.574,24.902,21.973,52.246,0
1553635471.437,13.184,36.621,23.438,23.926,51.270,0
1553635471.441,9.766,36.133,31.250,35.645,33.691,0
1553635471.445,0.977,37.109,34.180,26.367,28.320,0
1553635471.449,1.953,36.621,25.391,21.973,81.543,0
1553635471.453,5.371,34.668,23.926,29.297,86.914,0
1553635471.456,1.953,33.203,33.691,25.391,37.598,0
1553635471.460,2.441,36.621,30.762,16.602,23.438,0
1553635471.464,9.766,34.668,23.438,30.273,30.762,0
1553635471.468,9.277,33.203,22.461,30.273,25.879,0
1553635471.472,-0.488,40.039,21.484,12.207,-3.906,0
1553635471.476,11.230,43.457,19.531,18.066,17.578,0
1553635471.480,22.461,47.363,17.578,16.113,34.668,0
1553635471.484,12.207,46.875,19.043,4.395,46.387,0
1553635471.488,11.230,46.387,16.113,4.395,88.867,0
1553635471.492,14.648,45.898,13.672,5.859,33.691,0
1553635471.496,16.113,45.410,18.066,14.648,34.668,0
1553635471.499,26.367,44.922,17.090,19.531,93.262,0
1553635471.503,30.273,42.969,10.742,4.395,24.414,0
1553635471.507,26.855,45.898,12.695,22.461,43.945,0
1553635471.511,38.086,43.457,9.766,34.668,67.383,0
1553635471.515,37.109,41.016,7.812,32.715,-27.832,0
1553635471.519,22.949,37.598,20.508,36.133,1.953,0
1553635471.523,21.484,44.434,24.902,39.062,61.035,0
1553635471.527,14.648,48.340,23.926,41.992,71.777,0
1553635471.531,10.254,39.551,25.391,35.156,37.109,0
1553635471.535,13.672,41.504,22.461,28.809,59.570,0
1553635471.539,10.254,42.480,20.508,34.180,98.145,0
1553635471.542,8.301,34.668,23.438,24.414,81.055,0
1553635471.546,17.578,30.273,25.879,14.648,15.625,0
1553635471.550,7.324,31.738,26.855,16.113,20.996,0
1553635471.554,-2.930,32.227,34.180,20.996,39.062,0
1553635471.558,7.324,33.691,39.551,27.344,-5.859,0
1553635471.562,3.906,38.574,38.086,14.160,11.719,0
1553635471.566,4.395,39.551,37.109,22.461,54.199,0
1553635471.570,2.930,34.180,27.832,19.531,38.574,0
1553635471.574,-1.465,34.668,21.484,-2.441,23.438,0
1553635471.578,1.465,37.598,31.250,2.441,44.434,0
1553635471.581,7.812,37.109,35.156,2.930,14.648,0
1553635471.585,17.090,32.227,32.227,10.254,-4.883,0
1553635471.589,24.414,33.691,31.738,21.973,-26.367,0
1553635471.593,23.438,45.898,28.809,10.742,-22.461,0
1553635471.597,13.184,42.969,19.531,0.000,68.848,0
1553635471.601,20.020,39.062,20.508,13.184,70.312,0
1553635471.605,18.066,43.945,30.273,27.344,20.508,0
1553635471.609,-0.488,40.527,33.691,21.484,6.348,0
1553635471.613,-6.348,34.668,27.344,12.695,6.836,0
1553635471.617,-2.930,32.227,23.926,25.391,88.379,0
1553635471.621,1.465,31.250,28.809,22.461,115.723,0
1553635471.624,6.348,28.320,33.691,20.996,65.430,0
1553635471.628,-3.906,27.344,38.574,22.461,-40.527,0
1553635471.632,-19.531,31.250,45.898,14.160,-26.855,0
1553635471.636,-13.672,33.203,46.875,8.301,53.711,0
1553635471.640,-8.789,27.344,39.551,-3.418,38.086,0
1553635471.644,-9.277,29.297,42.969,-1.465,50.781,0
1553635471.648,-8.301,30.762,45.898,4.883,67.871,0
1553635471.652,-7.324,26.367,43.457,7.324,45.410,0
1553635471.656,-2.441,28.809,38.086,9.766,50.781,0
1553635471.660,11.719,36.133,33.691,10.254,76.660,0
1553635471.664,9.766,36.133,33.203,27.344,-5.371,0
1553635471.667,0.000,36.133,41.504,11.719,-2.441,0
1553635471.671,-5.859,34.668,46.875,2.930,75.195,0
1553635471.675,-2.441,26.855,45.410,24.414,50.293,0
1553635471.679,1.465,31.250,43.945,18.066,62.012,0
1553635471.683,5.371,38.086,40.039,19.531,99.121,0
1553635471.687,10.742,40.039,37.109,13.672,43.945,0
1553635471.691,14.160,37.598,28.320,5.859,-18.555,0
1553635471.695,20.508,32.715,18.555,14.648,-15.137,0
1553635471.699,16.602,31.738,16.113,20.508,7.324,0
1553635471.703,8.789,34.668,25.879,9.277,10.742,0
1553635471.706,10.742,37.598,34.668,11.719,14.648,0
1553635471.710,6.836,31.738,39.062,16.602,53.711,0
1553635471.714,-1.953,31.250,38.574,23.926,58.594,0
1553635471.718,2.441,37.598,34.180,34.180,28.320,0
1553635471.722,2.930,38.574,36.133,29.297,31.738,0
1553635471.726,9.766,35.645,31.738,17.090,37.598,0
1553635471.730,6.348,31.738,29.297,12.695,76.172,0
1553635471.734,5.371,31.738,35.645,22.949,87.402,0
1553635471.738,9.766,30.273,31.738,23.926,73.242,0
1553635471.742,4.883,26.367,27.344,24.414,41.992,0
1553635471.746,3.906,33.691,26.367,15.137,36.621,0
1553635471.749,0.977,41.992,26.855,5.371,-1.953,0
1553635471.753,9.766,43.945,22.949,27.832,3.906,0
1553635471.757,12.695,46.387,22.949,31.250,20.996,0
1553635471.761,9.766,44.434,32.715,18.555,25.879,0
1553635471.765,14.648,37.598,37.598,18.555,-25.391,0
1553635471.769,14.160,39.062,38.086,24.414,-18.066,0
1553635471.773,24.414,43.457,30.762,21.484,54.688,0
1553635471.777,21.484,30.762,15.625,16.602,25.879,0
1553635471.781,11.719,26.855,16.113,16.113,-14.160,0
1553635471.785,9.766,34.180,34.668,24.902,28.320,0
1553635471.789,7.324,41.504,42.969,20.996,104.980,0
1553635471.792,0.000,45.410,39.062,11.230,84.961,0
1553635471.796,-3.418,41.016,35.156,23.438,-3.906,0
1553635471.800,5.859,40.527,33.691,24.414,-17.090,0
1553635471.804,10.254,40.039,33.203,6.836,23.926,0
1553635471.808,12.695,38.574,21.484,1.465,33.691,0
1553635471.812,14.648,32.715,12.207,17.578,-1.465,0
1553635471.816,12.207,25.391,24.414,15.625,30.762,0
1553635471.820,12.207,30.762,31.250,2.930,20.020,0
1553635471.824,15.137,35.156,30.762,16.113,13.184,0
1553635471.828,0.488,36.133,30.762,1.465,86.426,0
1553635471.831,0.000,39.062,35.156,-12.207,47.363,0
1553635471.835,-2.930,35.645,36.133,1.953,19.043,0
1553635471.839,-4.883,33.203,30.273,0.488,53.711,0
1553635471.843,1.465,33.203,32.227,5.859,4.395,0
1553635471.847,-1.465,35.156,25.391,13.184,18.555,0
1553635471.851,4.883,31.738,19.043,22.949,90.820,0
1553635471.855,9.277,31.738,26.855,29.785,52.734,0
1553635471.859,11.719,37.598,31.738,22.461,75.684,0
1553635471.863,13.672,33.691,34.180,18.555,116.211,0
1553635471.867,17.090,34.180,32.227,22.461,76.172,0
1553635471.871,16.113,37.109,26.367,12.695,68.848,0
1553635471.874,11.719,36.621,19.531,9.277,75.195,0
1553635471.878,1.465,36.621,25.879,11.719,80.078,0
1553635471.882,8.789,37.598,24.902,5.371,33.691,0
1553635471.886,25.391,37.598,26.367,21.484,-26.367,0
1553635471.890,24.414,34.180,28.809,24.902,-34.180,0
1553635471.894,6.348,34.180,28.320,17.090,-10.742,0
1553635471.898,1.465,40.527,34.180,16.602,45.898,0
1553635471.902,9.277,41.992,34.668,16.602,0.977,0
1553635471.906,6.836,38.086,30.273,20.020,9.277,0
1553635471.910,4.395,38.574,24.902,8.789,50.293,0
1553635471.914,4.395,34.668,28.320,4.883,41.504,0
1553635471.917,10.254,37.109,27.344,17.578,63.477,0
1553635471.921,16.113,44.922,17.578,22.949,96.680,0
1553635471.925,27.344,44.434,22.461,14.648,111.328,0
1553635471.929,36.621,43.945,31.250,25.391,77.148,0
1553635471.933,23.926,45.410,33.691,34.180,7.812,0
1553635471.937,18.555,52.734,36.133,20.508,44.922,0
1553635471.941,21.484,50.781,38.574,20.020,61.035,0
1553635471.945,11.719,39.551,37.598,20.020,23.438,0
1553635471.949,15.137,34.180,38.086,29.785,35.156,0
1553635471.953,10.742,28.320,35.645,22.949,74.707,0
1553635471.956,13.672,27.344,29.297,18.066,80.078,0
1553635471.960,25.879,36.133,29.785,29.785,49.316,0
1553635471.964,8.789,34.668,27.832,24.414,47.363,0
1553635471.968,7.324,36.621,31.250,20.508,41.504,0
1553635471.972,14.648,45.898,38.086,23.926,20.508,0
1553635471.976,11.230,47.852,34.180,30.273,-8.301,0
1553635471.980,8.301,45.898,34.180,27.344,49.805,0
1553635471.984,9.277,41.992,37.109,27.832,41.016,0
1553635471.988,16.602,33.203,32.227,35.645,16.602,0
1553635471.992,6.836,32.715,28.809,23.438,46.875,0
1553635471.996,6.348,39.062,26.855,12.207,49.805,0
1553635471.999,13.672,39.551,25.391,12.695,95.703,0
1553635472.003,8.301,41.504,23.926,19.531,90.820,0
1553635472.007,8.301,47.363,22.949,30.273,33.691,0
1553635472.011,16.602,41.992,21.973,29.297,53.223,0
1553635472.015,16.113,40.527,19.531,11.230,96.191,0
1553635472.019,11.719,44.434,17.578,12.695,53.223,0
1553635472.023,11.230,43.945,18.555,25.391,-18.066,0
1553635472.027,11.230,43.457,20.996,26.855,20.508,0
1553635472.031,12.695,41.016,21.484,25.879,61.035,0
1553635472.035,11.230,42.480,21.484,17.090,46.387,0
1553635472.039,14.160,44.434,19.531,28.320,21.484,0
1553635472.042,11.719,43.457,20.020,37.109,23.438,0
1553635472.046,11.230,39.062,19.043,30.762,51.270,0
1553635472.050,12.695,34.180,16.602,25.879,91.309,0
1553635472.054,20.996,38.574,20.020,30.762,6.836,0
1553635472.058,17.090,43.457,22.461,30.273,14.160,0
1553635472.062,6.348,39.551,17.578,27.344,88.867,0
1553635472.066,18.066,37.598,16.113,33.691,36.621,0
1553635472.070,20.020,40.527,20.020,38.574,41.016,0
1553635472.074,21.484,41.504,19.531,39.062,43.457,0
1553635472.078,28.809,41.504,16.113,34.180,62.500,0
1553635472.081,31.250,42.969,20.996,32.715,96.191,0
1553635472.085,15.625,38.574,23.926,30.762,37.109,0
1553635472.089,10.254,32.715,20.020,22.949,-7.324,0
1553635472.093,17.578,39.062,22.461,20.996,9.277,0
1553635472.097,0.977,43.457,24.414,25.879,29.785,0
1553635472.101,1.953,41.992,23.438,26.855,62.988,0
1553635472.105,12.695,41.016,25.879,24.414,15.625,0
1553635472.109,11.230,41.504,25.879,24.414,42.969,0
1553635472.113,12.207,44.434,23.926,33.203,90.332,0
1553635472.117,17.578,46.875,28.320,29.297,23.438,0
1553635472.121,14.160,46.387,30.273,21.484,47.363,0
