timestamps,TP9,AF7,AF8,TP10,Right AUX,Marker0
1542904870.425,28.809,27.832,31.250,2.930,224.121,0
1542904870.429,9.766,23.926,30.762,4.883,169.434,0
1542904870.433,-12.695,27.344,27.344,-0.977,133.789,0
1542904870.437,1.465,28.320,27.832,0.977,116.699,0
1542904870.441,7.812,24.414,35.645,5.371,115.723,0
1542904870.445,6.348,24.902,34.180,7.812,118.164,0
1542904870.449,9.766,24.902,30.762,26.855,96.191,0
1542904870.453,21.973,24.414,30.273,21.973,67.383,0
1542904870.456,34.668,16.602,35.645,5.371,84.961,0
1542904870.460,40.039,14.160,36.133,29.297,93.262,0
1542904870.464,33.203,35.645,25.391,24.902,84.473,0
1542904870.468,7.324,46.875,24.902,-20.996,63.477,0
1542904870.472,-1.465,45.898,18.555,-15.625,53.223,0
1542904870.476,29.297,52.734,9.277,4.395,71.289,0
1542904870.480,20.508,49.805,21.484,-6.348,59.082,0
1542904870.484,13.184,46.387,25.391,11.719,33.203,0
1542904870.488,24.414,50.293,22.461,11.719,41.504,0
1542904870.492,23.438,47.852,29.297,-2.441,44.922,0
1542904870.496,12.695,46.387,29.785,3.906,14.160,0
1542904870.499,19.043,47.363,30.273,21.973,43.945,0
1542904870.503,39.062,43.457,32.227,23.438,67.383,0
1542904870.507,36.621,39.062,27.832,18.555,51.270,0
1542904870.511,19.531,37.598,28.320,21.973,17.578,0
1542904870.515,13.672,37.109,30.273,16.602,1.953,0
1542904870.519,2.441,36.133,30.762,15.137,6.348,0
1542904870.523,15.137,37.598,27.344,-0.977,-6.836,0
1542904870.527,27.832,41.504,23.926,3.906,2.930,0
1542904870.531,22.461,42.969,28.320,4.395,-12.207,0
1542904870.535,38.086,39.551,32.715,14.648,-24.902,0
1542904870.538,27.344,41.016,30.273,6.348,-7.812,0
1542904870.542,21.973,42.969,29.297,9.277,-14.648,0
1542904870.546,35.645,40.039,27.832,22.461,0.488,0
1542904870.550,20.020,36.133,25.879,5.859,11.230,0
1542904870.554,8.789,35.156,29.297,7.812,-18.555,0
1542904870.558,13.672,32.715,30.762,12.207,4.883,0
1542904870.562,15.137,30.273,29.785,-12.207,31.250,0
1542904870.566,15.625,34.180,26.855,2.930,-2.930,0
1542904870.570,25.879,32.715,28.320,14.160,3.418,0
1542904870.574,37.109,35.156,30.273,2.441,47.852,0
1542904870.578,39.551,38.086,27.344,12.695,41.016,0
1542904870.581,41.016,35.156,24.902,-0.488,22.949,0
1542904870.585,33.203,37.109,27.344,21.484,11.719,0
1542904870.589,19.043,37.109,28.320,20.996,24.902,0
1542904870.593,19.531,36.133,20.020,-16.602,37.109,0
1542904870.597,32.715,34.668,24.902,5.859,17.090,0
1542904870.601,13.672,33.691,33.691,27.344,-4.395,0
1542904870.605,10.742,32.715,30.273,6.836,8.789,0
1542904870.609,15.625,36.133,25.879,3.906,1.953,0
1542904870.613,15.625,39.062,28.320,10.254,8.301,0
1542904870.617,26.367,36.133,31.738,9.766,29.785,0
1542904870.621,35.645,31.738,34.180,27.344,13.184,0
1542904870.624,5.859,31.250,31.250,28.809,4.883,0
1542904870.628,0.488,33.203,25.391,1.953,0.488,0
1542904870.632,31.250,30.273,26.855,-4.395,-6.348,0
1542904870.636,27.832,29.785,30.762,19.531,-6.836,0
1542904870.640,30.273,37.598,29.297,19.043,7.812,0
1542904870.644,22.949,38.086,28.809,6.348,-1.953,0
1542904870.648,18.555,38.574,26.855,1.465,7.812,0
1542904870.652,34.180,40.527,22.949,9.766,75.684,0
1542904870.656,34.668,34.668,20.996,27.832,86.426,0
1542904870.660,43.457,31.250,19.043,43.945,70.312,0
1542904870.663,28.809,32.715,38.086,41.016,76.660,0
1542904870.667,-1.465,37.109,42.969,-13.184,90.332,0
1542904870.671,0.000,27.344,39.551,-16.113,98.633,0
1542904870.675,13.184,12.207,38.086,12.207,94.727,0
1542904870.679,6.836,10.742,38.574,12.207,103.027,0
1542904870.683,-3.906,9.766,47.363,10.742,97.168,0
1542904870.687,12.695,7.812,45.898,17.578,83.984,0
1542904870.691,-3.906,7.812,47.363,2.441,46.875,0
1542904870.695,-16.602,5.859,42.969,1.465,50.781,0
1542904870.699,-6.348,10.254,33.203,15.625,50.781,0
1542904870.703,-12.207,12.695,35.156,-1.465,34.668,0
1542904870.706,2.930,13.184,36.133,0.488,24.902,0
1542904870.710,16.602,15.137,31.738,14.160,28.809,0
1542904870.714,4.395,14.648,33.203,12.695,53.711,0
1542904870.718,2.441,12.695,36.133,7.324,63.477,0
1542904870.722,-10.742,18.555,35.645,-10.254,72.266,0
1542904870.726,-0.488,19.043,38.574,8.789,52.734,0
1542904870.730,19.043,18.066,40.039,19.531,-1.465,0
1542904870.734,6.348,20.996,41.016,6.836,10.742,0
1542904870.738,7.324,21.973,40.527,14.160,26.367,0
1542904870.742,3.418,23.926,33.203,7.812,13.672,0
1542904870.746,0.977,25.391,29.785,-9.766,-24.414,0
1542904870.749,-0.488,27.344,32.715,-4.883,-45.898,0
1542904870.753,-1.953,24.902,36.133,7.324,-26.855,0
1542904870.757,3.906,25.879,35.645,-2.441,-20.996,0
1542904870.761,4.395,27.832,32.227,-2.441,-39.062,0
1542904870.765,12.695,30.273,30.273,0.000,-77.637,0
1542904870.769,16.113,28.320,34.668,-15.625,-74.707,0
1542904870.773,1.465,24.902,34.180,-1.465,-70.801,0
1542904870.777,0.488,26.855,28.320,3.906,-76.660,0
1542904870.781,-6.348,29.297,28.809,-13.672,-72.754,0
1542904870.785,-15.625,32.227,30.762,6.348,-48.340,0
1542904870.788,-4.395,32.227,29.297,10.742,-12.695,0
1542904870.792,1.953,33.203,28.320,-5.859,-16.602,0
1542904870.796,-0.977,37.598,29.785,-3.418,-5.371,0
1542904870.800,16.113,40.527,30.762,-7.812,33.691,0
1542904870.804,22.461,40.039,32.227,1.465,38.086,0
1542904870.808,6.836,39.062,30.762,3.418,36.133,0
1542904870.812,4.395,40.039,27.832,-16.602,30.762,0
1542904870.816,22.461,40.527,29.297,-7.324,44.434,0
1542904870.820,16.602,41.016,30.273,-2.441,39.062,0
1542904870.824,17.090,42.480,30.762,-7.324,35.156,0
1542904870.828,32.227,44.434,27.832,-0.488,35.645,0
1542904870.831,13.672,42.969,27.344,-9.277,45.898,0
1542904870.835,21.484,42.480,31.738,-6.348,41.016,0
1542904870.839,31.738,44.922,30.762,11.719,34.180,0
1542904870.843,27.832,44.434,23.926,8.301,38.086,0
1542904870.847,45.898,39.062,12.207,16.602,19.531,0
1542904870.851,61.523,35.645,23.438,46.875,19.531,0
1542904870.855,27.832,37.598,45.410,18.555,30.273,0
1542904870.859,-1.953,36.133,42.480,-15.625,38.574,0
1542904870.863,28.809,28.809,33.203,27.832,71.777,0
1542904870.867,41.504,26.855,37.109,21.973,70.312,0
1542904870.871,33.691,18.066,42.969,-0.977,43.457,0
1542904870.874,50.781,12.207,42.480,29.297,99.121,0
1542904870.878,43.457,21.484,41.992,28.320,163.086,0
1542904870.882,30.762,24.414,40.039,24.414,135.742,0
1542904870.886,51.758,27.832,37.109,32.227,106.445,0
1542904870.890,46.387,33.203,29.785,18.066,118.164,0
1542904870.894,49.805,30.762,29.297,34.668,100.098,0
1542904870.898,75.684,26.367,33.691,38.086,48.340,0
1542904870.902,55.176,28.320,31.250,34.180,2.930,0
1542904870.906,46.875,30.273,32.227,35.645,-1.953,0
1542904870.910,82.031,29.785,34.180,28.320,30.273,0
1542904870.913,83.008,28.320,33.203,31.250,29.785,0
1542904870.917,53.223,30.273,33.203,25.391,13.184,0
1542904870.921,57.617,32.227,33.691,26.855,46.875,0
1542904870.925,69.824,35.156,32.715,46.387,47.363,0
1542904870.929,65.918,38.574,36.133,62.500,50.293,0
1542904870.933,61.523,41.016,36.133,39.551,118.164,0
1542904870.937,65.430,43.945,30.273,30.762,141.113,0
1542904870.941,73.730,41.992,30.273,45.410,141.602,0
1542904870.945,59.570,44.922,28.809,36.621,160.645,0
1542904870.949,59.570,43.945,27.344,16.113,208.496,0
1542904870.953,78.125,41.016,29.297,17.578,214.355,0
1542904870.956,74.219,43.945,31.250,43.457,219.727,0
1542904870.960,60.547,44.434,30.762,49.316,268.555,0
1542904870.964,73.730,50.293,28.320,30.762,308.594,0
1542904870.968,68.359,60.547,33.203,34.668,340.820,0
1542904870.972,43.457,62.988,33.691,36.621,380.371,0
1542904870.976,58.594,61.523,27.344,33.203,402.832,0
1542904870.980,65.918,56.641,29.785,40.039,451.172,0
1542904870.984,56.641,57.617,27.832,46.387,507.324,0
1542904870.988,47.363,60.547,23.438,31.250,557.617,0
1542904870.992,37.109,60.059,31.250,14.160,594.238,0
1542904870.996,61.523,61.035,33.691,14.160,629.883,0
1542904870.999,57.129,59.082,34.668,18.066,676.270,0
1542904871.003,43.457,56.152,34.180,22.949,696.289,0
1542904871.007,55.664,57.617,29.297,40.527,702.148,0
1542904871.011,57.129,55.664,31.250,30.273,746.582,0
1542904871.015,33.691,53.223,33.691,5.371,769.043,0
1542904871.019,33.203,56.641,31.738,7.324,748.047,0
1542904871.023,41.992,57.129,32.227,24.902,761.719,0
1542904871.027,36.133,54.688,30.273,26.855,802.246,0
1542904871.031,19.531,49.316,26.367,8.301,831.055,0
1542904871.035,33.691,47.852,28.809,11.230,821.289,0
1542904871.038,52.734,52.246,34.668,19.043,816.406,0
1542904871.042,27.832,48.340,38.574,28.320,822.754,0
1542904871.046,45.410,38.574,41.504,77.148,790.527,0
1542904871.050,69.336,54.199,35.156,61.523,694.824,0
1542904871.054,28.320,74.707,26.367,-14.648,627.930,0
1542904871.058,31.250,72.266,27.832,-6.836,595.703,0
1542904871.062,55.664,70.312,26.367,25.879,547.852,0
1542904871.066,49.805,78.613,18.555,23.438,463.379,0
1542904871.070,48.828,89.844,10.254,14.648,388.672,0
1542904871.074,43.945,85.449,11.230,23.926,360.840,0
1542904871.078,56.641,81.543,20.996,14.160,297.363,0
1542904871.081,47.363,84.961,27.832,5.859,244.141,0
1542904871.085,38.574,79.102,32.715,9.766,190.918,0
1542904871.089,47.852,73.242,35.156,18.066,155.273,0
1542904871.093,47.852,74.219,29.297,29.297,94.238,0
1542904871.097,56.641,73.730,29.297,39.551,36.133,0
1542904871.101,47.852,74.219,32.227,32.227,25.879,0
1542904871.105,44.922,67.383,34.668,38.086,2.441,0
1542904871.109,62.500,61.035,36.133,36.133,-24.414,0
1542904871.113,62.500,63.965,36.133,35.645,-29.297,0
1542904871.117,54.199,63.477,36.133,51.270,-31.738,0
1542904871.121,50.781,61.035,31.738,44.434,-26.367,0
1542904871.124,55.664,63.477,30.273,33.691,-12.695,0
1542904871.128,62.988,59.082,33.203,30.762,-13.184,0
1542904871.132,62.500,57.129,29.785,17.578,-4.395,0
1542904871.136,36.133,60.059,26.367,18.555,0.977,0
1542904871.140,41.016,56.152,26.855,22.461,12.207,0
1542904871.144,55.664,51.270,24.902,42.480,-1.465,0
1542904871.148,47.363,51.270,21.484,47.363,-20.020,0
1542904871.152,51.270,51.270,23.926,23.926,-37.109,0
1542904871.156,57.129,51.758,27.344,23.926,-61.035,0
1542904871.160,60.059,52.246,29.297,26.855,-59.570,0
1542904871.163,59.570,48.340,27.344,39.551,-31.250,0
1542904871.167,57.129,46.875,21.973,58.105,-19.043,0
1542904871.171,49.805,48.828,23.438,59.082,-38.086,0
1542904871.175,64.941,48.340,23.438,46.387,-52.734,0
1542904871.179,70.312,45.898,22.949,24.902,-39.062,0
1542904871.183,45.898,45.410,26.367,5.371,-68.848,0
1542904871.187,32.715,45.410,28.809,22.949,-114.746,0
1542904871.191,37.598,42.480,27.832,8.789,-121.582,0
1542904871.195,41.016,41.016,24.902,-9.277,-139.160,0
1542904871.199,36.621,39.551,24.902,11.719,-180.664,0
1542904871.203,41.504,39.551,25.879,3.906,-221.191,0
1542904871.206,45.410,41.504,25.879,-14.160,-220.215,0
1542904871.210,40.039,40.527,27.344,0.977,-241.699,0
1542904871.214,25.391,39.062,17.578,9.766,-277.832,0
1542904871.218,34.180,42.480,14.648,15.137,-283.203,0
1542904871.222,42.969,41.504,23.438,40.527,-281.250,0
1542904871.226,39.551,37.109,28.320,50.293,-312.500,0
1542904871.230,87.891,27.832,25.879,75.195,-380.371,0
1542904871.234,74.707,26.855,28.320,45.898,-382.812,0
1542904871.238,-4.883,39.062,26.367,-31.250,-389.648,0
1542904871.242,26.367,23.926,15.137,1.465,-450.195,0
1542904871.246,93.750,9.277,6.348,48.340,-482.910,0
1542904871.249,90.332,9.766,2.930,55.176,-476.074,0
1542904871.253,74.219,0.000,12.695,62.988,-482.422,0
1542904871.257,74.707,-9.766,18.555,78.125,-490.234,0
1542904871.261,99.609,-18.555,15.137,106.445,-497.070,0
1542904871.265,99.609,-20.996,22.949,105.469,-522.461,0
1542904871.269,83.008,-14.648,13.672,78.125,-531.738,0
1542904871.273,119.629,-17.578,9.277,96.680,-507.812,0
1542904871.277,112.305,-13.184,23.438,89.355,-509.766,0
1542904871.281,83.496,-7.324,25.391,69.336,-539.062,0
1542904871.285,108.398,-5.371,26.855,89.844,-540.039,0
1542904871.288,90.820,7.324,30.273,79.102,-549.805,0
1542904871.292,72.754,8.789,32.227,61.523,-569.824,0
1542904871.296,72.754,7.812,33.203,76.172,-556.152,0
1542904871.300,74.219,14.160,34.668,88.379,-548.340,0
1542904871.304,84.961,18.066,37.598,82.031,-613.770,0
1542904871.308,61.523,19.043,37.598,71.777,-645.020,0
1542904871.312,63.477,17.090,36.133,67.383,-602.539,0
1542904871.316,73.242,20.996,35.645,59.082,-587.891,0
1542904871.320,73.242,22.461,39.062,56.641,-614.258,0
1542904871.324,68.848,22.949,36.133,34.180,-628.906,0
1542904871.328,61.035,29.297,31.738,24.902,-633.789,0
1542904871.331,69.824,27.832,37.598,54.199,-645.996,0
1542904871.335,52.734,25.391,40.039,91.309,-614.746,0
1542904871.339,50.781,27.832,35.156,72.266,-607.422,0
1542904871.343,54.199,29.785,31.738,48.340,-833.496,0
1542904871.347,37.598,23.926,32.715,38.574,-990.723,0
1542904871.351,34.668,19.531,35.156,29.297,-962.891,0
1542904871.355,40.527,22.461,34.180,29.297,-972.656,0
1542904871.359,45.410,26.855,34.180,32.227,-960.938,0
1542904871.363,40.527,30.273,36.133,34.668,-912.598,0
1542904871.367,51.270,29.297,34.668,43.945,-822.266,0
1542904871.371,65.430,28.809,31.738,44.922,-744.141,0
1542904871.374,65.430,29.785,31.738,28.809,-707.031,0
1542904871.378,54.199,29.297,34.180,35.156,-622.559,0
1542904871.382,50.293,26.855,35.156,42.480,-558.594,0
1542904871.386,56.641,29.785,33.691,46.387,-572.754,0
1542904871.390,52.734,29.785,33.691,48.828,-574.707,0
1542904871.394,54.688,31.250,31.250,60.059,-496.582,0
1542904871.398,60.059,30.273,29.785,58.594,-447.754,0
1542904871.402,56.641,23.438,32.715,48.340,-415.039,0
1542904871.406,56.641,23.438,30.273,57.617,-406.250,0
1542904871.410,63.965,25.391,30.273,48.340,-415.039,0
1542904871.413,65.430,27.344,28.320,54.199,-302.734,0
1542904871.417,64.453,29.297,25.391,54.199,-224.609,0
1542904871.421,64.941,19.531,31.250,48.828,-199.219,0
1542904871.425,88.379,14.648,37.598,76.660,-226.074,0
1542904871.429,69.824,41.016,33.203,41.016,-262.207,0
1542904871.433,8.301,53.223,32.227,-29.785,-168.457,0
1542904871.437,-13.672,49.316,35.645,-36.133,-150.879,0
1542904871.441,-43.457,45.898,45.410,-54.688,-166.504,0
1542904871.445,-62.500,41.016,51.270,-57.617,-162.109,0
1542904871.449,-79.590,37.598,49.316,-70.801,-142.090,0
1542904871.453,-103.027,34.180,40.527,-104.004,-97.656,0
1542904871.456,-95.215,36.133,33.691,-114.746,-25.391,0
1542904871.460,-122.559,30.762,48.340,-157.715,-62.988,0
1542904871.464,-126.953,21.973,49.805,-139.648,-149.902,0
1542904871.468,-107.910,17.090,50.293,-124.512,-66.406,0
1542904871.472,-117.676,13.184,57.129,-136.719,-75.195,0
1542904871.476,-91.797,6.348,55.176,-89.355,-114.258,0
1542904871.480,-70.312,6.836,47.363,-48.340,-88.867,0
1542904871.484,-56.152,7.324,42.480,-46.875,-75.684,0
1542904871.488,-16.602,6.836,40.527,-36.133,-59.570,0
1542904871.492,-5.371,7.812,38.086,-27.344,-25.391,0
1542904871.496,-9.277,8.789,34.668,-15.137,1.953,0
1542904871.499,-2.930,10.254,34.180,7.812,-20.996,0
1542904871.503,0.488,8.789,34.180,14.160,35.645,0
1542904871.507,6.348,3.906,32.715,6.348,53.223,0
1542904871.511,8.301,0.000,27.832,8.301,18.066,0
1542904871.515,27.832,0.000,27.832,6.836,55.664,0
1542904871.519,24.902,4.883,27.832,12.207,68.848,0
1542904871.523,23.926,8.789,25.391,26.367,26.855,0
1542904871.527,34.668,12.207,25.391,13.184,37.598,0
1542904871.531,32.715,12.207,25.879,4.883,36.133,0
1542904871.535,33.203,14.648,24.414,13.672,-25.879,0
1542904871.538,38.086,13.184,26.367,34.668,13.672,0
1542904871.542,34.180,6.836,32.715,37.109,17.578,0
1542904871.546,27.832,10.742,30.273,17.578,-15.137,0
1542904871.550,45.898,14.648,25.391,28.809,28.809,0
1542904871.554,43.945,16.113,24.902,38.574,58.594,0
1542904871.558,28.320,18.066,28.320,30.762,81.543,0
1542904871.562,33.203,18.066,33.203,25.391,20.996,0
1542904871.566,24.414,17.090,28.320,15.137,-34.180,0
1542904871.570,16.602,17.090,24.414,17.578,-36.133,0
1542904871.574,46.387,17.090,30.273,34.180,-23.926,0
1542904871.578,48.340,18.555,27.344,32.227,-18.066,0
1542904871.581,13.184,20.508,25.391,20.508,14.160,0
1542904871.585,16.602,21.973,29.297,20.996,-12.207,0
1542904871.589,26.367,24.902,28.320,44.922,-19.531,0
1542904871.593,30.762,26.367,28.320,47.363,-4.395,0
1542904871.597,38.086,21.973,28.809,28.809,-36.133,0
1542904871.601,28.320,17.578,25.879,26.367,-40.527,0
1542904871.605,22.949,19.531,21.973,21.973,-11.719,0
1542904871.609,28.809,20.508,25.879,22.949,25.879,0
1542904871.613,18.066,19.531,27.832,24.414,30.762,0
1542904871.617,15.137,19.531,25.879,17.578,15.625,0
1542904871.621,22.949,22.461,25.391,0.977,-10.742,0
1542904871.624,27.344,25.391,28.809,-1.953,-2.441,0
1542904871.628,23.926,27.832,31.738,7.324,24.414,0
1542904871.632,10.742,26.855,28.320,23.926,26.855,0
1542904871.636,20.508,22.461,29.297,40.039,27.832,0
1542904871.640,19.531,22.461,28.809,16.113,52.734,0
1542904871.644,13.672,23.926,28.320,2.441,27.344,0
1542904871.648,12.207,23.438,25.879,0.977,21.973,0
1542904871.652,14.160,24.902,23.438,-0.977,47.852,0
1542904871.656,17.090,24.902,24.414,16.602,43.945,0
1542904871.660,15.137,22.949,26.367,31.738,40.039,0
1542904871.663,16.113,25.391,28.320,21.484,-6.836,0
1542904871.667,7.812,29.297,25.391,7.324,-59.570,0
1542904871.671,10.742,25.391,25.879,15.137,-2.441,0
1542904871.675,11.230,22.461,25.879,-3.906,-6.348,0
1542904871.679,11.719,23.926,25.391,-6.348,14.648,0
1542904871.683,19.043,26.367,26.367,15.625,56.152,0
1542904871.687,15.137,26.855,23.438,13.184,-28.320,0
1542904871.691,35.156,24.902,27.344,10.254,-58.594,0
1542904871.695,27.832,25.879,27.832,0.488,-23.438,0
1542904871.699,9.766,28.809,27.832,2.441,-20.020,0
1542904871.703,17.578,24.414,31.738,21.484,-10.742,0
1542904871.706,13.184,20.020,30.762,21.973,-9.766,0
1542904871.710,16.113,21.973,25.879,7.324,-51.758,0
1542904871.714,16.113,19.531,25.879,11.230,-45.410,0
1542904871.718,9.766,20.508,26.367,15.137,-64.453,0
1542904871.722,21.973,24.414,21.484,-11.230,-70.801,0
1542904871.726,22.461,21.973,27.344,-4.395,-31.250,0
1542904871.730,11.719,22.949,28.809,-0.488,-37.598,0
1542904871.734,11.230,23.926,26.855,0.488,-10.254,0
1542904871.738,12.207,22.461,32.715,14.160,58.594,0
1542904871.742,25.391,26.855,30.273,29.785,44.922,0
1542904871.746,21.484,28.320,25.879,30.762,-20.508,0
1542904871.749,5.859,21.973,28.809,14.160,-43.457,0
1542904871.753,14.648,18.555,25.879,5.371,-46.387,0
1542904871.757,16.113,26.855,22.461,7.324,-10.742,0
1542904871.761,13.672,25.879,28.320,29.785,-12.695,0
1542904871.765,21.484,26.855,27.832,29.785,-13.184,0
1542904871.769,31.250,28.320,27.344,14.648,-27.832,0
1542904871.773,28.809,27.344,26.855,19.531,-26.367,0
1542904871.777,20.508,26.855,26.367,50.781,11.230,0
1542904871.781,20.508,24.902,26.855,30.273,-2.930,0
1542904871.785,24.414,26.367,29.297,-20.508,-12.695,0
1542904871.788,36.621,26.367,30.762,6.348,6.836,0
1542904871.792,41.504,26.367,27.832,35.156,21.973,0
1542904871.796,33.203,22.949,30.762,20.996,-35.645,0
1542904871.800,64.453,17.090,33.691,80.078,-25.879,0
1542904871.804,91.309,31.250,21.484,96.680,39.062,0
1542904871.808,12.207,45.410,22.949,1.465,35.156,0
1542904871.812,-4.883,30.762,32.227,-16.602,30.762,0
1542904871.816,32.227,27.344,20.996,-6.348,-5.859,0
1542904871.820,-0.977,30.273,27.344,-28.809,23.438,0
1542904871.824,10.254,23.926,39.062,3.418,50.781,0
1542904871.828,23.438,26.855,31.738,20.996,27.344,0
1542904871.831,23.926,25.391,30.762,6.348,42.969,0
1542904871.835,35.645,19.531,31.738,26.855,71.289,0
1542904871.839,33.203,17.578,30.273,32.715,53.711,0
1542904871.843,40.527,16.602,26.855,25.879,-20.508,0
1542904871.847,33.203,22.461,25.879,34.180,-6.836,0
1542904871.851,32.715,23.926,29.785,38.086,33.691,0
1542904871.855,48.828,22.949,34.180,51.270,29.297,0
1542904871.859,41.992,28.809,33.691,51.270,1.953,0
1542904871.863,39.062,27.832,21.484,15.137,46.387,0
1542904871.867,41.992,23.438,17.578,0.977,31.250,0
1542904871.871,41.992,23.926,26.367,25.879,1.953,0
1542904871.874,31.250,19.531,26.367,30.273,50.781,0
1542904871.878,20.508,16.602,31.738,2.930,65.918,0
1542904871.882,18.555,18.555,33.691,-5.859,46.875,0
1542904871.886,23.438,22.949,25.879,7.812,12.695,0
1542904871.890,31.738,25.879,26.855,12.695,26.855,0
1542904871.894,25.391,22.949,26.367,12.695,17.090,0
1542904871.898,25.391,19.043,28.320,20.508,15.625,0
1542904871.902,27.344,19.531,27.344,22.461,86.426,0
1542904871.906,30.273,24.902,21.484,28.320,42.480,0
1542904871.910,36.133,26.367,23.438,42.969,0.000,0
1542904871.913,37.109,25.391,21.484,61.523,12.207,0
1542904871.917,32.715,26.855,12.207,36.133,9.766,0
1542904871.921,32.715,29.297,17.090,10.742,4.395,0
1542904871.925,32.227,29.785,25.879,19.531,-14.648,0
1542904871.929,27.832,26.855,23.926,36.133,-10.254,0
1542904871.933,27.832,25.391,21.484,34.668,12.695,0
1542904871.937,37.109,24.414,22.949,10.742,3.418,0
1542904871.941,52.246,28.320,24.414,-1.465,18.555,0
1542904871.945,38.574,30.762,27.832,21.973,-14.648,0
1542904871.949,24.902,27.832,28.320,28.320,-35.156,0
1542904871.953,30.273,25.879,24.414,0.488,1.465,0
1542904871.956,38.086,26.855,21.484,-2.441,65.430,0
1542904871.960,48.340,30.273,22.461,20.508,67.871,0
1542904871.964,46.387,27.832,26.855,48.340,-0.488,0
1542904871.968,31.250,29.297,28.320,36.621,43.945,0
1542904871.972,46.387,31.738,30.273,34.668,75.684,0
1542904871.976,48.340,28.320,26.367,36.621,61.035,0
1542904871.980,32.715,27.344,19.043,28.809,28.809,0
1542904871.984,31.738,26.855,18.066,26.855,-5.859,0
1542904871.988,30.762,30.273,20.508,41.504,-0.488,0
1542904871.992,26.367,30.273,29.297,60.059,53.711,0
1542904871.996,24.902,26.855,34.180,41.504,91.797,0
1542904871.999,30.273,25.391,28.320,14.648,114.258,0
1542904872.003,32.227,27.344,19.531,2.441,37.598,0
1542904872.007,38.086,30.273,16.113,8.301,-34.180,0
1542904872.011,35.645,27.344,26.367,20.020,-13.184,0
1542904872.015,35.645,29.785,20.508,31.738,24.902,0
1542904872.019,41.016,28.320,14.160,53.711,66.406,0
1542904872.023,66.895,24.902,18.066,77.148,50.293,0
1542904872.027,55.176,34.180,22.949,46.387,42.969,0
1542904872.031,13.672,31.738,31.250,-6.836,29.297,0
1542904872.035,31.250,20.508,26.367,5.371,31.250,0
1542904872.038,57.617,14.160,22.949,42.480,56.641,0
1542904872.042,59.570,16.113,26.855,55.176,60.547,0
1542904872.046,51.270,23.926,22.949,43.457,17.578,0
1542904872.050,52.246,22.461,21.484,53.711,-2.441,0
1542904872.054,37.598,25.879,22.461,57.617,32.715,0
1542904872.058,28.320,30.273,20.508,21.973,36.133,0
1542904872.062,46.387,26.367,24.902,21.973,29.785,0
1542904872.066,42.480,24.902,29.297,57.129,26.855,0
1542904872.070,34.180,27.344,28.809,73.242,31.738,0
1542904872.074,33.691,24.902,28.809,44.434,33.691,0
1542904872.078,33.203,25.391,25.879,-1.465,40.527,0
1542904872.081,24.902,28.809,25.391,-1.953,18.555,0
1542904872.085,20.020,28.809,29.297,10.254,17.578,0
1542904872.089,28.809,30.762,26.367,25.879,27.832,0
1542904872.093,35.645,30.762,26.855,32.715,-30.273,0
1542904872.097,30.762,28.809,31.250,39.062,-24.902,0
1542904872.101,29.785,33.203,30.762,45.898,32.227,0
1542904872.105,32.715,38.086,34.180,25.879,50.293,0
1542904872.109,33.203,34.668,30.762,19.531,48.340,0
1542904872.113,27.832,31.738,22.461,19.531,62.988,0
1542904872.117,39.551,28.320,26.367,23.438,109.375,0
1542904872.121,38.574,29.297,29.785,31.738,63.477,0
1542904872.124,23.926,32.715,27.832,28.320,-59.082,0
1542904872.128,39.062,33.203,28.320,28.320,5.859,0
1542904872.132,41.992,32.715,27.344,21.973,84.961,0
1542904872.136,35.156,30.762,27.832,18.555,83.984,0
1542904872.140,41.504,34.180,28.320,38.574,52.734,0
1542904872.144,55.176,39.062,26.855,38.086,-8.789,0
1542904872.148,48.828,40.039,24.414,20.996,23.438,0
1542904872.152,37.598,38.086,28.320,34.180,60.547,0
1542904872.156,38.574,37.109,29.297,29.297,61.523,0
1542904872.160,38.574,38.574,21.973,21.973,82.031,0
1542904872.163,40.527,35.156,24.414,29.785,52.734,0
1542904872.167,30.762,35.156,29.297,41.504,-31.738,0
1542904872.171,31.738,38.086,28.809,71.289,-45.898,0
1542904872.175,49.316,33.203,28.320,75.195,-9.766,0
1542904872.179,32.715,33.691,25.391,20.996,70.801,0
1542904872.183,12.207,34.180,23.926,-23.926,65.918,0
1542904872.187,47.852,21.973,30.762,25.391,4.395,0
1542904872.191,69.824,31.250,33.203,62.988,0.977,0
1542904872.195,-0.488,47.363,29.297,-6.348,21.973,0
1542904872.199,-31.250,45.410,27.832,-54.688,89.355,0
1542904872.203,-13.184,43.457,33.691,-41.016,88.867,0
1542904872.206,-14.160,41.992,31.738,-18.555,33.691,0
1542904872.210,-16.602,41.504,26.367,-16.113,14.648,0
1542904872.214,-22.949,42.969,30.273,-35.156,12.695,0
1542904872.218,-16.602,39.551,30.762,-44.922,61.523,0
1542904872.222,-4.395,34.668,30.762,-40.039,70.312,0
1542904872.226,-0.488,31.250,31.738,-21.484,20.508,0
1542904872.230,9.766,31.738,33.203,-8.301,45.898,0
1542904872.234,6.836,32.227,32.715,4.395,72.266,0
1542904872.238,3.418,30.762,32.227,-0.977,66.406,0
1542904872.242,19.043,33.691,31.250,13.184,55.664,0
1542904872.246,23.926,39.062,32.227,26.855,-3.418,0
1542904872.249,16.113,38.086,31.738,12.207,2.441,0
1542904872.253,16.113,35.645,30.762,10.742,58.105,0
1542904872.257,30.273,35.645,29.785,2.441,50.781,0
1542904872.261,34.668,34.668,25.879,11.230,3.418,0
1542904872.265,12.695,32.227,24.414,20.020,-7.812,0
1542904872.269,10.742,31.250,25.391,22.949,42.969,0
1542904872.273,31.250,31.738,26.855,2.441,20.996,0
1542904872.277,26.855,33.203,26.855,-12.695,-21.484,0
1542904872.281,20.508,38.086,22.949,1.953,70.801,0
1542904872.285,32.715,36.621,33.203,16.113,83.984,0
1542904872.288,34.668,34.668,34.668,26.855,70.801,0
1542904872.292,31.250,34.668,20.508,19.043,71.289,0
1542904872.296,33.203,35.156,24.902,19.043,22.949,0
1542904872.300,27.344,36.621,24.414,24.902,24.902,0
1542904872.304,37.109,34.668,23.926,26.855,26.367,0
1542904872.308,40.039,35.156,27.832,22.949,19.043,0
1542904872.312,32.715,33.203,23.926,9.766,-18.555,0
1542904872.316,40.039,33.203,23.438,10.254,13.672,0
1542904872.320,37.109,36.621,24.902,24.414,93.750,0
1542904872.324,35.156,35.156,19.531,21.973,59.570,0
1542904872.328,39.551,34.180,21.484,22.949,41.992,0
1542904872.331,30.273,35.156,25.879,25.879,30.762,0
1542904872.335,21.484,33.203,27.344,22.461,9.277,0
1542904872.339,24.902,29.297,30.762,31.250,49.805,0
1542904872.343,34.180,31.250,30.273,33.691,69.336,0
1542904872.347,35.645,32.715,26.367,15.137,55.664,0
1542904872.351,33.203,26.855,26.855,4.395,16.602,0
1542904872.355,34.668,31.250,28.320,8.789,6.348,0
1542904872.359,34.180,37.598,25.879,29.785,-13.184,0
1542904872.363,40.527,33.691,27.344,36.621,-11.230,0
1542904872.367,41.504,30.762,31.250,37.109,36.133,0
1542904872.371,45.410,36.133,25.879,49.316,33.691,0
1542904872.374,45.898,37.598,23.926,24.902,-13.672,0
1542904872.378,35.156,33.203,17.578,22.461,-16.113,0
1542904872.382,40.527,33.691,13.672,29.785,-14.648,0
1542904872.386,40.039,35.156,26.367,18.066,-25.391,0
1542904872.390,37.598,37.109,26.855,20.508,-5.371,0
1542904872.394,39.551,35.645,28.320,16.113,-18.066,0
1542904872.398,30.762,33.691,29.785,19.043,0.488,0
1542904872.402,19.531,30.273,29.785,17.090,20.508,0
1542904872.406,28.320,29.297,30.273,18.066,-44.434,0
1542904872.410,38.574,30.273,25.879,17.578,-2.441,0
1542904872.413,33.203,28.320,29.297,13.672,43.457,0
1542904872.417,31.250,30.273,28.320,23.438,0.977,0
1542904872.421,29.785,32.715,22.949,33.203,32.227,0
1542904872.425,35.156,30.273,28.320,37.109,32.715,0
1542904872.429,31.250,29.785,31.738,33.203,-2.441,0
1542904872.433,35.645,34.668,32.227,25.879,60.059,0
1542904872.437,46.875,33.691,39.551,36.133,69.336,0
1542904872.441,37.109,35.645,36.133,41.504,58.105,0
1542904872.445,25.391,38.574,25.391,20.996,10.742,0
1542904872.449,28.809,30.273,26.367,20.020,-23.438,0
1542904872.453,33.203,27.832,28.320,18.555,18.066,0
1542904872.456,26.367,30.762,31.250,17.578,-29.785,0
1542904872.460,20.996,30.273,34.180,45.898,7.812,0
1542904872.464,24.902,31.250,32.715,51.758,36.621,0
1542904872.468,36.621,29.785,31.250,34.668,55.176,0
1542904872.472,36.621,31.250,30.273,26.367,92.285,0
1542904872.476,35.156,34.180,27.344,17.578,82.031,0
1542904872.480,37.598,32.715,26.855,7.812,118.164,0
1542904872.484,34.180,31.250,30.273,10.254,152.832,0
1542904872.488,37.109,32.715,23.926,29.297,214.355,0
1542904872.492,37.598,33.691,29.297,38.086,258.301,0
1542904872.496,29.785,36.133,35.645,24.902,312.012,0
1542904872.499,34.668,35.156,29.297,18.555,383.789,0
1542904872.503,32.715,32.715,29.297,25.879,440.918,0
1542904872.507,16.113,37.109,26.855,13.184,468.262,0
1542904872.511,26.367,38.086,17.578,14.648,470.703,0
1542904872.515,74.219,37.109,17.578,62.500,487.305,0
1542904872.519,57.617,36.133,30.273,45.898,504.883,0
1542904872.523,-2.930,29.785,38.086,-1.465,523.438,0
1542904872.527,12.695,17.090,36.621,29.785,521.484,0
1542904872.531,41.992,9.277,36.133,64.941,509.277,0
1542904872.535,32.715,6.836,37.598,42.480,523.926,0
1542904872.538,31.250,5.859,38.574,30.762,538.086,0
1542904872.542,33.691,9.277,33.691,39.551,527.344,0
1542904872.546,39.062,12.695,32.227,45.898,477.539,0
1542904872.550,35.645,16.602,34.668,41.504,443.848,0
1542904872.554,33.203,19.531,31.738,46.875,431.641,0
1542904872.558,41.016,19.531,35.156,45.410,432.617,0
1542904872.562,47.852,24.414,37.598,37.598,415.527,0
1542904872.566,51.758,24.902,36.621,39.551,359.863,0
1542904872.570,40.527,21.484,37.109,47.363,339.355,0
1542904872.574,28.809,19.043,38.086,39.551,370.605,0
1542904872.578,41.016,19.043,32.715,39.551,338.379,0
1542904872.581,50.781,19.531,29.785,45.898,284.668,0
1542904872.585,38.574,18.066,28.320,32.715,305.664,0
1542904872.589,24.414,20.996,28.320,46.387,304.688,0
1542904872.593,38.574,23.438,28.809,60.547,264.160,0
1542904872.597,41.504,24.902,29.785,51.270,258.301,0
1542904872.601,32.715,26.367,28.809,10.254,257.324,0
1542904872.605,48.340,27.344,26.855,6.836,249.512,0
1542904872.609,45.410,27.832,26.855,21.973,229.980,0
1542904872.613,35.645,28.320,26.855,25.391,168.945,0
1542904872.617,37.109,30.273,21.973,37.109,176.758,0
1542904872.621,46.387,25.879,23.926,53.711,183.594,0
1542904872.624,46.875,24.414,28.809,55.176,154.785,0
1542904872.628,39.062,29.297,26.367,38.086,136.719,0
1542904872.632,42.969,29.785,27.832,40.527,126.465,0
1542904872.636,35.645,29.297,30.762,36.133,123.535,0
1542904872.640,37.109,28.320,29.297,30.762,91.797,0
1542904872.644,43.457,26.367,31.738,31.250,42.969,0
1542904872.648,44.922,27.832,31.250,49.316,41.016,0
1542904872.652,48.828,33.203,27.832,47.852,30.762,0
1542904872.656,41.016,34.180,31.738,17.090,-20.996,0
1542904872.660,42.480,34.180,28.320,25.879,-4.883,0
1542904872.663,43.457,30.762,24.414,37.598,-11.719,0
1542904872.667,34.668,26.855,26.855,32.715,-44.922,0
1542904872.671,27.832,32.227,24.414,19.531,-38.086,0
1542904872.675,33.691,30.762,24.414,24.902,-53.223,0
1542904872.679,32.715,27.832,26.855,38.086,-82.031,0
1542904872.683,24.414,31.250,26.855,31.738,-88.379,0
1542904872.687,34.180,28.320,26.855,30.762,-59.082,0
1542904872.691,41.504,28.320,30.273,27.344,-74.219,0
1542904872.695,48.340,28.320,30.762,30.762,-107.910,0
1542904872.699,60.059,29.785,29.297,51.758,-126.953,0
1542904872.703,44.434,32.227,32.715,53.711,-155.762,0
1542904872.706,28.809,30.762,28.809,25.879,-164.062,0
1542904872.710,26.855,27.832,25.879,6.348,-189.453,0
1542904872.714,28.809,32.715,33.203,11.230,-250.488,0
1542904872.718,33.691,35.645,35.156,20.508,-257.812,0
1542904872.722,35.156,27.832,29.785,18.555,-283.203,0
1542904872.726,42.969,25.391,27.832,19.043,-347.656,0
1542904872.730,29.297,24.902,25.879,22.461,-381.836,0
1542904872.734,23.926,28.809,23.926,25.879,-395.996,0
1542904872.738,43.457,34.180,30.273,40.039,-402.832,0
1542904872.742,46.875,35.156,35.156,38.086,-442.871,0
1542904872.746,24.414,31.250,28.809,8.301,-462.402,0
1542904872.749,20.020,29.297,25.879,16.602,-429.199,0
1542904872.753,31.738,32.227,28.320,35.645,-391.602,0
1542904872.757,27.832,30.273,26.367,1.465,-376.465,0
1542904872.761,37.109,30.762,26.855,7.812,-343.750,0
1542904872.765,43.457,28.320,32.227,37.109,-340.332,0
1542904872.769,33.691,23.926,27.344,41.992,-316.406,0
1542904872.773,40.527,33.203,22.949,42.480,-247.070,0
1542904872.777,52.734,41.504,32.715,13.184,-196.777,0
1542904872.781,53.223,39.062,36.621,-3.418,-199.219,0
1542904872.785,48.828,31.738,32.227,10.742,-223.145,0
1542904872.788,31.738,30.273,30.273,30.273,-181.152,0
1542904872.792,21.484,30.273,28.320,19.043,-154.297,0
1542904872.796,21.973,28.320,29.297,25.391,-126.465,0
1542904872.800,34.668,30.762,28.320,46.387,-95.215,0
1542904872.804,55.176,32.715,24.902,48.828,-93.262,0
1542904872.808,51.758,36.133,25.391,46.875,-103.027,0
1542904872.812,44.434,32.715,31.250,36.621,-65.918,0
1542904872.816,45.898,29.297,34.668,22.461,-24.414,0
1542904872.820,48.340,39.062,29.297,19.043,-19.531,0
1542904872.824,34.668,36.621,30.762,20.508,0.977,0
1542904872.828,33.691,33.691,30.762,20.996,49.805,0
1542904872.831,38.086,36.133,29.297,19.531,91.797,0
1542904872.835,35.156,32.715,32.227,22.461,112.305,0
1542904872.839,42.969,35.156,23.438,27.832,109.375,0
1542904872.843,40.039,31.738,25.879,25.391,127.930,0
1542904872.847,41.016,26.855,33.691,36.621,154.297,0
1542904872.851,56.641,29.785,28.809,32.715,157.715,0
1542904872.855,58.594,32.227,28.809,41.016,173.828,0
1542904872.859,55.176,36.621,30.762,62.988,181.641,0
1542904872.863,57.617,38.086,31.738,50.293,202.148,0
1542904872.867,52.734,33.203,29.785,33.691,221.191,0
1542904872.871,46.875,32.227,27.344,28.320,221.680,0
1542904872.874,56.152,34.668,29.297,27.832,226.562,0
1542904872.878,58.105,36.621,33.691,45.410,232.910,0
1542904872.882,57.617,36.621,34.180,50.293,201.172,0
1542904872.886,57.617,28.809,30.762,41.016,191.895,0
1542904872.890,41.016,24.902,27.832,38.574,178.711,0
1542904872.894,41.016,28.320,23.926,43.457,123.047,0
1542904872.898,44.922,28.320,24.414,36.621,143.066,0
1542904872.902,38.086,30.762,25.391,20.996,179.688,0
1542904872.906,56.641,35.645,24.902,22.461,152.344,0
1542904872.910,53.223,35.156,26.855,15.625,105.469,0
1542904872.913,33.691,33.203,28.809,12.207,66.895,0
1542904872.917,40.527,21.484,39.551,37.598,45.410,0
1542904872.921,71.289,18.555,48.340,73.730,51.758,0
1542904872.925,65.430,46.875,34.668,61.523,86.426,0
1542904872.929,3.418,62.012,19.043,-0.488,96.680,0
1542904872.933,6.348,54.688,24.414,-4.395,151.367,0
1542904872.937,34.180,55.176,27.832,17.090,195.312,0
1542904872.941,22.461,65.430,20.996,-13.672,163.086,0
1542904872.945,40.039,64.453,19.043,-1.465,197.266,0
1542904872.949,34.668,66.895,16.602,20.020,236.328,0
1542904872.953,22.949,66.406,25.391,-18.555,212.891,0
1542904872.956,31.738,53.223,30.762,-25.879,225.098,0
1542904872.960,30.273,49.805,23.926,-0.977,247.070,0
1542904872.964,29.785,42.480,28.320,12.695,216.309,0
1542904872.968,27.344,38.574,35.156,36.133,175.293,0
1542904872.972,38.086,43.945,31.250,35.645,158.203,0
1542904872.976,43.945,43.457,29.297,9.277,146.484,0
1542904872.980,35.156,45.410,29.297,27.344,133.789,0
1542904872.984,38.086,45.410,29.785,36.133,122.559,0
1542904872.988,58.105,44.434,34.668,20.996,171.875,0
1542904872.992,53.711,44.922,29.297,30.273,268.066,0
1542904872.996,50.781,41.992,20.020,32.715,332.520,0
1542904872.999,48.340,42.480,23.438,32.715,386.719,0
1542904873.003,41.992,41.504,28.320,21.973,430.664,0
1542904873.007,53.223,39.551,28.320,29.297,521.484,0
1542904873.011,44.434,41.992,26.855,29.785,552.246,0
1542904873.015,39.062,38.086,28.320,25.391,541.992,0
1542904873.019,48.828,39.551,28.809,41.016,557.617,0
1542904873.023,41.992,44.922,28.809,34.180,521.973,0
1542904873.027,42.480,39.551,27.344,38.574,411.133,0
1542904873.031,47.852,39.551,28.809,63.477,312.500,0
1542904873.035,49.805,43.945,31.738,62.012,283.203,0
1542904873.038,49.316,40.039,24.414,28.320,206.543,0
1542904873.042,58.105,38.574,22.461,10.254,96.191,0
1542904873.046,46.875,39.062,33.203,19.531,11.719,0
1542904873.050,26.367,36.621,34.180,20.996,-52.246,0
1542904873.054,27.344,40.039,37.598,26.855,-113.281,0
1542904873.058,38.574,39.062,38.086,43.945,-151.855,0
1542904873.062,41.016,37.109,33.203,44.434,-248.535,0
1542904873.066,32.227,37.598,34.180,37.598,-326.660,0
1542904873.070,57.129,37.109,37.598,60.059,-297.363,0
1542904873.074,58.594,41.504,33.691,60.547,-320.801,0
1542904873.078,39.062,45.410,29.785,37.109,-341.309,0
1542904873.081,42.480,39.062,33.203,50.781,-276.855,0
1542904873.085,33.691,34.668,32.715,30.273,-206.543,0
1542904873.089,32.227,33.691,30.273,6.348,-153.320,0
1542904873.093,43.945,33.203,30.762,17.578,-102.539,0
1542904873.097,37.109,36.133,30.762,23.926,-44.434,0
1542904873.101,26.855,29.297,32.715,35.156,-23.926,0
1542904873.105,32.715,30.762,31.738,58.594,28.809,0
1542904873.109,41.016,36.621,28.809,45.410,68.359,0
1542904873.113,44.434,33.691,35.156,12.695,54.199,0
1542904873.117,37.598,41.504,39.551,20.508,93.262,0
1542904873.121,43.945,48.828,36.133,36.621,149.902,0
1542904873.124,56.641,38.574,31.250,26.855,196.289,0
1542904873.128,41.016,30.762,25.879,20.996,241.211,0
1542904873.132,27.832,29.785,22.949,23.926,288.086,0
1542904873.136,44.922,34.180,24.902,44.922,303.223,0
1542904873.140,48.340,42.969,27.832,51.758,314.453,0
1542904873.144,46.387,41.992,32.227,27.344,312.988,0
1542904873.148,32.715,36.621,30.273,25.391,336.426,0
1542904873.152,19.531,31.250,21.973,25.391,357.422,0
1542904873.156,30.762,34.668,25.391,31.738,340.820,0
1542904873.160,35.645,40.039,31.738,39.062,333.496,0
1542904873.163,43.457,36.133,29.297,23.438,360.352,0
1542904873.167,35.645,34.180,31.738,23.438,343.750,0
1542904873.171,41.992,33.203,31.250,33.203,343.262,0
1542904873.175,47.363,37.109,33.203,32.715,379.395,0
1542904873.179,28.320,37.109,34.180,16.113,357.422,0
1542904873.183,56.641,32.715,18.066,38.574,318.359,0
1542904873.187,68.359,30.273,20.508,64.453,342.773,0
1542904873.191,10.254,27.832,39.551,13.184,337.891,0
1542904873.195,20.996,25.879,33.691,13.672,308.594,0
1542904873.199,71.289,17.090,31.738,60.059,317.383,0
1542904873.203,45.410,11.230,42.969,34.668,295.898,0
1542904873.206,24.902,14.160,37.109,26.855,284.668,0
1542904873.210,40.039,17.090,33.203,31.250,271.973,0
1542904873.214,25.879,17.578,31.250,21.484,217.773,0
1542904873.218,25.879,19.531,23.926,26.367,237.793,0
1542904873.222,40.039,19.043,25.879,29.297,273.438,0
1542904873.226,39.062,20.996,28.320,39.551,245.605,0
1542904873.230,41.992,23.438,25.391,37.109,234.375,0
1542904873.234,31.738,22.461,24.902,23.926,249.512,0
1542904873.238,35.156,23.926,30.762,41.992,229.004,0
1542904873.242,40.039,21.973,33.203,60.059,220.215,0
1542904873.246,25.391,17.090,24.902,51.270,246.094,0
1542904873.249,20.996,20.996,20.996,25.391,267.578,0
1542904873.253,51.758,24.414,28.320,17.578,262.207,0
1542904873.257,42.969,25.879,24.414,33.203,230.957,0
1542904873.261,22.949,28.320,20.508,26.367,222.168,0
1542904873.265,55.176,26.855,23.926,21.973,207.520,0
1542904873.269,62.988,26.855,25.879,38.086,197.754,0
1542904873.273,35.645,29.297,29.785,23.438,191.895,0
1542904873.277,54.688,29.297,33.203,25.391,200.684,0
1542904873.281,49.316,29.785,30.273,39.062,208.496,0
1542904873.285,28.809,23.926,30.273,41.504,194.824,0
1542904873.288,56.152,26.855,34.668,44.922,185.059,0
1542904873.292,72.266,28.809,38.574,32.227,203.125,0
1542904873.296,40.039,27.832,39.062,22.949,247.070,0
1542904873.300,27.832,25.391,30.762,38.574,251.953,0
1542904873.304,53.223,23.926,30.273,40.039,247.559,0
1542904873.308,52.246,35.156,34.668,40.039,234.863,0
1542904873.312,38.574,30.762,32.227,41.992,213.379,0
1542904873.316,37.109,26.367,35.645,36.133,187.988,0
1542904873.320,30.762,36.133,24.902,41.992,182.129,0
1542904873.324,31.738,35.156,16.113,34.668,167.969,0
1542904873.328,44.922,29.297,27.832,25.391,125.488,0
1542904873.331,49.316,26.855,32.227,21.973,105.957,0
1542904873.335,34.668,24.902,35.645,21.484,118.652,0
1542904873.339,25.879,23.926,34.180,16.602,102.051,0
1542904873.343,41.016,21.484,31.250,25.391,81.055,0
1542904873.347,43.457,29.297,29.785,30.273,97.656,0
1542904873.351,30.273,32.227,21.484,16.602,85.938,0
1542904873.355,28.320,26.855,21.973,31.250,77.148,0
1542904873.359,41.504,27.832,28.320,31.250,69.336,0
1542904873.363,28.809,30.762,26.855,14.160,58.105,0
1542904873.367,25.391,31.738,31.738,31.738,76.660,0
1542904873.371,56.152,28.320,35.645,45.410,70.312,0
1542904873.374,46.875,27.344,31.250,38.574,59.082,0
1542904873.378,27.344,32.715,31.738,29.297,52.734,0
1542904873.382,31.250,33.203,33.691,37.109,60.547,0
1542904873.386,36.133,29.785,29.297,39.062,57.617,0
1542904873.390,42.480,31.738,29.785,38.574,50.781,0
1542904873.394,53.711,35.156,34.668,37.109,50.781,0
1542904873.398,48.828,36.133,30.273,38.574,54.688,0
1542904873.402,38.574,33.691,22.461,22.461,35.156,0
1542904873.406,48.340,33.203,22.461,2.441,18.066,0
1542904873.410,54.199,32.715,23.438,19.531,21.484,0
1542904873.413,46.875,33.691,26.367,26.855,26.855,0
1542904873.417,40.039,37.109,32.227,20.996,41.992,0
1542904873.421,52.246,36.133,30.762,41.016,36.133,0
1542904873.425,41.504,34.180,24.414,36.133,32.227,0
1542904873.429,25.391,35.156,26.367,14.160,21.973,0
1542904873.433,41.504,33.203,32.715,23.438,41.504,0
1542904873.437,40.039,32.715,28.809,22.949,47.852,0
1542904873.441,45.898,35.645,26.855,35.156,41.504,0
1542904873.445,51.270,34.668,32.227,59.082,37.598,0
1542904873.449,43.457,28.320,25.879,25.391,21.484,0
1542904873.453,47.852,29.785,22.461,6.836,8.301,0
1542904873.456,43.457,38.086,26.855,21.973,17.578,0
1542904873.460,24.414,33.203,27.832,26.855,12.207,0
1542904873.464,24.902,25.879,30.273,27.832,0.000,0
1542904873.468,48.828,39.062,28.809,32.715,0.977,0
1542904873.472,46.387,34.180,23.926,37.598,11.230,0
1542904873.476,38.086,25.391,31.738,26.367,19.043,0
1542904873.480,32.227,31.738,30.762,14.648,-13.184,0
1542904873.484,25.879,29.785,27.344,12.207,-35.645,0
1542904873.488,49.316,31.738,21.973,19.531,-23.438,0
1542904873.492,72.266,35.156,15.137,48.340,-8.301,0
1542904873.496,68.359,32.715,24.414,45.410,-47.852,0
1542904873.499,30.762,36.621,41.016,9.766,-67.871,0
1542904873.503,2.441,31.738,45.410,13.184,-52.246,0
1542904873.507,41.992,19.531,46.875,38.574,-67.871,0
1542904873.511,35.156,20.020,47.852,29.297,-104.492,0
1542904873.515,23.438,20.020,39.551,17.090,-109.375,0
1542904873.519,34.180,18.555,38.086,37.598,-85.938,0
1542904873.523,9.277,17.578,34.668,29.785,-97.656,0
1542904873.527,32.715,16.113,36.133,28.809,-108.398,0
1542904873.531,45.898,17.090,38.086,40.039,-85.449,0
1542904873.535,42.480,23.438,30.762,42.480,-85.938,0
1542904873.538,72.266,40.527,35.645,62.988,-128.906,0
1542904873.542,83.984,57.129,59.570,80.078,-161.133,0
1542904873.546,45.898,36.133,43.457,40.039,-165.527,0
1542904873.550,24.414,9.766,13.672,5.859,-159.668,0
1542904873.554,24.902,8.301,18.066,6.348,-206.055,0
1542904873.558,31.738,9.277,20.508,14.160,-197.266,0
1542904873.562,48.828,19.043,27.344,37.598,-168.457,0
1542904873.566,45.898,31.250,35.645,50.781,-205.078,0
1542904873.570,34.180,30.762,32.227,51.758,-224.121,0
1542904873.574,40.527,33.203,38.574,47.363,-192.871,0
1542904873.578,51.270,40.527,43.945,36.621,-172.852,0
1542904873.581,40.039,32.227,32.227,18.066,-194.336,0
1542904873.585,21.973,21.973,22.949,20.996,-196.289,0
1542904873.589,38.086,22.949,17.090,34.668,-154.785,0
1542904873.593,45.410,31.738,31.738,59.570,-129.883,0
1542904873.597,44.922,31.738,37.109,64.453,-123.047,0
1542904873.601,50.781,26.855,30.762,15.137,-107.910,0
1542904873.605,47.363,24.414,35.156,9.766,-55.664,0
1542904873.609,25.391,16.113,29.785,23.926,15.625,0
1542904873.613,40.039,31.250,38.086,38.086,62.012,0
1542904873.617,58.594,41.504,43.457,49.805,111.816,0
1542904873.621,35.645,22.949,32.715,25.879,183.105,0
1542904873.624,18.066,18.555,27.344,3.418,213.867,0
1542904873.628,20.996,20.996,27.344,15.137,207.031,0
1542904873.632,26.367,22.949,33.203,36.133,209.473,0
1542904873.636,34.180,29.785,36.621,42.969,234.863,0
1542904873.640,42.969,36.133,35.156,29.785,248.535,0
1542904873.644,32.715,35.645,36.621,18.066,229.492,0
1542904873.648,28.809,34.180,39.551,28.809,203.613,0
1542904873.652,44.922,35.645,36.133,29.785,187.500,0
1542904873.656,39.551,34.180,31.738,23.438,188.965,0
1542904873.660,35.645,34.668,36.621,21.484,227.539,0
1542904873.663,25.391,35.156,36.621,26.367,248.535,0
1542904873.667,28.809,37.109,33.691,35.645,259.277,0
1542904873.671,33.203,30.273,41.504,41.992,286.133,0
1542904873.675,37.598,27.344,39.551,39.062,270.508,0
1542904873.679,41.992,36.133,30.762,19.043,274.414,0
1542904873.683,28.809,38.086,34.180,18.555,293.945,0
1542904873.687,37.109,37.109,38.086,19.531,301.758,0
1542904873.691,44.434,41.992,32.227,18.555,277.832,0
1542904873.695,34.180,39.551,33.691,26.855,259.277,0
1542904873.699,29.297,36.621,36.621,22.949,236.816,0
1542904873.703,32.715,40.039,32.715,20.020,221.191,0
1542904873.706,33.691,38.574,30.762,22.949,218.750,0
1542904873.710,41.992,36.133,34.180,37.109,202.637,0
1542904873.714,49.316,42.969,40.039,49.316,155.273,0
1542904873.718,35.645,35.156,37.109,41.992,80.566,0
1542904873.722,63.965,18.555,28.809,62.012,63.477,0
1542904873.726,67.383,32.715,27.832,43.457,14.160,0
1542904873.730,-1.465,42.969,33.203,-13.672,-50.781,0
1542904873.734,7.812,24.414,33.203,13.672,-71.289,0
1542904873.738,49.316,16.602,26.855,27.832,-98.145,0
1542904873.742,47.852,20.996,28.809,12.695,-100.098,0
1542904873.746,33.203,26.855,26.855,19.531,-122.070,0
1542904873.749,33.203,29.297,24.414,28.809,-133.789,0
1542904873.753,32.715,29.297,28.320,37.109,-135.254,0
1542904873.757,41.016,28.809,28.320,43.457,-139.648,0
1542904873.761,59.082,32.227,30.762,35.156,-117.188,0
1542904873.765,51.758,34.180,33.203,16.113,-92.285,0
1542904873.769,31.738,29.297,32.227,35.156,-57.617,0
1542904873.773,27.344,27.832,31.738,47.852,-28.809,0
1542904873.777,48.828,28.809,32.715,38.086,-44.434,0
1542904873.781,64.453,28.320,36.621,42.969,-42.480,0
1542904873.785,52.734,31.250,34.668,32.715,-14.160,0
1542904873.788,37.109,31.250,31.738,38.574,1.953,0
1542904873.792,34.180,28.809,38.574,47.852,-0.977,0
1542904873.796,44.434,32.227,33.691,24.414,4.395,0
1542904873.800,49.316,28.809,25.391,23.438,18.066,0
1542904873.804,44.922,26.367,26.855,27.344,28.320,0
1542904873.808,39.062,33.203,22.949,25.391,27.832,0
1542904873.812,46.875,33.203,25.879,33.203,38.574,0
1542904873.816,38.574,28.320,34.180,48.340,68.359,0
1542904873.820,38.574,34.668,31.250,43.945,71.777,0
1542904873.824,43.945,35.645,31.738,35.645,55.176,0
1542904873.828,30.273,26.855,28.320,33.203,32.227,0
1542904873.831,31.250,27.832,22.461,20.020,42.969,0
1542904873.835,37.109,34.180,27.344,20.996,65.918,0
1542904873.839,38.574,32.715,31.250,24.414,76.660,0
1542904873.843,52.246,27.832,28.320,15.625,73.242,0
1542904873.847,44.922,30.273,27.344,7.812,81.543,0
1542904873.851,40.527,32.227,28.320,17.090,88.867,0
1542904873.855,50.293,31.250,32.715,28.809,100.098,0
1542904873.859,38.086,36.133,28.320,20.996,102.539,0
1542904873.863,39.551,35.156,33.203,36.133,110.840,0
1542904873.867,48.828,31.738,37.598,36.133,111.328,0
1542904873.871,48.340,30.762,27.344,20.508,83.984,0
1542904873.874,45.898,32.715,24.414,19.531,87.891,0
1542904873.878,45.898,35.645,25.391,24.902,82.031,0
1542904873.882,36.133,33.203,26.367,30.762,61.523,0
1542904873.886,51.758,34.180,25.879,36.133,71.289,0
1542904873.890,56.641,32.227,27.344,53.711,106.934,0
1542904873.894,35.156,30.273,31.250,58.594,111.328,0
1542904873.898,41.016,36.133,27.344,45.410,101.074,0
1542904873.902,35.645,35.645,25.391,39.062,80.078,0
1542904873.906,43.457,35.645,29.297,34.180,68.848,0
1542904873.910,47.852,43.945,27.344,7.324,79.590,0
1542904873.913,49.805,46.387,28.320,-7.812,57.129,0
1542904873.917,60.059,41.992,34.668,25.391,60.059,0
1542904873.921,51.270,38.574,30.273,33.691,86.914,0
1542904873.925,48.828,37.598,33.203,26.367,86.426,0
1542904873.929,45.898,36.621,38.086,25.391,59.082,0
1542904873.933,51.270,36.621,28.809,19.043,39.551,0
1542904873.937,51.758,38.086,26.367,24.414,61.523,0
1542904873.941,51.758,36.133,31.250,39.551,63.965,0
1542904873.945,42.480,35.156,29.297,45.898,73.242,0
1542904873.949,40.039,38.086,32.715,37.109,61.523,0
1542904873.953,53.711,38.574,33.203,30.273,43.945,0
1542904873.956,63.477,39.551,30.273,35.156,41.016,0
1542904873.960,62.012,41.992,32.227,38.574,48.340,0
1542904873.964,46.387,36.621,34.180,39.062,57.129,0
1542904873.968,53.711,35.645,35.156,41.016,47.363,0
1542904873.972,56.641,43.945,32.227,42.969,39.551,0
1542904873.976,63.965,44.434,35.156,52.246,2.930,0
1542904873.980,48.828,40.527,39.062,61.523,15.137,0
1542904873.984,33.691,41.992,28.809,35.156,62.012,0
1542904873.988,50.781,39.551,18.555,19.043,46.875,0
1542904873.992,34.668,36.621,20.020,12.207,42.969,0
1542904873.996,33.203,36.621,20.996,8.789,58.594,0
1542904873.999,46.875,39.062,23.926,14.160,35.156,0
1542904874.003,47.363,42.480,29.785,13.672,-14.160,0
1542904874.007,56.641,44.922,24.414,23.438,-6.348,0
1542904874.011,60.547,41.504,21.484,44.922,26.367,0
1542904874.015,43.457,38.086,24.414,36.621,2.441,0
1542904874.019,36.133,42.480,23.926,11.719,-36.621,0
1542904874.023,35.156,43.457,23.926,1.953,-9.277,0
1542904874.027,41.016,43.945,26.367,19.043,8.301,0
1542904874.031,45.898,45.898,31.250,29.297,-14.648,0
1542904874.035,32.227,41.992,29.297,24.902,8.301,0
1542904874.038,36.621,39.551,21.484,18.066,-7.812,0
1542904874.042,29.785,37.598,24.414,15.137,-2.930,0
1542904874.046,38.574,41.504,27.344,19.531,11.230,0
1542904874.050,52.246,45.410,28.809,29.297,-20.020,0
1542904874.054,38.574,40.527,30.762,28.809,-31.738,0
1542904874.058,39.551,42.480,31.250,24.902,-6.348,0
1542904874.062,28.809,42.969,31.738,31.738,0.488,0
1542904874.066,32.715,39.551,31.250,29.785,-10.742,0
1542904874.070,47.852,45.410,30.273,32.715,13.184,0
1542904874.074,60.059,53.711,32.227,48.340,50.781,0
1542904874.078,77.148,48.828,33.203,41.504,45.898,0
1542904874.081,56.152,46.875,28.809,40.039,9.766,0
1542904874.085,60.059,51.758,29.785,57.617,2.930,0
1542904874.089,68.848,53.223,33.691,51.270,42.480,0
1542904874.093,54.688,50.781,34.180,41.504,44.434,0
1542904874.097,62.500,47.363,34.180,57.129,-2.930,0
1542904874.101,62.500,50.293,33.691,55.664,-2.441,0
1542904874.105,57.129,55.176,35.156,52.246,19.531,0
1542904874.109,62.500,47.852,30.762,58.105,-18.066,0
1542904874.113,62.988,42.480,28.809,49.316,-50.293,0
1542904874.117,45.410,44.922,31.738,39.551,-36.621,0
1542904874.121,48.828,43.457,35.156,44.922,-29.785,0
1542904874.124,65.918,44.434,37.109,58.105,-24.902,0
1542904874.128,66.406,50.293,43.945,47.852,-37.109,0
1542904874.132,55.664,45.410,46.387,37.598,-41.504,0
1542904874.136,55.176,40.527,39.062,52.246,-46.875,0
1542904874.140,63.965,41.504,38.574,69.336,-41.016,0
1542904874.144,71.777,39.062,37.109,53.711,-29.297,0
1542904874.148,90.332,31.738,40.039,62.500,-52.246,0
1542904874.152,107.422,37.109,43.945,94.238,-57.129,0
1542904874.156,47.852,58.594,41.016,28.809,-56.641,0
1542904874.160,-3.906,50.781,45.898,-7.812,-68.359,0
1542904874.163,5.859,41.992,45.410,9.277,-73.242,0
1542904874.167,-12.207,42.969,39.062,-17.578,-73.242,0
1542904874.171,9.277,37.109,47.363,-0.488,-66.406,0
1542904874.175,-1.953,48.340,47.852,-9.766,-86.914,0
1542904874.179,-5.371,42.969,46.875,-31.738,-103.516,0
1542904874.183,27.344,35.156,52.734,25.391,-91.797,0
1542904874.187,1.953,41.992,47.363,18.066,-93.750,0
1542904874.191,11.719,35.156,43.945,-5.859,-83.496,0
1542904874.195,25.879,22.949,37.598,10.254,-72.754,0
1542904874.199,12.207,20.996,25.879,12.207,-114.746,0
1542904874.203,23.438,27.344,25.879,18.555,-140.625,0
1542904874.206,31.250,27.832,29.785,22.461,-90.820,0
1542904874.210,33.691,26.367,37.598,41.504,-60.547,0
1542904874.214,31.738,27.832,40.527,35.156,-79.102,0
1542904874.218,39.551,27.344,38.086,28.809,-82.520,0
1542904874.222,50.781,26.367,38.086,30.273,-76.660,0
1542904874.226,34.180,28.809,34.180,16.602,-96.680,0
1542904874.230,29.297,25.391,28.809,28.809,-102.539,0
1542904874.234,35.645,29.785,27.344,31.250,-74.707,0
1542904874.238,32.715,36.621,28.809,37.598,-79.590,0
1542904874.242,45.410,34.180,29.297,72.266,-70.801,0
1542904874.246,59.570,37.598,28.320,60.059,-74.707,0
1542904874.249,45.410,39.551,23.926,16.113,-78.125,0
1542904874.253,32.715,35.645,26.855,14.648,-49.805,0
1542904874.257,41.504,33.691,32.715,24.414,-60.547,0
1542904874.261,46.875,31.738,38.086,32.715,-23.438,0
1542904874.265,46.387,29.297,36.621,28.809,5.859,0
1542904874.269,45.898,29.297,29.297,30.273,6.348,0
1542904874.273,53.223,27.832,32.715,43.945,30.273,0
1542904874.277,54.688,32.715,34.180,48.828,47.852,0
1542904874.281,41.016,32.715,28.809,39.551,75.684,0
1542904874.285,43.457,29.785,31.738,15.137,54.199,0
1542904874.288,44.434,33.691,35.645,21.484,55.176,0
1542904874.292,40.039,37.109,34.668,39.062,61.035,0
1542904874.296,47.852,40.039,35.156,40.527,53.223,0
1542904874.300,47.852,42.969,28.320,28.809,88.867,0
1542904874.304,51.270,44.922,25.879,22.461,96.191,0
1542904874.308,56.641,45.410,38.574,26.367,133.301,0
1542904874.312,50.781,44.434,33.203,32.715,178.223,0
1542904874.316,42.480,36.133,18.555,40.039,170.898,0
1542904874.320,28.809,27.344,19.531,38.086,163.574,0
1542904874.324,36.133,33.203,23.926,31.738,144.043,0
1542904874.328,57.129,43.457,29.297,33.691,91.797,0
1542904874.331,51.758,40.039,28.320,25.391,39.062,0
1542904874.335,44.434,37.598,25.391,23.926,15.625,0
1542904874.339,52.246,36.133,31.250,41.992,-4.395,0
1542904874.343,83.008,26.367,44.434,68.359,-36.133,0
1542904874.347,86.914,48.828,37.109,68.359,-64.453,0
1542904874.351,27.344,69.824,15.137,4.883,-102.051,0
1542904874.355,14.648,56.152,16.113,-16.602,-93.262,0
1542904874.359,52.734,50.781,24.902,8.301,-104.980,0
1542904874.363,52.734,58.105,17.090,20.508,-131.836,0
1542904874.367,50.781,66.406,6.836,29.785,-106.934,0
1542904874.371,61.035,65.430,15.137,21.973,-103.027,0
1542904874.374,41.992,67.871,26.367,11.719,-98.633,0
1542904874.378,19.043,61.523,20.996,9.766,-79.590,0
1542904874.382,49.805,56.641,25.391,30.762,-53.711,0
1542904874.386,63.965,58.105,31.738,37.109,-28.320,0
1542904874.390,45.898,51.270,22.949,27.344,-29.297,0
1542904874.394,40.039,46.875,22.949,22.461,-33.203,0
1542904874.398,31.250,44.922,30.762,15.137,-18.555,0
1542904874.402,38.086,41.504,33.203,30.762,-9.277,0
1542904874.406,49.805,46.387,33.691,40.039,7.812,0
1542904874.410,41.992,45.898,33.203,27.344,31.250,0
1542904874.413,33.691,41.992,32.227,15.137,21.484,0
1542904874.417,41.504,41.504,28.320,11.230,17.090,0
1542904874.421,50.293,35.156,25.391,7.324,41.504,0
1542904874.425,50.293,38.086,29.785,12.695,52.734,0
1542904874.429,43.945,42.969,29.297,28.320,58.594,0
1542904874.433,39.551,42.969,27.344,34.180,40.527,0
1542904874.437,41.016,40.039,28.320,45.898,58.105,0
1542904874.441,33.691,35.156,28.320,38.086,73.242,0
1542904874.445,32.715,34.668,26.367,18.555,69.336,0
1542904874.449,41.992,33.203,22.461,19.043,83.496,0
1542904874.453,35.156,31.738,23.438,18.066,61.523,0
1542904874.456,37.598,32.715,32.715,19.043,45.898,0
1542904874.460,47.852,38.574,34.668,31.250,63.965,0
1542904874.464,35.156,40.039,32.715,44.434,63.965,0
1542904874.468,51.270,41.016,35.645,45.410,71.777,0
1542904874.472,65.918,43.945,33.203,43.945,90.332,0
1542904874.476,44.434,39.062,32.227,41.016,75.195,0
1542904874.480,40.527,36.621,31.250,33.203,49.316,0
1542904874.484,50.293,37.598,28.809,33.691,31.738,0
1542904874.488,52.734,37.109,32.715,25.879,32.227,0
1542904874.492,35.645,30.762,29.785,5.371,54.688,0
1542904874.496,26.855,32.715,28.809,17.090,68.848,0
1542904874.499,21.973,29.785,34.668,32.715,72.754,0
1542904874.503,15.625,28.320,32.715,37.109,51.270,0
1542904874.507,29.297,35.156,27.344,34.180,42.480,0
1542904874.511,52.246,35.156,33.203,46.875,53.223,0
1542904874.515,58.594,35.645,32.227,53.223,61.523,0
1542904874.519,34.668,32.715,28.320,31.250,41.016,0
1542904874.523,40.039,27.344,33.691,23.926,38.574,0
1542904874.527,46.875,27.344,30.273,39.062,47.852,0
1542904874.531,36.133,31.738,21.973,34.180,12.695,0
1542904874.535,39.551,30.762,25.879,24.902,4.883,0
1542904874.538,46.875,35.645,25.391,30.273,29.785,0
1542904874.542,45.410,37.598,27.344,31.738,20.508,0
1542904874.546,36.133,35.645,35.645,31.738,17.578,0
1542904874.550,41.992,35.156,28.809,41.016,56.152,0
1542904874.554,71.289,31.738,22.461,61.035,59.570,0
1542904874.558,55.176,31.250,34.668,49.805,21.973,0
1542904874.562,20.020,22.461,47.363,31.738,15.625,0
1542904874.566,27.344,14.160,44.434,40.527,41.016,0
1542904874.570,41.016,20.996,36.133,44.922,22.949,0
1542904874.574,35.645,22.461,38.574,27.344,-3.906,0
1542904874.578,24.414,19.043,41.504,12.695,11.230,0
1542904874.581,29.785,20.020,36.621,16.113,20.508,0
1542904874.585,24.902,20.020,30.762,7.812,15.137,0
1542904874.589,32.715,18.066,29.297,20.020,17.090,0
1542904874.593,51.270,19.043,33.691,33.691,0.488,0
1542904874.597,43.945,18.555,34.180,37.598,-3.418,0
1542904874.601,35.156,22.461,33.691,41.016,-15.137,0
1542904874.605,41.992,23.926,40.039,53.223,-5.859,0
1542904874.609,53.223,23.438,39.551,48.340,34.180,0
1542904874.613,61.523,30.762,36.133,28.320,12.695,0
1542904874.617,50.781,27.832,35.645,37.109,-50.293,0
1542904874.621,41.016,23.926,27.344,28.809,-53.223,0
1542904874.624,43.457,27.344,23.438,19.531,-1.465,0
1542904874.628,46.387,23.438,31.738,33.691,22.461,0
1542904874.632,45.898,26.855,28.809,48.828,5.371,0
1542904874.636,40.039,27.832,24.902,39.062,-5.859,0
1542904874.640,44.922,29.297,29.785,41.504,19.531,0
1542904874.644,40.527,32.715,31.250,41.992,25.391,0
1542904874.648,41.992,24.902,33.203,28.320,-9.277,0
1542904874.652,47.363,26.855,26.855,25.391,-15.625,0
1542904874.656,38.574,35.645,22.949,25.391,-0.488,0
1542904874.660,45.898,34.180,28.809,47.852,1.465,0
1542904874.663,50.293,31.738,29.785,55.176,-28.320,0
1542904874.667,41.016,30.273,27.344,55.664,-33.691,0
1542904874.671,42.480,27.832,25.879,45.898,2.441,0
1542904874.675,48.340,31.738,28.320,15.137,-25.879,0
1542904874.679,58.594,36.621,33.691,8.301,-31.738,0
1542904874.683,52.734,34.180,31.250,17.090,0.977,0
1542904874.687,38.574,26.855,27.344,23.438,-24.414,0
1542904874.691,47.363,28.809,25.879,28.809,-39.062,0
1542904874.695,47.363,32.227,28.320,28.809,-18.066,0
1542904874.699,39.062,26.367,31.738,29.785,-0.488,0
1542904874.703,43.457,28.320,28.809,36.133,-27.832,0
1542904874.706,47.852,33.691,30.762,40.039,-30.762,0
1542904874.710,32.715,34.180,29.297,39.551,-30.762,0
1542904874.714,40.039,37.109,29.785,40.039,-48.828,0
1542904874.718,47.852,36.621,34.668,44.434,-41.016,0
1542904874.722,35.645,35.645,31.250,48.340,-25.879,0
1542904874.726,39.062,34.180,33.203,38.574,-38.574,0
1542904874.730,31.738,32.715,30.762,23.926,-22.461,0
1542904874.734,27.832,34.668,21.973,16.602,-12.695,0
1542904874.738,37.109,28.809,30.273,27.344,-25.391,0
1542904874.742,43.457,29.297,27.344,29.785,-25.879,0
1542904874.746,34.180,34.180,20.508,31.738,-28.320,0
1542904874.749,41.504,28.809,26.367,44.922,-39.062,0
1542904874.753,47.363,29.785,25.391,47.852,-39.551,0
1542904874.757,50.293,37.109,19.043,36.133,-34.668,0
1542904874.761,49.316,35.156,22.949,22.949,-57.129,0
1542904874.765,36.621,33.691,24.902,42.480,-56.641,0
1542904874.769,35.156,33.691,22.949,40.039,-45.410,0
1542904874.773,25.879,25.879,28.809,19.043,-83.008,0
1542904874.777,27.344,25.391,28.320,26.367,-64.453,0
1542904874.781,37.109,28.320,29.785,33.691,-31.250,0
1542904874.785,34.668,28.320,29.297,33.691,-63.965,0
1542904874.788,45.898,30.762,25.391,33.203,-65.918,0
1542904874.792,53.223,31.250,31.738,44.922,-58.594,0
1542904874.796,50.293,34.668,28.809,50.781,-42.480,0
1542904874.800,46.387,41.992,33.203,34.180,-38.086,0
1542904874.804,40.039,37.598,33.203,4.395,-50.781,0
1542904874.808,37.598,28.809,24.414,9.766,-29.785,0
1542904874.812,38.574,28.320,28.320,24.414,-27.344,0
1542904874.816,40.527,34.180,30.273,22.949,-32.715,0
1542904874.820,30.762,30.762,32.227,30.762,-3.906,0
1542904874.824,43.457,33.691,37.109,42.480,21.484,0
1542904874.828,57.129,35.645,34.668,45.410,7.324,0
1542904874.831,38.574,25.391,23.926,42.969,-8.789,0
1542904874.835,30.273,29.785,26.855,42.480,-1.953,0
1542904874.839,45.410,35.156,33.691,40.527,1.465,0
1542904874.843,37.109,32.715,29.297,17.578,8.301,0
1542904874.847,25.391,27.344,31.250,13.184,9.277,0
1542904874.851,28.809,28.809,29.785,31.738,-26.855,0
1542904874.855,32.227,29.297,27.832,34.668,-29.297,0
1542904874.859,28.320,26.367,28.320,28.320,1.465,0
1542904874.863,28.320,27.832,28.809,31.250,-14.648,0
1542904874.867,34.668,30.762,29.785,43.457,-23.926,0
1542904874.871,27.832,29.785,26.855,45.410,-6.836,0
1542904874.874,40.039,28.320,25.879,32.715,10.254,0
1542904874.878,38.574,37.598,24.414,28.809,14.648,0
1542904874.882,37.598,35.645,26.855,41.504,1.953,0
1542904874.886,68.359,20.996,33.691,69.824,-5.859,0
1542904874.890,62.988,30.273,28.809,77.148,20.020,0
1542904874.894,28.320,49.316,24.902,24.902,18.555,0
1542904874.898,26.367,46.387,21.484,13.184,23.438,0
1542904874.902,53.711,49.316,13.672,33.203,28.320,0
1542904874.906,54.688,58.594,14.160,29.297,2.441,0
1542904874.910,42.969,55.664,18.555,35.156,14.160,0
1542904874.913,45.410,55.664,22.949,26.367,36.133,0
1542904874.917,52.734,55.176,27.832,32.715,18.066,0
1542904874.921,40.039,52.734,31.250,33.203,-6.836,0
1542904874.925,41.992,49.316,31.250,26.367,7.324,0
1542904874.929,50.781,49.805,32.227,27.344,11.230,0
1542904874.933,44.922,48.340,33.203,41.016,-12.207,0
1542904874.937,56.152,43.457,29.785,44.434,-31.250,0
1542904874.941,48.340,49.316,33.691,30.762,-29.785,0
1542904874.945,40.527,49.316,36.133,40.039,-17.578,0
1542904874.949,51.758,43.457,32.715,41.504,-43.457,0
1542904874.953,57.129,36.621,32.715,32.715,-71.777,0
1542904874.956,40.527,33.203,32.715,43.457,-26.855,0
1542904874.960,39.062,39.551,29.785,69.824,-26.367,0
1542904874.964,56.152,39.551,29.785,70.312,-51.758,0
1542904874.968,52.734,41.504,30.273,58.594,-45.898,0
1542904874.972,43.457,43.457,29.297,24.414,-20.996,0
1542904874.976,25.879,41.992,23.438,-4.395,-13.184,0
1542904874.980,23.926,36.621,25.391,15.137,-41.504,0
1542904874.984,29.785,33.691,35.156,21.973,-38.574,0
1542904874.988,32.715,39.551,35.156,29.785,-31.250,0
1542904874.992,39.551,40.039,29.297,41.016,-32.227,0
1542904874.996,53.223,43.457,26.367,38.086,-45.410,0
1542904874.999,62.012,47.852,26.367,41.992,-47.363,0
1542904875.003,57.129,40.039,27.832,40.039,-33.691,0
1542904875.007,49.805,37.109,26.367,37.598,-10.742,0
1542904875.011,50.293,38.574,31.738,53.223,-10.254,0
1542904875.015,60.547,38.086,32.227,54.688,-1.953,0
1542904875.019,50.781,38.574,25.879,40.527,-2.930,0
1542904875.023,45.898,37.109,26.367,27.344,0.000,0
1542904875.027,47.852,33.691,29.785,16.113,9.277,0
1542904875.031,36.621,35.156,35.156,19.531,-18.066,0
1542904875.035,36.621,40.039,36.133,36.621,-23.438,0
1542904875.038,33.691,37.598,30.273,30.762,-16.113,0
1542904875.042,42.480,38.574,27.832,17.090,-28.809,0
1542904875.046,60.059,42.480,34.668,24.902,-24.414,0
1542904875.050,46.387,42.480,31.738,33.691,-12.207,0
1542904875.054,47.363,41.992,28.809,38.574,-0.977,0
1542904875.058,45.410,41.992,33.691,48.340,3.906,0
1542904875.062,32.715,36.621,28.320,42.480,17.578,0
1542904875.066,31.738,32.227,25.391,28.320,9.277,0
1542904875.070,48.828,34.180,27.344,22.949,-24.414,0
1542904875.074,55.664,34.668,31.738,25.879,-44.434,0
1542904875.078,33.691,37.598,33.691,23.438,-39.062,0
1542904875.081,50.781,39.551,35.645,58.105,-25.391,0
1542904875.085,50.781,37.109,35.645,42.969,-9.766,0
1542904875.089,26.855,35.645,28.320,10.254,-22.461,0
1542904875.093,38.574,35.645,26.367,30.762,-5.371,0
1542904875.097,45.410,40.039,24.414,36.621,4.883,0
1542904875.101,52.734,40.039,23.926,30.762,-30.273,0
1542904875.105,56.152,35.645,24.414,33.691,-7.812,0
1542904875.109,36.621,36.621,25.879,34.668,12.695,0
1542904875.113,36.133,36.621,27.344,25.879,-24.414,0
1542904875.117,47.363,35.156,25.391,14.648,-28.320,0
1542904875.121,44.434,34.668,24.414,-1.953,9.277,0
1542904875.124,43.945,35.156,18.066,11.719,14.160,0
1542904875.128,65.918,32.715,17.578,49.805,3.418,0
1542904875.132,70.801,30.762,27.832,61.035,-1.953,0
1542904875.136,23.926,29.785,35.645,25.391,2.441,0
1542904875.140,2.930,21.484,37.109,2.930,-3.418,0
1542904875.144,38.574,12.695,34.180,29.297,-12.207,0
1542904875.148,44.922,10.742,39.062,53.711,-19.043,0
1542904875.152,37.109,5.859,42.969,55.664,-14.160,0
1542904875.156,36.133,-0.977,41.016,46.387,12.207,0
1542904875.160,26.855,3.418,35.645,28.320,21.973,0
1542904875.163,39.062,13.672,29.785,26.855,28.320,0
1542904875.167,39.062,17.578,30.273,28.320,31.738,0
1542904875.171,31.250,14.160,32.715,22.461,-0.488,0
1542904875.175,31.738,17.578,32.227,39.551,-26.855,0
1542904875.179,37.598,16.602,32.227,52.246,-26.367,0
1542904875.183,43.945,14.648,32.715,47.852,-8.301,0
1542904875.187,38.574,17.578,33.691,46.875,-1.465,0
1542904875.191,43.457,13.672,40.527,44.922,-6.348,0
1542904875.195,46.875,19.531,37.598,47.363,-13.672,0
1542904875.199,33.203,20.996,34.668,44.922,-2.930,0
1542904875.203,39.551,20.020,31.250,31.250,9.766,0
1542904875.206,43.945,27.344,23.926,22.461,2.441,0
1542904875.210,39.551,26.855,26.855,22.949,-21.484,0
1542904875.214,33.691,21.973,26.367,23.926,-18.555,0
1542904875.218,37.598,21.484,27.832,25.391,16.602,0
1542904875.222,39.062,22.949,28.809,25.391,-9.766,0
1542904875.226,41.016,24.902,31.250,48.340,-30.273,0
1542904875.230,43.457,25.391,36.133,52.734,-0.977,0
1542904875.234,43.457,25.879,30.273,41.016,-25.879,0
1542904875.238,36.621,30.273,28.809,33.203,-57.129,0
1542904875.242,32.715,32.227,34.668,33.691,5.859,0
1542904875.246,47.852,28.320,34.180,49.805,26.367,0
1542904875.249,44.434,25.391,31.738,43.457,-0.977,0
1542904875.253,41.504,26.367,30.762,31.250,-13.672,0
1542904875.257,51.758,31.738,24.902,31.250,8.789,0
1542904875.261,45.898,36.621,22.949,24.902,-13.184,0
1542904875.265,42.969,35.156,21.973,26.367,-43.457,0
1542904875.269,35.156,27.832,22.949,33.691,-20.996,0
1542904875.273,22.949,30.273,23.438,17.578,-28.809,0
1542904875.277,23.926,33.691,24.414,28.809,-49.316,0
1542904875.281,36.133,30.273,30.273,47.363,-52.246,0
1542904875.285,42.969,26.855,32.715,39.551,-42.969,0
1542904875.288,49.805,27.832,31.738,33.691,1.465,0
1542904875.292,44.922,37.598,30.273,31.250,-4.395,0
1542904875.296,46.875,32.227,33.203,40.527,-20.508,0
1542904875.300,55.664,31.738,31.250,60.059,8.301,0
1542904875.304,63.477,40.527,29.785,42.969,-19.531,0
1542904875.308,45.410,40.039,29.785,23.438,-22.461,0
1542904875.312,23.926,33.203,25.391,26.367,10.742,0
1542904875.316,28.809,28.320,28.809,23.926,2.930,0
1542904875.320,32.715,35.156,30.762,17.090,-5.371,0
1542904875.324,41.992,32.227,31.738,17.578,-24.414,0
1542904875.328,47.852,26.855,32.227,40.039,-18.555,0
1542904875.331,37.598,30.762,24.414,36.621,-1.953,0
1542904875.335,36.621,31.250,24.902,11.230,2.930,0
1542904875.339,41.504,30.762,33.203,30.762,24.414,0
1542904875.343,48.340,37.109,32.227,52.734,20.996,0
1542904875.347,53.711,38.574,29.297,29.297,19.043,0
1542904875.351,44.434,34.180,30.762,4.395,8.789,0
1542904875.355,32.715,35.156,32.227,19.531,-12.695,0
1542904875.359,43.457,33.203,33.203,32.227,-22.461,0
1542904875.363,49.805,30.762,31.250,22.461,-4.883,0
1542904875.367,33.203,29.785,32.227,26.855,-4.395,0
1542904875.371,20.020,30.273,35.645,21.973,-27.344,0
1542904875.374,26.367,36.133,33.203,26.855,-43.457,0
1542904875.378,35.156,40.527,29.785,41.504,-39.062,0
1542904875.382,31.250,34.668,28.809,26.367,-61.523,0
1542904875.386,43.945,36.133,30.762,31.250,-42.480,0
1542904875.390,53.711,39.551,31.250,46.387,-11.230,0
1542904875.394,46.387,32.715,30.762,32.715,-42.969,0
1542904875.398,44.922,26.855,28.809,29.297,-59.570,0
1542904875.402,37.598,29.297,22.949,11.230,-67.871,0
1542904875.406,32.227,29.785,23.438,8.789,-46.387,0
1542904875.410,39.062,35.156,25.879,21.973,-32.227,0
1542904875.413,52.734,41.016,27.832,22.461,-84.961,0
1542904875.417,34.668,38.086,29.297,20.020,-87.891,0
1542904875.421,22.949,32.715,33.691,13.672,-53.711,0
1542904875.425,51.758,33.691,33.691,16.602,-28.809,0
1542904875.429,45.898,36.621,31.250,35.156,-48.828,0
1542904875.433,30.762,34.180,33.691,55.176,-63.477,0
1542904875.437,40.039,34.180,38.086,44.434,-32.227,0
1542904875.441,33.203,33.691,35.156,25.879,-45.410,0
1542904875.445,34.180,35.156,33.203,25.391,-57.129,0
1542904875.449,22.949,31.738,33.203,13.184,-13.672,0
1542904875.453,26.367,33.691,32.715,11.719,-20.996,0
1542904875.456,55.664,38.086,31.250,23.926,-17.090,0
1542904875.460,35.156,31.738,30.273,36.621,-15.625,0
1542904875.464,24.902,29.785,32.227,36.621,-62.012,0
1542904875.468,37.109,33.203,32.715,38.086,-60.059,0
1542904875.472,44.922,34.180,35.645,43.945,-59.082,0
1542904875.476,46.875,35.645,37.598,39.551,-75.684,0
1542904875.480,43.457,40.527,28.320,36.133,-42.480,0
1542904875.484,47.363,36.621,28.320,22.949,-11.230,0
1542904875.488,42.480,35.645,33.691,20.996,-2.930,0
1542904875.492,42.969,35.156,33.203,26.855,5.371,0
1542904875.496,56.152,33.691,35.645,32.715,-3.906,0
1542904875.499,44.434,38.086,33.691,42.480,-12.207,0
1542904875.503,44.434,39.551,36.133,41.992,-7.812,0
1542904875.507,51.758,38.086,35.156,29.297,6.348,0
1542904875.511,40.039,33.203,27.832,27.344,4.395,0
1542904875.515,39.551,34.180,27.344,34.668,-11.719,0
1542904875.519,46.387,35.156,28.809,15.625,-36.133,0
1542904875.523,45.898,35.156,28.809,22.949,-42.969,0
1542904875.527,31.738,33.691,32.715,36.133,5.371,0
1542904875.531,44.434,33.203,32.715,25.879,3.906,0
1542904875.535,36.621,32.227,35.645,18.066,-24.414,0
1542904875.538,55.664,20.996,49.316,48.828,1.953,0
1542904875.542,72.754,29.785,43.457,71.777,16.602,0
1542904875.546,9.766,52.734,22.949,12.695,30.762,0
1542904875.550,-10.742,52.734,25.879,-26.367,34.668,0
1542904875.554,20.996,50.781,29.297,-15.137,4.395,0
1542904875.558,34.668,54.688,24.902,9.766,-11.719,0
1542904875.562,16.602,61.035,21.973,6.348,-28.809,0
1542904875.566,17.090,62.500,26.367,-0.488,-23.926,0
1542904875.570,29.297,56.152,31.250,1.953,21.484,0
1542904875.574,34.180,56.152,36.621,9.277,35.156,0
1542904875.578,39.062,42.969,35.645,32.715,-1.465,0
1542904875.581,42.480,38.086,31.250,36.133,-28.809,0
1542904875.585,33.203,51.270,34.668,26.367,-27.832,0
1542904875.589,33.691,44.922,32.227,17.090,-2.930,0
1542904875.593,29.785,35.645,30.273,23.926,8.301,0
1542904875.597,28.809,40.527,28.320,22.949,-17.090,0
1542904875.601,38.086,40.527,28.320,8.301,-35.156,0
1542904875.605,38.086,38.574,35.645,17.578,-10.254,0
1542904875.609,41.992,40.039,32.715,14.648,7.324,0
1542904875.613,36.133,37.109,26.367,29.785,-5.859,0
1542904875.617,25.391,34.668,25.391,33.203,3.418,0
1542904875.621,32.227,41.016,27.344,28.320,-9.766,0
1542904875.624,40.039,41.992,30.762,25.391,-20.996,0
1542904875.628,38.574,38.574,32.715,20.020,-21.973,0
1542904875.632,52.734,39.551,32.227,31.250,12.695,0
1542904875.636,41.016,40.527,34.668,22.949,48.340,0
1542904875.640,37.598,40.039,37.598,20.996,18.555,0
1542904875.644,53.711,38.574,36.621,34.668,11.719,0
1542904875.648,39.551,36.133,32.715,40.527,17.090,0
1542904875.652,31.250,31.738,32.715,37.598,1.953,0
1542904875.656,46.387,34.180,32.715,38.574,-10.742,0
1542904875.660,45.898,41.016,32.715,46.875,18.066,0
1542904875.663,46.387,36.133,31.250,37.598,41.016,0
1542904875.667,42.969,31.738,33.203,21.973,12.695,0
1542904875.671,32.715,36.133,39.062,25.879,-8.301,0
1542904875.675,42.969,36.621,35.645,31.250,7.324,0
1542904875.679,54.688,34.180,34.668,29.785,20.508,0
1542904875.683,45.410,34.668,36.133,36.133,4.883,0
1542904875.687,31.250,36.621,30.762,37.598,15.137,0
1542904875.691,34.668,34.668,28.809,24.902,12.695,0
1542904875.695,45.410,36.133,24.902,41.016,3.906,0
1542904875.699,44.922,34.668,25.391,61.523,-21.484,0
1542904875.703,38.574,35.156,28.809,40.039,-50.781,0
1542904875.706,50.293,45.898,28.809,27.832,-3.418,0
1542904875.710,73.242,48.340,32.227,38.086,-15.625,0
1542904875.714,43.945,44.434,30.273,35.645,-32.715,0
1542904875.718,44.922,40.527,26.855,38.574,-20.020,0
1542904875.722,78.125,34.668,32.227,35.156,-14.648,0
1542904875.726,49.316,34.668,34.180,35.645,-8.301,0
1542904875.730,48.340,38.574,32.227,41.016,-3.418,0
1542904875.734,55.664,39.062,35.156,23.438,-2.930,0
1542904875.738,47.363,35.156,32.715,27.832,3.906,0
1542904875.742,51.270,36.621,29.297,36.133,-13.672,0
1542904875.746,54.688,40.527,33.691,42.969,2.930,0
1542904875.749,48.828,41.992,34.180,44.922,32.227,0
1542904875.753,36.621,36.133,33.203,26.855,-0.977,0
1542904875.757,44.922,34.668,29.785,23.926,-16.602,0
1542904875.761,49.316,42.969,30.273,27.832,-0.488,0
1542904875.765,45.898,40.039,36.133,45.410,44.434,0
1542904875.769,42.480,34.180,27.832,44.922,38.086,0
1542904875.773,33.203,31.738,23.438,14.160,10.742,0
1542904875.777,45.898,31.250,27.344,17.578,8.301,0
1542904875.781,48.828,31.738,26.367,27.344,22.949,0
1542904875.785,39.551,31.738,23.438,25.391,28.809,0
1542904875.788,35.645,36.133,23.926,29.297,-12.695,0
1542904875.792,39.551,37.598,30.762,40.527,-20.020,0
1542904875.796,48.340,37.109,32.227,33.203,-1.953,0
1542904875.800,46.875,35.645,30.273,26.855,-17.578,0
1542904875.804,48.340,33.203,30.273,30.762,-44.922,0
1542904875.808,47.363,32.715,30.762,26.367,-37.109,0
1542904875.812,36.133,31.738,32.715,27.832,-13.184,0
1542904875.816,49.805,33.203,31.738,26.855,-30.273,0
1542904875.820,62.012,34.180,31.250,37.598,-37.598,0
1542904875.824,46.875,33.203,33.203,42.969,11.230,0
1542904875.828,42.969,37.598,28.320,38.574,39.551,0
1542904875.831,44.434,34.668,33.203,34.668,-7.324,0
1542904875.835,34.180,30.762,38.086,28.809,1.953,0
1542904875.839,41.016,38.086,32.715,41.016,43.457,0
1542904875.843,47.363,38.086,30.273,40.039,20.996,0
1542904875.847,45.898,33.691,29.785,32.227,-21.973,0
1542904875.851,45.410,34.668,33.203,46.387,-58.105,0
1542904875.855,38.574,33.203,34.180,24.414,-25.391,0
1542904875.859,49.316,33.203,32.227,27.344,16.602,0
1542904875.863,41.992,33.691,34.668,40.527,2.441,0
1542904875.867,29.785,30.273,31.250,19.531,-17.578,0
1542904875.871,47.363,28.320,29.785,18.066,-8.301,0
1542904875.874,52.734,28.809,32.715,45.410,-12.207,0
1542904875.878,31.738,29.785,29.297,55.664,-34.180,0
1542904875.882,34.180,35.645,23.438,26.367,-30.273,0
1542904875.886,41.504,31.250,25.879,5.859,-12.207,0
1542904875.890,38.574,28.320,25.879,5.371,-23.926,0
1542904875.894,34.668,32.715,25.391,19.531,-27.344,0
1542904875.898,24.902,33.691,30.762,10.742,-38.086,0
1542904875.902,27.832,33.691,29.785,12.207,-37.109,0
1542904875.906,28.809,35.156,28.809,17.090,-9.277,0
1542904875.910,36.133,36.621,35.645,16.602,7.324,0
1542904875.913,46.875,31.738,37.598,39.062,-3.906,0
1542904875.917,46.875,31.738,36.133,40.527,-29.297,0
1542904875.921,33.203,28.320,33.203,22.461,-34.668,0
1542904875.925,36.621,22.461,34.668,21.484,-11.719,0
1542904875.929,38.574,25.391,35.156,17.090,-3.418,0
1542904875.933,29.785,26.855,31.738,16.602,-9.277,0
1542904875.937,20.996,26.855,29.785,26.367,-17.578,0
1542904875.941,25.879,32.227,29.297,27.832,-18.555,0
1542904875.945,39.551,34.668,34.668,25.391,-21.484,0
1542904875.949,45.898,33.203,34.668,38.574,-26.855,0
1542904875.953,35.156,32.715,31.250,48.828,-36.133,0
1542904875.956,41.016,29.297,28.809,29.785,-32.715,0
1542904875.960,46.387,33.691,29.297,23.926,-2.930,0
1542904875.964,45.410,32.227,35.156,15.625,-12.695,0
1542904875.968,62.988,26.855,31.250,30.762,-14.648,0
1542904875.972,41.016,30.762,20.508,50.781,-6.836,0
1542904875.976,31.738,28.320,24.414,34.180,-7.812,0
1542904875.980,38.574,26.855,34.180,30.273,-8.301,0
1542904875.984,26.367,27.344,36.133,30.762,-27.832,0
1542904875.988,33.203,30.762,36.621,28.320,-29.785,0
1542904875.992,38.086,39.551,37.598,14.648,-24.414,0
1542904875.996,43.945,38.086,35.645,14.160,-26.367,0
1542904875.999,38.086,25.391,34.668,26.367,-36.133,0
1542904876.003,25.879,26.367,33.203,19.531,-31.250,0
1542904876.007,36.133,30.762,32.227,18.066,-2.441,0
1542904876.011,43.457,25.391,33.203,22.461,3.906,0
1542904876.015,42.969,32.715,32.227,27.832,-10.254,0
1542904876.019,30.762,38.574,34.668,26.367,-11.230,0
1542904876.023,36.621,35.645,30.273,30.762,-23.926,0
1542904876.027,41.016,33.691,29.297,35.645,-35.645,0
1542904876.031,30.762,30.762,34.180,35.645,-25.391,0
1542904876.035,40.039,32.715,34.180,35.156,-40.039,0
1542904876.038,50.293,42.969,39.062,31.250,-33.203,0
1542904876.042,46.387,44.434,40.039,35.156,-3.418,0
1542904876.046,48.340,35.156,36.133,32.715,15.625,0
1542904876.050,36.621,32.715,27.344,35.156,24.414,0
1542904876.054,35.156,28.809,24.414,37.598,2.930,0
1542904876.058,33.691,26.367,31.250,13.672,-13.672,0
1542904876.062,31.738,32.227,34.180,13.184,-4.883,0
1542904876.066,41.992,34.668,30.273,26.855,9.277,0
1542904876.070,36.133,33.203,27.832,23.438,17.578,0
1542904876.074,37.109,32.227,24.902,25.879,12.695,0
1542904876.078,41.992,33.691,27.832,38.574,16.602,0
1542904876.081,49.316,37.598,32.715,35.645,39.551,0
1542904876.085,60.547,36.133,32.715,38.574,42.480,0
1542904876.089,51.270,38.574,32.715,47.363,21.484,0
1542904876.093,41.504,36.133,34.668,36.133,26.367,0
1542904876.097,38.086,32.715,38.574,30.273,33.691,0
1542904876.101,44.922,30.273,39.551,43.457,25.879,0
1542904876.105,53.711,25.391,36.621,59.570,45.898,0
1542904876.109,42.480,37.598,33.203,36.621,52.246,0
1542904876.113,25.879,41.504,29.297,21.484,28.809,0
1542904876.117,42.969,43.457,30.762,26.855,35.645,0
1542904876.121,60.059,52.734,33.203,25.391,36.621,0
1542904876.124,58.594,55.664,34.668,25.879,34.180,0
1542904876.128,51.270,49.316,31.250,13.672,44.922,0
1542904876.132,41.504,40.527,26.367,15.625,16.113,0
1542904876.136,44.922,39.551,24.414,32.715,14.648,0
1542904876.140,36.133,37.109,28.320,34.180,25.391,0
1542904876.144,41.992,38.574,29.785,33.691,23.438,0
1542904876.148,54.688,39.551,34.180,47.363,1.465,0
1542904876.152,59.082,42.969,35.645,46.875,-5.371,0
1542904876.156,52.246,49.805,29.785,26.367,16.113,0
1542904876.160,41.992,42.480,32.715,33.691,40.039,0
1542904876.163,46.875,34.668,31.738,39.551,40.039,0
1542904876.167,49.316,35.645,35.645,26.367,12.695,0
1542904876.171,53.711,38.574,39.062,26.367,4.883,0
1542904876.175,58.594,32.715,34.668,28.809,4.395,0
1542904876.179,49.805,32.227,36.133,27.832,-9.766,0
1542904876.183,52.246,36.133,35.645,39.551,-7.324,0
1542904876.187,59.082,37.109,34.668,47.852,-0.488,0
1542904876.191,56.152,39.062,34.668,37.109,-6.836,0
1542904876.195,49.316,40.039,31.738,35.645,9.277,0
1542904876.199,45.898,44.434,29.785,45.898,32.715,0
1542904876.203,49.316,37.598,31.738,62.012,11.719,0
1542904876.206,59.082,29.785,31.250,59.082,26.367,0
1542904876.210,48.340,35.156,30.273,34.180,29.297,0
1542904876.214,45.410,40.039,30.273,17.090,-10.254,0
1542904876.218,54.688,37.598,34.180,15.137,-10.254,0
1542904876.222,63.477,38.574,34.668,13.672,-4.395,0
1542904876.226,63.477,40.527,33.691,19.531,-0.977,0
1542904876.230,46.387,36.621,30.762,24.902,-12.695,0
1542904876.234,50.781,34.668,25.879,43.945,-13.672,0
1542904876.238,42.480,32.715,29.785,45.410,12.207,0
1542904876.242,38.086,33.203,32.227,30.273,7.324,0
1542904876.246,47.852,40.039,34.180,26.367,-21.973,0
1542904876.249,47.852,44.922,33.691,32.227,-12.207,0
1542904876.253,33.203,41.016,29.785,30.273,8.789,0
1542904876.257,44.922,33.203,37.598,23.926,-2.930,0
1542904876.261,63.477,38.086,37.598,33.691,-0.488,0
1542904876.265,50.293,41.992,31.250,36.133,39.062,0
1542904876.269,51.270,38.574,35.156,51.270,34.668,0
1542904876.273,49.316,36.621,39.551,50.781,-9.277,0
1542904876.277,45.898,34.668,38.086,36.133,2.930,0
1542904876.281,55.176,36.133,36.133,43.945,4.883,0
1542904876.285,41.504,35.156,33.691,44.434,-17.578,0
1542904876.288,24.414,28.320,38.086,25.879,-13.672,0
1542904876.292,22.949,25.391,35.156,7.812,6.348,0
1542904876.296,26.855,25.879,27.832,16.602,40.039,0
1542904876.300,33.691,25.879,32.715,26.367,15.625,0
1542904876.304,40.039,30.762,29.297,14.648,-8.789,0
1542904876.308,44.922,37.598,30.273,12.695,-14.648,0
1542904876.312,42.480,36.133,32.227,33.203,-17.090,0
1542904876.316,35.645,33.203,25.391,38.086,-17.578,0
1542904876.320,47.852,37.109,17.578,38.086,-17.578,0
1542904876.324,69.824,39.551,23.926,59.570,17.090,0
1542904876.328,49.316,31.250,38.086,51.758,3.906,0
1542904876.331,12.207,24.902,38.086,14.160,-19.531,0
1542904876.335,19.531,22.461,32.715,20.508,3.418,0
1542904876.339,40.039,15.137,38.574,28.320,24.414,0
1542904876.343,33.203,8.789,47.363,14.160,27.832,0
1542904876.347,32.715,-0.488,49.805,27.832,33.203,0
1542904876.351,32.227,3.906,45.898,39.062,23.438,0
1542904876.355,25.391,16.113,45.410,40.527,33.203,0
1542904876.359,33.203,17.578,44.922,36.133,24.414,0
1542904876.363,43.457,13.672,39.551,34.180,-7.812,0
1542904876.367,42.969,9.277,38.086,37.598,-3.418,0
1542904876.371,33.203,12.695,39.551,32.715,-5.371,0
1542904876.374,28.809,15.625,36.133,33.691,24.414,0
1542904876.378,32.715,15.137,36.621,44.922,32.227,0
1542904876.382,26.367,14.648,42.480,36.621,7.324,0
1542904876.386,37.109,14.160,40.039,28.320,1.953,0
1542904876.390,44.922,17.090,37.109,28.809,10.254,0
1542904876.394,33.691,19.043,42.480,30.762,21.973,0
1542904876.398,34.668,19.531,41.504,35.645,9.766,0
1542904876.402,36.621,20.020,35.645,32.227,-2.930,0
1542904876.406,52.734,19.531,39.062,26.855,-18.555,0
1542904876.410,57.129,24.414,38.086,31.738,-13.184,0
1542904876.413,30.273,25.391,35.645,45.410,9.277,0
1542904876.417,27.832,23.926,37.109,51.270,22.949,0
1542904876.421,42.480,28.320,37.598,46.387,19.043,0
1542904876.425,42.969,28.320,38.086,43.457,45.898,0
1542904876.429,40.527,27.344,34.180,41.016,51.270,0
1542904876.433,41.992,29.785,36.133,46.387,35.645,0
1542904876.437,39.062,27.344,38.574,33.203,28.320,0
1542904876.441,52.246,32.227,34.180,14.648,20.508,0
1542904876.445,60.059,32.715,34.180,32.715,49.316,0
1542904876.449,54.199,31.250,36.621,46.387,47.363,0
1542904876.453,51.270,30.762,35.645,30.762,-2.441,0
1542904876.456,39.062,25.391,32.227,31.738,8.789,0
1542904876.460,27.344,26.367,28.320,40.527,34.180,0
1542904876.464,37.109,30.273,27.344,49.316,17.090,0
1542904876.468,36.621,35.645,29.785,41.992,20.508,0
1542904876.472,39.062,35.645,33.203,31.250,16.113,0
1542904876.476,47.363,35.156,32.715,33.203,-12.207,0
1542904876.480,45.898,33.691,32.227,20.020,-27.344,0
1542904876.484,50.781,35.645,28.809,16.113,-1.465,0
1542904876.488,66.406,41.016,25.879,32.715,-1.953,0
1542904876.492,62.500,40.039,36.621,42.480,-14.160,0
1542904876.496,31.738,33.691,38.086,37.109,-22.461,0
1542904876.499,26.855,28.809,33.203,27.832,-6.836,0
1542904876.503,38.086,32.227,32.227,22.461,30.762,0
1542904876.507,45.410,37.598,34.668,35.645,5.859,0
1542904876.511,54.688,35.645,33.203,41.504,-17.090,0
1542904876.515,78.613,32.715,27.832,52.246,-3.906,0
1542904876.519,69.336,38.086,34.668,45.410,10.742,0
1542904876.523,22.461,32.715,35.156,2.441,3.906,0
1542904876.527,22.949,20.020,32.715,5.371,-17.090,0
1542904876.531,33.203,13.184,39.551,36.621,-20.508,0
1542904876.535,36.621,8.789,46.875,39.062,-13.184,0
1542904876.538,44.434,3.418,44.922,33.203,-19.531,0
1542904876.542,39.062,4.883,38.574,35.645,-5.371,0
1542904876.546,29.297,12.695,35.156,35.645,21.484,0
1542904876.550,27.344,12.207,33.691,29.297,-1.953,0
1542904876.554,35.156,18.555,36.621,41.504,16.113,0
1542904876.558,41.016,25.391,41.504,59.570,34.180,0
1542904876.562,41.504,21.973,32.715,45.410,22.461,0
1542904876.566,42.480,22.949,30.762,27.344,10.254,0
1542904876.570,44.922,26.855,32.227,33.203,0.000,0
1542904876.574,44.434,25.879,22.949,40.527,-2.441,0
1542904876.578,46.875,21.484,25.879,22.461,-20.508,0
1542904876.581,46.875,19.531,32.715,17.090,-0.977,0
1542904876.585,40.527,22.949,27.832,26.367,16.113,0
1542904876.589,42.480,24.902,26.367,31.250,0.000,0
1542904876.593,45.410,22.461,36.133,33.203,-4.395,0
1542904876.597,42.969,24.414,33.691,31.250,-5.371,0
1542904876.601,40.039,26.855,30.762,37.109,-22.949,0
1542904876.605,37.109,26.367,34.180,37.598,-7.812,0
1542904876.609,40.039,24.902,34.668,33.203,13.184,0
1542904876.613,45.898,19.043,33.203,41.016,32.715,0
1542904876.617,30.762,22.949,30.273,35.645,3.906,0
1542904876.621,35.156,25.879,27.832,41.992,-0.977,0
1542904876.624,52.734,28.809,25.391,40.039,23.926,0
1542904876.628,50.781,32.715,29.297,30.762,-0.977,0
1542904876.632,43.945,25.391,31.738,36.133,-26.367,0
1542904876.636,36.621,28.809,27.344,37.109,-21.484,0
1542904876.640,43.945,29.297,32.227,44.922,17.578,0
1542904876.644,40.527,24.414,35.156,32.715,0.977,0
1542904876.648,45.410,32.227,37.109,33.203,-12.695,0
1542904876.652,43.457,33.203,37.598,37.109,-5.371,0
1542904876.656,31.250,32.227,29.297,18.066,-11.230,0
1542904876.660,41.504,28.320,23.926,18.066,-10.254,0
1542904876.663,55.664,25.879,27.832,34.180,3.906,0
1542904876.667,43.457,28.320,31.250,39.551,-1.465,0
1542904876.671,39.551,26.855,32.227,30.762,-0.977,0
1542904876.675,37.598,25.391,34.180,36.133,0.488,0
1542904876.679,34.668,30.273,39.551,29.785,-23.926,0
1542904876.683,34.180,33.691,40.527,35.645,2.441,0
1542904876.687,35.645,33.203,39.551,38.086,22.949,0
1542904876.691,37.109,35.645,35.156,20.020,8.301,0
1542904876.695,44.922,32.715,32.227,31.250,-17.090,0
1542904876.699,47.363,28.809,35.645,33.691,9.766,0
1542904876.703,54.688,30.273,29.297,38.086,27.344,0
1542904876.706,60.059,32.227,28.320,46.875,-3.418,0
1542904876.710,32.715,33.203,34.180,30.762,-8.789,0
1542904876.714,9.766,29.785,39.062,15.625,8.789,0
1542904876.718,37.598,25.391,43.945,27.832,-4.883,0
1542904876.722,48.828,24.902,34.180,43.945,3.418,0
1542904876.726,20.020,21.484,35.645,43.945,17.090,0
1542904876.730,32.715,15.625,42.969,47.363,29.785,0
1542904876.734,48.340,17.090,38.574,24.902,6.348,0
1542904876.738,38.574,22.461,33.691,12.207,-30.762,0
1542904876.742,32.227,25.879,39.551,17.578,22.461,0
1542904876.746,41.016,25.879,35.156,19.043,29.785,0
1542904876.749,40.039,25.391,34.180,38.574,-0.488,0
1542904876.753,42.969,25.391,39.551,36.621,-18.555,0
1542904876.757,52.246,24.902,34.668,34.180,-13.184,0
1542904876.761,38.086,23.438,35.156,39.551,23.438,0
1542904876.765,53.711,19.043,37.109,38.574,22.949,0
1542904876.769,37.598,22.461,33.691,29.785,0.488,0
1542904876.773,27.344,27.344,28.809,28.320,14.160,0
1542904876.777,32.715,21.484,31.250,35.156,23.438,0
1542904876.781,21.484,23.438,36.133,28.809,-1.465,0
1542904876.785,27.344,26.855,36.133,36.621,5.859,0
1542904876.788,38.086,22.949,31.250,35.645,5.371,0
1542904876.792,30.762,23.926,37.598,37.598,-2.930,0
1542904876.796,34.180,26.367,37.109,47.363,-14.160,0
1542904876.800,48.828,29.297,25.391,42.480,7.812,0
1542904876.804,48.828,30.273,24.902,33.203,29.785,0
1542904876.808,41.016,26.855,33.203,30.273,34.180,0
1542904876.812,44.922,23.926,40.039,40.527,28.320,0
1542904876.816,44.922,25.391,41.992,48.828,2.930,0
1542904876.820,37.109,28.809,37.109,33.691,6.836,0
1542904876.824,52.246,16.602,50.781,48.340,5.859,0
1542904876.828,61.035,15.137,54.199,66.406,12.695,0
1542904876.831,37.598,37.109,34.668,32.715,21.484,0
1542904876.835,22.461,46.387,26.367,-2.441,6.836,0
1542904876.839,29.297,49.316,24.902,10.742,22.461,0
1542904876.843,29.297,56.152,30.762,29.297,32.227,0
1542904876.847,36.621,62.012,25.391,25.879,10.254,0
1542904876.851,53.223,56.641,20.020,24.902,-7.324,0
1542904876.855,46.387,53.223,20.996,23.438,6.836,0
1542904876.859,25.391,58.105,24.414,15.625,29.297,0
1542904876.863,26.855,56.152,23.438,17.090,24.414,0
1542904876.867,24.414,51.758,20.508,21.484,26.367,0
1542904876.871,30.273,48.828,29.297,19.531,30.762,0
1542904876.874,40.039,49.805,29.785,28.320,33.203,0
1542904876.878,43.457,54.199,26.367,45.410,50.293,0
1542904876.882,43.945,54.688,30.273,34.180,39.062,0
1542904876.886,43.945,48.828,34.668,20.996,11.230,0
1542904876.890,48.340,48.340,26.855,33.203,41.504,0
1542904876.894,45.898,47.852,23.438,35.645,69.336,0
1542904876.898,47.363,45.410,29.785,23.926,62.012,0
1542904876.902,51.758,43.457,29.297,25.879,35.156,0
1542904876.906,42.480,41.992,31.738,29.297,44.434,0
1542904876.910,45.410,39.551,32.715,30.762,44.434,0
1542904876.913,55.176,41.992,33.203,51.270,5.371,0
1542904876.917,49.805,41.992,31.250,55.176,9.277,0
1542904876.921,52.246,38.574,27.344,39.551,23.438,0
1542904876.925,51.270,39.062,25.879,42.969,39.551,0
1542904876.929,56.641,46.875,21.973,53.223,37.109,0
1542904876.933,58.105,51.758,23.438,31.738,-8.789,0
1542904876.937,58.105,45.898,29.785,21.973,-14.160,0
1542904876.941,53.711,41.016,26.855,28.809,-8.301,0
1542904876.945,56.641,41.992,22.461,32.715,3.906,0
1542904876.949,62.988,41.016,25.391,37.109,35.156,0
1542904876.953,45.410,38.574,37.109,42.480,19.043,0
1542904876.956,49.316,38.086,41.504,42.969,18.066,0
1542904876.960,55.664,34.180,37.109,35.645,12.207,0
1542904876.964,39.551,33.691,39.062,20.996,-9.766,0
1542904876.968,34.180,36.621,40.039,12.695,-15.137,0
1542904876.972,43.457,34.668,32.715,23.926,-28.809,0
1542904876.976,51.270,34.668,35.645,32.227,-31.250,0
1542904876.980,51.758,40.039,40.039,42.480,-13.184,0
1542904876.984,49.316,39.062,36.621,34.668,-36.133,0
1542904876.988,41.992,34.180,25.879,20.996,-19.043,0
1542904876.992,47.852,31.250,25.391,40.039,27.344,0
1542904876.996,41.504,28.809,36.621,41.504,-7.812,0
1542904876.999,37.598,32.715,35.156,24.902,-35.156,0
1542904877.003,43.945,40.527,36.133,21.973,4.883,0
1542904877.007,39.062,38.086,36.133,32.227,-9.277,0
1542904877.011,41.504,32.715,32.715,29.785,-19.043,0
1542904877.015,31.738,35.156,36.133,11.719,-8.789,0
1542904877.019,23.926,33.203,35.156,16.602,39.062,0
1542904877.023,42.480,36.621,33.203,19.043,45.898,0
1542904877.027,49.805,40.039,34.180,22.461,17.578,0
1542904877.031,51.758,35.645,38.574,35.645,3.418,0
1542904877.035,51.270,39.551,41.992,35.156,-3.418,0
1542904877.038,59.082,46.387,35.645,56.152,4.395,0
1542904877.042,49.316,37.109,37.109,46.875,45.410,0
1542904877.046,32.227,36.133,38.086,16.602,39.551,0
1542904877.050,39.551,38.574,35.156,29.297,-5.371,0
1542904877.054,44.434,32.715,37.109,30.762,-13.672,0
1542904877.058,49.805,37.109,29.785,52.246,38.086,0
1542904877.062,39.062,38.574,32.715,55.664,65.430,0
1542904877.066,36.133,36.133,37.598,27.832,24.414,0
1542904877.070,53.711,40.527,27.832,38.574,4.883,0
1542904877.074,65.430,41.504,25.879,52.246,8.301,0
1542904877.078,47.852,36.621,32.227,28.809,32.227,0
1542904877.081,26.855,36.133,33.203,17.090,16.602,0
1542904877.085,26.855,31.738,32.227,15.137,13.184,0
1542904877.089,52.734,30.762,28.809,27.344,52.734,0
1542904877.093,82.520,31.250,23.438,49.316,55.664,0
1542904877.097,44.922,27.832,29.297,29.297,23.438,0
1542904877.101,9.277,24.414,35.645,8.301,2.930,0
1542904877.105,27.344,13.184,42.480,28.809,29.297,0
1542904877.109,44.434,-0.488,41.992,49.805,22.461,0
1542904877.113,49.805,-5.371,38.574,57.617,-2.441,0
1542904877.117,34.668,-5.859,41.504,52.246,-12.207,0
1542904877.121,48.340,2.441,35.156,48.828,-7.812,0
1542904877.124,50.293,10.254,30.273,33.203,-5.859,0
1542904877.128,47.363,8.301,27.344,29.297,15.137,0
1542904877.132,45.898,8.301,27.344,29.297,31.250,0
1542904877.136,45.410,9.766,30.273,38.086,-1.465,0
1542904877.140,61.035,11.719,29.785,49.805,-31.738,0
1542904877.144,51.758,14.648,26.855,39.062,-29.785,0
1542904877.148,53.223,19.043,19.043,47.852,3.418,0
1542904877.152,50.293,15.625,18.555,45.898,4.395,0
1542904877.156,47.852,14.160,20.508,31.738,-36.133,0
1542904877.160,52.246,16.113,18.555,36.621,-49.316,0
1542904877.163,39.551,14.648,29.785,39.551,-32.227,0
1542904877.167,43.945,23.926,36.621,30.762,-7.812,0
1542904877.171,42.480,22.461,36.621,43.945,16.113,0
1542904877.175,55.664,19.531,40.039,63.965,11.719,0
1542904877.179,52.734,27.344,37.598,55.176,17.090,0
1542904877.183,45.410,21.484,25.879,44.434,3.906,0
1542904877.187,55.664,22.949,24.414,43.457,9.277,0
1542904877.191,49.316,30.273,35.645,50.293,23.438,0
1542904877.195,58.105,22.461,37.109,45.898,23.438,0
1542904877.199,41.016,23.438,31.738,26.855,-29.297,0
1542904877.203,46.875,29.785,31.738,43.945,-12.207,0
1542904877.206,72.266,28.809,24.414,56.641,57.129,0
1542904877.210,55.664,32.715,23.926,48.340,16.602,0
1542904877.214,43.945,29.297,33.691,52.734,-24.414,0
1542904877.218,32.715,22.461,36.621,51.270,-5.371,0
1542904877.222,41.504,28.320,38.086,44.434,-33.691,0
1542904877.226,51.758,29.297,35.645,36.133,-31.250,0
1542904877.230,48.828,27.832,33.203,29.785,8.301,0
1542904877.234,47.363,36.621,34.668,25.391,-27.344,0
1542904877.238,49.805,37.109,32.227,44.922,-50.293,0
1542904877.242,48.828,29.785,30.762,42.969,-45.898,0
1542904877.246,58.594,26.367,27.344,37.598,21.973,0
1542904877.249,57.129,30.762,26.855,44.434,24.414,0
1542904877.253,39.062,37.109,28.809,29.785,-42.969,0
1542904877.257,40.527,37.109,25.879,45.410,-72.266,0
1542904877.261,53.711,33.691,25.391,62.988,-44.922,0
1542904877.265,54.199,41.016,27.344,47.852,-0.488,0
1542904877.269,41.504,39.062,32.715,41.992,-5.859,0
1542904877.273,50.781,33.691,34.180,45.410,-66.406,0
1542904877.277,60.547,42.480,31.250,30.273,-11.719,0
1542904877.281,51.758,37.598,32.227,32.227,48.340,0
1542904877.285,58.105,31.250,31.250,46.387,22.461,0
1542904877.288,71.289,38.574,22.949,40.527,2.441,0
1542904877.292,83.008,44.922,21.973,64.453,16.602,0
1542904877.296,64.453,41.504,32.715,62.012,14.160,0
1542904877.300,31.250,41.992,35.645,30.273,-16.113,0
1542904877.304,32.227,35.156,37.598,33.691,1.953,0
1542904877.308,56.152,26.367,43.945,54.688,-9.766,0
1542904877.312,46.875,25.391,45.410,41.016,-14.648,0
1542904877.316,46.387,26.855,47.852,37.598,-4.883,0
1542904877.320,45.898,31.250,42.969,30.762,-6.348,0
1542904877.324,44.434,34.668,35.156,14.160,31.738,0
1542904877.328,47.363,33.203,34.668,23.926,21.973,0
1542904877.331,37.598,31.738,34.180,26.855,14.648,0
1542904877.335,40.039,34.180,35.156,37.598,38.086,0
1542904877.339,56.152,33.203,31.250,44.434,66.895,0
1542904877.343,60.059,34.668,29.785,48.340,48.828,0
1542904877.347,47.363,34.668,36.621,59.082,22.461,0
1542904877.351,35.156,35.156,38.574,62.012,-9.277,0
1542904877.355,36.621,39.062,36.133,53.223,-5.371,0
1542904877.359,43.945,35.645,30.273,29.297,39.062,0
1542904877.363,40.039,33.691,31.250,14.160,9.277,0
1542904877.367,48.828,35.156,34.668,9.766,20.996,0
1542904877.371,56.152,35.645,32.227,24.414,45.898,0
1542904877.374,41.504,33.203,33.203,40.039,61.035,0
1542904877.378,35.156,29.297,36.621,45.898,22.949,0
1542904877.382,48.340,30.762,38.086,44.434,24.902,0
1542904877.386,43.457,32.227,32.715,34.180,42.480,0
1542904877.390,39.551,35.156,27.832,39.551,9.766,0
1542904877.394,53.711,36.133,29.785,20.996,25.879,0
1542904877.398,45.898,35.645,33.203,11.719,17.578,0
1542904877.402,44.922,35.156,29.785,13.672,30.273,0
1542904877.406,43.457,29.297,28.320,21.484,39.551,0
1542904877.410,37.598,31.250,30.273,30.273,-24.414,0
1542904877.413,29.297,34.180,35.156,33.203,-19.531,0
1542904877.417,33.691,32.227,33.691,42.969,14.160,0
1542904877.421,49.316,37.598,31.738,20.020,16.113,0
1542904877.425,36.621,35.645,40.039,-3.906,44.434,0
1542904877.429,33.691,36.621,44.434,21.973,49.805,0
1542904877.433,31.250,38.086,42.969,43.945,0.977,0
1542904877.437,32.227,30.273,41.016,50.293,-8.789,0
1542904877.441,47.363,32.715,36.133,47.852,67.871,0
1542904877.445,31.250,31.738,34.180,17.090,52.734,0
1542904877.449,25.879,27.832,32.715,-4.883,-6.836,0
1542904877.453,25.879,29.297,35.645,-2.441,4.395,0
1542904877.456,30.273,29.785,42.969,6.348,-0.488,0
1542904877.460,46.387,34.180,41.016,22.461,7.324,0
1542904877.464,38.574,38.086,33.691,29.297,-24.414,0
1542904877.468,25.879,31.738,33.203,25.391,-3.418,0
1542904877.472,20.996,26.855,32.227,23.926,42.480,0
1542904877.476,38.574,28.320,34.180,26.367,-2.930,0
1542904877.480,48.340,29.297,36.133,23.438,13.184,0
1542904877.484,41.016,33.203,36.621,26.855,21.973,0
1542904877.488,46.387,41.504,35.645,21.973,-12.695,0
1542904877.492,45.410,37.109,32.715,17.578,-5.859,0
1542904877.496,45.898,28.320,28.320,29.785,17.090,0
1542904877.499,31.738,28.320,26.855,28.320,58.594,0
1542904877.503,17.090,28.320,28.809,14.160,77.637,0
1542904877.507,25.879,29.297,30.273,5.859,9.766,0
1542904877.511,33.203,31.738,31.738,13.184,-8.789,0
1542904877.515,20.020,30.273,36.133,19.043,33.691,0
1542904877.519,26.855,30.273,37.598,19.531,37.109,0
1542904877.523,40.527,30.762,33.691,19.043,34.668,0
1542904877.527,40.039,25.879,29.785,29.297,84.473,0
1542904877.531,33.203,29.297,32.715,23.926,46.875,0
1542904877.535,20.020,30.273,35.645,8.789,-9.277,0
1542904877.538,31.738,27.344,31.738,9.766,28.320,0
1542904877.542,35.645,27.832,28.320,10.742,-16.113,0
1542904877.546,22.461,24.414,29.785,18.066,-32.715,0
1542904877.550,41.992,31.738,33.691,32.715,21.484,0
1542904877.554,40.527,34.180,38.574,25.391,24.902,0
1542904877.558,28.809,28.320,35.645,17.090,21.973,0
1542904877.562,43.945,26.855,34.668,19.531,34.668,0
1542904877.566,37.598,25.391,39.062,30.762,-15.625,0
1542904877.570,27.832,26.367,39.062,29.297,-28.320,0
1542904877.574,39.551,22.949,37.109,25.391,0.977,0
1542904877.578,43.457,28.320,32.227,30.762,25.879,0
1542904877.581,37.109,31.250,31.738,33.203,75.684,0
1542904877.585,36.133,23.926,36.133,38.086,26.855,0
1542904877.589,40.039,27.832,37.598,32.227,-24.414,0
1542904877.593,44.434,31.250,41.504,26.367,18.555,0
1542904877.597,36.133,28.320,36.133,21.484,52.734,0
1542904877.601,29.297,28.320,32.715,21.484,62.988,0
1542904877.605,20.020,29.785,35.645,23.438,63.477,0
1542904877.609,17.578,27.832,31.250,22.461,22.461,0
1542904877.613,25.391,27.832,28.320,35.156,17.090,0
1542904877.617,20.996,26.367,27.344,38.574,40.527,0
1542904877.621,32.715,29.297,28.809,18.066,55.664,0
1542904877.624,43.945,35.645,30.762,15.625,36.621,0
1542904877.628,46.875,33.203,31.250,20.508,14.160,0
1542904877.632,37.109,31.738,31.738,16.113,78.613,0
1542904877.636,26.367,27.832,37.109,25.391,59.570,0
1542904877.640,38.574,13.672,51.270,43.945,27.344,0
1542904877.644,64.453,17.578,48.828,65.918,50.293,0
1542904877.648,48.828,43.945,28.320,41.016,46.875,0
1542904877.652,3.906,54.199,24.902,-12.207,45.898,0
1542904877.656,5.371,55.664,24.414,-17.578,53.711,0
1542904877.660,34.180,58.105,26.855,5.859,66.895,0
1542904877.663,32.227,64.453,24.414,0.488,62.012,0
1542904877.667,29.785,75.684,9.277,2.930,21.484,0
1542904877.671,35.156,78.613,12.207,36.133,-6.348,0
1542904877.675,27.832,79.102,23.926,11.719,17.578,0
1542904877.679,16.602,73.242,27.832,-13.672,41.016,0
1542904877.683,17.578,67.871,30.762,-12.695,25.391,0
1542904877.687,33.203,63.965,29.297,-5.371,23.926,0
1542904877.691,35.645,60.059,26.367,10.742,30.273,0
1542904877.695,33.691,57.129,25.391,14.648,18.555,0
1542904877.699,27.344,54.199,25.879,27.832,26.855,0
1542904877.703,38.086,54.688,29.297,30.762,32.227,0
1542904877.706,50.781,56.152,34.668,12.207,43.945,0
1542904877.710,42.480,59.082,30.762,15.137,23.926,0
1542904877.714,41.504,54.688,30.273,30.762,-11.230,0
1542904877.718,37.598,48.828,30.762,22.461,10.254,0
1542904877.722,41.504,53.223,28.320,11.230,63.477,0
1542904877.726,48.828,51.758,35.645,23.438,51.270,0
1542904877.730,31.738,44.922,33.691,33.203,8.789,0
1542904877.734,33.691,46.387,29.297,32.715,-13.672,0
1542904877.738,50.293,49.805,34.180,18.555,10.742,0
1542904877.742,55.176,48.340,36.133,23.438,23.926,0
1542904877.746,47.363,45.898,33.203,28.809,13.184,0
1542904877.749,32.715,42.480,28.809,14.648,54.199,0
1542904877.753,29.297,41.992,28.320,22.949,17.578,0
1542904877.757,37.598,43.457,28.809,36.621,0.000,0
1542904877.761,43.945,41.016,27.832,27.832,2.930,0
1542904877.765,33.691,37.109,27.832,20.508,2.441,0
1542904877.769,27.832,42.480,29.785,31.250,12.695,0
1542904877.773,33.203,43.457,30.273,28.809,-4.883,0
1542904877.777,42.480,39.551,28.320,20.020,61.523,0
1542904877.781,34.180,39.062,35.156,28.320,51.270,0
1542904877.785,30.762,41.016,34.668,40.039,-39.062,0
1542904877.788,40.527,42.969,32.715,41.016,-16.602,0
1542904877.792,41.504,38.574,35.156,25.879,49.805,0
1542904877.796,26.855,32.227,28.809,32.715,39.551,0
1542904877.800,19.043,29.785,30.762,37.109,25.391,0
1542904877.804,35.156,35.156,31.250,20.020,28.809,0
1542904877.808,48.828,40.527,25.879,21.973,25.879,0
1542904877.812,41.504,39.551,27.832,23.926,-0.977,0
1542904877.816,21.973,40.527,30.762,25.879,4.395,0
1542904877.820,18.066,37.109,30.762,25.391,28.320,0
1542904877.824,30.762,32.227,29.785,30.273,-7.324,0
1542904877.828,27.344,39.062,32.715,41.504,34.180,0
1542904877.831,27.344,43.457,37.109,20.508,41.504,0
1542904877.835,32.715,35.645,31.250,-8.789,23.438,0
1542904877.839,32.227,30.762,23.926,3.906,55.664,0
1542904877.843,40.039,33.203,26.367,12.207,16.602,0
1542904877.847,32.227,37.109,25.391,18.066,2.930,0
1542904877.851,16.602,37.109,23.926,34.180,46.875,0
1542904877.855,22.949,34.180,32.227,40.527,27.832,0
1542904877.859,43.457,37.109,32.715,19.043,6.348,0
1542904877.863,34.668,39.551,31.250,0.000,3.906,0
1542904877.867,30.273,37.598,34.668,13.184,-4.883,0
1542904877.871,32.227,40.039,31.250,30.273,10.254,0
1542904877.874,28.809,36.621,32.227,24.414,43.457,0
1542904877.878,45.410,31.738,36.133,21.484,31.738,0
1542904877.882,40.527,31.738,32.227,20.508,30.762,0
1542904877.886,16.602,32.227,30.762,36.133,39.551,0
1542904877.890,25.879,29.785,36.621,37.598,25.879,0
1542904877.894,41.016,32.227,35.156,21.484,10.742,0
1542904877.898,31.738,32.715,28.809,25.391,41.504,0
1542904877.902,23.438,28.320,33.203,33.691,66.895,0
1542904877.906,25.879,32.715,35.645,33.203,19.531,0
1542904877.910,39.551,38.086,30.762,31.738,39.551,0
1542904877.913,41.992,32.715,39.062,46.387,42.480,0
1542904877.917,32.227,28.809,40.527,44.434,42.480,0
1542904877.921,25.391,33.691,30.273,15.625,90.820,0
1542904877.925,36.621,34.180,28.320,3.418,42.969,0
1542904877.929,49.805,25.879,28.320,19.043,35.156,0
1542904877.933,41.504,27.832,27.832,20.508,62.500,0
1542904877.937,42.480,31.250,32.715,35.156,57.129,0
1542904877.941,42.480,35.156,34.668,35.645,55.176,0
1542904877.945,51.758,32.227,33.691,9.277,21.973,0
1542904877.949,43.457,27.344,34.180,14.160,22.949,0
1542904877.953,27.344,33.203,29.297,10.742,19.043,0
1542904877.956,36.133,32.715,29.297,22.461,3.418,0
1542904877.960,51.270,27.344,33.691,40.527,34.180,0
1542904877.964,53.711,28.809,34.180,39.551,5.859,0
1542904877.968,37.598,34.668,26.855,33.203,-19.043,0
1542904877.972,28.809,35.156,23.926,16.602,24.414,0
1542904877.976,33.691,32.227,26.855,19.043,8.301,0
1542904877.980,35.645,28.809,27.832,6.348,36.133,0
1542904877.984,26.367,32.715,36.133,7.812,61.523,0
1542904877.988,20.996,37.598,39.062,23.438,4.395,0
1542904877.992,34.668,31.738,34.180,26.855,-0.977,0
1542904877.996,31.738,27.832,31.250,16.113,-53.711,0
1542904877.999,23.926,29.785,22.949,11.719,-28.809,0
1542904878.003,36.621,25.391,22.461,25.391,7.812,0
1542904878.007,36.133,29.785,26.367,32.715,-9.277,0
1542904878.011,25.391,36.133,27.344,28.809,2.441,0
1542904878.015,30.273,29.785,31.250,18.555,-1.953,0
1542904878.019,25.879,27.344,27.832,19.043,7.324,0
1542904878.023,20.996,36.133,30.273,20.996,-47.363,0
1542904878.027,28.320,36.133,32.715,32.715,-19.531,0
1542904878.031,41.016,27.832,29.785,50.781,4.883,0
1542904878.035,31.250,30.762,34.180,21.484,-20.020,0
1542904878.038,18.066,31.738,31.738,1.465,13.672,0
1542904878.042,34.668,29.785,26.855,13.184,-3.906,0
1542904878.046,47.363,28.809,28.809,20.020,-8.789,0
1542904878.050,22.461,26.367,29.297,13.672,32.227,0
1542904878.054,19.043,26.367,26.855,16.113,54.688,0
1542904878.058,40.039,30.273,27.344,24.414,24.902,0
1542904878.062,33.691,33.203,29.297,19.531,19.531,0
1542904878.066,37.598,34.180,35.156,32.227,41.504,0
1542904878.070,37.598,32.227,35.645,26.855,11.719,0
1542904878.074,17.578,26.367,31.250,13.672,17.578,0
1542904878.078,32.715,25.391,28.320,49.805,9.277,0
1542904878.081,36.133,28.809,25.879,44.434,23.926,0
1542904878.085,30.762,29.785,30.273,25.391,40.527,0
1542904878.089,25.879,31.250,28.320,21.484,6.348,0
1542904878.093,17.090,30.762,24.414,12.695,4.883,0
1542904878.097,27.344,28.809,31.250,18.066,9.277,0
1542904878.101,30.273,31.250,31.250,8.301,23.926,0
1542904878.105,28.809,31.738,26.855,35.645,9.766,0
1542904878.109,32.227,29.297,29.297,46.875,-7.324,0
1542904878.113,25.391,30.273,35.156,41.016,27.344,0
1542904878.117,22.949,29.785,35.645,39.062,66.406,0
1542904878.121,39.062,30.273,34.180,9.766,11.230,0
1542904878.124,51.270,30.273,37.598,15.625,-2.441,0
1542904878.128,43.457,29.785,29.297,24.902,29.297,0
1542904878.132,47.363,33.691,25.879,35.645,4.395,0
1542904878.136,26.367,30.273,21.973,49.805,7.324,0
1542904878.140,38.086,26.855,7.812,33.203,44.922,0
1542904878.144,66.406,25.879,21.484,44.434,25.391,0
1542904878.148,33.203,22.461,29.297,21.973,41.016,0
1542904878.152,19.531,17.578,30.273,13.672,38.086,0
1542904878.156,17.090,19.043,39.062,12.207,24.414,0
1542904878.160,36.133,12.207,34.668,18.555,28.809,0
1542904878.163,7.324,6.348,40.039,9.277,45.410,0
1542904878.167,-24.902,1.465,45.898,-19.043,13.672,0
1542904878.171,31.250,-4.395,45.410,4.883,-14.648,0
1542904878.175,2.930,0.977,42.969,-9.277,7.324,0
1542904878.179,-18.555,4.883,35.645,-8.789,30.273,0
1542904878.183,27.344,7.812,35.645,11.230,69.824,0
1542904878.187,32.227,9.277,34.668,20.996,45.898,0
1542904878.191,25.879,5.371,36.621,20.996,26.367,0
1542904878.195,31.250,3.906,33.203,19.531,7.324,0
1542904878.199,37.598,8.301,33.203,20.020,4.395,0
1542904878.203,32.715,10.742,41.016,16.113,19.531,0
1542904878.206,39.551,11.230,38.086,25.391,65.430,0
1542904878.210,37.598,10.742,24.902,35.645,91.797,0
1542904878.214,19.043,13.184,23.926,45.410,39.062,0
1542904878.218,30.273,15.137,29.297,41.016,-5.859,0
1542904878.222,34.180,16.602,27.344,10.742,28.809,0
1542904878.226,35.645,16.602,27.344,11.719,45.898,0
1542904878.230,35.645,16.113,30.273,37.109,12.207,0
1542904878.234,21.484,15.625,29.297,24.902,-12.695,0
1542904878.238,24.414,18.066,29.297,12.695,33.691,0
1542904878.242,34.668,27.832,32.715,30.762,6.348,0
1542904878.246,40.527,22.949,29.785,35.156,-39.551,0
1542904878.249,37.598,16.602,27.832,28.320,-16.113,0
1542904878.253,37.598,22.461,29.785,33.691,7.812,0
1542904878.257,37.109,24.902,32.715,34.180,31.738,0
1542904878.261,38.086,21.484,35.645,31.738,9.277,0
1542904878.265,34.180,20.020,34.668,33.691,60.059,0
1542904878.269,32.715,25.391,36.621,34.668,69.824,0
1542904878.273,33.691,29.785,31.250,13.184,-29.297,0
1542904878.277,39.062,26.855,26.855,11.230,26.855,0
1542904878.281,37.109,21.484,32.227,15.625,81.543,0
1542904878.285,31.738,23.926,33.203,28.320,33.203,0
1542904878.288,31.250,22.949,31.250,49.805,-10.742,0
1542904878.292,31.250,24.902,28.320,44.922,-10.254,0
1542904878.296,28.809,28.809,31.738,37.598,22.949,0
1542904878.300,30.762,25.879,34.180,56.152,24.414,0
1542904878.304,40.527,30.762,29.297,52.734,44.434,0
1542904878.308,50.293,35.645,26.855,29.297,15.625,0
1542904878.312,47.363,36.133,27.832,34.668,64.941,0
1542904878.316,40.527,36.133,29.297,36.621,91.309,0
1542904878.320,43.457,39.062,30.762,44.434,20.996,0
1542904878.324,53.711,35.645,27.832,49.805,23.926,0
1542904878.328,47.852,30.762,21.484,22.461,1.953,0
1542904878.331,36.621,27.832,22.949,24.414,-9.766,0
1542904878.335,31.738,28.809,30.273,44.434,24.902,0
1542904878.339,37.598,29.785,30.273,54.688,17.090,0
1542904878.343,46.387,28.809,26.855,44.922,0.488,0
1542904878.347,46.387,30.762,27.344,25.879,14.648,0
1542904878.351,40.527,30.762,29.785,27.344,-34.668,0
1542904878.355,41.016,34.668,28.809,32.227,-3.418,0
1542904878.359,45.898,36.621,25.879,30.762,65.918,0
1542904878.363,41.504,24.902,28.809,38.574,43.945,0
1542904878.367,38.574,23.438,33.203,48.828,-17.090,0
1542904878.371,47.363,27.832,32.715,47.852,2.930,0
1542904878.374,41.016,29.785,33.691,47.852,17.578,0
1542904878.378,32.715,32.227,34.668,39.062,49.805,0
1542904878.382,45.898,31.250,29.785,28.320,93.262,0
1542904878.386,48.828,27.344,28.320,30.273,36.621,0
1542904878.390,49.805,32.227,27.832,33.203,18.066,0
1542904878.394,52.734,30.762,29.785,25.391,-15.625,0
1542904878.398,63.477,16.602,42.480,54.199,10.254,0
1542904878.402,96.191,20.996,46.875,86.914,48.828,0
1542904878.406,56.641,47.363,26.855,27.344,-8.301,0
1542904878.410,-10.254,48.828,23.926,-23.926,-43.945,0
1542904878.413,25.391,32.227,33.691,9.766,19.043,0
1542904878.417,27.344,42.969,29.785,4.883,82.520,0
1542904878.421,24.414,53.711,22.461,-12.207,9.277,0
1542904878.425,39.551,47.363,23.926,25.391,42.480,0
1542904878.429,19.043,50.781,27.344,9.766,34.668,0
1542904878.433,25.879,48.340,29.297,10.742,-31.250,0
1542904878.437,35.156,43.457,29.785,33.203,38.086,0
1542904878.441,36.133,44.922,30.273,26.855,23.438,0
1542904878.445,46.387,43.457,31.250,29.297,4.883,0
1542904878.449,48.340,43.945,27.832,30.273,53.223,0
1542904878.453,43.945,41.016,26.855,31.738,25.391,0
1542904878.456,50.781,36.621,24.902,17.090,32.227,0
1542904878.460,55.664,33.691,28.320,22.461,-7.812,0
1542904878.464,39.062,37.598,34.180,22.461,19.531,0
1542904878.468,36.621,42.969,31.738,18.066,63.965,0
1542904878.472,47.852,38.574,32.227,40.039,29.297,0
1542904878.476,41.992,29.785,36.133,39.062,37.109,0
1542904878.480,39.551,34.180,29.297,32.715,41.992,0
1542904878.484,39.551,38.086,26.855,32.715,19.531,0
1542904878.488,42.480,35.156,33.203,23.926,15.137,0
1542904878.492,40.527,33.203,35.156,33.691,47.363,0
1542904878.496,45.410,33.203,31.738,59.570,45.898,0
1542904878.499,39.551,32.715,26.367,42.969,3.418,0
1542904878.503,39.551,39.551,30.273,7.812,-18.555,0
1542904878.507,50.781,42.480,35.156,21.973,-23.438,0
1542904878.511,32.227,33.691,31.250,28.320,-46.875,0
1542904878.515,21.973,29.297,31.250,19.531,-11.719,0
1542904878.519,32.715,28.809,31.738,26.367,-4.395,0
1542904878.523,41.504,36.621,27.832,35.156,-30.273,0
1542904878.527,53.711,37.598,25.879,31.250,10.254,0
1542904878.531,56.152,33.691,26.367,22.949,46.875,0
1542904878.535,52.246,34.180,25.879,25.391,3.906,0
1542904878.538,53.223,31.738,27.344,41.016,-17.090,0
1542904878.542,50.781,29.297,31.250,46.387,20.996,0
1542904878.546,68.848,21.973,39.062,49.316,29.297,0
1542904878.550,91.309,16.602,41.992,95.215,16.113,0
1542904878.554,43.945,35.645,30.273,49.316,14.160,0
1542904878.558,24.902,44.434,24.414,2.930,-8.301,0
1542904878.562,51.758,41.016,23.926,35.645,33.691,0
1542904878.566,45.410,40.039,27.344,30.762,66.895,0
1542904878.570,54.199,43.457,28.809,37.109,45.898,0
1542904878.574,45.410,50.293,29.297,38.574,70.801,0
1542904878.578,47.852,44.922,31.250,48.340,48.828,0
1542904878.581,54.199,43.457,29.297,44.922,29.297,0
1542904878.585,41.992,41.016,29.297,20.508,59.082,0
1542904878.589,35.645,35.156,26.855,25.879,65.430,0
1542904878.593,40.039,33.691,23.926,35.645,57.617,0
1542904878.597,43.457,36.133,26.855,20.508,58.105,0
1542904878.601,54.199,38.574,28.320,18.555,78.125,0
1542904878.605,46.875,38.086,22.461,23.438,58.105,0
1542904878.609,38.574,32.715,23.926,25.879,12.207,0
1542904878.613,54.199,33.203,27.344,38.086,18.066,0
1542904878.617,55.176,33.203,25.879,40.527,58.105,0
1542904878.621,38.086,31.738,26.367,39.062,57.129,0
1542904878.624,31.738,33.203,23.926,19.531,9.766,0
1542904878.628,27.832,33.203,24.414,7.812,-9.766,0
1542904878.632,35.645,30.762,27.832,19.531,-20.020,0
1542904878.636,40.039,33.691,26.855,35.645,33.203,0
1542904878.640,41.992,36.133,25.879,41.992,56.641,0
1542904878.644,60.059,33.203,25.879,38.574,43.945,0
1542904878.648,53.223,35.645,28.320,36.621,40.039,0
1542904878.652,37.109,30.273,35.156,44.434,38.574,0
1542904878.656,44.922,31.738,32.227,53.711,6.836,0
1542904878.660,53.711,35.645,28.809,40.527,16.602,0
1542904878.663,52.734,32.227,30.762,40.527,45.410,0
1542904878.667,47.852,32.227,27.832,44.922,75.684,0
1542904878.671,55.664,34.180,26.855,28.809,77.637,0
1542904878.675,59.082,36.621,27.832,23.926,29.297,0
1542904878.679,43.945,34.668,22.461,32.715,9.766,0
1542904878.683,56.641,36.621,11.719,36.133,26.367,0
1542904878.687,53.711,38.086,17.578,36.133,28.320,0
1542904878.691,42.969,30.762,30.762,47.363,9.277,0
1542904878.695,50.781,32.715,29.297,25.391,-1.953,0
1542904878.699,49.316,41.016,24.414,11.230,24.902,0
1542904878.703,48.340,38.574,23.438,39.062,20.996,0
1542904878.706,36.621,36.133,26.367,34.668,14.648,0
1542904878.710,39.062,32.227,26.367,21.484,36.621,0
1542904878.714,40.039,28.809,23.438,24.902,46.387,0
1542904878.718,41.992,30.273,24.414,30.273,70.312,0
1542904878.722,42.969,31.250,23.438,23.438,29.297,0
1542904878.726,49.805,33.691,14.160,20.020,-26.367,0
1542904878.730,61.523,32.715,12.695,35.645,43.457,0
1542904878.734,46.387,34.668,21.973,47.852,69.824,0
1542904878.738,28.320,34.180,17.090,39.551,-12.695,0
1542904878.742,55.176,34.668,2.930,26.367,-4.395,0
1542904878.746,76.172,33.691,18.066,50.781,58.594,0
1542904878.749,30.762,26.855,33.691,32.227,82.520,0
1542904878.753,5.371,16.602,34.180,3.906,49.316,0
1542904878.757,34.180,15.137,38.086,18.066,29.297,0
1542904878.761,41.504,10.742,42.969,36.621,49.316,0
1542904878.765,26.367,8.301,36.621,43.945,15.625,0
1542904878.769,17.578,9.277,30.273,48.828,-14.648,0
1542904878.773,30.762,6.836,39.062,49.316,22.949,0
1542904878.777,37.598,14.160,34.668,25.879,21.973,0
1542904878.781,39.062,14.160,31.738,24.902,-3.906,0
1542904878.785,32.715,14.648,32.227,46.387,31.250,0
1542904878.788,24.902,19.531,23.438,34.668,41.504,0
1542904878.792,37.109,13.184,18.066,11.719,-12.695,0
1542904878.796,30.273,12.207,22.949,24.902,9.277,0
1542904878.800,14.160,18.066,30.762,30.273,35.156,0
1542904878.804,31.738,15.137,27.832,21.973,86.426,0
1542904878.808,30.762,14.160,23.438,23.438,49.805,0
1542904878.812,21.484,20.508,31.738,41.992,-40.527,0
1542904878.816,38.086,20.996,30.762,35.645,-27.832,0
1542904878.820,32.227,18.066,28.320,19.043,-19.531,0
1542904878.824,18.555,17.090,34.668,23.438,-23.438,0
1542904878.828,9.277,15.137,33.691,23.926,-0.488,0
1542904878.831,9.277,17.090,27.344,19.531,13.672,0
1542904878.835,24.902,23.926,24.414,24.414,21.484,0
1542904878.839,30.762,37.109,21.484,2.441,8.301,0
1542904878.843,33.691,30.273,26.855,-11.719,1.953,0
1542904878.847,24.902,20.996,30.273,7.324,32.715,0
1542904878.851,10.254,27.832,27.344,-1.953,28.809,0
1542904878.855,28.320,29.297,31.738,-1.953,60.059,0
1542904878.859,56.152,29.785,32.715,12.695,62.012,0
1542904878.863,62.500,30.762,31.250,34.180,33.691,0
1542904878.867,45.410,35.156,28.809,61.523,46.875,0
1542904878.871,35.645,33.691,30.762,56.641,55.664,0
1542904878.874,42.969,34.668,26.855,33.203,64.453,0
1542904878.878,46.387,34.180,29.297,41.992,70.312,0
1542904878.882,44.434,32.227,39.062,51.270,27.344,0
1542904878.886,42.969,33.203,35.156,49.316,4.883,0
1542904878.890,50.293,28.809,30.762,33.691,27.344,0
1542904878.894,37.109,28.320,27.344,19.531,45.898,0
1542904878.898,30.273,28.809,25.879,30.762,-0.488,0
1542904878.902,35.156,28.809,27.344,40.527,29.785,0
1542904878.906,34.180,33.203,28.809,20.020,52.734,0
1542904878.910,14.648,35.156,32.227,6.836,27.832,0
1542904878.913,9.277,33.203,33.203,25.879,10.254,0
1542904878.917,20.996,28.320,29.785,28.320,6.348,0
1542904878.921,20.996,27.832,30.762,18.066,49.316,0
1542904878.925,32.227,33.203,29.297,23.926,26.855,0
1542904878.929,39.062,33.203,27.344,24.902,54.199,0
1542904878.933,35.156,26.855,31.250,10.742,51.758,0
1542904878.937,28.809,29.297,34.668,5.371,18.555,0
1542904878.941,20.020,35.156,38.574,8.301,13.672,0
1542904878.945,41.016,33.691,40.527,24.414,10.742,0
1542904878.949,53.223,26.855,30.762,38.574,22.461,0
1542904878.953,33.691,28.809,19.531,17.578,0.488,0
1542904878.956,31.738,29.785,23.926,6.348,30.273,0
1542904878.960,27.344,24.902,32.227,19.531,26.855,0
1542904878.964,11.719,23.926,37.109,16.602,25.879,0
1542904878.968,22.949,23.926,38.086,21.973,40.039,0
1542904878.972,46.387,29.785,32.715,36.133,4.395,0
1542904878.976,37.109,30.762,34.180,25.391,0.977,0
1542904878.980,21.973,21.484,38.574,25.879,41.504,0
1542904878.984,20.508,22.461,35.156,36.133,58.594,0
1542904878.988,17.578,27.832,33.203,22.461,-7.324,0
1542904878.992,23.926,27.344,30.273,20.508,-26.367,0
1542904878.996,33.203,22.461,31.250,25.879,13.184,0
1542904878.999,20.996,18.555,34.668,14.648,24.902,0
1542904879.003,23.438,27.344,32.715,42.480,-31.250,0
1542904879.007,43.457,33.691,34.180,60.059,-26.855,0
1542904879.011,40.039,25.879,32.715,28.809,43.457,0
1542904879.015,24.902,25.879,25.879,19.043,23.438,0
1542904879.019,20.508,33.203,22.949,12.207,24.414,0
1542904879.023,33.203,28.809,27.344,7.324,48.340,0
1542904879.027,34.180,24.414,27.832,-0.488,22.949,0
1542904879.031,20.996,22.949,25.879,1.465,-11.230,0
1542904879.035,24.902,22.949,23.926,15.625,66.406,0
1542904879.038,39.062,26.367,29.785,24.902,87.891,0
1542904879.042,33.203,25.879,30.762,37.598,14.160,0
1542904879.046,18.555,18.066,29.785,28.320,44.922,0
1542904879.050,25.391,21.973,28.809,11.230,20.508,0
1542904879.054,34.180,29.297,23.926,14.160,18.066,0
1542904879.058,39.551,25.391,27.344,21.484,-12.207,0
1542904879.062,43.945,28.320,27.832,15.625,-1.953,0
1542904879.066,54.199,26.855,17.578,30.273,31.250,0
1542904879.070,54.688,23.438,28.809,64.453,-16.113,0
1542904879.074,43.457,31.738,39.062,31.250,13.672,0
1542904879.078,39.551,36.133,34.668,2.441,53.711,0
1542904879.081,33.203,32.715,32.715,6.836,17.578,0
1542904879.085,29.785,27.344,28.320,12.207,-14.160,0
1542904879.089,32.227,21.484,27.832,34.668,-6.836,0
1542904879.093,24.414,23.926,29.297,-0.977,17.578,0
1542904879.097,22.461,26.855,25.879,-7.324,74.707,0
1542904879.101,35.156,24.902,26.367,38.086,75.195,0
1542904879.105,39.062,24.902,25.391,44.434,42.969,0
1542904879.109,27.344,32.227,22.461,28.809,10.254,0
1542904879.113,33.691,33.203,24.902,19.043,28.320,0
1542904879.117,38.574,26.855,28.320,24.902,91.309,0
1542904879.121,46.875,28.809,30.762,51.758,40.039,0
1542904879.124,48.340,33.691,27.832,17.578,-34.180,0
1542904879.128,45.898,33.203,31.250,12.695,6.348,0
1542904879.132,40.039,32.227,37.598,30.273,9.277,0
1542904879.136,16.602,28.809,34.668,15.625,26.855,0
1542904879.140,37.109,28.809,27.344,29.297,29.785,0
1542904879.144,36.621,30.762,30.273,36.621,11.719,0
1542904879.148,41.992,30.762,35.156,48.340,23.926,0
1542904879.152,37.109,30.762,32.227,38.574,7.324,0
1542904879.156,25.391,34.668,26.855,30.762,9.766,0
1542904879.160,47.363,31.250,17.090,24.902,-10.254,0
1542904879.163,49.805,30.273,22.949,20.020,18.555,0
1542904879.167,40.527,35.156,28.320,30.762,72.754,0
1542904879.171,47.363,36.133,28.320,23.438,-5.859,0
1542904879.175,62.012,34.180,33.203,25.391,-34.668,0
1542904879.179,48.828,33.691,31.738,38.574,17.578,0
1542904879.183,47.852,33.691,35.645,54.199,-15.137,0
1542904879.187,60.547,40.527,39.062,54.688,-10.742,0
1542904879.191,53.223,38.086,39.551,41.016,28.809,0
1542904879.195,33.691,29.785,39.062,38.574,43.945,0
1542904879.199,41.992,20.020,38.574,51.270,73.730,0
1542904879.203,83.008,21.973,35.645,70.801,53.223,0
1542904879.206,57.129,50.293,29.297,56.152,11.719,0
1542904879.210,34.668,56.641,32.227,22.949,36.621,0
1542904879.214,45.410,43.457,30.762,20.996,31.250,0
1542904879.218,26.367,45.410,25.879,28.809,16.602,0
1542904879.222,36.133,53.223,19.531,19.531,22.949,0
1542904879.226,46.387,60.547,19.043,23.438,4.395,0
1542904879.230,55.664,62.500,26.855,40.039,7.324,0
1542904879.234,55.664,51.758,26.855,22.949,-9.766,0
1542904879.238,47.852,44.434,28.320,9.766,-36.133,0
1542904879.242,39.062,42.969,28.320,17.090,-39.062,0
1542904879.246,54.688,45.898,22.461,27.832,11.719,0
1542904879.249,75.195,45.898,29.297,47.363,15.137,0
1542904879.253,42.480,43.457,32.227,31.738,-21.484,0
1542904879.257,46.875,48.340,29.785,21.484,13.184,0
1542904879.261,62.012,45.410,35.645,22.949,25.879,0
1542904879.265,40.039,35.645,32.227,26.367,20.996,0
1542904879.269,47.363,38.574,29.297,27.832,-3.906,0
1542904879.273,56.152,41.016,34.668,41.504,25.879,0
1542904879.277,55.176,40.039,26.855,66.895,9.766,0
1542904879.281,50.781,38.086,25.391,30.273,20.996,0
1542904879.285,53.711,37.109,31.738,14.648,32.715,0
1542904879.288,72.266,40.039,30.762,49.805,42.480,0
1542904879.292,57.617,45.898,33.691,29.297,60.059,0
1542904879.296,39.551,44.434,29.297,11.230,9.277,0
1542904879.300,46.387,31.738,29.297,27.344,-13.184,0
1542904879.304,40.527,27.832,27.832,19.531,39.062,0
1542904879.308,38.574,31.738,23.438,24.902,68.848,0
1542904879.312,45.898,32.227,30.273,28.320,35.156,0
1542904879.316,51.270,34.668,33.203,37.598,30.762,0
1542904879.320,32.227,37.109,29.297,18.555,69.824,0
1542904879.324,34.180,35.645,30.762,5.859,41.504,0
1542904879.328,57.129,35.156,26.855,36.133,10.742,0
1542904879.331,49.316,31.250,23.926,48.828,17.578,0
1542904879.335,50.293,34.668,26.855,26.367,58.105,0
1542904879.339,36.133,42.969,26.367,16.113,53.223,0
1542904879.343,27.344,37.598,31.250,24.414,11.719,0
1542904879.347,32.227,32.715,31.738,20.996,29.297,0
1542904879.351,31.738,29.297,27.832,14.160,45.898,0
1542904879.355,36.133,28.320,31.738,15.137,52.734,0
1542904879.359,44.922,33.691,20.996,29.785,12.695,0
1542904879.363,43.945,31.738,22.949,27.344,0.000,0
1542904879.367,26.855,29.297,34.180,25.391,41.016,0
1542904879.371,35.645,35.156,25.879,28.320,78.613,0
1542904879.374,52.246,37.109,20.996,30.762,71.289,0
1542904879.378,49.316,31.250,33.691,38.574,15.137,0
1542904879.382,36.621,31.738,35.645,15.625,-0.977,0
