timestamps,TP9,AF7,AF8,TP10,Right AUX,Marker0
1553632396.987,36.621,52.734,35.645,64.941,-17.090,0
1553632396.990,52.246,56.152,37.598,13.672,6.836,0
1553632396.994,20.020,48.340,30.762,-33.203,-6.348,0
1553632396.998,18.555,36.621,20.020,-12.207,-11.719,0
1553632397.002,39.551,42.969,16.602,16.602,35.645,0
1553632397.006,32.715,50.293,35.645,33.691,46.875,0
1553632397.010,41.992,48.828,45.410,38.086,66.895,0
1553632397.014,37.598,51.270,38.574,27.344,26.367,0
1553632397.018,8.789,54.199,32.227,9.277,0.000,0
1553632397.022,35.645,50.781,31.250,-8.301,33.203,0
1553632397.026,34.668,56.641,27.832,21.973,66.895,0
1553632397.030,46.875,63.965,20.508,62.500,63.477,0
1553632397.033,64.453,50.293,19.531,63.477,30.273,0
1553632397.037,45.898,41.016,32.715,29.785,48.340,0
1553632397.041,10.742,40.039,37.598,30.762,65.918,0
1553632397.045,16.602,35.156,34.180,48.340,52.734,0
1553632397.049,36.133,53.711,21.973,34.668,67.383,0
1553632397.053,12.695,72.754,7.324,10.742,60.547,0
1553632397.057,44.922,68.359,16.113,24.414,-7.324,0
1553632397.061,45.410,66.406,22.949,41.504,-4.883,0
1553632397.065,-17.578,64.453,26.855,38.574,43.457,0
1553632397.069,7.324,58.594,39.062,51.270,38.574,0
1553632397.072,35.156,60.547,33.203,57.617,20.020,0
1553632397.076,30.762,58.594,27.344,32.715,14.648,0
1553632397.080,77.148,56.152,27.344,33.203,41.504,0
1553632397.084,66.406,61.523,10.254,27.832,41.504,0
1553632397.088,20.020,54.199,12.207,19.531,77.637,0
1553632397.092,37.598,42.969,30.273,48.828,54.199,0
1553632397.096,15.137,51.270,36.133,64.453,-3.418,0
1553632397.100,10.254,58.105,43.457,33.203,69.824,0
1553632397.104,36.133,56.152,37.109,0.488,4.395,0
1553632397.108,41.504,50.293,29.785,7.324,14.648,0
1553632397.112,53.711,50.781,29.297,30.273,84.961,0
1553632397.115,62.500,57.617,27.832,51.270,46.387,0
1553632397.119,71.777,52.734,36.621,73.242,30.273,0
1553632397.123,65.430,48.340,51.758,66.406,39.062,0
1553632397.127,10.254,51.758,37.598,66.895,62.988,0
1553632397.131,8.789,51.270,20.020,30.762,110.840,0
1553632397.135,47.852,46.387,40.527,23.926,45.410,0
1553632397.139,63.965,40.527,53.711,64.941,32.715,0
1553632397.143,80.566,17.090,40.527,48.340,105.957,0
1553632397.147,42.480,6.348,25.391,56.152,53.711,0
1553632397.151,28.320,33.203,33.691,78.125,48.340,0
1553632397.155,59.570,58.594,44.434,40.039,34.668,0
1553632397.158,64.941,54.199,45.410,21.484,38.574,0
1553632397.162,54.688,39.551,41.992,49.805,39.551,0
1553632397.166,52.734,48.828,40.527,62.988,32.715,0
1553632397.170,33.691,62.500,35.156,37.598,58.105,0
1553632397.174,0.488,59.082,32.227,11.230,16.602,0
1553632397.178,45.410,56.152,24.414,9.277,6.348,0
1553632397.182,118.164,57.617,7.812,27.344,5.859,0
1553632397.186,81.543,57.129,6.836,58.594,-15.137,0
1553632397.190,13.672,38.574,31.738,51.270,-6.836,0
1553632397.194,57.129,27.344,50.781,62.988,35.645,0
1553632397.197,60.059,39.551,46.387,77.148,59.082,0
1553632397.201,38.574,37.598,43.457,27.344,44.922,0
1553632397.205,45.410,34.668,26.367,19.043,10.254,0
1553632397.209,37.109,45.410,18.066,59.082,40.527,0
1553632397.213,69.824,50.781,27.344,46.875,54.199,0
1553632397.217,76.660,33.691,36.621,47.363,16.602,0
1553632397.221,96.680,23.926,37.109,81.543,15.137,0
1553632397.225,117.676,25.879,32.227,100.586,18.066,0
1553632397.229,105.469,19.531,38.086,77.637,-41.504,0
1553632397.233,87.402,39.551,23.926,47.852,8.789,0
1553632397.237,78.613,62.500,11.719,56.641,17.090,0
1553632397.240,104.004,57.617,26.367,90.332,-74.219,0
1553632397.244,73.242,48.340,36.621,81.543,-35.645,0
1553632397.248,119.629,45.410,40.527,49.805,12.695,0
1553632397.252,124.023,42.480,43.457,100.098,35.156,0
1553632397.256,66.895,38.574,42.480,137.695,59.570,0
1553632397.260,97.168,33.203,32.715,78.125,31.250,0
1553632397.264,83.984,31.250,25.879,68.848,7.812,0
1553632397.268,77.637,26.855,31.738,62.012,25.391,0
1553632397.272,102.051,26.367,41.016,28.809,17.090,0
1553632397.276,43.945,23.438,47.852,57.129,-12.695,0
1553632397.280,22.461,27.832,40.039,76.660,4.883,0
1553632397.283,51.270,40.527,20.996,57.129,84.961,0
1553632397.287,72.266,24.414,18.555,47.852,57.617,0
1553632397.291,47.852,0.977,34.180,27.832,20.020,0
1553632397.295,28.809,0.000,43.945,20.508,47.363,0
1553632397.299,22.949,14.648,46.875,15.137,51.758,0
1553632397.303,0.000,19.043,45.410,-9.277,25.391,0
1553632397.307,41.016,23.438,44.922,20.508,19.043,0
1553632397.311,61.523,7.812,37.598,68.848,-5.371,0
1553632397.315,26.367,-19.043,21.973,42.480,-7.812,0
1553632397.319,40.527,-2.441,23.438,-3.418,30.762,0
1553632397.322,27.832,22.461,29.785,19.531,-2.441,0
1553632397.326,6.348,30.273,32.715,54.688,-3.418,0
1553632397.330,33.203,23.926,31.738,52.246,62.988,0
1553632397.334,56.641,20.508,35.645,37.109,42.969,0
1553632397.338,31.250,24.414,28.809,51.270,20.508,0
1553632397.342,20.508,24.414,12.695,30.273,66.895,0
1553632397.346,55.664,28.809,14.648,41.016,83.984,0
1553632397.350,74.219,35.645,20.996,37.109,69.336,0
1553632397.354,56.641,29.297,34.668,28.320,62.988,0
1553632397.358,56.152,-8.301,44.434,63.477,110.352,0
1553632397.362,72.266,-26.855,47.852,64.453,91.797,0
1553632397.365,36.621,5.859,53.223,62.012,49.316,0
1553632397.369,30.762,29.785,48.828,66.895,66.895,0
1553632397.373,23.926,39.062,16.113,46.875,37.598,0
1553632397.377,47.363,36.621,1.953,35.156,16.113,0
1553632397.381,60.547,32.227,26.855,46.875,-16.113,0
1553632397.385,55.664,35.156,41.504,70.312,48.828,0
1553632397.389,57.129,34.668,46.387,79.590,89.844,0
1553632397.393,73.730,26.367,43.457,43.457,50.781,0
1553632397.397,78.125,21.973,34.668,48.340,22.949,0
1553632397.401,42.480,24.902,40.527,64.453,41.016,0
1553632397.405,57.129,32.227,37.598,26.855,50.781,0
1553632397.408,70.312,23.926,32.227,31.738,20.996,0
1553632397.412,57.617,10.254,33.691,38.086,25.391,0
1553632397.416,71.777,27.344,25.879,32.227,33.691,0
1553632397.420,90.332,40.039,30.273,45.410,14.648,0
1553632397.424,63.965,41.016,27.832,47.852,18.066,0
1553632397.428,39.551,41.992,8.789,47.363,50.781,0
1553632397.432,62.988,25.879,11.230,51.758,40.527,0
1553632397.436,66.895,29.297,26.855,39.551,5.371,0
1553632397.440,62.500,43.457,36.133,2.930,-4.883,0
1553632397.444,68.359,41.016,39.551,26.855,74.707,0
1553632397.447,53.223,35.645,39.551,41.504,59.570,0
1553632397.451,69.336,35.645,32.715,11.230,-34.180,0
1553632397.455,93.262,35.645,31.738,35.645,-27.344,0
1553632397.459,47.363,36.621,38.086,20.508,-7.812,0
1553632397.463,0.977,36.621,34.668,16.602,36.133,0
1553632397.467,4.395,26.855,32.227,41.992,25.879,0
1553632397.471,20.508,24.414,32.227,10.742,-5.371,0
1553632397.475,57.617,15.137,30.273,26.367,5.371,0
1553632397.479,53.711,14.648,31.250,63.477,16.113,0
1553632397.483,104.492,38.574,28.320,49.805,48.828,0
1553632397.487,149.902,53.711,22.461,35.645,43.457,0
1553632397.490,88.867,46.387,24.414,61.523,28.809,0
1553632397.494,28.809,32.715,25.879,53.711,48.340,0
1553632397.498,40.039,22.949,28.320,19.531,35.156,0
1553632397.502,62.012,5.371,31.250,18.066,11.719,0
1553632397.506,67.383,-3.418,16.113,41.992,26.855,0
1553632397.510,58.105,23.926,10.254,50.293,26.367,0
1553632397.514,62.500,51.270,33.203,32.715,-22.949,0
1553632397.518,133.789,49.316,42.480,27.344,1.465,0
1553632397.522,129.883,47.852,43.945,43.457,66.406,0
1553632397.526,36.621,39.062,48.828,55.176,24.902,0
1553632397.530,36.621,10.254,45.898,58.105,2.930,0
1553632397.533,48.828,12.695,40.039,76.172,5.859,0
1553632397.537,57.617,32.227,42.480,41.504,29.297,0
1553632397.541,104.492,41.016,41.504,-3.418,18.066,0
1553632397.545,99.609,10.742,38.574,18.555,52.246,0
1553632397.549,81.055,3.418,35.156,34.180,70.312,0
1553632397.553,75.684,51.758,23.438,57.617,41.992,0
1553632397.557,37.598,59.570,22.461,77.148,101.074,0
1553632397.561,70.801,39.551,35.156,74.219,98.145,0
1553632397.565,91.309,38.574,31.738,68.848,59.082,0
1553632397.569,39.062,34.180,32.227,50.293,60.059,0
1553632397.572,40.527,25.879,31.738,37.109,51.758,0
1553632397.576,45.410,41.504,22.949,45.410,3.906,0
1553632397.580,62.012,55.176,31.250,68.359,-5.859,0
1553632397.584,86.426,61.523,32.227,51.270,20.020,0
1553632397.588,108.887,52.734,30.762,46.387,90.332,0
1553632397.592,15.137,32.715,40.527,17.090,111.328,0
1553632397.596,-44.434,23.926,43.945,2.441,59.082,0
1553632397.600,-5.859,23.438,42.480,14.648,40.039,0
1553632397.604,-6.836,25.879,40.527,22.461,90.332,0
1553632397.608,42.480,30.762,19.043,52.734,100.586,0
1553632397.612,100.586,41.992,1.465,51.758,24.414,0
1553632397.615,79.102,40.527,11.719,36.133,1.465,0
1553632397.619,31.738,23.438,14.160,4.883,13.672,0
1553632397.623,40.527,27.344,25.391,20.020,41.504,0
1553632397.627,55.176,38.086,71.289,67.871,72.266,0
1553632397.631,15.625,39.551,91.797,68.359,30.273,0
1553632397.635,21.484,38.086,71.777,-10.742,6.348,0
1553632397.639,58.105,39.062,55.664,8.301,39.062,0
1553632397.643,15.625,41.016,53.223,62.012,30.273,0
1553632397.647,14.648,39.062,59.570,17.090,45.410,0
1553632397.651,16.602,46.875,63.477,0.000,66.895,0
1553632397.655,-30.273,49.805,74.219,-10.742,50.293,0
1553632397.658,-62.500,41.504,71.777,-52.246,13.672,0
1553632397.662,-22.949,37.109,44.922,-69.336,51.270,0
1553632397.666,-9.766,33.203,44.922,-44.922,50.293,0
1553632397.670,1.953,31.738,65.918,-42.480,4.395,0
1553632397.674,-28.809,27.832,73.730,-51.758,24.414,0
1553632397.678,-87.891,38.086,70.801,-82.520,17.090,0
1553632397.682,-68.359,42.969,69.824,-112.793,3.418,0
1553632397.686,-53.223,29.785,83.008,-88.867,59.082,0
1553632397.690,-51.270,23.926,82.031,-86.914,10.254,0
1553632397.694,-110.352,28.320,69.336,-91.309,-0.977,0
1553632397.697,-117.676,37.109,66.895,-104.004,3.906,0
1553632397.701,-71.777,42.480,73.242,-108.887,4.883,0
1553632397.705,-84.961,39.551,74.707,-125.977,70.801,0
1553632397.709,-89.355,30.273,67.871,-134.766,34.668,0
1553632397.713,-105.469,31.250,56.152,-141.602,22.949,0
1553632397.717,-134.277,32.227,62.012,-104.492,10.254,0
1553632397.721,-68.848,27.344,73.730,-58.105,4.883,0
1553632397.725,-49.805,35.645,63.477,-81.543,-10.254,0
1553632397.729,-79.102,37.109,62.500,-65.430,-12.695,0
1553632397.733,-54.199,30.273,63.477,-65.918,14.648,0
1553632397.737,-61.035,32.227,43.457,-77.148,3.906,0
1553632397.740,-47.852,26.367,37.109,-40.527,0.000,0
1553632397.744,-5.371,28.320,38.086,-12.695,75.195,0
1553632397.748,41.016,30.273,39.062,2.930,70.312,0
1553632397.752,64.941,23.926,43.945,33.691,-1.465,0
1553632397.756,41.992,17.578,45.410,26.367,30.762,0
1553632397.760,52.734,19.531,40.039,6.836,45.410,0
1553632397.764,79.590,22.949,30.762,56.641,11.230,0
1553632397.768,75.195,21.484,34.180,75.684,-35.156,0
1553632397.772,67.383,21.484,30.273,38.086,16.602,0
1553632397.776,62.012,24.902,13.672,30.762,31.250,0
1553632397.780,67.871,17.578,22.949,50.781,2.930,0
1553632397.783,96.680,10.742,24.414,90.332,29.297,0
1553632397.787,140.137,21.484,17.578,65.918,43.457,0
1553632397.791,141.113,7.812,30.273,83.984,24.414,0
1553632397.795,124.512,-1.953,32.715,133.789,39.551,0
1553632397.799,140.137,16.113,27.344,110.840,24.902,0
1553632397.803,133.301,12.695,19.531,96.191,-3.418,0
1553632397.807,104.004,7.812,11.719,79.102,69.336,0
1553632397.811,153.320,8.789,-22.949,82.031,110.352,0
1553632397.815,125.000,16.113,-22.949,83.008,32.715,0
1553632397.819,87.891,16.602,30.273,105.469,-3.906,0
1553632397.822,146.484,12.695,29.297,111.328,66.406,0
1553632397.826,158.203,15.137,10.742,121.582,57.129,0
1553632397.830,107.910,23.438,13.184,135.742,52.246,0
1553632397.834,73.242,31.738,3.418,99.609,64.941,0
1553632397.838,94.238,29.785,20.508,75.684,22.949,0
1553632397.842,121.582,16.602,49.805,63.477,48.828,0
1553632397.846,142.578,2.441,28.809,84.961,43.457,0
1553632397.850,165.039,13.672,28.809,119.629,-6.836,0
1553632397.854,149.902,24.414,34.180,125.977,-7.812,0
1553632397.858,80.566,23.438,19.043,93.750,43.457,0
1553632397.862,59.570,15.625,4.883,75.684,53.223,0
1553632397.865,118.652,9.277,-5.371,91.309,5.371,0
1553632397.869,125.000,6.348,13.184,105.469,-8.301,0
1553632397.873,85.938,13.672,13.184,106.445,21.484,0
1553632397.877,94.727,13.672,11.719,61.523,33.203,0
1553632397.881,109.375,11.719,15.625,74.219,40.527,0
1553632397.885,82.031,16.113,9.277,74.219,27.344,0
1553632397.889,62.012,16.113,26.855,77.637,20.508,0
1553632397.893,94.727,13.184,25.391,111.328,45.410,0
1553632397.897,116.699,14.160,12.695,76.660,61.523,0
1553632397.901,109.375,18.555,4.395,56.152,51.758,0
1553632397.905,100.586,12.695,-1.465,69.824,82.031,0
1553632397.908,118.164,9.277,17.090,72.754,80.078,0
1553632397.912,136.719,3.906,33.203,56.152,26.367,0
1553632397.916,76.660,-5.859,26.855,30.273,47.852,0
1553632397.920,61.035,6.836,24.902,64.941,55.664,0
1553632397.924,92.285,20.020,27.832,66.895,42.969,0
1553632397.928,61.523,22.949,23.926,50.781,69.336,0
1553632397.932,57.617,20.020,18.555,78.613,110.840,0
1553632397.936,94.727,20.020,19.043,73.730,20.020,0
1553632397.940,126.465,6.836,24.414,67.871,1.465,0
1553632397.944,88.379,-0.977,19.043,105.469,82.520,0
1553632397.947,56.641,9.277,8.789,47.363,70.801,0
1553632397.951,63.965,12.207,11.230,50.293,77.148,0
1553632397.955,55.664,8.789,25.391,88.379,66.406,0
1553632397.959,81.543,6.348,26.367,53.711,51.270,0
1553632397.963,109.863,10.254,16.602,51.270,76.660,0
1553632397.967,86.426,16.602,13.184,43.457,39.062,0
1553632397.971,92.285,16.602,15.137,57.617,26.367,0
1553632397.975,104.004,17.090,35.156,68.359,74.707,0
1553632397.979,64.453,25.879,41.504,47.363,87.402,0
1553632397.983,76.172,30.273,17.578,37.109,59.570,0
1553632397.987,62.012,30.273,14.648,46.875,41.992,0
1553632397.990,22.949,30.273,23.926,71.289,70.801,0
1553632397.994,71.289,30.762,25.391,69.336,45.898,0
1553632397.998,135.254,33.691,24.414,56.641,66.895,0
1553632398.002,135.254,31.250,4.883,60.059,62.012,0
1553632398.006,126.465,12.207,6.836,94.238,41.504,0
1553632398.010,103.516,4.883,42.969,94.238,33.691,0
1553632398.014,43.457,28.809,48.828,57.617,-8.789,0
1553632398.018,15.137,44.922,35.156,21.973,-23.926,0
1553632398.022,52.246,41.504,33.691,37.109,19.043,0
1553632398.026,83.008,39.062,41.992,34.668,58.594,0
1553632398.030,86.914,37.598,36.133,30.762,-39.551,0
1553632398.033,76.660,27.832,32.715,49.316,-30.273,0
1553632398.037,81.543,29.785,29.785,37.598,72.266,0
1553632398.041,99.609,41.504,22.461,17.090,45.410,0
1553632398.045,74.707,45.410,24.902,30.762,0.000,0
1553632398.049,-0.977,39.062,24.414,53.711,29.297,0
1553632398.053,3.906,30.762,26.367,25.879,-20.508,0
1553632398.057,65.430,39.062,25.879,48.340,-28.320,0
1553632398.061,66.895,54.199,27.344,44.434,39.062,0
1553632398.065,52.246,37.109,22.949,40.039,51.758,0
1553632398.069,80.566,22.461,20.508,44.434,-9.277,0
1553632398.072,98.145,32.715,31.250,19.531,-88.379,0
1553632398.076,95.215,22.949,36.133,36.621,-25.879,0
1553632398.080,90.820,19.043,30.762,24.414,21.484,0
1553632398.084,49.805,38.574,29.297,33.691,63.477,0
1553632398.088,18.066,49.316,30.273,52.246,77.637,0
1553632398.092,14.648,44.922,26.855,52.246,33.691,0
1553632398.096,24.902,36.133,30.762,49.316,32.227,0
1553632398.100,21.484,29.297,40.527,31.738,52.734,0
1553632398.104,55.664,27.344,45.410,34.180,117.188,0
1553632398.108,65.430,32.715,49.805,22.461,57.129,0
1553632398.112,95.215,39.551,31.250,22.461,64.941,0
1553632398.115,125.977,43.945,12.207,27.344,85.449,0
1553632398.119,41.016,37.109,26.855,38.086,63.965,0
1553632398.123,15.625,30.762,33.691,76.660,46.875,0
1553632398.127,45.898,36.621,31.250,50.781,56.641,0
1553632398.131,66.895,35.645,29.297,13.184,66.406,0
1553632398.135,68.359,26.855,30.273,4.395,44.434,0
1553632398.139,46.875,31.250,34.180,26.367,64.941,0
1553632398.143,64.453,38.574,33.203,40.039,61.035,0
1553632398.147,56.641,42.480,27.832,37.109,32.715,0
1553632398.151,42.480,37.109,20.508,31.738,29.297,0
1553632398.155,29.785,25.879,23.926,62.988,41.016,0
1553632398.158,40.527,19.531,36.133,73.242,22.461,0
1553632398.162,62.988,21.484,40.039,32.715,12.695,0
1553632398.166,44.434,33.203,36.621,3.418,53.223,0
1553632398.170,37.109,42.969,32.227,9.766,38.574,0
1553632398.174,47.363,48.340,22.461,56.152,-52.734,0
1553632398.178,60.059,40.039,22.949,69.824,-11.230,0
1553632398.182,63.965,33.691,32.227,43.945,31.738,0
1553632398.186,75.195,33.691,39.062,8.789,7.812,0
1553632398.190,62.012,30.762,48.340,-0.488,37.598,0
1553632398.194,47.363,26.367,39.551,24.414,62.988,0
1553632398.197,55.176,30.762,14.160,33.203,85.938,0
1553632398.201,42.480,34.668,19.531,29.785,107.422,0
1553632398.205,48.828,36.621,34.668,29.297,64.941,0
1553632398.209,74.219,45.410,30.762,27.832,41.992,0
1553632398.213,45.410,48.340,24.902,57.129,67.871,0
1553632398.217,31.250,36.621,29.297,33.203,38.086,0
1553632398.221,64.941,33.203,34.668,14.648,10.742,0
1553632398.225,62.012,37.598,31.250,32.715,18.066,0
1553632398.229,61.035,33.203,30.273,33.691,60.547,0
1553632398.233,46.875,32.715,37.109,45.410,102.051,0
1553632398.237,24.414,33.203,36.133,23.926,57.617,0
1553632398.240,25.879,34.668,28.320,6.348,26.855,0
1553632398.244,33.203,28.809,29.297,35.645,96.680,0
1553632398.248,51.758,23.926,31.738,42.969,83.008,0
1553632398.252,48.340,28.809,38.086,38.086,41.504,0
1553632398.256,41.992,26.855,44.434,24.414,34.180,0
1553632398.260,13.184,23.438,44.434,-5.371,75.684,0
1553632398.264,11.719,26.367,41.992,10.254,78.613,0
1553632398.268,38.574,31.250,34.668,7.812,5.371,0
1553632398.272,50.781,41.016,27.344,-12.695,9.277,0
1553632398.276,16.602,41.016,31.250,30.762,20.508,0
1553632398.280,-11.230,32.715,40.039,29.297,14.160,0
1553632398.283,-2.441,32.715,41.016,-7.324,-35.645,0
1553632398.287,11.719,28.320,53.223,8.789,-14.648,0
1553632398.291,5.859,28.320,57.129,-3.418,11.719,0
1553632398.295,-22.461,33.691,47.363,-62.500,9.277,0
1553632398.299,-20.508,31.738,50.781,-48.828,36.133,0
1553632398.303,-6.836,32.715,51.758,0.000,-10.254,0
1553632398.307,13.184,38.086,39.062,-33.203,-14.160,0
1553632398.311,18.555,41.504,36.621,-40.527,16.113,0
1553632398.315,-20.020,44.434,46.387,-17.090,-14.160,0
1553632398.319,-54.688,35.156,47.852,-42.969,16.602,0
1553632398.322,-30.273,29.785,54.688,-44.434,64.941,0
1553632398.326,-19.043,41.504,54.199,-55.176,37.598,0
1553632398.330,-46.387,52.246,45.898,-94.727,60.059,0
1553632398.334,-75.684,48.340,46.875,-105.469,83.008,0
1553632398.338,-95.703,39.551,54.199,-118.652,60.547,0
1553632398.342,-110.840,34.180,60.547,-138.672,56.641,0
1553632398.346,-102.539,41.504,59.082,-129.883,25.391,0
1553632398.350,-98.633,24.902,68.359,-115.723,-2.441,0
1553632398.354,-126.953,12.207,76.660,-114.258,-20.020,0
1553632398.358,-135.254,34.180,70.312,-114.258,16.602,0
1553632398.362,-129.883,43.457,67.383,-107.910,-13.184,0
1553632398.365,-128.418,41.016,63.477,-115.234,-42.969,0
1553632398.369,-117.676,39.551,62.012,-148.926,-27.344,0
1553632398.373,-80.078,40.039,59.570,-135.254,-50.293,0
1553632398.377,-76.660,40.039,62.500,-100.098,-31.250,0
1553632398.381,-112.305,37.598,75.684,-104.980,-16.113,0
1553632398.385,-132.324,29.297,83.008,-107.910,-15.137,0
1553632398.389,-129.395,23.926,72.754,-106.934,-25.391,0
1553632398.393,-90.820,15.625,57.617,-77.637,-8.789,0
1553632398.397,-57.129,14.648,54.688,-57.129,52.246,0
1553632398.401,-30.762,30.273,69.336,-53.223,65.918,0
1553632398.405,-23.926,37.109,76.172,-57.129,80.078,0
1553632398.408,-45.410,27.344,70.312,-37.109,50.293,0
1553632398.412,0.000,12.695,65.918,3.418,35.645,0
1553632398.416,39.062,9.277,57.129,24.902,65.430,0
1553632398.420,31.250,15.137,48.828,42.480,39.551,0
1553632398.424,74.219,24.902,41.504,41.992,-0.488,0
1553632398.428,77.637,37.109,34.180,36.133,-63.965,0
1553632398.432,39.062,33.203,33.203,40.527,1.953,0
1553632398.436,59.570,28.320,28.809,47.363,55.664,0
1553632398.440,82.031,35.156,25.879,49.316,-21.484,0
1553632398.444,80.566,31.738,28.809,78.613,-29.297,0
1553632398.447,89.844,19.531,26.367,109.863,0.977,0
1553632398.451,118.164,13.672,25.391,104.492,23.926,0
1553632398.455,120.605,19.531,20.996,96.191,-6.348,0
1553632398.459,107.422,29.785,10.254,117.676,-21.484,0
1553632398.463,125.000,33.691,10.254,115.234,8.301,0
1553632398.467,137.207,33.691,10.254,75.684,-22.461,0
1553632398.471,118.164,34.180,10.254,67.383,-17.090,0
1553632398.475,110.840,27.832,16.602,65.918,50.781,0
1553632398.479,106.934,27.832,20.020,75.195,35.156,0
1553632398.483,109.863,29.297,20.508,100.586,30.762,0
1553632398.487,103.516,24.902,17.578,116.699,20.996,0
1553632398.490,112.793,22.949,18.066,126.953,4.395,0
1553632398.494,131.348,30.273,19.043,100.098,25.391,0
1553632398.498,84.473,29.785,13.672,81.055,59.082,0
1553632398.502,69.824,20.508,15.137,95.215,120.117,0
1553632398.506,110.352,21.973,22.949,116.211,90.820,0
1553632398.510,111.816,23.926,21.973,141.113,59.082,0
1553632398.514,124.512,25.391,19.043,85.938,90.820,0
1553632398.518,136.719,23.926,18.066,42.969,20.508,0
1553632398.522,103.027,26.367,15.625,60.059,-21.973,0
1553632398.526,106.934,33.691,16.602,71.777,10.742,0
1553632398.530,110.840,33.691,9.277,83.008,24.902,0
1553632398.533,84.473,34.180,3.906,84.961,75.195,0
1553632398.537,89.844,35.156,13.672,78.125,38.086,0
1553632398.541,113.281,34.180,23.438,79.102,-0.977,0
1553632398.545,122.559,30.762,26.855,78.125,5.859,0
1553632398.549,123.535,34.180,27.344,84.473,-0.977,0
1553632398.553,142.578,35.156,27.344,85.938,-3.906,0
1553632398.557,113.281,37.598,22.949,64.453,-6.348,0
1553632398.561,71.777,39.062,19.043,86.914,21.484,0
1553632398.565,72.266,36.621,8.789,72.266,-22.461,0
1553632398.569,78.613,18.555,7.812,63.477,-14.160,0
1553632398.572,91.309,8.789,22.461,88.867,34.180,0
1553632398.576,100.098,33.691,29.785,76.172,36.133,0
1553632398.580,83.496,46.875,25.879,83.496,55.176,0
1553632398.584,77.148,43.457,25.391,83.008,45.410,0
1553632398.588,61.523,41.016,27.344,76.660,63.477,0
1553632398.592,91.797,46.387,19.531,56.152,71.777,0
1553632398.596,170.410,49.316,13.184,58.105,29.297,0
1553632398.600,125.000,46.387,13.672,87.402,83.496,0
1553632398.604,87.891,40.527,22.949,65.430,68.848,0
1553632398.608,109.863,31.738,28.809,51.270,20.508,0
1553632398.612,67.383,30.273,30.273,68.359,51.758,0
1553632398.615,55.176,23.926,37.109,104.980,62.988,0
1553632398.619,103.027,21.484,33.691,101.562,56.152,0
1553632398.623,135.742,20.996,25.879,62.500,60.059,0
1553632398.627,104.980,25.879,21.484,52.246,97.168,0
1553632398.631,93.750,35.156,24.414,73.242,45.898,0
1553632398.635,100.098,42.969,30.273,93.262,2.441,0
1553632398.639,104.492,42.969,25.879,105.469,31.250,0
1553632398.643,121.582,37.109,20.508,65.918,13.672,0
1553632398.647,115.234,32.715,26.367,30.762,-6.836,0
1553632398.651,92.773,21.484,31.250,78.125,-14.648,0
1553632398.655,73.242,26.367,29.297,100.098,86.914,0
1553632398.658,79.590,26.855,27.832,40.039,77.637,0
1553632398.662,83.496,17.578,29.785,44.434,-44.434,0
1553632398.666,87.402,24.414,30.273,56.152,-36.133,0
1553632398.670,72.754,36.133,26.855,38.574,18.066,0
1553632398.674,69.824,41.992,26.855,50.781,13.672,0
1553632398.678,115.723,37.598,34.668,77.148,-7.324,0
1553632398.682,81.543,28.809,42.480,74.219,-13.184,0
1553632398.686,72.754,31.738,41.992,57.129,18.555,0
1553632398.690,111.816,38.574,38.574,73.242,52.246,0
1553632398.694,96.191,38.574,33.203,75.684,46.387,0
1553632398.697,95.703,38.574,34.180,57.617,95.703,0
1553632398.701,62.012,41.504,35.645,13.184,88.867,0
1553632398.705,40.039,39.062,28.320,-11.230,56.641,0
1553632398.709,49.316,31.250,26.367,0.488,59.082,0
1553632398.713,40.527,21.484,37.109,5.859,56.152,0
1553632398.717,87.891,27.832,42.480,9.766,42.969,0
1553632398.721,84.961,45.410,29.297,48.828,-23.926,0
1553632398.725,51.270,43.945,23.926,40.527,15.137,0
1553632398.729,72.266,37.598,32.227,17.578,87.402,0
1553632398.733,74.707,41.992,38.086,89.844,3.418,0
1553632398.737,106.445,51.758,41.992,87.891,-72.266,0
1553632398.740,102.539,47.852,40.527,-28.809,37.109,0
1553632398.744,71.289,38.086,38.086,-13.184,80.078,0
1553632398.748,87.891,33.691,38.574,35.645,10.254,0
1553632398.752,101.562,31.250,23.926,35.645,-23.926,0
1553632398.756,71.289,36.133,11.719,43.945,47.852,0
1553632398.760,83.008,36.133,16.602,53.711,83.008,0
1553632398.764,83.008,32.227,23.926,67.383,37.109,0
1553632398.768,35.156,22.949,35.645,60.547,17.090,0
1553632398.772,56.641,32.227,41.504,45.410,53.711,0
1553632398.776,95.703,50.781,34.668,46.387,15.137,0
1553632398.780,72.754,55.664,30.762,32.715,-27.832,0
1553632398.783,64.941,52.734,33.203,36.133,48.340,0
1553632398.787,105.469,41.992,28.320,63.477,23.926,0
1553632398.791,115.234,32.715,26.855,35.645,-38.574,0
1553632398.795,104.980,37.598,28.320,82.520,8.789,0
1553632398.799,125.000,37.598,41.016,115.723,11.230,0
1553632398.803,163.574,28.320,51.270,40.527,76.172,0
1553632398.807,122.070,34.180,39.551,29.297,104.980,0
1553632398.811,74.219,41.992,35.156,32.715,62.012,0
1553632398.815,61.523,38.574,38.086,38.086,100.098,0
1553632398.819,77.148,41.016,27.832,18.555,54.688,0
1553632398.822,87.891,42.480,19.531,13.672,-14.648,0
1553632398.826,96.191,44.922,17.578,34.180,7.812,0
1553632398.830,122.070,58.105,14.160,57.617,10.254,0
1553632398.834,86.426,56.152,21.484,79.590,-0.977,0
1553632398.838,92.773,52.734,23.438,75.195,15.625,0
1553632398.842,117.676,61.035,6.348,40.039,-35.156,0
1553632398.846,92.773,53.711,4.395,22.949,-13.672,0
1553632398.850,117.676,49.316,16.113,29.297,-13.184,0
1553632398.854,84.473,50.781,12.695,48.340,19.043,0
1553632398.858,41.992,55.664,3.418,39.062,34.180,0
1553632398.862,83.008,46.875,9.766,11.719,12.207,0
1553632398.865,104.492,23.926,25.391,32.227,83.008,0
1553632398.869,91.309,37.598,34.668,55.664,79.590,0
1553632398.873,73.242,54.688,43.945,57.129,58.594,0
1553632398.877,87.891,46.875,47.852,62.988,64.941,0
1553632398.881,90.820,36.133,42.480,73.730,50.781,0
1553632398.885,76.660,33.203,39.062,37.598,87.402,0
1553632398.889,93.262,41.016,36.133,29.785,70.312,0
1553632398.893,88.379,35.645,40.039,67.871,-36.133,0
1553632398.897,63.477,28.809,40.039,72.266,3.906,0
1553632398.901,85.938,43.457,26.855,74.219,65.430,0
1553632398.905,100.098,52.246,25.391,96.191,-13.672,0
1553632398.908,52.246,42.480,29.785,47.363,-12.207,0
1553632398.912,41.016,34.668,32.715,27.344,26.855,0
1553632398.916,67.871,39.062,27.832,66.406,-12.207,0
1553632398.920,82.520,35.645,14.648,57.617,-11.230,0
1553632398.924,97.656,37.598,13.184,58.105,0.977,0
1553632398.928,91.309,45.410,22.461,44.434,-20.508,0
1553632398.932,99.609,43.457,26.855,40.527,-25.391,0
1553632398.936,106.934,37.109,30.273,52.734,-10.254,0
1553632398.940,108.887,37.598,28.320,84.473,-2.930,0
1553632398.944,96.680,39.062,21.973,114.746,-1.465,0
1553632398.947,36.133,23.926,23.926,71.289,20.508,0
1553632398.951,34.180,12.207,27.832,31.250,82.031,0
1553632398.955,61.523,26.367,33.691,72.754,73.242,0
1553632398.959,66.406,41.504,33.203,63.965,44.922,0
1553632398.963,38.086,36.133,27.344,27.832,72.266,0
1553632398.967,58.105,36.133,24.414,33.691,113.281,0
1553632398.971,99.121,42.969,24.414,44.922,97.656,0
1553632398.975,89.844,43.457,22.461,55.176,33.203,0
1553632398.979,64.941,33.203,27.832,75.684,30.273,0
1553632398.983,83.496,30.273,36.133,55.176,38.574,0
1553632398.987,112.305,41.016,34.668,57.617,40.039,0
1553632398.990,116.699,39.062,37.109,75.684,60.059,0
1553632398.994,84.961,42.969,33.203,63.477,20.508,0
1553632398.998,54.199,54.199,20.508,76.660,27.832,0
1553632399.002,74.219,53.711,14.648,56.641,38.086,0
1553632399.006,60.059,43.457,25.879,49.805,47.852,0
1553632399.010,50.781,37.109,39.551,68.848,54.688,0
1553632399.014,90.332,34.668,33.691,96.680,-14.160,0
1553632399.018,127.441,26.855,29.297,87.402,-37.109,0
1553632399.022,108.398,28.809,31.738,63.477,26.367,0
1553632399.026,83.496,32.715,30.273,64.453,-0.977,0
1553632399.030,97.168,26.855,28.320,53.711,3.906,0
1553632399.033,118.164,32.227,24.414,58.105,75.684,0
1553632399.037,115.723,41.016,23.438,57.129,44.922,0
1553632399.041,97.656,41.504,23.438,53.223,43.457,0
1553632399.045,118.652,43.945,26.367,60.059,43.945,0
1553632399.049,91.797,38.086,27.344,55.664,33.203,0
1553632399.053,41.016,33.203,28.809,73.730,81.543,0
1553632399.057,102.051,34.668,31.250,130.371,59.570,0
1553632399.061,156.738,33.203,29.785,90.820,29.297,0
1553632399.065,115.723,31.738,29.297,6.836,6.348,0
1553632399.069,92.773,31.250,36.621,28.809,29.297,0
1553632399.072,78.613,27.832,40.527,89.355,2.441,0
1553632399.076,121.582,33.203,27.832,73.242,-13.184,0
1553632399.080,152.832,38.574,27.344,45.410,-3.418,0
1553632399.084,104.980,37.109,29.297,63.477,4.395,0
1553632399.088,93.750,31.738,24.414,46.875,41.992,0
1553632399.092,121.582,19.531,29.785,41.504,39.551,0
1553632399.096,124.023,23.438,29.785,66.895,23.438,0
1553632399.100,135.742,34.180,27.344,66.406,25.879,0
1553632399.104,149.902,36.133,37.598,59.570,19.043,0
1553632399.108,161.621,37.598,42.969,92.285,65.918,0
1553632399.112,119.629,35.645,41.992,79.590,87.891,0
1553632399.115,101.074,31.250,43.457,50.293,44.434,0
1553632399.119,118.652,26.855,44.922,48.828,65.430,0
1553632399.123,110.840,22.461,47.363,51.758,65.918,0
1553632399.127,131.836,19.043,51.270,46.875,70.312,0
1553632399.131,150.391,12.695,53.711,41.992,23.438,0
1553632399.135,158.203,14.160,50.781,50.781,66.895,0
1553632399.139,190.430,21.973,50.293,61.035,23.438,0
1553632399.143,202.148,23.926,54.199,94.238,-17.578,0
1553632399.147,155.273,19.531,60.059,104.980,28.320,0
1553632399.151,162.109,15.625,62.988,95.215,-21.484,0
1553632399.155,220.703,16.113,59.570,124.512,-18.066,0
1553632399.158,204.102,17.090,53.223,107.422,26.855,0
1553632399.162,170.410,20.020,49.316,93.750,53.711,0
1553632399.166,174.316,21.973,48.828,124.023,45.898,0
1553632399.170,191.895,17.578,49.805,122.070,9.277,0
1553632399.174,203.125,16.602,52.734,110.840,50.781,0
1553632399.178,189.941,20.508,50.293,118.652,41.504,0
1553632399.182,192.871,17.578,50.293,102.539,23.926,0
1553632399.186,174.316,18.555,53.711,99.121,87.891,0
1553632399.190,161.133,19.043,52.246,109.863,62.988,0
1553632399.194,205.566,10.254,41.016,78.125,31.250,0
1553632399.197,182.617,13.184,44.434,78.613,33.203,0
1553632399.201,134.277,24.414,49.805,86.426,75.684,0
1553632399.205,154.785,15.137,47.852,84.961,41.016,0
1553632399.209,172.363,8.301,54.199,97.656,-12.207,0
1553632399.213,156.738,21.973,43.945,125.000,-35.645,0
1553632399.217,156.250,25.391,36.133,97.168,40.527,0
1553632399.221,164.062,19.043,52.734,20.508,77.637,0
1553632399.225,153.809,16.113,56.641,52.246,62.012,0
1553632399.229,129.883,24.414,41.504,91.309,122.070,0
1553632399.233,118.164,26.367,36.621,55.176,67.871,0
1553632399.237,181.641,29.297,44.922,72.754,21.484,0
1553632399.240,172.852,29.297,52.734,87.402,58.105,0
1553632399.244,97.168,27.344,50.293,62.988,44.434,0
1553632399.248,119.629,21.973,48.340,64.941,20.508,0
1553632399.252,145.508,11.719,50.293,32.715,32.227,0
1553632399.256,138.672,7.812,43.457,23.438,31.250,0
1553632399.260,174.316,18.555,32.227,57.617,26.855,0
1553632399.264,144.043,27.832,31.738,70.312,31.250,0
1553632399.268,102.539,26.855,45.898,57.617,28.320,0
1553632399.272,115.234,21.973,44.434,67.871,1.953,0
1553632399.276,111.328,21.973,36.133,56.152,8.789,0
1553632399.280,105.469,32.715,42.969,43.457,27.832,0
1553632399.283,128.418,29.785,49.316,76.660,24.902,0
1553632399.287,102.051,20.508,36.621,61.523,64.453,0
1553632399.291,83.496,22.949,22.949,52.246,77.637,0
1553632399.295,120.117,29.785,32.227,53.711,16.602,0
1553632399.299,98.145,31.250,39.062,39.551,23.438,0
1553632399.303,96.680,32.227,37.109,50.781,67.383,0
1553632399.307,115.234,27.832,41.504,45.898,44.434,0
1553632399.311,107.910,18.555,47.852,46.387,15.625,0
1553632399.315,138.672,23.926,45.410,55.664,-35.645,0
1553632399.319,153.809,33.203,36.621,24.414,-0.488,0
1553632399.322,144.043,25.391,33.691,28.809,60.059,0
1553632399.326,116.699,17.578,29.785,52.246,24.414,0
1553632399.330,81.543,20.996,30.762,54.199,-3.418,0
1553632399.334,68.359,24.902,36.621,67.383,-3.906,0
1553632399.338,104.980,27.344,35.156,72.266,12.207,0
1553632399.342,115.234,27.832,38.574,51.758,-1.465,0
1553632399.346,101.074,16.113,41.504,35.645,-22.949,0
1553632399.350,112.793,11.719,37.109,3.418,27.344,0
1553632399.354,78.125,20.020,36.133,11.719,49.316,0
1553632399.358,79.590,19.531,32.715,33.691,16.602,0
1553632399.362,98.633,14.160,30.273,23.438,-24.414,0
1553632399.365,68.359,7.324,33.203,16.602,28.809,0
1553632399.369,93.750,14.160,42.480,42.480,83.008,0
1553632399.373,122.070,25.879,30.273,55.176,108.887,0
1553632399.377,121.582,29.297,20.020,50.781,77.148,0
1553632399.381,62.012,29.785,41.992,58.105,-1.465,0
1553632399.385,61.035,24.414,49.805,30.273,0.000,0
1553632399.389,101.562,19.043,41.992,12.207,49.805,0
1553632399.393,98.633,13.184,45.898,20.996,45.410,0
1553632399.397,92.773,12.695,50.781,27.344,35.156,0
1553632399.401,87.891,17.090,48.828,44.922,5.859,0
1553632399.405,89.844,13.184,46.387,45.898,23.926,0
1553632399.408,84.961,4.883,41.016,31.738,23.438,0
1553632399.412,44.922,3.418,37.598,40.527,45.898,0
1553632399.416,44.434,1.465,41.992,35.645,67.871,0
1553632399.420,72.266,3.418,37.598,43.457,6.348,0
1553632399.424,77.637,13.184,34.180,43.945,14.648,0
1553632399.428,68.848,11.230,44.922,16.113,18.066,0
1553632399.432,107.422,8.301,42.480,27.344,-15.137,0
1553632399.436,134.277,10.254,32.715,54.199,-41.504,0
1553632399.440,56.152,2.441,40.527,65.918,-21.484,0
1553632399.444,28.809,-17.090,49.805,33.691,-0.977,0
1553632399.447,82.520,-16.602,41.016,2.930,-19.043,0
1553632399.451,68.359,5.371,35.156,10.254,-24.902,0
1553632399.455,43.945,26.367,34.180,22.949,7.812,0
1553632399.459,77.637,32.227,26.367,30.273,28.320,0
1553632399.463,120.605,22.949,25.879,42.969,31.738,0
1553632399.467,126.465,19.043,31.738,42.969,35.645,0
1553632399.471,94.238,20.020,33.203,31.738,70.312,0
1553632399.475,111.816,15.625,36.621,33.203,46.387,0
1553632399.479,86.426,17.090,27.344,63.477,32.227,0
1553632399.483,33.203,19.043,18.066,76.660,78.613,0
1553632399.487,59.082,6.836,31.250,44.434,40.039,0
1553632399.490,61.035,1.465,40.527,17.578,21.484,0
1553632399.494,55.664,13.184,41.016,7.812,50.293,0
1553632399.498,89.844,3.418,36.133,16.113,63.477,0
1553632399.502,113.281,-2.930,28.809,34.668,101.074,0
1553632399.506,113.281,16.113,25.391,55.664,68.359,0
1553632399.510,104.492,5.859,34.668,66.406,39.062,0
1553632399.514,128.418,3.906,41.992,70.801,17.090,0
1553632399.518,88.379,27.832,36.133,60.547,18.555,0
1553632399.522,40.039,25.391,27.344,26.367,41.504,0
1553632399.526,38.574,8.789,22.461,12.207,44.922,0
1553632399.530,29.297,1.953,20.020,-17.090,27.832,0
1553632399.533,21.484,-0.977,18.066,-39.551,3.906,0
1553632399.537,12.695,4.395,-0.977,-25.391,16.113,0
1553632399.541,-19.531,20.996,-11.230,-51.758,58.105,0
1553632399.545,-29.785,29.785,0.488,-90.332,80.566,0
1553632399.549,-14.160,36.133,1.953,-110.840,38.086,0
1553632399.553,-56.152,19.043,6.836,-116.699,69.336,0
1553632399.557,-40.527,4.883,10.254,-96.680,63.477,0
1553632399.561,4.883,20.020,-2.930,-81.055,12.207,0
1553632399.565,-11.230,24.414,-10.254,-63.965,84.961,0
1553632399.569,-17.090,15.137,-2.441,-63.965,93.750,0
1553632399.572,-1.465,16.113,1.953,-28.320,42.969,0
1553632399.576,13.672,24.902,-0.977,-35.156,38.574,0
1553632399.580,35.645,29.785,-0.488,-63.965,56.152,0
1553632399.584,53.223,30.273,1.465,-8.301,50.293,0
1553632399.588,20.996,22.949,-1.465,-3.906,9.766,0
1553632399.592,-33.203,13.184,-1.465,-30.273,16.602,0
1553632399.596,-5.371,15.137,2.441,-20.508,28.320,0
1553632399.600,63.477,23.926,5.371,-4.395,37.109,0
1553632399.604,9.766,29.297,10.742,8.789,117.188,0
1553632399.608,-9.766,32.227,17.090,13.672,108.887,0
1553632399.612,48.340,33.203,18.066,6.348,26.855,0
1553632399.615,49.316,36.133,13.672,-4.395,10.742,0
1553632399.619,48.340,33.691,12.695,2.441,43.945,0
1553632399.623,57.617,28.809,15.137,-6.348,57.617,0
1553632399.627,25.391,29.297,14.648,-8.789,28.809,0
1553632399.631,27.832,22.461,14.160,21.973,-8.301,0
1553632399.635,63.965,21.484,15.137,31.738,-11.719,0
1553632399.639,43.457,40.039,16.113,42.480,-27.344,0
1553632399.643,24.414,41.016,17.090,60.547,-22.461,0
1553632399.647,24.414,36.621,13.184,35.645,42.969,0
1553632399.651,62.988,31.250,12.695,-14.160,45.410,0
1553632399.655,67.383,18.066,15.137,5.371,43.457,0
1553632399.658,68.848,28.320,16.113,44.922,47.852,0
1553632399.662,100.098,47.363,20.508,27.832,58.105,0
1553632399.666,62.500,56.152,26.855,13.184,69.336,0
1553632399.670,35.156,45.410,22.461,28.809,38.574,0
1553632399.674,25.391,46.387,12.207,45.410,10.742,0
1553632399.678,15.625,58.105,19.531,28.809,13.184,0
1553632399.682,59.570,53.711,25.879,16.602,47.852,0
1553632399.686,55.176,49.316,23.926,19.531,58.594,0
1553632399.690,60.547,41.504,22.461,33.203,-9.277,0
1553632399.694,47.363,37.598,26.367,56.641,-20.508,0
1553632399.697,48.340,41.504,28.809,35.645,17.090,0
1553632399.701,75.684,40.039,32.715,-3.906,-9.766,0
1553632399.705,74.219,34.180,31.250,21.973,32.227,0
1553632399.709,65.918,32.227,24.414,47.363,63.477,0
1553632399.713,49.316,45.410,29.785,22.461,-32.715,0
1553632399.717,26.855,43.457,28.320,15.625,-23.438,0
1553632399.721,-11.719,23.438,17.090,1.953,3.418,0
1553632399.725,34.180,33.691,18.066,12.695,-20.996,0
1553632399.729,48.340,55.664,24.414,28.320,28.809,0
1553632399.733,31.250,55.664,21.973,48.340,32.227,0
1553632399.737,40.527,41.016,13.672,51.270,-17.090,0
1553632399.740,40.527,37.109,25.879,28.320,12.695,0
1553632399.744,42.969,40.039,32.715,11.719,56.641,0
1553632399.748,28.809,30.273,24.414,3.906,40.039,0
1553632399.752,39.062,32.227,21.973,6.348,20.020,0
1553632399.756,42.969,48.340,20.508,25.391,21.484,0
1553632399.760,44.922,55.664,25.879,31.250,10.254,0
1553632399.764,43.945,53.223,37.598,10.742,-0.977,0
1553632399.768,20.508,47.852,39.551,2.930,-3.418,0
1553632399.772,17.578,44.434,37.598,2.441,11.719,0
1553632399.776,6.348,45.898,23.926,27.832,13.672,0
1553632399.780,14.648,47.852,14.648,49.316,27.344,0
1553632399.783,34.180,38.574,20.508,24.902,62.500,0
1553632399.787,48.828,29.297,22.461,-0.488,53.711,0
1553632399.791,94.238,41.504,22.949,-2.441,30.273,0
1553632399.795,48.340,50.781,25.879,37.598,22.949,0
1553632399.799,28.809,40.039,36.621,53.711,-2.441,0
1553632399.803,9.766,35.156,45.410,23.438,19.531,0
1553632399.807,-11.719,40.527,38.574,19.531,29.297,0
1553632399.811,19.531,47.363,29.785,12.695,62.012,0
1553632399.815,16.113,54.688,18.066,-4.395,48.340,0
1553632399.819,18.066,57.617,9.766,12.695,12.207,0
1553632399.822,5.859,43.945,14.648,22.461,59.570,0
1553632399.826,12.207,36.621,26.367,21.484,6.348,0
1553632399.830,27.832,40.039,31.738,80.078,-27.344,0
1553632399.834,49.316,39.551,21.973,66.895,60.059,0
1553632399.838,43.945,40.039,20.996,-5.859,45.410,0
1553632399.842,20.508,39.062,33.691,-7.812,15.137,0
1553632399.846,7.812,35.645,39.551,25.879,45.410,0
1553632399.850,0.000,32.715,38.574,48.340,40.527,0
1553632399.854,12.207,32.227,34.180,19.043,33.203,0
1553632399.858,15.625,41.504,32.227,18.555,4.395,0
1553632399.862,22.461,45.898,37.598,20.996,53.711,0
1553632399.865,30.273,50.293,43.457,0.488,43.945,0
1553632399.869,26.855,50.781,40.527,13.184,3.906,0
1553632399.873,14.648,44.434,39.551,30.273,54.688,0
1553632399.877,22.461,41.504,42.480,30.762,38.574,0
1553632399.881,29.297,36.621,39.551,44.922,34.180,0
1553632399.885,-34.180,34.668,31.738,51.758,43.945,0
1553632399.889,-21.484,38.574,25.391,36.133,31.250,0
1553632399.893,14.160,41.016,21.973,43.457,56.641,0
1553632399.897,9.277,44.922,25.879,20.508,55.176,0
1553632399.901,51.270,41.016,32.227,-8.301,25.391,0
1553632399.905,54.688,30.273,38.086,5.371,29.785,0
1553632399.908,43.945,34.668,30.762,9.277,1.953,0
1553632399.912,5.371,45.410,16.113,19.531,-35.156,0
1553632399.916,-23.926,50.781,16.113,72.754,5.859,0
1553632399.920,8.301,48.828,21.973,37.598,50.781,0
1553632399.924,-6.836,34.180,26.367,-1.465,42.969,0
1553632399.928,-38.574,36.621,33.691,25.391,33.203,0
1553632399.932,6.348,50.293,35.645,10.254,38.574,0
1553632399.936,36.133,50.293,37.109,-5.371,27.832,0
1553632399.940,12.207,52.734,43.457,5.859,27.344,0
1553632399.944,-11.230,59.570,47.363,49.805,5.859,0
1553632399.947,-15.137,57.129,39.551,26.855,-5.371,0
1553632399.951,0.977,49.316,29.785,11.719,42.969,0
1553632399.955,10.254,46.875,31.738,28.320,23.926,0
1553632399.959,45.410,54.199,27.344,38.574,17.090,0
1553632399.963,62.012,50.293,26.367,52.246,10.254,0
1553632399.967,38.574,36.133,33.691,39.062,10.742,0
1553632399.971,38.086,40.527,37.598,18.555,-30.273,0
1553632399.975,47.363,47.363,41.992,4.883,-56.152,0
1553632399.979,23.438,49.805,43.945,28.809,-15.625,0
1553632399.983,2.441,49.316,41.992,51.270,-10.742,0
1553632399.987,21.973,49.805,34.668,27.832,34.668,0
1553632399.990,23.438,54.688,32.715,2.930,15.137,0
1553632399.994,10.742,56.641,38.574,41.992,-12.695,0
1553632399.998,36.621,53.711,44.922,44.434,-14.648,0
1553632400.002,41.016,56.152,39.551,7.812,-3.418,0
1553632400.006,28.320,58.594,33.691,47.852,30.762,0
1553632400.010,9.277,46.875,45.410,55.664,74.707,0
1553632400.014,-24.902,39.062,47.852,10.742,42.969,0
1553632400.018,0.977,46.875,42.480,38.086,-16.113,0
1553632400.022,53.223,62.012,36.621,38.086,-17.090,0
1553632400.026,70.801,73.730,34.180,21.973,11.719,0
1553632400.030,53.223,66.895,38.574,24.414,37.598,0
1553632400.033,25.879,48.828,42.480,49.805,-12.695,0
1553632400.037,5.371,48.340,37.598,110.840,31.250,0
1553632400.041,17.090,62.988,24.414,48.340,107.422,0
1553632400.045,-5.859,73.242,20.020,-20.020,79.590,0
1553632400.049,13.184,78.125,24.902,30.762,94.727,0
1553632400.053,48.828,71.289,30.762,30.762,93.262,0
1553632400.057,51.270,66.895,30.762,4.883,82.031,0
1553632400.061,38.086,66.406,25.391,16.602,57.129,0
1553632400.065,19.531,59.082,29.297,21.973,26.855,0
1553632400.069,-3.906,57.129,41.504,9.277,66.895,0
1553632400.072,-20.020,58.594,48.828,16.602,60.059,0
1553632400.076,-2.441,61.523,49.805,44.922,52.734,0
1553632400.080,17.578,60.059,49.316,43.945,76.660,0
1553632400.084,30.762,59.570,45.898,16.602,46.387,0
1553632400.088,37.109,73.730,40.527,26.367,40.527,0
1553632400.092,37.598,86.426,40.527,57.129,60.547,0
1553632400.096,58.105,83.984,44.434,40.527,52.246,0
1553632400.100,38.574,75.684,41.504,28.809,34.668,0
1553632400.104,26.367,77.637,36.133,30.762,21.484,0
1553632400.108,40.039,92.285,31.738,22.949,8.301,0
1553632400.112,18.555,100.586,31.738,25.391,19.043,0
1553632400.115,16.113,93.750,37.598,53.711,39.062,0
1553632400.119,34.668,88.867,45.410,58.105,23.438,0
1553632400.123,50.293,92.285,39.551,32.715,7.324,0
1553632400.127,59.082,93.750,33.203,46.387,14.648,0
1553632400.131,46.387,91.797,33.203,32.227,-0.488,0
1553632400.135,26.367,90.820,33.203,16.113,-6.348,0
1553632400.139,26.855,88.379,31.250,32.227,9.766,0
1553632400.143,10.742,76.660,27.832,49.316,12.695,0
1553632400.147,19.531,70.801,34.180,65.430,32.715,0
1553632400.151,12.207,84.961,37.598,55.664,4.883,0
1553632400.155,7.812,84.961,37.598,28.809,-16.602,0
1553632400.158,17.090,79.102,40.039,31.250,9.766,0
1553632400.162,18.555,85.449,34.668,34.668,-23.438,0
1553632400.166,46.875,95.215,33.691,28.320,-57.617,0
1553632400.170,101.074,100.098,34.180,17.578,-33.691,0
1553632400.174,84.473,100.098,31.250,33.691,-24.414,0
1553632400.178,12.207,94.727,34.668,48.828,-2.930,0
1553632400.182,-6.836,77.148,37.109,34.668,79.590,0
1553632400.186,-20.996,62.988,37.109,25.879,82.031,0
1553632400.190,9.277,58.594,34.668,22.461,-11.719,0
1553632400.194,34.668,65.918,35.645,14.648,23.926,0
1553632400.197,37.109,76.660,36.133,40.039,57.617,0
1553632400.201,60.059,80.078,27.344,53.711,21.484,0
1553632400.205,39.551,81.055,29.785,50.293,34.668,0
1553632400.209,2.930,82.520,40.039,38.086,6.348,0
1553632400.213,49.805,87.402,41.504,41.016,3.906,0
1553632400.217,57.617,85.449,40.527,52.246,42.969,0
1553632400.221,5.371,76.660,38.086,48.828,34.668,0
1553632400.225,16.113,75.195,37.109,34.668,28.809,0
1553632400.229,39.551,76.172,29.297,27.832,15.625,0
1553632400.233,17.090,78.125,24.414,29.785,-7.324,0
1553632400.237,-7.812,79.590,29.297,43.945,71.289,0
1553632400.240,18.555,74.707,31.250,45.898,69.336,0
1553632400.244,38.574,65.430,31.250,42.969,33.691,0
1553632400.248,57.129,65.430,30.762,40.039,83.008,0
1553632400.252,29.785,74.707,37.598,39.551,73.730,0
1553632400.256,36.133,75.684,35.645,55.176,62.012,0
1553632400.260,59.570,74.707,34.180,42.969,77.637,0
1553632400.264,21.973,84.473,35.645,27.344,31.250,0
1553632400.268,-3.418,91.797,35.645,40.039,-20.020,0
1553632400.272,-0.977,93.750,36.133,53.223,23.438,0
1553632400.276,22.461,91.797,35.645,39.551,75.195,0
1553632400.280,28.809,88.379,43.457,25.391,42.480,0
1553632400.283,42.969,88.867,51.758,46.875,-0.977,0
1553632400.287,33.203,99.121,46.875,22.461,-51.758,0
1553632400.291,21.484,103.516,35.156,-6.348,-17.090,0
1553632400.295,57.129,107.422,33.691,33.203,55.176,0
1553632400.299,45.410,107.422,32.227,54.688,29.785,0
1553632400.303,-6.348,113.281,27.832,35.156,30.762,0
1553632400.307,-35.156,112.793,23.438,2.930,40.039,0
1553632400.311,-19.043,99.121,18.555,-17.090,81.055,0
1553632400.315,-5.371,96.191,21.484,-7.812,71.289,0
1553632400.319,9.766,93.262,24.902,4.883,30.762,0
1553632400.322,36.621,94.238,22.461,9.277,37.598,0
1553632400.326,39.551,104.492,23.438,10.742,49.805,0
1553632400.330,24.414,115.723,26.367,18.066,34.180,0
1553632400.334,18.555,118.652,30.273,33.691,58.105,0
1553632400.338,21.973,113.770,33.691,27.832,22.461,0
1553632400.342,16.602,107.422,34.180,45.410,28.320,0
1553632400.346,-9.277,93.750,40.527,52.246,46.387,0
1553632400.350,-12.207,89.355,44.922,20.508,-0.977,0
1553632400.354,-13.672,95.703,39.551,25.879,5.859,0
1553632400.358,-8.301,94.238,32.715,30.273,25.391,0
1553632400.362,38.574,90.820,27.344,41.992,59.082,0
1553632400.365,62.500,93.750,22.949,56.641,67.383,0
1553632400.369,35.156,99.121,25.391,20.996,38.086,0
1553632400.373,25.879,97.656,32.227,7.324,-0.977,0
1553632400.377,49.316,88.867,40.527,20.508,10.742,0
1553632400.381,66.406,90.820,38.574,35.156,23.926,0
1553632400.385,21.484,95.703,27.344,40.527,25.391,0
1553632400.389,-12.695,92.285,30.762,16.113,7.324,0
1553632400.393,15.625,84.961,35.645,24.902,25.391,0
1553632400.397,26.855,82.520,32.227,49.316,95.703,0
1553632400.401,-16.113,82.520,35.156,46.387,63.477,0
1553632400.405,-10.254,75.195,39.551,47.363,75.684,0
1553632400.408,24.902,70.312,43.945,43.945,55.176,0
1553632400.412,43.457,82.031,40.527,25.391,-0.488,0
1553632400.416,22.949,83.496,38.574,55.176,55.176,0
1553632400.420,0.488,77.148,39.551,51.270,91.797,0
1553632400.424,26.367,82.031,38.086,9.766,44.922,0
1553632400.428,37.109,89.844,33.203,24.902,-16.602,0
1553632400.432,38.574,94.238,30.273,43.457,-18.555,0
1553632400.436,33.203,99.121,31.738,40.039,70.312,0
1553632400.440,14.648,104.004,30.762,38.574,64.941,0
1553632400.444,4.395,102.051,22.949,48.828,31.738,0
1553632400.447,29.785,91.797,26.855,15.137,9.766,0
1553632400.451,20.508,92.285,35.156,-8.789,-16.602,0
1553632400.455,27.344,86.426,39.551,22.949,9.766,0
1553632400.459,15.137,77.148,37.598,37.109,56.152,0
1553632400.463,27.832,84.961,29.785,48.340,68.359,0
1553632400.467,35.156,91.309,30.762,47.363,37.109,0
1553632400.471,12.695,88.867,35.156,42.969,83.984,0
1553632400.475,36.133,92.773,33.691,47.363,64.453,0
1553632400.479,33.691,84.473,33.691,41.016,23.438,0
1553632400.483,-1.465,75.195,36.621,19.531,26.367,0
1553632400.487,-19.531,73.242,35.645,19.531,14.648,0
1553632400.490,-4.883,72.754,34.668,24.414,35.645,0
1553632400.494,-13.184,83.984,33.691,22.949,15.137,0
1553632400.498,-4.395,84.961,37.109,28.320,44.922,0
1553632400.502,48.340,81.055,39.551,6.836,90.820,0
1553632400.506,52.246,83.496,37.598,2.441,50.781,0
1553632400.510,17.578,76.172,34.180,38.086,28.809,0
1553632400.514,-4.883,67.383,38.574,46.875,70.801,0
1553632400.518,-0.488,73.242,38.086,10.254,47.363,0
1553632400.522,15.137,81.055,35.156,27.832,7.812,0
1553632400.526,-9.277,84.961,36.133,43.457,-23.438,0
1553632400.530,-3.418,84.961,35.645,22.949,-26.367,0
1553632400.533,22.949,74.707,35.156,28.809,38.086,0
1553632400.537,29.297,63.965,34.668,36.133,37.109,0
1553632400.541,23.926,60.059,36.133,54.688,14.648,0
1553632400.545,1.953,67.871,41.016,54.688,28.320,0
1553632400.549,29.297,82.520,37.109,30.762,20.508,0
1553632400.553,51.270,86.426,30.762,35.156,46.387,0
1553632400.557,41.016,87.402,30.762,40.527,64.453,0
1553632400.561,7.812,87.402,34.180,35.645,42.480,0
1553632400.565,-2.930,85.938,36.133,38.574,15.625,0
1553632400.569,13.184,90.332,28.320,27.344,21.973,0
1553632400.572,19.531,95.703,19.043,1.465,39.551,0
1553632400.576,15.625,86.426,22.461,-2.930,36.133,0
1553632400.580,32.227,80.566,28.320,19.531,1.953,0
1553632400.584,23.926,85.449,30.762,37.109,21.484,0
1553632400.588,22.949,83.496,41.504,40.039,69.824,0
1553632400.592,44.922,83.496,45.898,58.105,55.176,0
1553632400.596,42.480,84.473,44.434,29.785,40.039,0
1553632400.600,22.949,83.984,43.945,4.395,61.035,0
1553632400.604,45.898,89.844,41.504,24.414,69.824,0
1553632400.608,32.715,86.426,43.945,26.367,20.020,0
1553632400.612,1.953,82.031,42.480,29.785,31.250,0
1553632400.615,23.926,80.078,44.434,52.246,12.695,0
1553632400.619,22.461,80.566,43.457,52.734,-30.273,0
1553632400.623,0.977,83.008,33.691,27.832,43.945,0
1553632400.627,-18.066,85.449,28.809,19.043,40.039,0
1553632400.631,1.953,87.891,28.809,23.926,43.945,0
1553632400.635,44.434,79.590,36.621,19.531,95.215,0
1553632400.639,45.410,74.219,42.969,15.625,24.414,0
1553632400.643,25.879,70.801,47.363,14.160,-48.340,0
1553632400.647,41.992,58.594,50.293,51.270,-6.348,0
1553632400.651,20.508,57.129,52.246,63.965,29.785,0
1553632400.655,21.484,68.359,46.387,30.273,36.621,0
1553632400.658,45.898,78.125,37.109,20.508,73.242,0
1553632400.662,4.883,88.867,31.250,11.719,78.125,0
1553632400.666,-21.973,84.473,28.320,12.695,60.059,0
1553632400.670,-14.648,74.707,37.598,16.113,42.480,0
1553632400.674,10.742,76.660,45.410,27.344,27.344,0
1553632400.678,31.738,73.242,43.457,50.781,23.926,0
1553632400.682,31.738,68.359,42.480,38.574,-40.039,0
1553632400.686,3.418,77.148,38.086,29.785,-40.039,0
1553632400.690,2.930,79.590,33.203,31.738,-15.137,0
1553632400.694,26.855,72.266,33.203,17.090,12.207,0
1553632400.697,1.953,78.613,30.762,27.344,22.949,0
1553632400.701,-20.996,73.242,27.344,33.691,24.902,0
1553632400.705,30.762,63.965,27.832,30.273,34.180,0
1553632400.709,7.324,65.918,32.227,14.648,50.293,0
1553632400.713,-31.738,64.453,41.016,30.762,73.242,0
1553632400.717,34.180,68.848,43.945,81.543,30.762,0
1553632400.721,49.316,65.918,41.504,76.172,23.438,0
1553632400.725,33.203,66.406,40.039,9.277,14.160,0
1553632400.729,12.207,74.219,30.762,-13.184,19.531,0
1553632400.733,18.066,80.078,24.414,12.207,101.562,0
1553632400.737,29.785,82.520,26.367,36.133,44.434,0
1553632400.740,43.945,77.637,31.738,34.180,5.371,0
1553632400.744,75.195,73.730,37.109,35.645,32.715,0
1553632400.748,25.391,73.730,37.109,40.039,-19.043,0
1553632400.752,-16.113,64.941,33.203,21.973,19.043,0
1553632400.756,-7.812,67.383,25.879,-1.953,63.965,0
1553632400.760,7.324,73.242,22.461,5.371,-13.184,0
1553632400.764,34.180,64.453,33.691,49.805,3.418,0
1553632400.768,31.250,53.711,34.180,80.078,8.301,0
1553632400.772,47.363,60.547,26.855,18.066,-51.270,0
1553632400.776,43.945,79.102,33.203,11.230,-69.336,0
1553632400.780,-17.578,78.125,28.320,47.363,-2.441,0
1553632400.783,-8.301,69.824,25.879,24.902,44.922,0
1553632400.787,38.086,77.148,33.203,8.301,16.113,0
1553632400.791,34.180,81.543,34.668,-0.488,0.000,0
1553632400.795,18.555,69.824,34.180,18.066,-0.977,0
1553632400.799,6.836,57.129,29.785,20.996,-21.484,0
1553632400.803,29.297,54.688,32.715,40.039,-22.461,0
1553632400.807,31.250,68.359,38.574,63.965,34.668,0
1553632400.811,28.809,76.660,37.598,29.297,65.430,0
1553632400.815,25.391,66.406,32.715,20.996,47.363,0
1553632400.819,35.156,64.453,34.180,50.293,13.184,0
1553632400.822,67.871,68.359,33.691,81.055,21.973,0
1553632400.826,45.410,57.617,32.227,60.059,51.758,0
1553632400.830,13.672,56.152,40.527,32.715,36.133,0
1553632400.834,-6.348,67.383,41.992,20.996,40.039,0
1553632400.838,30.762,70.312,39.062,31.250,42.969,0
1553632400.842,65.918,69.824,40.527,40.527,23.438,0
1553632400.846,59.082,73.730,41.992,29.297,54.199,0
1553632400.850,62.012,71.777,41.504,37.109,88.867,0
1553632400.854,37.598,69.824,40.527,68.848,81.055,0
1553632400.858,17.578,75.684,34.668,91.309,59.570,0
1553632400.862,31.738,78.125,30.273,49.316,59.570,0
1553632400.865,43.457,70.801,35.645,20.020,10.742,0
1553632400.869,29.297,71.777,31.250,35.645,-27.344,0
1553632400.873,18.066,71.777,29.785,31.250,-24.902,0
1553632400.877,29.297,72.754,34.668,27.344,-39.551,0
1553632400.881,60.059,74.707,33.691,48.828,-23.438,0
1553632400.885,39.551,69.336,36.621,50.781,-25.391,0
1553632400.889,26.367,74.219,40.039,38.574,-11.230,0
1553632400.893,66.895,75.684,40.039,45.410,56.641,0
1553632400.897,71.289,80.566,40.039,41.016,29.297,0
1553632400.901,57.617,80.078,38.574,45.898,-14.160,0
1553632400.905,53.223,69.824,35.156,69.824,33.203,0
1553632400.908,31.250,68.848,28.320,36.133,22.949,0
1553632400.912,39.551,66.406,32.227,25.391,11.230,0
1553632400.916,54.688,67.871,38.574,41.016,83.496,0
1553632400.920,48.828,71.777,35.645,54.688,87.402,0
1553632400.924,30.762,65.918,36.133,49.805,65.430,0
1553632400.928,21.484,53.223,35.645,24.902,27.832,0
1553632400.932,26.367,56.152,34.180,43.945,14.648,0
1553632400.936,5.371,67.383,32.227,51.270,31.738,0
1553632400.940,-0.977,69.824,30.762,5.859,23.438,0
1553632400.944,40.039,74.219,34.668,-8.789,53.711,0
1553632400.947,28.809,77.148,26.367,3.418,56.641,0
1553632400.951,-7.812,70.801,24.902,20.020,39.551,0
1553632400.955,15.625,66.895,32.227,37.598,57.129,0
1553632400.959,21.973,64.941,35.645,30.273,76.172,0
1553632400.963,28.809,62.012,34.668,12.207,-10.254,0
1553632400.967,39.062,57.129,34.668,42.480,-15.137,0
1553632400.971,52.246,60.547,40.527,52.734,-4.395,0
1553632400.975,46.875,71.289,36.133,-1.953,-32.715,0
1553632400.979,40.527,69.336,30.762,-0.977,59.570,0
1553632400.983,30.273,66.895,30.273,17.090,28.320,0
1553632400.987,0.977,62.988,32.715,40.039,-21.973,0
1553632400.990,32.715,59.570,36.133,55.664,18.555,0
1553632400.994,61.523,65.918,32.227,0.488,30.273,0
1553632400.998,38.086,67.383,32.715,3.418,79.102,0
1553632401.002,26.855,68.848,36.133,41.016,88.867,0
1553632401.006,44.434,65.918,30.762,26.855,77.148,0
1553632401.010,28.320,59.082,24.414,35.645,95.703,0
1553632401.014,1.465,68.848,23.438,36.621,73.242,0
1553632401.018,12.207,72.754,28.320,38.574,63.477,0
1553632401.022,14.648,66.895,36.621,41.504,65.430,0
1553632401.026,12.207,69.824,39.551,47.852,22.949,0
1553632401.030,28.320,63.477,45.898,39.062,-3.906,0
1553632401.033,44.922,62.500,46.875,-2.441,41.016,0
1553632401.037,39.551,68.359,34.180,7.324,28.809,0
1553632401.041,61.035,70.801,30.762,33.203,62.012,0
1553632401.045,63.477,67.871,26.855,30.762,62.500,0
1553632401.049,40.527,53.223,22.949,22.949,75.684,0
1553632401.053,4.883,52.246,26.367,32.227,41.504,0
1553632401.057,-0.488,60.547,24.414,24.902,3.418,0
1553632401.061,20.996,70.801,28.320,33.203,13.672,0
1553632401.065,42.969,80.566,33.691,42.480,-7.324,0
1553632401.069,41.992,66.895,38.574,24.902,15.625,0
1553632401.072,-2.441,55.176,40.527,17.090,-9.277,0
1553632401.076,4.883,53.711,33.691,17.090,-26.367,0
1553632401.080,15.625,55.176,27.832,4.395,23.438,0
1553632401.084,-1.953,64.453,33.691,-1.465,33.691,0
1553632401.088,19.043,66.895,41.504,6.348,45.898,0
1553632401.092,47.363,62.012,38.574,7.812,81.055,0
1553632401.096,41.992,55.176,35.645,33.691,71.777,0
1553632401.100,-1.953,57.617,38.574,51.758,74.707,0
1553632401.104,-5.859,54.688,43.457,37.598,80.566,0
1553632401.108,21.973,54.199,44.434,18.066,62.012,0
1553632401.112,55.664,65.918,38.574,25.391,65.918,0
1553632401.115,44.434,62.012,34.668,24.414,38.574,0
1553632401.119,35.156,61.523,34.180,8.789,40.039,0
1553632401.123,43.945,72.266,32.227,17.090,6.836,0
1553632401.127,20.996,76.660,30.273,37.598,36.621,0
1553632401.131,33.203,71.777,34.668,32.227,32.715,0
1553632401.135,45.898,67.383,36.133,10.254,38.086,0
1553632401.139,44.922,67.871,32.715,49.316,89.844,0
1553632401.143,22.949,71.777,26.855,20.508,37.109,0
1553632401.147,26.367,74.707,26.855,0.000,14.160,0
1553632401.151,6.836,61.035,37.109,31.250,0.000,0
1553632401.155,5.859,53.223,42.969,23.438,-8.301,0
1553632401.158,54.199,62.500,40.527,38.574,6.348,0
1553632401.162,29.297,69.824,35.156,56.152,29.785,0
1553632401.166,15.137,66.895,31.250,56.641,92.285,0
1553632401.170,35.156,54.199,33.203,58.105,82.520,0
1553632401.174,31.250,53.223,35.156,52.734,30.273,0
1553632401.178,38.574,67.383,35.645,32.227,18.555,0
1553632401.182,45.410,67.871,34.668,16.113,39.062,0
1553632401.186,44.434,63.477,28.320,11.719,41.016,0
1553632401.190,66.406,67.383,25.879,3.418,18.066,0
1553632401.194,5.371,69.824,28.320,55.664,45.410,0
1553632401.197,-57.617,64.453,26.367,51.758,70.312,0
1553632401.201,14.160,53.223,26.855,0.000,136.230,0
1553632401.205,48.828,47.363,37.598,27.344,108.887,0
1553632401.209,34.668,54.688,47.363,26.855,-3.906,0
1553632401.213,29.785,64.453,44.434,9.277,2.930,0
1553632401.217,-4.883,69.336,33.691,6.836,27.344,0
1553632401.221,-17.578,71.289,30.273,7.324,0.977,0
1553632401.225,22.949,64.453,37.109,18.066,-0.977,0
1553632401.229,5.859,66.406,41.504,19.043,6.348,0
1553632401.233,12.695,63.965,43.457,20.996,9.277,0
1553632401.237,20.996,57.617,41.992,29.785,25.879,0
1553632401.240,13.184,59.082,45.410,38.086,-10.742,0
1553632401.244,33.203,61.035,46.387,11.719,26.855,0
1553632401.248,32.227,49.316,46.387,11.719,70.801,0
1553632401.252,44.434,48.340,43.945,43.945,51.270,0
1553632401.256,60.059,62.012,30.762,43.457,31.250,0
1553632401.260,-2.930,68.848,23.438,33.691,-1.953,0
1553632401.264,-13.672,70.801,29.297,44.434,16.602,0
1553632401.268,58.105,65.918,35.645,60.547,20.996,0
1553632401.272,65.918,65.430,40.527,53.223,-4.395,0
1553632401.276,69.824,64.453,38.086,27.832,40.527,0
1553632401.280,45.898,56.641,34.180,19.531,46.875,0
1553632401.283,49.805,58.594,32.715,36.621,26.367,0
1553632401.287,68.359,69.824,29.297,29.785,29.297,0
1553632401.291,1.465,64.453,32.227,35.645,39.551,0
1553632401.295,10.742,56.641,35.645,54.688,32.715,0
1553632401.299,56.152,62.012,33.691,56.152,22.949,0
1553632401.303,69.824,63.477,36.621,49.316,59.082,0
1553632401.307,66.895,62.988,39.062,80.566,46.875,0
1553632401.311,26.367,55.664,37.598,80.078,59.570,0
1553632401.315,11.230,49.805,42.969,44.434,42.480,0
1553632401.319,1.953,62.012,42.480,51.270,-5.859,0
1553632401.322,29.785,66.406,32.715,31.250,23.438,0
1553632401.326,73.242,55.176,31.738,3.418,53.223,0
1553632401.330,47.852,62.988,39.062,13.184,49.316,0
1553632401.334,48.340,75.195,38.086,33.203,0.977,0
1553632401.338,77.637,75.195,33.203,52.246,27.832,0
1553632401.342,31.250,69.336,27.344,54.688,58.105,0
1553632401.346,-14.648,59.570,24.902,17.090,41.504,0
1553632401.350,15.137,52.246,32.227,-20.508,25.391,0
1553632401.354,18.555,49.805,41.016,4.395,40.039,0
1553632401.358,28.320,56.152,43.457,29.297,59.570,0
1553632401.362,47.852,60.547,43.457,36.133,29.297,0
1553632401.365,39.062,62.988,44.434,41.016,22.949,0
1553632401.369,41.016,69.824,40.527,51.270,-11.719,0
1553632401.373,39.062,69.824,37.598,39.062,-38.086,0
1553632401.377,10.254,53.711,38.086,30.762,53.711,0
1553632401.381,-1.953,47.852,32.227,41.992,61.523,0
1553632401.385,24.902,58.594,22.949,9.277,3.906,0
1553632401.389,31.250,64.453,20.508,29.785,48.340,0
1553632401.393,17.090,63.965,32.715,26.855,45.410,0
1553632401.397,30.273,60.059,39.551,-19.531,6.836,0
1553632401.401,32.227,57.617,38.086,-2.930,15.625,0
1553632401.405,29.297,56.641,41.016,14.648,43.945,0
1553632401.408,29.785,63.477,40.039,52.734,56.641,0
1553632401.412,3.906,62.012,27.344,61.523,59.570,0
1553632401.416,28.809,52.734,22.949,20.996,15.137,0
1553632401.420,18.555,58.105,30.762,17.090,-25.391,0
1553632401.424,44.922,61.523,34.668,66.895,42.480,0
1553632401.428,65.430,56.641,38.574,69.824,95.703,0
1553632401.432,55.176,56.152,39.551,30.273,41.992,0
1553632401.436,44.434,63.965,37.598,-2.930,19.043,0
1553632401.440,46.387,70.312,36.621,-14.160,25.879,0
1553632401.444,56.641,67.383,33.203,22.461,-8.301,0
1553632401.447,30.762,71.289,25.391,32.715,-20.508,0
1553632401.451,1.953,76.660,20.996,39.551,10.254,0
1553632401.455,27.832,68.359,20.508,40.039,-8.301,0
1553632401.459,62.012,65.430,24.414,36.133,6.836,0
1553632401.463,37.598,64.453,26.367,41.016,20.020,0
1553632401.467,34.180,60.059,28.320,70.312,-6.836,0
1553632401.471,47.363,63.477,33.691,61.035,-17.090,0
1553632401.475,37.598,63.477,40.039,-8.789,16.113,0
1553632401.479,26.855,58.105,41.016,15.625,87.891,0
1553632401.483,15.625,58.594,34.180,47.852,35.156,0
1553632401.487,4.883,69.824,22.949,14.648,6.836,0
1553632401.490,31.250,81.055,20.508,38.086,-2.930,0
1553632401.494,47.363,77.148,26.367,49.316,-25.391,0
1553632401.498,44.434,62.500,28.320,38.086,23.926,0
1553632401.502,47.363,62.500,28.809,38.574,68.848,0
1553632401.506,63.965,70.801,33.203,28.320,25.391,0
1553632401.510,83.008,71.777,36.133,33.203,42.480,0
1553632401.514,68.359,60.059,30.273,38.086,68.359,0
1553632401.518,52.734,62.012,30.762,31.738,9.277,0
1553632401.522,26.367,73.242,31.738,23.438,-39.062,0
1553632401.526,-11.230,61.523,30.762,36.621,-20.020,0
1553632401.530,-2.930,53.223,32.715,32.227,16.602,0
1553632401.533,11.230,61.035,31.738,35.156,49.316,0
1553632401.537,22.461,65.918,34.668,70.801,50.781,0
1553632401.541,51.758,66.895,34.180,50.293,32.227,0
1553632401.545,43.457,57.617,27.832,7.812,73.730,0
1553632401.549,51.270,52.246,25.879,20.508,72.754,0
1553632401.553,60.059,62.012,22.949,22.461,33.203,0
1553632401.557,57.129,69.824,25.391,17.090,35.645,0
1553632401.561,72.754,68.848,32.715,49.805,15.625,0
1553632401.565,80.566,63.965,35.645,68.848,57.617,0
1553632401.569,32.715,59.082,37.598,56.641,76.172,0
1553632401.572,13.672,55.664,38.086,68.848,80.078,0
1553632401.576,76.172,62.500,34.668,73.242,78.613,0
1553632401.580,44.434,59.570,34.180,38.574,22.461,0
1553632401.584,6.348,47.852,33.691,27.344,24.414,0
1553632401.588,36.621,62.500,25.879,25.879,15.137,0
1553632401.592,38.574,75.684,21.973,24.414,19.531,0
1553632401.596,26.855,72.754,25.879,13.672,39.062,0
1553632401.600,23.438,65.430,28.320,-4.395,25.391,0
1553632401.604,21.973,60.059,27.832,0.488,3.418,0
1553632401.608,6.348,54.199,34.180,-3.906,4.883,0
1553632401.612,10.742,52.246,31.250,7.812,33.203,0
1553632401.615,23.926,60.059,20.996,19.531,34.180,0
1553632401.619,29.785,65.918,27.344,26.367,5.371,0
1553632401.623,25.391,65.918,35.645,48.828,1.953,0
1553632401.627,19.043,59.570,29.785,18.066,14.160,0
1553632401.631,25.879,52.734,27.832,7.324,52.246,0
1553632401.635,39.062,50.293,34.668,35.645,40.527,0
1553632401.639,47.363,42.480,37.109,31.738,42.480,0
1553632401.643,64.941,45.410,36.133,54.199,56.152,0
1553632401.647,62.012,66.406,29.297,61.035,9.277,0
1553632401.651,66.895,73.730,31.738,40.527,-6.836,0
1553632401.655,38.574,74.219,38.574,50.781,14.648,0
1553632401.658,16.602,77.637,36.621,21.484,65.918,0
1553632401.662,21.973,68.359,36.133,-5.859,19.531,0
1553632401.666,21.973,58.105,35.156,13.672,7.812,0
1553632401.670,54.199,55.664,34.180,15.137,71.289,0
1553632401.674,52.246,59.570,29.297,24.902,103.516,0
1553632401.678,44.434,61.523,27.344,53.711,67.871,0
1553632401.682,52.734,61.523,30.273,72.754,38.574,0
1553632401.686,41.504,55.664,32.715,42.969,8.789,0
1553632401.690,18.555,49.805,24.902,-5.859,-31.738,0
1553632401.694,7.324,55.176,18.555,-4.883,15.137,0
1553632401.697,-0.977,63.477,27.344,31.738,-3.906,0
1553632401.701,20.996,68.359,31.738,18.066,-20.508,0
1553632401.705,36.621,70.801,31.250,16.113,-20.996,0
1553632401.709,23.438,67.383,33.691,41.016,-36.621,0
1553632401.713,10.254,61.523,35.156,31.738,-18.555,0
1553632401.717,26.367,53.223,30.762,13.672,15.137,0
1553632401.721,55.664,49.805,28.809,5.371,62.500,0
1553632401.725,64.941,60.059,34.180,23.438,22.949,0
1553632401.729,57.617,64.453,41.016,58.105,19.043,0
1553632401.733,7.324,64.941,42.480,67.871,28.320,0
1553632401.737,10.254,65.430,41.016,23.926,3.906,0
1553632401.740,48.340,61.523,34.668,5.371,28.809,0
1553632401.744,31.250,55.664,25.391,16.602,35.645,0
1553632401.748,17.090,54.199,30.273,43.945,-13.672,0
1553632401.752,46.875,65.918,37.598,40.039,-12.207,0
1553632401.756,68.359,73.730,31.738,34.668,26.855,0
1553632401.760,47.852,66.406,26.855,44.434,80.078,0
1553632401.764,33.691,64.453,32.227,20.020,80.078,0
1553632401.768,46.387,65.918,36.621,26.367,30.273,0
1553632401.772,39.551,64.453,36.133,19.043,51.270,0
1553632401.776,-2.930,68.359,33.691,4.883,64.453,0
1553632401.780,-4.883,71.289,30.762,12.207,54.688,0
1553632401.783,-2.930,64.453,27.344,48.340,65.430,0
1553632401.787,28.320,58.105,25.391,68.359,41.504,0
1553632401.791,63.965,58.594,29.785,28.809,2.930,0
1553632401.795,57.129,56.641,37.109,7.812,24.902,0
1553632401.799,50.781,57.617,36.621,24.414,82.031,0
1553632401.803,52.246,57.617,34.180,26.367,26.367,0
1553632401.807,44.922,54.199,34.180,19.043,7.324,0
1553632401.811,9.277,59.082,30.273,41.504,22.461,0
1553632401.815,49.316,57.617,27.344,60.547,7.324,0
1553632401.819,66.895,43.457,25.879,37.598,48.340,0
1553632401.822,14.648,41.992,21.484,40.039,39.551,0
1553632401.826,3.418,56.641,18.555,69.336,36.621,0
1553632401.830,17.090,64.453,24.414,50.293,37.109,0
1553632401.834,22.461,66.406,34.668,6.836,54.199,0
1553632401.838,21.973,63.477,40.527,-8.301,33.691,0
1553632401.842,0.488,57.129,40.527,4.883,31.250,0
1553632401.846,0.977,57.617,37.598,12.695,24.902,0
1553632401.850,50.293,65.430,36.133,18.066,33.691,0
1553632401.854,45.898,67.871,38.086,42.480,77.637,0
1553632401.858,37.109,72.754,35.156,48.340,82.031,0
1553632401.862,60.547,77.148,29.297,40.527,66.895,0
1553632401.865,35.645,65.918,32.227,10.742,69.824,0
1553632401.869,15.625,55.176,29.785,-11.230,61.523,0
1553632401.873,39.062,55.664,33.203,20.020,30.273,0
1553632401.877,49.805,64.941,32.227,48.828,33.691,0
1553632401.881,36.133,71.289,17.090,25.391,41.016,0
1553632401.885,13.672,69.336,20.508,13.672,2.441,0
1553632401.889,22.949,63.965,30.273,38.086,19.531,0
1553632401.893,22.949,52.734,35.156,45.410,11.230,0
1553632401.897,1.465,52.246,36.621,11.719,6.348,0
1553632401.901,-52.246,62.012,35.645,3.906,39.551,0
1553632401.905,-32.227,64.941,32.715,35.645,22.461,0
1553632401.908,40.039,63.965,27.344,46.387,64.453,0
1553632401.912,53.711,69.824,23.926,36.133,11.719,0
1553632401.916,47.852,75.195,24.902,35.645,-11.230,0
1553632401.920,46.875,72.266,28.320,51.270,33.203,0
1553632401.924,72.754,64.453,32.227,31.738,16.113,0
1553632401.928,57.617,66.406,32.715,15.625,-0.977,0
1553632401.932,39.551,65.430,34.180,39.062,23.438,0
1553632401.936,44.922,58.594,34.668,57.129,34.668,0
1553632401.940,36.133,62.012,33.691,53.223,-29.297,0
1553632401.944,24.902,68.359,33.691,51.758,8.789,0
1553632401.947,30.273,68.359,39.062,63.965,38.086,0
1553632401.951,25.879,63.477,42.480,47.363,-13.672,0
1553632401.955,44.922,63.965,41.016,48.340,41.504,0
1553632401.959,64.453,63.965,38.086,39.551,64.941,0
1553632401.963,79.102,59.570,34.180,24.902,15.137,0
1553632401.967,71.289,59.570,34.668,32.227,10.254,0
1553632401.971,49.805,64.453,32.227,29.785,16.602,0
1553632401.975,-11.230,61.035,25.879,25.879,43.945,0
1553632401.979,-20.996,57.129,26.367,27.832,60.547,0
1553632401.983,30.273,59.082,31.250,25.879,49.805,0
1553632401.987,45.898,54.199,38.574,23.926,62.500,0
1553632401.990,72.266,49.805,38.086,39.551,82.031,0
1553632401.994,58.594,51.270,34.180,42.969,17.090,0
1553632401.998,37.109,53.223,32.227,38.574,17.090,0
1553632402.002,38.574,52.246,26.855,41.504,60.059,0
1553632402.006,48.828,54.688,27.344,53.711,65.430,0
1553632402.010,57.617,64.941,27.832,39.551,53.711,0
1553632402.014,21.484,62.988,25.391,32.715,33.203,0
1553632402.018,6.836,50.293,29.297,43.945,74.219,0
1553632402.022,36.133,52.246,32.227,22.461,69.824,0
1553632402.026,30.762,54.688,35.156,20.020,44.434,0
1553632402.030,24.902,59.082,35.645,29.785,63.477,0
1553632402.033,51.270,67.383,34.668,24.902,18.555,0
1553632402.037,26.855,65.430,35.645,31.250,13.672,0
1553632402.041,24.902,58.105,32.715,52.734,7.324,0
1553632402.045,54.199,57.617,33.203,46.387,-1.465,0
1553632402.049,45.410,56.641,32.715,31.250,54.688,0
1553632402.053,38.086,54.688,32.227,38.574,51.758,0
1553632402.057,43.457,64.453,34.668,56.641,31.250,0
1553632402.061,37.109,72.266,33.203,40.039,29.785,0
1553632402.065,35.645,67.383,30.273,30.273,50.293,0
1553632402.069,29.785,57.129,23.926,33.203,42.480,0
1553632402.072,14.648,57.617,23.438,31.738,61.523,0
1553632402.076,29.297,65.430,21.973,20.020,47.852,0
1553632402.080,40.527,66.895,22.949,19.531,6.836,0
1553632402.084,21.484,60.059,36.133,39.062,38.086,0
1553632402.088,15.137,61.523,41.016,14.648,29.785,0
1553632402.092,11.230,67.383,39.062,13.184,48.340,0
1553632402.096,42.480,62.012,35.156,7.812,61.035,0
1553632402.100,29.297,58.105,32.227,-0.488,33.691,0
1553632402.104,8.789,59.082,31.738,24.902,24.902,0
1553632402.108,16.602,54.199,31.738,33.203,-3.418,0
1553632402.112,14.160,48.828,28.320,24.414,-8.301,0
1553632402.115,20.020,51.270,27.344,15.625,6.836,0
1553632402.119,3.418,62.012,32.227,26.855,3.418,0
1553632402.123,-10.254,72.266,29.297,30.762,-1.465,0
1553632402.127,27.832,71.289,28.320,11.230,5.371,0
1553632402.131,35.645,62.988,30.762,20.508,20.996,0
1553632402.135,-29.297,55.664,28.320,17.090,-36.133,0
1553632402.139,-18.555,41.016,30.762,-11.230,-37.598,0
1553632402.143,28.809,38.086,28.320,0.977,-5.859,0
1553632402.147,36.133,46.875,24.414,38.086,-33.691,0
1553632402.151,42.480,53.223,21.973,54.688,-4.395,0
1553632402.155,16.602,62.012,15.625,35.156,36.621,0
1553632402.158,21.484,65.430,24.414,15.137,4.883,0
1553632402.162,45.898,63.965,32.715,12.695,-41.504,0
1553632402.166,49.316,61.035,34.180,25.391,-8.301,0
1553632402.170,34.668,55.176,34.668,20.020,15.625,0
1553632402.174,5.859,49.805,30.273,16.602,9.766,0
1553632402.178,12.207,55.664,25.879,39.062,-5.371,0
1553632402.182,47.852,60.547,22.949,53.223,10.742,0
1553632402.186,58.105,60.059,25.879,59.082,21.973,0
1553632402.190,26.367,54.688,33.203,41.504,9.277,0
1553632402.194,16.113,46.875,37.109,20.020,23.926,0
1553632402.197,20.996,46.875,39.062,-0.977,56.152,0
1553632402.201,13.184,48.828,38.086,3.906,86.426,0
1553632402.205,39.062,51.758,37.109,38.574,38.086,0
1553632402.209,57.617,54.688,33.691,44.922,45.898,0
1553632402.213,64.941,62.500,33.691,47.852,93.750,0
1553632402.217,46.387,70.801,33.691,53.711,44.922,0
1553632402.221,38.574,62.500,34.668,21.484,22.949,0
1553632402.225,60.059,57.129,39.062,11.719,9.766,0
1553632402.229,32.227,55.664,38.574,34.180,12.207,0
1553632402.233,20.508,47.852,39.062,35.645,23.926,0
1553632402.237,34.668,59.082,36.133,30.273,13.184,0
1553632402.240,49.805,74.707,26.367,47.852,38.574,0
1553632402.244,62.988,70.801,26.855,40.527,29.297,0
1553632402.248,60.547,70.801,30.762,17.578,7.812,0
1553632402.252,23.926,81.055,35.645,28.320,11.719,0
1553632402.256,16.602,84.473,39.062,46.387,18.066,0
1553632402.260,40.527,77.148,43.945,19.531,5.859,0
1553632402.264,44.922,71.289,51.758,29.297,-20.020,0
1553632402.268,69.336,74.219,52.246,49.805,35.156,0
1553632402.272,83.984,63.965,37.598,33.203,33.203,0
1553632402.276,59.570,54.199,30.273,66.895,19.531,0
1553632402.280,23.438,64.941,39.062,81.543,51.758,0
1553632402.283,43.457,71.777,38.574,34.668,56.152,0
1553632402.287,54.199,74.707,40.527,18.066,69.336,0
1553632402.291,24.902,78.125,43.945,26.855,44.922,0
1553632402.295,63.965,80.078,41.992,28.320,31.738,0
1553632402.299,55.664,71.777,34.180,31.738,36.621,0
1553632402.303,12.207,68.359,36.133,24.902,5.371,0
1553632402.307,43.457,74.707,34.180,15.137,26.855,0
1553632402.311,34.180,71.777,23.438,32.227,38.086,0
1553632402.315,20.508,62.500,27.832,35.156,37.598,0
1553632402.319,22.949,50.781,40.527,47.852,49.805,0
1553632402.322,29.785,47.363,51.758,38.086,12.207,0
1553632402.326,48.340,52.246,57.617,9.277,-12.695,0
1553632402.330,48.828,68.359,51.270,27.344,48.340,0
1553632402.334,64.941,79.102,39.062,40.527,69.824,0
1553632402.338,38.574,73.730,34.668,28.809,39.062,0
1553632402.342,21.973,68.359,29.785,22.461,53.711,0
1553632402.346,35.156,68.848,27.832,35.156,39.062,0
1553632402.350,42.480,70.801,30.273,50.293,17.090,0
1553632402.354,53.711,73.242,32.227,53.223,-9.766,0
1553632402.358,71.289,67.383,35.156,50.781,-14.160,0
1553632402.362,56.152,58.594,35.645,50.293,0.977,0
1553632402.365,41.504,48.828,38.086,21.973,20.996,0
1553632402.369,61.035,46.875,29.297,1.953,21.484,0
1553632402.373,50.781,52.734,14.160,18.555,-22.461,0
1553632402.377,54.199,60.059,20.508,37.598,-5.371,0
1553632402.381,13.672,77.148,32.227,48.340,29.297,0
1553632402.385,13.672,79.102,36.133,35.645,50.293,0
1553632402.389,41.992,70.312,39.551,9.277,41.016,0
1553632402.393,13.672,60.059,43.945,19.043,37.598,0
1553632402.397,4.883,55.664,41.016,29.785,37.598,0
1553632402.401,33.203,62.012,36.621,42.969,17.578,0
1553632402.405,67.383,68.359,39.551,63.477,-9.277,0
1553632402.408,60.547,70.801,45.898,41.992,-7.324,0
1553632402.412,35.156,65.918,50.781,69.824,9.277,0
1553632402.416,7.812,47.363,44.434,83.008,32.715,0
1553632402.420,11.230,40.039,35.156,45.898,72.266,0
1553632402.424,47.363,54.688,34.180,13.184,64.941,0
1553632402.428,55.176,61.523,29.297,18.555,32.227,0
1553632402.432,63.965,62.988,27.344,35.645,41.016,0
1553632402.436,57.129,69.336,30.273,65.918,21.484,0
1553632402.440,39.551,68.359,29.785,82.031,46.387,0
1553632402.444,45.898,66.406,24.414,36.621,49.805,0
1553632402.447,43.457,73.242,19.531,20.508,4.395,0
1553632402.451,62.500,68.359,25.879,40.039,-16.113,0
1553632402.455,49.316,55.664,35.645,45.898,11.719,0
1553632402.459,65.918,61.523,35.156,30.762,61.523,0
1553632402.463,92.773,74.707,27.344,28.320,20.020,0
1553632402.467,61.523,73.242,22.461,38.574,21.973,0
1553632402.471,27.344,72.266,26.855,49.316,23.926,0
1553632402.475,33.691,77.637,27.832,66.895,34.180,0
1553632402.479,53.223,76.172,24.902,55.176,74.707,0
1553632402.483,29.785,72.266,28.809,18.066,83.984,0
1553632402.487,41.992,70.801,29.297,-4.395,49.805,0
1553632402.490,70.801,68.848,26.367,14.160,39.062,0
1553632402.494,43.457,59.082,29.785,53.711,37.598,0
1553632402.498,2.930,57.129,34.180,83.008,26.855,0
1553632402.502,2.441,68.848,33.203,57.617,41.504,0
1553632402.506,29.297,71.777,30.762,18.555,50.781,0
1553632402.510,38.574,60.547,35.156,17.578,44.434,0
1553632402.514,63.477,59.082,36.621,29.785,30.762,0
1553632402.518,64.941,59.570,35.645,50.781,27.344,0
1553632402.522,32.715,54.199,40.527,76.660,33.203,0
1553632402.526,25.879,58.105,40.039,21.484,41.504,0
1553632402.530,71.289,66.895,34.668,-7.812,27.344,0
1553632402.533,65.918,65.430,35.645,23.926,7.812,0
1553632402.537,32.715,56.641,26.855,21.484,1.953,0
1553632402.541,30.762,57.129,19.531,16.602,-42.969,0
1553632402.545,57.617,59.570,21.973,36.621,-1.953,0
1553632402.549,60.547,57.617,18.555,53.711,82.520,0
1553632402.553,54.199,63.965,23.926,39.551,72.266,0
1553632402.557,49.316,70.801,25.879,11.719,51.758,0
1553632402.561,21.973,71.289,23.438,24.902,46.875,0
1553632402.565,20.996,69.336,27.832,40.527,24.902,0
1553632402.569,12.695,64.941,31.250,47.363,52.246,0
1553632402.572,26.855,66.895,32.227,53.711,66.406,0
1553632402.576,63.965,66.895,38.086,22.461,55.176,0
1553632402.580,45.898,64.453,42.969,14.160,89.355,0
1553632402.584,30.762,70.312,41.992,36.133,78.125,0
1553632402.588,79.590,70.801,39.551,35.156,45.410,0
1553632402.592,81.055,58.594,37.109,23.926,56.152,0
1553632402.596,29.785,57.617,35.645,27.832,58.594,0
1553632402.600,35.645,71.289,33.203,49.805,11.230,0
1553632402.604,48.828,71.777,29.297,24.414,14.648,0
1553632402.608,35.156,65.430,30.762,10.254,30.273,0
1553632402.612,64.941,71.777,35.645,40.039,14.160,0
1553632402.615,85.938,82.520,34.668,16.602,1.465,0
1553632402.619,54.688,83.984,29.297,6.836,-5.859,0
1553632402.623,14.160,80.566,25.391,32.227,37.598,0
1553632402.627,0.977,77.148,25.391,38.574,46.387,0
1553632402.631,12.695,72.266,17.578,56.152,39.062,0
1553632402.635,55.664,72.266,16.602,58.594,2.441,0
1553632402.639,71.289,65.918,33.203,29.785,13.672,0
1553632402.643,35.645,50.293,48.828,28.320,21.484,0
1553632402.647,38.086,43.945,54.688,43.945,-35.156,0
1553632402.651,29.297,50.781,49.316,33.691,22.949,0
1553632402.655,-2.930,56.641,40.039,12.695,43.945,0
1553632402.658,10.742,58.594,41.992,5.371,-8.301,0
1553632402.662,39.551,62.500,41.504,36.621,83.496,0
1553632402.666,68.359,57.617,38.574,61.035,101.074,0
1553632402.670,79.590,54.199,40.527,63.477,15.625,0
1553632402.674,46.875,52.734,41.016,35.645,-32.715,0
1553632402.678,38.086,52.734,38.086,-26.855,6.348,0
1553632402.682,19.531,56.641,32.227,-15.625,31.738,0
1553632402.686,-14.160,56.152,22.461,24.414,24.414,0
1553632402.690,5.859,57.129,24.902,37.109,58.594,0
1553632402.694,-8.789,41.016,37.109,50.781,6.348,0
1553632402.697,17.578,39.062,41.504,58.105,6.836,0
1553632402.701,64.453,59.570,41.016,54.199,36.133,0
1553632402.705,66.895,66.895,38.574,44.922,1.465,0
1553632402.709,44.922,56.152,42.969,40.039,19.531,0
1553632402.713,42.480,48.828,38.574,32.227,30.762,0
1553632402.717,34.180,57.129,29.297,27.344,45.898,0
1553632402.721,14.160,64.453,31.250,52.734,0.488,0
1553632402.725,45.898,57.129,31.738,34.180,-8.789,0
1553632402.729,82.031,50.781,34.668,22.461,11.719,0
1553632402.733,77.148,50.781,42.969,31.738,-28.809,0
1553632402.737,43.457,32.227,41.504,11.230,-2.930,0
1553632402.740,37.109,39.062,33.691,15.625,5.371,0
1553632402.744,9.766,69.336,31.250,32.227,26.855,0
1553632402.748,-6.348,75.195,31.250,37.109,51.270,0
1553632402.752,25.879,71.777,31.250,9.766,50.781,0
1553632402.756,19.531,67.871,33.203,15.625,17.578,0
1553632402.760,37.109,56.641,40.527,38.086,9.277,0
1553632402.764,59.082,52.246,40.527,57.129,37.109,0
1553632402.768,41.504,58.105,39.062,61.035,51.758,0
1553632402.772,3.418,57.129,41.504,34.668,69.336,0
1553632402.776,-10.254,50.781,43.457,16.113,35.645,0
1553632402.780,24.414,47.852,44.434,23.438,17.090,0
1553632402.783,60.059,55.664,41.016,34.180,7.324,0
1553632402.787,75.195,59.570,36.133,46.387,28.809,0
1553632402.791,83.008,57.617,36.133,52.246,26.367,0
1553632402.795,60.059,64.941,34.668,60.059,-35.645,0
1553632402.799,25.879,71.777,33.691,71.777,2.441,0
1553632402.803,-11.230,62.500,38.086,33.203,-7.324,0
1553632402.807,-16.113,53.223,33.203,-3.418,13.672,0
1553632402.811,59.082,59.570,34.180,21.973,24.414,0
1553632402.815,74.219,72.754,39.062,27.344,7.812,0
1553632402.819,53.711,72.754,34.668,5.371,70.312,0
1553632402.822,54.199,63.965,33.691,27.832,70.312,0
1553632402.826,36.621,61.035,36.133,29.785,30.762,0
1553632402.830,21.484,63.477,39.551,41.992,45.898,0
1553632402.834,25.879,59.570,41.504,62.012,72.266,0
1553632402.838,19.531,48.340,41.504,49.316,71.289,0
1553632402.842,57.617,48.340,37.109,37.598,2.930,0
1553632402.846,78.125,57.129,35.156,17.578,17.578,0
1553632402.850,39.062,62.500,37.598,40.527,48.828,0
1553632402.854,65.918,60.059,37.109,71.289,22.461,0
1553632402.858,78.613,62.500,40.039,40.039,28.809,0
1553632402.862,26.367,67.383,42.480,30.273,-14.160,0
1553632402.865,-2.930,65.918,39.551,66.895,42.480,0
1553632402.869,52.246,62.988,40.039,65.430,77.148,0
1553632402.873,58.105,61.035,43.945,48.828,39.551,0
1553632402.877,12.695,66.895,41.992,25.391,7.812,0
1553632402.881,28.320,59.570,33.203,19.531,-1.465,0
1553632402.885,54.199,54.199,26.367,32.715,45.410,0
1553632402.889,79.590,61.035,23.926,30.762,71.777,0
1553632402.893,48.340,62.012,26.855,49.316,61.035,0
1553632402.897,11.719,62.012,30.762,54.688,44.434,0
1553632402.901,30.273,62.012,34.668,45.410,34.180,0
1553632402.905,39.062,64.941,37.109,18.066,12.695,0
1553632402.908,44.434,67.871,40.039,8.301,72.754,0
1553632402.912,37.109,65.430,28.320,42.480,87.891,0
1553632402.916,45.898,59.082,20.996,49.316,55.664,0
1553632402.920,74.219,57.129,35.645,50.293,51.758,0
1553632402.924,79.102,57.617,44.922,52.246,35.156,0
1553632402.928,50.293,51.758,42.480,52.734,23.926,0
1553632402.932,25.391,51.758,37.598,50.781,10.742,0
1553632402.936,46.875,62.988,39.551,34.668,23.438,0
1553632402.940,48.828,61.523,41.992,36.133,29.297,0
1553632402.944,13.672,55.664,37.109,33.203,14.160,0
1553632402.947,33.203,53.711,33.203,0.977,27.832,0
1553632402.951,55.176,52.734,29.785,5.859,41.504,0
1553632402.955,47.852,54.199,30.273,10.742,35.645,0
1553632402.959,48.340,56.152,35.645,23.438,38.574,0
1553632402.963,47.363,65.918,37.109,31.738,49.805,0
1553632402.967,43.945,63.965,35.645,20.020,93.262,0
1553632402.971,22.461,50.293,30.273,11.719,50.781,0
1553632402.975,19.531,54.688,25.391,9.277,-16.113,0
1553632402.979,47.363,58.594,26.367,44.434,-8.301,0
1553632402.983,36.621,53.223,29.297,56.152,28.809,0
1553632402.987,32.715,61.035,29.297,53.711,21.484,0
1553632402.990,61.035,64.941,27.344,60.547,11.230,0
1553632402.994,75.684,60.547,30.762,36.621,51.758,0
1553632402.998,46.875,52.246,34.180,30.273,111.328,0
1553632403.002,28.809,51.758,33.691,46.387,81.055,0
1553632403.006,50.293,56.641,37.598,21.484,31.250,0
1553632403.010,66.895,55.176,40.039,15.137,59.082,0
1553632403.014,35.645,54.688,42.480,41.504,49.316,0
1553632403.018,51.758,54.688,42.480,43.945,55.176,0
1553632403.022,86.426,59.570,36.621,46.875,89.844,0
1553632403.026,52.734,68.848,33.691,29.297,13.672,0
1553632403.030,26.855,65.918,32.227,37.598,-37.598,0
1553632403.033,20.996,51.270,33.203,56.152,52.734,0
1553632403.037,24.902,53.223,29.785,29.297,55.176,0
1553632403.041,46.875,67.871,20.508,19.531,36.133,0
1553632403.045,61.523,72.754,19.531,24.902,63.477,0
1553632403.049,43.945,64.453,24.902,25.391,55.176,0
1553632403.053,46.875,57.129,29.785,55.176,93.262,0
1553632403.057,75.684,60.059,31.250,66.406,30.762,0
1553632403.061,14.648,71.777,24.902,12.695,20.508,0
1553632403.065,-37.109,76.172,28.809,13.672,52.246,0
1553632403.069,-6.348,70.801,31.738,53.711,66.895,0
1553632403.072,36.621,67.871,28.809,39.551,62.988,0
1553632403.076,62.500,55.664,29.785,-2.441,19.043,0
1553632403.080,47.852,36.133,28.809,4.883,41.992,0
1553632403.084,16.113,41.504,31.738,20.508,28.809,0
1553632403.088,4.395,60.547,30.762,25.879,-22.949,0
1553632403.092,46.875,55.664,24.902,44.922,32.715,0
1553632403.096,76.172,52.246,28.320,48.340,76.172,0
1553632403.100,52.246,64.453,27.832,31.250,34.180,0
1553632403.104,38.574,69.824,25.879,30.762,63.477,0
1553632403.108,40.039,71.777,30.762,33.691,26.367,0
1553632403.112,36.133,73.242,25.879,33.691,43.945,0
1553632403.115,41.504,71.289,21.484,42.969,63.477,0
1553632403.119,61.035,71.289,29.785,42.480,45.898,0
1553632403.123,71.777,63.477,40.039,57.129,50.293,0
1553632403.127,50.781,50.781,42.480,61.035,28.809,0
1553632403.131,41.504,45.898,40.527,28.809,47.363,0
1553632403.135,48.340,40.527,38.574,21.484,41.016,0
1553632403.139,49.316,34.668,39.551,31.250,15.137,0
1553632403.143,63.965,54.199,33.203,37.109,-11.719,0
1553632403.147,47.852,64.941,23.926,49.805,16.602,0
1553632403.151,48.828,62.012,26.855,48.340,-18.066,0
1553632403.155,62.500,65.918,29.297,32.715,-26.367,0
1553632403.158,29.785,54.688,32.227,46.875,-17.578,0
1553632403.162,44.922,41.016,40.039,54.199,-31.250,0
1553632403.166,47.852,43.945,44.434,42.969,38.574,0
1553632403.170,-2.930,60.059,40.039,9.277,20.996,0
1553632403.174,1.953,69.824,29.785,-19.043,13.184,0
1553632403.178,40.527,71.289,26.855,6.836,46.387,0
1553632403.182,48.828,68.848,29.785,20.020,55.176,0
1553632403.186,54.199,68.848,29.297,37.598,51.758,0
1553632403.190,45.410,64.453,25.391,56.641,6.348,0
1553632403.194,67.383,56.641,37.598,48.340,23.438,0
1553632403.197,56.641,48.828,49.805,37.598,38.086,0
1553632403.201,-16.113,41.504,47.852,8.789,15.137,0
1553632403.205,-2.930,50.781,36.621,19.043,-1.953,0
1553632403.209,44.434,59.082,37.109,72.754,-20.020,0
1553632403.213,18.555,57.617,40.039,34.668,12.695,0
1553632403.217,5.371,57.129,34.180,0.488,46.875,0
1553632403.221,36.621,55.176,34.180,31.738,95.215,0
1553632403.225,47.363,52.246,36.133,41.992,93.750,0
1553632403.229,22.949,49.316,33.203,40.527,32.227,0
1553632403.233,8.789,43.945,29.785,29.785,12.207,0
1553632403.237,12.207,42.969,34.668,7.812,19.531,0
1553632403.240,32.227,48.828,34.668,13.184,-27.344,0
1553632403.244,49.805,51.758,33.203,17.578,-11.719,0
1553632403.248,52.734,51.270,33.203,0.977,35.156,0
1553632403.252,29.297,59.570,33.691,35.645,20.020,0
1553632403.256,22.461,66.895,39.062,52.734,-12.207,0
1553632403.260,-7.324,59.570,45.898,40.527,33.691,0
1553632403.264,10.254,49.316,44.922,34.180,84.961,0
1553632403.268,61.523,44.922,40.527,47.363,50.293,0
1553632403.272,52.246,44.434,30.273,50.293,-5.859,0
1553632403.276,28.320,34.180,19.531,20.020,-2.441,0
1553632403.280,15.137,44.922,29.297,-1.953,25.879,0
1553632403.283,39.551,60.547,42.969,12.207,28.320,0
1553632403.287,44.434,59.082,44.922,38.574,47.852,0
1553632403.291,23.926,55.176,46.875,41.016,27.832,0
1553632403.295,42.480,42.969,49.316,60.547,23.438,0
1553632403.299,72.266,42.969,45.410,38.574,109.863,0
1553632403.303,62.988,54.688,40.039,5.371,145.996,0
1553632403.307,19.043,60.547,39.551,24.902,86.426,0
1553632403.311,14.648,56.152,42.969,35.645,50.781,0
1553632403.315,40.527,53.223,40.527,51.270,48.828,0
1553632403.319,37.109,57.129,35.645,55.664,6.348,0
1553632403.322,44.922,58.105,36.621,62.500,3.418,0
1553632403.326,49.805,59.082,37.598,30.273,11.719,0
1553632403.330,44.922,61.035,33.203,1.953,0.488,0
1553632403.334,36.621,58.105,35.156,30.762,18.066,0
1553632403.338,26.855,53.223,39.551,28.809,40.039,0
1553632403.342,43.945,51.758,38.574,11.230,28.809,0
1553632403.346,31.250,41.992,37.109,21.973,34.668,0
1553632403.350,32.715,37.109,38.086,5.371,12.207,0
1553632403.354,43.457,46.387,38.574,1.465,-39.062,0
1553632403.358,51.758,53.223,39.062,38.574,12.695,0
1553632403.362,30.762,59.082,39.062,44.922,114.258,0
1553632403.365,7.324,61.523,31.250,44.922,83.496,0
1553632403.369,33.691,51.758,22.461,38.574,-0.977,0
1553632403.373,46.387,50.781,16.113,26.855,25.391,0
1553632403.377,33.691,65.430,19.531,47.852,33.691,0
1553632403.381,26.367,69.336,31.738,38.574,44.434,0
1553632403.385,13.184,57.129,41.016,7.812,73.730,0
1553632403.389,22.461,53.711,36.621,-1.465,80.566,0
1553632403.393,36.133,47.363,36.133,23.926,50.781,0
1553632403.397,34.180,42.969,38.086,45.410,-23.438,0
1553632403.401,62.500,61.035,34.180,18.066,39.062,0
1553632403.405,44.922,71.289,39.062,0.488,40.039,0
1553632403.408,26.855,66.895,38.574,18.555,-6.836,0
1553632403.412,9.277,64.941,30.273,45.410,2.930,0
1553632403.416,-3.418,62.500,33.691,61.035,-37.109,0
1553632403.420,43.945,55.176,42.480,41.016,2.930,0
1553632403.424,79.590,51.758,41.992,46.387,75.195,0
1553632403.428,87.891,50.293,38.574,39.062,42.969,0
1553632403.432,83.008,51.758,40.527,23.926,49.316,0
1553632403.436,67.383,51.758,41.992,31.738,66.406,0
1553632403.440,55.664,42.969,37.598,51.270,57.617,0
1553632403.444,25.879,40.039,34.180,61.523,23.438,0
1553632403.447,36.621,49.316,33.691,41.992,9.766,0
1553632403.451,70.801,49.805,36.621,39.062,67.383,0
1553632403.455,31.250,46.387,26.367,41.992,37.109,0
1553632403.459,19.043,54.199,19.043,42.480,0.977,0
1553632403.463,26.367,57.129,22.461,13.184,65.918,0
1553632403.467,48.828,53.223,28.809,8.301,34.180,0
1553632403.471,71.289,60.547,36.133,47.852,6.348,0
1553632403.475,33.691,67.383,36.621,62.988,20.508,0
1553632403.479,1.953,61.523,33.203,29.297,-20.996,0
1553632403.483,-4.883,49.316,37.109,6.836,9.277,0
1553632403.487,2.441,43.457,39.551,-7.324,76.172,0
1553632403.490,37.109,45.898,35.156,9.277,14.648,0
1553632403.494,56.152,52.734,32.227,55.176,-4.395,0
1553632403.498,63.477,59.082,26.855,41.992,18.555,0
1553632403.502,45.410,59.570,24.414,12.207,14.648,0
1553632403.506,48.340,58.105,24.902,0.488,12.695,0
1553632403.510,48.828,60.059,25.391,33.203,-9.766,0
1553632403.514,36.133,54.688,28.320,56.152,34.180,0
1553632403.518,36.133,50.781,25.391,47.363,74.707,0
1553632403.522,62.500,59.570,22.461,30.762,98.633,0
1553632403.526,84.473,60.547,25.879,26.855,72.266,0
1553632403.530,73.242,45.410,33.203,42.480,-18.066,0
1553632403.533,34.668,41.016,38.086,49.805,11.719,0
1553632403.537,38.574,51.270,31.738,46.875,34.180,0
1553632403.541,40.527,58.594,28.809,40.527,20.996,0
1553632403.545,24.414,59.570,32.227,22.461,24.414,0
1553632403.549,10.742,58.105,33.691,18.066,33.203,0
1553632403.553,15.625,56.641,36.621,20.996,2.930,0
1553632403.557,60.059,54.688,38.086,40.527,-12.207,0
1553632403.561,69.824,46.387,42.480,48.828,0.000,0
1553632403.565,28.809,36.133,40.527,12.207,18.066,0
1553632403.569,10.254,39.551,30.273,-0.977,6.836,0
1553632403.572,49.316,47.852,25.879,20.508,19.043,0
1553632403.576,58.105,56.641,29.297,51.758,45.898,0
1553632403.580,62.500,58.594,34.668,56.152,57.617,0
1553632403.584,55.176,55.176,36.621,24.414,38.086,0
1553632403.588,38.574,53.223,36.621,9.277,58.594,0
1553632403.592,38.574,49.316,39.062,11.230,121.094,0
1553632403.596,55.176,43.457,38.086,46.875,67.871,0
1553632403.600,47.852,45.410,32.227,58.105,-36.133,0
1553632403.604,17.090,50.293,31.250,26.367,-22.949,0
1553632403.608,52.246,49.805,33.203,25.879,46.875,0
1553632403.612,65.430,51.270,28.809,26.855,66.406,0
1553632403.615,16.602,45.410,19.531,41.504,23.926,0
1553632403.619,26.855,52.246,19.043,61.523,15.625,0
1553632403.623,56.641,47.852,33.203,63.477,-17.090,0
1553632403.627,50.293,37.109,41.992,40.527,-62.012,0
1553632403.631,40.527,52.734,41.016,26.367,-17.090,0
1553632403.635,53.223,63.965,36.621,19.531,27.344,0
1553632403.639,69.824,63.965,34.668,8.301,20.508,0
1553632403.643,44.922,58.105,38.086,19.531,-2.441,0
1553632403.647,32.227,55.664,36.133,45.898,18.066,0
1553632403.651,50.781,55.176,34.668,48.828,15.137,0
1553632403.655,56.152,56.641,36.133,42.969,4.883,0
1553632403.658,36.133,52.734,31.250,30.762,-17.578,0
1553632403.662,15.137,37.598,27.344,35.156,-27.832,0
1553632403.666,2.930,38.574,32.227,30.762,5.859,0
1553632403.670,23.926,51.758,37.109,21.484,-10.742,0
1553632403.674,55.664,58.105,34.668,7.812,-46.875,0
1553632403.678,58.105,57.617,36.133,13.672,-1.953,0
1553632403.682,50.293,54.199,37.109,46.387,22.949,0
1553632403.686,56.641,51.270,35.645,81.543,-12.207,0
1553632403.690,56.152,47.363,39.062,67.383,14.160,0
1553632403.694,41.504,48.340,35.645,5.859,46.387,0
1553632403.697,41.016,52.734,28.320,2.930,33.691,0
1553632403.701,47.852,49.805,25.879,49.805,57.617,0
1553632403.705,70.312,40.527,25.879,63.965,39.551,0
1553632403.709,73.242,38.574,32.715,39.062,33.691,0
1553632403.713,36.133,43.457,36.133,29.785,52.246,0
1553632403.717,25.879,52.734,35.645,18.555,44.922,0
1553632403.721,64.941,57.617,43.457,15.625,78.613,0
1553632403.725,60.547,53.223,43.945,33.203,6.836,0
1553632403.729,29.785,52.246,33.691,28.320,-23.926,0
1553632403.733,2.441,52.246,40.039,48.828,50.781,0
1553632403.737,-43.945,43.945,49.316,72.754,48.828,0
1553632403.740,-15.625,45.898,41.016,37.109,13.184,0
1553632403.744,51.758,52.734,29.297,11.230,26.367,0
1553632403.748,44.434,54.199,28.809,6.348,70.801,0
1553632403.752,25.879,52.246,27.832,26.855,91.309,0
1553632403.756,41.504,53.711,24.902,56.152,91.797,0
1553632403.760,39.062,49.316,27.344,29.297,36.133,0
1553632403.764,43.945,24.902,31.738,-4.883,17.090,0
1553632403.768,38.086,12.695,36.133,10.254,85.449,0
1553632403.772,16.602,35.156,32.715,46.387,78.613,0
1553632403.776,7.812,55.176,21.484,60.059,53.223,0
1553632403.780,19.043,58.594,19.043,34.180,63.477,0
1553632403.783,45.898,66.406,13.184,1.465,62.500,0
1553632403.787,35.156,60.059,9.277,28.320,50.293,0
1553632403.791,8.301,43.945,17.578,20.508,47.852,0
1553632403.795,23.438,41.992,24.902,1.465,3.906,0
1553632403.799,25.879,42.969,32.715,23.926,9.277,0
1553632403.803,10.742,45.410,35.645,33.691,36.621,0
1553632403.807,21.973,41.016,36.133,22.949,11.230,0
1553632403.811,49.316,42.969,26.855,11.230,21.484,0
1553632403.815,42.480,52.246,17.090,3.418,19.531,0
1553632403.819,23.926,50.293,22.461,17.090,0.000,0
1553632403.822,22.461,42.480,32.227,30.762,-1.953,0
1553632403.826,25.391,34.668,33.203,39.551,15.625,0
1553632403.830,59.570,41.504,29.297,61.523,73.242,0
1553632403.834,62.012,50.781,24.902,54.199,61.035,0
1553632403.838,10.254,50.293,27.344,38.086,-17.090,0
1553632403.842,3.418,58.105,32.227,40.039,-13.184,0
1553632403.846,13.184,63.477,27.344,17.578,-8.789,0
1553632403.850,20.996,54.688,18.555,15.625,-39.062,0
1553632403.854,56.641,51.270,15.137,22.949,-4.883,0
1553632403.858,78.613,53.711,24.414,22.461,3.906,0
1553632403.862,93.262,58.594,21.973,37.598,39.551,0
1553632403.865,73.242,46.875,17.578,39.062,42.480,0
1553632403.869,43.457,30.273,37.109,37.598,-0.977,0
1553632403.873,48.828,41.504,45.898,55.664,-7.812,0
1553632403.877,39.062,57.617,41.016,42.969,3.418,0
1553632403.881,19.531,63.477,35.645,20.020,36.133,0
1553632403.885,15.137,55.664,33.691,30.762,23.438,0
1553632403.889,10.742,45.898,31.738,20.996,-2.441,0
1553632403.893,20.020,48.828,34.180,24.414,-20.508,0
1553632403.897,47.852,53.223,35.156,43.945,-39.551,0
1553632403.901,57.129,45.410,33.691,36.621,-57.129,0
1553632403.905,58.594,42.480,33.203,0.977,-51.270,0
1553632403.908,51.758,58.594,26.367,15.137,-17.578,0
1553632403.912,21.484,62.012,25.879,38.086,9.277,0
1553632403.916,22.461,54.688,31.738,26.367,47.852,0
1553632403.920,30.762,45.410,31.738,23.926,26.855,0
1553632403.924,23.438,40.527,32.227,24.902,-3.418,0
1553632403.928,46.387,50.293,25.391,24.902,1.465,0
1553632403.932,23.438,57.617,21.484,22.949,38.086,0
1553632403.936,15.137,51.758,34.668,29.297,44.922,0
1553632403.940,70.801,44.922,35.156,49.316,20.508,0
1553632403.944,25.879,46.875,22.949,52.246,42.480,0
1553632403.947,-32.227,47.852,25.391,54.688,8.789,0
1553632403.951,16.602,47.363,32.227,9.766,-16.602,0
1553632403.955,57.617,43.945,34.180,-17.090,-31.738,0
1553632403.959,68.848,44.434,34.668,37.109,-17.090,0
1553632403.963,64.941,49.805,34.180,65.430,39.551,0
1553632403.967,33.203,47.852,36.621,41.992,7.812,0
1553632403.971,-17.090,40.527,37.109,32.227,19.531,0
1553632403.975,-45.410,45.410,34.180,5.371,51.758,0
1553632403.979,-0.977,45.898,28.320,0.977,19.531,0
1553632403.983,47.363,32.227,20.996,35.645,25.879,0
1553632403.987,62.012,39.062,19.043,56.641,60.547,0
1553632403.990,84.473,60.547,22.461,26.855,23.438,0
1553632403.994,43.457,62.012,20.020,9.766,28.809,0
1553632403.998,0.000,55.176,30.273,16.113,11.230,0
1553632404.002,21.484,57.617,41.504,9.277,11.719,0
1553632404.006,39.551,53.223,37.598,20.508,61.523,0
1553632404.010,31.250,46.875,28.320,46.875,42.969,0
1553632404.014,26.367,48.340,24.902,39.551,62.500,0
1553632404.018,36.133,50.781,28.809,10.254,67.871,0
1553632404.022,40.527,43.457,31.738,4.883,14.160,0
1553632404.026,49.805,47.852,33.691,14.648,-0.488,0
1553632404.030,52.246,58.594,38.086,34.668,24.902,0
1553632404.033,4.883,54.688,39.062,40.039,35.645,0
1553632404.037,-43.457,48.828,35.156,37.598,-1.953,0
1553632404.041,1.465,45.898,34.668,44.434,34.668,0
1553632404.045,42.969,41.016,38.086,25.391,20.020,0
1553632404.049,61.523,45.410,33.691,22.949,40.527,0
1553632404.053,32.227,54.199,28.320,41.992,51.758,0
1553632404.057,35.156,52.246,28.320,19.043,12.695,0
1553632404.061,40.527,50.781,30.273,11.719,15.137,0
1553632404.065,14.160,49.316,33.691,32.715,24.902,0
1553632404.069,41.016,50.781,33.691,24.902,-0.488,0
1553632404.072,48.340,51.270,33.203,19.043,1.953,0
1553632404.076,57.617,44.434,32.227,40.527,53.223,0
1553632404.080,71.777,43.457,31.250,55.176,81.055,0
1553632404.084,44.434,46.875,28.809,48.828,53.711,0
1553632404.088,34.668,37.598,30.762,56.641,47.363,0
1553632404.092,41.504,29.297,38.574,63.965,26.367,0
1553632404.096,16.602,34.180,35.645,23.926,1.953,0
1553632404.100,20.508,45.898,32.227,19.531,5.371,0
1553632404.104,22.949,45.898,31.250,13.672,54.688,0
1553632404.108,5.859,46.387,28.809,22.461,51.270,0
1553632404.112,27.832,53.223,28.320,42.969,54.688,0
1553632404.115,71.777,54.688,19.531,33.691,31.738,0
1553632404.119,84.961,60.547,16.602,31.738,-8.301,0
1553632404.123,76.172,64.941,34.180,31.738,-2.930,0
1553632404.127,28.809,54.199,42.969,40.527,-19.531,0
1553632404.131,20.508,49.316,38.574,45.898,70.312,0
1553632404.135,22.949,50.781,32.715,47.363,63.965,0
1553632404.139,-18.555,40.527,35.156,26.855,15.625,0
1553632404.143,3.418,29.297,45.410,-3.418,38.086,0
1553632404.147,35.156,27.344,44.434,6.348,26.367,0
1553632404.151,35.156,29.297,38.086,23.926,75.684,0
1553632404.155,24.414,35.645,32.227,39.551,64.941,0
1553632404.158,37.109,40.039,29.785,68.359,41.992,0
1553632404.162,33.203,36.621,27.344,49.805,61.523,0
1553632404.166,61.035,34.668,29.297,17.090,51.270,0
1553632404.170,80.078,38.086,43.457,33.691,29.297,0
1553632404.174,56.641,43.945,47.852,47.852,71.289,0
1553632404.178,55.176,48.828,47.363,15.137,60.547,0
1553632404.182,38.086,48.828,41.992,0.488,16.113,0
1553632404.186,53.223,49.316,38.086,14.160,32.715,0
1553632404.190,43.945,50.293,44.922,56.641,3.418,0
1553632404.194,6.836,50.781,46.875,81.055,39.551,0
1553632404.197,6.836,45.898,35.156,34.668,38.574,0
1553632404.201,28.809,42.480,26.367,16.602,-17.090,0
1553632404.205,18.066,42.480,32.227,21.973,4.395,0
1553632404.209,28.320,30.273,38.574,25.391,14.648,0
1553632404.213,49.805,20.508,36.621,20.508,25.391,0
1553632404.217,47.852,29.785,34.180,26.855,25.879,0
1553632404.221,57.617,41.016,37.109,41.504,20.020,0
1553632404.225,54.199,47.363,40.039,36.133,21.484,0
1553632404.229,19.531,47.363,36.621,46.387,28.809,0
1553632404.233,4.883,45.410,33.691,72.754,66.406,0
1553632404.237,48.828,48.828,28.320,52.246,80.078,0
1553632404.240,54.688,42.480,20.996,26.367,33.203,0
1553632404.244,20.020,40.039,31.738,8.301,-5.859,0
1553632404.248,23.438,42.969,43.457,18.555,39.062,0
1553632404.252,42.969,37.598,35.156,21.973,54.199,0
1553632404.256,42.969,42.480,23.926,13.184,-19.531,0
1553632404.260,52.734,44.922,27.832,34.180,12.207,0
1553632404.264,20.508,45.898,29.297,20.508,19.531,0
1553632404.268,3.906,44.434,28.809,24.414,-36.133,0
1553632404.272,41.992,39.551,36.133,38.086,-18.555,0
1553632404.276,45.410,44.922,28.320,28.320,17.578,0
1553632404.280,22.461,50.781,22.461,15.137,24.414,0
1553632404.283,25.391,49.805,29.785,20.020,71.777,0
1553632404.287,7.324,45.410,31.738,59.570,53.223,0
1553632404.291,9.277,50.781,32.715,84.473,53.223,0
1553632404.295,56.152,49.805,36.133,41.992,101.562,0
1553632404.299,77.148,34.668,41.016,0.977,69.824,0
1553632404.303,83.496,36.621,43.945,30.762,45.410,0
1553632404.307,75.195,52.734,40.527,42.480,41.992,0
1553632404.311,44.434,55.176,37.109,33.203,42.480,0
1553632404.315,37.109,44.922,30.762,28.320,73.730,0
1553632404.319,71.777,48.340,23.926,22.461,2.930,0
1553632404.322,57.129,56.152,33.691,25.391,12.207,0
1553632404.326,43.457,57.129,37.109,34.668,31.738,0
1553632404.330,47.363,53.223,37.109,43.457,-22.461,0
1553632404.334,54.688,44.922,46.875,20.996,40.039,0
1553632404.338,64.941,42.969,50.293,15.625,38.574,0
1553632404.342,40.527,40.039,47.363,34.668,-13.184,0
1553632404.346,37.598,44.922,40.527,46.387,12.695,0
1553632404.350,53.711,53.711,33.203,55.664,34.668,0
1553632404.354,37.598,57.129,32.227,58.594,28.809,0
1553632404.358,57.129,57.617,38.574,30.762,59.082,0
1553632404.362,75.195,48.340,38.086,30.273,126.953,0
1553632404.365,48.828,42.480,29.297,35.156,93.262,0
1553632404.369,28.809,43.457,26.855,19.043,15.625,0
1553632404.373,20.996,41.504,27.832,17.578,36.621,0
1553632404.377,-5.371,45.410,27.344,25.391,31.250,0
1553632404.381,-20.996,47.852,24.414,21.973,13.672,0
1553632404.385,34.668,45.410,28.809,24.902,14.648,0
1553632404.389,74.707,45.898,34.668,57.129,-0.977,0
1553632404.393,61.523,51.270,35.645,66.895,17.090,0
1553632404.397,54.688,51.758,33.203,39.551,-7.324,0
1553632404.401,71.777,51.270,33.203,36.621,-9.766,0
1553632404.405,76.172,50.293,32.227,46.387,32.227,0
1553632404.408,82.031,49.316,24.902,36.133,11.230,0
1553632404.412,28.320,46.875,27.832,31.250,-20.996,0
1553632404.416,-17.578,41.504,35.156,43.945,20.996,0
1553632404.420,2.441,41.992,37.109,49.805,41.992,0
1553632404.424,32.715,43.945,38.574,58.105,34.668,0
1553632404.428,60.547,48.340,34.180,59.570,100.098,0
1553632404.432,74.707,43.457,33.691,43.945,94.238,0
1553632404.436,70.312,34.668,32.227,37.109,1.465,0
1553632404.440,42.480,45.898,31.738,38.574,31.738,0
1553632404.444,45.410,59.570,34.180,8.789,3.906,0
1553632404.447,39.551,60.547,28.809,-0.488,8.301,0
1553632404.451,53.711,53.223,20.508,31.250,57.617,0
1553632404.455,61.035,46.387,16.113,38.086,0.488,0
1553632404.459,75.684,51.758,26.367,29.297,-20.020,0
1553632404.463,81.055,52.734,36.133,30.762,-20.020,0
1553632404.467,62.988,47.363,38.086,57.617,41.992,0
1553632404.471,68.848,41.504,44.922,68.359,98.633,0
1553632404.475,67.383,44.434,41.992,51.270,67.871,0
1553632404.479,56.152,40.039,30.762,63.965,55.664,0
1553632404.483,59.570,33.203,35.645,61.035,11.719,0
1553632404.487,29.297,44.434,45.898,38.086,-39.062,0
1553632404.490,8.789,50.781,51.270,70.312,4.395,0
1553632404.494,47.852,52.734,44.434,51.758,40.039,0
1553632404.498,50.293,51.758,33.203,8.789,39.062,0
1553632404.502,48.340,49.805,35.645,28.809,39.062,0
1553632404.506,63.965,49.805,35.156,53.711,59.570,0
1553632404.510,60.059,46.875,39.062,28.809,54.688,0
1553632404.514,68.848,45.898,40.039,8.301,41.016,0
1553632404.518,72.266,45.410,32.227,25.391,33.203,0
1553632404.522,78.125,49.316,35.645,31.250,41.016,0
1553632404.526,55.664,49.316,39.551,42.969,79.102,0
1553632404.530,61.523,41.504,40.527,63.965,39.551,0
1553632404.533,62.988,42.480,39.062,51.270,40.527,0
1553632404.537,6.836,43.945,34.668,12.207,87.402,0
1553632404.541,6.348,39.062,31.738,11.719,54.199,0
1553632404.545,54.199,43.457,34.180,9.766,51.270,0
1553632404.549,73.242,52.246,37.598,46.875,57.617,0
1553632404.553,57.617,52.246,34.668,71.777,27.344,0
1553632404.557,50.781,52.246,25.391,25.879,13.672,0
1553632404.561,39.062,49.316,28.809,28.809,30.273,0
1553632404.565,16.602,44.434,33.203,25.391,19.531,0
1553632404.569,25.879,39.062,21.484,-8.789,57.129,0
1553632404.572,43.457,34.668,18.066,1.953,83.008,0
1553632404.576,48.828,36.133,22.461,19.043,24.902,0
1553632404.580,61.035,46.387,27.832,23.926,72.754,0
1553632404.584,57.617,54.688,37.109,33.691,81.543,0
1553632404.588,63.477,45.410,41.016,41.016,24.414,0
1553632404.592,61.523,38.574,41.504,47.363,39.551,0
1553632404.596,25.391,44.434,35.645,36.133,31.250,0
1553632404.600,-5.859,45.410,31.250,28.809,5.859,0
1553632404.604,19.043,45.410,34.668,14.648,4.395,0
1553632404.608,19.043,43.945,37.598,-10.742,71.289,0
1553632404.612,-13.184,40.527,37.598,-10.254,42.969,0
1553632404.615,32.227,42.480,36.621,18.555,-27.344,0
1553632404.619,56.641,43.457,31.738,48.340,19.043,0
1553632404.623,49.316,38.574,28.809,30.762,-4.395,0
1553632404.627,71.289,38.086,32.227,29.297,-2.441,0
1553632404.631,59.570,41.992,36.133,31.250,54.199,0
1553632404.635,42.969,44.434,38.086,31.738,8.789,0
1553632404.639,60.059,48.828,35.645,20.508,24.902,0
1553632404.643,70.312,50.781,41.016,5.371,54.688,0
1553632404.647,45.898,47.363,45.898,26.367,39.551,0
1553632404.651,31.250,41.016,41.504,49.805,4.395,0
1553632404.655,0.488,43.457,37.598,31.738,39.551,0
1553632404.658,-6.348,48.828,34.668,19.531,71.289,0
1553632404.662,29.297,44.922,33.203,32.715,87.402,0
1553632404.666,30.273,46.387,32.715,29.297,30.762,0
1553632404.670,27.832,48.828,36.133,34.668,4.395,0
1553632404.674,50.293,36.621,36.133,52.246,63.965,0
1553632404.678,51.270,31.250,36.133,47.363,17.090,0
1553632404.682,43.457,41.016,40.527,10.254,36.621,0
1553632404.686,61.523,41.016,45.410,16.602,65.430,0
1553632404.690,82.520,44.434,45.410,48.828,24.902,0
1553632404.694,66.895,55.664,30.762,42.969,55.176,0
1553632404.697,21.973,56.152,27.832,51.270,63.477,0
1553632404.701,27.832,49.805,37.109,66.406,33.691,0
1553632404.705,57.129,48.828,39.551,25.391,59.570,0
1553632404.709,42.969,40.039,37.109,3.906,53.711,0
1553632404.713,12.207,31.738,35.156,1.953,22.949,0
1553632404.717,-5.859,33.691,40.527,20.020,27.832,0
1553632404.721,24.414,34.180,41.992,39.062,50.781,0
1553632404.725,59.570,36.621,41.016,49.316,27.344,0
1553632404.729,29.297,47.363,36.621,66.895,12.207,0
1553632404.733,27.344,53.223,30.273,51.270,42.480,0
1553632404.737,46.387,48.340,30.273,-4.395,5.371,0
1553632404.740,33.691,47.363,28.320,-0.488,-32.715,0
1553632404.744,3.906,44.434,30.273,34.180,7.324,0
1553632404.748,41.016,41.016,32.715,8.789,54.688,0
1553632404.752,54.199,44.434,30.762,-3.906,23.438,0
1553632404.756,18.066,37.109,32.715,19.531,-55.176,0
1553632404.760,43.457,30.273,32.227,20.996,-11.230,0
1553632404.764,60.059,31.738,22.461,33.691,13.672,0
1553632404.768,48.340,39.551,17.578,42.480,1.465,0
1553632404.772,56.152,46.387,26.855,26.367,47.852,0
1553632404.776,56.152,44.922,37.598,36.621,42.480,0
1553632404.780,56.641,44.434,40.527,57.129,20.508,0
1553632404.783,75.195,51.758,32.715,28.809,-27.344,0
1553632404.787,62.012,55.176,32.227,22.461,-14.648,0
1553632404.791,8.789,46.387,40.527,75.684,55.664,0
1553632404.795,14.648,45.898,45.898,59.570,34.180,0
1553632404.799,27.832,47.852,48.340,22.949,10.254,0
1553632404.803,18.066,44.922,42.969,42.969,-9.277,0
1553632404.807,36.133,42.480,36.621,38.574,-8.301,0
1553632404.811,41.504,39.551,28.320,20.508,4.883,0
1553632404.815,44.922,43.945,21.484,30.273,11.230,0
1553632404.819,50.781,50.781,22.949,24.414,-15.625,0
1553632404.822,37.109,52.734,30.762,12.695,-5.371,0
1553632404.826,68.848,58.105,37.109,34.180,60.059,0
1553632404.830,103.516,62.500,36.621,49.805,47.363,0
1553632404.834,64.453,55.176,28.809,87.891,34.668,0
1553632404.838,64.941,50.293,23.926,78.125,81.543,0
1553632404.842,61.523,49.805,29.297,15.137,68.359,0
1553632404.846,15.137,43.945,37.598,-21.973,95.703,0
1553632404.850,-9.766,30.762,28.809,-24.414,103.516,0
1553632404.854,-9.766,32.227,21.973,7.812,9.277,0
1553632404.858,30.273,48.828,33.203,45.898,5.371,0
1553632404.862,60.547,56.152,41.992,71.777,15.137,0
1553632404.865,69.336,55.664,41.992,45.410,-5.371,0
1553632404.869,64.941,52.734,35.156,35.645,12.695,0
1553632404.873,62.500,39.551,35.645,59.570,12.207,0
1553632404.877,68.848,35.156,36.621,68.359,24.414,0
1553632404.881,56.641,51.270,38.086,59.082,23.926,0
1553632404.885,45.410,55.664,41.992,10.254,37.109,0
1553632404.889,68.359,45.410,39.062,34.180,29.785,0
1553632404.893,71.777,45.898,31.250,60.059,-12.207,0
1553632404.897,68.359,60.547,23.926,40.527,9.277,0
1553632404.901,46.875,63.965,34.668,55.664,44.434,0
1553632404.905,26.367,43.945,45.410,63.965,55.664,0
1553632404.908,45.410,36.621,30.762,53.223,66.895,0
1553632404.912,61.523,49.805,21.484,47.852,107.422,0
1553632404.916,43.945,56.641,27.344,53.711,74.219,0
1553632404.920,36.621,49.805,40.039,50.293,42.480,0
1553632404.924,74.219,46.875,41.504,23.926,43.457,0
1553632404.928,75.195,43.945,34.668,25.879,32.227,0
1553632404.932,37.109,45.410,39.062,48.828,86.914,0
1553632404.936,25.879,43.945,45.410,46.875,45.410,0
1553632404.940,18.066,39.551,45.898,45.898,-9.277,0
1553632404.944,24.902,43.457,39.551,41.016,45.898,0
1553632404.947,39.551,38.574,36.133,31.738,60.547,0
1553632404.951,67.383,41.016,33.203,62.500,68.848,0
1553632404.955,80.566,46.387,25.391,62.500,103.516,0
1553632404.959,52.734,38.574,28.809,36.133,59.082,0
1553632404.963,50.293,44.434,44.434,43.457,59.082,0
1553632404.967,54.688,56.641,48.340,48.340,56.641,0
1553632404.971,48.828,57.129,38.574,30.762,21.484,0
1553632404.975,61.035,47.852,31.738,29.785,12.695,0
1553632404.979,66.406,39.551,34.668,39.551,-21.973,0
1553632404.983,57.129,45.410,27.344,43.945,13.672,0
1553632404.987,36.133,43.945,16.602,30.273,82.031,0
1553632404.990,63.965,34.668,17.090,25.879,60.547,0
1553632404.994,72.754,37.109,20.996,28.809,-0.977,0
1553632404.998,29.297,38.574,26.855,41.016,1.465,0
1553632405.002,39.551,32.715,31.738,43.457,53.711,0
1553632405.006,55.176,26.855,27.344,19.043,66.406,0
1553632405.010,23.926,25.391,31.250,10.742,-20.996,0
1553632405.014,17.090,31.250,39.551,20.996,-55.176,0
1553632405.018,35.645,34.180,38.574,39.551,6.836,0
1553632405.022,52.246,36.133,31.738,34.180,54.688,0
1553632405.026,36.133,39.551,34.668,26.855,62.012,0
1553632405.030,39.062,35.156,40.527,28.809,64.453,0
1553632405.033,52.246,29.785,33.203,30.762,20.020,0
1553632405.037,33.203,34.180,28.320,44.922,11.719,0
1553632405.041,14.160,40.039,40.039,47.363,27.832,0
1553632405.045,45.898,39.062,45.898,20.020,17.090,0
1553632405.049,65.430,37.109,42.969,0.488,57.129,0
1553632405.053,54.688,37.109,43.457,53.223,25.391,0
1553632405.057,32.715,44.922,36.621,71.289,11.230,0
1553632405.061,32.227,42.480,25.391,18.555,41.016,0
1553632405.065,52.246,32.227,20.020,9.277,2.930,0
1553632405.069,34.180,34.668,25.391,15.625,-20.508,0
1553632405.072,16.602,37.598,39.551,19.043,-14.160,0
1553632405.076,28.809,37.109,48.828,23.926,10.742,0
1553632405.080,39.062,35.645,47.852,34.668,38.086,0
1553632405.084,64.453,36.621,39.551,49.316,51.758,0
1553632405.088,79.590,37.598,37.109,52.246,34.668,0
1553632405.092,79.102,41.504,40.527,27.832,3.418,0
1553632405.096,45.898,45.410,45.410,22.461,49.805,0
1553632405.100,20.508,42.969,44.922,48.828,56.641,0
1553632405.104,51.758,43.457,35.156,76.660,71.289,0
1553632405.108,61.035,43.457,30.273,71.289,35.156,0
1553632405.112,59.082,41.504,31.250,27.832,-2.441,0
1553632405.115,62.988,45.898,39.551,2.930,-8.301,0
1553632405.119,24.902,45.410,43.945,39.551,-57.129,0
1553632405.123,-0.977,44.434,37.598,62.500,9.277,0
1553632405.127,20.996,48.828,33.691,45.410,9.277,0
1553632405.131,51.270,52.246,35.156,14.160,31.250,0
1553632405.135,65.918,47.852,32.715,-12.695,34.668,0
1553632405.139,40.527,44.922,31.250,12.695,-4.883,0
1553632405.143,27.344,44.922,34.668,49.805,55.176,0
1553632405.147,65.430,46.875,32.715,46.875,58.594,0
1553632405.151,43.457,39.062,36.621,55.664,28.809,0
1553632405.155,3.906,34.668,41.016,58.105,20.020,0
1553632405.158,42.480,43.457,38.086,54.199,54.199,0
1553632405.162,55.664,44.434,31.250,58.594,49.805,0
1553632405.166,19.043,44.922,32.715,55.176,37.109,0
1553632405.170,37.598,48.340,41.504,20.020,55.176,0
1553632405.174,59.570,50.293,40.039,-5.859,82.031,0
1553632405.178,47.852,54.199,34.668,22.461,57.617,0
1553632405.182,75.684,62.988,29.297,31.250,5.859,0
1553632405.186,95.703,62.012,28.809,49.316,-11.719,0
1553632405.190,75.195,54.688,33.203,55.664,-9.766,0
1553632405.194,58.105,49.316,38.574,47.363,47.852,0
1553632405.197,62.500,43.945,41.504,47.852,35.645,0
1553632405.201,46.875,38.574,36.133,52.734,-6.348,0
1553632405.205,14.160,43.945,35.645,48.340,27.344,0
1553632405.209,12.207,53.223,36.133,33.691,60.059,0
1553632405.213,19.043,48.340,32.715,32.227,42.480,0
1553632405.217,32.715,43.945,34.180,22.461,13.184,0
1553632405.221,50.781,46.387,40.039,0.977,-10.742,0
1553632405.225,45.898,49.316,35.645,11.230,32.227,0
1553632405.229,40.039,45.898,36.621,32.227,56.641,0
1553632405.233,53.223,48.828,40.527,75.684,51.758,0
1553632405.237,69.336,58.594,38.086,55.664,65.430,0
1553632405.240,47.363,49.805,36.133,10.742,53.223,0
1553632405.244,22.461,42.969,28.809,40.039,63.477,0
1553632405.248,10.254,43.945,31.250,50.293,26.367,0
1553632405.252,-11.230,43.457,41.992,24.414,14.648,0
1553632405.256,13.672,45.898,43.457,23.438,64.453,0
1553632405.260,71.289,47.363,43.945,41.016,40.527,0
1553632405.264,43.945,39.551,47.363,16.602,22.949,0
1553632405.268,24.902,39.551,45.898,15.137,52.246,0
1553632405.272,44.434,46.387,34.180,44.434,63.477,0
1553632405.276,20.020,42.969,33.691,35.645,87.402,0
1553632405.280,14.160,46.387,37.598,31.250,77.637,0
1553632405.283,39.551,50.293,36.621,36.133,39.062,0
1553632405.287,38.086,42.480,41.016,26.855,31.738,0
1553632405.291,5.859,42.480,44.434,26.367,-6.836,0
1553632405.295,-0.977,55.176,38.086,40.527,-19.531,0
1553632405.299,42.969,53.711,32.715,42.969,12.207,0
1553632405.303,58.105,42.969,39.551,35.645,46.387,0
1553632405.307,22.461,38.574,44.434,28.809,0.000,0
1553632405.311,12.695,40.527,37.598,19.043,0.488,0
1553632405.315,-7.324,45.898,32.227,14.160,33.203,0
1553632405.319,9.766,42.969,34.180,-4.883,11.230,0
1553632405.322,42.480,24.902,28.809,15.137,9.766,0
1553632405.326,38.086,21.973,25.879,52.246,12.207,0
1553632405.330,37.598,41.016,30.762,49.805,42.969,0
1553632405.334,60.547,55.176,23.926,17.578,76.660,0
1553632405.338,62.500,57.617,17.090,3.906,75.195,0
1553632405.342,36.133,48.340,28.320,-1.465,92.285,0
1553632405.346,13.184,45.410,40.039,-12.695,57.617,0
1553632405.350,14.648,47.852,36.133,-0.977,-44.922,0
1553632405.354,36.621,35.645,25.391,22.461,-3.418,0
1553632405.358,36.133,35.156,25.391,49.805,19.531,0
1553632405.362,6.836,50.781,36.133,21.973,39.062,0
1553632405.365,-2.930,55.176,37.109,2.930,-9.766,0
1553632405.369,41.016,52.246,32.715,23.926,-75.195,0
1553632405.373,66.895,53.711,25.879,45.898,-36.133,0
1553632405.377,27.344,47.852,22.949,31.738,15.625,0
1553632405.381,18.066,41.992,25.391,-0.977,56.641,0
1553632405.385,32.227,44.922,26.855,15.625,46.387,0
1553632405.389,12.695,44.922,34.668,19.531,23.438,0
1553632405.393,37.109,44.434,36.133,-4.395,52.246,0
1553632405.397,27.832,43.457,34.668,10.742,36.621,0
1553632405.401,20.996,36.621,29.785,9.277,41.992,0
1553632405.405,32.227,27.832,26.367,-1.465,38.574,0
1553632405.408,-4.395,26.855,32.715,17.090,9.277,0
1553632405.412,0.977,33.691,40.039,31.738,24.902,0
1553632405.416,33.691,38.086,31.738,45.898,4.883,0
1553632405.420,32.715,37.598,26.855,45.410,21.973,0
1553632405.424,43.945,45.410,33.203,20.996,33.203,0
1553632405.428,66.895,51.270,31.250,24.902,7.324,0
1553632405.432,40.039,47.363,30.273,29.297,-11.230,0
1553632405.436,20.996,48.828,34.180,10.742,-7.812,0
1553632405.440,51.758,47.363,35.156,16.602,16.602,0
1553632405.444,60.059,35.156,30.273,35.156,39.062,0
1553632405.447,53.223,36.621,28.809,48.340,46.387,0
1553632405.451,65.918,42.480,30.273,46.387,39.551,0
1553632405.455,40.039,39.062,33.203,33.203,61.523,0
1553632405.459,54.688,29.297,41.016,50.293,59.082,0
1553632405.463,30.762,28.809,44.922,45.898,33.203,0
1553632405.467,8.789,42.969,43.945,29.785,11.719,0
1553632405.471,72.266,49.805,45.898,71.289,63.965,0
1553632405.475,37.109,53.223,37.598,79.590,78.125,0
1553632405.479,16.113,57.617,24.902,33.203,25.391,0
1553632405.483,54.199,55.664,24.414,8.301,55.664,0
1553632405.487,34.668,45.410,33.203,21.973,30.762,0
1553632405.490,25.391,36.133,43.945,37.598,18.066,0
1553632405.494,27.344,37.598,40.527,26.367,9.766,0
1553632405.498,7.812,42.969,36.133,19.043,29.785,0
1553632405.502,-2.930,42.480,37.598,19.531,-12.695,0
1553632405.506,42.969,46.387,32.715,16.113,-73.242,0
1553632405.510,63.477,42.969,30.273,25.391,20.996,0
1553632405.514,38.574,41.504,26.855,60.547,18.066,0
1553632405.518,44.922,57.617,21.484,56.152,-25.879,0
1553632405.522,60.547,65.430,28.809,22.949,21.973,0
1553632405.526,74.707,52.246,30.273,12.207,71.777,0
1553632405.530,53.711,50.293,24.902,9.277,41.016,0
1553632405.533,20.996,60.059,36.133,17.578,24.414,0
1553632405.537,8.789,55.664,42.969,29.297,63.477,0
1553632405.541,46.875,55.176,31.250,33.203,71.289,0
1553632405.545,47.852,55.664,22.461,32.227,69.336,0
1553632405.549,14.160,54.199,25.391,20.996,30.273,0
1553632405.553,47.363,57.129,28.320,47.363,17.578,0
1553632405.557,49.805,51.758,34.668,63.965,48.828,0
1553632405.561,22.949,36.133,38.086,45.898,20.996,0
1553632405.565,60.059,35.156,34.668,44.922,-0.977,0
1553632405.569,85.938,51.758,35.645,43.457,-5.859,0
1553632405.572,56.641,58.105,38.574,50.781,-20.996,0
1553632405.576,41.992,46.875,31.738,56.152,24.902,0
1553632405.580,48.340,49.316,29.785,20.996,94.238,0
1553632405.584,27.344,52.246,28.320,14.160,75.195,0
1553632405.588,9.277,40.527,20.020,19.043,-6.348,0
1553632405.592,40.039,44.434,17.578,16.113,25.879,0
1553632405.596,40.039,40.527,23.926,22.461,113.281,0
1553632405.600,30.273,31.738,33.203,43.945,89.844,0
1553632405.604,50.293,38.086,35.156,46.387,71.777,0
1553632405.608,73.730,48.828,32.227,44.434,56.152,0
1553632405.612,66.406,56.641,29.297,36.621,83.008,0
1553632405.615,49.805,64.453,21.484,41.992,18.555,0
1553632405.619,20.020,63.477,19.043,45.898,-81.543,0
1553632405.623,22.949,54.688,33.203,7.812,-7.812,0
1553632405.627,28.809,48.828,41.016,21.973,83.984,0
1553632405.631,27.344,41.992,35.645,42.969,25.391,0
1553632405.635,48.828,29.297,31.738,27.832,-10.254,0
1553632405.639,39.062,31.250,29.297,11.719,11.719,0
1553632405.643,23.926,40.527,20.996,14.160,-3.906,0
1553632405.647,33.691,42.969,16.602,60.547,-17.578,0
1553632405.651,15.625,55.176,23.926,61.035,5.371,0
1553632405.655,-20.508,57.617,31.250,5.371,80.566,0
1553632405.658,3.906,45.898,35.645,-6.348,65.918,0
1553632405.662,45.898,50.293,36.133,0.000,47.852,0
1553632405.666,65.918,49.316,31.250,7.812,88.867,0
1553632405.670,50.293,45.898,26.367,45.898,68.848,0
1553632405.674,19.531,54.688,20.996,59.082,32.715,0
1553632405.678,28.809,59.570,14.648,42.480,5.371,0
1553632405.682,48.828,62.988,10.742,37.598,28.809,0
1553632405.686,73.242,46.875,14.160,48.828,38.574,0
1553632405.690,90.332,28.320,22.949,39.062,-5.371,0
1553632405.694,82.520,33.691,28.320,28.809,24.414,0
1553632405.697,78.613,43.945,36.133,61.035,58.105,0
1553632405.701,48.828,43.457,41.016,48.340,18.555,0
1553632405.705,36.133,42.480,38.086,35.156,35.645,0
1553632405.709,28.320,51.758,33.203,46.387,41.016,0
1553632405.713,6.836,61.523,32.227,20.996,-1.953,0
1553632405.717,-5.371,57.129,32.227,17.578,-28.809,0
1553632405.721,27.344,51.270,36.133,27.344,-1.465,0
1553632405.725,70.801,58.594,40.527,30.273,1.465,0
1553632405.729,71.289,51.758,35.645,49.805,37.598,0
1553632405.733,57.617,37.598,32.715,59.082,80.078,0
1553632405.737,12.695,37.109,33.203,25.391,31.250,0
1553632405.740,20.996,30.762,32.227,34.180,11.230,0
1553632405.744,56.152,30.762,27.344,54.688,19.043,0
1553632405.748,43.457,49.805,25.879,22.461,27.344,0
1553632405.752,32.715,57.129,31.738,25.391,33.203,0
1553632405.756,45.898,53.711,40.039,26.367,10.742,0
1553632405.760,72.266,56.641,41.504,13.672,-25.391,0
1553632405.764,51.758,55.664,36.621,26.855,-8.301,0
1553632405.768,0.488,50.293,30.273,25.391,25.391,0
1553632405.772,10.254,49.316,19.531,31.250,20.996,0
1553632405.776,44.434,48.828,18.555,72.266,100.586,0
1553632405.780,81.055,50.293,28.320,45.410,130.371,0
1553632405.783,68.848,48.828,31.738,-5.371,61.035,0
1553632405.787,69.336,48.340,35.645,25.879,52.734,0
1553632405.791,56.641,49.805,39.062,50.781,45.898,0
1553632405.795,23.438,37.109,38.086,43.457,17.578,0
1553632405.799,17.090,28.320,33.691,41.992,31.250,0
1553632405.803,27.344,39.062,31.250,39.062,46.875,0
1553632405.807,64.941,42.969,24.902,37.598,-0.977,0
1553632405.811,53.223,40.039,21.484,24.414,-40.039,0
1553632405.815,34.180,46.387,25.879,0.977,-47.363,0
1553632405.819,51.270,46.875,26.367,10.742,-21.973,0
1553632405.822,17.578,46.875,36.133,47.363,50.781,0
1553632405.826,1.953,41.992,36.133,32.227,18.555,0
1553632405.830,36.133,39.062,33.691,18.066,17.578,0
1553632405.834,52.246,42.969,37.109,32.715,27.832,0
1553632405.838,73.242,47.852,33.691,39.551,-43.945,0
1553632405.842,88.867,46.387,30.273,62.012,10.742,0
1553632405.846,81.055,47.852,31.738,73.242,68.848,0
1553632405.850,62.012,59.570,36.133,43.945,31.738,0
1553632405.854,57.617,58.594,37.109,32.715,-36.621,0
1553632405.858,31.738,41.016,35.645,32.227,-15.625,0
1553632405.862,35.645,31.250,39.062,28.320,60.059,0
1553632405.865,58.594,41.504,36.621,35.645,86.914,0
1553632405.869,51.758,52.246,27.344,30.273,81.055,0
1553632405.873,42.969,56.152,30.273,35.645,39.062,0
1553632405.877,20.996,60.059,36.133,39.551,58.594,0
1553632405.881,34.668,56.641,38.574,20.020,47.852,0
1553632405.885,64.941,50.781,44.922,21.973,-32.715,0
1553632405.889,64.453,50.781,49.805,57.617,-17.090,0
1553632405.893,57.617,47.852,42.480,72.754,32.715,0
1553632405.897,50.781,41.504,33.691,47.852,1.953,0
1553632405.901,57.129,35.645,30.762,35.156,-11.230,0
1553632405.905,62.500,38.086,26.367,48.828,47.363,0
1553632405.908,57.129,44.434,33.203,54.688,62.012,0
1553632405.912,53.711,48.828,42.480,42.480,69.336,0
1553632405.916,59.570,48.340,35.156,43.457,82.031,0
1553632405.920,64.453,41.504,35.645,43.945,67.383,0
1553632405.924,57.617,41.016,51.270,28.809,32.227,0
1553632405.928,53.711,45.410,51.270,16.602,-12.695,0
1553632405.932,51.758,48.828,31.250,14.648,31.250,0
1553632405.936,48.828,51.758,20.508,35.645,5.859,0
1553632405.940,19.043,55.664,28.809,61.523,-49.316,0
1553632405.944,28.320,51.758,34.668,69.336,5.859,0
1553632405.947,48.828,50.293,35.645,50.781,22.949,0
1553632405.951,14.648,53.223,44.922,18.066,3.418,0
1553632405.955,-11.230,47.363,44.922,-8.301,24.902,0
1553632405.959,0.488,38.086,35.156,28.320,54.688,0
1553632405.963,62.012,40.527,38.086,62.500,42.969,0
1553632405.967,77.148,42.480,46.387,43.945,28.809,0
1553632405.971,30.273,39.551,46.387,21.484,13.184,0
1553632405.975,48.828,43.945,43.457,7.812,14.648,0
