timestamps,TP9,AF7,AF8,TP10,Right AUX,Marker0
1553806291.379,-212.402,63.965,81.055,-231.934,76.660,0
1553806291.383,-216.797,71.777,72.266,-230.957,25.391,0
1553806291.387,-197.266,72.266,62.500,-201.660,92.773,0
1553806291.391,-163.086,71.777,53.223,-173.828,97.168,0
1553806291.395,-106.445,79.590,45.898,-126.953,64.941,0
1553806291.399,-48.828,88.867,40.039,-66.895,50.781,0
1553806291.403,-20.508,84.473,36.133,-41.504,77.148,0
1553806291.407,0.977,75.684,37.109,-29.297,125.000,0
1553806291.411,20.996,69.824,34.668,-16.113,144.043,0
1553806291.414,48.340,60.059,34.180,20.996,101.562,0
1553806291.418,68.848,56.641,38.574,62.988,60.547,0
1553806291.422,80.078,48.828,39.062,74.707,84.961,0
1553806291.426,106.934,41.992,43.945,85.938,83.984,0
1553806291.430,127.930,43.457,41.992,118.652,50.293,0
1553806291.434,135.742,41.992,36.621,145.020,50.293,0
1553806291.438,143.555,35.156,35.645,149.902,39.062,0
1553806291.442,143.066,32.227,30.762,159.180,72.266,0
1553806291.446,150.391,33.691,29.785,158.203,84.961,0
1553806291.450,166.504,36.133,28.320,159.180,73.730,0
1553806291.453,176.270,33.691,24.414,161.133,22.949,0
1553806291.457,159.668,30.273,23.438,146.484,13.672,0
1553806291.461,140.137,32.715,24.902,148.926,36.621,0
1553806291.465,147.461,37.109,25.391,167.969,7.324,0
1553806291.469,144.531,38.086,24.902,161.133,7.812,0
1553806291.473,146.973,38.574,24.902,132.812,37.598,0
1553806291.477,154.785,40.527,25.879,139.648,38.574,0
1553806291.481,172.363,37.598,26.367,150.879,-21.973,0
1553806291.485,165.527,34.668,23.926,139.648,2.930,0
1553806291.489,144.531,34.668,22.461,114.746,65.918,0
1553806291.493,133.789,30.273,26.855,116.699,44.434,0
1553806291.496,138.672,31.250,33.203,146.973,31.250,0
1553806291.500,137.207,33.691,33.691,163.574,0.488,0
1553806291.504,120.117,31.250,32.227,148.438,-13.184,0
1553806291.508,131.836,30.273,32.227,125.488,56.152,0
1553806291.512,131.348,29.785,31.738,121.582,27.832,0
1553806291.516,121.094,31.250,33.691,120.605,26.855,0
1553806291.520,124.023,33.691,33.203,119.141,81.055,0
1553806291.524,120.605,36.133,28.809,111.816,77.637,0
1553806291.528,127.930,39.062,25.391,106.445,11.719,0
1553806291.532,120.605,38.574,24.902,99.121,23.926,0
1553806291.536,96.680,35.156,27.832,81.055,81.055,0
1553806291.539,103.027,35.156,29.297,78.125,15.625,0
1553806291.543,100.098,37.109,30.273,95.215,34.180,0
1553806291.547,92.773,38.574,33.203,86.426,62.012,0
1553806291.551,97.168,38.574,29.785,69.336,39.062,0
1553806291.555,97.656,37.598,26.855,63.477,40.039,0
1553806291.559,93.750,35.645,32.715,59.570,43.457,0
1553806291.563,84.473,32.715,37.109,79.102,55.176,0
1553806291.567,93.750,35.156,36.621,81.055,57.129,0
1553806291.571,104.004,36.621,35.645,74.219,62.012,0
1553806291.575,85.938,32.227,35.156,63.477,79.590,0
1553806291.578,70.801,35.645,34.180,39.062,28.320,0
1553806291.582,68.359,34.668,36.621,49.316,30.762,0
1553806291.586,81.543,32.715,38.574,73.730,14.160,0
1553806291.590,97.656,31.738,36.621,51.270,-5.859,0
1553806291.594,70.312,24.902,33.203,41.016,44.922,0
1553806291.598,57.617,26.367,32.227,58.105,20.508,0
1553806291.602,66.895,29.297,32.715,54.199,6.836,0
1553806291.606,66.406,32.227,30.762,69.336,43.945,0
1553806291.610,70.312,33.203,32.227,83.496,59.082,0
1553806291.614,61.523,29.297,34.668,62.988,54.199,0
1553806291.618,47.363,29.785,38.086,42.969,54.199,0
1553806291.621,36.621,30.762,37.109,36.621,19.043,0
1553806291.625,45.410,29.297,38.574,20.996,10.742,0
1553806291.629,55.176,31.250,39.062,40.527,-25.391,0
1553806291.633,65.430,34.180,36.621,68.848,-2.441,0
1553806291.637,71.777,32.715,31.250,53.711,42.969,0
1553806291.641,67.871,23.438,26.855,59.082,0.977,0
1553806291.645,71.289,24.414,30.762,29.785,23.438,0
1553806291.649,77.637,35.645,34.180,22.461,57.617,0
1553806291.653,63.965,30.762,39.551,47.363,79.102,0
1553806291.657,52.246,24.902,43.457,28.320,77.148,0
1553806291.661,50.781,24.902,42.969,18.555,14.160,0
1553806291.664,61.523,29.785,43.457,18.066,6.348,0
1553806291.668,67.383,36.133,46.875,43.457,-2.441,0
1553806291.672,64.453,26.367,47.852,49.805,-6.348,0
1553806291.676,61.523,19.531,49.805,39.062,-30.762,0
1553806291.680,49.316,16.602,50.293,41.504,-36.621,0
1553806291.684,34.668,14.160,43.945,35.156,21.973,0
1553806291.688,32.715,28.320,34.180,28.809,2.930,0
1553806291.692,28.320,36.621,33.203,10.742,13.184,0
1553806291.696,28.320,35.156,38.086,9.277,86.426,0
1553806291.700,42.969,37.109,37.598,20.508,44.922,0
1553806291.703,33.691,35.645,39.062,19.531,20.020,0
1553806291.707,49.805,31.250,40.527,22.461,71.289,0
1553806291.711,63.477,26.855,40.039,22.949,76.660,0
1553806291.715,42.480,24.414,43.457,36.621,79.102,0
1553806291.719,42.480,26.855,41.992,33.203,41.016,0
1553806291.723,49.316,25.879,39.551,22.461,5.371,0
1553806291.727,48.340,27.344,42.480,40.039,36.133,0
1553806291.731,43.457,28.320,42.480,34.668,-0.488,0
1553806291.735,41.016,24.414,46.875,31.250,20.996,0
1553806291.739,45.898,27.832,51.758,44.434,34.180,0
1553806291.743,61.523,34.180,49.316,38.086,37.598,0
1553806291.746,70.312,31.250,46.387,35.156,57.617,0
1553806291.750,68.848,31.250,47.852,19.043,61.035,0
1553806291.754,59.082,33.691,44.434,10.742,81.543,0
1553806291.758,44.434,32.715,39.551,19.043,41.016,0
1553806291.762,37.109,31.738,39.551,36.621,14.648,0
1553806291.766,24.902,29.785,39.551,64.453,31.738,0
1553806291.770,54.199,24.902,38.086,58.105,66.406,0
1553806291.774,91.797,29.785,32.227,49.316,103.516,0
1553806291.778,61.035,39.062,32.227,28.809,41.504,0
1553806291.782,0.977,23.438,42.480,53.223,3.906,0
1553806291.786,-15.137,11.719,49.316,55.664,57.129,0
1553806291.789,33.691,11.230,43.945,-10.742,73.242,0
1553806291.793,66.895,14.160,37.109,12.207,42.969,0
1553806291.797,31.250,12.207,42.969,40.039,-2.441,0
1553806291.801,16.113,6.836,46.387,-1.465,-13.672,0
1553806291.805,29.785,8.301,43.945,7.812,-3.906,0
1553806291.809,34.668,11.230,39.551,29.297,10.742,0
1553806291.813,35.156,17.578,35.156,12.207,52.734,0
1553806291.817,42.480,23.438,32.227,9.277,84.473,0
1553806291.821,74.707,25.391,31.250,13.184,51.270,0
1553806291.825,56.641,26.855,30.762,53.711,20.020,0
1553806291.828,37.598,22.949,32.227,70.312,51.270,0
1553806291.832,43.457,19.531,34.180,30.762,90.332,0
1553806291.836,53.711,22.461,35.156,22.461,67.383,0
1553806291.840,69.824,20.996,40.039,28.320,73.730,0
1553806291.844,57.129,19.043,41.016,31.250,92.773,0
1553806291.848,40.527,20.996,39.551,36.621,48.828,0
1553806291.852,50.781,22.949,37.598,37.109,49.805,0
1553806291.856,61.523,24.414,39.062,46.387,42.480,0
1553806291.860,49.316,22.949,48.340,53.711,3.906,0
1553806291.864,46.387,26.367,46.875,39.062,22.949,0
1553806291.868,36.133,28.809,41.504,36.621,15.137,0
1553806291.871,33.691,23.438,40.527,37.598,52.734,0
1553806291.875,38.574,19.531,35.156,33.691,68.848,0
1553806291.879,40.527,17.578,37.598,30.762,41.016,0
1553806291.883,45.410,20.508,41.504,34.180,30.762,0
1553806291.887,67.383,27.344,37.598,21.484,35.645,0
1553806291.891,72.754,30.762,33.203,18.555,33.691,0
1553806291.895,45.410,20.020,41.016,41.016,-3.906,0
1553806291.899,38.086,15.625,43.457,45.898,-1.465,0
1553806291.903,45.898,29.785,38.086,49.316,40.527,0
1553806291.907,42.480,36.133,41.016,48.340,55.664,0
1553806291.911,47.363,37.109,38.086,35.156,-4.883,0
1553806291.914,46.875,36.133,37.598,35.645,-52.734,0
1553806291.918,34.668,25.391,44.434,34.668,-42.480,0
1553806291.922,21.973,19.043,41.016,20.996,6.836,0
1553806291.926,10.742,24.414,35.156,11.230,54.199,0
1553806291.930,21.484,28.320,34.668,13.672,8.789,0
1553806291.934,40.039,30.273,34.668,27.832,-20.020,0
1553806291.938,42.969,27.344,40.039,24.414,43.945,0
1553806291.942,36.133,23.926,43.457,25.879,63.965,0
1553806291.946,10.254,23.438,43.457,29.297,18.066,0
1553806291.950,13.672,24.414,40.039,20.508,2.930,0
1553806291.953,24.902,27.832,34.668,29.785,41.016,0
1553806291.957,25.391,31.738,38.086,38.574,42.480,0
1553806291.961,53.223,28.320,39.551,50.781,-1.953,0
1553806291.965,90.820,30.273,34.180,48.828,-38.086,0
1553806291.969,49.316,36.621,36.133,-4.395,35.645,0
1553806291.973,-15.137,30.762,42.969,-38.086,26.855,0
1553806291.977,-12.207,25.879,42.969,-22.949,-48.828,0
1553806291.981,-0.488,23.926,43.945,18.555,16.113,0
1553806291.985,-18.066,14.160,47.852,8.301,40.527,0
1553806291.989,-37.598,8.301,43.945,-41.016,62.012,0
1553806291.993,-38.574,9.766,35.156,-40.039,88.379,0
1553806291.996,-21.484,14.160,35.156,-51.758,54.199,0
1553806292.000,-30.273,16.113,32.715,-66.895,48.340,0
1553806292.004,-66.895,13.184,27.832,-61.523,37.109,0
1553806292.008,-62.988,7.812,32.227,-50.781,22.461,0
1553806292.012,-50.781,4.883,33.203,-33.203,84.473,0
1553806292.016,-45.410,11.230,33.691,-34.668,97.656,0
1553806292.020,-32.227,17.090,36.621,-46.387,-14.648,0
1553806292.024,-16.113,16.602,37.598,-22.461,-40.039,0
1553806292.028,-11.719,14.648,40.527,-1.953,61.035,0
1553806292.032,1.465,15.137,43.457,-6.836,77.637,0
1553806292.036,21.484,12.695,36.133,-17.578,60.059,0
1553806292.039,-8.789,8.301,32.715,-18.066,-3.418,0
1553806292.043,-19.531,8.789,33.203,-6.836,-21.973,0
1553806292.047,-4.395,16.602,34.668,-2.441,14.648,0
1553806292.051,4.395,20.996,36.621,-5.859,34.668,0
1553806292.055,7.324,26.855,34.180,15.625,37.109,0
1553806292.059,21.484,26.367,37.109,21.484,41.992,0
1553806292.063,37.109,20.996,39.551,-5.371,48.340,0
1553806292.067,44.434,21.973,39.062,-18.555,-9.277,0
1553806292.071,37.109,25.879,32.715,-3.418,-38.086,0
1553806292.075,21.973,28.320,32.227,15.137,42.969,0
1553806292.078,19.043,27.344,32.715,25.879,70.801,0
1553806292.082,19.531,30.273,31.250,19.531,25.391,0
1553806292.086,17.578,31.250,33.203,0.000,52.246,0
1553806292.090,20.020,25.879,33.203,4.395,83.008,0
1553806292.094,20.020,19.531,36.133,3.418,10.742,0
1553806292.098,20.508,20.508,38.086,23.926,-5.371,0
1553806292.102,38.086,20.996,44.922,62.988,49.805,0
1553806292.106,48.828,22.949,47.363,21.973,76.660,0
1553806292.110,44.922,29.785,41.016,1.465,54.688,0
1553806292.114,26.855,30.273,41.016,13.672,46.387,0
1553806292.118,17.090,28.320,38.086,8.789,52.246,0
1553806292.121,20.020,25.391,39.062,30.273,14.648,0
1553806292.125,22.949,24.414,44.434,36.621,13.184,0
1553806292.129,27.832,28.809,44.922,32.227,3.418,0
1553806292.133,26.367,27.832,42.480,43.457,28.809,0
1553806292.137,41.016,26.855,42.480,44.922,42.480,0
1553806292.141,60.059,29.297,40.527,41.016,8.789,0
1553806292.145,54.199,32.715,37.598,38.086,20.508,0
1553806292.149,41.992,26.367,36.621,48.828,1.953,0
1553806292.153,46.387,21.973,31.738,32.227,-22.949,0
1553806292.157,51.758,25.879,31.738,29.297,-25.879,0
1553806292.161,58.594,30.762,37.598,46.875,-39.551,0
1553806292.164,62.500,31.250,39.062,42.969,-19.043,0
1553806292.168,52.734,25.391,39.062,48.340,-1.465,0
1553806292.172,45.410,24.414,35.156,44.434,32.715,0
1553806292.176,29.297,23.926,36.133,28.809,62.012,0
1553806292.180,19.043,28.320,42.969,29.297,43.457,0
1553806292.184,24.902,32.715,47.363,21.484,49.316,0
1553806292.188,19.531,34.180,45.410,19.043,92.285,0
1553806292.192,30.762,33.203,45.898,30.762,77.637,0
1553806292.196,50.293,20.020,49.316,22.949,54.199,0
1553806292.200,55.664,14.648,46.387,21.973,64.941,0
1553806292.203,43.945,17.578,43.457,26.367,40.039,0
1553806292.207,31.738,20.020,41.992,27.344,54.688,0
1553806292.211,35.156,30.273,38.574,35.645,98.145,0
1553806292.215,37.109,34.668,35.645,25.879,54.199,0
1553806292.219,44.434,30.273,33.691,20.996,22.461,0
1553806292.223,49.805,30.273,37.109,22.949,74.219,0
1553806292.227,42.969,32.715,40.039,13.184,65.918,0
1553806292.231,32.715,27.344,40.039,23.438,62.012,0
1553806292.235,28.809,22.949,43.457,58.594,52.246,0
1553806292.239,31.250,28.320,40.039,51.270,20.508,0
1553806292.243,41.016,32.227,36.133,26.855,60.547,0
1553806292.246,50.781,29.785,35.156,47.363,89.355,0
1553806292.250,51.758,25.391,35.645,37.109,22.949,0
1553806292.254,50.781,25.879,37.109,37.598,0.488,0
1553806292.258,48.340,22.461,38.086,43.945,40.039,0
1553806292.262,37.109,25.879,41.504,20.996,50.293,0
1553806292.266,33.691,30.273,41.016,29.785,63.477,0
1553806292.270,28.809,24.414,38.086,27.344,27.344,0
1553806292.274,34.180,30.273,37.109,11.719,35.645,0
1553806292.278,36.621,36.133,38.086,26.855,68.359,0
1553806292.282,30.762,34.668,38.574,33.691,78.125,0
1553806292.286,42.480,31.738,40.039,11.719,90.820,0
1553806292.289,37.109,30.273,42.969,5.859,66.895,0
1553806292.293,33.691,32.227,44.922,22.461,45.898,0
1553806292.297,43.945,32.227,44.434,34.668,68.848,0
1553806292.301,40.039,29.785,42.969,24.414,99.609,0
1553806292.305,62.988,29.297,40.039,21.484,67.871,0
1553806292.309,68.848,30.762,37.109,20.020,8.301,0
1553806292.313,40.527,32.227,41.504,13.184,38.574,0
1553806292.317,16.113,31.250,41.504,46.875,65.430,0
1553806292.321,7.812,31.738,33.691,54.199,43.457,0
1553806292.325,17.578,31.738,31.250,11.230,18.066,0
1553806292.328,20.508,30.762,35.645,1.465,28.809,0
1553806292.332,32.227,32.227,39.062,18.066,47.363,0
1553806292.336,49.316,32.715,43.945,14.160,37.109,0
1553806292.340,69.824,27.344,47.363,17.090,61.523,0
1553806292.344,69.824,14.160,48.828,54.199,51.270,0
1553806292.348,11.719,11.230,52.246,29.785,37.598,0
1553806292.352,-12.695,23.926,46.875,-20.508,40.527,0
1553806292.356,11.719,32.715,34.180,-18.555,-15.137,0
1553806292.360,8.789,36.133,29.297,-2.441,2.930,0
1553806292.364,5.371,36.621,31.738,0.488,52.246,0
1553806292.368,-2.441,27.344,32.715,18.066,55.176,0
1553806292.371,20.508,20.996,33.691,18.555,41.016,0
1553806292.375,56.641,27.344,35.645,-10.254,33.691,0
1553806292.379,41.504,24.414,41.504,-7.812,3.418,0
1553806292.383,33.691,16.602,42.480,11.719,-33.203,0
1553806292.387,23.926,21.484,36.621,25.391,-0.488,0
1553806292.391,23.438,24.902,37.109,42.480,-23.438,0
1553806292.395,42.480,27.344,43.945,41.992,-11.230,0
1553806292.399,58.105,28.809,44.434,0.977,18.066,0
1553806292.403,41.016,11.719,45.898,-5.371,19.043,0
1553806292.407,24.902,8.301,44.922,18.555,9.766,0
1553806292.411,26.367,25.879,39.551,50.293,-3.906,0
1553806292.414,35.645,32.227,34.668,29.785,14.160,0
1553806292.418,34.180,37.109,32.715,-7.324,-0.488,0
1553806292.422,24.902,37.598,35.156,17.090,-1.465,0
1553806292.426,33.203,37.109,41.992,39.551,17.578,0
1553806292.430,36.621,24.902,45.898,33.203,20.996,0
1553806292.434,32.715,22.949,41.016,31.738,15.625,0
1553806292.438,32.715,29.297,38.086,53.223,-6.348,0
1553806292.442,32.227,31.250,37.109,21.484,14.648,0
1553806292.446,37.109,37.109,34.668,-3.906,50.781,0
1553806292.450,41.504,35.156,34.668,12.207,36.621,0
1553806292.453,38.574,38.574,34.668,20.508,29.297,0
1553806292.457,59.570,37.598,29.297,3.906,100.098,0
1553806292.461,53.223,30.762,28.809,-0.488,99.609,0
1553806292.465,23.438,28.809,38.086,38.574,10.742,0
1553806292.469,19.531,26.855,39.551,46.875,-0.977,0
1553806292.473,23.926,31.738,31.250,22.949,6.836,0
1553806292.477,33.203,39.062,30.762,33.691,8.301,0
1553806292.481,36.621,38.574,24.902,24.902,6.836,0
1553806292.485,36.133,35.645,20.996,3.906,-13.184,0
1553806292.489,42.969,33.203,30.273,22.949,37.598,0
1553806292.493,34.180,35.156,36.133,23.926,69.824,0
1553806292.496,38.574,35.156,38.086,9.766,37.109,0
1553806292.500,44.434,34.180,40.039,47.363,76.172,0
1553806292.504,20.020,28.809,39.062,57.617,86.914,0
1553806292.508,26.367,25.391,38.574,7.812,47.852,0
1553806292.512,38.574,34.180,36.621,-4.395,67.383,0
1553806292.516,37.109,35.156,31.250,-1.953,42.969,0
1553806292.520,32.227,33.203,28.809,-1.465,27.344,0
1553806292.524,31.250,31.738,29.297,1.953,5.371,0
1553806292.528,38.086,26.855,28.809,20.020,24.414,0
1553806292.532,35.645,28.809,32.715,46.875,16.113,0
1553806292.536,31.738,31.738,37.109,28.809,-30.762,0
1553806292.539,36.621,29.785,35.645,10.254,6.348,0
1553806292.543,42.480,28.320,31.738,11.230,43.945,0
1553806292.547,55.664,31.250,29.785,8.789,50.293,0
1553806292.551,47.852,15.625,29.785,18.555,2.930,0
1553806292.555,23.438,2.441,29.297,33.691,-20.996,0
1553806292.559,27.832,22.949,28.809,7.324,18.555,0
1553806292.563,30.273,36.133,29.785,1.953,59.570,0
1553806292.567,25.391,37.109,31.250,12.695,75.195,0
1553806292.571,36.133,31.738,31.250,16.113,73.730,0
1553806292.575,32.227,25.879,35.156,16.113,37.598,0
1553806292.578,31.250,25.391,38.086,25.879,-25.391,0
1553806292.582,27.344,25.879,38.574,20.996,4.395,0
1553806292.586,22.461,22.949,35.645,-4.395,-12.695,0
1553806292.590,33.691,23.438,28.320,-6.348,22.461,0
1553806292.594,40.039,29.785,30.762,5.859,112.305,0
1553806292.598,35.645,30.762,35.645,30.273,54.199,0
1553806292.602,37.109,29.785,38.086,41.992,44.922,0
1553806292.606,44.434,32.715,36.133,33.203,76.660,0
1553806292.610,44.922,32.715,31.738,10.254,76.660,0
1553806292.614,48.340,21.484,33.691,11.230,55.176,0
1553806292.618,57.129,21.973,34.668,11.230,43.457,0
1553806292.621,28.320,28.320,31.250,16.602,90.820,0
1553806292.625,2.930,22.461,32.227,21.484,77.148,0
1553806292.629,12.207,25.391,31.250,-7.324,18.555,0
1553806292.633,26.367,30.762,32.715,-1.953,-20.508,0
1553806292.637,37.598,24.414,29.297,6.836,-18.555,0
1553806292.641,50.781,17.578,27.832,9.277,26.855,0
1553806292.645,52.246,24.414,38.574,26.855,-33.691,0
1553806292.649,51.270,33.203,38.574,13.672,-5.859,0
1553806292.653,60.059,36.133,29.297,-0.977,59.082,0
1553806292.657,34.668,31.738,27.344,7.324,18.066,0
1553806292.661,5.859,26.855,35.645,20.996,40.039,0
1553806292.664,11.230,25.391,37.598,10.254,52.734,0
1553806292.668,29.297,27.344,34.180,14.648,8.789,0
1553806292.672,42.969,29.785,33.691,20.996,-22.461,0
1553806292.676,44.922,22.461,30.273,17.090,13.672,0
1553806292.680,41.992,20.996,26.855,18.555,36.133,0
1553806292.684,38.086,23.438,32.715,9.766,54.199,0
1553806292.688,45.410,17.578,39.062,20.996,25.879,0
1553806292.692,34.668,23.926,36.621,23.438,37.109,0
1553806292.696,27.832,32.227,33.203,17.578,24.414,0
1553806292.700,45.898,30.273,29.297,21.484,23.926,0
1553806292.703,61.523,30.762,26.855,2.930,24.414,0
1553806292.707,50.293,31.738,25.879,4.883,-4.883,0
1553806292.711,35.645,30.762,25.879,28.809,11.230,0
1553806292.715,35.645,32.715,26.367,21.973,-6.348,0
1553806292.719,36.133,34.180,29.785,4.395,0.488,0
1553806292.723,55.176,31.738,33.691,-1.953,29.785,0
1553806292.727,65.430,30.762,36.621,9.277,31.738,0
1553806292.731,46.875,28.320,35.156,19.043,12.207,0
1553806292.735,35.156,27.832,31.738,9.766,24.414,0
1553806292.739,36.621,32.715,27.832,33.691,89.844,0
1553806292.743,37.598,35.156,30.762,42.969,117.188,0
1553806292.746,24.414,31.738,38.086,19.531,53.711,0
1553806292.750,40.527,26.367,38.086,27.832,26.855,0
1553806292.754,40.527,24.414,38.574,40.039,77.148,0
1553806292.758,32.715,22.461,38.086,7.812,68.848,0
1553806292.762,35.156,20.996,32.715,-6.836,26.855,0
1553806292.766,21.973,26.855,30.273,24.414,37.598,0
1553806292.770,27.344,26.855,32.715,48.828,62.500,0
1553806292.774,30.273,27.832,35.156,62.012,-6.836,0
1553806292.778,44.434,30.762,36.621,31.738,16.602,0
1553806292.782,50.781,20.508,38.086,8.789,49.316,0
1553806292.786,72.266,23.438,32.227,22.461,29.297,0
1553806292.789,76.172,35.156,25.879,23.926,26.855,0
1553806292.793,49.316,35.645,30.273,16.113,0.488,0
1553806292.797,36.621,39.551,32.227,31.250,9.277,0
1553806292.801,42.969,30.762,31.250,30.273,-5.859,0
1553806292.805,39.551,23.438,36.133,22.949,-22.461,0
1553806292.809,37.598,26.855,38.086,40.527,14.160,0
1553806292.813,40.039,21.973,34.180,42.969,59.570,0
1553806292.817,28.320,18.066,31.738,18.066,77.637,0
1553806292.821,51.758,21.973,35.645,23.926,57.129,0
1553806292.825,54.199,27.344,41.016,34.180,37.109,0
1553806292.828,20.508,27.344,41.016,36.133,81.055,0
1553806292.832,18.555,22.461,41.992,83.984,75.684,0
1553806292.836,34.180,22.949,37.598,31.738,-3.906,0
1553806292.840,37.109,26.855,32.715,-22.461,21.484,0
1553806292.844,22.949,27.344,32.715,15.625,35.645,0
1553806292.848,27.344,28.809,34.180,17.090,-0.488,0
1553806292.852,3.906,27.832,37.109,14.648,-14.648,0
1553806292.856,-14.160,28.320,34.668,23.926,7.812,0
1553806292.860,18.066,21.973,28.320,16.602,33.691,0
1553806292.864,26.367,18.555,27.344,10.254,3.906,0
1553806292.868,20.996,25.879,31.250,51.270,-14.160,0
1553806292.871,26.367,28.320,30.273,36.133,14.160,0
1553806292.875,49.316,28.320,29.297,-14.648,40.039,0
1553806292.879,41.016,23.926,34.668,-7.812,6.836,0
1553806292.883,20.508,24.902,35.645,-7.812,13.184,0
1553806292.887,26.367,30.273,36.621,-6.836,-38.574,0
1553806292.891,30.273,30.762,38.574,10.254,-14.648,0
1553806292.895,27.344,27.344,34.180,33.203,43.457,0
1553806292.899,36.133,23.438,33.203,42.480,42.969,0
1553806292.903,38.574,22.949,34.180,43.945,63.965,0
1553806292.907,30.762,24.414,31.250,66.895,32.715,0
1553806292.911,31.250,22.949,32.227,93.262,25.391,0
1553806292.914,42.480,13.672,32.227,64.941,91.309,0
1553806292.918,32.715,9.766,28.809,25.879,84.961,0
1553806292.922,-4.883,19.043,30.273,13.184,29.785,0
1553806292.926,-12.207,29.785,30.762,20.508,77.148,0
1553806292.930,3.906,33.691,31.250,30.273,104.980,0
1553806292.934,5.371,29.785,33.203,75.195,76.660,0
1553806292.938,20.508,25.391,32.715,57.129,92.773,0
1553806292.942,41.992,23.926,29.297,4.883,60.547,0
1553806292.946,42.480,25.391,32.715,20.020,39.062,0
1553806292.950,28.320,27.344,33.691,22.949,40.527,0
1553806292.953,23.438,32.227,28.809,16.602,6.836,0
1553806292.957,31.738,34.180,28.320,36.133,13.184,0
1553806292.961,38.574,33.691,32.227,54.199,13.184,0
1553806292.965,38.086,30.273,37.109,47.852,22.461,0
1553806292.969,41.504,22.949,38.086,44.434,90.332,0
1553806292.973,53.711,18.066,41.992,42.969,45.898,0
1553806292.977,41.016,18.555,45.410,60.059,2.930,0
1553806292.981,22.949,21.484,45.410,65.918,13.184,0
1553806292.985,29.785,19.531,45.410,35.156,-20.508,0
1553806292.989,35.156,23.438,41.992,40.039,7.324,0
1553806292.993,35.156,27.832,40.527,48.340,23.438,0
1553806292.996,38.086,22.461,35.645,46.387,20.020,0
1553806293.000,43.457,17.090,33.691,55.664,20.508,0
1553806293.004,45.410,16.602,39.062,43.945,46.875,0
1553806293.008,36.621,24.414,37.109,41.992,110.352,0
1553806293.012,61.035,28.320,32.715,36.133,122.070,0
1553806293.016,51.270,25.879,36.621,24.902,63.965,0
1553806293.020,0.488,23.438,36.621,19.043,4.883,0
1553806293.024,-0.488,18.555,33.203,14.648,37.109,0
1553806293.028,14.648,24.902,37.109,30.273,71.777,0
1553806293.032,10.254,28.320,34.668,26.855,28.809,0
1553806293.036,6.836,22.461,34.180,30.273,6.348,0
1553806293.039,20.020,20.996,36.133,25.391,50.293,0
1553806293.043,25.391,20.508,36.133,7.812,70.312,0
1553806293.047,30.273,20.996,35.645,24.414,46.875,0
1553806293.051,42.480,21.484,38.574,17.090,22.949,0
1553806293.055,31.250,20.508,39.551,-8.301,0.488,0
1553806293.059,11.719,23.438,31.250,11.719,38.086,0
1553806293.063,15.625,23.926,26.367,42.969,68.359,0
1553806293.067,24.414,19.531,30.762,31.250,-15.625,0
1553806293.071,13.184,16.602,35.645,20.020,9.766,0
1553806293.075,26.855,22.949,33.691,-0.488,68.359,0
1553806293.078,37.598,31.250,28.809,-1.465,41.992,0
1553806293.082,25.391,35.645,26.367,10.742,47.852,0
1553806293.086,33.691,38.574,23.926,23.438,59.570,0
1553806293.090,50.781,32.715,30.273,41.992,34.180,0
1553806293.094,44.434,20.020,38.574,23.438,30.762,0
1553806293.098,39.062,20.996,35.156,-1.953,37.109,0
1553806293.102,33.203,23.438,34.180,-3.418,48.828,0
1553806293.106,31.738,25.879,34.668,13.184,23.438,0
1553806293.110,42.969,29.785,33.203,16.113,17.578,0
1553806293.114,24.902,28.320,31.738,7.812,21.973,0
1553806293.118,2.441,20.020,35.156,33.691,47.852,0
1553806293.121,13.672,15.625,37.109,43.457,37.109,0
1553806293.125,21.973,16.602,32.227,34.180,11.719,0
1553806293.129,17.578,20.508,33.203,27.832,43.457,0
1553806293.133,28.809,29.297,36.621,12.695,44.434,0
1553806293.137,29.297,33.691,34.180,5.371,62.012,0
1553806293.141,25.879,31.250,34.180,44.434,20.508,0
1553806293.145,36.621,23.926,37.109,54.688,-5.371,0
1553806293.149,37.109,23.438,37.109,-3.418,40.039,0
1553806293.153,24.414,25.879,32.715,-5.859,67.871,0
1553806293.157,20.020,28.320,28.809,20.508,40.527,0
1553806293.161,41.016,29.297,29.297,21.973,21.484,0
1553806293.164,57.129,26.855,30.273,19.531,28.809,0
1553806293.168,34.180,24.414,33.203,10.742,55.664,0
1553806293.172,15.137,19.531,35.156,30.273,65.918,0
1553806293.176,19.531,21.484,33.691,28.809,72.266,0
1553806293.180,22.949,27.344,30.762,-9.766,81.055,0
1553806293.184,31.738,27.832,26.367,-19.531,48.340,0
1553806293.188,36.621,28.320,20.996,-2.441,11.230,0
1553806293.192,28.809,21.484,20.508,17.578,49.316,0
1553806293.196,26.367,17.578,31.250,26.855,67.871,0
1553806293.200,34.180,23.926,39.062,48.340,-2.441,0
1553806293.203,35.645,28.320,38.086,31.738,44.922,0
1553806293.207,54.199,27.832,36.621,-0.488,76.172,0
1553806293.211,59.570,27.832,34.668,21.973,-10.742,0
1553806293.215,24.414,23.438,38.086,42.480,49.805,0
1553806293.219,15.137,23.926,41.016,44.434,71.777,0
1553806293.223,17.090,24.414,34.180,13.184,6.836,0
1553806293.227,26.367,21.484,31.250,-14.648,-1.953,0
1553806293.231,32.715,25.391,34.668,8.301,6.836,0
1553806293.235,53.711,23.438,39.551,26.855,29.785,0
1553806293.239,51.270,19.043,35.156,9.277,4.395,0
1553806293.243,23.926,27.344,30.273,12.695,-2.441,0
1553806293.246,40.039,37.598,32.227,22.461,-0.977,0
1553806293.250,47.363,38.574,32.715,14.160,17.090,0
1553806293.254,41.016,34.668,32.227,14.160,48.828,0
1553806293.258,42.969,33.203,33.203,15.137,67.383,0
1553806293.262,30.762,31.250,32.715,9.277,80.078,0
1553806293.266,28.809,26.367,35.645,0.488,32.227,0
1553806293.270,14.648,23.926,32.227,-2.441,15.625,0
1553806293.274,-5.371,22.949,31.250,19.531,18.555,0
1553806293.278,4.883,24.414,38.574,22.461,57.129,0
1553806293.282,14.648,28.320,40.039,17.578,83.008,0
1553806293.286,16.113,28.320,38.574,25.879,44.922,0
1553806293.289,27.832,22.949,36.621,21.973,83.984,0
1553806293.293,39.551,27.832,36.621,19.043,90.820,0
1553806293.297,34.180,28.809,37.109,8.301,77.637,0
1553806293.301,30.273,19.043,35.645,6.348,40.039,0
1553806293.305,26.367,13.672,34.668,12.207,19.531,0
1553806293.309,23.926,20.020,33.691,18.555,22.461,0
1553806293.313,13.184,25.391,35.156,38.574,56.641,0
1553806293.317,12.207,21.973,37.598,37.598,44.434,0
1553806293.321,29.785,24.414,38.574,3.906,79.590,0
1553806293.325,40.527,25.391,35.645,-0.977,70.312,0
1553806293.328,54.199,28.809,31.250,8.301,25.391,0
1553806293.332,51.758,31.738,36.133,6.836,67.383,0
1553806293.336,34.180,30.762,41.504,20.508,47.363,0
1553806293.340,27.344,32.227,43.457,23.438,-1.953,0
1553806293.344,27.832,25.391,41.504,26.367,-58.105,0
1553806293.348,34.668,18.066,37.598,41.504,-4.395,0
1553806293.352,37.109,18.555,33.203,28.320,11.719,0
1553806293.356,40.039,24.414,30.762,13.672,-18.066,0
1553806293.360,40.039,32.715,32.227,5.859,6.348,0
1553806293.364,38.574,34.180,33.691,2.930,-21.484,0
1553806293.368,35.645,34.180,32.227,14.648,7.324,0
1553806293.371,19.531,34.668,35.645,21.484,10.742,0
1553806293.375,15.625,29.785,38.086,49.316,-3.906,0
1553806293.379,12.207,24.902,36.133,60.547,-24.902,0
1553806293.383,17.578,22.461,36.621,12.695,17.578,0
1553806293.387,36.621,23.926,32.227,-14.648,-4.883,0
1553806293.391,53.711,31.738,30.762,-4.883,-42.969,0
1553806293.395,52.246,33.691,35.645,16.113,31.738,0
1553806293.399,33.691,25.879,41.016,18.066,38.086,0
1553806293.403,20.508,20.996,42.969,13.672,41.016,0
1553806293.407,13.672,17.090,43.945,48.340,64.453,0
1553806293.411,15.137,16.602,43.945,26.855,63.965,0
1553806293.414,28.809,22.461,38.086,-6.836,22.461,0
1553806293.418,36.621,30.273,36.133,-4.395,15.625,0
1553806293.422,34.668,32.227,34.668,-1.953,39.551,0
1553806293.426,31.738,20.508,34.180,19.531,34.668,0
1553806293.430,26.855,14.160,38.086,13.184,26.855,0
1553806293.434,38.086,25.391,41.992,19.531,59.570,0
1553806293.438,53.711,28.809,43.945,29.785,77.148,0
1553806293.442,34.668,23.926,39.062,26.367,39.062,0
1553806293.446,25.391,22.949,35.156,45.410,79.590,0
1553806293.450,30.762,24.414,37.598,36.621,63.477,0
1553806293.453,33.691,26.367,41.016,12.207,5.859,0
1553806293.457,26.855,25.879,41.504,6.348,58.105,0
1553806293.461,13.672,28.320,36.621,0.000,58.594,0
1553806293.465,22.949,27.344,34.180,-12.695,24.414,0
1553806293.469,32.715,22.461,33.203,-21.484,14.648,0
1553806293.473,38.086,20.996,30.273,1.465,35.645,0
1553806293.477,45.898,20.020,30.762,15.137,17.578,0
1553806293.481,46.875,25.391,34.668,9.277,-11.719,0
1553806293.485,46.387,28.809,40.527,20.996,8.789,0
1553806293.489,31.250,20.996,42.969,22.949,33.203,0
1553806293.493,14.160,22.461,40.039,5.371,13.672,0
1553806293.496,30.762,27.832,36.621,15.137,4.395,0
1553806293.500,44.922,28.809,34.668,22.461,29.785,0
1553806293.504,41.016,26.367,36.621,12.207,51.270,0
1553806293.508,52.734,21.484,40.039,14.648,5.371,0
1553806293.512,47.363,21.484,41.016,22.949,10.254,0
1553806293.516,38.574,24.414,40.527,41.504,4.883,0
1553806293.520,38.574,27.832,42.969,49.805,27.344,0
1553806293.524,23.926,27.832,40.527,11.230,43.457,0
1553806293.528,25.391,26.367,33.691,-11.230,36.621,0
1553806293.532,34.668,27.344,35.156,4.883,39.551,0
1553806293.536,39.062,25.879,37.598,21.484,67.383,0
1553806293.539,51.270,24.414,41.992,30.273,75.195,0
1553806293.543,52.734,29.297,42.969,3.418,76.172,0
1553806293.547,57.129,30.273,38.574,-2.930,69.824,0
1553806293.551,44.434,18.066,40.527,19.531,29.297,0
1553806293.555,20.020,17.578,39.551,24.902,46.387,0
1553806293.559,24.414,30.762,39.062,24.414,43.945,0
1553806293.563,29.785,32.715,39.551,33.691,22.949,0
1553806293.567,28.809,32.227,37.598,21.484,22.461,0
1553806293.571,30.762,29.297,34.180,3.418,42.480,0
1553806293.575,21.973,21.484,32.227,15.137,23.926,0
1553806293.578,21.484,20.020,32.715,38.086,-50.781,0
1553806293.582,31.250,21.973,35.156,49.316,0.000,0
1553806293.586,37.598,24.414,37.598,30.273,49.316,0
1553806293.590,40.039,26.367,35.645,17.090,26.367,0
1553806293.594,43.945,28.320,33.691,28.320,-16.602,0
1553806293.598,52.246,30.762,37.109,38.574,-28.320,0
1553806293.602,45.410,27.832,40.527,34.668,5.371,0
1553806293.606,30.273,23.926,39.062,24.902,21.973,0
1553806293.610,35.645,21.484,38.086,25.879,43.945,0
1553806293.614,40.039,15.625,38.574,28.320,55.176,0
1553806293.618,35.645,8.301,42.480,38.574,64.941,0
1553806293.621,51.270,13.672,43.457,56.641,64.941,0
1553806293.625,50.293,21.973,38.574,41.504,60.059,0
1553806293.629,49.316,25.879,38.574,28.320,108.887,0
1553806293.633,41.992,30.273,36.621,32.715,83.496,0
1553806293.637,17.578,27.344,34.668,21.973,15.137,0
1553806293.641,28.320,28.320,36.133,12.695,24.414,0
1553806293.645,31.250,21.973,39.062,20.996,-2.441,0
1553806293.649,18.066,18.066,38.574,33.203,10.742,0
1553806293.653,28.320,28.320,38.086,46.875,0.000,0
1553806293.657,29.785,30.762,35.156,50.781,0.488,0
1553806293.661,22.949,23.438,33.203,41.992,9.277,0
1553806293.664,23.926,21.973,36.133,38.574,39.062,0
1553806293.668,37.109,18.555,41.504,25.391,74.707,0
1553806293.672,49.316,19.043,42.480,38.086,74.707,0
1553806293.676,43.457,24.414,33.203,44.434,44.434,0
1553806293.680,41.992,25.879,25.391,37.109,-25.879,0
1553806293.684,56.152,29.297,31.250,38.574,34.180,0
1553806293.688,54.199,27.344,36.621,39.062,59.082,0
1553806293.692,41.016,21.973,36.133,41.016,73.242,0
1553806293.696,43.945,23.926,33.691,36.133,80.078,0
1553806293.700,52.246,27.832,30.762,31.738,40.039,0
1553806293.703,46.875,22.949,31.738,36.621,19.043,0
1553806293.707,48.828,26.367,38.574,36.621,20.508,0
1553806293.711,43.457,30.273,41.504,30.273,-15.625,0
1553806293.715,12.207,23.926,37.109,36.133,-7.812,0
1553806293.719,20.996,25.879,37.598,25.391,39.551,0
1553806293.723,35.645,29.297,37.598,15.625,68.848,0
1553806293.727,22.949,22.949,35.156,28.320,62.500,0
1553806293.731,20.996,20.996,36.621,45.898,47.363,0
1553806293.735,29.297,20.996,38.574,62.500,0.488,0
1553806293.739,20.020,18.555,39.062,49.805,6.836,0
1553806293.743,37.109,20.508,37.598,23.926,-0.977,0
1553806293.746,49.805,16.602,36.621,24.902,-39.062,0
1553806293.750,22.461,11.230,37.598,29.785,-3.418,0
1553806293.754,26.855,15.137,37.598,35.645,-37.598,0
1553806293.758,40.527,21.973,31.738,27.832,-18.555,0
1553806293.762,35.645,28.809,23.438,19.043,-18.555,0
1553806293.766,31.250,32.715,22.461,27.344,9.766,0
1553806293.770,39.551,32.227,29.785,28.809,110.840,0
1553806293.774,56.641,30.273,30.273,15.137,62.012,0
1553806293.778,57.129,25.879,28.320,4.883,65.918,0
1553806293.782,37.598,24.414,30.273,9.277,39.551,0
1553806293.786,24.902,26.855,29.297,19.531,30.762,0
1553806293.789,37.598,29.785,26.367,31.738,43.945,0
1553806293.793,41.016,33.691,26.367,34.668,18.555,0
1553806293.797,36.621,33.203,34.668,32.227,70.312,0
1553806293.801,39.062,24.902,40.527,30.762,31.738,0
1553806293.805,32.715,20.020,40.527,48.340,-58.594,0
1553806293.809,33.203,21.484,39.551,19.531,-10.742,0
1553806293.813,26.855,20.508,39.551,-5.371,34.180,0
1553806293.817,27.832,23.438,44.922,33.691,4.883,0
1553806293.821,50.781,25.879,45.410,52.246,67.383,0
1553806293.825,44.922,16.602,41.504,61.523,74.707,0
1553806293.828,8.789,5.859,42.480,39.062,41.504,0
1553806293.832,11.230,9.277,39.551,11.230,65.430,0
1553806293.836,15.137,20.996,35.156,30.273,62.012,0
1553806293.840,13.672,27.832,35.645,38.574,54.688,0
1553806293.844,23.438,27.832,33.691,8.301,32.715,0
1553806293.848,22.949,22.461,32.227,-8.301,32.227,0
1553806293.852,16.602,17.578,34.668,-2.930,48.340,0
1553806293.856,9.766,18.066,33.691,2.441,41.016,0
1553806293.860,19.531,24.902,35.645,59.082,74.219,0
1553806293.864,29.297,27.344,39.062,73.730,64.941,0
1553806293.868,38.086,27.344,34.668,22.949,62.988,0
1553806293.871,44.434,26.367,30.273,8.789,63.477,0
1553806293.875,44.922,21.973,26.855,5.859,71.777,0
1553806293.879,48.340,23.438,28.320,29.297,80.566,0
1553806293.883,64.453,26.367,29.297,24.902,80.566,0
1553806293.887,64.941,25.391,30.762,33.691,115.234,0
1553806293.891,48.828,30.273,29.785,32.715,57.129,0
1553806293.895,53.223,29.785,30.273,14.648,6.836,0
1553806293.899,52.734,19.531,37.109,7.324,-14.648,0
1553806293.903,50.293,28.320,36.621,11.719,-18.555,0
1553806293.907,30.273,33.203,37.109,3.906,80.078,0
1553806293.911,19.043,25.879,40.039,26.855,122.070,0
1553806293.914,31.738,26.855,42.969,55.664,85.449,0
1553806293.918,35.156,26.855,41.992,67.871,33.691,0
1553806293.922,31.250,26.855,37.598,43.457,-4.395,0
1553806293.926,43.945,25.391,33.203,-12.695,74.707,0
1553806293.930,29.785,25.391,29.785,-8.301,84.473,0
1553806293.934,9.766,25.879,34.180,10.742,2.441,0
1553806293.938,13.672,28.320,41.016,29.785,-57.129,0
1553806293.942,19.043,30.273,40.039,34.180,-60.547,0
1553806293.946,16.113,31.250,39.062,21.484,-10.742,0
1553806293.950,10.742,25.391,41.016,37.598,33.203,0
1553806293.953,14.648,19.531,42.969,57.617,69.824,0
1553806293.957,9.766,19.531,40.039,26.855,96.191,0
1553806293.961,13.672,19.531,37.598,0.488,28.320,0
1553806293.965,26.367,20.996,29.785,45.898,2.441,0
1553806293.969,24.414,15.625,22.949,62.988,86.426,0
1553806293.973,23.926,19.531,29.785,-7.812,56.641,0
1553806293.977,22.949,26.855,35.156,-17.578,30.273,0
1553806293.981,34.668,21.484,34.180,5.859,57.129,0
1553806293.985,44.434,28.320,27.832,-7.812,19.043,0
1553806293.989,60.547,41.504,25.391,16.113,43.457,0
1553806293.993,64.941,43.945,29.785,49.805,77.148,0
1553806293.996,40.527,33.203,31.738,16.602,95.215,0
1553806294.000,22.461,25.879,26.855,9.766,87.402,0
1553806294.004,32.715,29.785,23.926,30.273,62.012,0
1553806294.008,37.109,25.879,27.344,7.324,42.480,0
1553806294.012,34.668,11.230,29.785,-8.789,1.465,0
1553806294.016,22.461,14.160,31.250,3.418,14.648,0
1553806294.020,25.391,22.461,33.691,32.715,3.906,0
1553806294.024,40.039,21.973,36.133,34.668,47.363,0
1553806294.028,26.855,26.367,38.086,17.090,60.547,0
1553806294.032,21.973,30.762,38.574,31.250,62.988,0
1553806294.036,25.391,29.785,33.203,34.668,48.340,0
1553806294.039,21.973,29.297,30.273,29.785,49.316,0
1553806294.043,24.414,29.785,30.273,14.648,77.637,0
1553806294.047,23.926,31.250,28.320,17.090,61.523,0
1553806294.051,25.391,29.785,29.297,26.367,30.273,0
1553806294.055,24.414,22.949,31.738,30.273,-21.973,0
1553806294.059,21.973,27.832,30.762,34.180,9.766,0
1553806294.063,29.785,30.762,27.832,27.832,48.340,0
1553806294.067,31.250,29.297,28.320,7.812,104.492,0
1553806294.071,22.949,31.250,30.273,-6.348,77.637,0
1553806294.075,17.578,20.996,35.645,13.184,13.672,0
1553806294.078,14.648,14.160,41.016,29.785,33.203,0
1553806294.082,9.277,19.043,36.621,24.414,18.555,0
1553806294.086,9.766,17.578,38.574,17.090,75.195,0
1553806294.090,28.320,17.090,38.086,33.691,129.395,0
1553806294.094,33.203,17.090,32.715,33.203,44.922,0
1553806294.098,26.855,19.531,35.156,31.250,36.133,0
1553806294.102,34.180,19.531,39.062,23.926,52.734,0
1553806294.106,31.250,20.996,33.691,3.906,32.227,0
1553806294.110,23.926,19.531,35.645,3.418,57.617,0
1553806294.114,25.879,16.602,34.180,53.223,50.293,0
1553806294.118,31.250,20.996,30.762,61.523,-3.418,0
1553806294.121,38.574,27.832,32.227,15.625,40.527,0
1553806294.125,37.598,38.086,30.273,8.301,59.570,0
1553806294.129,33.691,40.527,26.367,1.953,37.598,0
1553806294.133,48.828,34.668,26.367,-4.883,31.738,0
1553806294.137,67.383,32.715,27.832,7.812,42.480,0
1553806294.141,58.594,28.320,25.879,20.508,80.566,0
1553806294.145,46.387,24.414,28.320,44.434,65.918,0
1553806294.149,31.250,26.855,32.227,49.805,41.992,0
1553806294.153,25.879,25.879,33.203,5.371,-55.176,0
1553806294.157,30.762,28.320,30.762,-8.301,-22.949,0
1553806294.161,33.691,35.645,29.785,16.113,50.781,0
1553806294.164,30.762,38.086,28.809,20.508,1.953,0
1553806294.168,39.062,32.227,26.855,19.531,-43.945,0
1553806294.172,46.875,23.438,24.902,21.484,-15.625,0
1553806294.176,41.992,22.949,28.809,18.555,42.969,0
1553806294.180,40.039,26.855,31.738,19.531,-16.113,0
1553806294.184,39.062,29.297,30.762,9.766,-18.066,0
1553806294.188,32.227,29.297,31.250,19.531,49.805,0
1553806294.192,40.039,33.691,29.785,21.484,6.836,0
1553806294.196,24.414,30.273,26.855,10.254,-24.902,0
1553806294.200,22.949,22.949,29.785,23.926,-6.348,0
1553806294.203,39.062,29.297,34.668,23.926,46.387,0
1553806294.207,37.109,35.156,35.156,19.531,62.012,0
1553806294.211,32.715,33.691,30.273,13.184,-5.371,0
1553806294.215,41.016,30.762,26.367,8.789,9.766,0
1553806294.219,51.758,29.297,27.344,12.695,17.090,0
1553806294.223,40.039,34.180,27.832,17.090,34.668,0
1553806294.227,37.109,32.227,29.297,17.090,36.133,0
1553806294.231,27.344,33.203,32.227,-5.859,11.230,0
1553806294.235,37.598,36.133,31.250,-14.648,17.578,0
1553806294.239,53.223,35.156,30.273,-2.441,96.191,0
1553806294.243,46.387,33.691,31.250,17.090,80.566,0
1553806294.246,38.574,30.762,32.715,31.250,7.812,0
1553806294.250,39.551,28.809,35.156,31.250,82.031,0
1553806294.254,36.621,27.344,33.691,35.645,81.543,0
1553806294.258,52.734,28.320,34.180,24.902,58.594,0
1553806294.262,53.223,31.738,33.691,10.254,48.340,0
1553806294.266,30.273,23.926,31.738,2.441,49.316,0
1553806294.270,29.297,21.484,29.785,0.488,-10.742,0
1553806294.274,26.855,30.762,28.320,2.441,-23.926,0
1553806294.278,24.902,33.691,29.785,19.531,39.062,0
1553806294.282,28.809,26.367,28.809,27.832,49.316,0
1553806294.286,52.246,26.367,32.715,10.742,17.090,0
1553806294.289,39.062,27.832,35.645,12.695,-0.488,0
1553806294.293,18.555,23.438,36.621,33.203,46.875,0
1553806294.297,34.180,21.484,40.527,41.992,50.293,0
1553806294.301,37.109,26.855,40.527,23.438,20.996,0
1553806294.305,22.949,32.227,38.574,26.855,32.227,0
1553806294.309,13.184,21.973,38.574,33.203,-19.043,0
1553806294.313,64.941,26.367,36.133,8.789,23.926,0
1553806294.317,63.477,31.738,36.133,4.883,63.965,0
1553806294.321,0.977,18.555,33.203,4.395,27.344,0
1553806294.325,18.555,21.484,28.320,1.953,26.855,0
1553806294.328,27.344,30.273,30.762,14.648,3.906,0
1553806294.332,15.625,28.809,31.738,13.184,27.344,0
1553806294.336,14.648,24.414,29.297,4.883,36.133,0
1553806294.340,30.273,23.926,32.715,10.254,3.418,0
1553806294.344,30.762,23.438,37.598,14.160,58.594,0
1553806294.348,30.273,23.926,34.180,10.742,63.477,0
1553806294.352,35.645,20.996,32.227,21.484,-26.855,0
1553806294.356,32.227,20.508,33.203,13.184,-2.930,0
1553806294.360,30.762,22.949,35.645,12.207,-26.855,0
1553806294.364,22.949,24.902,37.598,19.531,-8.301,0
1553806294.368,23.438,25.391,39.551,25.879,35.645,0
1553806294.371,29.297,22.461,43.945,47.363,41.504,0
1553806294.375,20.996,13.672,46.387,47.363,24.902,0
1553806294.379,15.625,12.695,43.945,27.344,83.008,0
1553806294.383,33.691,20.508,41.504,28.809,98.633,0
1553806294.387,37.598,21.484,41.016,29.785,47.852,0
1553806294.391,32.715,16.113,38.086,32.715,62.988,0
1553806294.395,36.621,16.113,43.457,44.434,89.355,0
1553806294.399,13.672,15.625,41.992,39.062,77.148,0
1553806294.403,8.301,12.695,31.738,34.180,50.293,0
1553806294.407,18.066,15.625,34.180,30.273,33.203,0
1553806294.411,20.020,16.113,37.109,13.672,17.578,0
1553806294.414,52.246,21.484,30.762,14.648,39.551,0
1553806294.418,54.688,33.203,29.785,24.902,94.727,0
1553806294.422,23.438,33.203,29.297,29.297,67.871,0
1553806294.426,26.367,23.926,25.879,23.438,77.637,0
1553806294.430,18.555,20.020,26.367,25.879,59.570,0
1553806294.434,10.742,24.902,26.855,32.715,10.254,0
1553806294.438,34.668,24.902,26.367,11.719,-2.930,0
1553806294.442,37.109,20.996,22.949,-7.812,35.645,0
1553806294.446,22.461,18.555,29.297,-5.371,76.660,0
1553806294.450,20.020,20.020,38.086,19.043,53.223,0
1553806294.453,11.719,22.949,35.645,27.344,36.621,0
1553806294.457,21.973,22.949,33.203,41.504,41.016,0
1553806294.461,25.391,21.973,33.691,36.621,42.480,0
1553806294.465,26.367,20.020,35.645,17.090,23.926,0
1553806294.469,29.297,9.766,39.062,18.555,-4.883,0
1553806294.473,20.996,10.254,43.457,28.809,-8.301,0
1553806294.477,17.578,16.113,41.992,51.758,20.020,0
1553806294.481,25.879,19.043,36.133,50.293,36.133,0
1553806294.485,40.527,27.832,37.598,49.316,21.484,0
1553806294.489,41.992,27.344,36.133,37.109,25.391,0
1553806294.493,44.922,22.461,32.227,20.996,53.711,0
1553806294.496,34.668,20.996,31.738,13.672,67.871,0
1553806294.500,25.879,19.043,32.227,16.113,33.691,0
1553806294.504,11.230,14.648,32.715,43.457,38.086,0
1553806294.508,0.488,16.113,27.832,16.113,15.137,0
1553806294.512,12.695,19.043,32.227,-3.906,15.625,0
1553806294.516,23.926,19.531,38.086,21.484,83.984,0
1553806294.520,34.668,18.066,36.621,40.039,72.754,0
1553806294.524,61.035,10.742,35.645,43.457,36.621,0
1553806294.528,72.754,14.648,37.109,34.180,58.105,0
1553806294.532,52.734,23.438,38.574,38.086,38.086,0
1553806294.536,33.691,27.344,29.785,42.969,-35.156,0
1553806294.539,36.621,21.973,24.414,40.527,25.391,0
1553806294.543,41.504,22.461,35.645,43.945,90.820,0
1553806294.547,32.227,30.762,36.621,20.020,31.250,0
1553806294.551,33.203,32.227,27.344,6.348,35.645,0
1553806294.555,65.918,32.715,25.391,45.898,53.223,0
1553806294.559,89.844,40.039,20.508,49.316,2.930,0
1553806294.563,74.707,45.410,18.066,38.574,-5.371,0
1553806294.567,78.613,44.434,18.555,75.195,41.504,0
1553806294.571,82.031,41.992,23.438,93.262,42.480,0
1553806294.575,78.613,40.039,27.344,61.523,29.297,0
1553806294.578,84.961,42.969,30.273,88.867,57.617,0
1553806294.582,90.332,41.016,33.203,106.934,86.914,0
1553806294.586,96.680,35.645,34.180,55.176,79.102,0
1553806294.590,102.539,40.039,29.785,40.039,36.621,0
1553806294.594,89.355,42.480,23.926,62.500,13.184,0
1553806294.598,81.543,41.016,23.926,71.777,56.641,0
1553806294.602,96.191,39.062,27.344,59.570,37.598,0
1553806294.606,84.473,35.645,28.320,79.590,-19.531,0
1553806294.610,58.594,38.086,29.785,75.684,-10.742,0
1553806294.614,59.082,41.992,30.273,51.270,37.598,0
1553806294.618,68.848,44.922,30.762,60.547,46.387,0
1553806294.621,80.566,43.457,34.180,80.566,12.207,0
1553806294.625,91.309,39.551,30.762,113.281,69.336,0
1553806294.629,73.242,42.480,34.180,88.867,84.961,0
1553806294.633,49.805,39.062,34.180,39.062,51.270,0
1553806294.637,55.176,30.273,30.273,31.738,82.031,0
1553806294.641,66.406,28.320,33.691,68.848,30.762,0
1553806294.645,64.453,36.621,33.203,74.707,6.836,0
1553806294.649,60.547,42.480,29.297,35.645,17.090,0
1553806294.653,62.012,39.551,31.738,49.316,31.738,0
1553806294.657,70.801,38.086,35.156,85.938,51.270,0
1553806294.661,81.543,37.598,32.227,77.637,32.227,0
1553806294.664,84.961,40.527,33.691,59.570,60.059,0
1553806294.668,73.730,41.504,33.691,50.293,48.340,0
1553806294.672,79.102,41.016,29.785,36.621,-35.156,0
1553806294.676,80.078,38.086,30.273,36.133,23.926,0
1553806294.680,52.246,30.762,29.297,44.434,81.055,0
1553806294.684,39.551,30.273,29.785,44.434,73.730,0
1553806294.688,44.434,33.691,29.785,29.785,85.449,0
1553806294.692,54.199,33.203,30.273,32.715,71.777,0
1553806294.696,48.340,29.297,29.785,19.043,41.504,0
1553806294.700,37.598,27.344,31.738,0.977,56.641,0
1553806294.703,45.410,27.832,33.691,31.250,13.672,0
1553806294.707,46.387,27.832,31.250,42.480,-22.461,0
1553806294.711,40.527,29.785,34.668,9.277,28.320,0
1553806294.715,40.039,36.133,38.574,7.324,49.805,0
1553806294.719,47.852,41.992,34.668,18.555,53.223,0
1553806294.723,57.129,41.504,33.691,29.297,31.250,0
1553806294.727,53.223,35.156,33.691,29.785,28.320,0
1553806294.731,48.340,28.320,36.133,41.992,59.082,0
1553806294.735,39.551,26.367,36.621,49.316,60.059,0
1553806294.739,34.180,26.367,31.738,22.949,56.641,0
1553806294.743,46.875,29.297,32.227,15.625,38.574,0
1553806294.746,57.129,28.809,31.738,20.508,26.367,0
1553806294.750,47.363,26.855,34.668,32.227,59.570,0
1553806294.754,42.480,33.203,38.574,38.574,42.969,0
1553806294.758,36.133,34.180,35.156,24.414,30.762,0
1553806294.762,31.250,32.227,33.691,3.418,54.688,0
1553806294.766,33.691,35.645,33.203,-3.418,9.277,0
1553806294.770,41.504,37.109,33.691,8.789,29.785,0
1553806294.774,51.270,34.668,32.715,8.789,72.266,0
1553806294.778,44.434,29.785,30.762,18.066,86.914,0
1553806294.782,28.320,26.855,29.785,18.555,79.590,0
1553806294.786,28.809,26.367,33.691,2.441,44.922,0
1553806294.789,25.879,21.973,38.574,-0.977,32.715,0
1553806294.793,21.484,22.461,41.016,9.766,39.062,0
1553806294.797,30.762,21.973,42.969,12.695,69.336,0
1553806294.801,59.082,23.926,43.457,7.812,46.387,0
1553806294.805,58.105,30.273,36.621,16.113,50.293,0
1553806294.809,26.855,20.508,36.621,36.133,58.594,0
1553806294.813,22.949,15.137,41.016,32.715,42.969,0
1553806294.817,44.922,27.832,40.039,16.113,30.273,0
1553806294.821,71.777,34.180,38.574,16.113,-3.906,0
1553806294.825,58.105,33.691,35.645,14.648,38.086,0
1553806294.828,27.344,33.691,37.109,11.719,-10.254,0
1553806294.832,26.367,34.180,41.992,27.344,-21.484,0
1553806294.836,34.180,32.715,41.992,25.391,26.855,0
1553806294.840,29.297,28.809,38.574,3.418,21.973,0
1553806294.844,27.832,30.273,40.039,31.738,27.344,0
1553806294.848,34.668,31.738,41.992,42.480,41.504,0
1553806294.852,50.781,30.273,39.062,20.996,83.984,0
1553806294.856,77.637,28.809,37.109,23.926,52.246,0
1553806294.860,64.941,21.484,39.551,14.648,-14.648,0
1553806294.864,40.039,20.020,41.016,11.230,7.324,0
1553806294.868,26.855,27.344,40.527,40.527,50.293,0
1553806294.871,23.438,29.297,39.062,29.297,29.297,0
1553806294.875,37.598,33.203,34.668,0.488,43.457,0
1553806294.879,32.227,39.062,34.180,7.812,55.664,0
1553806294.883,22.949,32.715,35.645,35.645,18.555,0
1553806294.887,21.484,25.879,32.227,36.133,35.645,0
1553806294.891,36.621,29.785,34.668,11.230,65.918,0
1553806294.895,44.922,30.273,39.551,4.395,83.496,0
1553806294.899,27.832,25.391,38.574,10.742,58.594,0
1553806294.903,14.648,23.926,38.574,10.254,14.648,0
1553806294.907,25.391,24.414,41.016,21.484,25.879,0
1553806294.911,45.898,25.391,43.457,65.430,103.027,0
1553806294.914,53.711,33.691,45.410,72.266,108.398,0
1553806294.918,31.738,23.438,44.922,27.832,46.387,0
1553806294.922,24.902,9.766,37.598,-16.113,28.809,0
1553806294.926,41.504,13.184,38.574,-18.555,20.996,0
1553806294.930,24.902,16.113,42.480,-6.348,-2.441,0
1553806294.934,25.879,20.020,34.180,-7.812,42.480,0
1553806294.938,35.645,21.484,36.621,4.395,14.648,0
1553806294.942,29.297,14.648,41.992,36.621,17.090,0
1553806294.946,28.809,3.906,42.969,42.969,52.246,0
1553806294.950,43.457,3.906,45.410,31.738,19.043,0
1553806294.953,58.594,10.742,43.945,26.855,-6.348,0
1553806294.957,55.176,15.625,42.969,29.297,0.000,0
1553806294.961,54.688,22.461,46.387,48.340,-0.488,0
1553806294.965,57.617,24.902,43.945,60.059,-1.465,0
1553806294.969,59.570,22.949,36.133,51.270,-24.902,0
1553806294.973,57.617,20.996,34.668,17.090,5.859,0
1553806294.977,64.453,20.996,33.203,6.836,52.734,0
1553806294.981,67.871,25.879,33.691,26.855,2.441,0
1553806294.985,72.266,33.203,40.527,37.598,-3.418,0
1553806294.989,67.871,32.227,40.039,49.805,4.395,0
1553806294.993,56.641,33.203,38.574,53.711,-6.836,0
1553806294.996,74.219,38.574,42.969,38.086,43.945,0
1553806295.000,75.195,37.598,35.156,41.992,83.008,0
1553806295.004,39.062,31.738,32.715,26.855,42.969,0
1553806295.008,21.484,19.531,40.039,26.367,38.086,0
1553806295.012,33.203,18.066,38.574,45.410,41.016,0
1553806295.016,45.898,22.949,38.086,35.156,-3.906,0
1553806295.020,54.199,23.438,37.109,11.230,-1.953,0
1553806295.024,77.148,22.949,31.250,12.207,56.641,0
1553806295.028,92.773,30.273,31.738,33.691,50.293,0
1553806295.032,54.688,30.762,37.109,41.992,53.711,0
1553806295.036,18.555,23.438,36.621,26.855,64.941,0
1553806295.039,23.438,24.414,35.645,29.297,40.527,0
1553806295.043,40.527,23.926,38.086,49.316,46.875,0
1553806295.047,38.574,26.367,36.133,64.453,73.730,0
1553806295.051,42.480,28.320,33.691,47.852,29.297,0
1553806295.055,67.383,25.879,36.133,13.672,-12.695,0
1553806295.059,62.012,23.438,40.527,12.695,11.719,0
1553806295.063,56.641,14.648,42.969,24.902,21.484,0
1553806295.067,60.059,10.254,43.945,39.551,61.035,0
1553806295.071,40.527,16.602,42.969,44.922,32.227,0
1553806295.075,45.410,23.438,41.016,51.270,5.371,0
1553806295.078,49.805,26.367,47.363,68.359,52.734,0
1553806295.082,28.320,32.715,49.316,61.035,93.750,0
1553806295.086,13.184,38.574,41.504,11.230,55.176,0
1553806295.090,24.902,36.133,34.668,-14.160,5.371,0
1553806295.094,33.203,32.227,31.250,16.113,28.320,0
1553806295.098,27.344,32.715,26.855,22.461,25.391,0
1553806295.102,28.809,33.203,24.414,35.156,38.086,0
1553806295.106,50.781,35.156,27.344,74.219,41.504,0
1553806295.110,56.641,37.598,29.297,30.762,8.301,0
1553806295.114,37.109,31.738,31.250,-20.020,54.688,0
1553806295.118,51.758,25.879,31.738,-5.371,15.137,0
1553806295.121,62.500,32.715,32.227,10.254,-11.719,0
1553806295.125,55.664,37.109,31.738,20.508,44.922,0
1553806295.129,58.105,35.156,30.762,46.875,106.934,0
1553806295.133,55.664,36.133,28.320,54.688,149.414,0
1553806295.137,46.387,37.598,26.367,39.551,71.777,0
1553806295.141,51.758,31.250,26.855,36.133,14.648,0
1553806295.145,49.805,33.203,26.855,32.715,58.594,0
1553806295.149,54.199,39.062,29.297,36.621,47.363,0
1553806295.153,73.730,39.551,28.320,36.621,60.059,0
1553806295.157,40.039,34.668,28.320,13.672,62.500,0
1553806295.161,23.438,26.855,32.227,-4.883,38.574,0
1553806295.164,39.551,25.391,37.109,15.137,40.527,0
1553806295.168,33.203,28.320,40.039,40.039,41.504,0
1553806295.172,36.133,30.273,38.574,35.645,64.453,0
1553806295.176,46.875,30.762,40.527,47.852,26.855,0
1553806295.180,77.637,36.133,40.039,71.289,-3.906,0
1553806295.184,83.984,36.133,31.738,35.645,39.062,0
1553806295.188,48.340,28.809,32.227,10.742,63.477,0
1553806295.192,22.461,28.809,36.133,28.320,41.016,0
1553806295.196,34.668,29.297,34.668,32.715,35.156,0
1553806295.200,55.664,31.738,33.691,39.062,20.020,0
1553806295.203,45.410,34.668,33.691,40.039,7.812,0
1553806295.207,47.363,28.320,36.621,29.297,-2.930,0
1553806295.211,44.434,27.344,33.691,7.324,12.207,0
1553806295.215,59.570,29.785,35.156,4.395,76.660,0
1553806295.219,74.219,33.203,35.645,17.578,44.434,0
1553806295.223,59.570,27.832,31.738,30.762,59.082,0
1553806295.227,41.504,22.949,35.156,36.621,65.918,0
1553806295.231,21.484,35.156,40.527,33.691,-41.504,0
1553806295.235,22.461,36.621,41.504,19.043,-11.719,0
1553806295.239,34.180,33.691,41.016,11.230,7.812,0
1553806295.243,27.344,34.668,40.039,25.879,17.578,0
1553806295.246,34.668,30.762,38.574,21.973,57.129,0
1553806295.250,47.852,30.273,42.480,37.109,28.809,0
1553806295.254,38.574,30.273,44.922,51.758,35.645,0
1553806295.258,40.527,29.785,42.969,14.160,44.434,0
1553806295.262,42.969,28.320,40.039,0.000,24.902,0
1553806295.266,30.273,21.484,39.551,22.949,-22.949,0
1553806295.270,22.949,12.695,39.551,16.113,1.465,0
1553806295.274,25.391,17.090,37.109,2.441,75.195,0
1553806295.278,41.504,28.809,31.738,1.465,42.480,0
1553806295.282,53.223,37.109,30.762,20.020,12.695,0
1553806295.286,34.180,38.574,29.297,21.484,37.109,0
1553806295.289,26.367,37.598,26.855,10.742,18.555,0
1553806295.293,20.996,33.691,29.297,30.762,-21.484,0
1553806295.297,30.273,31.738,28.809,23.926,57.617,0
1553806295.301,61.035,36.621,26.367,6.348,83.496,0
1553806295.305,42.480,35.156,28.809,26.367,-8.301,0
1553806295.309,20.020,30.273,33.691,11.719,-3.906,0
1553806295.313,27.832,29.785,35.645,7.324,102.539,0
1553806295.317,27.344,29.297,35.156,32.715,105.469,0
1553806295.321,38.574,25.879,34.668,14.648,61.035,0
1553806295.325,52.734,26.367,35.645,18.555,19.531,0
1553806295.328,43.945,26.367,37.598,17.090,29.785,0
1553806295.332,32.227,21.484,42.480,-1.465,110.840,0
1553806295.336,36.133,17.578,40.039,22.949,128.418,0
1553806295.340,42.480,19.043,35.645,22.461,75.684,0
1553806295.344,33.691,26.367,35.156,16.602,69.336,0
1553806295.348,28.809,31.738,37.109,36.133,51.270,0
1553806295.352,21.484,32.715,35.645,16.113,52.734,0
1553806295.356,18.555,30.273,32.715,-21.973,91.309,0
1553806295.360,18.066,26.855,32.715,-13.672,56.641,0
1553806295.364,25.879,23.438,35.645,-5.371,22.461,0
1553806295.368,33.203,27.832,35.645,-0.977,-20.508,0
1553806295.371,21.973,30.273,31.250,4.395,35.156,0
1553806295.375,34.668,27.344,28.809,6.836,93.750,0
1553806295.379,37.109,29.785,30.762,6.836,95.703,0
1553806295.383,15.137,30.762,33.203,6.348,94.238,0
1553806295.387,37.109,29.785,32.227,-2.441,37.109,0
1553806295.391,34.668,24.414,32.227,-5.371,26.855,0
1553806295.395,10.742,19.531,31.738,17.578,33.691,0
1553806295.399,13.184,21.484,33.203,8.789,48.828,0
1553806295.403,-1.465,20.996,37.598,2.930,60.059,0
1553806295.407,2.441,18.066,39.551,14.648,62.988,0
1553806295.411,34.180,16.602,37.598,4.395,70.312,0
1553806295.414,33.691,18.066,35.156,1.465,59.570,0
1553806295.418,12.207,18.555,34.180,6.836,26.367,0
1553806295.422,3.418,18.066,34.668,-23.438,1.465,0
1553806295.426,9.277,20.508,36.621,13.672,30.273,0
1553806295.430,15.625,19.043,38.086,34.668,83.496,0
1553806295.434,17.578,21.973,38.086,-1.953,76.172,0
1553806295.438,32.227,25.391,37.109,-16.602,18.555,0
1553806295.442,43.945,26.367,36.621,12.695,-0.488,0
1553806295.446,28.320,27.344,38.086,22.949,23.926,0
1553806295.450,13.184,20.508,37.109,-19.531,56.641,0
1553806295.453,20.508,16.602,37.598,-20.508,23.926,0
1553806295.457,26.367,20.020,40.527,21.484,9.766,0
1553806295.461,54.688,24.414,32.715,47.852,45.410,0
1553806295.465,55.176,22.461,33.203,32.227,1.953,0
1553806295.469,20.020,7.812,47.852,-15.625,16.602,0
1553806295.473,20.508,1.465,49.316,-18.555,40.527,0
1553806295.477,15.625,3.418,49.316,13.184,-36.621,0
1553806295.481,7.324,3.418,50.293,7.324,-37.109,0
1553806295.485,3.418,-4.395,50.293,0.000,22.949,0
1553806295.489,11.719,0.488,56.152,4.395,43.457,0
1553806295.493,21.484,-2.441,56.152,-2.930,41.016,0
1553806295.496,21.484,-17.090,51.270,-6.348,43.457,0
1553806295.500,36.621,9.277,43.457,7.324,43.945,0
1553806295.504,26.367,27.832,37.598,42.480,73.730,0
1553806295.508,7.324,21.973,36.621,15.625,46.875,0
1553806295.512,16.602,21.973,39.062,25.879,7.812,0
1553806295.516,14.648,20.020,41.504,50.293,51.270,0
1553806295.520,14.160,17.090,42.969,7.812,25.391,0
1553806295.524,51.270,21.973,43.457,3.418,-36.133,0
1553806295.528,69.336,21.973,46.387,6.836,0.977,0
1553806295.532,49.316,21.484,45.410,21.484,55.664,0
1553806295.536,34.668,22.461,39.062,33.203,19.043,0
1553806295.539,23.926,22.949,38.086,10.254,13.184,0
1553806295.543,37.598,20.996,40.527,44.434,54.199,0
1553806295.547,48.828,19.043,41.992,83.496,60.059,0
1553806295.551,32.715,16.602,39.551,27.832,54.688,0
1553806295.555,30.762,11.230,38.574,33.203,59.570,0
1553806295.559,49.316,10.742,36.133,14.160,24.902,0
1553806295.563,54.199,14.648,36.133,-4.883,19.531,0
1553806295.567,41.504,18.066,35.156,57.129,71.289,0
1553806295.571,23.926,23.926,31.250,47.852,37.109,0
1553806295.575,3.418,23.438,30.273,20.508,-16.602,0
1553806295.578,35.156,17.090,31.738,56.152,36.621,0
1553806295.582,44.434,18.555,35.645,139.648,78.125,0
1553806295.586,27.344,21.484,35.156,81.055,89.355,0
1553806295.590,33.203,24.902,26.855,-45.898,39.062,0
1553806295.594,45.898,28.809,25.391,-69.336,-38.086,0
1553806295.598,65.918,25.879,30.273,-30.273,1.465,0
1553806295.602,36.133,19.043,24.414,-27.832,14.648,0
1553806295.606,17.090,16.602,21.973,-43.457,22.461,0
1553806295.610,19.043,21.484,22.461,31.250,49.316,0
1553806295.614,3.418,21.484,19.531,42.969,54.688,0
1553806295.618,33.203,23.926,15.625,-7.324,23.438,0
1553806295.621,45.898,31.738,7.812,-3.906,-24.902,0
1553806295.625,-7.812,31.250,9.277,11.719,17.578,0
1553806295.629,-6.348,24.902,11.230,5.859,67.871,0
1553806295.633,2.930,17.578,6.836,0.000,66.406,0
1553806295.637,-10.254,18.066,6.348,9.277,58.105,0
1553806295.641,0.488,20.020,1.465,-28.809,39.062,0
1553806295.645,19.531,18.066,-2.441,-7.324,-16.113,0
1553806295.649,35.156,16.113,-1.465,-17.578,2.930,0
1553806295.653,25.391,13.672,-3.418,-57.617,11.230,0
1553806295.657,-10.742,7.324,-8.301,-59.082,26.367,0
1553806295.661,-22.949,1.953,-6.836,-32.715,59.570,0
1553806295.664,-18.555,2.441,-3.418,2.441,110.840,0
1553806295.668,-14.648,3.418,-6.836,-9.277,95.215,0
1553806295.672,-10.742,-4.395,-11.230,-12.695,41.992,0
1553806295.676,2.441,-6.348,-12.207,8.789,34.180,0
1553806295.680,9.766,-1.953,-7.324,-2.441,25.391,0
1553806295.684,2.930,3.418,-8.301,-14.160,53.223,0
1553806295.688,7.812,6.836,-11.719,-6.836,33.691,0
1553806295.692,26.367,5.371,-11.230,18.555,70.312,0
1553806295.696,46.387,6.836,-12.695,52.734,43.457,0
1553806295.700,53.711,9.277,-18.066,49.316,-13.184,0
1553806295.703,56.152,9.766,-30.273,46.875,30.273,0
1553806295.707,73.730,11.719,-35.156,70.801,63.477,0
1553806295.711,79.590,11.719,-30.762,93.262,11.719,0
1553806295.715,76.660,14.648,-31.738,88.379,-26.367,0
1553806295.719,91.309,19.531,-33.691,64.941,47.852,0
1553806295.723,108.398,16.602,-25.391,71.777,39.551,0
1553806295.727,96.191,14.648,-21.973,80.078,-0.488,0
1553806295.731,99.121,17.578,-27.344,87.402,44.434,0
1553806295.735,93.750,16.113,-27.344,97.168,41.016,0
1553806295.739,87.891,11.230,-22.949,108.398,-8.789,0
1553806295.743,98.633,16.113,-19.531,118.164,6.348,0
1553806295.746,92.773,18.555,-15.137,112.793,25.391,0
1553806295.750,84.473,17.090,-13.184,94.238,48.340,0
1553806295.754,88.867,18.066,-9.277,103.027,31.738,0
1553806295.758,98.145,17.578,-4.883,110.840,-0.977,0
1553806295.762,81.543,20.020,-7.324,91.797,14.648,0
1553806295.766,69.336,26.367,-9.766,130.859,30.273,0
1553806295.770,69.336,28.320,-6.836,135.742,44.434,0
1553806295.774,67.871,24.902,-8.301,53.711,21.973,0
1553806295.778,61.035,23.438,-13.672,21.484,-6.836,0
1553806295.782,47.363,25.879,-11.230,40.527,8.301,0
1553806295.786,53.711,27.344,-1.953,51.758,43.945,0
1553806295.789,62.012,19.531,5.371,75.684,12.695,0
1553806295.793,59.570,14.648,7.324,91.309,47.852,0
1553806295.797,62.988,22.949,7.812,51.758,76.660,0
1553806295.801,56.641,24.414,15.137,39.551,23.926,0
1553806295.805,28.809,24.902,17.090,41.504,20.508,0
1553806295.809,13.672,25.391,12.695,43.945,10.254,0
1553806295.813,31.738,23.438,17.578,31.738,44.434,0
1553806295.817,64.453,26.367,22.461,16.113,41.016,0
1553806295.821,68.848,20.508,21.973,30.273,39.062,0
1553806295.825,47.852,15.625,25.391,54.688,63.477,0
1553806295.828,49.316,20.508,27.344,59.082,13.672,0
1553806295.832,50.781,21.973,21.484,31.738,25.879,0
1553806295.836,39.551,14.648,19.043,58.594,44.434,0
1553806295.840,34.180,11.719,16.113,100.586,70.312,0
1553806295.844,40.039,23.926,6.836,37.109,88.867,0
1553806295.848,38.574,31.738,7.324,7.812,25.879,0
1553806295.852,34.180,31.738,15.137,12.207,52.246,0
1553806295.856,24.414,28.809,17.578,11.230,-14.648,0
1553806295.860,24.414,30.273,18.066,10.254,-53.223,0
1553806295.864,29.297,33.691,17.578,-3.906,-15.625,0
1553806295.868,14.648,25.391,18.555,2.441,-19.531,0
1553806295.871,0.000,18.066,18.555,10.742,9.277,0
1553806295.875,5.859,21.484,23.438,35.156,32.227,0
1553806295.879,17.090,21.973,28.809,33.691,56.641,0
1553806295.883,36.133,18.555,26.367,23.926,40.527,0
1553806295.887,37.109,18.555,27.344,52.734,-25.391,0
1553806295.891,20.020,20.996,29.785,56.641,-31.738,0
1553806295.895,18.555,20.508,27.832,33.691,-35.156,0
1553806295.899,28.320,23.926,24.414,20.996,20.508,0
1553806295.903,31.250,25.879,20.508,-4.395,71.289,0
1553806295.907,23.926,16.602,24.902,-10.254,19.043,0
1553806295.911,20.020,19.043,34.180,-1.465,30.273,0
1553806295.914,13.672,22.949,31.250,16.113,84.473,0
1553806295.918,11.230,20.020,25.879,14.648,48.828,0
1553806295.922,14.648,23.926,28.809,-9.277,4.395,0
1553806295.926,18.066,24.902,32.227,-5.859,58.105,0
1553806295.930,30.273,20.508,33.203,34.180,10.254,0
1553806295.934,25.879,14.648,41.016,70.801,-12.695,0
1553806295.938,9.766,17.090,39.062,29.297,36.621,0
1553806295.942,7.324,27.832,27.832,-23.926,78.613,0
1553806295.946,3.418,31.738,27.344,-23.926,41.504,0
1553806295.950,5.859,37.598,22.949,0.488,-39.551,0
1553806295.953,24.902,40.527,20.020,1.465,-17.090,0
1553806295.957,27.832,36.621,20.996,4.395,6.836,0
1553806295.961,18.555,37.598,23.438,21.484,38.086,0
1553806295.965,16.602,39.062,26.367,37.598,54.199,0
1553806295.969,32.227,33.691,23.926,16.113,39.062,0
1553806295.973,31.250,29.297,22.461,-14.160,5.859,0
1553806295.977,13.672,29.297,24.902,-5.371,-24.414,0
1553806295.981,16.602,30.273,27.832,19.531,34.668,0
1553806295.985,27.344,32.715,29.297,31.250,100.098,0
1553806295.989,19.531,36.621,28.809,21.484,52.246,0
1553806295.993,32.227,35.156,30.273,32.715,28.809,0
1553806295.996,47.852,35.156,28.320,29.785,60.059,0
1553806296.000,36.133,36.133,22.949,5.371,70.801,0
1553806296.004,34.668,38.086,30.273,8.301,76.660,0
1553806296.008,24.902,37.109,33.203,9.277,23.438,0
1553806296.012,14.160,31.738,27.832,11.719,9.277,0
1553806296.016,13.672,28.320,30.762,29.785,35.156,0
1553806296.020,21.484,26.367,33.203,53.223,12.207,0
1553806296.024,23.438,27.832,31.250,34.668,69.824,0
1553806296.028,38.574,30.273,31.738,-4.395,80.566,0
1553806296.032,49.805,30.762,32.715,18.066,20.508,0
1553806296.036,43.457,34.180,31.250,30.273,40.039,0
1553806296.039,25.879,35.645,30.273,19.531,-12.695,0
1553806296.043,6.348,33.203,31.738,19.531,22.949,0
1553806296.047,13.672,34.668,33.691,-0.977,87.891,0
1553806296.051,13.672,36.621,33.203,-0.977,41.992,0
1553806296.055,15.137,37.109,29.785,20.508,62.500,0
1553806296.059,24.414,35.156,28.809,15.137,73.242,0
1553806296.063,30.273,35.156,29.785,20.020,72.266,0
1553806296.067,43.945,37.598,31.250,28.809,62.012,0
1553806296.071,50.293,33.203,33.203,50.293,26.367,0
1553806296.075,41.992,28.809,31.250,53.223,15.137,0
1553806296.078,22.949,32.715,30.762,18.066,36.621,0
1553806296.082,7.812,35.645,31.738,21.973,-2.441,0
1553806296.086,22.949,34.668,27.832,32.227,10.742,0
1553806296.090,22.949,34.180,26.367,17.090,17.090,0
1553806296.094,21.484,32.227,28.320,27.344,11.230,0
1553806296.098,31.250,29.785,28.809,30.273,14.648,0
1553806296.102,62.500,32.715,30.273,27.832,31.738,0
1553806296.106,54.199,36.621,31.738,40.527,34.668,0
1553806296.110,-5.371,33.691,33.691,14.648,36.621,0
1553806296.114,-4.883,26.855,35.645,5.371,54.688,0
1553806296.118,4.395,24.414,35.156,33.691,49.805,0
1553806296.121,12.695,26.367,32.227,22.461,82.520,0
1553806296.125,38.086,32.715,30.762,-3.418,68.359,0
1553806296.129,35.645,33.203,30.273,3.418,33.691,0
1553806296.133,23.926,31.250,32.715,9.766,33.691,0
1553806296.137,20.996,34.668,34.180,27.344,41.504,0
1553806296.141,-1.953,31.250,37.598,42.969,47.363,0
1553806296.145,-2.930,27.832,41.016,43.945,31.250,0
1553806296.149,9.766,29.785,42.480,7.812,41.992,0
1553806296.153,15.625,31.250,37.109,-33.203,62.988,0
1553806296.157,20.020,26.367,27.344,-3.418,35.645,0
1553806296.161,32.227,15.625,28.809,20.020,37.109,0
1553806296.164,28.809,18.555,35.156,20.996,59.570,0
1553806296.168,24.414,24.902,34.668,27.344,33.203,0
1553806296.172,36.621,28.320,31.250,30.273,30.273,0
1553806296.176,46.387,34.668,31.738,13.672,40.039,0
1553806296.180,38.086,39.551,35.645,16.602,12.695,0
1553806296.184,-1.953,36.133,38.574,35.156,13.672,0
1553806296.188,-3.906,29.297,35.645,27.344,13.672,0
1553806296.192,20.508,25.879,35.645,33.691,38.574,0
1553806296.196,31.250,29.297,36.621,16.113,31.738,0
1553806296.200,28.320,32.227,35.645,-10.254,11.230,0
1553806296.203,20.020,28.320,34.668,-10.742,4.883,0
1553806296.207,20.996,23.926,35.156,7.812,-4.883,0
1553806296.211,20.020,27.832,39.062,29.785,12.207,0
1553806296.215,36.133,31.250,37.109,12.695,3.906,0
1553806296.219,51.758,29.297,32.715,5.371,34.668,0
1553806296.223,28.320,27.832,37.109,4.883,66.406,0
1553806296.227,14.648,25.391,40.039,-3.418,46.387,0
1553806296.231,7.324,29.297,40.527,28.809,41.992,0
1553806296.235,2.930,36.133,38.086,41.992,51.270,0
1553806296.239,12.207,31.250,36.133,1.465,47.363,0
1553806296.243,13.184,25.391,38.086,-11.230,60.547,0
1553806296.246,31.250,30.273,38.574,15.137,46.875,0
1553806296.250,30.273,36.133,37.109,9.766,7.812,0
1553806296.254,18.066,31.738,37.109,0.000,39.062,0
1553806296.258,17.578,22.461,40.039,29.297,33.691,0
1553806296.262,9.766,18.066,41.504,51.270,33.203,0
1553806296.266,19.043,22.461,42.969,36.621,39.551,0
1553806296.270,33.691,34.668,36.133,-17.578,-14.160,0
1553806296.274,44.434,40.039,32.227,-37.109,47.852,0
1553806296.278,32.227,33.691,31.738,-11.230,116.211,0
1553806296.282,13.184,27.344,26.367,-8.789,112.305,0
1553806296.286,23.926,26.367,30.273,5.371,93.750,0
1553806296.289,36.621,28.320,36.133,28.809,26.855,0
1553806296.293,54.199,33.691,36.621,44.922,20.508,0
1553806296.297,29.785,30.762,33.691,36.133,41.504,0
1553806296.301,-0.488,29.297,32.715,-6.836,44.434,0
1553806296.305,11.719,21.484,37.109,-7.812,46.387,0
1553806296.309,22.949,7.812,40.527,-2.930,33.691,0
1553806296.313,28.809,5.859,41.016,7.812,2.441,0
1553806296.317,24.414,11.719,42.969,51.758,3.418,0
1553806296.321,19.531,25.391,44.434,50.293,28.809,0
1553806296.325,27.832,34.180,41.016,9.766,37.598,0
1553806296.328,35.156,32.715,35.645,2.441,59.082,0
1553806296.332,44.922,32.227,35.645,-5.859,52.734,0
1553806296.336,46.875,30.273,35.645,3.418,21.484,0
1553806296.340,33.691,25.391,34.180,5.371,60.059,0
1553806296.344,33.203,28.809,34.668,1.465,46.875,0
1553806296.348,49.316,35.645,29.297,15.625,3.906,0
1553806296.352,54.199,34.668,26.855,7.324,10.254,0
1553806296.356,20.996,29.297,29.297,-9.766,43.457,0
1553806296.360,6.836,34.180,31.250,14.648,36.133,0
1553806296.364,34.180,34.180,32.227,15.625,46.387,0
1553806296.368,29.785,24.414,27.832,-16.113,28.809,0
1553806296.371,28.809,18.066,34.180,4.395,6.836,0
1553806296.375,27.344,19.043,41.504,1.465,56.641,0
1553806296.379,8.789,29.785,32.227,-8.301,29.297,0
1553806296.383,13.184,34.668,26.367,31.738,-38.574,0
1553806296.387,33.203,33.691,28.320,2.441,-17.090,0
1553806296.391,34.180,39.062,22.461,-39.551,13.184,0
1553806296.395,41.016,43.457,21.484,-18.555,44.922,0
1553806296.399,52.246,40.527,29.297,-0.488,47.363,0
1553806296.403,43.457,36.133,29.297,-0.977,19.043,0
1553806296.407,34.180,32.715,27.344,0.488,-14.160,0
1553806296.411,24.902,31.738,28.320,11.719,5.859,0
1553806296.414,24.902,26.367,29.785,21.973,55.664,0
1553806296.418,42.969,23.926,36.621,0.488,32.715,0
1553806296.422,52.246,31.250,37.109,-28.809,-32.227,0
1553806296.426,38.086,29.785,33.691,-30.273,1.953,0
1553806296.430,33.691,28.320,33.691,-22.949,57.129,0
1553806296.434,46.387,31.250,31.250,-35.156,35.645,0
1553806296.438,33.203,25.879,32.227,-32.227,26.855,0
1553806296.442,15.625,20.996,33.691,-0.977,18.555,0
1553806296.446,26.367,20.996,31.250,-7.324,-11.230,0
1553806296.450,25.879,28.809,28.809,-35.156,-12.695,0
1553806296.453,35.645,31.738,29.297,-36.133,49.805,0
1553806296.457,39.062,24.902,29.785,-19.531,66.895,0
1553806296.461,27.832,24.902,31.738,1.465,20.996,0
1553806296.465,24.902,28.320,34.668,-7.324,13.184,0
1553806296.469,29.297,27.344,32.715,-35.156,25.879,0
1553806296.473,40.527,26.367,32.227,-26.367,69.336,0
1553806296.477,39.551,24.414,36.621,-12.695,92.773,0
1553806296.481,41.992,14.648,37.598,-20.508,75.684,0
1553806296.485,31.738,10.742,36.133,-13.672,53.223,0
1553806296.489,17.578,17.578,36.133,3.906,3.906,0
1553806296.493,14.648,21.484,34.180,6.836,-9.277,0
1553806296.496,12.695,29.785,30.273,-0.977,-29.785,0
1553806296.500,35.645,35.156,31.738,22.949,-25.879,0
1553806296.504,50.293,35.645,31.250,21.484,6.348,0
1553806296.508,28.809,32.715,25.879,-4.395,21.484,0
1553806296.512,29.297,29.297,30.273,-5.859,21.484,0
1553806296.516,34.668,23.438,37.109,-4.395,49.316,0
1553806296.520,26.367,19.043,39.062,6.348,69.824,0
1553806296.524,29.297,21.484,36.133,4.883,41.504,0
1553806296.528,25.391,22.949,32.715,1.953,18.555,0
1553806296.532,27.832,23.926,32.227,11.230,13.672,0
1553806296.536,49.805,23.926,30.273,25.879,-28.320,0
1553806296.539,68.359,23.438,29.785,21.484,-11.230,0
1553806296.543,54.688,18.555,33.691,22.461,63.477,0
1553806296.547,38.086,15.625,35.156,40.039,55.176,0
1553806296.551,20.508,17.090,32.227,33.203,39.062,0
1553806296.555,7.812,18.555,33.691,33.203,33.203,0
1553806296.559,2.930,17.090,35.645,39.551,5.859,0
1553806296.563,4.395,18.066,33.691,11.719,34.668,0
1553806296.567,10.742,24.414,34.180,8.789,7.812,0
1553806296.571,18.066,24.902,31.250,24.414,-35.156,0
1553806296.575,37.109,20.508,29.785,36.133,-2.930,0
1553806296.578,41.016,18.555,31.250,56.641,96.680,0
1553806296.582,40.039,22.949,30.273,26.855,73.730,0
1553806296.586,44.922,32.715,24.414,-18.066,33.203,0
1553806296.590,43.945,34.668,20.996,-2.930,17.090,0
1553806296.594,41.504,29.785,23.438,2.930,3.906,0
1553806296.598,55.176,29.297,20.508,8.789,48.340,0
1553806296.602,62.500,36.621,17.090,25.879,79.102,0
1553806296.606,60.547,33.203,27.344,21.484,12.207,0
1553806296.610,45.410,20.508,38.574,2.441,63.477,0
1553806296.614,23.926,13.184,38.086,-3.418,105.957,0
1553806296.618,17.090,8.789,40.039,35.645,59.082,0
1553806296.621,25.391,6.836,42.969,58.105,30.762,0
1553806296.625,30.273,4.395,42.969,43.945,16.602,0
1553806296.629,37.109,5.371,40.527,5.371,18.555,0
1553806296.633,29.785,7.812,32.227,5.859,0.977,0
1553806296.637,28.320,4.883,29.297,31.250,49.316,0
1553806296.641,28.809,-1.465,37.598,15.137,87.402,0
1553806296.645,9.277,5.371,41.504,29.785,60.547,0
1553806296.649,8.789,12.695,42.480,47.363,34.180,0
1553806296.653,16.602,12.207,38.086,35.645,83.008,0
1553806296.657,20.996,9.277,35.156,22.461,128.906,0
1553806296.661,39.551,8.301,33.691,30.762,27.344,0
1553806296.664,42.969,14.648,28.320,39.551,-18.555,0
1553806296.668,33.691,17.578,26.855,35.156,58.594,0
1553806296.672,33.691,21.484,26.855,47.363,10.742,0
1553806296.676,28.809,22.949,28.320,44.434,-14.648,0
1553806296.680,29.785,21.484,32.715,23.926,33.691,0
1553806296.684,31.738,16.602,35.156,21.484,56.152,0
1553806296.688,40.527,15.137,38.086,39.062,36.133,0
1553806296.692,51.758,22.949,34.180,44.434,28.320,0
1553806296.696,49.316,25.391,32.227,32.227,-12.207,0
1553806296.700,43.945,21.973,35.645,20.996,-15.137,0
1553806296.703,46.387,20.996,34.180,17.090,26.367,0
1553806296.707,32.715,18.066,30.273,22.461,10.742,0
1553806296.711,26.367,19.531,30.762,20.996,21.484,0
1553806296.715,34.668,23.438,32.715,31.738,78.613,0
1553806296.719,48.340,17.090,31.250,35.645,44.922,0
1553806296.723,58.105,13.672,33.691,47.852,-8.789,0
1553806296.727,32.227,16.113,37.109,62.012,57.129,0
1553806296.731,16.113,16.113,37.598,5.371,58.105,0
1553806296.735,25.879,19.043,39.062,-13.672,3.906,0
1553806296.739,31.250,18.066,37.598,15.625,37.598,0
1553806296.743,39.551,13.184,35.156,41.504,3.906,0
1553806296.746,26.367,16.113,36.621,58.105,6.836,0
1553806296.750,21.484,21.973,36.133,44.434,44.922,0
1553806296.754,22.461,24.414,35.156,89.355,62.012,0
1553806296.758,15.137,20.996,36.621,114.258,97.656,0
1553806296.762,20.996,23.438,35.645,23.926,80.078,0
1553806296.766,36.621,29.297,34.668,-2.930,63.477,0
1553806296.770,53.711,24.902,31.250,26.855,56.641,0
1553806296.774,51.758,17.578,29.785,35.156,61.035,0
1553806296.778,33.691,17.090,30.273,60.059,23.926,0
1553806296.782,12.207,22.949,26.855,77.637,51.758,0
1553806296.786,22.949,26.367,30.273,49.805,92.285,0
1553806296.789,47.363,26.855,32.227,38.086,39.062,0
1553806296.793,47.363,28.809,31.250,41.992,11.230,0
1553806296.797,49.316,30.273,33.203,62.012,-0.977,0
1553806296.801,59.082,23.926,33.203,51.758,-3.418,0
1553806296.805,54.199,19.043,32.715,25.879,59.570,0
1553806296.809,44.434,22.461,32.715,13.184,124.512,0
1553806296.813,28.320,28.320,32.715,35.645,51.758,0
1553806296.817,15.137,26.855,36.133,57.617,-17.090,0
1553806296.821,25.391,16.602,39.551,39.551,15.137,0
1553806296.825,25.879,11.230,43.457,31.250,7.812,0
1553806296.828,13.184,11.230,46.387,31.738,-8.789,0
1553806296.832,32.715,19.531,44.434,32.715,11.719,0
1553806296.836,50.293,32.715,37.109,40.039,44.434,0
1553806296.840,39.062,22.949,35.156,51.758,50.781,0
1553806296.844,25.391,13.672,37.109,47.363,51.758,0
1553806296.848,37.109,28.809,35.156,23.438,68.359,0
1553806296.852,50.781,39.062,31.738,30.273,21.484,0
1553806296.856,49.316,35.645,29.297,40.039,25.391,0
1553806296.860,48.340,35.645,28.320,37.598,50.293,0
1553806296.864,43.457,34.180,29.297,37.109,50.293,0
1553806296.868,42.480,33.203,29.785,27.832,6.348,0
1553806296.871,46.387,35.645,29.297,22.949,-2.441,0
1553806296.875,41.016,30.762,30.273,51.270,76.660,0
1553806296.879,43.945,26.855,32.227,57.129,77.637,0
1553806296.883,43.457,25.879,36.133,17.578,64.453,0
1553806296.887,41.992,21.484,32.227,17.090,105.957,0
1553806296.891,41.504,20.996,33.691,34.668,97.656,0
1553806296.895,37.109,23.438,36.133,31.250,63.965,0
1553806296.899,45.898,22.949,29.297,12.695,25.391,0
1553806296.903,35.645,27.832,32.715,15.137,50.781,0
1553806296.907,18.066,32.227,39.062,21.973,47.363,0
1553806296.911,29.785,34.180,35.156,21.484,53.223,0
1553806296.914,35.156,33.691,29.785,30.273,75.684,0
1553806296.918,25.879,30.273,34.180,28.809,36.621,0
1553806296.922,21.973,27.832,40.039,45.410,19.531,0
1553806296.926,24.902,24.414,39.551,63.477,53.711,0
1553806296.930,33.691,23.438,38.574,21.973,55.176,0
1553806296.934,40.039,19.531,40.039,-10.742,43.457,0
1553806296.938,34.668,16.602,40.039,-14.160,82.031,0
1553806296.942,39.062,20.020,38.086,-3.418,62.500,0
1553806296.946,54.199,24.414,33.203,31.250,9.277,0
1553806296.950,61.523,27.832,22.461,59.570,27.344,0
1553806296.953,49.316,25.391,30.273,39.551,53.711,0
1553806296.957,17.090,14.648,48.340,20.020,43.945,0
1553806296.961,-3.906,5.371,48.828,43.945,41.016,0
1553806296.965,5.371,3.906,46.875,32.227,35.156,0
1553806296.969,20.508,-3.906,53.223,8.301,-10.742,0
1553806296.973,15.625,-15.625,56.641,-3.906,-59.570,0
1553806296.977,7.812,-24.414,60.547,-5.371,-6.836,0
1553806296.981,-11.230,-32.227,65.918,-4.883,24.902,0
1553806296.985,-16.113,-43.945,69.336,5.371,-34.180,0
1553806296.989,-3.906,-53.223,71.777,30.762,-7.324,0
1553806296.993,14.160,-52.246,71.289,28.809,46.875,0
1553806296.996,19.531,-46.387,71.289,22.461,-10.742,0
1553806297.000,16.113,-40.527,68.359,14.160,-27.832,0
1553806297.004,11.719,-35.156,66.406,59.570,-4.883,0
1553806297.008,20.020,-29.297,62.988,84.473,37.598,0
1553806297.012,20.508,-24.902,58.594,31.250,85.449,0
1553806297.016,21.973,-23.438,53.223,-3.418,70.312,0
1553806297.020,36.621,-24.902,51.270,5.371,45.410,0
1553806297.024,23.926,-25.391,53.711,24.414,26.855,0
1553806297.028,27.832,-22.461,58.594,35.645,29.785,0
1553806297.032,27.832,-19.531,59.082,41.992,1.465,0
1553806297.036,36.621,-14.160,57.617,43.457,22.461,0
1553806297.039,48.828,-12.207,59.082,39.062,33.691,0
1553806297.043,33.691,-16.113,52.734,19.531,36.133,0
1553806297.047,6.348,-15.137,48.340,11.230,40.527,0
1553806297.051,8.301,-7.812,49.316,20.508,8.789,0
1553806297.055,13.184,-3.906,47.852,19.043,42.480,0
1553806297.059,14.160,-3.906,43.457,41.016,59.082,0
1553806297.063,25.879,-4.395,46.387,35.156,38.086,0
1553806297.067,24.902,-2.930,52.246,19.043,29.297,0
1553806297.071,29.297,-4.395,51.270,28.320,14.648,0
1553806297.075,33.691,-5.371,50.781,7.324,32.227,0
1553806297.078,27.832,-1.953,50.293,-7.324,55.176,0
1553806297.082,23.926,0.000,49.805,-3.906,45.898,0
1553806297.086,21.484,5.371,47.852,1.953,-4.395,0
1553806297.090,28.809,5.859,48.340,14.160,36.133,0
1553806297.094,35.156,7.324,49.316,37.109,93.750,0
1553806297.098,23.438,7.812,49.805,39.551,26.855,0
1553806297.102,34.668,0.977,52.246,28.320,39.062,0
1553806297.106,47.852,0.977,50.293,17.090,67.383,0
1553806297.110,34.668,4.395,43.457,23.438,49.805,0
1553806297.114,41.992,6.836,45.898,27.344,46.387,0
1553806297.118,30.762,12.207,47.363,20.508,8.301,0
1553806297.121,21.484,19.043,44.434,20.020,26.855,0
1553806297.125,32.227,18.555,44.434,21.484,39.551,0
1553806297.129,15.625,17.090,46.875,54.688,29.297,0
1553806297.133,12.695,15.625,46.875,36.621,30.273,0
1553806297.137,28.809,10.254,44.922,-18.555,-1.465,0
1553806297.141,37.598,12.695,44.434,-19.531,26.367,0
1553806297.145,28.320,16.113,44.922,2.930,8.301,0
1553806297.149,13.184,12.207,43.457,14.648,-8.301,0
1553806297.153,18.066,10.742,42.480,24.414,68.359,0
1553806297.157,18.555,8.301,45.898,18.555,70.801,0
1553806297.161,30.273,8.789,45.898,42.969,39.062,0
1553806297.164,50.293,7.812,43.945,52.734,43.945,0
1553806297.168,50.293,7.324,40.039,5.859,36.133,0
1553806297.172,41.992,14.648,36.133,0.488,-6.836,0
1553806297.176,18.066,20.996,38.574,0.977,-28.809,0
1553806297.180,15.137,23.438,38.574,3.906,33.203,0
1553806297.184,23.926,21.973,40.039,28.809,81.055,0
1553806297.188,25.391,25.391,42.480,36.621,59.570,0
1553806297.192,31.738,22.461,41.992,8.301,18.066,0
1553806297.196,54.199,16.602,40.039,7.324,29.297,0
1553806297.200,47.852,11.719,39.062,14.648,42.969,0
1553806297.203,16.602,7.324,41.992,3.906,39.062,0
1553806297.207,14.160,11.719,44.922,-0.977,70.801,0
1553806297.211,20.508,20.508,43.945,30.762,50.781,0
1553806297.215,22.461,26.367,40.039,49.316,13.184,0
1553806297.219,23.438,26.367,35.645,20.996,18.066,0
1553806297.223,20.996,24.902,37.109,2.441,77.148,0
1553806297.227,20.996,19.043,36.621,2.930,109.375,0
1553806297.231,40.527,20.508,33.691,24.902,45.898,0
1553806297.235,48.340,22.461,35.156,21.484,10.254,0
1553806297.239,38.574,20.996,38.574,18.555,13.672,0
1553806297.243,25.391,23.438,40.039,26.855,59.082,0
1553806297.246,28.320,20.996,37.109,23.438,58.594,0
1553806297.250,34.668,16.113,34.668,7.324,42.969,0
1553806297.254,28.809,19.531,33.691,2.930,30.762,0
1553806297.258,31.250,22.949,32.715,2.441,-7.812,0
1553806297.262,31.738,26.367,32.715,-3.418,37.109,0
1553806297.266,49.805,26.855,31.250,10.254,60.059,0
1553806297.270,55.176,23.438,35.156,20.508,63.477,0
1553806297.274,41.016,23.926,42.480,26.855,90.332,0
1553806297.278,24.902,23.926,42.969,28.320,21.973,0
1553806297.282,27.832,21.484,42.969,27.344,-4.883,0
1553806297.286,51.758,24.902,41.992,35.156,45.898,0
1553806297.289,50.781,25.391,39.551,41.992,53.223,0
1553806297.293,39.062,21.973,35.645,42.969,18.066,0
1553806297.297,49.316,23.438,39.062,42.480,-27.344,0
1553806297.301,49.805,24.414,45.898,44.922,18.555,0
1553806297.305,39.551,23.926,41.992,32.715,35.156,0
1553806297.309,38.574,22.461,37.598,20.020,7.324,0
1553806297.313,41.016,24.902,37.109,18.555,39.062,0
1553806297.317,32.227,24.902,37.109,26.855,94.238,0
1553806297.321,24.414,21.973,36.133,20.508,67.871,0
1553806297.325,42.480,23.926,34.668,22.461,15.625,0
1553806297.328,51.758,26.855,32.227,26.367,-15.625,0
1553806297.332,46.387,27.344,31.738,33.203,21.484,0
1553806297.336,49.805,24.902,32.227,40.527,78.125,0
1553806297.340,31.738,18.066,33.203,38.574,20.996,0
1553806297.344,24.902,11.719,33.203,35.156,-21.973,0
1553806297.348,43.945,18.555,29.785,33.203,-17.578,0
1553806297.352,50.293,26.367,27.832,42.480,-11.230,0
1553806297.356,39.551,25.391,26.855,31.250,9.766,0
1553806297.360,33.691,26.855,29.785,25.391,33.691,0
1553806297.364,34.180,24.414,32.227,30.273,34.668,0
1553806297.368,45.410,19.043,30.762,24.414,48.340,0
1553806297.371,44.434,21.973,28.320,11.230,87.891,0
1553806297.375,25.391,23.438,29.785,12.207,66.406,0
1553806297.379,33.203,24.902,30.273,25.879,31.738,0
1553806297.383,45.410,28.320,34.180,20.996,50.293,0
1553806297.387,46.875,26.855,38.086,11.230,85.449,0
1553806297.391,35.645,24.414,35.645,3.418,21.973,0
1553806297.395,18.555,23.438,40.039,20.508,13.672,0
1553806297.399,28.809,21.973,38.574,26.855,46.387,0
1553806297.403,37.109,20.508,32.715,19.531,42.480,0
1553806297.407,48.828,20.020,32.227,32.227,77.637,0
1553806297.411,66.406,22.461,31.738,46.875,47.363,0
1553806297.414,54.688,23.926,34.668,47.852,-12.695,0
1553806297.418,22.461,27.832,39.062,31.250,21.973,0
1553806297.422,15.137,29.297,40.527,22.461,54.688,0
1553806297.426,20.020,26.855,41.992,-14.160,51.758,0
1553806297.430,17.578,26.367,38.574,-29.785,91.797,0
1553806297.434,28.320,30.273,38.574,-8.301,15.625,0
1553806297.438,35.645,30.762,37.109,14.648,28.320,0
1553806297.442,36.621,21.973,41.992,38.086,132.324,0
1553806297.446,43.945,23.438,41.992,35.645,71.777,0
1553806297.450,39.062,26.855,39.062,20.508,48.340,0
1553806297.453,20.020,20.020,42.480,1.953,90.332,0
1553806297.457,21.973,18.555,38.574,-16.602,74.707,0
1553806297.461,34.180,26.367,37.598,0.488,50.781,0
1553806297.465,34.668,25.391,41.016,31.250,39.062,0
1553806297.469,28.809,25.391,40.527,29.785,86.914,0
1553806297.473,24.414,30.273,37.598,20.508,90.820,0
1553806297.477,22.949,29.297,38.086,32.227,43.457,0
1553806297.481,37.598,29.785,35.645,33.203,106.445,0
1553806297.485,49.805,26.367,28.320,16.113,68.848,0
1553806297.489,45.898,21.484,37.109,21.973,12.207,0
1553806297.493,40.039,23.438,48.340,15.625,30.273,0
1553806297.496,36.621,23.438,43.457,4.395,4.395,0
1553806297.500,37.598,29.785,41.504,21.973,2.441,0
1553806297.504,45.410,36.133,37.109,30.762,64.453,0
1553806297.508,38.574,32.227,32.715,-2.930,122.070,0
1553806297.512,27.832,26.855,37.598,-22.461,98.633,0
1553806297.516,28.320,27.344,38.086,-7.324,44.922,0
1553806297.520,9.277,21.973,36.621,-3.906,28.320,0
1553806297.524,-1.953,15.625,40.527,-4.883,51.758,0
1553806297.528,13.184,19.043,38.574,6.836,63.477,0
1553806297.532,16.602,21.484,37.109,8.301,29.785,0
1553806297.536,16.602,27.344,36.621,14.648,10.742,0
1553806297.539,22.949,27.832,38.574,15.137,-23.438,0
1553806297.543,28.320,23.438,38.574,-1.953,9.766,0
1553806297.547,36.133,30.273,35.645,0.488,127.930,0
1553806297.551,41.016,35.645,37.598,21.973,49.316,0
1553806297.555,49.316,34.180,34.668,28.809,-14.160,0
1553806297.559,47.363,28.320,33.691,29.785,21.484,0
1553806297.563,52.246,23.438,34.180,24.414,-25.391,0
1553806297.567,41.016,20.020,35.156,4.883,-20.508,0
1553806297.571,19.043,17.578,40.527,-5.371,26.855,0
1553806297.575,26.855,20.508,39.062,15.137,12.695,0
1553806297.578,39.062,16.113,40.039,28.320,49.316,0
1553806297.582,49.805,12.695,43.457,42.480,120.605,0
1553806297.586,44.434,15.625,44.922,47.852,56.152,0
1553806297.590,29.297,19.043,41.504,19.043,-6.348,0
1553806297.594,34.668,18.555,41.992,18.066,21.973,0
1553806297.598,45.898,21.484,43.457,33.691,20.020,0
1553806297.602,42.969,23.438,40.527,30.762,4.883,0
1553806297.606,35.156,18.066,31.738,12.207,69.336,0
1553806297.610,36.133,15.625,26.855,15.625,65.430,0
1553806297.614,28.320,21.484,30.273,26.367,-11.230,0
1553806297.618,26.855,23.926,35.645,27.344,-11.230,0
1553806297.621,21.484,22.461,38.574,19.531,36.133,0
1553806297.625,22.461,20.020,36.133,-7.324,55.664,0
1553806297.629,37.598,14.160,33.203,2.930,25.391,0
1553806297.633,40.039,16.113,31.738,19.531,0.488,0
1553806297.637,39.062,23.926,24.902,7.812,-33.691,0
1553806297.641,38.086,24.902,22.949,2.930,7.812,0
1553806297.645,34.668,22.461,30.273,0.977,47.852,0
1553806297.649,34.180,26.367,35.645,2.930,72.754,0
1553806297.653,34.668,26.855,38.086,-1.465,78.613,0
1553806297.657,19.531,24.902,34.180,-4.395,8.301,0
1553806297.661,21.973,21.484,35.156,8.301,6.836,0
1553806297.664,41.504,17.578,37.598,21.484,61.523,0
1553806297.668,41.992,16.602,38.574,57.617,29.297,0
1553806297.672,42.969,22.461,39.551,42.969,1.465,0
1553806297.676,60.059,31.738,35.156,10.742,17.578,0
1553806297.680,60.547,32.227,35.645,10.742,16.602,0
1553806297.684,48.828,25.879,37.109,-1.465,30.273,0
1553806297.688,43.945,27.832,35.156,3.906,0.000,0
1553806297.692,36.621,30.273,34.668,2.441,-79.590,0
1553806297.696,30.762,29.785,32.715,7.812,5.371,0
1553806297.700,23.926,26.855,30.762,0.000,69.824,0
1553806297.703,25.879,20.020,30.762,-2.930,80.078,0
1553806297.707,38.574,20.020,27.832,-5.859,32.227,0
1553806297.711,29.785,21.973,18.555,-12.695,18.555,0
1553806297.715,20.508,18.066,24.902,-21.484,21.484,0
1553806297.719,26.367,21.484,28.320,-30.762,-62.988,0
1553806297.723,21.484,21.973,29.297,-1.465,2.930,0
1553806297.727,19.043,17.578,36.621,3.906,22.461,0
1553806297.731,31.250,13.672,38.574,-11.719,-20.020,0
1553806297.735,33.691,12.207,40.039,-16.113,14.648,0
1553806297.739,32.715,17.090,38.086,-13.672,75.195,0
1553806297.743,42.480,15.137,37.598,11.230,67.383,0
1553806297.746,44.922,14.160,47.363,32.227,28.809,0
1553806297.750,52.734,25.391,45.410,16.113,31.250,0
1553806297.754,45.410,32.227,36.133,1.953,8.301,0
1553806297.758,13.672,32.227,32.227,-16.113,59.570,0
1553806297.762,7.324,30.273,28.320,-21.973,93.750,0
1553806297.766,19.531,30.273,27.832,1.953,43.945,0
1553806297.770,39.062,33.203,28.809,6.348,41.504,0
1553806297.774,55.664,31.250,23.926,-17.578,52.734,0
1553806297.778,39.551,29.297,20.996,-6.836,50.293,0
1553806297.782,26.855,24.902,24.902,23.438,-1.465,0
1553806297.786,24.902,17.090,23.926,18.555,6.836,0
1553806297.789,25.879,16.602,26.367,-1.953,29.297,0
1553806297.793,25.391,20.996,32.715,-9.277,4.395,0
1553806297.797,30.273,26.367,36.133,0.977,4.883,0
1553806297.801,35.645,29.297,37.109,22.461,-4.883,0
1553806297.805,46.387,29.785,37.598,21.484,-9.766,0
1553806297.809,56.641,33.203,37.598,32.715,37.109,0
1553806297.813,53.223,28.809,36.621,49.805,20.508,0
1553806297.817,33.691,25.391,33.203,14.160,-20.508,0
1553806297.821,18.555,23.438,31.250,6.836,32.715,0
1553806297.825,29.785,20.508,30.762,30.762,110.840,0
1553806297.828,33.691,24.414,33.203,18.555,20.020,0
1553806297.832,28.809,25.391,36.133,15.625,0.977,0
1553806297.836,35.156,23.438,33.691,57.129,44.922,0
1553806297.840,54.688,26.367,33.691,30.762,-1.465,0
1553806297.844,52.246,29.297,37.109,-1.953,19.531,0
1553806297.848,32.715,22.461,34.668,7.324,15.137,0
1553806297.852,33.691,18.066,34.180,18.555,-17.578,0
1553806297.856,37.598,20.996,33.691,51.758,-26.855,0
1553806297.860,44.434,23.438,33.691,41.016,-8.301,0
1553806297.864,51.270,25.879,36.621,17.578,18.066,0
1553806297.868,68.848,25.879,36.621,25.391,-26.367,0
1553806297.871,66.406,22.461,36.133,29.297,-15.137,0
1553806297.875,24.414,23.438,36.133,26.855,51.270,0
1553806297.879,20.996,24.414,40.527,34.180,19.531,0
1553806297.883,31.250,25.391,43.457,36.621,-6.836,0
1553806297.887,30.273,25.879,41.504,37.109,22.461,0
1553806297.891,38.574,23.438,38.086,35.645,8.789,0
1553806297.895,46.875,28.320,37.109,48.340,42.969,0
1553806297.899,42.969,32.715,37.598,50.293,62.500,0
1553806297.903,36.133,34.668,37.598,27.344,46.875,0
1553806297.907,37.598,32.227,36.621,24.902,47.852,0
1553806297.911,42.480,28.320,34.180,28.809,35.645,0
1553806297.914,44.434,28.320,33.203,28.320,16.602,0
1553806297.918,37.109,29.297,37.109,23.438,35.645,0
1553806297.922,28.320,32.715,38.574,23.926,83.008,0
1553806297.926,35.156,29.785,40.039,35.156,63.477,0
1553806297.930,44.434,27.344,40.527,47.852,21.484,0
1553806297.934,29.785,27.832,35.645,36.133,36.133,0
1553806297.938,32.715,27.832,34.180,12.695,27.344,0
1553806297.942,45.410,27.344,37.109,17.578,26.855,0
1553806297.946,41.504,25.879,36.133,22.461,-7.324,0
1553806297.950,42.480,25.879,29.297,34.180,2.441,0
1553806297.953,48.340,27.832,30.762,57.617,69.824,0
1553806297.957,38.086,24.902,36.621,38.574,60.547,0
1553806297.961,45.898,24.414,38.086,-0.977,18.066,0
1553806297.965,56.152,26.367,39.062,3.906,26.855,0
1553806297.969,41.016,27.344,38.574,19.043,77.148,0
1553806297.973,41.504,27.832,37.598,20.508,31.250,0
1553806297.977,44.922,29.297,36.133,40.527,23.438,0
1553806297.981,42.480,29.297,35.645,45.898,60.059,0
1553806297.985,47.363,28.809,34.668,31.250,13.184,0
1553806297.989,61.035,25.879,36.133,30.762,19.531,0
1553806297.993,57.129,22.461,40.039,33.203,13.672,0
1553806297.996,50.293,20.020,42.480,34.180,24.902,0
1553806298.000,40.527,18.555,43.457,19.043,41.992,0
1553806298.004,29.297,18.555,41.992,15.625,19.531,0
1553806298.008,26.855,20.508,41.992,17.578,69.336,0
1553806298.012,32.715,21.973,43.457,22.949,52.246,0
1553806298.016,38.086,22.949,44.922,45.898,5.859,0
1553806298.020,31.250,27.344,42.969,60.059,37.109,0
1553806298.024,37.109,24.902,41.504,33.691,74.219,0
1553806298.028,55.176,21.973,41.992,2.441,36.133,0
1553806298.032,49.316,23.926,39.062,12.207,-20.996,0
1553806298.036,27.344,24.414,38.574,17.090,40.527,0
1553806298.039,30.273,22.461,38.574,29.785,90.820,0
1553806298.043,45.898,20.508,39.551,48.828,40.527,0
1553806298.047,49.805,19.531,45.410,30.762,63.477,0
1553806298.051,48.340,22.949,43.945,22.949,86.426,0
1553806298.055,43.945,26.855,37.598,35.156,62.012,0
1553806298.059,42.969,28.809,39.062,32.715,86.426,0
1553806298.063,52.246,28.809,38.086,19.043,59.082,0
1553806298.067,54.688,26.367,34.668,39.062,48.828,0
1553806298.071,49.316,23.438,35.645,43.457,66.895,0
1553806298.075,45.410,23.438,37.598,20.508,78.613,0
1553806298.078,37.598,20.996,40.039,22.461,92.285,0
1553806298.082,31.738,20.020,40.039,22.461,72.754,0
1553806298.086,35.645,18.066,39.551,24.414,18.066,0
1553806298.090,42.480,18.066,39.062,26.367,22.461,0
1553806298.094,44.922,21.484,36.621,36.621,43.457,0
1553806298.098,25.391,20.996,37.109,36.621,34.668,0
1553806298.102,27.344,19.531,39.062,13.184,33.203,0
1553806298.106,50.293,16.602,35.645,4.883,67.871,0
1553806298.110,41.016,15.137,35.156,8.301,79.102,0
1553806298.114,50.293,21.484,37.598,17.578,63.477,0
1553806298.118,54.199,25.879,37.598,34.668,41.016,0
1553806298.121,37.109,28.809,39.062,24.902,28.320,0
1553806298.125,39.062,31.250,38.086,6.348,32.715,0
1553806298.129,31.738,26.855,40.527,14.160,-5.371,0
1553806298.133,35.645,25.879,39.551,11.230,-18.066,0
1553806298.137,23.926,27.832,35.645,33.203,6.348,0
1553806298.141,20.996,21.973,33.203,45.410,50.293,0
1553806298.145,35.645,17.578,32.227,27.832,55.664,0
1553806298.149,41.504,20.996,35.645,13.672,-26.855,0
1553806298.153,41.504,21.973,38.086,-4.883,4.883,0
1553806298.157,40.527,19.043,39.062,18.555,33.691,0
1553806298.161,51.270,18.555,37.598,29.785,53.223,0
1553806298.164,49.316,22.461,34.668,5.859,43.457,0
1553806298.168,34.180,23.438,33.203,5.859,-6.836,0
1553806298.172,29.785,20.996,34.180,14.160,44.922,0
1553806298.176,40.527,14.648,38.086,15.137,24.902,0
1553806298.180,38.574,12.695,41.504,29.785,33.203,0
1553806298.184,53.711,19.043,38.086,39.551,99.121,0
1553806298.188,53.223,19.043,39.062,43.457,54.688,0
1553806298.192,25.879,20.996,37.598,20.508,-7.324,0
1553806298.196,30.762,26.367,34.668,-6.348,42.480,0
1553806298.200,40.039,26.367,33.203,10.254,102.539,0
1553806298.203,51.270,25.391,31.738,32.227,126.465,0
1553806298.207,46.875,22.949,35.645,22.949,89.355,0
1553806298.211,39.551,22.949,35.645,6.836,36.133,0
1553806298.215,43.945,25.879,32.227,12.207,44.922,0
1553806298.219,33.691,21.484,32.227,32.715,22.949,0
1553806298.223,37.109,17.578,31.250,23.438,27.344,0
1553806298.227,46.875,21.484,25.879,-3.418,33.691,0
1553806298.231,36.621,20.508,25.879,14.160,2.930,0
1553806298.235,34.180,16.602,35.645,37.598,36.621,0
1553806298.239,42.480,20.020,41.016,46.387,53.223,0
1553806298.243,35.645,24.414,36.621,30.273,31.738,0
1553806298.246,36.621,24.902,34.180,1.953,-1.953,0
1553806298.250,50.781,25.391,34.668,4.883,20.508,0
1553806298.254,56.641,30.762,32.715,10.254,13.184,0
1553806298.258,54.688,33.691,29.785,18.555,19.043,0
1553806298.262,40.527,29.297,29.297,31.738,55.664,0
1553806298.266,24.414,25.391,32.715,21.484,64.941,0
1553806298.270,34.180,22.949,36.133,15.625,60.547,0
1553806298.274,48.340,24.414,33.691,11.230,56.641,0
1553806298.278,42.480,28.809,31.250,22.949,55.176,0
1553806298.282,35.156,26.367,36.621,50.293,30.273,0
1553806298.286,25.879,26.367,38.574,24.902,-4.883,0
1553806298.289,27.832,26.855,35.645,-6.348,15.625,0
1553806298.293,34.668,21.973,35.156,18.555,50.781,0
1553806298.297,47.363,21.973,34.668,38.086,60.059,0
1553806298.301,45.410,24.902,35.156,17.578,-36.133,0
1553806298.305,19.531,20.996,35.156,-7.324,-37.598,0
1553806298.309,9.277,16.602,36.133,6.348,10.254,0
1553806298.313,15.137,16.602,32.715,23.438,-8.789,0
1553806298.317,18.066,16.602,29.297,11.230,39.062,0
1553806298.321,19.043,18.555,33.203,6.348,53.223,0
1553806298.325,25.879,19.531,33.691,22.949,39.551,0
1553806298.328,29.297,20.020,31.738,22.461,34.180,0
1553806298.332,20.996,18.555,34.668,27.832,36.621,0
1553806298.336,20.508,17.090,39.062,47.363,8.301,0
1553806298.340,41.016,16.602,39.551,24.902,27.832,0
1553806298.344,27.832,17.090,35.645,-8.789,63.965,0
1553806298.348,9.766,20.996,32.715,-5.859,57.617,0
1553806298.352,20.508,21.973,33.691,-16.602,66.895,0
1553806298.356,31.738,20.020,37.109,-10.254,76.172,0
1553806298.360,33.691,18.066,38.086,6.836,67.383,0
1553806298.364,40.527,19.531,38.574,12.695,12.695,0
1553806298.368,45.410,24.414,38.086,21.484,64.941,0
1553806298.371,33.691,25.391,33.691,34.180,93.750,0
1553806298.375,27.832,21.484,34.668,29.297,70.312,0
1553806298.379,31.250,21.484,30.762,5.859,46.387,0
1553806298.383,33.691,23.438,29.785,9.277,38.574,0
1553806298.387,32.715,22.461,34.668,19.531,-16.602,0
1553806298.391,41.016,22.461,33.203,14.160,-21.484,0
1553806298.395,66.895,23.926,34.668,20.996,39.062,0
1553806298.399,53.223,23.926,33.691,19.043,77.148,0
1553806298.403,32.227,23.926,31.250,27.832,64.453,0
1553806298.407,30.273,20.508,32.227,41.016,51.270,0
1553806298.411,23.438,14.648,32.227,37.109,59.082,0
1553806298.414,31.250,15.137,29.785,37.109,10.254,0
1553806298.418,30.762,15.625,28.809,19.043,65.430,0
1553806298.422,44.434,16.113,27.344,0.488,106.934,0
1553806298.426,46.875,22.461,26.855,12.207,38.574,0
1553806298.430,35.156,22.949,29.297,25.391,54.199,0
1553806298.434,57.617,23.926,31.738,15.137,116.211,0
1553806298.438,60.059,29.785,31.738,14.160,112.793,0
1553806298.442,43.457,27.344,32.227,31.250,62.012,0
1553806298.446,33.203,22.461,36.621,6.348,14.648,0
1553806298.450,20.508,22.949,35.645,-1.953,9.277,0
1553806298.453,27.832,22.461,33.203,24.414,9.766,0
1553806298.457,40.039,21.973,34.180,18.555,14.160,0
1553806298.461,41.992,20.508,33.691,9.277,1.953,0
1553806298.465,33.203,16.113,33.203,25.391,19.531,0
1553806298.469,44.434,17.578,32.715,29.297,-9.277,0
1553806298.473,51.758,19.043,34.180,9.277,-44.922,0
1553806298.477,45.898,14.648,38.086,37.598,0.000,0
1553806298.481,58.105,18.066,42.480,65.430,-2.930,0
1553806298.485,38.574,34.668,34.668,31.250,6.836,0
1553806298.489,34.180,44.922,25.391,14.160,56.641,0
1553806298.493,52.246,51.270,25.879,10.742,62.012,0
1553806298.496,34.180,58.594,20.996,1.953,-2.930,0
1553806298.500,26.855,63.477,14.648,-5.859,-4.883,0
1553806298.504,24.902,70.312,14.648,-29.785,43.457,0
1553806298.508,34.668,75.195,8.789,-1.465,28.809,0
1553806298.512,59.082,81.055,2.441,24.902,-2.930,0
1553806298.516,55.664,82.520,1.465,-0.488,35.645,0
1553806298.520,46.387,81.543,0.977,-0.977,-3.906,0
1553806298.524,44.434,87.402,-1.465,14.160,-40.039,0
1553806298.528,67.383,90.332,-4.395,13.184,36.621,0
1553806298.532,56.152,88.867,0.000,3.906,18.066,0
1553806298.536,14.160,81.055,4.883,5.859,7.324,0
1553806298.539,26.367,78.125,2.441,3.906,78.125,0
1553806298.543,46.875,77.637,4.883,-2.441,76.172,0
1553806298.547,52.246,70.312,6.348,24.414,37.598,0
1553806298.551,71.289,66.895,6.836,57.129,25.391,0
1553806298.555,64.941,69.824,6.348,27.832,49.316,0
1553806298.559,51.758,72.266,6.836,3.418,41.504,0
1553806298.563,57.129,68.848,9.277,10.742,1.953,0
1553806298.567,51.758,65.430,11.230,-2.441,-2.930,0
1553806298.571,66.406,63.477,12.207,37.109,-2.441,0
1553806298.575,61.523,61.035,13.184,43.945,8.301,0
1553806298.578,30.273,54.688,15.137,10.742,48.828,0
1553806298.582,34.668,49.316,21.484,40.527,46.875,0
1553806298.586,43.457,48.828,21.484,45.898,55.176,0
1553806298.590,46.387,53.223,13.184,47.852,44.434,0
1553806298.594,64.941,53.223,17.578,24.902,-2.930,0
1553806298.598,69.336,50.781,23.926,21.973,-32.715,0
1553806298.602,51.270,50.781,27.832,27.344,-18.555,0
1553806298.606,48.828,44.434,28.809,40.039,-4.395,0
1553806298.610,36.621,40.527,24.414,46.875,-36.133,0
1553806298.614,21.973,40.039,24.414,26.367,23.438,0
1553806298.618,32.715,41.016,24.902,8.301,62.500,0
1553806298.621,63.477,43.457,27.344,29.785,-23.926,0
1553806298.625,86.914,34.180,30.762,61.035,-10.254,0
1553806298.629,48.828,26.855,23.438,15.625,47.852,0
1553806298.633,25.879,31.738,17.090,15.625,67.871,0
1553806298.637,41.504,33.691,17.090,59.082,9.277,0
1553806298.641,66.895,36.621,13.184,67.871,29.297,0
1553806298.645,75.195,45.410,7.324,40.039,72.266,0
1553806298.649,59.082,49.316,18.066,43.457,66.895,0
1553806298.653,55.176,44.922,25.879,48.828,24.902,0
1553806298.657,69.336,37.109,29.785,26.855,46.875,0
1553806298.661,59.570,27.344,43.457,26.855,131.836,0
1553806298.664,28.320,29.297,44.434,63.477,80.566,0
1553806298.668,13.184,33.691,37.109,55.664,-27.832,0
1553806298.672,23.926,39.062,30.273,18.555,-53.223,0
1553806298.676,45.898,37.109,30.273,14.648,33.691,0
1553806298.680,39.551,32.227,32.715,29.297,101.074,0
1553806298.684,29.297,33.691,33.203,44.434,55.664,0
1553806298.688,38.086,31.250,32.715,45.410,26.367,0
1553806298.692,46.387,27.344,35.156,71.289,60.547,0
1553806298.696,42.480,29.297,35.645,85.449,34.668,0
1553806298.700,49.316,36.133,30.273,50.293,30.273,0
1553806298.703,56.641,38.574,29.785,34.668,50.781,0
1553806298.707,85.938,39.062,29.297,50.781,24.902,0
1553806298.711,81.055,39.062,30.273,60.547,7.812,0
1553806298.715,24.414,36.621,27.344,44.922,22.461,0
1553806298.719,21.484,30.762,27.344,66.406,92.773,0
1553806298.723,45.410,30.273,27.344,94.238,77.637,0
1553806298.727,57.129,31.738,22.949,79.590,25.391,0
1553806298.731,52.734,30.762,24.414,44.434,11.719,0
1553806298.735,65.918,32.715,25.879,33.203,11.719,0
1553806298.739,73.730,33.203,24.902,55.664,28.809,0
1553806298.743,40.527,31.250,27.832,72.266,0.977,0
1553806298.746,9.766,25.391,28.809,70.312,36.621,0
1553806298.750,24.414,20.508,26.367,75.195,55.176,0
1553806298.754,46.875,20.996,24.902,69.824,28.320,0
1553806298.758,35.156,21.973,22.949,56.152,56.641,0
1553806298.762,37.109,18.555,21.973,66.895,61.523,0
1553806298.766,47.363,16.602,20.020,44.434,53.223,0
1553806298.770,53.711,20.996,16.602,17.578,46.387,0
1553806298.774,55.664,20.996,20.996,47.852,50.781,0
1553806298.778,28.809,16.113,27.344,66.895,-27.832,0
1553806298.782,21.973,16.113,25.879,52.246,-40.527,0
1553806298.786,43.945,18.555,22.461,38.574,5.371,0
1553806298.789,24.414,16.113,23.438,34.180,-19.043,0
1553806298.793,13.672,17.578,21.484,29.785,0.977,0
1553806298.797,18.066,19.531,21.973,48.828,41.504,0
1553806298.801,27.344,18.555,22.949,87.402,22.949,0
1553806298.805,31.250,18.066,21.484,87.402,7.812,0
1553806298.809,19.043,18.066,20.020,17.578,38.574,0
1553806298.813,8.301,20.508,18.066,-18.555,67.383,0
1553806298.817,8.789,20.508,20.996,2.930,31.250,0
1553806298.821,23.438,14.160,19.531,44.922,9.766,0
1553806298.825,24.902,8.301,12.207,43.457,9.766,0
1553806298.828,31.738,15.625,12.207,32.227,-7.812,0
1553806298.832,0.977,16.113,24.414,24.902,20.996,0
1553806298.836,-18.555,11.230,26.855,-37.598,28.809,0
1553806298.840,-45.898,4.883,23.438,-15.137,63.477,0
1553806298.844,-102.539,-6.348,24.902,-0.977,70.312,0
1553806298.848,-118.652,-9.766,25.879,-92.773,62.012,0
1553806298.852,-130.371,-5.859,21.973,-115.723,72.754,0
1553806298.856,-137.695,-2.930,20.508,-120.117,50.293,0
1553806298.860,-145.020,-13.184,19.043,-150.879,43.457,0
1553806298.864,-121.094,-20.508,15.625,-148.438,63.477,0
1553806298.868,-136.719,-16.113,20.020,-141.602,45.410,0
1553806298.871,-181.152,-20.996,16.602,-157.715,24.414,0
1553806298.875,-126.465,-26.367,14.160,-126.953,24.902,0
1553806298.879,-133.301,-21.484,15.625,-131.348,-2.930,0
1553806298.883,-164.062,-20.020,13.672,-142.578,-1.465,0
1553806298.887,-119.141,-17.090,14.160,-88.867,38.086,0
1553806298.891,-108.887,-12.207,15.625,-91.309,60.547,0
1553806298.895,-82.520,-7.324,12.695,-107.910,54.688,0
1553806298.899,-78.125,-5.371,9.277,-118.652,2.441,0
1553806298.903,-90.820,-2.930,9.766,-103.027,5.371,0
1553806298.907,-72.266,-6.348,11.230,-59.082,41.504,0
1553806298.911,-59.082,-5.859,13.184,-29.785,47.363,0
1553806298.914,-52.734,-1.465,18.066,-5.371,82.520,0
1553806298.918,-25.391,0.977,19.043,-31.738,44.922,0
1553806298.922,-1.953,9.277,14.648,-73.730,-2.930,0
1553806298.926,-30.762,7.324,13.184,-70.801,14.160,0
1553806298.930,-41.992,5.371,17.578,-54.688,48.828,0
1553806298.934,-14.648,10.254,18.066,-21.973,70.312,0
1553806298.938,-17.090,12.207,12.695,-33.691,30.762,0
1553806298.942,-26.367,11.230,14.160,-18.555,1.953,0
1553806298.946,-34.668,12.695,15.625,-5.859,-15.137,0
1553806298.950,-34.180,18.066,16.113,-52.246,-37.109,0
1553806298.953,-20.508,12.207,19.531,-55.664,51.758,0
1553806298.957,-10.254,11.230,18.066,-36.133,50.293,0
1553806298.961,-1.465,19.531,15.625,-17.578,0.000,0
1553806298.965,15.137,31.250,12.207,-6.348,-4.395,0
1553806298.969,10.742,30.762,13.672,2.930,-1.465,0
1553806298.973,-7.812,17.090,19.043,1.465,16.602,0
1553806298.977,-10.254,12.695,23.438,4.883,45.410,0
1553806298.981,-11.719,10.254,24.902,33.691,71.777,0
1553806298.985,-3.418,13.184,20.020,7.812,74.707,0
1553806298.989,-6.348,21.484,16.602,-24.902,55.176,0
1553806298.993,-8.301,21.973,15.625,-20.020,18.555,0
1553806298.996,8.301,22.461,15.625,-23.438,43.457,0
1553806299.000,7.324,22.949,19.043,-21.484,34.668,0
1553806299.004,5.371,24.902,16.602,-22.949,11.719,0
1553806299.008,5.371,27.832,13.672,-15.625,25.879,0
1553806299.012,2.441,30.273,14.648,1.465,27.832,0
1553806299.016,11.719,32.227,22.949,10.254,-15.137,0
1553806299.020,7.324,23.926,29.297,20.020,20.020,0
1553806299.024,1.953,20.508,22.461,15.625,27.344,0
1553806299.028,4.883,23.438,21.484,15.625,7.812,0
1553806299.032,5.859,27.344,27.344,4.395,21.484,0
1553806299.036,20.996,24.414,26.855,-16.602,8.789,0
1553806299.039,29.297,20.508,24.414,-0.977,9.766,0
1553806299.043,12.207,25.391,23.926,8.301,73.730,0
1553806299.047,0.488,25.391,21.484,11.230,54.688,0
1553806299.051,13.672,28.320,21.973,17.578,0.000,0
1553806299.055,25.879,30.273,23.926,27.832,43.457,0
1553806299.059,34.180,27.344,22.461,14.648,57.129,0
1553806299.063,15.137,27.344,22.461,-2.441,21.484,0
1553806299.067,8.789,26.367,20.996,23.926,16.113,0
1553806299.071,30.273,24.414,22.461,22.461,42.480,0
1553806299.075,30.762,25.879,23.926,5.859,0.977,0
1553806299.078,21.973,26.855,19.531,1.465,-45.410,0
1553806299.082,22.461,27.344,17.578,10.742,-4.883,0
1553806299.086,18.555,25.391,23.438,35.645,29.297,0
1553806299.090,26.367,23.926,31.250,29.785,35.156,0
1553806299.094,18.066,19.043,38.574,12.695,55.664,0
1553806299.098,16.602,19.531,36.621,11.230,10.742,0
1553806299.102,41.992,26.855,32.227,11.719,25.391,0
1553806299.106,28.320,33.691,29.297,5.371,84.473,0
1553806299.110,12.207,38.086,29.785,17.578,60.059,0
1553806299.114,31.738,38.086,30.762,24.902,73.242,0
1553806299.118,29.785,30.762,26.367,11.719,100.098,0
1553806299.121,4.883,21.484,26.367,22.949,26.367,0
1553806299.125,15.137,17.578,27.832,20.996,88.379,0
1553806299.129,27.344,18.066,26.855,-3.418,114.258,0
1553806299.133,13.672,22.461,23.438,-1.953,33.203,0
1553806299.137,10.742,29.297,19.043,6.348,23.438,0
1553806299.141,45.898,27.344,23.926,17.090,46.387,0
1553806299.145,55.664,19.043,30.762,32.227,49.805,0
1553806299.149,-0.977,20.996,30.273,32.227,39.062,0
1553806299.153,-1.465,27.832,29.297,11.230,20.508,0
1553806299.157,3.906,29.785,28.320,15.625,29.785,0
1553806299.161,6.348,26.367,27.832,32.227,31.250,0
1553806299.164,35.645,24.902,27.344,-9.277,44.922,0
1553806299.168,26.367,23.926,30.273,-20.508,59.570,0
1553806299.172,2.441,21.973,33.203,4.883,35.156,0
1553806299.176,0.488,23.438,32.715,14.160,25.391,0
1553806299.180,1.465,20.508,34.180,38.574,40.039,0
1553806299.184,5.371,22.461,30.762,19.531,1.953,0
1553806299.188,10.742,25.879,24.414,-0.488,52.246,0
1553806299.192,9.277,23.926,22.461,-4.395,58.594,0
1553806299.196,9.277,27.344,20.508,-17.090,20.508,0
1553806299.200,19.531,29.785,20.996,-6.348,29.785,0
1553806299.203,33.691,26.367,25.391,25.879,18.555,0
1553806299.207,59.082,27.832,20.996,43.457,-11.719,0
1553806299.211,46.387,29.297,18.066,19.043,19.531,0
1553806299.215,4.395,23.438,24.414,12.695,81.055,0
1553806299.219,8.789,14.648,30.762,18.555,35.156,0
1553806299.223,18.066,15.137,28.809,33.691,52.246,0
1553806299.227,29.785,23.438,24.414,28.809,52.246,0
1553806299.231,33.203,28.809,25.391,-3.418,7.812,0
1553806299.235,21.484,28.320,27.832,0.977,-33.691,0
1553806299.239,10.742,28.320,27.344,17.090,-33.203,0
1553806299.243,9.277,30.762,28.809,38.574,39.062,0
1553806299.246,23.926,30.273,28.809,36.621,42.969,0
1553806299.250,37.109,32.227,23.926,23.438,3.418,0
1553806299.254,35.156,31.250,23.926,13.184,51.758,0
1553806299.258,43.945,26.855,27.344,15.625,58.594,0
1553806299.262,40.039,26.855,29.785,52.734,35.156,0
1553806299.266,33.691,29.297,25.879,52.734,104.980,0
1553806299.270,21.973,26.367,18.555,24.414,56.152,0
1553806299.274,7.812,22.949,20.020,45.410,-54.199,0
1553806299.278,30.273,18.555,23.438,35.156,-39.551,0
1553806299.282,33.691,18.555,26.367,20.508,-17.090,0
1553806299.286,14.160,21.973,27.832,15.625,41.504,0
1553806299.289,13.184,19.531,25.879,4.395,-5.859,0
1553806299.293,18.066,22.461,25.391,-4.883,-30.762,0
1553806299.297,30.762,23.926,29.785,3.418,68.848,0
1553806299.301,32.227,22.461,30.273,28.809,71.777,0
1553806299.305,6.348,18.066,33.203,27.832,68.359,0
1553806299.309,5.371,14.648,33.203,23.438,23.926,0
1553806299.313,14.648,19.531,27.344,14.648,16.113,0
1553806299.317,16.113,25.879,27.344,-1.465,51.270,0
1553806299.321,35.645,34.668,24.414,3.418,21.973,0
1553806299.325,35.156,33.691,19.531,26.855,17.578,0
1553806299.328,14.160,27.832,24.414,35.156,58.105,0
1553806299.332,14.648,29.785,27.344,29.297,9.277,0
1553806299.336,13.184,27.832,26.855,20.508,-45.898,0
1553806299.340,5.371,22.461,25.391,29.297,-36.621,0
1553806299.344,7.812,24.414,22.461,14.648,-22.461,0
1553806299.348,32.227,25.391,22.461,14.648,52.246,0
1553806299.352,37.109,20.508,22.949,49.805,59.082,0
1553806299.356,36.621,17.578,22.949,45.410,-33.203,0
1553806299.360,27.344,19.043,20.508,16.113,-29.785,0
1553806299.364,13.672,18.066,20.996,6.836,25.391,0
1553806299.368,9.277,21.973,25.879,8.789,25.391,0
1553806299.371,10.742,24.414,27.832,29.297,36.621,0
1553806299.375,23.926,21.973,30.273,20.508,41.992,0
1553806299.379,28.320,22.461,29.785,9.277,13.184,0
1553806299.383,18.555,20.020,30.762,11.719,21.973,0
1553806299.387,14.160,14.648,28.320,2.441,20.020,0
1553806299.391,20.508,19.043,25.391,14.160,65.430,0
1553806299.395,26.855,21.973,24.902,42.480,102.051,0
1553806299.399,38.086,15.625,24.902,61.523,10.254,0
1553806299.403,15.625,16.113,25.879,32.227,-23.926,0
1553806299.407,-4.395,19.531,25.879,5.859,20.020,0
1553806299.411,16.113,20.020,24.902,-1.953,22.949,0
1553806299.414,20.508,21.973,26.855,18.555,47.852,0
1553806299.418,17.578,21.973,29.297,21.973,35.156,0
1553806299.422,29.785,22.461,27.344,2.441,28.320,0
1553806299.426,24.902,22.949,26.855,7.812,144.043,0
1553806299.430,13.184,23.926,27.344,21.484,83.008,0
1553806299.434,25.879,27.344,26.855,22.461,31.738,0
1553806299.438,40.527,23.438,28.809,7.324,42.480,0
1553806299.442,26.367,20.996,29.785,17.090,45.898,0
1553806299.446,24.414,22.461,27.832,28.320,34.180,0
1553806299.450,21.973,19.531,25.879,9.277,9.277,0
1553806299.453,20.996,22.461,26.367,13.672,45.410,0
1553806299.457,20.020,26.855,27.344,15.137,46.387,0
1553806299.461,3.906,23.438,29.785,22.461,69.336,0
1553806299.465,9.766,21.973,30.762,32.227,48.340,0
1553806299.469,22.949,25.391,33.691,9.277,-13.672,0
1553806299.473,17.578,24.902,34.668,12.207,22.949,0
1553806299.477,22.461,25.391,32.715,19.531,31.738,0
1553806299.481,30.762,26.367,33.691,28.320,11.230,0
1553806299.485,36.133,27.344,32.715,26.855,2.930,0
1553806299.489,46.875,30.762,27.832,19.043,-14.160,0
1553806299.493,36.133,28.809,28.320,11.719,-9.766,0
1553806299.496,29.785,27.832,29.785,26.367,37.109,0
1553806299.500,14.648,29.297,28.320,22.461,41.992,0
1553806299.504,12.207,25.391,27.832,20.996,-21.484,0
1553806299.508,27.832,24.414,25.879,26.367,13.184,0
1553806299.512,24.414,26.367,23.926,-6.836,77.148,0
1553806299.516,21.484,26.367,22.949,-8.789,49.316,0
1553806299.520,8.789,28.320,22.949,8.301,-35.645,0
1553806299.524,10.742,27.344,24.414,46.387,-20.508,0
1553806299.528,39.062,23.438,24.902,35.156,26.367,0
1553806299.532,43.457,24.414,26.367,2.930,49.316,0
1553806299.536,15.625,20.508,27.344,5.371,38.574,0
1553806299.539,15.137,19.043,24.902,20.508,45.898,0
1553806299.543,28.320,25.391,18.066,4.883,90.820,0
1553806299.547,41.504,29.785,16.602,-17.090,30.762,0
1553806299.551,46.387,33.691,18.066,4.395,-20.996,0
1553806299.555,32.715,36.621,16.602,34.668,0.977,0
1553806299.559,29.785,34.668,19.043,43.457,62.012,0
1553806299.563,35.645,31.250,23.926,27.344,84.473,0
1553806299.567,48.828,31.738,22.461,37.598,41.504,0
1553806299.571,52.246,31.738,22.461,22.949,-14.648,0
1553806299.575,50.293,36.133,22.949,10.254,-23.926,0
1553806299.578,43.945,36.133,22.461,1.465,-9.277,0
1553806299.582,21.484,28.320,24.902,10.254,-7.812,0
1553806299.586,27.832,27.832,25.391,28.320,11.230,0
1553806299.590,25.879,28.809,27.344,22.949,2.930,0
1553806299.594,25.391,24.902,29.785,34.668,-7.812,0
1553806299.598,45.410,24.902,26.367,39.551,-7.812,0
1553806299.602,39.551,28.320,25.879,51.758,3.906,0
1553806299.606,39.062,27.832,27.344,34.180,-16.113,0
1553806299.610,49.316,28.320,27.832,5.371,8.789,0
1553806299.614,59.570,28.320,25.391,10.742,48.340,0
1553806299.618,52.246,23.438,27.832,15.625,-1.953,0
1553806299.621,24.902,26.855,31.250,11.719,5.859,0
1553806299.625,25.879,34.668,23.438,23.438,53.223,0
1553806299.629,29.297,37.598,29.297,23.926,71.289,0
1553806299.633,19.531,53.223,39.062,1.953,102.051,0
1553806299.637,1.953,48.340,26.367,-9.766,81.543,0
1553806299.641,-14.648,26.855,28.320,-8.789,52.246,0
1553806299.645,-19.043,41.504,30.762,-28.809,19.043,0
1553806299.649,-29.297,53.223,29.297,-41.016,-14.648,0
1553806299.653,-59.570,42.969,43.457,-49.316,-39.062,0
1553806299.657,-100.098,43.457,58.105,-74.707,-35.645,0
1553806299.661,-109.863,54.199,67.383,-137.695,-26.855,0
1553806299.664,-138.184,50.293,67.383,-195.801,4.395,0
1553806299.668,-194.336,42.969,70.801,-223.633,4.883,0
1553806299.672,-214.355,48.340,70.801,-231.934,11.230,0
1553806299.676,-205.566,46.875,67.383,-244.629,48.828,0
1553806299.680,-209.473,54.688,66.406,-258.301,60.059,0
1553806299.684,-252.441,50.781,73.730,-275.391,57.129,0
1553806299.688,-269.531,39.551,81.543,-286.621,72.754,0
1553806299.692,-249.512,41.016,72.754,-260.742,36.133,0
1553806299.696,-234.375,41.504,56.641,-254.395,18.555,0
1553806299.700,-223.633,31.738,57.129,-262.695,77.148,0
1553806299.703,-211.426,21.973,69.336,-240.234,41.504,0
1553806299.707,-196.777,17.090,72.266,-198.242,-17.090,0
1553806299.711,-169.434,12.695,72.266,-164.062,4.395,0
1553806299.715,-128.418,13.672,74.219,-140.137,52.246,0
1553806299.719,-107.422,13.184,73.730,-96.680,45.898,0
1553806299.723,-104.004,4.395,68.848,-83.496,46.875,0
1553806299.727,-69.824,0.488,62.012,-92.773,83.008,0
1553806299.731,-40.527,4.883,56.152,-55.176,16.113,0
1553806299.735,-20.020,4.883,50.781,-25.879,12.695,0
1553806299.739,9.277,0.977,44.922,-13.184,69.824,0
1553806299.743,31.738,5.371,36.133,-5.371,79.590,0
1553806299.746,38.086,5.859,33.203,-2.930,100.098,0
1553806299.750,37.109,1.953,35.156,12.207,65.918,0
1553806299.754,52.734,0.977,32.227,46.875,34.180,0
1553806299.758,62.988,0.000,27.832,68.848,44.922,0
1553806299.762,75.684,3.906,25.879,74.707,76.172,0
1553806299.766,106.445,9.277,22.461,64.453,74.219,0
1553806299.770,97.168,6.836,15.137,77.637,20.996,0
1553806299.774,67.383,-0.488,13.672,99.121,-12.695,0
1553806299.778,69.824,-3.418,17.090,82.031,-11.719,0
1553806299.782,78.613,0.000,14.648,87.402,40.039,0
1553806299.786,88.867,3.418,15.137,88.867,49.805,0
1553806299.789,105.957,6.836,20.508,93.750,22.461,0
1553806299.793,114.746,8.301,21.973,111.328,50.781,0
1553806299.797,101.074,7.812,17.090,121.582,41.016,0
1553806299.801,100.098,10.254,15.137,106.445,-3.906,0
1553806299.805,97.168,8.301,19.531,104.004,-14.160,0
1553806299.809,91.309,7.324,23.438,104.492,-2.930,0
1553806299.813,96.191,6.836,23.438,105.469,34.180,0
1553806299.817,96.680,8.301,22.461,105.957,32.227,0
1553806299.821,98.633,14.648,16.602,103.516,53.711,0
1553806299.825,97.168,17.578,14.648,112.305,44.434,0
1553806299.828,101.562,20.020,17.090,101.562,-11.230,0
1553806299.832,115.723,23.926,17.578,98.145,14.160,0
1553806299.836,110.352,22.949,18.555,118.164,36.133,0
1553806299.840,104.980,17.578,18.066,116.211,56.152,0
1553806299.844,104.980,16.113,17.090,98.633,10.254,0
1553806299.848,89.355,20.996,15.137,111.328,0.488,0
1553806299.852,74.707,21.484,18.066,124.512,49.805,0
1553806299.856,74.707,17.090,21.973,117.676,59.570,0
1553806299.860,79.102,19.043,23.926,105.957,72.266,0
1553806299.864,92.773,23.926,25.879,91.797,76.660,0
1553806299.868,101.562,27.344,25.391,97.656,14.648,0
1553806299.871,105.957,30.273,23.438,103.516,36.133,0
1553806299.875,102.051,25.391,18.555,107.910,43.945,0
1553806299.879,80.078,21.484,15.137,94.727,-2.441,0
1553806299.883,78.613,26.855,20.508,87.891,50.781,0
1553806299.887,84.961,24.902,21.484,93.750,64.453,0
1553806299.891,78.125,19.043,20.020,86.914,60.547,0
1553806299.895,62.012,19.531,19.531,79.102,50.781,0
1553806299.899,57.129,26.367,20.508,75.684,87.402,0
1553806299.903,63.965,28.809,23.438,77.148,90.332,0
1553806299.907,63.477,22.949,24.902,87.402,19.043,0
1553806299.911,77.148,22.461,27.832,76.660,30.762,0
1553806299.914,81.543,25.391,29.297,69.336,-6.348,0
1553806299.918,76.660,28.320,25.879,91.797,-9.277,0
1553806299.922,86.426,28.809,23.926,100.098,-0.488,0
1553806299.926,70.801,24.414,26.367,92.285,-41.016,0
1553806299.930,47.852,20.020,30.273,88.867,-19.043,0
1553806299.934,53.711,18.555,33.691,85.449,21.973,0
1553806299.938,60.547,18.555,35.156,83.496,35.645,0
1553806299.942,62.012,20.020,32.715,67.871,46.875,0
1553806299.946,52.734,19.531,27.344,52.246,55.664,0
1553806299.950,40.039,17.578,28.320,53.223,28.320,0
1553806299.953,41.992,16.602,31.738,79.102,70.801,0
1553806299.957,54.199,15.625,31.250,86.426,94.727,0
1553806299.961,37.109,17.578,27.344,59.570,82.031,0
1553806299.965,28.809,19.531,22.949,66.895,65.430,0
1553806299.969,45.898,19.531,20.996,83.008,53.223,0
1553806299.973,47.852,14.160,25.879,87.891,40.039,0
1553806299.977,48.340,11.230,35.156,95.703,64.941,0
1553806299.981,50.781,18.555,35.156,73.730,106.445,0
1553806299.985,49.316,24.902,27.832,45.410,84.473,0
1553806299.989,58.105,28.320,24.902,43.945,72.754,0
1553806299.993,54.199,27.344,24.414,42.480,34.180,0
1553806299.996,30.762,24.414,26.855,49.316,11.230,0
1553806300.000,42.480,25.391,33.203,57.617,83.984,0
1553806300.004,47.852,26.855,35.645,64.941,77.148,0
1553806300.008,45.410,24.414,35.156,80.566,34.668,0
1553806300.012,71.289,20.508,31.250,57.617,34.668,0
1553806300.016,64.453,11.230,28.809,40.527,85.938,0
1553806300.020,51.758,9.277,28.320,46.875,96.191,0
1553806300.024,60.059,12.207,32.715,58.105,67.383,0
1553806300.028,68.848,14.160,38.574,84.473,64.453,0
1553806300.032,69.824,24.414,30.762,67.871,71.777,0
1553806300.036,48.340,32.227,22.461,42.969,61.035,0
1553806300.039,33.691,36.133,20.508,24.902,44.922,0
1553806300.043,37.109,40.039,20.020,14.160,52.246,0
1553806300.047,49.316,38.086,19.043,22.461,2.441,0
1553806300.051,68.359,36.133,15.137,45.410,34.180,0
1553806300.055,68.848,42.480,15.625,74.219,59.570,0
1553806300.059,34.668,43.945,20.020,43.457,-20.996,0
1553806300.063,35.645,40.527,20.996,23.438,21.484,0
1553806300.067,52.734,38.086,20.020,37.109,64.453,0
1553806300.071,64.453,35.645,20.996,42.969,52.734,0
1553806300.075,72.266,33.203,20.996,48.828,91.309,0
1553806300.078,75.195,31.250,22.461,64.941,63.477,0
1553806300.082,84.961,35.156,30.273,59.570,44.434,0
1553806300.086,91.797,33.691,31.250,37.109,68.359,0
1553806300.090,79.590,26.855,27.832,36.621,46.875,0
1553806300.094,56.152,25.391,25.879,38.086,70.801,0
1553806300.098,62.012,23.926,23.438,59.082,65.918,0
1553806300.102,74.707,26.855,20.508,88.379,62.500,0
1553806300.106,70.801,34.180,20.508,65.430,38.086,0
1553806300.110,57.617,33.691,24.414,30.273,-10.742,0
1553806300.114,46.387,26.855,29.297,18.555,0.488,0
1553806300.118,46.387,26.855,24.902,40.527,13.184,0
1553806300.121,37.598,30.762,16.602,47.852,31.738,0
1553806300.125,46.387,29.297,13.672,16.602,34.668,0
1553806300.129,52.246,28.809,18.066,24.902,14.648,0
1553806300.133,49.316,25.879,21.973,34.668,46.387,0
1553806300.137,58.594,24.414,19.531,34.668,41.016,0
1553806300.141,60.547,24.902,21.484,39.551,37.109,0
1553806300.145,57.617,20.508,28.809,42.480,63.477,0
1553806300.149,62.988,22.461,29.297,36.621,53.223,0
1553806300.153,64.453,26.855,24.902,36.621,57.617,0
1553806300.157,50.293,29.785,28.809,46.387,28.320,0
1553806300.161,58.105,23.438,32.715,36.133,53.711,0
1553806300.164,68.359,16.113,35.645,54.688,52.734,0
1553806300.168,48.340,18.555,36.621,82.031,18.555,0
1553806300.172,49.316,20.508,30.762,53.711,53.223,0
1553806300.176,53.711,22.949,27.832,40.039,38.574,0
1553806300.180,51.758,23.926,22.949,26.367,34.180,0
1553806300.184,63.965,25.391,20.996,7.812,94.238,0
1553806300.188,73.242,31.738,29.297,25.879,98.633,0
1553806300.192,49.805,31.250,25.879,42.969,51.270,0
1553806300.196,38.574,24.414,21.973,50.293,35.156,0
1553806300.200,42.969,18.555,27.344,41.504,58.105,0
1553806300.203,38.574,21.973,30.762,52.734,39.551,0
1553806300.207,56.641,31.250,29.297,56.152,-11.719,0
1553806300.211,62.012,32.715,26.855,24.414,16.602,0
1553806300.215,44.434,31.738,28.320,17.578,62.988,0
1553806300.219,38.574,30.762,30.762,20.508,43.945,0
1553806300.223,40.039,21.973,35.645,25.879,44.434,0
1553806300.227,47.852,15.625,41.016,26.367,54.688,0
1553806300.231,57.129,18.066,38.574,41.504,8.789,0
1553806300.235,47.363,23.438,33.691,53.711,-7.812,0
1553806300.239,34.668,24.902,28.809,40.527,27.344,0
1553806300.243,32.715,23.926,30.762,35.156,46.387,0
1553806300.246,26.855,22.949,37.598,42.969,46.875,0
1553806300.250,36.133,17.578,35.645,20.508,28.320,0
1553806300.254,48.340,8.301,27.832,2.930,19.043,0
1553806300.258,41.504,9.766,23.438,2.930,60.059,0
1553806300.262,29.297,13.184,19.043,3.418,22.949,0
1553806300.266,34.668,19.043,16.602,30.273,-46.387,0
1553806300.270,50.293,21.484,24.902,52.246,-52.734,0
1553806300.274,59.570,25.879,31.738,61.523,11.719,0
1553806300.278,51.270,35.645,28.809,21.973,87.891,0
1553806300.282,58.594,31.250,30.762,4.395,62.988,0
1553806300.286,88.379,27.832,29.785,57.617,99.609,0
1553806300.289,94.727,29.785,27.832,90.820,141.602,0
1553806300.293,94.238,28.320,29.785,113.770,69.336,0
1553806300.297,104.004,24.414,32.715,123.535,75.684,0
1553806300.301,117.676,28.320,33.203,122.070,81.055,0
1553806300.305,137.695,29.297,30.273,130.371,56.152,0
1553806300.309,143.555,27.832,28.320,127.930,65.430,0
1553806300.313,131.836,31.250,31.250,129.883,76.660,0
1553806300.317,139.648,34.180,34.668,125.488,97.656,0
1553806300.321,145.996,33.203,35.156,119.629,82.031,0
1553806300.325,127.441,29.785,35.645,128.418,-7.812,0
1553806300.328,117.188,30.762,34.180,108.398,0.977,0
1553806300.332,124.023,35.156,33.203,104.004,5.859,0
1553806300.336,137.207,37.598,29.297,132.324,36.133,0
1553806300.340,135.254,34.668,27.832,141.602,103.516,0
1553806300.344,126.953,35.156,30.273,119.141,20.996,0
1553806300.348,128.906,35.156,28.809,99.121,34.180,0
1553806300.352,126.465,29.785,36.621,106.934,41.504,0
1553806300.356,131.348,32.227,40.039,132.812,33.691,0
1553806300.360,133.301,37.598,28.320,125.977,80.078,0
1553806300.364,113.770,35.645,27.832,76.172,21.484,0
1553806300.368,102.051,35.156,34.668,80.566,21.484,0
1553806300.371,93.750,36.621,35.645,102.539,7.812,0
1553806300.375,77.148,36.133,25.391,79.590,28.809,0
