timestamps,TP9,AF7,AF8,TP10,Right AUX,Marker0
1553630907.960,5.371,106.445,80.078,24.414,21.484,0
1553630907.964,5.859,95.215,76.660,28.809,-16.602,0
1553630907.968,-0.488,97.168,78.125,32.227,26.367,0
1553630907.972,0.977,88.379,73.242,21.973,32.227,0
1553630907.976,1.953,73.242,66.406,30.273,0.000,0
1553630907.980,-4.395,80.078,66.895,37.598,94.727,0
1553630907.984,-6.836,82.520,67.383,20.508,100.098,0
1553630907.988,0.488,79.102,67.871,16.602,19.531,0
1553630907.992,4.883,82.520,69.336,25.879,12.207,0
1553630907.996,-0.488,75.684,65.430,23.926,5.859,0
1553630907.999,-0.977,68.359,64.941,18.066,10.254,0
1553630908.003,-0.977,73.242,64.941,13.672,18.555,0
1553630908.007,5.859,71.289,64.453,23.438,-42.969,0
1553630908.011,4.395,71.289,63.477,19.531,-21.484,0
1553630908.015,2.930,84.961,58.594,20.996,61.035,0
1553630908.019,12.207,95.703,59.570,28.809,33.203,0
1553630908.023,15.625,90.820,57.617,28.320,6.836,0
1553630908.027,9.277,83.984,54.199,25.391,16.113,0
1553630908.031,0.488,83.984,53.223,27.344,83.496,0
1553630908.035,6.348,87.402,52.246,34.668,16.602,0
1553630908.039,4.395,84.473,49.316,34.668,-41.992,0
1553630908.042,-1.953,84.473,47.852,25.879,71.289,0
1553630908.046,-0.488,87.402,51.758,25.879,63.477,0
1553630908.050,14.648,83.496,45.410,45.410,15.625,0
1553630908.054,4.395,75.684,45.410,36.133,46.387,0
1553630908.058,-29.297,70.312,50.293,10.254,35.156,0
1553630908.062,-28.320,71.289,48.340,10.742,67.871,0
1553630908.066,-23.438,70.312,52.734,6.836,90.332,0
1553630908.070,-14.648,77.637,52.246,11.230,62.012,0
1553630908.074,-12.207,68.848,43.945,13.184,59.082,0
1553630908.078,-25.879,61.523,42.969,8.301,65.918,0
1553630908.081,-22.461,71.777,41.016,10.254,43.457,0
1553630908.085,-12.695,70.312,36.133,12.695,36.621,0
1553630908.089,-8.301,76.660,38.086,12.207,108.887,0
1553630908.093,-2.930,73.242,37.598,6.836,71.289,0
1553630908.097,-3.906,65.430,36.621,21.973,8.789,0
1553630908.101,0.977,76.660,41.504,23.926,39.062,0
1553630908.105,-2.441,79.590,41.504,9.277,10.254,0
1553630908.109,-1.465,73.730,36.133,11.719,1.953,0
1553630908.113,9.277,70.801,33.203,18.066,53.223,0
1553630908.117,4.883,71.289,34.180,17.090,97.168,0
1553630908.121,12.207,67.871,35.156,20.508,103.027,0
1553630908.124,20.020,65.430,37.109,20.020,48.340,0
1553630908.128,7.324,62.988,34.668,13.672,-2.930,0
1553630908.132,4.395,61.035,33.691,14.648,6.836,0
1553630908.136,5.371,63.477,36.133,20.996,58.105,0
1553630908.140,-1.465,66.895,34.180,25.879,2.441,0
1553630908.144,1.953,66.895,31.738,22.949,-28.320,0
1553630908.148,-6.348,60.547,32.715,23.926,3.906,0
1553630908.152,-12.207,59.570,32.715,17.578,37.598,0
1553630908.156,-5.859,64.941,32.227,23.438,55.664,0
1553630908.160,0.488,62.988,37.109,26.855,12.695,0
1553630908.164,0.977,55.664,34.668,16.602,4.395,0
1553630908.167,0.000,61.035,27.344,15.625,0.488,0
1553630908.171,3.418,57.129,26.855,25.391,-16.602,0
1553630908.175,5.859,48.828,26.855,23.438,44.434,0
1553630908.179,3.418,51.270,27.344,19.043,75.684,0
1553630908.183,-3.906,54.199,25.391,18.555,30.273,0
1553630908.187,0.488,52.246,25.391,17.578,41.992,0
1553630908.191,7.812,47.363,26.367,15.625,18.555,0
1553630908.195,8.789,48.340,27.344,12.695,-21.973,0
1553630908.199,1.953,47.363,26.367,16.113,-59.082,0
1553630908.203,0.977,45.898,27.344,19.043,-43.457,0
1553630908.206,3.418,46.387,31.738,22.461,19.531,0
1553630908.210,-3.906,39.062,26.367,22.461,32.715,0
1553630908.214,-1.953,37.598,23.438,22.949,71.289,0
1553630908.218,-5.371,31.250,21.484,20.020,99.121,0
1553630908.222,-8.301,28.809,20.996,10.254,56.152,0
1553630908.226,-2.930,34.668,24.414,12.207,64.453,0
1553630908.230,-8.301,34.668,23.438,22.949,28.809,0
1553630908.234,-7.812,28.320,22.949,25.879,28.320,0
1553630908.238,0.000,27.832,23.926,25.391,19.531,0
1553630908.242,6.348,31.250,24.902,32.715,-7.812,0
1553630908.246,10.742,32.227,23.926,27.344,-14.160,0
1553630908.249,12.207,34.180,22.461,17.090,41.992,0
1553630908.253,14.160,37.598,23.926,28.320,67.871,0
1553630908.257,2.930,29.785,20.508,25.391,41.016,0
1553630908.261,5.859,25.879,19.531,23.926,50.781,0
1553630908.265,12.695,28.320,21.484,31.250,83.008,0
1553630908.269,6.348,27.344,18.066,24.902,69.824,0
1553630908.273,7.324,35.156,17.578,27.832,-9.766,0
1553630908.277,9.766,33.203,17.578,31.250,-8.789,0
1553630908.281,9.766,21.973,18.066,21.484,26.367,0
1553630908.285,9.277,24.902,18.555,10.254,46.875,0
1553630908.289,8.789,26.855,18.555,18.555,60.059,0
1553630908.292,4.395,34.668,24.414,25.879,41.504,0
1553630908.296,3.418,28.320,20.508,23.438,45.410,0
1553630908.300,-1.465,9.277,13.672,23.438,20.020,0
1553630908.304,-5.371,11.719,16.113,16.602,13.672,0
1553630908.308,-6.348,16.602,15.625,15.625,52.246,0
1553630908.312,4.395,24.414,19.531,23.438,68.848,0
1553630908.316,7.812,18.555,19.531,18.066,109.863,0
1553630908.320,7.812,7.812,17.578,18.555,51.758,0
1553630908.324,16.602,19.043,22.461,28.320,28.809,0
1553630908.328,14.648,22.949,20.508,27.344,66.895,0
1553630908.331,11.230,21.484,17.578,24.902,32.227,0
1553630908.335,12.207,21.484,21.973,26.367,-1.953,0
1553630908.339,14.160,21.973,20.996,27.832,73.730,0
1553630908.343,12.695,17.090,22.461,27.344,114.746,0
1553630908.347,17.090,17.578,24.902,22.461,45.410,0
1553630908.351,15.625,22.461,21.484,26.367,0.000,0
1553630908.355,22.949,24.414,23.438,24.414,22.949,0
1553630908.359,29.297,21.484,26.367,20.508,4.883,0
1553630908.363,17.578,18.066,20.508,33.691,14.160,0
1553630908.367,20.996,17.578,16.113,29.785,0.000,0
1553630908.371,16.113,17.090,26.855,22.949,-19.531,0
1553630908.374,6.348,20.020,27.832,28.809,44.922,0
1553630908.378,9.277,19.531,19.531,25.879,33.203,0
1553630908.382,1.953,20.020,22.461,27.832,73.242,0
1553630908.386,1.465,7.812,16.113,22.461,111.816,0
1553630908.390,16.113,0.488,10.742,27.832,52.246,0
1553630908.394,20.020,8.301,17.090,41.992,33.203,0
1553630908.398,1.465,8.789,24.414,28.320,87.891,0
1553630908.402,-10.742,4.395,28.320,24.414,46.875,0
1553630908.406,-4.395,1.953,30.273,31.738,28.809,0
1553630908.410,5.859,6.348,26.367,32.227,71.777,0
1553630908.414,6.836,4.395,27.344,37.109,68.359,0
1553630908.417,7.324,-0.488,27.344,30.762,41.992,0
1553630908.421,9.766,4.883,21.973,27.832,-17.090,0
1553630908.425,6.836,10.254,28.809,36.621,-40.527,0
1553630908.429,16.113,5.371,28.320,40.039,0.000,0
1553630908.433,18.066,-2.441,21.973,39.062,22.461,0
1553630908.437,15.137,-10.742,19.531,36.621,43.945,0
1553630908.441,17.578,-10.254,20.508,37.598,5.859,0
1553630908.445,12.695,-3.418,22.461,34.180,41.992,0
1553630908.449,13.672,2.930,28.809,43.457,78.125,0
1553630908.453,16.113,-3.418,26.855,35.645,-1.953,0
1553630908.456,15.625,-10.742,15.625,31.250,-1.465,0
1553630908.460,16.113,-8.789,12.695,33.691,62.988,0
1553630908.464,18.555,-5.859,20.508,19.043,40.527,0
1553630908.468,17.090,0.000,20.996,19.531,37.109,0
1553630908.472,15.625,-7.324,16.113,26.367,94.238,0
1553630908.476,17.090,-5.371,20.020,27.832,42.480,0
1553630908.480,16.113,-3.906,21.973,24.902,-5.859,0
1553630908.484,20.020,-7.812,17.090,28.320,25.391,0
1553630908.488,18.555,-2.441,15.137,22.949,58.594,0
1553630908.492,25.391,-8.301,15.137,20.508,37.109,0
1553630908.496,27.832,-10.254,14.648,28.320,52.246,0
1553630908.499,16.113,-6.348,22.949,27.344,15.137,0
1553630908.503,20.508,-4.883,16.113,32.715,50.781,0
1553630908.507,13.184,-1.465,2.441,16.602,103.027,0
1553630908.511,15.137,6.348,6.836,4.883,69.824,0
1553630908.515,18.066,0.977,7.324,17.578,27.832,0
1553630908.519,6.836,6.348,8.789,19.531,-40.527,0
1553630908.523,16.602,9.766,9.277,19.531,-2.930,0
1553630908.527,26.855,-10.254,9.277,24.414,18.066,0
1553630908.531,30.273,-6.836,12.207,25.391,21.484,0
1553630908.535,28.809,3.418,10.742,25.391,63.477,0
1553630908.539,24.414,0.488,4.883,24.414,42.480,0
1553630908.542,26.367,0.488,9.766,24.414,38.574,0
1553630908.546,27.832,4.883,15.137,30.762,50.293,0
1553630908.550,23.926,11.230,13.672,30.762,22.461,0
1553630908.554,25.391,15.137,17.090,18.555,69.824,0
1553630908.558,30.762,8.789,15.625,25.879,70.801,0
1553630908.562,29.297,0.977,13.672,30.273,4.883,0
1553630908.566,17.578,7.812,20.020,30.273,-18.066,0
1553630908.570,15.625,14.160,19.531,31.250,-2.441,0
1553630908.574,22.461,12.207,12.695,33.691,74.219,0
1553630908.578,17.578,14.160,15.137,32.227,45.898,0
1553630908.581,7.324,11.719,13.184,28.809,-8.301,0
1553630908.585,2.441,10.742,13.672,30.273,-1.953,0
1553630908.589,13.672,12.695,20.020,30.762,-4.395,0
1553630908.593,9.766,18.066,19.531,31.250,5.859,0
1553630908.597,6.348,20.020,18.066,22.461,40.527,0
1553630908.601,13.672,14.648,15.625,16.113,63.477,0
1553630908.605,8.789,16.113,16.113,13.672,56.641,0
1553630908.609,7.812,17.578,18.555,20.020,57.617,0
1553630908.613,20.996,14.648,14.648,28.320,4.395,0
1553630908.617,17.578,19.531,16.602,18.555,-14.648,0
1553630908.621,-0.488,17.090,16.113,15.625,9.766,0
1553630908.624,8.301,17.578,19.043,18.555,74.219,0
1553630908.628,6.836,23.438,16.602,20.996,77.148,0
1553630908.632,-1.953,16.602,14.648,24.414,-12.207,0
1553630908.636,4.883,15.137,14.160,17.090,40.527,0
1553630908.640,8.789,14.648,13.184,13.184,112.305,0
1553630908.644,13.672,13.184,17.578,12.207,42.969,0
1553630908.648,16.113,15.137,21.973,13.184,38.086,0
1553630908.652,14.160,13.672,16.602,24.414,16.113,0
1553630908.656,6.348,15.137,9.766,19.531,10.254,0
1553630908.660,9.766,18.066,12.207,17.578,63.965,0
1553630908.664,10.742,20.508,12.695,19.043,1.953,0
1553630908.667,8.301,20.508,10.742,18.555,-35.645,0
1553630908.671,18.066,17.578,9.277,20.996,-27.344,0
1553630908.675,14.160,16.602,13.672,20.996,19.043,0
1553630908.679,5.859,14.160,16.113,19.531,97.168,0
1553630908.683,8.301,20.020,17.578,23.438,109.375,0
1553630908.687,11.719,22.461,17.090,17.578,38.574,0
1553630908.691,6.836,11.230,10.742,15.625,-6.348,0
1553630908.695,4.883,2.930,10.742,22.949,12.207,0
1553630908.699,13.672,10.254,13.672,20.508,28.809,0
1553630908.703,8.301,18.066,11.719,29.297,81.055,0
1553630908.706,6.836,5.371,12.207,29.297,53.711,0
1553630908.710,7.324,7.324,11.230,21.973,-46.875,0
1553630908.714,7.324,7.324,7.812,17.090,-19.531,0
1553630908.718,11.230,5.859,9.277,20.996,55.176,0
1553630908.722,9.277,13.672,7.812,14.648,57.617,0
1553630908.726,1.953,12.695,8.301,13.184,4.395,0
1553630908.730,6.836,14.160,17.578,25.391,37.598,0
1553630908.734,15.625,5.859,14.648,16.602,29.297,0
1553630908.738,6.836,8.301,12.695,10.254,21.484,0
1553630908.742,12.695,15.137,16.602,19.043,22.461,0
1553630908.746,15.625,7.324,15.625,16.602,24.414,0
1553630908.749,11.230,10.254,20.020,16.602,20.508,0
1553630908.753,11.230,12.207,23.926,15.625,-26.855,0
1553630908.757,10.254,10.254,23.926,0.977,-37.109,0
1553630908.761,14.160,17.090,27.832,9.766,26.855,0
1553630908.765,15.137,14.160,27.832,12.207,16.113,0
1553630908.769,24.902,12.207,18.066,8.301,-5.859,0
1553630908.773,22.461,10.254,17.578,8.301,69.336,0
1553630908.777,8.301,0.488,25.391,14.648,74.707,0
1553630908.781,2.441,3.906,27.344,19.531,31.250,0
1553630908.785,2.441,13.184,23.926,9.766,-52.246,0
1553630908.789,0.977,6.348,23.926,17.578,8.789,0
1553630908.792,2.930,10.742,24.414,15.625,51.758,0
1553630908.796,8.789,20.508,31.250,7.324,-26.367,0
1553630908.800,-2.930,12.207,30.762,10.254,0.977,0
1553630908.804,-6.348,9.277,23.438,10.254,36.621,0
1553630908.808,-8.301,6.836,32.227,14.160,56.641,0
1553630908.812,-12.695,27.344,42.969,20.020,25.391,0
1553630908.816,0.000,40.039,47.852,15.137,19.043,0
1553630908.820,-31.250,3.906,36.621,-20.020,66.895,0
1553630908.824,-61.523,22.949,45.410,-24.414,80.566,0
1553630908.828,-53.711,47.363,66.406,-32.227,92.773,0
1553630908.831,-82.520,36.133,56.152,-73.730,45.898,0
1553630908.835,-106.445,54.199,66.895,-82.031,9.277,0
1553630908.839,-121.582,62.500,81.543,-105.957,58.594,0
1553630908.843,-142.090,96.191,96.680,-127.930,68.359,0
1553630908.847,-169.922,116.211,111.328,-148.438,26.367,0
1553630908.851,-229.492,118.652,106.445,-210.449,57.129,0
1553630908.855,-257.812,150.391,116.211,-237.305,117.676,0
1553630908.859,-282.715,153.809,137.207,-264.648,57.129,0
1553630908.863,-312.988,151.367,150.879,-309.082,24.414,0
1553630908.867,-339.355,162.109,166.992,-324.219,91.797,0
1553630908.871,-357.422,161.133,182.129,-351.074,133.789,0
1553630908.874,-375.000,160.156,191.895,-368.652,104.004,0
1553630908.878,-356.445,155.273,197.266,-354.004,71.289,0
1553630908.882,-338.867,143.555,195.801,-345.215,85.938,0
1553630908.886,-334.473,139.160,193.359,-333.984,76.172,0
1553630908.890,-304.688,142.578,187.500,-311.523,54.199,0
1553630908.894,-284.180,133.789,171.387,-294.434,14.160,0
1553630908.898,-291.992,125.000,161.133,-268.066,42.480,0
1553630908.902,-279.297,117.676,146.484,-244.629,83.984,0
1553630908.906,-241.211,122.070,127.930,-204.102,66.406,0
1553630908.910,-178.223,120.117,110.840,-179.688,40.527,0
1553630908.914,-140.625,99.121,91.309,-173.828,13.672,0
1553630908.917,-155.273,98.145,82.520,-126.465,49.805,0
1553630908.921,-133.789,102.539,69.336,-97.656,75.684,0
1553630908.925,-132.324,98.145,54.688,-91.797,40.039,0
1553630908.929,-93.750,97.168,50.293,-73.730,20.508,0
1553630908.933,-57.617,102.539,37.109,-53.711,45.410,0
1553630908.937,-43.457,98.633,21.973,-23.926,22.461,0
1553630908.941,-15.625,97.656,12.695,-19.043,37.598,0
1553630908.945,-8.301,99.609,10.254,-5.859,-4.395,0
1553630908.949,7.812,100.586,11.719,36.621,-15.625,0
1553630908.953,14.648,96.680,9.277,60.059,19.043,0
1553630908.956,22.949,95.215,8.789,66.895,-20.996,0
1553630908.960,43.945,90.332,8.301,75.684,-16.113,0
1553630908.964,59.570,86.914,4.883,83.496,-20.020,0
1553630908.968,77.148,85.938,4.395,93.262,-14.160,0
1553630908.972,91.309,85.449,8.301,93.750,1.953,0
1553630908.976,98.145,87.402,2.930,91.309,28.809,0
1553630908.980,87.402,77.637,-4.395,120.117,80.078,0
1553630908.984,90.332,74.707,-1.465,118.652,44.922,0
1553630908.988,100.586,70.312,-3.906,128.418,-37.109,0
1553630908.992,114.746,72.266,-12.207,145.996,-25.391,0
1553630908.996,121.094,72.754,-13.672,135.742,14.648,0
1553630908.999,128.418,59.570,-18.555,139.160,47.852,0
1553630909.003,131.348,63.477,-21.973,146.484,88.379,0
1553630909.007,118.652,65.918,-16.113,154.785,30.762,0
1553630909.011,122.070,66.406,-16.113,154.297,27.344,0
1553630909.015,123.047,70.801,-12.695,147.949,13.184,0
1553630909.019,119.141,72.266,-4.883,141.602,18.555,0
1553630909.023,117.188,68.359,-5.371,149.414,54.688,0
1553630909.027,113.770,66.895,-4.883,158.691,-22.949,0
1553630909.031,105.957,67.383,-0.977,144.043,-26.367,0
1553630909.035,104.004,64.941,-1.465,137.207,32.227,0
1553630909.039,105.469,56.152,-2.930,145.508,26.367,0
1553630909.042,96.191,50.293,3.418,142.578,38.086,0
1553630909.046,108.887,50.293,3.906,124.023,55.664,0
1553630909.050,116.211,42.969,4.395,126.953,76.660,0
1553630909.054,101.074,34.668,9.766,151.855,-4.883,0
1553630909.058,113.281,33.203,8.789,150.879,-42.969,0
1553630909.062,120.605,33.691,11.230,141.113,8.301,0
1553630909.066,108.398,34.668,15.137,139.648,19.531,0
1553630909.070,94.238,32.227,13.672,141.113,35.156,0
1553630909.074,97.168,22.949,10.254,134.277,60.059,0
1553630909.078,104.004,20.996,8.789,121.094,30.273,0
1553630909.081,103.516,16.602,8.301,137.207,47.363,0
1553630909.085,112.793,9.766,8.301,142.578,46.387,0
1553630909.089,105.469,10.254,14.648,130.371,8.301,0
1553630909.093,101.562,9.277,15.137,148.438,27.832,0
1553630909.097,89.844,-0.977,10.254,141.113,-20.508,0
1553630909.101,88.379,-12.695,3.418,121.094,-2.441,0
1553630909.105,106.445,-22.461,-5.859,80.078,63.965,0
1553630909.109,109.375,-30.762,-0.977,91.309,68.848,0
1553630909.113,95.703,-39.551,10.254,143.555,61.523,0
1553630909.117,83.008,-39.062,9.277,154.297,59.570,0
1553630909.121,100.586,-39.062,3.418,143.555,42.480,0
1553630909.124,111.328,-48.340,4.395,131.836,63.477,0
1553630909.128,97.168,-54.688,4.395,129.395,81.543,0
1553630909.132,95.215,-52.246,3.418,133.301,96.680,0
1553630909.136,85.449,-55.664,4.395,132.812,83.496,0
1553630909.140,83.008,-56.152,5.371,139.648,103.027,0
1553630909.144,86.914,-56.152,8.789,152.832,136.230,0
1553630909.148,87.891,-68.359,5.371,136.230,86.914,0
1553630909.152,80.566,-72.754,1.465,125.977,190.430,0
1553630909.156,75.195,-63.965,0.488,130.371,276.855,0
1553630909.160,81.543,-60.059,3.906,122.559,255.371,0
1553630909.164,84.961,-61.523,6.348,114.258,280.762,0
1553630909.167,80.078,-54.688,-0.488,118.652,322.754,0
1553630909.171,68.848,-50.781,0.488,118.652,357.422,0
1553630909.175,74.707,-41.016,4.883,121.094,386.719,0
1553630909.179,89.844,-28.809,7.324,123.047,405.762,0
1553630909.183,83.984,-36.621,8.301,119.141,449.219,0
1553630909.187,69.824,-40.527,8.301,117.188,452.637,0
1553630909.191,67.871,-33.203,8.301,128.906,475.098,0
1553630909.195,69.336,-32.227,10.742,125.488,502.441,0
1553630909.199,60.059,-27.832,16.602,123.535,513.672,0
1553630909.203,50.293,-24.902,12.695,112.305,549.316,0
1553630909.206,50.781,-27.344,7.812,101.074,541.992,0
1553630909.210,46.875,-28.320,13.184,117.676,523.438,0
1553630909.214,53.711,-24.902,15.137,108.887,548.340,0
1553630909.218,56.641,-16.113,15.137,98.145,595.703,0
1553630909.222,52.734,-18.555,19.531,102.051,597.656,0
1553630909.226,53.223,-15.137,15.625,98.145,590.332,0
1553630909.230,51.758,-6.836,12.207,98.145,562.988,0
1553630909.234,47.363,-2.930,20.508,101.562,568.848,0
1553630909.238,47.363,4.883,29.297,104.492,586.914,0
1553630909.242,49.805,10.254,19.531,101.562,572.754,0
1553630909.246,60.059,11.719,9.766,86.426,588.379,0
1553630909.249,56.152,10.742,16.113,87.891,587.402,0
1553630909.253,54.688,19.531,18.555,79.102,566.895,0
1553630909.257,63.477,24.414,21.484,83.008,536.133,0
1553630909.261,47.852,23.926,20.020,84.961,542.480,0
1553630909.265,43.945,36.621,17.578,77.637,577.148,0
1553630909.269,54.199,45.898,21.484,82.031,566.406,0
1553630909.273,49.805,48.828,23.926,83.984,541.992,0
1553630909.277,41.992,51.270,23.926,83.984,542.969,0
1553630909.281,38.574,54.199,26.367,92.285,548.340,0
1553630909.285,33.203,60.547,26.367,87.402,557.617,0
1553630909.289,41.992,69.336,26.367,76.172,567.383,0
1553630909.292,41.992,69.336,27.344,76.660,559.082,0
1553630909.296,38.086,54.688,32.715,81.055,567.383,0
1553630909.300,53.223,57.129,39.551,87.891,558.594,0
1553630909.304,35.645,61.523,30.762,70.801,520.020,0
1553630909.308,24.902,58.594,28.320,59.570,515.137,0
1553630909.312,33.691,59.570,35.156,72.266,519.531,0
1553630909.316,24.414,63.965,39.062,66.895,505.859,0
1553630909.320,35.645,68.359,41.992,64.941,495.605,0
1553630909.324,52.246,64.941,38.574,73.242,497.070,0
1553630909.328,42.969,57.129,38.086,78.125,493.164,0
1553630909.331,22.461,60.547,40.527,74.219,505.859,0
1553630909.335,25.391,68.359,40.527,74.707,527.344,0
1553630909.339,35.645,74.219,45.410,76.172,486.328,0
1553630909.343,35.156,80.078,48.828,74.219,485.840,0
1553630909.347,31.738,90.820,45.898,71.777,499.023,0
1553630909.351,17.578,106.934,45.410,48.340,479.492,0
1553630909.355,36.621,112.793,55.664,58.594,480.957,0
1553630909.359,45.898,102.539,62.012,78.613,487.305,0
1553630909.363,-0.977,104.004,51.758,60.547,471.191,0
1553630909.367,-3.906,121.582,52.734,53.711,482.422,0
1553630909.371,25.879,125.977,59.082,65.430,500.977,0
1553630909.374,41.504,113.281,64.941,82.031,457.031,0
1553630909.378,50.293,112.305,63.477,94.238,449.219,0
1553630909.382,14.160,125.488,61.523,61.035,463.867,0
1553630909.386,16.602,127.441,54.688,48.828,455.566,0
1553630909.390,62.012,115.234,44.922,79.590,419.922,0
1553630909.394,64.453,118.652,45.898,84.961,406.738,0
1553630909.398,69.336,133.301,42.480,84.473,409.180,0
1553630909.402,93.750,127.930,38.086,107.422,350.586,0
1553630909.406,114.746,127.441,41.016,128.418,307.617,0
1553630909.410,124.023,130.371,41.016,123.047,314.941,0
1553630909.414,111.816,137.207,35.156,115.723,327.637,0
1553630909.417,133.301,143.555,35.156,123.535,303.223,0
1553630909.421,160.156,142.090,42.969,139.648,265.137,0
1553630909.425,144.043,132.812,49.316,134.766,262.207,0
1553630909.429,135.742,128.906,41.992,123.535,251.465,0
1553630909.433,128.418,138.184,41.504,116.699,208.496,0
1553630909.437,113.770,144.531,50.781,113.770,153.809,0
1553630909.441,118.164,153.809,54.199,111.328,141.602,0
1553630909.445,112.305,154.785,54.688,95.703,165.039,0
1553630909.449,91.797,152.832,55.176,86.426,105.957,0
1553630909.453,100.098,151.367,58.594,93.750,86.426,0
1553630909.456,104.492,154.785,60.059,98.145,100.586,0
1553630909.460,87.891,157.715,65.918,87.891,76.660,0
1553630909.464,77.148,154.297,67.871,74.219,42.480,0
1553630909.468,85.449,154.297,69.824,80.078,15.625,0
1553630909.472,85.449,148.438,70.801,75.684,14.160,0
1553630909.476,81.543,137.695,64.941,65.430,4.395,0
1553630909.480,87.402,137.207,60.547,60.059,-15.625,0
1553630909.484,65.918,136.719,63.477,60.547,-51.758,0
1553630909.488,45.410,132.812,69.824,60.547,-74.219,0
1553630909.492,53.223,133.789,66.895,52.246,-87.402,0
1553630909.496,53.223,134.277,65.430,56.641,-133.789,0
1553630909.499,37.598,130.371,64.941,37.598,-142.090,0
1553630909.503,47.852,125.000,64.941,29.785,-141.602,0
1553630909.507,48.340,133.301,61.523,41.504,-165.039,0
1553630909.511,27.832,132.812,63.965,43.457,-156.738,0
1553630909.515,25.391,120.117,71.289,55.176,-140.625,0
1553630909.519,38.574,126.953,64.453,48.828,-153.809,0
1553630909.523,36.621,128.906,65.430,30.762,-174.805,0
1553630909.527,37.109,118.652,70.312,49.316,-172.852,0
1553630909.531,54.688,118.164,65.430,56.641,-143.555,0
1553630909.535,58.105,115.723,62.500,32.227,-147.461,0
1553630909.539,53.223,112.305,63.965,39.062,-152.344,0
1553630909.542,40.039,118.164,62.988,38.574,-176.270,0
1553630909.546,45.410,108.887,64.453,48.828,-185.059,0
1553630909.550,61.523,104.004,61.035,65.918,-170.410,0
1553630909.554,53.711,110.352,53.223,58.105,-146.973,0
1553630909.558,25.391,97.168,60.547,71.289,-104.980,0
1553630909.562,21.484,92.285,59.082,70.312,-124.512,0
1553630909.566,34.180,96.191,51.758,44.922,-133.301,0
1553630909.570,31.738,94.727,54.199,46.387,-125.000,0
1553630909.574,30.273,96.191,55.664,57.617,-122.070,0
1553630909.578,37.109,93.750,56.152,50.293,-108.887,0
1553630909.581,34.668,93.262,54.688,38.086,-105.957,0
1553630909.585,26.855,91.309,55.176,32.227,-135.254,0
1553630909.589,23.438,85.938,59.082,39.062,-141.113,0
1553630909.593,25.879,83.984,56.641,40.527,-117.188,0
1553630909.597,16.602,82.520,56.641,36.133,-131.348,0
1553630909.601,29.785,86.426,61.035,67.383,-156.250,0
1553630909.605,33.203,88.379,61.523,55.664,-152.344,0
1553630909.609,24.414,83.496,62.500,46.875,-149.414,0
1553630909.613,27.344,84.473,61.035,65.918,-147.461,0
1553630909.617,23.438,84.473,64.453,61.035,-165.039,0
1553630909.621,34.180,85.449,66.895,62.988,-172.363,0
1553630909.624,46.875,77.148,62.012,64.453,-167.480,0
1553630909.628,53.223,73.730,62.012,77.148,-161.621,0
1553630909.632,39.551,78.613,58.105,59.570,-162.598,0
1553630909.636,34.668,79.590,54.688,35.645,-157.715,0
1553630909.640,31.738,76.172,54.199,44.922,-141.113,0
1553630909.644,29.785,74.219,51.270,50.781,-139.648,0
1553630909.648,40.527,76.172,50.293,56.152,-121.582,0
1553630909.652,27.344,79.102,52.734,54.688,-119.629,0
1553630909.656,17.578,70.801,54.688,57.129,-131.348,0
1553630909.660,24.414,78.613,51.758,51.270,-131.836,0
1553630909.664,31.250,86.914,51.758,46.387,-112.305,0
1553630909.667,27.344,71.289,50.293,47.363,-109.863,0
1553630909.671,20.996,72.266,49.316,44.434,-110.840,0
1553630909.675,27.832,75.195,47.852,41.016,-131.348,0
1553630909.679,30.273,71.777,47.363,31.250,-146.973,0
1553630909.683,4.395,72.266,51.758,32.715,-123.047,0
1553630909.687,6.836,74.707,51.758,37.109,-126.953,0
1553630909.691,30.273,76.660,50.781,34.668,-129.395,0
1553630909.695,16.113,73.242,53.711,29.785,-91.797,0
1553630909.699,16.113,68.848,55.664,37.109,-102.539,0
1553630909.703,28.320,71.777,58.105,39.551,-102.051,0
1553630909.706,10.742,73.242,62.012,29.297,-62.988,0
1553630909.710,7.324,68.848,57.129,26.855,-87.891,0
1553630909.714,11.230,59.570,53.711,56.152,-83.984,0
1553630909.718,37.109,68.359,54.199,72.266,-52.734,0
1553630909.722,39.551,69.336,53.223,54.199,-56.641,0
1553630909.726,13.672,64.941,46.875,31.250,-71.289,0
1553630909.730,32.227,64.453,38.086,44.922,-47.363,0
1553630909.734,77.637,59.570,38.086,100.586,-39.062,0
1553630909.738,113.281,62.012,33.691,127.930,-41.016,0
1553630909.742,147.461,64.453,28.320,122.070,-20.996,0
1553630909.746,137.695,59.570,32.227,134.766,-5.371,0
1553630909.749,115.723,55.176,33.691,159.668,17.578,0
1553630909.753,152.344,53.711,25.879,170.898,0.000,0
1553630909.757,170.410,50.781,27.832,158.203,-7.324,0
1553630909.761,173.828,51.270,30.273,146.973,11.230,0
1553630909.765,174.805,46.387,27.832,171.875,2.930,0
1553630909.769,166.992,38.574,32.227,173.828,14.648,0
1553630909.773,166.992,47.852,33.203,153.809,38.086,0
1553630909.777,155.273,44.434,34.668,159.668,41.504,0
1553630909.781,145.996,36.133,39.551,167.969,29.785,0
1553630909.785,144.531,41.504,41.504,150.391,23.438,0
1553630909.789,157.227,45.410,43.457,144.043,35.645,0
1553630909.792,119.629,39.551,48.828,156.250,25.391,0
1553630909.796,87.891,33.203,45.410,141.113,28.809,0
1553630909.800,105.957,38.086,43.457,114.258,45.410,0
1553630909.804,98.145,41.016,51.758,113.770,33.203,0
1553630909.808,97.656,44.434,51.758,111.816,36.621,0
1553630909.812,104.004,43.457,54.199,104.980,60.059,0
1553630909.816,109.375,33.691,52.246,101.074,64.453,0
1553630909.820,109.863,31.738,47.363,83.496,64.453,0
1553630909.824,108.398,34.180,54.688,91.309,23.438,0
1553630909.828,83.984,30.762,55.664,111.816,37.109,0
1553630909.831,68.359,31.250,55.176,98.633,55.664,0
1553630909.835,81.055,38.574,54.199,77.148,26.855,0
1553630909.839,72.266,33.691,55.176,69.824,60.059,0
1553630909.843,68.848,33.203,59.570,81.543,61.523,0
1553630909.847,83.496,40.527,57.617,90.820,35.645,0
1553630909.851,68.848,36.133,56.641,84.961,47.852,0
1553630909.855,77.148,28.809,56.152,75.195,17.578,0
1553630909.859,102.051,31.738,54.688,82.031,8.301,0
1553630909.863,39.551,34.180,56.641,71.289,43.945,0
1553630909.867,17.578,35.156,60.059,66.895,46.875,0
1553630909.871,45.410,28.320,55.664,63.965,16.602,0
1553630909.874,48.340,27.344,50.781,56.152,11.719,0
1553630909.878,41.504,29.785,55.176,69.336,14.648,0
1553630909.882,42.969,28.809,58.105,64.941,-8.301,0
1553630909.886,42.969,30.273,58.105,65.918,2.441,0
1553630909.890,43.945,27.832,55.664,60.547,20.508,0
1553630909.894,40.527,24.414,56.641,53.223,-1.465,0
1553630909.898,39.062,24.414,57.617,58.594,-1.953,0
1553630909.902,44.434,23.926,58.105,52.246,-8.301,0
1553630909.906,44.922,24.414,57.617,57.129,1.465,0
1553630909.910,37.109,28.809,57.129,50.293,9.277,0
1553630909.914,37.598,28.320,55.176,52.734,-1.953,0
1553630909.917,42.969,22.949,56.152,52.246,-15.137,0
1553630909.921,29.297,23.438,56.641,46.387,-27.832,0
1553630909.925,29.297,28.320,53.711,43.945,-21.973,0
1553630909.929,28.809,20.996,52.734,29.297,-24.414,0
1553630909.933,25.879,15.625,51.758,32.227,-17.578,0
1553630909.937,31.250,18.555,54.688,44.922,-16.113,0
1553630909.941,34.668,25.391,56.641,41.992,-65.430,0
1553630909.945,21.484,25.879,55.664,26.855,-67.871,0
1553630909.949,18.066,17.578,55.176,28.809,-54.199,0
1553630909.953,27.344,17.578,53.223,32.715,-59.082,0
1553630909.956,28.809,20.996,50.781,32.227,-24.414,0
1553630909.960,26.855,16.602,51.758,33.691,-35.645,0
1553630909.964,36.621,17.578,57.617,23.926,-63.477,0
1553630909.968,27.832,25.879,55.176,31.250,-43.945,0
1553630909.972,20.508,13.184,52.734,34.180,-36.621,0
1553630909.976,31.738,6.348,54.199,27.344,-44.434,0
1553630909.980,25.879,9.277,53.711,25.391,-35.156,0
1553630909.984,20.508,6.348,53.711,34.180,-41.992,0
1553630909.988,20.508,1.953,51.758,38.086,-31.250,0
1553630909.992,23.926,-0.977,50.293,23.926,-32.715,0
1553630909.996,28.320,-3.418,48.828,27.832,-59.570,0
1553630909.999,22.949,-2.441,45.898,23.926,-24.414,0
1553630910.003,13.672,-2.441,47.363,27.832,-3.418,0
1553630910.007,21.973,-16.113,49.316,34.180,-48.340,0
1553630910.011,24.414,-20.996,46.875,28.809,-37.598,0
1553630910.015,7.812,-15.625,41.992,21.973,-10.254,0
1553630910.019,6.348,-8.789,40.527,25.879,-30.273,0
1553630910.023,14.648,-9.766,45.410,28.809,-38.574,0
1553630910.027,9.766,-19.531,45.410,26.367,-33.203,0
1553630910.031,6.348,-16.602,40.039,26.367,-26.367,0
1553630910.035,2.441,-14.160,40.527,27.344,-53.223,0
1553630910.039,-2.930,-16.602,39.062,21.484,-63.965,0
1553630910.042,5.859,-16.113,37.109,16.113,-17.090,0
1553630910.046,7.324,-13.672,38.574,26.367,-14.648,0
1553630910.050,1.465,-14.160,37.109,21.973,-67.383,0
1553630910.054,1.465,-10.742,37.598,9.277,-67.871,0
1553630910.058,6.348,-3.418,41.504,21.484,-61.035,0
1553630910.062,0.488,-14.648,39.551,28.809,-53.223,0
1553630910.066,-5.371,-21.973,36.133,17.090,-42.969,0
1553630910.070,0.977,-15.625,38.574,19.531,-26.367,0
1553630910.074,-2.930,-20.996,40.039,25.879,-20.996,0
1553630910.078,4.883,-19.531,40.039,36.133,-26.855,0
1553630910.081,10.742,-5.371,38.086,25.879,-21.484,0
1553630910.085,18.066,-15.137,38.086,21.973,-9.277,0
1553630910.089,-15.137,-26.367,33.691,24.902,10.742,0
1553630910.093,-27.832,-23.438,33.203,24.414,4.395,0
1553630910.097,28.809,-27.344,40.039,36.133,-26.855,0
1553630910.101,14.160,-29.297,38.086,30.762,-41.504,0
1553630910.105,6.836,-31.250,37.598,33.691,-12.207,0
1553630910.109,8.789,-28.320,38.574,30.273,-4.883,0
1553630910.113,-20.508,-29.297,36.621,23.926,-9.277,0
1553630910.117,-19.043,-27.344,37.109,36.133,10.742,0
1553630910.121,-0.488,-25.391,34.668,35.156,-7.812,0
1553630910.124,-48.340,-41.016,34.668,25.879,31.250,0
1553630910.128,-19.043,-49.805,36.133,29.785,28.320,0
1553630910.132,7.812,-41.016,32.227,27.344,3.418,0
1553630910.136,-30.762,-41.016,29.785,32.227,28.320,0
1553630910.140,-45.410,-45.898,25.391,22.949,39.551,0
1553630910.144,-23.438,-43.457,28.320,12.207,52.734,0
1553630910.148,-27.344,-39.551,29.297,22.461,50.781,0
1553630910.152,16.602,-39.551,28.809,36.621,27.344,0
1553630910.156,41.016,-38.086,33.691,35.645,11.719,0
1553630910.160,-6.836,-47.363,32.227,28.320,19.531,0
1553630910.164,6.348,-39.551,25.391,27.832,70.801,0
1553630910.167,-5.859,-37.109,24.902,25.391,78.125,0
1553630910.171,-9.277,-40.527,26.855,20.508,55.664,0
1553630910.175,-62.988,-53.223,29.785,31.250,79.102,0
1553630910.179,-2.441,-41.016,28.809,35.645,66.895,0
1553630910.183,45.410,-22.461,30.273,25.391,53.711,0
1553630910.187,-62.012,-32.715,30.273,17.090,73.242,0
1553630910.191,-13.672,-25.391,25.879,13.184,66.406,0
1553630910.195,49.805,-20.020,26.855,14.648,40.039,0
1553630910.199,-7.812,-24.902,24.902,18.066,27.344,0
1553630910.203,12.207,-25.879,24.902,21.484,12.695,0
1553630910.206,24.902,-23.438,29.297,10.254,-1.953,0
1553630910.210,-86.426,-15.625,28.809,9.766,11.719,0
1553630910.214,-45.898,-21.484,27.832,23.926,-23.926,0
1553630910.218,113.281,-21.973,26.367,27.832,-19.043,0
1553630910.222,60.059,-20.020,28.320,20.508,-17.578,0
1553630910.226,38.086,-20.508,28.809,13.672,-21.973,0
1553630910.230,1.953,-20.508,30.273,18.066,-15.137,0
1553630910.234,-4.883,-18.555,30.762,25.391,-10.742,0
1553630910.238,40.039,-14.160,27.344,18.555,-14.648,0
1553630910.242,2.930,-16.113,27.344,20.508,-49.805,0
1553630910.246,31.250,-5.371,30.273,19.531,-72.754,0
1553630910.249,37.598,-10.254,33.203,19.043,-87.402,0
1553630910.253,7.812,-15.625,30.273,22.949,-68.848,0
1553630910.257,-6.348,-16.113,24.414,14.160,-81.055,0
1553630910.261,-7.812,-23.438,23.926,18.555,-89.355,0
1553630910.265,25.879,-16.602,28.320,25.391,-84.473,0
1553630910.269,43.945,-3.418,28.320,20.996,-102.051,0
1553630910.273,46.387,-14.160,28.320,21.973,-96.680,0
1553630910.277,41.504,-15.625,29.785,19.531,-87.402,0
1553630910.281,12.695,-9.766,29.297,27.344,-76.172,0
1553630910.285,8.789,-5.371,27.344,31.738,-73.730,0
1553630910.289,35.156,-10.254,27.832,22.461,-97.168,0
1553630910.292,13.184,-11.230,29.297,23.438,-112.305,0
1553630910.296,2.441,-10.742,31.738,28.320,-90.820,0
1553630910.300,0.000,-7.812,29.297,41.992,-80.566,0
1553630910.304,29.297,2.441,28.320,39.551,-113.281,0
1553630910.308,32.227,-1.465,32.227,29.297,-102.051,0
1553630910.312,32.227,0.977,29.785,30.273,-62.012,0
1553630910.316,43.457,-7.812,22.461,27.832,-73.730,0
1553630910.320,28.320,-18.555,25.391,24.902,-102.539,0
1553630910.324,-1.465,-10.742,30.273,27.832,-87.891,0
1553630910.328,14.648,-0.488,29.785,34.180,-70.801,0
1553630910.331,37.598,5.371,23.438,35.156,-83.984,0
1553630910.335,5.371,-2.930,25.879,29.297,-85.938,0
1553630910.339,14.160,-10.254,30.762,26.855,-66.895,0
1553630910.343,31.250,-4.883,28.320,31.250,-53.223,0
1553630910.347,-5.371,-6.348,27.344,25.391,-62.012,0
1553630910.351,31.738,-11.719,28.809,33.203,-81.543,0
1553630910.355,33.203,-7.324,26.855,29.785,-75.684,0
1553630910.359,20.508,-11.230,24.902,12.695,-21.973,0
1553630910.363,32.715,-16.113,25.879,25.391,-34.668,0
1553630910.367,6.836,-6.836,26.855,20.020,-67.383,0
1553630910.371,0.977,-5.859,28.320,12.207,-39.551,0
1553630910.374,20.996,-17.090,26.367,24.902,-14.648,0
1553630910.378,30.762,-8.301,24.902,20.996,-13.672,0
1553630910.382,49.316,-0.977,29.297,20.508,-62.500,0
1553630910.386,35.156,-5.859,24.902,14.648,-85.938,0
1553630910.390,23.438,-4.395,23.438,15.625,-58.594,0
1553630910.394,25.391,-10.742,24.902,30.273,-49.316,0
1553630910.398,19.531,-13.672,22.949,34.668,-52.246,0
1553630910.402,21.484,-8.789,22.949,29.297,-34.180,0
1553630910.406,15.625,-8.301,26.855,27.832,-54.199,0
1553630910.410,16.113,-7.812,26.367,41.016,-47.852,0
1553630910.414,18.555,-8.301,21.484,38.574,-29.785,0
1553630910.417,22.461,-6.836,21.484,30.273,-49.316,0
1553630910.421,16.113,-3.418,26.855,38.574,-41.504,0
1553630910.425,14.160,-5.371,23.926,31.250,-65.918,0
1553630910.429,18.555,-0.977,19.531,18.555,-65.918,0
1553630910.433,19.531,-8.301,21.484,15.625,-31.250,0
1553630910.437,24.414,-7.812,20.508,17.090,-44.922,0
1553630910.441,19.531,1.465,21.973,23.926,-55.664,0
1553630910.445,23.926,0.488,26.367,22.949,-66.895,0
1553630910.449,29.297,5.371,27.344,19.043,-73.242,0
1553630910.453,14.648,0.000,26.367,17.578,-77.148,0
1553630910.456,0.488,-7.812,19.531,6.836,-35.156,0
1553630910.460,19.043,-7.812,18.555,19.531,-21.973,0
1553630910.464,26.855,4.883,26.855,28.809,-35.156,0
1553630910.468,26.367,5.371,23.926,46.387,-31.250,0
1553630910.472,48.340,-8.301,33.203,64.941,-57.617,0
1553630910.476,9.277,-5.859,40.527,29.297,-58.105,0
1553630910.480,-40.527,-5.859,39.551,-9.277,-30.273,0
1553630910.484,-51.270,-2.441,46.387,-28.320,-13.184,0
1553630910.488,-73.242,11.719,63.965,-37.598,0.000,0
1553630910.492,-110.352,15.625,79.102,-68.848,6.348,0
1553630910.496,-163.086,4.395,75.195,-123.047,0.000,0
1553630910.499,-199.707,9.277,88.379,-152.344,-8.789,0
1553630910.503,-241.699,19.531,99.609,-217.773,-4.395,0
1553630910.507,-296.875,18.066,101.074,-263.672,-1.953,0
1553630910.511,-329.102,23.926,110.840,-262.207,-0.977,0
1553630910.515,-363.770,33.203,112.305,-302.246,3.418,0
1553630910.519,-413.086,47.852,112.793,-350.586,-16.602,0
1553630910.523,-463.379,51.758,120.605,-389.160,-0.977,0
1553630910.527,-488.281,54.688,129.395,-413.574,5.371,0
1553630910.531,-505.371,57.129,137.207,-428.711,-37.598,0
1553630910.535,-535.645,53.711,140.137,-458.984,-31.250,0
1553630910.539,-559.082,48.828,138.672,-473.633,-2.930,0
1553630910.542,-542.969,47.363,144.531,-452.148,-20.508,0
1553630910.546,-527.344,54.199,144.043,-442.871,-11.719,0
1553630910.550,-526.367,55.176,137.207,-443.848,-5.859,0
1553630910.554,-522.461,53.711,127.930,-444.824,-2.441,0
1553630910.558,-503.418,41.016,120.605,-423.340,33.203,0
1553630910.562,-468.262,25.391,115.234,-407.227,32.715,0
1553630910.566,-441.406,30.762,107.422,-365.723,13.672,0
1553630910.570,-431.641,33.203,99.121,-317.871,3.906,0
1553630910.574,-391.113,24.902,87.891,-282.715,20.508,0
1553630910.578,-358.887,20.020,76.172,-257.812,44.922,0
1553630910.581,-339.355,23.438,64.941,-248.535,51.758,0
1553630910.585,-308.105,18.066,51.270,-225.098,44.434,0
1553630910.589,-276.855,15.137,44.922,-187.988,21.484,0
1553630910.593,-238.281,12.207,40.039,-158.203,33.203,0
1553630910.597,-221.191,5.859,30.273,-141.602,74.219,0
1553630910.601,-193.848,-1.465,18.555,-120.117,75.684,0
1553630910.605,-156.738,-10.742,11.230,-97.168,54.199,0
1553630910.609,-134.766,0.488,9.277,-76.660,45.410,0
1553630910.613,-115.234,-5.859,5.859,-58.594,34.668,0
1553630910.617,-93.262,-21.484,1.465,-32.715,27.832,0
1553630910.621,-66.895,-18.066,-2.441,-4.883,41.992,0
1553630910.624,-45.898,-21.484,-8.789,8.789,44.922,0
1553630910.628,-39.551,-23.926,-14.648,20.996,27.832,0
1553630910.632,-28.320,-21.484,-17.090,22.949,-4.395,0
1553630910.636,-5.371,-15.137,-19.043,33.203,-11.230,0
1553630910.640,-5.859,-18.555,-20.020,42.480,23.438,0
1553630910.644,3.418,-24.902,-22.461,62.500,18.066,0
1553630910.648,20.996,-28.320,-26.855,77.148,-8.789,0
1553630910.652,30.762,-28.809,-28.809,74.707,-0.977,0
1553630910.656,41.016,-31.250,-26.855,76.660,0.488,0
1553630910.660,47.852,-19.043,-22.949,89.844,-10.254,0
1553630910.664,60.059,-10.742,-26.367,97.656,-28.809,0
1553630910.667,58.105,-32.227,-33.691,95.703,-14.160,0
1553630910.671,50.781,-39.551,-33.691,100.586,4.395,0
1553630910.675,56.152,-29.297,-35.156,97.168,-3.418,0
1553630910.679,65.918,-23.438,-38.574,104.004,-44.922,0
1553630910.683,75.195,-20.020,-34.668,112.305,-58.594,0
1553630910.687,73.730,-11.719,-25.879,109.375,-35.645,0
1553630910.691,83.008,-20.020,-26.367,114.258,-48.828,0
1553630910.695,85.449,-30.762,-30.273,108.887,-62.500,0
1553630910.699,73.242,-20.020,-28.809,106.934,-39.551,0
1553630910.703,85.449,-13.672,-29.297,111.328,-55.664,0
1553630910.706,93.262,-13.672,-27.832,106.934,-75.195,0
1553630910.710,92.285,-2.441,-25.879,104.492,-113.770,0
1553630910.714,93.750,0.977,-24.902,103.516,-134.277,0
1553630910.718,78.125,-13.672,-28.809,101.562,-74.219,0
1553630910.722,66.895,-15.137,-28.320,109.863,-103.516,0
1553630910.726,70.801,-8.789,-28.809,112.305,-120.117,0
1553630910.730,73.242,-12.695,-29.785,101.074,-112.305,0
1553630910.734,72.754,-7.324,-27.344,90.820,-126.465,0
1553630910.738,73.242,0.488,-28.809,93.262,-123.535,0
1553630910.742,75.195,-4.883,-26.367,89.355,-134.277,0
1553630910.746,78.125,-0.488,-26.855,85.938,-134.277,0
1553630910.749,78.125,7.324,-27.832,90.820,-99.609,0
1553630910.753,79.590,4.395,-22.461,95.703,-112.305,0
1553630910.757,79.590,4.395,-18.555,94.238,-125.000,0
1553630910.761,74.707,1.953,-20.508,78.125,-130.859,0
1553630910.765,70.312,9.766,-18.066,82.520,-171.387,0
1553630910.769,64.453,16.113,-18.555,87.891,-179.688,0
1553630910.773,70.312,20.508,-20.508,77.637,-149.902,0
1553630910.777,69.336,37.109,-10.254,81.543,-164.062,0
1553630910.781,62.012,29.785,-13.184,77.148,-195.312,0
1553630910.785,71.777,21.973,-16.602,73.242,-176.270,0
1553630910.789,77.637,38.574,-9.277,77.637,-173.340,0
1553630910.792,73.730,47.852,-8.789,76.172,-230.469,0
1553630910.796,72.266,59.082,-5.371,69.824,-173.340,0
1553630910.800,65.430,57.129,-3.906,62.988,-134.766,0
1553630910.804,68.359,60.059,0.000,63.477,-140.137,0
1553630910.808,70.801,70.312,3.418,63.477,-113.281,0
1553630910.812,66.406,61.523,3.906,70.801,-170.898,0
1553630910.816,75.684,68.848,11.719,89.844,-190.430,0
1553630910.820,73.242,87.891,17.578,83.984,-131.836,0
1553630910.824,63.477,103.027,18.555,73.242,-156.738,0
1553630910.828,65.430,104.492,19.531,76.172,-165.527,0
1553630910.831,64.453,98.633,22.461,71.777,-183.594,0
1553630910.835,70.312,95.703,21.973,75.195,-157.227,0
1553630910.839,69.336,104.492,25.879,75.684,-91.797,0
1553630910.843,65.918,112.793,33.203,78.125,-100.586,0
1553630910.847,75.684,108.398,30.762,72.754,-129.395,0
1553630910.851,82.520,106.934,29.785,80.078,-144.531,0
1553630910.855,80.078,107.910,36.133,91.797,-140.625,0
1553630910.859,79.102,117.676,38.086,77.148,-137.207,0
1553630910.863,70.801,123.535,40.527,70.312,-87.402,0
1553630910.867,82.031,118.164,37.598,78.613,-116.211,0
1553630910.871,84.473,117.188,28.320,81.055,-148.438,0
1553630910.874,88.867,136.230,36.621,85.938,-60.547,0
1553630910.878,101.562,140.137,48.828,91.797,-16.602,0
1553630910.882,83.496,135.254,39.062,84.961,-38.086,0
1553630910.886,90.332,146.973,40.039,81.543,-84.961,0
1553630910.890,97.168,142.090,44.434,86.426,-39.062,0
1553630910.894,95.215,143.066,42.480,89.844,-55.176,0
1553630910.898,93.750,153.320,41.504,83.496,-81.543,0
1553630910.902,86.426,148.438,46.387,99.121,-10.742,0
1553630910.906,94.727,148.438,52.246,97.168,29.297,0
1553630910.910,104.980,162.109,51.758,100.586,-28.320,0
1553630910.914,96.680,165.527,49.316,114.258,-88.867,0
1553630910.917,98.633,168.457,52.734,106.445,-91.309,0
1553630910.921,103.027,170.410,56.152,114.258,-71.777,0
1553630910.925,98.633,172.852,51.758,113.281,-41.992,0
1553630910.929,91.797,170.898,51.758,106.445,-79.102,0
1553630910.933,87.402,183.105,58.594,112.793,-61.035,0
1553630910.937,90.332,190.430,59.570,101.562,-16.113,0
1553630910.941,91.797,176.270,52.734,88.379,17.090,0
1553630910.945,86.914,178.711,54.199,93.750,-62.500,0
1553630910.949,84.961,193.848,57.129,97.656,-87.402,0
1553630910.953,92.285,199.707,52.246,94.238,14.648,0
1553630910.956,80.566,197.754,54.199,94.238,-33.203,0
1553630910.960,81.055,198.242,56.641,107.422,-48.828,0
1553630910.964,78.125,203.613,54.688,97.656,48.828,0
1553630910.968,89.355,203.125,57.129,82.520,65.430,0
1553630910.972,89.355,199.219,56.641,95.215,28.809,0
1553630910.976,74.219,194.336,56.152,94.238,-41.504,0
1553630910.980,63.965,187.500,58.594,82.520,-31.738,0
1553630910.984,55.664,186.035,60.059,75.684,-8.789,0
1553630910.988,56.152,180.176,61.035,72.266,6.836,0
1553630910.992,56.641,177.246,61.035,74.707,-35.645,0
1553630910.996,78.125,180.176,63.965,66.406,-19.043,0
1553630910.999,61.035,179.199,61.035,64.453,85.449,0
1553630911.003,26.367,183.105,59.082,54.199,45.898,0
1553630911.007,23.438,187.012,63.477,29.785,-5.859,0
1553630911.011,20.996,171.875,65.918,27.832,22.461,0
1553630911.015,-14.160,145.996,56.152,-3.418,32.227,0
1553630911.019,-9.766,152.344,54.688,-6.348,-0.977,0
1553630911.023,-14.648,159.668,61.035,-12.695,53.711,0
1553630911.027,-51.270,145.020,60.059,-51.270,92.773,0
1553630911.031,-69.824,144.531,61.523,-65.918,50.781,0
1553630911.035,-100.586,143.555,66.895,-82.520,11.719,0
1553630911.039,-105.469,151.367,69.824,-79.590,15.625,0
1553630911.042,-145.508,174.316,66.406,-124.512,15.137,0
1553630911.046,-195.801,199.707,68.359,-181.152,18.066,0
1553630911.050,-211.426,191.406,71.289,-198.242,-22.461,0
1553630911.054,-227.051,178.223,71.777,-208.496,-9.766,0
1553630911.058,-255.371,198.242,75.195,-237.793,69.824,0
1553630911.062,-275.879,204.102,79.590,-270.996,100.586,0
1553630911.066,-264.160,195.312,82.031,-278.320,91.797,0
1553630911.070,-265.625,189.941,87.402,-275.879,3.906,0
1553630911.074,-263.672,192.871,80.566,-264.648,3.418,0
1553630911.078,-268.066,200.684,68.848,-259.277,95.215,0
1553630911.081,-261.719,197.754,65.918,-260.742,80.078,0
1553630911.085,-224.609,187.988,57.129,-225.586,55.664,0
1553630911.089,-200.684,191.895,47.363,-200.684,48.828,0
1553630911.093,-165.527,190.918,37.598,-183.105,-21.484,0
1553630911.097,-117.676,182.617,33.691,-140.625,-21.484,0
1553630911.101,-81.055,170.898,27.344,-99.609,13.672,0
1553630911.105,-49.316,159.180,9.766,-64.453,24.414,0
1553630911.109,-14.648,148.926,0.488,-30.273,69.336,0
1553630911.113,40.039,143.555,-6.348,21.973,65.918,0
1553630911.117,80.078,134.766,-10.254,57.129,-23.926,0
1553630911.121,103.516,114.746,-11.719,83.984,-12.207,0
1553630911.124,140.137,110.352,-14.160,119.141,56.641,0
1553630911.128,167.480,106.934,-22.949,144.531,13.672,0
1553630911.132,198.242,93.750,-29.297,173.340,17.578,0
1553630911.136,212.891,79.590,-27.344,206.543,-7.812,0
1553630911.140,235.840,73.242,-31.250,240.234,-1.953,0
1553630911.144,246.582,66.406,-30.762,242.188,31.250,0
1553630911.148,240.723,53.711,-27.344,239.746,-14.160,0
1553630911.152,265.137,62.012,-33.203,262.695,0.977,0
1553630911.156,277.344,62.988,-36.133,271.973,2.930,0
1553630911.160,292.480,49.316,-33.203,279.297,21.484,0
1553630911.164,300.293,52.246,-24.902,285.156,-38.086,0
1553630911.167,286.621,53.711,-25.391,278.809,-16.113,0
1553630911.171,274.414,52.246,-21.484,280.762,37.598,0
1553630911.175,263.184,58.105,-13.184,273.926,9.277,0
1553630911.179,266.602,59.082,-9.277,266.113,9.766,0
1553630911.183,263.184,55.176,-9.277,260.254,-4.395,0
1553630911.187,250.977,51.270,-6.836,255.371,-33.691,0
1553630911.191,248.047,53.223,-0.488,255.859,32.227,0
1553630911.195,240.234,51.758,5.371,244.141,70.801,0
1553630911.199,229.980,56.152,9.277,228.027,12.207,0
1553630911.203,226.562,62.012,10.742,226.562,84.473,0
1553630911.206,218.262,61.523,14.160,221.191,17.578,0
1553630911.210,209.961,62.012,20.020,220.215,2.930,0
1553630911.214,211.426,53.711,21.484,218.750,38.574,0
1553630911.218,205.566,49.805,23.438,207.520,-5.859,0
1553630911.222,200.195,57.129,28.809,207.520,32.227,0
1553630911.226,187.012,57.617,29.297,196.289,51.270,0
1553630911.230,174.805,60.547,27.832,183.594,40.039,0
1553630911.234,179.199,66.406,35.645,185.547,22.461,0
1553630911.238,178.711,54.199,37.109,187.988,62.988,0
1553630911.242,175.293,40.527,32.227,170.410,-0.977,0
1553630911.246,169.434,47.852,35.156,171.387,-63.965,0
1553630911.249,166.504,55.176,40.527,169.434,13.184,0
1553630911.253,154.785,48.340,38.086,136.719,73.242,0
1553630911.257,145.020,47.852,33.691,129.395,45.410,0
1553630911.261,145.508,53.223,39.062,124.512,74.219,0
1553630911.265,137.207,45.898,38.574,124.023,76.660,0
1553630911.269,131.348,44.922,41.504,153.320,36.133,0
1553630911.273,134.277,41.992,41.992,120.117,94.238,0
1553630911.277,129.395,43.945,41.016,109.375,40.039,0
1553630911.281,120.117,47.852,48.340,130.371,26.855,0
1553630911.285,113.281,46.387,44.922,125.977,39.551,0
1553630911.289,120.605,44.922,41.504,128.906,6.836,0
1553630911.292,121.582,31.250,43.457,131.836,41.504,0
1553630911.296,110.840,32.715,46.387,127.930,44.922,0
1553630911.300,108.887,37.598,44.922,109.863,18.555,0
1553630911.304,106.445,33.203,44.922,115.234,-4.395,0
1553630911.308,107.422,36.133,48.828,104.492,18.555,0
1553630911.312,110.352,39.551,51.758,102.051,60.547,0
1553630911.316,103.027,31.738,44.922,81.055,63.477,0
1553630911.320,96.680,20.996,38.086,68.359,42.480,0
1553630911.324,105.469,21.973,48.828,104.980,9.766,0
1553630911.328,104.004,25.879,42.480,61.523,52.734,0
1553630911.331,98.633,20.020,39.551,83.008,48.828,0
1553630911.335,99.121,15.625,47.852,124.512,-30.762,0
1553630911.339,84.961,0.488,38.574,100.586,34.180,0
1553630911.343,77.148,-13.672,31.250,102.539,49.316,0
1553630911.347,77.148,-10.742,29.297,84.473,43.457,0
1553630911.351,68.848,-10.742,26.855,75.195,95.703,0
1553630911.355,62.500,-18.066,25.391,74.219,125.000,0
1553630911.359,56.641,-26.855,21.973,54.199,110.352,0
1553630911.363,54.688,-27.344,14.648,54.688,59.570,0
1553630911.367,44.922,-32.227,11.230,55.176,26.367,0
1553630911.371,39.551,-33.691,13.672,53.711,86.914,0
1553630911.374,42.480,-42.969,14.160,50.293,92.285,0
1553630911.378,27.832,-52.246,11.719,41.504,26.367,0
1553630911.382,24.902,-41.504,2.930,9.766,35.156,0
1553630911.386,32.227,-36.133,4.883,43.457,34.668,0
1553630911.390,27.832,-43.945,7.812,79.102,25.879,0
1553630911.394,25.879,-56.641,4.883,53.711,70.801,0
1553630911.398,54.688,-63.477,10.254,81.543,52.246,0
1553630911.402,59.082,-41.992,5.859,51.270,74.219,0
1553630911.406,28.809,-21.484,2.441,21.484,119.629,0
1553630911.410,8.301,-21.484,6.348,30.762,29.785,0
1553630911.414,-4.883,-10.254,1.953,-5.859,15.625,0
1553630911.417,-26.367,2.441,-1.953,-26.855,57.129,0
1553630911.421,-51.758,2.930,-1.465,-47.852,27.344,0
1553630911.425,-66.895,12.207,-3.906,-65.430,28.320,0
1553630911.429,-74.219,18.066,-6.836,-81.055,87.402,0
1553630911.433,-81.055,18.555,-13.672,-93.750,80.566,0
1553630911.437,-83.984,23.438,-19.531,-99.609,22.949,0
1553630911.441,-78.613,37.109,-23.438,-101.562,63.965,0
1553630911.445,-65.430,36.621,-26.367,-92.773,104.492,0
1553630911.449,-66.406,20.996,-19.531,-80.078,64.453,0
1553630911.453,-66.406,23.438,-16.602,-66.406,54.199,0
1553630911.456,-49.805,19.043,-21.973,-59.570,88.867,0
1553630911.460,-38.574,11.230,-22.949,-49.316,48.340,0
1553630911.464,-44.922,11.230,-23.926,-45.410,37.109,0
1553630911.468,-27.344,9.766,-21.973,-36.133,48.828,0
1553630911.472,-6.836,14.648,-16.602,-24.414,30.762,0
1553630911.476,-13.672,8.301,-18.555,-19.531,13.184,0
1553630911.480,-17.090,-3.418,-22.461,-7.324,30.273,0
1553630911.484,-15.137,-2.930,-23.438,-3.906,66.895,0
1553630911.488,-3.418,-4.883,-26.367,-4.883,47.363,0
1553630911.492,-7.812,-6.348,-23.926,4.883,28.320,0
1553630911.496,-18.066,6.836,-22.461,-3.906,46.387,0
1553630911.499,-17.578,2.441,-23.438,6.348,9.766,0
1553630911.503,-2.930,-13.672,-21.973,31.738,3.906,0
1553630911.507,-0.488,-3.418,-22.461,-8.301,69.336,0
1553630911.511,7.812,8.301,-15.625,-0.488,38.574,0
1553630911.515,7.324,4.883,-15.137,39.551,10.742,0
1553630911.519,-7.812,-0.977,-20.020,29.297,57.129,0
1553630911.523,-4.395,-9.277,-20.996,24.414,48.828,0
1553630911.527,15.137,-10.742,-19.531,36.133,-11.719,0
1553630911.531,31.738,-2.930,-18.555,31.250,9.766,0
1553630911.535,19.043,-5.859,-15.625,32.227,10.254,0
1553630911.539,-1.465,-6.836,-17.090,30.762,-5.371,0
1553630911.542,12.207,7.812,-17.578,26.367,58.594,0
1553630911.546,28.809,2.441,-11.719,27.344,28.320,0
1553630911.550,18.066,-3.906,-13.184,24.902,-20.508,0
1553630911.554,10.254,7.324,-10.254,19.531,52.246,0
1553630911.558,5.371,-0.977,-10.254,10.254,42.969,0
1553630911.562,-1.953,-9.766,-14.160,18.066,-18.066,0
1553630911.566,1.953,-4.395,-10.742,15.137,30.273,0
1553630911.570,13.184,-3.418,-6.836,13.184,34.180,0
1553630911.574,6.836,-4.883,-11.230,15.625,-30.762,0
1553630911.578,4.883,9.766,-6.836,16.113,-4.395,0
1553630911.581,12.207,15.137,-0.977,18.555,21.973,0
1553630911.585,0.000,7.324,-7.812,16.113,50.293,0
1553630911.589,10.742,9.277,-12.207,11.719,51.270,0
1553630911.593,12.207,17.578,-0.977,22.461,8.789,0
1553630911.597,5.371,17.090,0.000,22.949,51.758,0
1553630911.601,3.418,4.395,-6.348,9.766,51.758,0
1553630911.605,-9.277,-2.441,-9.277,11.719,47.852,0
1553630911.609,-6.348,0.977,-8.789,18.066,14.648,0
1553630911.613,8.789,8.789,-5.371,19.043,0.977,0
1553630911.617,5.371,11.719,-10.742,-17.578,67.871,0
1553630911.621,-2.930,14.648,-7.324,14.160,78.125,0
1553630911.624,9.277,16.113,-4.395,67.871,53.223,0
1553630911.628,5.371,14.648,-3.906,49.805,28.809,0
1553630911.632,11.719,16.602,0.488,41.992,23.438,0
1553630911.636,12.695,19.043,-6.836,40.527,24.414,0
1553630911.640,3.418,23.926,-8.789,34.668,42.969,0
1553630911.644,6.348,17.090,-3.418,20.508,54.688,0
1553630911.648,1.953,21.973,0.977,22.461,6.836,0
1553630911.652,2.930,29.297,0.488,0.000,-51.758,0
1553630911.656,6.348,20.996,-2.930,-41.504,41.992,0
1553630911.660,7.324,23.438,-0.488,26.855,50.293,0
1553630911.664,2.930,25.879,-2.930,56.152,-46.387,0
1553630911.667,-3.418,35.156,-6.836,11.230,14.160,0
1553630911.671,-4.883,36.133,-4.883,19.531,70.312,0
1553630911.675,-6.348,22.461,-5.859,22.949,9.766,0
1553630911.679,3.418,21.484,-9.277,15.137,7.324,0
1553630911.683,7.812,20.996,-5.371,21.484,24.414,0
1553630911.687,14.648,20.508,0.977,24.414,-2.441,0
1553630911.691,20.020,28.320,-1.465,19.531,-13.672,0
1553630911.695,8.789,25.391,-3.906,5.371,-14.648,0
1553630911.699,4.883,20.996,-6.348,3.906,-19.043,0
1553630911.703,10.254,22.949,-4.395,27.832,40.527,0
1553630911.706,13.184,20.020,-0.488,37.109,32.715,0
1553630911.710,12.695,17.578,-3.418,39.551,-1.465,0
1553630911.714,9.277,20.508,-1.953,52.734,31.738,0
1553630911.718,4.395,18.066,-10.742,-21.484,47.852,0
1553630911.722,3.906,11.719,-11.719,-15.137,40.527,0
1553630911.726,1.953,6.836,3.418,77.148,-4.395,0
1553630911.730,11.230,10.742,2.441,46.875,18.066,0
1553630911.734,16.113,14.160,-3.418,27.832,13.184,0
1553630911.738,13.672,13.184,-8.301,22.461,32.715,0
1553630911.742,10.254,11.230,-6.836,33.203,56.152,0
1553630911.746,5.371,5.371,-6.348,26.367,81.543,0
1553630911.749,14.648,5.859,-4.883,23.438,116.699,0
1553630911.753,18.555,1.953,-2.441,43.945,96.191,0
1553630911.757,18.066,-0.488,-3.418,34.180,10.742,0
1553630911.761,19.531,-4.883,-6.836,21.973,43.945,0
1553630911.765,23.926,-12.695,-5.859,31.250,73.730,0
1553630911.769,23.438,-10.742,-1.465,38.574,49.805,0
1553630911.773,19.043,-7.324,-4.395,20.020,31.738,0
1553630911.777,21.973,-8.301,-0.488,24.902,45.898,0
1553630911.781,13.672,-13.184,3.906,46.875,80.078,0
1553630911.785,12.695,-14.160,-2.441,32.227,77.148,0
1553630911.789,8.301,-8.789,1.465,29.297,59.082,0
1553630911.792,0.977,-6.348,-0.488,28.320,43.945,0
1553630911.796,10.254,-5.371,-0.488,27.832,16.602,0
1553630911.800,6.836,-11.230,2.441,26.367,52.246,0
1553630911.804,5.859,-17.090,-1.953,27.344,67.383,0
1553630911.808,6.348,-14.160,-3.906,24.902,-14.160,0
1553630911.812,3.418,-16.113,-0.977,16.113,-1.465,0
1553630911.816,7.324,-17.578,2.930,25.391,33.691,0
1553630911.820,5.859,-9.766,6.836,41.992,30.762,0
1553630911.824,14.160,-10.742,5.859,34.668,57.129,0
1553630911.828,13.184,-22.461,5.371,31.250,50.781,0
1553630911.831,8.301,-18.066,1.953,31.738,14.160,0
1553630911.835,13.672,-6.348,1.953,32.715,22.949,0
1553630911.839,18.066,-7.812,4.395,24.414,40.527,0
1553630911.843,26.367,-9.766,-0.488,25.391,15.137,0
1553630911.847,15.137,-7.324,0.488,30.273,-26.367,0
1553630911.851,2.441,0.977,6.348,30.273,34.668,0
1553630911.855,11.719,5.371,4.395,34.180,65.918,0
1553630911.859,13.184,4.395,7.324,42.480,14.160,0
1553630911.863,9.766,10.742,10.254,42.969,37.598,0
1553630911.867,7.812,3.418,5.859,36.133,62.988,0
1553630911.871,9.766,-6.836,5.859,21.973,38.086,0
1553630911.874,11.719,7.324,6.836,20.996,14.160,0
1553630911.878,17.090,11.230,7.324,24.902,18.555,0
1553630911.882,20.020,1.465,6.836,16.602,4.883,0
1553630911.886,4.395,3.418,5.371,14.648,2.930,0
1553630911.890,-9.277,8.789,0.000,9.277,35.156,0
1553630911.894,0.000,7.812,3.906,14.160,15.625,0
1553630911.898,2.930,6.836,6.836,18.066,33.203,0
1553630911.902,-6.348,4.883,4.883,23.926,87.891,0
1553630911.906,4.395,4.883,3.906,22.949,28.320,0
1553630911.910,6.836,10.742,7.324,18.066,1.465,0
1553630911.914,5.859,16.602,11.230,24.902,54.688,0
1553630911.917,10.254,12.207,6.836,25.879,16.113,0
1553630911.921,11.719,12.695,7.324,27.832,27.832,0
1553630911.925,10.254,16.113,12.207,30.273,69.824,0
1553630911.929,10.742,12.695,12.207,15.625,5.371,0
1553630911.933,15.625,9.277,8.789,16.113,41.016,0
1553630911.937,10.742,4.883,4.883,25.879,14.648,0
1553630911.941,9.277,5.859,9.766,22.461,-27.344,0
1553630911.945,17.578,17.090,17.090,24.902,22.461,0
1553630911.949,13.672,7.324,10.742,22.461,21.484,0
1553630911.953,8.789,8.789,9.766,13.672,12.207,0
1553630911.956,21.973,28.320,8.789,11.719,33.691,0
1553630911.960,11.719,24.902,6.836,16.113,76.172,0
1553630911.964,2.930,23.926,8.789,21.484,96.680,0
1553630911.968,0.977,26.367,10.742,19.043,67.383,0
1553630911.972,-5.371,27.344,20.508,24.902,63.477,0
1553630911.976,6.348,30.762,13.672,25.391,32.715,0
1553630911.980,14.648,24.414,6.348,28.320,-18.066,0
1553630911.984,22.949,21.484,8.301,29.785,13.672,0
1553630911.988,18.555,25.879,13.184,36.133,66.406,0
1553630911.992,5.859,24.902,12.207,38.086,36.621,0
1553630911.996,4.395,18.555,5.859,25.879,-20.020,0
1553630911.999,15.137,22.949,12.207,27.344,-36.133,0
1553630912.003,7.812,31.738,12.207,35.156,4.883,0
1553630912.007,0.000,34.668,4.883,33.691,44.434,0
1553630912.011,-1.465,31.738,2.930,25.391,21.973,0
1553630912.015,7.324,28.809,5.371,33.691,92.773,0
1553630912.019,7.812,27.344,10.254,37.109,93.262,0
1553630912.023,-0.488,28.320,8.301,37.598,48.828,0
1553630912.027,17.578,37.598,6.836,33.203,15.625,0
1553630912.031,10.254,20.996,8.789,18.066,-6.836,0
1553630912.035,5.371,10.742,3.906,23.438,76.660,0
1553630912.039,16.602,20.508,7.324,30.273,65.918,0
1553630912.042,9.766,15.137,8.789,26.855,-3.906,0
1553630912.046,11.230,19.531,4.883,26.855,-27.344,0
1553630912.050,13.184,20.508,0.977,24.902,23.438,0
1553630912.054,10.254,19.043,1.465,32.715,32.227,0
1553630912.058,17.090,17.578,4.883,43.457,-10.254,0
1553630912.062,11.719,8.301,4.883,43.945,30.762,0
1553630912.066,11.230,20.996,1.953,32.715,91.797,0
1553630912.070,18.066,21.484,3.418,36.133,17.090,0
1553630912.074,13.672,1.953,-0.977,46.875,11.719,0
1553630912.078,18.555,-4.395,-3.906,36.133,66.895,0
1553630912.081,19.043,5.371,1.953,36.621,24.902,0
1553630912.085,20.508,3.906,3.906,52.734,3.418,0
1553630912.089,19.043,-1.953,3.418,47.363,3.418,0
1553630912.093,7.812,7.324,0.000,31.250,30.273,0
1553630912.097,7.324,6.836,-4.883,28.809,70.801,0
1553630912.101,21.484,7.812,-8.301,27.832,17.578,0
1553630912.105,37.598,11.719,0.488,47.363,-0.977,0
1553630912.109,40.039,8.301,-1.465,57.617,65.430,0
1553630912.113,46.387,14.160,-12.695,55.664,78.125,0
1553630912.117,43.945,8.301,-7.324,51.758,53.711,0
1553630912.121,36.621,-7.812,-7.324,45.898,5.371,0
1553630912.124,27.344,-6.836,-6.836,50.293,27.832,0
1553630912.128,28.809,-4.883,-8.301,18.555,90.820,0
1553630912.132,38.574,-6.348,-7.812,26.855,-0.977,0
1553630912.136,43.457,-3.906,-0.977,63.477,-32.715,0
1553630912.140,39.062,-1.465,-2.930,49.805,4.395,0
1553630912.144,28.809,-2.441,-4.883,44.922,8.301,0
1553630912.148,25.879,-6.348,-6.836,43.457,71.777,0
1553630912.152,33.203,-2.441,-4.395,51.758,104.980,0
1553630912.156,22.461,-6.348,-4.395,36.621,83.008,0
1553630912.160,19.043,-10.742,-5.859,28.320,-0.977,0
1553630912.164,23.926,-4.395,-3.906,35.156,-48.828,0
1553630912.167,26.367,-1.465,-1.953,30.273,31.250,0
1553630912.171,26.367,-7.812,-2.930,29.297,57.617,0
1553630912.175,8.301,-18.066,-7.812,23.926,49.805,0
1553630912.179,11.230,-15.137,-5.371,22.461,46.387,0
1553630912.183,15.137,-6.836,2.441,29.297,62.988,0
1553630912.187,23.926,-1.953,-3.906,28.320,100.098,0
1553630912.191,33.203,-12.207,-11.230,50.293,68.848,0
1553630912.195,19.531,-16.113,-5.371,53.223,50.293,0
1553630912.199,13.184,-9.766,0.977,21.973,100.586,0
1553630912.203,7.324,-7.812,6.348,31.250,71.777,0
1553630912.206,12.207,-8.301,-2.930,31.738,10.742,0
1553630912.210,19.531,-13.672,-1.465,35.156,1.465,0
1553630912.214,18.066,-7.812,3.418,38.086,33.691,0
1553630912.218,4.395,-7.812,-0.977,23.438,72.754,0
1553630912.222,8.301,-13.672,0.488,34.180,13.672,0
1553630912.226,22.949,-12.207,1.953,49.805,-25.879,0
1553630912.230,10.254,-10.254,-1.953,26.855,76.660,0
1553630912.234,-0.488,-13.184,-6.348,8.301,71.777,0
1553630912.238,5.371,-13.672,-1.465,19.043,74.707,0
1553630912.242,9.277,-7.324,-0.977,26.855,87.891,0
1553630912.246,20.996,-6.836,-2.930,21.484,36.621,0
1553630912.249,28.320,-0.977,0.000,20.508,37.598,0
1553630912.253,20.508,-0.488,-3.418,26.855,47.363,0
1553630912.257,16.113,-7.324,-1.465,22.461,36.621,0
1553630912.261,20.996,-0.977,-0.977,24.902,51.758,0
1553630912.265,20.508,-6.836,-2.930,33.691,53.711,0
1553630912.269,9.766,-8.301,-4.395,21.484,46.387,0
1553630912.273,4.883,10.742,-5.371,28.809,67.383,0
1553630912.277,7.324,10.742,-2.441,44.434,-15.625,0
1553630912.281,12.207,5.371,0.977,40.527,-14.648,0
1553630912.285,16.602,0.000,-0.488,31.738,69.824,0
1553630912.289,0.000,-0.488,-1.953,25.879,66.406,0
1553630912.292,1.953,0.977,2.441,31.250,-4.883,0
1553630912.296,7.812,-5.371,2.441,28.320,21.973,0
1553630912.300,-4.395,-3.906,0.000,37.109,12.207,0
1553630912.304,0.488,6.836,-5.371,33.691,42.969,0
1553630912.308,-0.488,6.836,-4.883,17.090,92.773,0
1553630912.312,2.930,9.277,2.441,28.809,27.832,0
1553630912.316,17.090,14.160,4.883,34.180,18.555,0
1553630912.320,17.578,12.695,4.883,29.785,41.016,0
1553630912.324,9.277,9.277,5.859,27.344,42.969,0
1553630912.328,15.625,19.043,5.371,31.738,57.129,0
1553630912.331,35.645,22.461,3.418,45.410,25.391,0
1553630912.335,16.113,-3.418,-2.441,32.715,36.621,0
1553630912.339,2.441,0.488,0.000,19.043,61.523,0
1553630912.343,9.766,20.508,3.906,26.367,23.926,0
1553630912.347,15.625,12.207,6.836,26.855,8.789,0
1553630912.351,18.555,2.930,4.395,23.926,17.090,0
1553630912.355,9.766,4.395,-2.441,32.227,10.254,0
1553630912.359,18.066,3.906,-2.930,20.020,-4.883,0
1553630912.363,11.230,-2.441,-3.906,9.766,20.020,0
1553630912.367,-3.906,3.418,-1.465,18.555,53.223,0
1553630912.371,3.906,20.996,-0.977,23.438,33.691,0
1553630912.374,-0.977,11.230,0.000,16.602,31.250,0
1553630912.378,-1.953,-3.906,4.395,18.066,57.129,0
1553630912.382,6.836,-2.441,4.395,14.160,44.434,0
1553630912.386,-5.859,6.836,-1.465,10.254,0.488,0
1553630912.390,-2.441,17.090,-0.488,7.812,-16.113,0
1553630912.394,8.301,20.020,11.719,5.371,25.879,0
1553630912.398,-15.137,17.578,8.789,1.465,20.020,0
1553630912.402,-32.715,12.695,-2.930,-13.184,-1.465,0
1553630912.406,-32.227,18.555,4.883,-15.625,55.176,0
1553630912.410,-27.344,31.738,19.043,-8.301,10.254,0
1553630912.414,-23.438,31.250,13.184,-12.207,18.066,0
1553630912.417,-39.062,32.227,8.301,-34.180,28.809,0
1553630912.421,-49.316,42.969,30.762,-40.527,-7.324,0
1553630912.425,-58.594,52.734,36.133,-37.598,46.875,0
1553630912.429,-77.637,52.246,16.113,-64.453,36.621,0
1553630912.433,-78.125,62.012,29.297,-73.730,2.441,0
1553630912.437,-97.168,78.125,47.363,-94.238,8.789,0
1553630912.441,-145.020,96.191,49.805,-136.230,40.527,0
1553630912.445,-188.965,104.004,60.547,-168.457,52.734,0
1553630912.449,-219.727,94.727,58.594,-217.285,57.617,0
1553630912.453,-231.445,102.539,66.895,-227.051,51.270,0
1553630912.456,-261.719,109.375,86.426,-223.145,20.508,0
1553630912.460,-304.199,96.680,93.262,-263.184,30.273,0
1553630912.464,-332.031,105.957,102.051,-294.434,6.836,0
1553630912.468,-352.539,120.117,108.398,-311.523,16.602,0
1553630912.472,-370.605,109.863,117.188,-318.359,19.043,0
1553630912.476,-395.020,98.633,119.141,-338.867,62.012,0
1553630912.480,-408.203,92.285,117.676,-352.051,96.680,0
1553630912.484,-392.090,88.867,127.930,-339.844,58.105,0
1553630912.488,-395.996,84.961,134.277,-342.285,41.504,0
1553630912.492,-415.039,75.195,130.371,-341.797,8.789,0
1553630912.496,-410.645,69.824,127.930,-337.402,18.555,0
1553630912.499,-386.719,61.035,135.254,-313.477,85.938,0
1553630912.503,-368.652,61.035,137.207,-288.086,45.898,0
1553630912.507,-361.328,49.805,127.930,-294.434,49.805,0
1553630912.511,-337.402,36.621,126.953,-274.902,-3.906,0
1553630912.515,-315.430,39.062,128.418,-237.793,35.645,0
1553630912.519,-310.059,33.691,115.723,-235.352,86.426,0
1553630912.523,-290.527,23.438,102.539,-235.840,48.828,0
1553630912.527,-253.906,12.695,101.074,-185.547,94.727,0
1553630912.531,-232.422,11.719,97.656,-154.785,67.871,0
1553630912.535,-218.262,7.812,85.938,-142.090,33.691,0
1553630912.539,-196.289,-9.277,77.148,-120.117,32.227,0
1553630912.542,-176.270,-14.160,73.242,-92.285,32.227,0
1553630912.546,-159.668,-21.973,69.336,-63.965,66.406,0
1553630912.550,-137.695,-25.879,64.453,-45.410,5.371,0
1553630912.554,-111.328,-25.879,59.570,-20.020,-24.414,0
1553630912.558,-79.102,-24.902,54.688,2.441,25.879,0
1553630912.562,-68.359,-21.973,40.039,5.859,0.488,0
1553630912.566,-54.199,-35.156,31.250,13.672,33.203,0
1553630912.570,-35.156,-37.109,28.809,36.621,61.523,0
1553630912.574,-22.461,-28.809,25.879,46.387,-5.371,0
1553630912.578,-1.465,-34.180,15.625,53.223,-23.438,0
1553630912.581,16.113,-40.039,6.348,78.125,-11.719,0
1553630912.585,34.180,-39.551,5.859,93.750,17.578,0
1553630912.589,48.340,-31.738,0.488,98.145,76.172,0
1553630912.593,49.805,-27.344,-2.930,108.887,40.039,0
1553630912.597,58.105,-28.809,-2.441,117.676,7.324,0
1553630912.601,69.336,-27.344,-4.883,112.305,19.531,0
1553630912.605,80.566,-30.762,-13.672,111.328,37.109,0
1553630912.609,86.914,-32.227,-13.672,129.883,48.828,0
1553630912.613,97.656,-27.344,-6.348,144.531,29.297,0
1553630912.617,104.004,-48.340,-13.672,144.531,40.527,0
1553630912.621,107.910,-54.199,-25.879,157.227,39.062,0
1553630912.624,115.723,-24.414,-24.902,151.855,38.086,0
1553630912.628,111.816,-23.438,-23.438,145.020,51.758,0
1553630912.632,109.375,-35.156,-27.344,146.484,47.363,0
1553630912.636,117.676,-25.391,-24.902,147.949,0.488,0
1553630912.640,133.789,-23.926,-24.902,167.969,61.523,0
1553630912.644,126.465,-36.133,-26.367,157.715,46.875,0
1553630912.648,118.652,-29.785,-25.879,150.879,12.695,0
1553630912.652,126.465,-27.344,-28.809,150.391,-2.930,0
1553630912.656,132.812,-31.250,-32.227,146.973,-40.527,0
1553630912.660,123.535,-23.438,-31.250,144.531,16.113,0
1553630912.664,124.023,-25.391,-32.715,159.668,65.430,0
1553630912.667,127.930,-41.504,-37.598,158.691,36.621,0
1553630912.671,118.164,-25.391,-38.086,133.301,29.785,0
1553630912.675,114.258,-10.742,-33.691,138.672,88.379,0
1553630912.679,116.211,-21.973,-32.227,140.137,107.422,0
1553630912.683,117.188,-30.273,-37.598,126.953,72.266,0
1553630912.687,113.770,-31.250,-41.504,152.344,55.664,0
1553630912.691,106.934,-24.902,-47.852,148.926,37.109,0
1553630912.695,112.305,-18.066,-46.387,129.395,-1.465,0
1553630912.699,119.629,-20.508,-42.969,137.207,-11.719,0
1553630912.703,109.375,-21.973,-45.898,119.141,18.066,0
1553630912.706,102.539,-21.973,-44.434,113.281,82.031,0
1553630912.710,105.957,-14.160,-44.922,125.488,32.227,0
1553630912.714,109.863,-9.766,-47.363,129.883,18.066,0
1553630912.718,109.375,-25.879,-46.387,124.512,45.898,0
1553630912.722,103.516,-20.996,-43.945,124.512,55.664,0
1553630912.726,105.469,-10.254,-46.875,112.793,16.113,0
1553630912.730,104.004,-20.996,-47.852,109.863,21.484,0
1553630912.734,98.633,-31.250,-49.805,110.352,0.488,0
1553630912.738,96.680,-32.227,-50.781,100.098,2.441,0
1553630912.742,102.539,-28.320,-47.852,107.422,41.504,0
1553630912.746,90.820,-23.438,-48.828,113.770,49.805,0
1553630912.749,91.309,-15.625,-51.758,103.027,48.340,0
1553630912.753,99.121,-18.555,-49.316,100.098,69.336,0
1553630912.757,93.750,-19.043,-47.363,106.445,64.941,0
1553630912.761,88.379,-11.719,-50.293,102.539,42.969,0
1553630912.765,93.262,-13.184,-51.270,98.145,66.895,0
1553630912.769,91.309,-20.996,-47.363,87.402,48.828,0
1553630912.773,81.055,-27.344,-47.363,84.961,16.602,0
1553630912.777,84.961,-24.902,-47.852,95.703,-25.391,0
1553630912.781,100.098,-21.484,-41.992,97.656,30.762,0
1553630912.785,114.746,-25.879,-43.457,130.859,41.016,0
1553630912.789,80.566,-23.926,-41.504,112.793,47.852,0
1553630912.792,34.180,-17.090,-40.039,49.805,57.617,0
1553630912.796,22.461,-11.230,-39.062,41.016,47.852,0
1553630912.800,23.438,-12.207,-37.598,47.363,66.406,0
1553630912.804,13.184,-13.184,-38.574,36.621,58.594,0
1553630912.808,5.371,-7.324,-41.504,29.297,98.633,0
1553630912.812,12.207,2.441,-39.551,28.320,90.820,0
1553630912.816,9.277,15.625,-38.086,31.250,107.422,0
1553630912.820,14.648,8.301,-41.992,44.434,35.645,0
1553630912.824,28.809,-3.418,-43.457,47.852,19.043,0
1553630912.828,47.363,2.441,-41.992,57.129,73.242,0
1553630912.831,29.785,7.812,-47.363,51.270,78.613,0
1553630912.835,25.879,9.766,-47.852,54.688,22.949,0
1553630912.839,41.016,0.488,-44.922,58.105,-22.949,0
1553630912.843,41.992,-5.371,-46.875,53.711,20.508,0
1553630912.847,41.016,5.859,-41.504,60.547,26.367,0
1553630912.851,34.668,12.695,-39.551,52.734,-8.789,0
1553630912.855,38.086,6.348,-37.598,52.246,-22.949,0
1553630912.859,40.039,7.324,-33.203,50.293,27.344,0
1553630912.863,47.363,11.719,-34.180,55.176,41.992,0
1553630912.867,46.387,2.441,-35.645,58.594,22.949,0
1553630912.871,41.016,0.977,-34.668,53.223,25.391,0
1553630912.874,46.387,3.418,-36.621,62.012,33.203,0
1553630912.878,32.715,-2.441,-36.133,62.500,77.637,0
1553630912.882,29.297,-4.395,-31.738,52.734,7.812,0
1553630912.886,53.223,-4.395,-26.855,62.500,0.000,0
1553630912.890,61.523,-10.254,-24.902,65.918,59.082,0
1553630912.894,57.617,-6.836,-26.367,53.223,21.973,0
1553630912.898,64.453,4.883,-20.508,60.059,33.691,0
1553630912.902,53.711,6.348,-27.832,60.547,118.164,0
1553630912.906,39.062,-10.742,-29.785,54.688,116.211,0
1553630912.910,43.457,-18.066,-28.809,59.570,62.500,0
1553630912.914,57.129,-10.254,-31.250,65.918,75.684,0
1553630912.917,59.570,-14.160,-24.414,51.758,70.801,0
1553630912.921,59.570,-15.625,-27.832,48.340,62.988,0
1553630912.925,37.598,-10.742,-25.879,53.223,13.672,0
1553630912.929,28.320,-10.742,-18.066,38.574,-22.461,0
1553630912.933,41.992,-15.137,-21.973,41.504,58.105,0
1553630912.937,44.922,-19.531,-26.855,43.457,73.242,0
1553630912.941,40.039,-12.207,-25.879,44.434,-21.973,0
1553630912.945,36.621,-8.301,-21.973,48.340,18.066,0
1553630912.949,33.691,-9.277,-22.949,47.363,21.973,0
1553630912.953,34.180,-2.441,-17.090,49.316,39.551,0
1553630912.956,41.016,-13.184,-16.113,56.152,22.949,0
1553630912.960,40.039,-25.391,-17.578,58.105,-17.090,0
1553630912.964,40.039,-14.160,-15.137,41.992,67.871,0
1553630912.968,32.227,-9.766,-22.461,29.297,58.105,0
1553630912.972,26.367,-10.742,-21.484,39.062,31.738,0
1553630912.976,34.668,-22.461,-20.996,40.039,102.539,0
1553630912.980,37.109,-32.227,-18.066,32.715,113.770,0
1553630912.984,54.688,-18.555,-5.371,52.246,52.246,0
1553630912.988,58.105,-21.484,-10.742,59.082,28.809,0
1553630912.992,53.711,-32.227,-17.578,52.734,20.508,0
1553630912.996,51.758,-33.691,-16.602,38.086,-4.395,0
1553630912.999,47.363,-31.250,-19.531,37.109,18.555,0
1553630913.003,42.969,-23.438,-18.066,52.246,28.320,0
1553630913.007,38.574,-37.109,-16.602,39.551,5.371,0
1553630913.011,47.363,-46.387,-16.602,30.273,22.461,0
1553630913.015,50.781,-40.039,-10.742,45.898,-16.113,0
1553630913.019,45.410,-52.734,-19.043,38.086,-33.691,0
1553630913.023,31.738,-57.129,-22.461,29.785,2.441,0
1553630913.027,27.344,-55.176,-18.555,27.832,28.809,0
1553630913.031,39.062,-63.965,-19.531,28.320,37.598,0
1553630913.035,42.969,-71.289,-20.020,44.434,64.941,0
1553630913.039,33.203,-76.660,-20.996,33.691,83.008,0
1553630913.042,38.086,-77.637,-18.066,28.320,96.680,0
1553630913.046,41.992,-80.078,-15.625,40.039,56.641,0
1553630913.050,33.691,-94.238,-15.137,42.969,14.160,0
1553630913.054,20.508,-99.121,-17.578,24.414,43.457,0
1553630913.058,29.785,-99.609,-22.461,19.043,57.617,0
1553630913.062,44.434,-103.516,-20.020,28.320,10.742,0
1553630913.066,28.809,-104.980,-14.648,28.320,-15.625,0
1553630913.070,30.762,-88.379,-11.230,31.250,17.578,0
1553630913.074,31.250,-71.289,-4.883,43.945,58.105,0
1553630913.078,22.461,-68.848,-6.348,47.363,32.227,0
1553630913.081,35.156,-54.688,-11.230,32.227,44.434,0
1553630913.085,32.715,-38.086,-11.230,28.809,-5.859,0
1553630913.089,37.109,-31.738,-10.742,26.367,-28.320,0
1553630913.093,55.176,-29.297,-5.371,33.691,47.852,0
1553630913.097,44.434,-34.180,2.441,30.273,48.828,0
1553630913.101,21.484,-34.180,1.953,16.113,46.387,0
1553630913.105,18.555,-30.762,2.441,23.926,35.156,0
1553630913.109,48.828,-33.203,17.578,51.270,18.555,0
1553630913.113,49.805,-41.992,29.297,45.898,-3.418,0
1553630913.117,23.926,-46.875,40.039,23.438,62.988,0
1553630913.121,20.996,-53.223,54.688,27.832,105.957,0
1553630913.124,42.969,-54.688,76.172,52.246,20.020,0
1553630913.128,64.453,-47.852,101.074,69.336,60.547,0
1553630913.132,52.246,-59.082,100.098,52.734,40.527,0
1553630913.136,35.645,-70.801,104.980,36.133,20.996,0
1553630913.140,35.156,-68.359,115.234,45.898,12.207,0
1553630913.144,42.969,-67.383,114.746,43.945,-30.273,0
1553630913.148,47.852,-66.406,111.816,41.504,23.926,0
1553630913.152,51.758,-66.895,110.352,56.152,39.062,0
1553630913.156,48.828,-69.336,109.375,59.082,5.859,0
1553630913.160,50.293,-63.477,105.469,51.270,-17.578,0
1553630913.164,61.035,-60.547,101.074,52.246,-40.039,0
1553630913.167,53.223,-54.199,93.262,54.199,30.273,0
1553630913.171,31.738,-51.758,87.402,46.387,78.125,0
1553630913.175,59.082,-54.199,83.008,44.922,-2.930,0
1553630913.179,82.031,-54.688,79.590,58.105,6.348,0
1553630913.183,57.129,-66.406,75.684,60.059,16.113,0
1553630913.187,45.898,-58.594,68.848,46.387,56.641,0
1553630913.191,50.781,-41.504,59.082,36.621,68.848,0
1553630913.195,46.387,-45.898,59.082,49.316,22.949,0
1553630913.199,33.203,-52.246,42.969,45.410,26.367,0
1553630913.203,40.527,-48.828,31.250,36.133,7.812,0
1553630913.206,52.246,-42.969,39.551,44.922,-29.785,0
1553630913.210,44.922,-43.945,31.250,34.180,-13.184,0
1553630913.214,37.598,-44.922,22.461,31.738,35.645,0
1553630913.218,41.016,-38.086,26.855,36.621,19.531,0
1553630913.222,48.340,-45.410,29.297,41.992,16.602,0
1553630913.226,39.062,-45.410,24.902,47.852,98.145,0
1553630913.230,44.922,-24.902,27.344,53.711,101.562,0
1553630913.234,59.570,-23.438,27.832,48.828,72.754,0
1553630913.238,36.133,-32.227,20.020,28.320,29.297,0
1553630913.242,36.621,-39.062,12.207,25.391,-18.555,0
1553630913.246,46.875,-45.898,14.648,41.992,16.113,0
1553630913.249,41.992,-46.875,16.113,52.734,37.598,0
1553630913.253,44.922,-32.715,14.160,44.434,49.316,0
1553630913.257,32.715,-28.320,7.324,32.227,48.828,0
1553630913.261,14.648,-30.273,0.000,23.438,57.129,0
1553630913.265,24.414,-17.578,0.977,30.762,83.984,0
1553630913.269,22.461,-20.996,0.977,34.180,69.336,0
1553630913.273,30.273,-27.344,2.930,29.785,46.387,0
1553630913.277,41.016,-23.438,1.953,27.832,28.320,0
1553630913.281,20.020,-5.859,4.395,20.020,70.801,0
1553630913.285,18.555,-8.301,-0.977,27.344,67.383,0
1553630913.289,35.645,-3.418,4.395,45.898,10.742,0
1553630913.292,37.109,3.906,8.301,31.250,24.414,0
1553630913.296,29.785,0.000,-1.953,21.973,16.113,0
1553630913.300,17.090,12.207,-0.488,23.438,-27.344,0
1553630913.304,25.879,15.137,1.465,23.438,28.809,0
1553630913.308,44.922,15.137,1.465,29.297,65.430,0
1553630913.312,46.387,4.883,1.465,45.898,3.418,0
1553630913.316,47.852,-9.277,-4.883,62.500,6.348,0
1553630913.320,41.992,10.742,-2.930,40.527,24.902,0
1553630913.324,27.344,26.367,-5.859,11.719,-27.344,0
1553630913.328,37.109,22.949,-14.160,19.531,-41.504,0
1553630913.331,48.828,14.160,-14.160,31.738,46.387,0
1553630913.335,50.781,17.090,-13.184,37.109,81.055,0
1553630913.339,43.945,22.461,-7.324,37.109,58.105,0
1553630913.343,31.250,9.766,-4.395,41.504,12.695,0
1553630913.347,43.457,10.254,-7.324,43.945,9.766,0
1553630913.351,54.688,12.207,-7.324,42.969,29.785,0
1553630913.355,45.410,10.742,-6.836,49.805,29.785,0
1553630913.359,45.898,9.766,-4.883,55.176,81.055,0
1553630913.363,51.270,10.742,-3.418,58.105,56.152,0
1553630913.367,54.199,15.625,3.418,62.012,60.547,0
1553630913.371,53.711,-0.488,-1.953,57.617,58.594,0
1553630913.374,45.410,-2.930,-11.719,43.945,-19.043,0
1553630913.378,45.898,8.789,-6.348,50.781,16.602,0
1553630913.382,60.059,7.812,-3.906,47.852,46.875,0
1553630913.386,60.547,0.977,-6.836,41.504,-32.227,0
1553630913.390,43.457,-7.324,-7.324,50.781,-23.926,0
1553630913.394,46.875,-6.836,-4.395,57.617,49.316,0
1553630913.398,56.152,-3.418,-6.348,51.270,90.820,0
1553630913.402,53.223,-9.277,-2.930,49.805,80.566,0
1553630913.406,46.387,-19.531,1.465,57.129,53.711,0
1553630913.410,52.734,-12.695,-1.465,60.059,69.824,0
1553630913.414,48.340,-11.719,0.977,60.547,66.406,0
1553630913.417,53.223,-9.277,3.906,62.012,90.820,0
1553630913.421,59.570,0.000,0.977,63.965,77.637,0
1553630913.425,56.641,-8.789,4.883,55.664,-13.184,0
1553630913.429,49.316,-21.484,0.488,51.270,0.000,0
1553630913.433,38.574,-24.414,-5.859,46.387,61.523,0
1553630913.437,45.898,-15.137,12.695,53.223,23.438,0
1553630913.441,52.246,-21.484,9.766,57.617,26.367,0
1553630913.445,47.852,-36.621,-0.488,46.387,-1.953,0
1553630913.449,39.062,-21.484,5.859,50.781,-9.766,0
1553630913.453,30.273,-14.160,7.324,51.270,17.578,0
1553630913.456,43.457,-23.438,6.836,39.062,5.371,0
1553630913.460,48.828,-34.668,8.301,29.297,38.574,0
1553630913.464,46.387,-28.320,9.766,36.621,78.125,0
1553630913.468,54.688,-9.766,10.742,46.875,114.258,0
1553630913.472,54.688,-8.789,19.531,49.316,75.684,0
1553630913.476,47.363,-21.973,12.695,38.574,51.758,0
1553630913.480,35.645,-22.949,1.953,32.715,6.348,0
1553630913.484,30.762,-13.672,9.277,39.551,-25.391,0
1553630913.488,39.551,-20.996,7.324,37.109,44.434,0
1553630913.492,32.227,-19.043,5.371,27.832,51.270,0
1553630913.496,12.207,-22.949,6.836,27.832,-3.418,0
1553630913.499,41.992,-39.062,6.836,48.828,-42.480,0
1553630913.503,31.250,-29.785,12.207,45.410,-17.090,0
1553630913.507,18.066,0.000,14.648,20.996,26.855,0
1553630913.511,70.312,12.207,18.555,41.016,25.879,0
1553630913.515,58.594,-11.719,17.090,48.340,21.484,0
1553630913.519,37.109,-13.184,20.996,43.945,43.945,0
1553630913.523,61.523,4.395,31.738,68.359,64.453,0
1553630913.527,43.457,-16.602,9.277,42.969,33.203,0
1553630913.531,25.879,-18.066,7.812,25.879,71.289,0
1553630913.535,32.715,-5.371,18.555,36.133,48.828,0
1553630913.539,25.391,-8.301,15.137,39.551,-63.965,0
1553630913.542,40.527,-14.160,13.672,41.016,-44.434,0
1553630913.546,48.340,-7.324,14.648,38.574,34.180,0
1553630913.550,28.320,7.324,22.461,43.945,61.523,0
1553630913.554,21.484,1.953,17.578,36.133,24.902,0
1553630913.558,67.383,-1.465,20.508,44.434,15.137,0
1553630913.562,52.734,7.812,30.273,55.664,57.129,0
1553630913.566,38.086,10.742,17.090,34.180,19.531,0
1553630913.570,46.387,3.906,6.836,33.203,8.789,0
1553630913.574,41.992,5.371,17.090,42.480,31.250,0
1553630913.578,40.527,12.695,25.391,35.645,61.035,0
1553630913.581,32.227,15.625,32.715,55.664,53.711,0
1553630913.585,37.598,16.113,25.879,56.152,38.086,0
1553630913.589,27.832,10.742,10.254,26.855,83.008,0
1553630913.593,44.922,23.926,26.367,48.340,104.492,0
1553630913.597,54.688,25.391,30.762,62.500,49.316,0
1553630913.601,16.602,5.859,16.602,38.574,32.227,0
1553630913.605,23.438,10.742,6.348,29.785,48.340,0
1553630913.609,23.438,20.020,6.836,26.855,65.430,0
1553630913.613,31.250,8.789,18.066,30.762,66.406,0
1553630913.617,46.875,12.695,30.762,52.246,10.254,0
1553630913.621,38.574,35.156,35.156,53.223,5.371,0
1553630913.624,20.996,16.602,12.207,17.090,27.344,0
1553630913.628,32.227,7.812,16.602,19.531,7.812,0
1553630913.632,40.527,26.367,34.180,44.922,25.391,0
1553630913.636,21.973,27.832,27.344,29.785,76.172,0
1553630913.640,10.742,20.996,18.555,7.812,63.477,0
1553630913.644,3.418,20.508,21.973,14.160,41.016,0
1553630913.648,23.926,27.832,30.762,34.668,18.555,0
1553630913.652,13.184,27.344,28.320,25.391,3.906,0
1553630913.656,-8.789,33.691,26.855,10.742,39.551,0
1553630913.660,5.859,34.668,34.668,9.766,56.641,0
1553630913.664,35.645,34.180,57.129,45.898,64.453,0
1553630913.667,22.461,41.504,50.781,28.809,15.625,0
1553630913.671,-37.598,54.199,38.086,-41.016,-13.672,0
1553630913.675,-57.129,73.730,45.410,-69.336,10.742,0
1553630913.679,-62.500,92.773,51.758,-76.660,19.531,0
1553630913.683,-89.355,111.328,62.012,-90.332,51.270,0
1553630913.687,-120.117,124.512,53.711,-127.930,24.414,0
1553630913.691,-117.188,145.508,62.012,-157.715,20.508,0
1553630913.695,-154.297,167.969,59.570,-196.289,66.406,0
1553630913.699,-193.359,172.363,47.363,-235.352,-20.020,0
1553630913.703,-207.031,180.176,58.105,-254.883,30.762,0
1553630913.706,-240.234,211.914,70.801,-284.668,75.684,0
1553630913.710,-259.766,222.656,74.707,-302.734,-54.199,0
1553630913.714,-234.863,212.891,74.707,-296.875,-39.062,0
1553630913.718,-228.516,214.844,69.336,-292.480,76.172,0
1553630913.722,-232.422,222.168,68.359,-286.133,31.250,0
1553630913.726,-222.656,215.820,66.406,-269.043,20.996,0
1553630913.730,-178.223,208.984,55.176,-250.488,31.738,0
1553630913.734,-135.742,203.125,44.434,-227.051,-16.602,0
1553630913.738,-111.328,190.430,34.668,-198.730,-7.812,0
1553630913.742,-81.543,173.828,26.855,-171.387,5.859,0
1553630913.746,-74.707,159.180,30.273,-134.766,-16.113,0
1553630913.749,-78.613,153.320,30.273,-104.004,-8.789,0
1553630913.753,-42.969,145.020,23.926,-86.914,57.617,0
1553630913.757,-17.578,134.766,21.973,-67.871,72.266,0
1553630913.761,-2.441,122.559,19.043,-30.762,42.480,0
1553630913.765,31.738,100.586,17.090,3.418,-9.766,0
1553630913.769,52.246,91.797,11.230,20.996,33.203,0
1553630913.773,47.363,85.938,6.348,27.832,76.660,0
1553630913.777,72.266,59.570,1.953,46.875,59.082,0
1553630913.781,100.586,50.781,-3.418,75.195,21.484,0
1553630913.785,98.633,45.410,0.000,84.473,30.762,0
1553630913.789,101.562,32.227,4.395,93.262,51.270,0
1553630913.792,115.723,30.762,-0.977,102.539,27.832,0
1553630913.796,124.512,32.715,0.488,104.004,84.473,0
1553630913.800,110.840,28.809,1.465,110.352,41.504,0
1553630913.804,108.887,15.625,-2.930,106.934,0.488,0
1553630913.808,127.441,6.836,4.395,117.676,45.898,0
1553630913.812,129.883,9.766,0.488,121.582,10.742,0
1553630913.816,126.465,11.230,-4.395,102.051,0.000,0
1553630913.820,143.066,13.184,1.953,107.910,31.250,0
1553630913.824,134.277,-1.465,0.000,118.652,54.199,0
1553630913.828,120.117,-7.324,1.465,118.164,50.781,0
1553630913.831,129.883,5.859,10.254,131.836,22.949,0
1553630913.835,124.512,-4.883,6.836,131.836,32.227,0
1553630913.839,114.258,-12.695,0.000,123.047,17.090,0
1553630913.843,111.816,-8.301,0.488,125.977,15.625,0
1553630913.847,122.070,-12.695,2.441,126.465,47.363,0
1553630913.851,126.465,-10.742,10.254,135.254,77.637,0
1553630913.855,135.254,-5.371,4.883,131.836,47.852,0
1553630913.859,130.859,-0.488,-1.953,120.605,10.254,0
1553630913.863,122.070,2.441,3.418,118.164,35.156,0
1553630913.867,117.188,-5.371,4.395,118.652,12.695,0
1553630913.871,125.000,-20.020,2.441,129.883,-17.578,0
1553630913.874,142.090,-24.414,6.348,145.508,13.672,0
1553630913.878,117.188,-18.555,0.488,143.555,-0.977,0
1553630913.882,122.559,-13.184,4.883,139.160,-6.348,0
1553630913.886,131.348,-10.254,8.789,131.836,9.766,0
1553630913.890,110.352,-13.184,3.906,122.070,2.930,0
1553630913.894,100.586,-13.184,6.836,128.418,74.707,0
1553630913.898,105.957,-10.742,4.883,122.070,75.684,0
1553630913.902,107.910,-13.672,5.371,112.793,28.809,0
1553630913.906,100.586,-12.207,5.371,110.840,52.246,0
1553630913.910,119.141,-4.883,15.625,114.746,14.160,0
1553630913.914,116.699,-12.695,17.578,108.398,16.113,0
1553630913.917,101.562,-23.926,3.418,98.145,42.480,0
1553630913.921,94.727,-19.531,3.906,99.121,50.293,0
1553630913.925,95.215,-16.602,10.254,92.773,59.570,0
1553630913.929,114.746,-34.180,18.066,104.492,8.301,0
1553630913.933,110.840,-21.484,18.066,118.652,6.348,0
1553630913.937,90.332,1.465,12.207,96.680,13.184,0
1553630913.941,97.656,-1.953,11.719,87.402,46.387,0
1553630913.945,92.773,-3.418,12.695,100.586,40.039,0
1553630913.949,87.402,-10.742,12.695,97.656,-3.418,0
1553630913.953,86.914,-25.879,14.648,83.984,49.316,0
1553630913.956,79.102,-30.762,16.113,87.402,33.203,0
1553630913.960,76.172,-23.926,16.602,94.238,-16.113,0
1553630913.964,73.730,-20.020,20.996,91.797,44.922,0
1553630913.968,79.590,-23.926,24.414,94.727,112.305,0
1553630913.972,74.707,-26.855,21.973,95.703,48.828,0
1553630913.976,73.730,-20.508,20.508,98.145,23.438,0
1553630913.980,74.707,-17.578,18.555,86.914,79.590,0
1553630913.984,62.500,-18.555,16.113,62.012,70.312,0
1553630913.988,71.289,-23.438,19.531,67.871,74.219,0
1553630913.992,73.730,-22.949,23.438,79.102,41.992,0
1553630913.996,79.102,-16.602,24.414,85.938,25.879,0
1553630913.999,71.777,-26.367,22.949,87.402,6.348,0
1553630914.003,56.152,-37.598,21.973,79.590,12.207,0
1553630914.007,65.430,-36.133,25.879,86.426,12.207,0
1553630914.011,64.453,-32.715,27.344,78.125,11.719,0
1553630914.015,58.105,-35.645,26.855,65.430,29.297,0
1553630914.019,60.059,-35.645,25.879,63.477,71.777,0
1553630914.023,60.059,-38.086,28.320,69.824,62.988,0
1553630914.027,54.688,-47.852,28.320,36.133,22.461,0
1553630914.031,53.223,-52.246,29.785,33.203,15.625,0
1553630914.035,54.199,-43.945,30.273,77.637,23.438,0
1553630914.039,56.152,-38.086,32.715,73.730,65.430,0
1553630914.042,50.781,-46.387,34.668,69.824,-4.883,0
1553630914.046,42.480,-59.082,32.227,65.918,22.949,0
1553630914.050,40.527,-65.430,30.273,58.105,53.223,0
1553630914.054,47.363,-59.570,27.832,56.152,29.785,0
1553630914.058,43.945,-56.641,26.855,53.223,66.406,0
1553630914.062,31.738,-63.477,31.250,55.664,25.391,0
1553630914.066,32.715,-68.848,33.203,46.875,-41.992,0
1553630914.070,37.109,-65.430,31.738,50.781,-30.273,0
1553630914.074,35.645,-65.430,29.785,45.410,4.395,0
1553630914.078,40.039,-71.777,23.926,41.992,22.949,0
1553630914.081,70.312,-74.707,23.438,73.730,68.359,0
1553630914.085,66.406,-92.773,40.527,74.707,17.578,0
1553630914.089,21.484,-97.168,42.969,38.574,29.785,0
1553630914.093,20.996,-92.285,33.691,42.480,111.328,0
1553630914.097,16.113,-105.957,39.062,45.898,52.734,0
1553630914.101,5.859,-112.305,46.387,34.668,56.641,0
1553630914.105,4.395,-124.023,50.781,35.156,75.684,0
1553630914.109,1.465,-134.277,48.828,33.691,25.879,0
1553630914.113,9.766,-140.625,55.664,38.574,-6.836,0
1553630914.117,-0.977,-148.926,66.406,43.457,-25.391,0
1553630914.121,-11.230,-152.344,59.570,42.480,-12.207,0
1553630914.124,-5.371,-149.414,62.988,61.523,46.875,0
1553630914.128,-8.301,-151.855,73.242,57.617,42.480,0
1553630914.132,-17.578,-166.504,69.336,47.852,9.277,0
1553630914.136,-15.137,-171.875,63.477,64.453,21.973,0
1553630914.140,-16.602,-175.293,59.082,68.359,67.383,0
1553630914.144,-13.672,-178.223,62.012,65.918,63.965,0
1553630914.148,3.418,-169.922,67.383,75.684,-18.066,0
1553630914.152,0.000,-160.156,60.059,73.242,37.598,0
1553630914.156,-2.441,-168.945,55.664,72.754,65.918,0
1553630914.160,1.465,-166.504,60.547,77.148,36.133,0
1553630914.164,0.488,-152.344,58.594,76.660,76.660,0
1553630914.167,12.207,-159.180,50.781,67.383,19.531,0
1553630914.171,16.602,-163.086,48.340,60.547,33.691,0
1553630914.175,6.348,-153.809,56.152,72.266,49.316,0
1553630914.179,10.254,-152.832,52.734,64.453,20.020,0
1553630914.183,20.996,-171.387,44.922,63.477,-6.348,0
1553630914.187,15.137,-175.781,43.945,66.895,8.789,0
1553630914.191,8.301,-157.227,39.551,62.500,22.461,0
1553630914.195,30.762,-139.648,49.805,76.660,-5.371,0
1553630914.199,30.762,-131.836,47.852,69.336,33.691,0
1553630914.203,3.906,-137.207,39.551,59.082,51.758,0
1553630914.206,21.484,-130.859,35.645,64.941,-22.461,0
1553630914.210,21.973,-119.629,25.879,66.895,31.738,0
1553630914.214,12.207,-114.258,30.273,73.242,23.438,0
1553630914.218,17.578,-115.234,25.391,72.266,6.348,0
1553630914.222,17.578,-111.816,23.438,71.777,49.805,0
1553630914.226,25.879,-99.121,29.297,63.965,38.574,0
1553630914.230,16.602,-88.379,26.367,58.594,47.852,0
1553630914.234,40.039,-71.777,37.109,76.172,-6.836,0
1553630914.238,45.410,-81.055,35.156,75.195,-3.906,0
1553630914.242,27.344,-94.238,22.949,60.059,13.184,0
1553630914.246,33.691,-81.543,24.414,71.777,28.320,0
1553630914.249,26.367,-60.547,23.438,55.664,38.086,0
1553630914.253,19.043,-44.434,23.926,43.945,47.852,0
1553630914.257,11.719,-50.293,22.949,41.016,15.137,0
1553630914.261,24.414,-45.898,28.320,51.270,-3.418,0
1553630914.265,22.949,-39.551,28.809,48.828,55.664,0
1553630914.269,28.809,-29.785,36.621,44.922,54.688,0
1553630914.273,41.016,-20.508,31.250,58.105,7.812,0
1553630914.277,39.551,-35.156,19.043,65.430,14.648,0
1553630914.281,37.109,-15.625,29.785,65.918,20.996,0
1553630914.285,30.762,13.184,32.227,58.594,23.926,0
1553630914.289,30.762,13.184,16.602,61.523,4.883,0
1553630914.292,22.949,14.648,11.230,59.570,12.695,0
1553630914.296,17.090,33.691,19.531,46.387,42.480,0
1553630914.300,24.414,49.805,23.438,49.316,38.086,0
1553630914.304,23.926,60.547,21.973,50.293,57.129,0
1553630914.308,20.508,62.012,24.414,44.922,36.133,0
1553630914.312,29.785,70.801,26.367,37.598,0.977,0
1553630914.316,34.668,74.219,20.996,41.016,0.977,0
1553630914.320,39.551,67.871,18.066,60.059,-20.508,0
1553630914.324,30.762,89.355,22.461,57.129,-58.105,0
1553630914.328,35.156,120.605,27.832,59.570,-7.812,0
1553630914.331,31.250,125.977,23.438,55.176,25.391,0
1553630914.335,18.066,124.023,17.090,47.363,6.836,0
1553630914.339,19.043,124.512,18.066,44.434,25.391,0
1553630914.343,18.555,128.906,19.043,46.387,49.805,0
1553630914.347,18.555,136.719,16.602,43.457,63.477,0
1553630914.351,19.043,152.344,11.719,45.898,-22.949,0
1553630914.355,13.672,169.922,15.625,53.223,-26.855,0
1553630914.359,17.090,179.199,16.602,40.527,50.293,0
1553630914.363,16.602,186.035,10.254,39.551,-37.598,0
1553630914.367,6.348,200.195,9.277,43.945,-47.363,0
1553630914.371,-8.789,218.262,17.090,39.062,46.387,0
1553630914.374,13.184,225.098,19.531,62.988,64.453,0
1553630914.378,25.391,223.633,15.625,62.988,8.789,0
1553630914.382,8.789,242.676,11.719,37.109,0.977,0
1553630914.386,-4.395,250.488,11.230,5.371,45.410,0
1553630914.390,-45.898,259.277,20.020,-32.227,64.941,0
1553630914.394,-47.852,301.758,23.438,-49.316,36.133,0
1553630914.398,-43.457,321.289,20.996,-59.082,-25.391,0
1553630914.402,-57.617,341.309,23.438,-65.430,-2.930,0
1553630914.406,-62.012,357.910,22.461,-83.496,33.203,0
1553630914.410,-69.824,350.098,18.555,-90.820,-4.883,0
1553630914.414,-77.637,353.516,22.461,-86.914,3.906,0
1553630914.417,-80.566,364.746,23.438,-90.332,-5.371,0
1553630914.421,-83.008,360.352,15.625,-87.402,28.320,0
1553630914.425,-62.988,351.074,12.207,-76.660,34.180,0
1553630914.429,-46.875,341.797,22.949,-54.688,-55.664,0
1553630914.433,-45.410,344.727,28.320,-51.270,-8.789,0
1553630914.437,-37.598,334.961,35.156,-47.363,-22.949,0
1553630914.441,-12.207,326.172,41.016,-23.926,9.277,0
1553630914.445,14.648,319.824,48.340,-8.301,74.219,0
1553630914.449,10.742,310.059,60.059,-4.883,27.344,0
1553630914.453,2.441,312.500,69.336,3.906,24.902,0
1553630914.456,2.441,332.031,72.266,19.531,0.488,0
1553630914.460,14.160,350.586,76.172,17.090,-1.953,0
1553630914.464,28.809,340.820,101.562,34.180,64.941,0
1553630914.468,21.484,339.355,106.934,46.875,53.711,0
1553630914.472,17.090,335.938,106.445,22.949,0.000,0
1553630914.476,15.625,339.844,121.582,18.066,-12.207,0
1553630914.480,19.531,382.324,139.160,26.855,-64.453,0
1553630914.484,6.348,421.875,155.762,35.156,-70.801,0
1553630914.488,18.066,458.008,161.133,44.434,-33.203,0
1553630914.492,24.902,549.316,165.039,45.410,5.859,0
1553630914.496,-7.324,682.129,175.781,38.574,20.020,0
1553630914.499,11.719,774.414,191.406,51.270,-11.230,0
1553630914.503,19.531,868.652,196.289,54.199,-26.855,0
1553630914.507,-9.766,981.445,190.430,35.645,-92.285,0
1553630914.511,-3.418,997.070,184.082,28.809,-304.688,0
1553630914.515,3.906,-996.094,184.082,29.785,-385.254,0
1553630914.519,-13.184,953.613,180.176,31.738,-156.738,0
1553630914.523,-8.789,854.004,172.852,41.992,-25.391,0
1553630914.527,-4.395,870.605,172.363,51.270,63.965,0
1553630914.531,-8.301,958.008,163.574,49.805,-112.793,0
1553630914.535,-15.137,-997.070,162.598,31.250,-455.078,0
1553630914.539,-31.738,996.582,162.598,33.203,-463.867,0
1553630914.542,-38.086,999.023,166.504,38.574,-418.457,0
1553630914.546,-47.852,999.512,160.156,34.180,-433.594,0
1553630914.550,-40.527,999.512,156.250,38.086,-365.234,0
1553630914.554,-32.715,999.512,159.668,34.668,-402.832,0
1553630914.558,-48.340,999.512,145.508,20.996,-395.996,0
1553630914.562,-44.922,999.512,142.090,29.785,-245.117,0
1553630914.566,-42.969,999.512,145.996,30.762,-238.770,0
1553630914.570,-53.223,999.512,144.531,19.531,-186.035,0
1553630914.574,-63.477,999.512,148.438,26.367,-185.547,0
1553630914.578,-70.801,999.512,152.344,18.555,-191.895,0
1553630914.581,-50.781,999.512,161.133,22.949,-206.055,0
1553630914.585,-41.504,999.512,165.527,34.180,-233.887,0
1553630914.589,-49.316,999.512,159.180,14.648,-165.527,0
1553630914.593,-44.434,999.512,159.180,23.438,-176.270,0
1553630914.597,-40.527,999.512,150.879,24.414,-119.629,0
1553630914.601,-31.250,999.512,150.391,23.438,-83.496,0
1553630914.605,-34.668,999.512,155.273,22.949,-134.766,0
1553630914.609,-39.062,999.512,151.855,21.973,-79.590,0
1553630914.613,-31.250,998.047,146.484,29.297,-77.637,0
1553630914.617,-32.227,999.512,140.625,20.996,-49.316,0
1553630914.621,-29.297,993.164,132.812,31.738,147.949,0
1553630914.624,-23.438,948.730,120.605,42.969,281.250,0
1553630914.628,-26.367,888.672,110.840,46.875,318.359,0
1553630914.632,-19.531,828.613,101.562,46.387,317.871,0
1553630914.636,-18.066,775.879,96.191,40.039,322.754,0
1553630914.640,-9.766,732.422,94.238,41.504,354.004,0
1553630914.644,-8.301,694.824,90.820,43.945,317.871,0
1553630914.648,-4.395,676.270,95.703,49.316,268.555,0
1553630914.652,-7.812,647.949,96.680,46.387,275.391,0
1553630914.656,-2.441,601.562,88.379,44.434,277.832,0
1553630914.660,-0.977,577.148,86.426,48.340,275.391,0
1553630914.664,1.465,553.223,91.309,35.156,266.113,0
1553630914.667,23.438,541.504,102.539,43.457,196.777,0
1553630914.671,-11.230,512.207,90.820,30.273,146.484,0
1553630914.675,-30.762,464.355,79.590,15.137,263.184,0
1553630914.679,-31.738,438.477,83.008,15.625,268.066,0
1553630914.683,-6.348,434.570,89.844,1.465,222.656,0
1553630914.687,9.277,428.711,105.469,-3.418,264.648,0
1553630914.691,-48.340,392.090,106.445,-38.086,245.117,0
1553630914.695,-104.492,404.785,106.934,-36.621,185.059,0
1553630914.699,-116.699,401.367,120.117,-37.109,166.992,0
1553630914.703,-133.789,380.859,115.723,-79.102,182.129,0
1553630914.706,-193.359,369.629,122.070,-145.996,220.215,0
1553630914.710,-225.098,354.004,131.836,-182.617,146.973,0
1553630914.714,-226.562,352.539,125.000,-182.129,118.164,0
1553630914.718,-247.070,334.473,137.695,-213.379,227.539,0
1553630914.722,-266.113,314.453,157.715,-240.234,205.078,0
1553630914.726,-274.902,289.551,164.551,-250.977,94.727,0
1553630914.730,-294.434,266.602,166.016,-267.578,112.793,0
1553630914.734,-307.617,259.766,174.805,-294.434,145.508,0
1553630914.738,-307.617,238.281,171.875,-294.922,87.402,0
1553630914.742,-278.809,212.402,171.387,-272.461,84.473,0
1553630914.746,-240.234,187.988,175.781,-251.953,165.039,0
1553630914.749,-223.145,173.828,174.316,-239.258,230.957,0
1553630914.753,-217.773,170.410,166.992,-227.539,227.051,0
1553630914.757,-224.121,151.855,158.691,-199.219,127.441,0
1553630914.761,-185.059,136.719,151.855,-162.598,113.770,0
1553630914.765,-131.348,125.000,148.926,-132.324,89.844,0
1553630914.769,-140.625,113.281,145.508,-113.770,100.098,0
1553630914.773,-126.953,103.027,136.719,-83.496,148.926,0
1553630914.777,-69.824,98.633,130.371,-66.406,110.840,0
1553630914.781,-41.504,89.355,130.371,-46.875,111.328,0
1553630914.785,-49.316,81.543,126.465,-24.902,98.145,0
1553630914.789,-35.645,82.520,124.512,-2.441,58.594,0
1553630914.792,-10.742,69.336,118.164,15.137,95.703,0
1553630914.796,4.883,49.805,111.816,27.832,144.043,0
1553630914.800,37.598,56.152,119.141,68.359,98.145,0
1553630914.804,59.082,52.734,117.188,96.191,27.344,0
1553630914.808,57.617,39.551,96.191,87.402,27.344,0
1553630914.812,48.340,20.996,88.867,86.426,33.691,0
1553630914.816,84.961,8.301,91.797,104.980,-15.625,0
1553630914.820,100.586,28.809,90.820,108.887,10.742,0
1553630914.824,90.820,52.734,85.938,118.652,17.578,0
1553630914.828,86.914,54.688,80.078,107.910,27.832,0
1553630914.831,119.141,65.430,85.449,122.559,19.043,0
1553630914.835,124.512,63.965,82.031,146.973,-11.719,0
1553630914.839,92.773,40.527,60.059,116.699,42.480,0
1553630914.843,67.871,65.918,53.223,109.863,54.688,0
1553630914.847,81.055,81.055,53.711,117.188,-15.137,0
1553630914.851,111.328,46.387,53.223,119.629,18.555,0
1553630914.855,96.191,28.320,33.203,128.418,1.465,0
1553630914.859,86.426,58.105,21.484,124.023,28.320,0
1553630914.863,85.938,72.266,21.484,116.699,41.992,0
1553630914.867,82.031,80.566,14.648,129.883,9.277,0
1553630914.871,86.426,100.098,3.418,141.113,77.637,0
1553630914.874,81.055,109.375,-5.859,133.301,87.402,0
1553630914.878,74.219,112.305,-9.766,139.648,68.359,0
1553630914.882,85.449,139.648,-12.207,141.602,17.578,0
1553630914.886,100.586,190.918,-14.648,129.883,32.227,0
1553630914.890,104.492,209.473,-14.648,142.578,44.922,0
1553630914.894,104.004,198.730,-15.625,151.855,36.133,0
1553630914.898,115.723,193.848,-24.414,136.230,70.801,0
1553630914.902,117.676,191.406,-31.250,136.719,16.113,0
1553630914.906,111.816,193.848,-42.480,138.672,-18.066,0
1553630914.910,105.957,185.059,-50.293,146.973,51.270,0
1553630914.914,91.309,179.199,-49.805,146.973,82.031,0
1553630914.917,76.172,183.594,-54.199,129.883,49.316,0
1553630914.921,46.875,194.336,-62.012,123.535,34.668,0
1553630914.925,22.949,204.102,-74.707,126.953,33.203,0
1553630914.929,32.715,206.543,-85.449,127.441,25.879,0
1553630914.933,47.852,209.961,-89.844,128.418,37.598,0
1553630914.937,58.105,200.684,-93.262,124.512,12.695,0
1553630914.941,68.848,188.965,-91.797,114.746,24.902,0
1553630914.945,83.984,182.129,-90.820,131.836,45.410,0
1553630914.949,80.566,173.828,-88.867,127.441,26.855,0
1553630914.953,85.449,165.039,-84.473,122.070,2.930,0
1553630914.956,99.121,158.691,-79.102,123.047,29.297,0
1553630914.960,96.191,146.973,-71.777,104.980,37.109,0
1553630914.964,95.215,130.371,-68.359,112.305,27.832,0
1553630914.968,91.309,116.211,-66.406,107.422,95.703,0
1553630914.972,94.727,108.398,-59.082,93.262,63.965,0
1553630914.976,95.215,103.027,-50.781,98.145,42.969,0
1553630914.980,76.172,84.473,-47.363,98.145,55.176,0
1553630914.984,86.914,74.707,-37.598,106.445,38.574,0
1553630914.988,102.539,77.637,-24.414,115.723,48.340,0
1553630914.992,78.613,70.801,-24.902,101.562,-28.320,0
1553630914.996,49.805,49.316,-21.484,100.586,-50.781,0
1553630914.999,50.293,41.016,-10.254,95.215,42.480,0
1553630915.003,64.941,46.875,0.977,98.633,62.988,0
1553630915.007,80.566,48.828,17.578,112.793,41.504,0
1553630915.011,62.012,33.691,17.578,104.492,80.566,0
1553630915.015,49.805,27.832,19.043,84.961,73.730,0
1553630915.019,66.406,28.320,33.691,73.242,12.207,0
1553630915.023,65.918,31.738,40.527,84.961,-31.250,0
1553630915.027,43.457,30.273,47.852,86.426,3.418,0
1553630915.031,45.898,22.461,59.570,70.312,33.203,0
1553630915.035,64.453,22.949,65.430,61.523,30.762,0
1553630915.039,50.293,15.625,78.613,70.312,19.043,0
1553630915.042,50.781,3.906,90.820,89.844,0.000,0
1553630915.046,34.668,17.090,97.656,81.543,57.129,0
1553630915.050,-7.324,46.875,95.215,62.012,108.398,0
1553630915.054,1.465,48.340,95.215,59.570,82.520,0
1553630915.058,4.395,52.734,97.168,67.383,93.262,0
1553630915.062,-16.113,45.410,99.121,64.941,57.617,0
1553630915.066,-22.949,18.555,109.863,57.129,83.008,0
1553630915.070,-45.410,13.672,108.887,47.363,54.688,0
1553630915.074,-45.410,23.926,111.328,55.664,32.715,0
1553630915.078,-26.855,18.066,121.094,55.664,59.082,0
1553630915.081,-38.086,10.254,122.559,47.363,49.805,0
1553630915.085,-40.039,21.973,122.070,49.316,59.082,0
1553630915.089,-24.902,31.250,125.000,54.199,12.207,0
1553630915.093,-25.391,17.578,122.559,58.594,47.852,0
1553630915.097,-29.785,15.137,122.070,57.617,100.586,0
1553630915.101,-16.113,18.066,126.953,74.219,25.879,0
1553630915.105,-5.859,18.066,122.559,72.266,24.414,0
1553630915.109,-10.742,32.227,107.910,57.129,81.055,0
1553630915.113,4.883,42.480,99.121,53.711,72.266,0
1553630915.117,22.461,43.945,107.422,63.477,17.090,0
1553630915.121,23.926,46.875,104.980,64.941,16.602,0
1553630915.124,29.297,65.430,98.145,56.641,20.996,0
1553630915.128,20.508,91.309,98.145,61.523,-0.977,0
1553630915.132,7.812,90.332,93.262,60.059,61.035,0
1553630915.136,11.719,88.379,83.984,52.734,20.508,0
1553630915.140,9.277,105.469,80.078,52.734,21.973,0
1553630915.144,13.184,101.562,77.148,46.875,64.453,0
1553630915.148,18.066,95.703,74.707,53.223,33.203,0
1553630915.152,25.879,156.738,78.613,57.617,9.277,0
1553630915.156,29.297,215.332,76.660,57.129,5.859,0
1553630915.160,27.832,211.426,72.266,57.129,25.879,0
1553630915.164,25.391,205.566,71.777,55.176,36.133,0
1553630915.167,26.855,204.590,73.242,61.035,50.293,0
1553630915.171,19.043,207.031,70.801,53.223,69.336,0
1553630915.175,20.508,213.379,64.453,48.828,88.867,0
1553630915.179,22.949,207.520,67.871,58.594,74.707,0
1553630915.183,20.996,212.402,68.848,52.734,57.129,0
1553630915.187,28.320,216.309,66.895,56.152,17.578,0
1553630915.191,38.574,197.266,63.965,55.176,-19.043,0
1553630915.195,43.457,188.477,59.082,59.082,41.504,0
1553630915.199,28.809,182.617,58.594,62.500,64.453,0
1553630915.203,25.879,172.852,62.012,52.246,81.543,0
1553630915.206,30.273,167.480,59.570,49.805,63.965,0
1553630915.210,33.203,167.969,58.594,43.457,41.992,0
1553630915.214,36.621,158.203,62.012,46.387,34.180,0
1553630915.218,23.926,149.414,64.941,52.734,-14.160,0
1553630915.222,35.645,152.344,72.266,54.199,21.484,0
1553630915.226,31.738,139.160,67.871,56.152,-25.391,0
1553630915.230,13.672,118.164,60.547,45.898,4.883,0
1553630915.234,14.648,112.305,64.941,37.109,67.871,0
1553630915.238,8.301,104.004,70.801,41.016,-9.277,0
1553630915.242,11.230,93.750,69.824,58.105,42.480,0
1553630915.246,10.742,93.262,72.754,48.828,96.191,0
1553630915.249,6.836,77.148,78.125,40.039,74.707,0
1553630915.253,12.207,66.895,81.055,56.641,31.738,0
1553630915.257,27.832,71.777,85.449,59.570,23.438,0
1553630915.261,30.762,21.484,87.402,34.668,54.688,0
1553630915.265,46.387,-28.320,87.891,40.039,53.223,0
1553630915.269,49.316,-33.691,90.332,50.781,58.594,0
1553630915.273,25.391,-30.273,99.121,45.898,56.152,0
1553630915.277,27.344,-33.691,102.539,40.527,16.602,0
1553630915.281,39.062,-48.340,100.098,40.039,-17.578,0
1553630915.285,44.434,-40.527,101.562,47.852,-4.395,0
1553630915.289,37.598,-31.250,104.004,44.434,29.785,0
1553630915.292,63.477,-48.340,101.074,34.668,43.457,0
1553630915.296,59.570,-63.477,104.980,30.273,54.199,0
1553630915.300,28.809,-65.430,105.469,32.227,41.992,0
1553630915.304,12.207,-49.316,107.910,30.273,9.277,0
1553630915.308,0.488,-23.438,117.676,26.367,46.387,0
1553630915.312,0.000,-25.879,115.723,32.227,11.230,0
1553630915.316,-6.836,-31.738,114.746,27.344,19.531,0
1553630915.320,16.113,-18.555,125.000,26.367,52.734,0
1553630915.324,30.762,-25.391,135.254,41.504,20.996,0
1553630915.328,30.762,-38.574,139.160,58.594,18.066,0
1553630915.331,27.344,-34.668,132.812,46.387,46.875,0
1553630915.335,3.906,-19.531,129.883,24.414,85.449,0
1553630915.339,8.789,-10.254,131.348,19.531,47.363,0
1553630915.343,9.766,-8.301,130.859,19.043,-8.301,0
1553630915.347,11.719,-8.301,125.488,28.320,-1.953,0
1553630915.351,19.531,5.371,117.188,33.691,33.203,0
1553630915.355,15.625,14.160,118.652,32.715,92.285,0
1553630915.359,23.438,2.441,117.188,25.391,59.570,0
1553630915.363,23.438,2.930,103.027,14.648,-6.836,0
1553630915.367,22.461,14.160,107.910,28.809,41.504,0
1553630915.371,26.855,25.391,109.863,41.504,45.898,0
1553630915.374,20.020,20.020,96.191,25.879,8.789,0
1553630915.378,8.789,13.184,87.891,15.137,72.754,0
1553630915.382,18.066,25.879,87.402,27.344,32.715,0
1553630915.386,27.832,22.461,84.961,37.109,28.320,0
1553630915.390,33.203,24.902,86.426,43.945,76.660,0
1553630915.394,31.738,32.227,89.844,43.457,-1.953,0
1553630915.398,13.184,28.809,87.402,39.551,34.180,0
1553630915.402,22.461,27.832,81.055,46.875,97.168,0
1553630915.406,34.180,26.855,82.031,48.340,21.484,0
1553630915.410,26.855,25.879,80.566,40.039,-19.043,0
1553630915.414,26.855,32.227,82.520,46.387,20.020,0
1553630915.417,31.738,37.109,80.566,50.781,62.012,0
1553630915.421,25.879,32.715,76.172,34.668,37.109,0
1553630915.425,26.367,38.574,78.125,29.297,18.066,0
1553630915.429,28.320,40.527,76.172,29.785,53.711,0
1553630915.433,28.320,38.574,81.055,40.527,90.332,0
1553630915.437,29.785,37.598,83.496,40.527,36.621,0
1553630915.441,30.273,32.715,77.148,26.855,2.441,0
1553630915.445,29.785,33.691,77.148,27.832,16.602,0
1553630915.449,26.367,35.645,84.473,32.715,73.242,0
1553630915.453,45.898,37.598,82.520,42.480,65.918,0
1553630915.456,41.016,36.133,81.055,41.992,12.695,0
1553630915.460,28.320,41.504,87.891,35.645,4.883,0
1553630915.464,34.668,42.480,92.285,32.715,-7.324,0
1553630915.468,30.273,43.945,89.844,28.809,27.832,0
1553630915.472,33.203,42.480,101.074,31.250,48.340,0
1553630915.476,26.855,42.480,101.562,45.410,34.668,0
1553630915.480,13.184,37.109,92.773,9.766,29.297,0
1553630915.484,-7.324,46.387,106.934,-18.066,45.410,0
1553630915.488,-24.414,51.758,103.027,-19.531,25.879,0
1553630915.492,-32.227,34.668,112.793,-31.738,-19.043,0
1553630915.496,-44.434,63.965,125.488,-40.527,1.465,0
1553630915.499,-62.012,68.848,124.512,-55.176,30.762,0
1553630915.503,-95.215,55.176,134.766,-82.031,55.176,0
1553630915.507,-120.117,77.637,135.742,-98.633,17.090,0
1553630915.511,-120.605,95.215,151.367,-110.352,-0.977,0
1553630915.515,-151.367,86.426,165.039,-151.367,42.969,0
1553630915.519,-205.078,79.102,162.598,-171.387,36.621,0
1553630915.523,-216.797,79.102,169.922,-211.426,24.902,0
1553630915.527,-236.328,75.684,177.246,-252.930,56.641,0
1553630915.531,-275.879,71.777,176.758,-265.137,78.125,0
1553630915.535,-292.480,79.102,182.129,-281.250,64.453,0
1553630915.539,-290.527,88.379,185.547,-289.062,9.277,0
1553630915.542,-312.500,93.750,186.523,-308.105,21.484,0
1553630915.546,-333.984,100.098,188.477,-308.594,40.039,0
1553630915.550,-315.430,99.609,183.594,-300.781,42.969,0
1553630915.554,-282.715,105.957,188.965,-300.293,50.781,0
1553630915.558,-266.113,100.586,183.105,-287.598,42.480,0
1553630915.562,-285.645,87.891,166.016,-277.344,30.762,0
1553630915.566,-280.762,83.496,162.598,-259.766,58.105,0
1553630915.570,-231.445,78.125,166.016,-223.633,72.266,0
1553630915.574,-210.449,81.543,154.297,-211.914,109.375,0
1553630915.578,-203.613,83.008,145.508,-195.801,109.863,0
1553630915.581,-172.363,83.496,140.625,-159.668,34.180,0
1553630915.585,-125.488,71.289,126.465,-133.789,35.156,0
1553630915.589,-111.816,43.457,129.883,-122.070,57.129,0
1553630915.593,-108.398,48.828,116.211,-99.121,106.445,0
1553630915.597,-87.402,63.477,99.121,-78.125,80.078,0
1553630915.601,-59.082,58.594,94.727,-65.430,59.082,0
1553630915.605,-44.922,43.945,82.520,-37.109,104.980,0
1553630915.609,-29.297,25.391,79.590,-16.602,39.062,0
1553630915.613,-9.277,31.738,74.219,12.207,-34.180,0
1553630915.617,-2.441,32.227,62.500,52.734,20.996,0
1553630915.621,25.879,18.555,63.965,57.617,115.234,0
1553630915.624,46.387,5.859,56.641,57.617,62.012,0
1553630915.628,50.781,-3.906,43.945,71.777,-35.156,0
1553630915.632,70.801,-9.766,43.457,79.590,2.930,0
1553630915.636,84.473,-11.230,38.086,83.496,64.941,0
1553630915.640,88.379,-5.371,33.203,93.262,36.621,0
1553630915.644,101.074,-9.766,29.785,111.816,-18.555,0
1553630915.648,107.910,-13.672,26.367,113.770,45.898,0
1553630915.652,107.910,3.418,22.461,104.492,23.438,0
1553630915.656,109.375,2.441,18.066,114.258,18.555,0
1553630915.660,106.445,-7.324,14.160,121.582,56.152,0
1553630915.664,107.910,2.930,11.230,112.793,72.266,0
1553630915.667,116.211,2.441,7.324,120.605,94.238,0
1553630915.671,123.535,-3.906,7.812,119.141,1.953,0
1553630915.675,125.000,14.648,11.719,119.141,49.316,0
1553630915.679,128.418,8.789,8.301,122.559,107.422,0
1553630915.683,113.770,-7.324,-1.465,113.770,57.129,0
1553630915.687,110.352,-7.812,-9.277,108.398,57.129,0
1553630915.691,120.117,-7.812,-8.789,124.512,33.203,0
1553630915.695,120.605,-1.953,-5.859,131.836,-8.789,0
1553630915.699,122.070,-5.371,-6.836,131.836,3.418,0
1553630915.703,126.465,-7.812,-8.789,130.859,52.246,0
1553630915.706,122.070,-0.977,-5.371,110.840,68.848,0
1553630915.710,119.141,9.766,-3.418,109.375,43.945,0
1553630915.714,115.723,2.441,-11.719,108.887,37.109,0
1553630915.718,102.539,-1.465,-6.348,108.887,69.824,0
1553630915.722,109.863,2.441,-3.906,89.844,69.824,0
1553630915.726,121.094,3.906,6.836,98.145,71.777,0
1553630915.730,140.625,1.465,16.113,117.676,17.578,0
1553630915.734,126.465,-14.160,-7.812,91.309,-75.684,0
1553630915.738,106.934,-7.324,-7.812,90.332,35.156,0
1553630915.742,110.352,-4.395,-1.953,106.445,10.254,0
1553630915.746,94.727,-8.301,0.977,109.863,-50.293,0
1553630915.749,92.285,0.488,8.301,105.469,63.477,0
1553630915.753,104.980,-8.789,7.812,108.887,81.055,0
1553630915.757,95.703,-22.461,3.906,100.586,27.344,0
1553630915.761,97.168,-15.137,12.207,96.680,41.504,0
1553630915.765,115.723,-10.254,16.113,99.121,73.242,0
1553630915.769,122.070,4.395,27.344,94.238,86.426,0
1553630915.773,104.492,0.000,20.996,90.332,65.430,0
1553630915.777,67.383,-16.602,3.418,80.566,27.344,0
1553630915.781,78.125,-11.719,16.113,87.402,69.336,0
1553630915.785,89.844,-11.230,14.160,86.914,15.137,0
1553630915.789,71.289,-2.441,13.184,85.938,-26.367,0
1553630915.792,97.656,1.465,25.391,105.469,40.527,0
1553630915.796,108.887,-7.324,38.086,111.328,71.777,0
1553630915.800,71.289,-15.137,13.184,76.172,65.430,0
1553630915.804,65.430,-3.906,4.395,56.641,38.574,0
1553630915.808,62.988,0.488,18.066,64.941,17.090,0
1553630915.812,54.199,-7.324,11.230,65.430,16.602,0
1553630915.816,48.828,0.488,17.578,70.801,39.551,0
1553630915.820,53.711,17.090,22.461,68.848,-13.672,0
1553630915.824,63.965,11.230,18.555,75.684,26.855,0
1553630915.828,52.734,-5.371,14.648,79.102,54.688,0
1553630915.831,61.035,2.441,15.137,68.359,4.395,0
1553630915.835,78.613,8.301,22.461,74.707,-2.930,0
1553630915.839,67.383,15.625,28.809,91.309,4.395,0
1553630915.843,51.758,24.414,18.066,71.777,54.199,0
1553630915.847,32.227,11.230,12.207,50.781,69.824,0
1553630915.851,28.320,3.418,19.043,60.059,-1.465,0
1553630915.855,55.176,21.973,24.902,64.453,4.395,0
1553630915.859,59.570,12.207,17.578,55.664,78.125,0
1553630915.863,55.176,11.719,20.508,63.965,54.199,0
1553630915.867,57.129,30.273,20.508,68.848,43.457,0
1553630915.871,40.039,19.043,8.301,61.035,3.906,0
1553630915.874,39.551,22.461,17.090,57.617,34.180,0
1553630915.878,38.574,26.367,16.113,51.758,49.316,0
1553630915.882,42.969,22.949,13.184,50.293,85.938,0
1553630915.886,48.828,30.762,16.602,51.758,108.398,0
1553630915.890,39.551,31.250,19.531,56.641,51.758,0
1553630915.894,30.762,16.113,15.625,51.270,39.551,0
1553630915.898,37.109,19.043,12.207,51.758,-21.484,0
1553630915.902,38.574,26.855,18.066,55.176,63.965,0
1553630915.906,38.574,22.461,20.508,49.316,56.152,0
1553630915.910,41.016,22.461,15.137,53.711,-42.969,0
1553630915.914,40.527,23.926,17.578,63.965,30.762,0
1553630915.917,42.480,25.391,20.020,66.406,46.875,0
1553630915.921,47.852,26.367,20.996,60.547,-5.371,0
1553630915.925,49.316,29.785,21.484,63.965,34.668,0
1553630915.929,46.387,25.879,18.066,62.988,84.961,0
1553630915.933,39.551,27.344,17.090,60.547,84.961,0
1553630915.937,43.945,23.438,20.996,66.895,25.879,0
1553630915.941,66.406,14.648,19.043,64.453,-29.297,0
1553630915.945,65.430,24.902,22.949,50.781,20.020,0
1553630915.949,42.969,28.809,29.785,49.316,20.020,0
1553630915.953,25.391,18.555,24.902,50.293,0.000,0
1553630915.956,31.250,15.137,24.902,45.898,19.043,0
1553630915.960,41.992,18.555,25.879,50.781,50.781,0
1553630915.964,28.809,12.695,25.391,56.152,2.441,0
1553630915.968,25.391,7.812,21.973,43.945,7.324,0
1553630915.972,27.344,17.578,25.391,43.457,76.172,0
1553630915.976,43.457,20.020,34.668,52.246,37.598,0
1553630915.980,61.523,9.766,35.156,49.316,79.590,0
1553630915.984,31.250,6.836,23.926,35.645,52.734,0
1553630915.988,13.672,11.230,23.926,28.320,-15.137,0
1553630915.992,39.551,13.184,26.855,45.410,-12.207,0
1553630915.996,42.480,5.859,29.297,41.016,18.066,0
1553630915.999,46.875,-7.324,36.621,55.664,100.586,0
1553630916.003,55.664,7.812,36.621,67.871,61.035,0
1553630916.007,42.480,34.668,40.527,41.992,60.547,0
1553630916.011,28.809,25.879,39.062,26.367,58.594,0
1553630916.015,14.648,11.230,32.227,21.973,-6.348,0
1553630916.019,12.207,9.766,30.762,23.438,25.879,0
1553630916.023,32.715,26.855,40.039,34.668,81.543,0
1553630916.027,66.406,23.926,53.223,62.500,73.242,0
1553630916.031,38.574,5.859,35.156,45.410,-13.184,0
1553630916.035,11.230,5.859,19.043,20.996,-10.254,0
1553630916.039,7.324,8.301,22.461,30.762,32.715,0
1553630916.042,3.418,10.254,25.391,23.438,0.000,0
1553630916.046,14.160,12.207,21.973,25.879,-10.742,0
1553630916.050,21.973,19.531,26.367,30.762,66.406,0
1553630916.054,22.461,25.879,26.367,20.020,81.055,0
1553630916.058,30.762,30.273,25.391,27.344,53.711,0
1553630916.062,40.527,33.203,28.809,32.715,28.809,0
1553630916.066,33.691,27.832,32.715,41.504,38.574,0
1553630916.070,23.438,27.344,35.645,45.898,83.008,0
1553630916.074,18.555,38.574,33.203,37.109,55.664,0
1553630916.078,15.137,32.715,30.762,25.879,17.090,0
1553630916.081,14.160,27.344,28.809,23.438,1.465,0
1553630916.085,27.344,36.133,25.879,32.715,-41.016,0
1553630916.089,37.109,35.645,26.367,35.156,-51.270,0
1553630916.093,29.785,29.785,27.832,40.039,-23.926,0
1553630916.097,25.879,30.762,27.344,28.809,-14.160,0
1553630916.101,22.949,34.180,23.926,20.508,11.719,0
1553630916.105,15.137,35.645,22.461,30.762,-28.320,0
1553630916.109,18.555,41.016,24.902,38.574,-66.895,0
1553630916.113,13.672,40.039,25.879,29.785,-23.926,0
1553630916.117,16.602,38.086,25.391,23.926,-10.254,0
1553630916.121,25.879,37.598,25.391,42.480,36.621,0
1553630916.124,27.832,30.762,24.902,42.480,42.969,0
1553630916.128,23.438,32.715,27.832,37.109,48.340,0
1553630916.132,3.906,31.250,23.438,35.156,-3.906,0
1553630916.136,6.836,28.320,20.508,37.598,4.395,0
1553630916.140,16.602,32.227,26.855,39.551,49.805,0
1553630916.144,15.625,23.926,23.438,25.879,74.219,0
1553630916.148,6.836,28.809,22.949,27.344,62.012,0
1553630916.152,21.484,42.969,34.668,35.645,16.113,0
1553630916.156,20.996,39.062,39.062,23.926,61.523,0
1553630916.160,-6.836,37.598,32.715,0.977,54.688,0
1553630916.164,-9.277,34.180,25.879,-9.766,29.785,0
1553630916.167,41.992,40.527,41.504,39.062,39.062,0
1553630916.171,36.133,49.316,69.336,45.410,51.758,0
1553630916.175,-49.316,33.203,65.918,-47.852,23.926,0
1553630916.179,-109.375,25.879,55.664,-86.426,38.086,0
1553630916.183,-127.930,42.480,72.754,-79.102,109.863,0
1553630916.187,-163.086,49.805,86.426,-120.117,57.129,0
1553630916.191,-214.844,59.570,96.680,-178.223,5.371,0
1553630916.195,-272.949,60.547,105.469,-229.492,22.949,0
1553630916.199,-321.777,47.363,109.863,-272.461,25.391,0
1553630916.203,-345.703,57.617,120.117,-307.129,126.465,0
1553630916.206,-392.090,64.941,139.648,-333.496,147.461,0
1553630916.210,-412.598,62.012,161.133,-346.680,112.793,0
1553630916.214,-441.895,43.457,156.250,-379.883,55.176,0
1553630916.218,-478.027,35.156,146.973,-418.945,27.344,0
1553630916.222,-492.188,36.621,165.527,-414.551,108.887,0
1553630916.226,-511.230,29.785,166.504,-412.598,97.168,0
1553630916.230,-517.578,11.230,145.996,-418.945,55.176,0
1553630916.234,-500.488,3.906,140.137,-416.504,129.395,0
1553630916.238,-478.516,-0.977,130.371,-389.648,109.375,0
1553630916.242,-437.012,-7.812,122.559,-344.238,26.855,0
1553630916.246,-405.762,-9.766,114.746,-305.664,7.812,0
1553630916.249,-388.672,-20.996,83.008,-286.621,8.789,0
1553630916.253,-324.219,-20.508,75.195,-245.605,-14.648,0
1553630916.257,-293.945,-20.996,76.172,-226.562,-4.395,0
1553630916.261,-313.477,-17.090,58.594,-229.004,-10.254,0
1553630916.265,-279.785,-20.996,46.387,-194.824,-1.953,0
1553630916.269,-223.145,-26.367,39.062,-156.250,31.250,0
1553630916.273,-193.848,-16.602,31.738,-117.188,5.859,0
1553630916.277,-173.828,-16.602,15.625,-93.750,9.277,0
1553630916.281,-140.625,-25.391,0.977,-50.781,61.035,0
1553630916.285,-110.840,-19.531,-15.625,-25.879,26.855,0
1553630916.289,-72.266,-13.184,-19.043,1.953,-20.508,0
1553630916.292,-39.551,-19.043,-27.832,39.551,33.691,0
1553630916.296,-20.508,-21.484,-51.270,51.270,41.016,0
1553630916.300,10.742,-16.113,-58.594,69.336,32.227,0
1553630916.304,35.156,-18.066,-56.152,84.961,19.531,0
1553630916.308,40.527,-15.137,-56.641,95.215,-17.090,0
1553630916.312,46.387,-14.160,-63.965,96.191,27.832,0
1553630916.316,76.172,-24.902,-71.289,110.840,3.418,0
1553630916.320,86.426,-22.949,-72.754,133.301,20.996,0
1553630916.324,83.984,-16.602,-72.754,140.625,62.500,0
1553630916.328,95.703,-7.812,-72.266,144.531,24.902,0
1553630916.331,101.074,-0.977,-74.707,154.785,22.949,0
1553630916.335,96.680,-0.488,-73.730,149.414,34.180,0
1553630916.339,104.492,7.812,-74.219,134.277,60.547,0
1553630916.343,105.957,14.160,-78.613,133.301,5.859,0
1553630916.347,112.305,12.207,-76.660,143.555,-22.461,0
1553630916.351,108.887,6.836,-75.684,139.160,-12.207,0
1553630916.355,104.980,12.695,-74.219,134.277,21.484,0
1553630916.359,100.098,18.555,-68.359,143.066,-4.883,0
1553630916.363,99.121,20.020,-71.777,131.836,-1.953,0
1553630916.367,97.168,27.832,-70.801,136.230,31.250,0
1553630916.371,97.168,33.691,-62.012,145.508,20.996,0
1553630916.374,108.398,41.016,-63.477,135.254,51.758,0
1553630916.378,110.352,45.898,-64.453,140.625,19.531,0
1553630916.382,109.375,47.363,-58.105,132.324,10.742,0
1553630916.386,106.934,55.664,-51.758,132.324,46.875,0
1553630916.390,100.098,62.988,-51.758,137.207,-23.926,0
1553630916.394,99.121,48.828,-52.246,128.418,-46.387,0
1553630916.398,95.703,40.527,-48.340,125.488,2.930,0
1553630916.402,83.496,41.016,-46.387,115.234,50.293,0
1553630916.406,87.891,47.852,-44.922,116.699,87.891,0
1553630916.410,100.098,57.617,-39.551,128.418,26.367,0
1553630916.414,104.004,49.805,-33.691,125.977,12.207,0
1553630916.417,101.074,45.410,-31.250,109.863,75.684,0
1553630916.421,95.215,47.852,-27.344,109.375,81.055,0
1553630916.425,96.680,46.387,-20.020,111.816,31.250,0
1553630916.429,102.051,56.152,-11.719,108.887,67.383,0
1553630916.433,97.656,49.316,-10.254,110.840,69.824,0
1553630916.437,91.797,41.016,-6.348,113.770,-11.230,0
1553630916.441,77.148,50.293,-3.418,103.027,0.000,0
1553630916.445,70.312,33.691,-1.465,94.238,14.648,0
1553630916.449,75.195,31.250,1.465,88.379,12.695,0
1553630916.453,71.289,35.645,5.371,87.891,71.289,0
1553630916.456,69.336,20.996,7.324,91.309,63.477,0
1553630916.460,76.660,27.832,10.254,83.496,-27.832,0
1553630916.464,72.266,24.414,14.160,69.824,6.836,0
1553630916.468,69.336,27.344,22.461,82.520,98.633,0
1553630916.472,81.543,31.250,28.320,81.543,81.543,0
1553630916.476,97.656,22.461,21.484,68.848,92.773,0
1553630916.480,86.426,23.926,23.926,72.754,85.938,0
1553630916.484,57.129,17.578,27.832,78.613,34.180,0
1553630916.488,51.758,10.254,28.809,81.543,38.574,0
1553630916.492,57.129,6.836,32.227,82.031,53.223,0
1553630916.496,54.199,16.113,37.109,79.102,22.949,0
1553630916.499,54.688,9.766,33.203,80.078,-1.465,0
1553630916.503,72.266,11.230,36.133,91.797,44.434,0
1553630916.507,82.031,19.531,35.645,81.543,60.059,0
1553630916.511,61.035,20.996,35.645,74.219,37.598,0
1553630916.515,67.871,25.879,42.969,83.984,103.516,0
1553630916.519,83.008,24.902,49.316,72.754,71.777,0
1553630916.523,64.941,26.855,47.852,53.711,-14.160,0
1553630916.527,47.852,33.203,40.039,60.547,25.391,0
1553630916.531,34.180,37.109,41.992,59.570,-17.578,0
1553630916.535,15.137,22.949,46.387,39.062,-14.160,0
1553630916.539,28.320,30.273,46.387,40.527,83.496,0
1553630916.542,60.059,47.363,56.152,59.082,100.586,0
1553630916.546,47.363,36.621,51.270,70.312,87.402,0
1553630916.550,37.598,35.156,31.250,62.988,41.992,0
1553630916.554,62.012,28.320,41.992,58.594,-3.906,0
1553630916.558,68.848,34.180,55.176,70.801,22.949,0
1553630916.562,43.945,55.176,51.270,52.246,47.852,0
1553630916.566,33.203,54.688,47.363,33.691,19.043,0
1553630916.570,47.363,47.363,42.480,45.410,46.875,0
1553630916.574,26.367,33.691,32.227,33.691,14.160,0
1553630916.578,25.391,41.504,34.668,22.461,-27.832,0
1553630916.581,41.992,47.852,33.203,30.762,17.578,0
1553630916.585,63.477,50.781,37.109,67.871,76.172,0
1553630916.589,58.105,52.246,35.645,72.754,25.391,0
1553630916.593,21.484,47.363,25.879,24.902,1.465,0
1553630916.597,7.812,40.527,26.367,20.508,89.844,0
1553630916.601,27.344,42.480,31.250,54.688,67.871,0
1553630916.605,41.504,44.922,29.785,70.312,30.762,0
1553630916.609,31.250,41.016,20.020,44.434,27.832,0
1553630916.613,43.945,53.711,19.043,48.828,65.430,0
1553630916.617,45.898,51.758,18.555,65.430,58.594,0
1553630916.621,33.691,39.062,7.812,44.922,6.348,0
1553630916.624,37.598,42.480,7.812,51.270,41.992,0
1553630916.628,46.875,45.410,7.324,58.105,47.363,0
1553630916.632,46.387,40.039,0.488,48.828,28.809,0
1553630916.636,37.109,38.574,-0.488,46.875,79.590,0
1553630916.640,32.715,43.945,2.930,50.293,68.359,0
1553630916.644,46.387,45.898,2.930,57.129,80.566,0
1553630916.648,53.223,41.504,5.859,66.406,96.680,0
1553630916.652,41.992,30.273,0.977,53.223,47.363,0
1553630916.656,30.762,34.668,-4.883,33.691,4.883,0
1553630916.660,25.879,35.645,-5.371,27.344,27.344,0
1553630916.664,28.809,17.578,-6.836,41.016,22.949,0
1553630916.667,23.438,20.996,-4.883,42.480,19.531,0
1553630916.671,30.762,26.367,0.488,34.180,0.977,0
1553630916.675,44.922,22.461,1.465,40.527,-38.574,0
1553630916.679,42.480,27.344,-2.930,42.480,47.363,0
1553630916.683,44.434,35.156,-1.465,53.223,58.594,0
1553630916.687,44.434,24.414,-3.906,40.039,22.949,0
1553630916.691,12.207,9.277,-6.836,25.879,52.246,0
1553630916.695,10.254,6.348,-5.371,40.527,64.941,0
1553630916.699,20.508,6.348,-1.465,34.668,66.895,0
1553630916.703,16.113,12.695,2.441,23.926,78.125,0
1553630916.706,19.043,14.160,-2.930,27.344,40.527,0
1553630916.710,30.273,5.859,-1.953,36.621,3.418,0
1553630916.714,38.086,-4.395,1.465,35.645,27.344,0
1553630916.718,25.391,-2.930,6.348,39.062,41.504,0
1553630916.722,18.555,-1.953,10.254,46.875,98.145,0
1553630916.726,19.531,-20.508,-0.488,33.691,78.125,0
1553630916.730,26.367,-17.090,5.859,16.602,-18.066,0
1553630916.734,24.902,-8.301,18.066,18.066,-10.742,0
1553630916.738,5.859,-21.484,0.977,6.836,-18.066,0
1553630916.742,15.625,-11.230,1.953,5.859,17.578,0
1553630916.746,32.227,-3.906,13.672,29.297,44.922,0
1553630916.749,13.184,-17.578,-0.488,32.227,48.828,0
