timestamps,TP9,AF7,AF8,TP10,Right AUX,Marker0
1542737232.981,-61.035,121.094,107.422,-90.820,98.145,0
1542737232.985,-50.781,129.395,99.609,-78.613,108.398,0
1542737232.989,-39.551,131.836,96.680,-71.777,21.973,0
1542737232.992,-39.062,110.840,111.816,-61.035,30.273,0
1542737232.996,-40.039,102.051,112.793,-61.035,58.594,0
1542737233.000,-26.855,102.539,89.844,-50.293,4.883,0
1542737233.004,-30.762,92.773,105.957,-41.016,20.508,0
1542737233.008,-28.320,85.938,113.281,-33.203,44.922,0
1542737233.012,-19.531,75.195,101.074,-38.574,16.602,0
1542737233.016,-36.133,56.152,103.516,-53.711,59.570,0
1542737233.020,-18.066,53.711,95.215,-19.043,71.289,0
1542737233.024,14.648,52.734,82.031,15.137,36.133,0
1542737233.028,13.672,48.828,93.262,9.277,72.754,0
1542737233.031,16.602,53.711,103.516,1.465,78.125,0
1542737233.035,45.410,42.969,88.867,33.203,31.738,0
1542737233.039,56.152,29.297,81.543,43.945,29.785,0
1542737233.043,50.781,23.438,76.172,35.645,7.812,0
1542737233.047,65.918,10.254,64.941,43.457,-48.340,0
1542737233.051,86.914,3.418,58.105,56.641,54.199,0
1542737233.055,90.332,3.418,62.988,66.406,49.316,0
1542737233.059,89.355,-6.348,55.664,63.477,60.547,0
1542737233.063,96.680,-21.973,39.062,77.148,67.383,0
1542737233.067,95.215,-29.297,32.227,96.191,24.414,0
1542737233.071,104.980,-30.273,29.785,102.539,40.527,0
1542737233.074,137.207,-29.297,20.020,121.582,47.363,0
1542737233.078,149.902,-39.551,18.555,127.441,60.059,0
1542737233.082,144.531,-47.363,10.254,126.953,39.551,0
1542737233.086,138.184,-54.199,-2.930,136.230,35.645,0
1542737233.090,126.953,-57.617,11.719,136.719,27.832,0
1542737233.094,137.695,-58.594,25.879,144.043,15.137,0
1542737233.098,145.508,-56.641,28.320,150.391,-14.160,0
1542737233.102,149.902,-58.105,25.879,148.438,49.316,0
1542737233.106,164.551,-62.500,15.625,145.020,77.637,0
1542737233.110,163.574,-64.453,7.324,143.066,32.227,0
1542737233.114,150.879,-65.918,2.930,134.766,19.043,0
1542737233.117,139.160,-67.383,-4.883,135.254,-6.836,0
1542737233.121,143.066,-58.594,-0.977,132.324,6.836,0
1542737233.125,148.438,-51.270,3.906,136.230,49.805,0
1542737233.129,141.602,-48.828,-7.812,145.996,86.914,0
1542737233.133,137.695,-41.016,-18.066,146.484,109.375,0
1542737233.137,137.207,-38.574,-15.625,139.160,95.215,0
1542737233.141,137.695,-31.738,-10.254,137.207,101.074,0
1542737233.145,137.695,-30.762,-5.371,142.090,119.629,0
1542737233.149,142.578,-37.109,-0.488,136.230,94.727,0
1542737233.153,140.137,-43.457,-1.465,136.719,41.504,0
1542737233.156,137.695,-44.434,4.395,138.672,16.113,0
1542737233.160,147.949,-36.621,-1.465,138.184,26.367,0
1542737233.164,147.949,-23.926,-7.812,137.695,33.203,0
1542737233.168,136.230,-26.855,7.812,142.578,34.668,0
1542737233.172,139.648,-28.809,12.207,155.762,55.176,0
1542737233.176,150.391,-20.020,9.766,146.973,88.867,0
1542737233.180,156.250,-18.066,7.812,133.789,16.113,0
1542737233.184,158.691,-19.531,4.883,134.277,13.672,0
1542737233.188,150.391,-19.531,6.348,133.301,19.043,0
1542737233.192,134.277,-19.043,9.766,133.301,-3.906,0
1542737233.196,140.625,-18.555,13.672,133.789,38.574,0
1542737233.199,148.438,-10.742,17.090,135.742,62.012,0
1542737233.203,144.043,-2.930,21.484,137.207,55.664,0
1542737233.207,143.066,-6.348,15.625,133.301,58.105,0
1542737233.211,142.578,-8.789,10.254,131.348,69.824,0
1542737233.215,140.137,-10.254,10.742,141.602,93.262,0
1542737233.219,131.348,-21.484,10.742,148.438,11.230,0
1542737233.223,128.418,-27.832,21.484,136.230,-45.898,0
1542737233.227,125.488,-28.320,27.344,135.742,-20.508,0
1542737233.231,107.910,-27.832,23.438,137.695,17.578,0
1542737233.235,104.004,-16.602,20.508,132.812,49.805,0
1542737233.239,106.934,-11.719,24.414,127.930,32.227,0
1542737233.242,107.422,-15.137,21.484,113.770,22.949,0
1542737233.246,108.887,-5.859,10.742,104.004,50.781,0
1542737233.250,106.934,1.465,7.324,97.656,10.742,0
1542737233.254,89.355,1.953,1.953,91.797,-20.508,0
1542737233.258,77.148,-0.977,3.418,100.586,68.359,0
1542737233.262,81.543,3.906,10.742,117.676,40.527,0
1542737233.266,83.984,14.648,6.348,111.328,4.883,0
1542737233.270,88.867,18.066,4.883,91.309,72.266,0
1542737233.274,99.609,19.043,3.418,89.844,75.684,0
1542737233.278,101.074,16.113,-5.859,88.379,76.172,0
1542737233.281,99.121,16.113,-9.766,80.078,40.527,0
1542737233.285,99.121,13.672,-9.766,84.473,22.949,0
1542737233.289,89.355,8.301,-9.277,88.867,27.344,0
1542737233.293,88.867,2.930,-14.648,90.820,-12.695,0
1542737233.297,88.867,4.395,-17.578,95.215,20.996,0
1542737233.301,82.520,14.160,-19.043,101.074,25.391,0
1542737233.305,82.520,20.508,-11.230,107.422,36.621,0
1542737233.309,87.891,23.926,-4.395,105.469,76.172,0
1542737233.313,91.309,22.461,5.371,93.750,60.059,0
1542737233.317,83.008,9.766,22.949,90.820,27.344,0
1542737233.321,90.332,11.719,32.715,110.840,43.457,0
1542737233.324,80.078,36.621,30.273,99.121,58.594,0
1542737233.328,46.387,37.598,20.508,67.383,9.766,0
1542737233.332,34.180,39.551,23.438,61.523,4.395,0
1542737233.336,27.344,61.035,32.227,27.344,29.785,0
1542737233.340,25.879,69.824,31.738,16.602,47.363,0
1542737233.344,14.160,73.730,33.691,13.184,79.590,0
1542737233.348,2.930,71.777,38.086,-8.301,52.734,0
1542737233.352,-0.488,81.055,39.062,-21.973,16.113,0
1542737233.356,-17.090,92.773,35.645,-50.293,63.965,0
1542737233.360,-28.320,93.750,30.762,-51.758,20.508,0
1542737233.364,-26.367,99.121,24.414,-50.781,-18.066,0
1542737233.367,-19.043,105.957,13.184,-44.922,56.641,0
1542737233.371,-16.113,98.633,15.137,-23.438,27.344,0
1542737233.375,-7.324,85.938,16.602,-12.207,-26.367,0
1542737233.379,7.324,79.102,2.441,-15.625,42.480,0
1542737233.383,5.859,72.266,-0.488,-16.113,90.332,0
1542737233.387,-11.230,68.848,8.301,-11.230,34.668,0
1542737233.391,-8.301,72.266,20.020,-7.812,-31.738,0
1542737233.395,0.977,78.613,40.039,-4.883,-21.973,0
1542737233.399,3.906,80.566,52.246,-8.301,37.109,0
1542737233.403,1.465,75.195,48.828,-2.441,52.734,0
1542737233.406,-12.207,69.336,37.109,-1.465,20.020,0
1542737233.410,-14.648,70.801,34.180,-2.930,11.230,0
1542737233.414,-8.789,72.266,41.016,4.883,69.336,0
1542737233.418,-9.277,70.312,40.039,-5.371,13.184,0
1542737233.422,-14.648,67.383,28.809,-11.230,14.160,0
1542737233.426,-2.930,74.707,18.555,-5.371,49.805,0
1542737233.430,2.441,78.613,15.625,-1.953,3.418,0
1542737233.434,-9.277,70.801,17.578,-8.789,9.277,0
1542737233.438,-9.766,65.430,25.879,30.762,66.406,0
1542737233.442,-0.488,62.012,29.785,109.863,31.738,0
1542737233.446,-5.371,66.406,25.879,57.129,-16.113,0
1542737233.449,-5.371,77.637,15.625,-30.762,25.391,0
1542737233.453,7.812,85.938,15.625,-50.293,35.156,0
1542737233.457,20.020,89.355,20.996,-64.453,22.461,0
1542737233.461,21.484,83.496,20.020,-65.430,63.477,0
1542737233.465,4.883,72.754,24.902,-48.340,44.922,0
1542737233.469,0.977,71.777,26.367,-37.598,10.254,0
1542737233.473,3.418,80.078,34.668,-37.109,25.879,0
1542737233.477,-14.160,84.473,38.086,-49.805,75.195,0
1542737233.481,3.906,87.402,27.344,-45.410,76.172,0
1542737233.485,9.766,93.262,21.973,-32.715,29.785,0
1542737233.489,-28.809,91.309,19.531,-27.344,-1.465,0
1542737233.492,-34.668,87.402,14.648,-27.832,41.016,0
1542737233.496,-31.250,86.426,20.508,-30.273,42.969,0
1542737233.500,-45.898,91.797,24.902,-37.109,-22.949,0
1542737233.504,-46.875,96.191,24.414,-49.805,57.617,0
1542737233.508,-40.527,95.215,37.598,-48.828,76.172,0
1542737233.512,-30.762,97.656,49.316,-39.551,18.066,0
1542737233.516,-22.949,91.797,54.688,-36.621,55.664,0
1542737233.520,-18.066,88.379,52.734,-33.691,57.129,0
1542737233.524,-14.160,96.191,43.945,-36.621,-13.672,0
1542737233.528,-27.832,102.539,42.969,-43.945,-10.742,0
1542737233.531,-41.016,102.539,49.805,-36.621,0.977,0
1542737233.535,-26.367,90.820,48.340,-37.109,-17.578,0
1542737233.539,-29.297,85.938,46.387,-41.992,32.227,0
1542737233.543,-42.480,85.938,48.828,-39.551,46.875,0
1542737233.547,-13.672,88.867,48.828,-30.762,71.777,0
1542737233.551,-15.625,94.238,48.828,-25.879,76.172,0
1542737233.555,-30.762,94.238,48.340,-43.945,58.105,0
1542737233.559,3.906,99.121,40.527,-38.574,29.297,0
1542737233.563,5.371,94.238,52.734,-24.902,-9.277,0
1542737233.567,-21.973,88.867,72.266,-24.414,-2.441,0
1542737233.571,-34.668,86.426,71.777,-22.461,0.488,0
1542737233.574,-51.758,84.961,79.590,-48.340,37.109,0
1542737233.578,-45.410,86.426,77.637,-69.824,53.223,0
1542737233.582,-52.246,87.891,82.520,-63.965,31.738,0
1542737233.586,-59.082,77.148,104.980,-58.105,35.645,0
1542737233.590,-49.316,75.195,111.328,-63.477,52.246,0
1542737233.594,-67.383,90.332,102.051,-87.402,80.078,0
1542737233.598,-107.422,86.426,94.238,-101.562,42.480,0
1542737233.602,-113.770,81.543,98.145,-100.098,3.418,0
1542737233.606,-91.309,93.262,90.820,-91.309,18.066,0
1542737233.610,-75.684,105.957,83.008,-94.238,-7.812,0
1542737233.614,-89.844,109.863,91.309,-104.980,-3.906,0
1542737233.617,-102.051,102.051,101.074,-98.633,24.414,0
1542737233.621,-95.215,90.332,92.773,-91.797,62.988,0
1542737233.625,-103.027,84.961,92.285,-112.793,63.477,0
1542737233.629,-89.844,88.867,95.215,-131.836,28.809,0
1542737233.633,-79.590,92.285,91.309,-131.836,18.555,0
1542737233.637,-92.773,85.938,96.191,-114.746,43.945,0
1542737233.641,-84.473,88.867,100.586,-94.238,40.039,0
1542737233.645,-84.473,93.262,109.863,-89.355,33.203,0
1542737233.649,-75.684,93.262,118.164,-96.191,66.406,0
1542737233.653,-74.219,93.750,123.047,-115.234,55.176,0
1542737233.656,-91.797,88.867,124.023,-123.047,11.719,0
1542737233.660,-90.332,94.238,124.512,-118.652,43.457,0
1542737233.664,-88.379,119.141,116.699,-113.281,67.383,0
1542737233.668,-82.520,115.723,119.629,-103.516,-2.930,0
1542737233.672,-86.914,96.191,131.348,-93.262,32.227,0
1542737233.676,-89.844,95.703,124.512,-107.422,29.297,0
1542737233.680,-76.172,93.262,114.258,-96.680,0.488,0
1542737233.684,-66.895,89.355,105.469,-83.984,70.801,0
1542737233.688,-68.848,89.844,92.285,-94.238,38.574,0
1542737233.692,-77.148,80.566,88.867,-100.098,3.906,0
1542737233.696,-70.312,71.777,94.238,-90.820,35.156,0
1542737233.699,-53.711,80.566,99.121,-84.961,14.160,0
1542737233.703,-64.941,85.938,83.984,-83.984,4.883,0
1542737233.707,-70.801,92.773,62.012,-69.824,31.250,0
1542737233.711,-53.711,96.680,72.754,-80.078,20.020,0
1542737233.715,-57.129,92.285,96.191,-81.055,27.832,0
1542737233.719,-57.617,95.215,108.887,-70.312,61.035,0
1542737233.723,-51.270,93.750,106.445,-71.289,51.270,0
1542737233.727,-50.293,87.402,89.355,-65.918,31.250,0
1542737233.731,-60.059,88.379,89.844,-68.359,39.551,0
1542737233.735,-55.664,89.355,97.168,-62.012,24.902,0
1542737233.739,-46.875,79.590,102.051,-43.945,19.531,0
1542737233.742,-44.922,70.312,102.051,-40.527,-10.742,0
1542737233.746,-31.738,71.289,101.074,-43.945,13.184,0
1542737233.750,-30.762,77.148,91.797,-46.387,55.664,0
1542737233.754,-25.879,78.613,90.332,-39.062,39.062,0
1542737233.758,-20.020,76.172,88.379,-34.180,27.832,0
1542737233.762,-41.016,86.426,74.219,-44.434,54.199,0
1542737233.766,-41.016,99.609,73.242,-40.039,88.379,0
1542737233.770,-36.621,94.727,73.730,-5.371,10.254,0
1542737233.774,-50.781,86.426,77.148,-1.953,-33.203,0
1542737233.778,-63.477,82.031,85.449,-36.133,70.312,0
1542737233.781,-59.570,79.590,85.938,-27.832,41.992,0
1542737233.785,-30.273,81.055,74.219,-7.812,-22.949,0
1542737233.789,-19.531,73.730,70.801,-2.441,20.508,0
1542737233.793,-27.832,63.965,78.125,-2.441,25.391,0
1542737233.797,-30.273,58.105,64.941,-22.949,19.531,0
1542737233.801,-13.184,54.688,52.734,-26.367,62.988,0
1542737233.805,-15.625,46.387,59.570,-30.273,56.641,0
1542737233.809,-29.785,47.852,57.129,-42.969,37.598,0
1542737233.813,5.859,65.430,52.734,-16.602,64.453,0
1542737233.817,32.715,64.941,49.805,0.488,55.176,0
1542737233.821,19.531,55.664,56.152,-8.301,54.199,0
1542737233.824,0.977,53.711,69.336,-11.719,44.922,0
1542737233.828,-12.695,49.316,75.195,-8.301,16.602,0
1542737233.832,-19.043,51.270,79.102,0.000,-20.020,0
1542737233.836,2.930,59.570,66.895,-4.395,35.645,0
1542737233.840,21.973,65.430,62.500,23.438,70.801,0
1542737233.844,29.785,67.871,67.871,43.945,58.594,0
1542737233.848,13.184,64.941,78.613,7.324,61.523,0
1542737233.852,0.488,64.941,78.613,-4.883,0.000,0
1542737233.856,17.090,67.871,67.383,-5.371,-33.691,0
1542737233.860,33.203,80.078,70.312,3.418,50.781,0
1542737233.864,19.043,80.078,83.496,21.484,73.242,0
1542737233.867,3.418,64.941,94.727,38.086,56.152,0
1542737233.871,11.230,62.988,86.426,31.738,82.031,0
1542737233.875,30.762,66.895,73.730,27.344,75.195,0
1542737233.879,32.715,66.406,82.520,19.531,80.566,0
1542737233.883,3.418,60.547,93.750,-11.719,74.219,0
1542737233.887,0.488,54.199,83.008,-12.695,21.973,0
1542737233.891,24.902,50.293,72.754,8.789,-3.418,0
1542737233.895,28.320,42.969,82.520,25.879,30.762,0
1542737233.899,22.949,40.039,79.590,27.832,0.000,0
1542737233.903,35.156,49.316,60.547,25.391,-24.902,0
1542737233.906,31.250,49.316,57.617,19.043,10.254,0
1542737233.910,39.062,45.410,63.477,30.273,32.227,0
1542737233.914,44.434,41.992,65.430,40.527,6.348,0
1542737233.918,27.344,45.898,57.129,28.809,13.184,0
1542737233.922,25.879,63.965,53.223,27.832,53.223,0
1542737233.926,41.504,66.406,62.988,49.805,58.105,0
1542737233.930,43.457,59.082,61.035,50.781,30.762,0
1542737233.934,36.621,46.387,55.664,38.574,12.207,0
1542737233.938,40.527,44.434,65.430,56.641,40.039,0
1542737233.942,38.574,54.199,66.406,62.500,88.379,0
1542737233.946,23.926,54.688,56.641,41.504,111.328,0
1542737233.949,20.508,49.805,53.711,36.621,60.059,0
1542737233.953,25.879,47.363,41.016,40.039,20.020,0
1542737233.957,32.227,50.781,19.531,39.551,66.406,0
1542737233.961,39.062,56.641,14.160,40.039,90.332,0
1542737233.965,31.738,51.758,16.602,35.645,32.715,0
1542737233.969,14.160,42.969,23.438,34.180,35.156,0
1542737233.973,12.695,43.457,34.180,36.621,79.102,0
1542737233.977,25.879,43.945,36.621,44.434,65.430,0
1542737233.981,35.156,35.645,31.738,55.664,6.836,0
1542737233.985,37.109,33.203,26.367,45.898,47.363,0
1542737233.989,38.086,41.992,29.785,54.688,14.648,0
1542737233.992,51.758,47.852,32.715,70.312,9.277,0
1542737233.996,62.012,38.086,23.438,54.688,55.176,0
1542737234.000,64.453,33.203,30.762,52.246,15.137,0
1542737234.004,51.758,49.316,41.504,69.336,34.668,0
1542737234.008,45.898,55.664,40.039,65.430,-1.465,0
1542737234.012,61.035,48.340,36.621,48.828,42.969,0
1542737234.016,64.453,47.363,34.668,42.969,91.797,0
1542737234.020,60.059,49.805,32.227,46.387,58.594,0
1542737234.024,75.195,60.547,27.344,44.922,64.453,0
1542737234.028,72.266,65.430,23.926,44.434,30.273,0
1542737234.031,56.152,58.105,34.180,43.457,19.043,0
1542737234.035,56.152,59.082,33.691,44.434,29.297,0
1542737234.039,57.617,60.547,9.277,63.477,-19.531,0
1542737234.043,42.480,52.734,-2.930,51.270,1.953,0
1542737234.047,35.156,50.293,-8.301,37.598,28.320,0
1542737234.051,47.363,46.387,-10.742,43.457,57.617,0
1542737234.055,41.504,37.598,-4.395,29.297,37.598,0
1542737234.059,41.992,30.762,-1.953,31.250,-29.297,0
1542737234.063,52.246,41.016,-4.883,54.688,12.695,0
1542737234.067,34.180,44.434,-10.254,50.781,57.129,0
1542737234.071,32.227,43.457,-3.418,49.805,-8.301,0
1542737234.074,26.855,53.223,-9.277,41.992,14.160,0
1542737234.078,15.625,47.363,-16.602,24.414,38.574,0
1542737234.082,23.438,43.457,-4.395,27.344,-60.547,0
1542737234.086,24.902,52.246,3.418,34.668,-35.156,0
1542737234.090,27.832,46.875,9.766,37.109,22.949,0
1542737234.094,20.996,42.969,18.066,42.969,31.738,0
1542737234.098,19.531,51.758,18.555,40.527,35.156,0
1542737234.102,34.668,54.199,15.137,35.645,6.348,0
1542737234.106,43.945,56.152,13.672,45.410,25.391,0
1542737234.110,46.387,51.270,11.230,50.293,73.730,0
1542737234.114,47.363,46.387,11.719,50.293,50.781,0
1542737234.117,53.223,50.293,14.648,54.199,-3.418,0
1542737234.121,56.641,50.293,6.836,68.359,-15.137,0
1542737234.125,59.082,47.852,-1.465,91.309,27.344,0
1542737234.129,53.711,53.711,-8.301,91.797,31.250,0
1542737234.133,55.176,62.500,-8.789,78.125,-17.090,0
1542737234.137,70.801,62.988,-9.277,66.406,-20.996,0
1542737234.141,76.172,56.152,-15.137,61.035,51.758,0
1542737234.145,71.777,54.199,-13.672,65.918,104.980,0
1542737234.149,85.449,60.547,-10.742,83.008,85.449,0
1542737234.153,84.961,63.965,-21.973,76.660,102.051,0
1542737234.156,60.059,61.035,-27.832,57.617,67.383,0
1542737234.160,53.711,49.316,-24.902,80.078,6.836,0
1542737234.164,65.430,41.504,-32.227,89.844,13.672,0
1542737234.168,68.848,35.156,-33.203,62.500,62.988,0
1542737234.172,66.406,26.367,-19.531,57.129,22.461,0
1542737234.176,71.777,38.574,-14.648,62.012,-5.371,0
1542737234.180,72.754,40.527,-14.648,69.336,28.809,0
1542737234.184,55.176,22.949,-3.906,78.613,37.598,0
1542737234.188,45.898,20.020,15.625,65.918,77.637,0
1542737234.192,64.453,20.508,36.621,52.734,93.262,0
1542737234.196,59.082,22.949,45.410,44.434,47.363,0
1542737234.199,29.297,20.996,48.828,24.414,-4.395,0
1542737234.203,38.086,8.789,47.852,20.020,25.879,0
1542737234.207,57.129,13.672,46.875,31.738,54.199,0
1542737234.211,43.945,25.879,50.781,26.855,23.438,0
1542737234.215,38.086,28.320,53.711,26.367,19.043,0
1542737234.219,48.828,41.016,56.152,42.969,-20.020,0
1542737234.223,56.152,52.734,56.641,51.270,8.301,0
1542737234.227,65.430,50.781,50.293,45.898,40.039,0
1542737234.231,69.336,41.504,46.875,33.691,-2.930,0
1542737234.235,76.660,34.668,45.898,38.086,39.062,0
1542737234.239,67.871,30.273,32.227,43.945,49.805,0
1542737234.242,66.895,32.227,22.461,46.875,13.184,0
1542737234.246,63.965,30.762,31.250,52.246,-3.906,0
1542737234.250,49.316,39.551,26.367,47.852,28.320,0
1542737234.254,52.734,58.594,30.273,46.875,61.523,0
1542737234.258,56.152,58.105,52.246,52.734,8.301,0
1542737234.262,53.223,49.316,55.664,53.223,7.324,0
1542737234.266,48.828,35.156,46.875,52.734,22.461,0
1542737234.270,74.219,34.668,26.367,53.711,48.828,0
1542737234.274,76.172,57.129,13.184,44.434,116.699,0
1542737234.278,51.758,53.223,25.391,40.527,60.547,0
1542737234.281,35.645,31.250,41.504,37.598,28.809,0
1542737234.285,47.852,30.762,47.363,46.387,51.270,0
1542737234.289,56.152,33.691,41.504,55.176,19.531,0
1542737234.293,51.758,34.668,32.227,49.805,-15.625,0
1542737234.297,76.660,30.762,47.363,59.570,3.418,0
1542737234.301,69.824,25.879,62.500,60.059,-5.371,0
1542737234.305,55.176,29.785,44.434,55.176,-14.648,0
1542737234.309,61.035,33.691,27.832,57.617,14.160,0
1542737234.313,64.941,41.992,25.391,61.523,18.555,0
1542737234.317,55.664,35.645,35.156,35.645,49.316,0
1542737234.321,47.852,19.043,50.781,29.297,79.102,0
1542737234.324,73.730,21.973,50.781,58.594,61.523,0
1542737234.328,71.289,33.691,46.875,58.105,20.508,0
1542737234.332,46.875,37.598,50.781,41.504,-3.906,0
1542737234.336,50.781,34.180,57.129,41.992,47.852,0
1542737234.340,52.734,41.016,61.523,54.688,17.090,0
1542737234.344,60.059,40.527,63.477,66.406,-10.742,0
1542737234.348,64.453,34.668,73.242,73.730,54.199,0
1542737234.352,54.199,36.133,63.477,73.242,37.598,0
1542737234.356,61.523,37.598,44.922,79.102,20.508,0
1542737234.360,56.641,41.504,50.781,66.895,29.297,0
1542737234.364,49.805,42.969,59.082,43.457,71.777,0
1542737234.367,69.336,42.480,54.688,46.387,109.863,0
1542737234.371,66.895,39.551,40.527,51.270,62.988,0
1542737234.375,61.523,30.273,33.691,55.176,30.273,0
1542737234.379,74.707,37.109,39.062,62.988,61.523,0
1542737234.383,82.031,45.898,31.250,69.336,39.551,0
1542737234.387,98.145,39.062,24.902,83.496,0.977,0
1542737234.391,101.562,28.320,32.227,87.402,41.992,0
1542737234.395,97.656,31.250,18.066,91.797,46.387,0
1542737234.399,119.141,31.738,2.930,105.957,79.590,0
1542737234.403,128.418,11.719,-4.395,115.723,104.980,0
1542737234.406,117.188,7.324,-11.230,117.676,43.457,0
1542737234.410,127.441,17.090,-16.602,119.629,60.059,0
1542737234.414,157.715,24.902,-25.879,138.672,96.191,0
1542737234.418,160.156,32.227,-36.133,139.648,51.758,0
1542737234.422,159.668,35.645,-39.062,150.391,42.480,0
1542737234.426,168.457,22.461,-39.062,174.805,58.105,0
1542737234.430,178.223,8.789,-60.059,183.594,24.414,0
1542737234.434,183.105,11.230,-80.566,193.359,18.066,0
1542737234.438,188.477,14.648,-91.797,202.637,46.387,0
1542737234.442,213.379,22.461,-105.957,221.191,51.758,0
1542737234.446,243.164,32.715,-106.934,238.770,25.391,0
1542737234.449,246.094,23.926,-98.145,240.234,42.969,0
1542737234.453,248.047,5.859,-104.004,253.906,99.121,0
1542737234.457,270.020,4.395,-118.652,269.531,29.785,0
1542737234.461,270.020,6.836,-134.766,266.602,12.695,0
1542737234.465,261.230,1.953,-152.832,268.066,82.031,0
1542737234.469,262.695,-10.742,-151.367,269.043,93.262,0
1542737234.473,267.578,-28.320,-147.949,265.137,61.523,0
1542737234.477,253.418,-29.785,-147.949,270.020,13.184,0
1542737234.481,252.930,-26.855,-147.949,267.578,-9.766,0
1542737234.485,264.160,-28.809,-162.598,254.395,36.133,0
1542737234.489,265.137,-31.738,-165.039,252.441,39.551,0
1542737234.492,256.836,-31.738,-153.809,257.812,27.832,0
1542737234.496,247.559,-31.738,-155.273,251.953,66.895,0
1542737234.500,261.230,-34.180,-162.598,275.391,48.828,0
1542737234.504,275.879,-31.250,-168.457,267.090,-4.395,0
1542737234.508,248.047,-32.227,-166.016,220.703,53.223,0
1542737234.512,224.609,-39.062,-154.297,218.750,44.922,0
1542737234.516,229.492,-44.434,-136.719,214.844,8.789,0
1542737234.520,211.914,-55.176,-128.418,211.426,12.207,0
1542737234.524,203.125,-57.617,-130.859,206.543,-28.320,0
1542737234.528,209.473,-52.246,-126.953,201.172,-29.785,0
1542737234.531,202.637,-51.270,-114.258,196.289,15.625,0
1542737234.535,195.801,-62.988,-105.469,192.871,-14.648,0
1542737234.539,183.594,-75.684,-105.469,186.035,-2.441,0
1542737234.543,177.246,-81.055,-109.863,170.898,18.555,0
1542737234.547,180.176,-86.426,-118.164,150.391,30.762,0
1542737234.551,175.293,-85.938,-121.094,150.879,74.707,0
1542737234.555,164.062,-80.078,-120.605,160.645,51.758,0
1542737234.559,165.527,-77.148,-118.164,154.297,52.246,0
1542737234.563,175.293,-73.730,-107.910,154.785,39.062,0
1542737234.567,164.062,-67.871,-93.262,145.020,52.246,0
1542737234.571,151.855,-58.594,-68.848,144.043,90.820,0
1542737234.574,153.809,-50.293,-56.641,140.137,83.496,0
1542737234.578,151.367,-45.410,-52.734,133.789,60.547,0
1542737234.582,148.438,-38.574,-35.645,126.465,18.555,0
1542737234.586,149.902,-40.039,-7.324,124.512,7.812,0
1542737234.590,144.043,-47.852,26.855,131.836,-4.883,0
1542737234.594,153.320,-51.758,47.852,130.371,38.574,0
1542737234.598,155.762,-49.805,45.410,136.719,34.180,0
1542737234.602,142.090,-49.316,35.645,130.371,15.137,0
1542737234.606,136.719,-43.457,31.738,119.141,44.922,0
1542737234.610,125.488,-36.621,26.367,122.070,60.059,0
1542737234.614,100.586,-43.457,24.902,116.699,75.195,0
1542737234.617,93.750,-46.875,30.762,121.582,69.824,0
1542737234.621,108.887,-37.598,35.645,128.906,36.621,0
1542737234.625,121.582,-31.738,30.273,119.141,10.254,0
1542737234.629,115.723,-31.738,22.461,97.656,19.531,0
1542737234.633,103.027,-34.668,21.484,79.102,48.828,0
1542737234.637,103.516,-37.109,18.066,78.125,57.617,0
1542737234.641,108.887,-28.809,24.414,87.402,7.324,0
1542737234.645,106.934,-23.926,32.227,93.262,28.320,0
1542737234.649,110.840,-27.344,34.668,96.680,61.035,0
1542737234.653,109.863,-30.273,38.574,97.168,39.551,0
1542737234.656,111.328,-24.414,40.527,90.332,25.879,0
1542737234.660,104.004,-21.973,50.293,81.543,36.621,0
1542737234.664,109.375,-11.230,61.523,87.891,35.645,0
1542737234.668,105.469,-2.441,69.824,100.098,26.367,0
1542737234.672,102.051,-6.348,73.730,103.516,27.832,0
1542737234.676,110.840,0.000,65.430,105.957,-0.977,0
1542737234.680,98.633,0.488,63.965,103.516,-5.859,0
1542737234.684,109.375,-15.137,63.477,107.422,39.062,0
1542737234.688,112.305,7.812,43.457,108.887,11.719,0
1542737234.692,93.750,29.297,41.504,102.539,-1.465,0
1542737234.696,97.656,7.324,47.363,75.684,21.973,0
1542737234.699,73.242,8.301,31.250,48.828,40.039,0
1542737234.703,60.059,11.719,18.066,53.223,45.410,0
1542737234.707,68.848,19.043,6.836,75.195,21.973,0
1542737234.711,56.641,18.555,4.883,66.406,-12.695,0
1542737234.715,59.570,14.648,17.578,40.039,8.301,0
1542737234.719,60.059,15.625,27.344,33.203,18.066,0
1542737234.723,44.434,7.812,35.645,29.785,-11.719,0
1542737234.727,62.988,11.230,35.645,35.645,-19.531,0
1542737234.731,83.496,18.066,22.461,46.387,0.977,0
1542737234.735,71.777,19.531,10.742,49.316,42.969,0
1542737234.739,53.223,25.879,22.949,41.016,63.477,0
1542737234.742,56.641,23.926,31.250,44.922,57.129,0
1542737234.746,80.566,18.555,29.785,52.734,3.906,0
1542737234.750,96.680,30.762,31.250,53.711,-71.777,0
1542737234.754,111.816,37.109,17.578,48.340,-55.664,0
1542737234.758,110.352,13.672,14.160,54.688,15.625,0
1542737234.762,99.121,20.996,24.902,73.242,37.598,0
1542737234.766,97.656,30.273,21.973,69.824,-9.277,0
1542737234.770,96.680,16.113,17.578,65.430,31.250,0
1542737234.774,66.406,20.996,17.090,61.035,85.938,0
1542737234.778,50.293,23.926,12.207,61.035,80.078,0
1542737234.781,65.918,27.344,13.672,50.293,36.621,0
1542737234.785,53.711,27.344,22.949,35.156,19.531,0
1542737234.789,57.129,20.508,23.438,38.574,-2.441,0
1542737234.793,68.359,15.137,20.020,48.340,-7.812,0
1542737234.797,70.801,14.160,25.879,58.105,21.973,0
1542737234.801,75.195,8.301,37.598,55.664,48.340,0
1542737234.805,66.406,9.277,46.387,58.105,56.641,0
1542737234.809,60.059,14.160,52.246,48.828,21.484,0
1542737234.813,63.477,4.883,42.480,40.039,40.527,0
1542737234.817,68.848,0.488,24.902,50.293,59.082,0
1542737234.821,61.035,0.000,29.297,45.410,20.020,0
1542737234.824,57.617,7.324,38.086,47.363,54.199,0
1542737234.828,48.828,14.160,37.109,43.945,86.426,0
1542737234.832,42.969,20.020,37.598,39.062,67.383,0
1542737234.836,48.828,35.645,52.734,52.246,39.551,0
1542737234.840,53.223,36.621,60.547,42.480,126.953,0
1542737234.844,48.828,50.293,52.246,6.348,148.926,0
1542737234.848,40.527,64.941,58.594,0.488,62.500,0
1542737234.852,44.434,60.059,55.176,15.625,38.086,0
1542737234.856,40.527,81.055,65.430,6.836,33.203,0
1542737234.860,-17.578,104.004,91.309,-41.992,30.762,0
1542737234.864,-66.406,104.980,110.840,-80.078,20.508,0
1542737234.867,-70.801,113.770,123.047,-83.496,25.879,0
1542737234.871,-105.957,127.441,130.859,-118.652,3.418,0
1542737234.875,-145.020,132.324,145.508,-168.945,39.062,0
1542737234.879,-174.805,134.766,147.461,-194.824,70.801,0
1542737234.883,-178.223,138.184,132.812,-193.848,17.090,0
1542737234.887,-173.828,139.160,125.488,-188.965,0.977,0
1542737234.891,-197.754,144.531,120.117,-200.684,18.555,0
1542737234.895,-205.566,143.555,104.004,-190.918,55.664,0
1542737234.899,-200.195,123.047,101.074,-182.129,41.992,0
1542737234.903,-165.527,103.027,88.867,-160.645,12.695,0
1542737234.906,-134.277,90.820,74.219,-133.301,51.758,0
1542737234.910,-110.352,70.312,74.707,-113.770,78.613,0
1542737234.914,-70.801,45.410,77.637,-87.402,55.176,0
1542737234.918,-51.758,25.391,55.176,-67.383,76.660,0
1542737234.922,-36.133,11.719,30.273,-48.828,72.754,0
1542737234.926,-7.812,4.395,13.672,-22.949,35.645,0
1542737234.930,7.812,0.000,-0.488,4.395,-4.883,0
1542737234.934,28.809,-7.324,-0.488,16.113,-13.184,0
1542737234.938,51.758,-8.301,-0.488,33.203,-8.789,0
1542737234.942,64.453,-8.301,2.441,55.176,22.461,0
1542737234.946,79.590,-17.578,4.395,69.336,19.043,0
1542737234.949,87.891,-20.508,1.953,71.289,49.805,0
1542737234.953,91.309,-12.695,-1.953,73.730,62.988,0
1542737234.957,103.027,-1.953,-4.883,90.820,0.000,0
1542737234.961,104.492,6.348,-3.906,97.656,-12.695,0
1542737234.965,99.609,1.953,1.953,92.285,50.781,0
1542737234.969,96.191,4.883,5.371,92.773,77.637,0
1542737234.973,108.398,16.602,1.953,99.121,50.293,0
1542737234.977,108.887,14.648,-3.418,98.633,56.152,0
1542737234.981,89.355,9.766,-4.395,90.332,26.367,0
1542737234.985,81.055,9.766,-4.395,90.332,40.527,0
1542737234.989,82.031,10.254,-4.883,95.215,26.855,0
1542737234.992,73.730,13.184,-5.371,96.680,23.438,0
1542737234.996,68.848,21.973,1.953,97.168,84.473,0
1542737235.000,71.289,26.855,0.977,94.727,75.684,0
1542737235.004,79.102,34.180,-6.836,93.750,43.945,0
1542737235.008,84.473,41.992,0.000,92.285,26.855,0
1542737235.012,75.195,33.691,-5.859,87.891,-20.508,0
1542737235.016,69.336,27.832,-12.695,85.449,-20.020,0
1542737235.020,77.148,33.691,-1.465,92.773,11.230,0
1542737235.024,89.355,34.668,11.230,83.984,41.504,0
1542737235.028,96.191,37.598,19.043,71.777,43.457,0
1542737235.031,95.703,42.969,7.812,86.426,34.180,0
1542737235.035,98.633,48.340,4.395,96.191,37.598,0
1542737235.039,105.957,44.434,16.113,94.727,21.484,0
1542737235.043,93.750,33.691,22.461,86.914,28.320,0
1542737235.047,86.426,29.297,23.926,82.520,53.223,0
1542737235.051,87.402,33.203,17.578,88.867,83.984,0
1542737235.055,89.844,42.969,13.184,86.426,83.496,0
1542737235.059,93.262,46.387,28.320,85.938,21.484,0
1542737235.063,91.797,46.387,38.086,98.633,43.945,0
1542737235.067,96.191,37.109,31.738,86.914,23.926,0
1542737235.071,111.816,32.227,27.344,62.988,18.066,0
1542737235.074,103.027,39.551,26.855,68.359,56.152,0
1542737235.078,85.449,40.039,27.344,70.801,14.648,0
1542737235.082,90.820,38.086,24.414,73.242,-10.254,0
1542737235.086,77.148,38.574,27.832,78.613,30.762,0
1542737235.090,64.453,29.785,41.504,68.848,6.348,0
1542737235.094,73.730,32.227,40.039,57.129,-22.461,0
1542737235.098,71.777,37.598,26.367,53.711,-11.230,0
1542737235.102,59.082,30.762,22.949,60.059,30.762,0
1542737235.106,64.941,30.762,25.879,62.500,68.848,0
1542737235.110,72.266,36.621,25.879,61.035,18.066,0
1542737235.114,62.988,34.180,24.902,60.547,47.363,0
1542737235.117,55.664,31.250,26.855,54.688,69.824,0
1542737235.121,60.059,34.180,28.320,59.082,45.898,0
1542737235.125,74.707,29.297,35.156,61.035,54.688,0
1542737235.129,92.773,28.320,29.297,56.641,16.113,0
1542737235.133,76.172,31.250,27.832,65.430,27.832,0
1542737235.137,51.758,27.832,40.527,66.406,56.641,0
1542737235.141,61.523,27.344,37.109,63.965,37.109,0
1542737235.145,72.754,36.133,33.691,64.941,17.578,0
1542737235.149,51.270,44.922,37.109,70.312,25.391,0
1542737235.153,50.293,50.293,34.668,64.453,59.570,0
1542737235.156,63.965,41.992,38.574,68.848,27.344,0
1542737235.160,73.242,37.598,43.457,92.773,38.574,0
1542737235.164,62.988,57.617,40.039,66.895,64.941,0
1542737235.168,34.668,57.617,40.039,29.297,32.715,0
1542737235.172,36.133,51.758,32.227,26.855,37.109,0
1542737235.176,38.086,48.340,25.879,25.879,35.156,0
1542737235.180,25.879,48.340,19.531,13.672,14.160,0
1542737235.184,24.902,58.594,3.418,7.812,-22.461,0
1542737235.188,26.855,59.570,1.465,-1.465,-0.977,0
1542737235.192,21.973,52.734,2.441,-14.160,25.391,0
1542737235.196,19.043,60.547,0.977,-6.348,-10.742,0
1542737235.199,32.227,62.988,3.906,-0.488,20.996,0
1542737235.203,47.363,56.641,1.953,-0.488,47.363,0
1542737235.207,38.086,52.246,0.488,9.766,47.363,0
1542737235.211,48.828,52.246,3.906,20.508,75.684,0
1542737235.215,67.383,54.199,7.812,24.902,34.668,0
1542737235.219,67.871,50.781,17.578,28.809,-14.648,0
1542737235.223,39.551,34.668,31.250,18.555,29.785,0
1542737235.227,34.180,30.762,41.992,20.996,75.684,0
1542737235.231,51.758,38.574,39.062,31.738,67.383,0
1542737235.235,58.105,38.574,25.879,25.879,14.160,0
1542737235.239,68.359,40.527,18.066,31.250,10.742,0
1542737235.242,69.336,37.109,17.090,42.969,50.293,0
1542737235.246,62.012,34.668,16.113,43.945,43.457,0
1542737235.250,54.688,37.109,18.066,39.062,-8.789,0
1542737235.254,34.180,36.133,23.438,39.551,8.789,0
1542737235.258,30.273,37.598,29.297,40.039,24.414,0
1542737235.262,41.992,31.738,44.434,36.621,18.066,0
1542737235.266,45.898,23.926,57.129,48.340,40.039,0
1542737235.270,61.035,27.832,53.711,54.199,41.016,0
1542737235.274,67.871,28.809,43.457,43.945,27.344,0
1542737235.278,62.500,33.203,41.504,43.457,13.672,0
1542737235.281,60.547,41.016,41.016,46.875,-32.227,0
1542737235.285,66.895,41.992,39.062,49.805,12.207,0
1542737235.289,82.520,46.875,39.551,51.758,57.129,0
1542737235.293,93.262,46.875,36.621,58.594,84.961,0
1542737235.297,75.684,44.922,45.410,68.359,119.141,0
1542737235.301,62.500,49.805,57.129,73.242,67.871,0
1542737235.305,62.500,54.199,55.176,58.105,32.715,0
1542737235.309,57.129,56.641,45.410,53.223,49.316,0
1542737235.313,51.758,53.711,36.621,51.270,41.992,0
1542737235.317,50.781,48.828,30.273,37.598,34.180,0
1542737235.321,61.035,47.852,23.926,42.969,39.062,0
1542737235.324,63.965,40.039,25.879,49.805,20.508,0
1542737235.328,61.035,24.414,32.715,44.922,25.391,0
1542737235.332,54.199,18.555,25.879,40.039,63.477,0
1542737235.336,51.270,17.090,25.391,33.691,55.176,0
1542737235.340,32.715,20.020,38.086,37.598,32.227,0
1542737235.344,14.160,35.645,35.645,39.062,15.137,0
1542737235.348,32.227,44.922,37.109,37.109,-3.906,0
1542737235.352,32.227,43.945,36.621,49.805,17.090,0
1542737235.356,25.391,46.875,31.250,52.246,32.227,0
1542737235.360,37.109,43.457,26.367,45.898,28.320,0
1542737235.364,40.527,31.738,22.461,39.551,46.875,0
1542737235.367,48.340,24.902,32.227,37.109,38.086,0
1542737235.371,53.223,18.555,40.039,42.480,61.523,0
1542737235.375,57.617,18.066,43.457,49.805,58.594,0
1542737235.379,49.805,32.227,41.992,50.781,36.133,0
1542737235.383,49.316,34.180,34.180,48.340,53.223,0
1542737235.387,61.035,24.414,38.574,48.828,9.277,0
1542737235.391,53.711,29.785,32.227,57.129,-3.906,0
1542737235.395,53.711,30.762,24.902,76.660,16.113,0
1542737235.399,35.645,23.438,39.062,43.457,42.480,0
1542737235.403,5.859,18.555,41.016,16.602,-4.395,0
1542737235.406,14.160,12.207,49.805,32.715,-77.148,0
1542737235.410,18.555,5.859,57.129,38.574,-15.137,0
1542737235.414,13.672,5.859,56.641,48.340,28.809,0
1542737235.418,13.184,12.695,61.523,45.410,40.039,0
1542737235.422,13.672,20.508,56.641,40.527,91.309,0
1542737235.426,14.160,17.090,52.246,47.363,9.277,0
1542737235.430,24.414,10.254,45.410,38.574,31.250,0
1542737235.434,35.156,9.277,26.367,22.949,50.781,0
1542737235.438,36.621,19.531,10.742,22.949,0.000,0
1542737235.442,37.109,27.832,13.672,29.785,56.641,0
1542737235.446,35.156,17.578,32.227,24.902,71.777,0
1542737235.449,30.762,19.531,39.551,26.855,24.414,0
1542737235.453,33.203,23.438,37.598,34.180,39.062,0
1542737235.457,45.410,28.320,40.527,43.457,62.988,0
1542737235.461,54.199,36.133,48.340,50.293,53.711,0
1542737235.465,48.828,29.785,51.270,41.016,93.750,0
1542737235.469,32.715,23.438,51.758,29.297,55.664,0
1542737235.473,26.855,31.250,54.199,23.926,4.395,0
1542737235.477,24.414,39.551,49.316,26.367,-17.090,0
1542737235.481,16.113,40.039,48.828,23.438,-28.320,0
1542737235.485,3.906,35.156,59.082,24.414,17.578,0
1542737235.489,-2.441,38.574,51.270,27.832,41.016,0
1542737235.492,12.207,46.387,37.598,18.066,68.359,0
1542737235.496,13.672,45.410,49.316,17.090,10.254,0
1542737235.500,-3.906,55.176,58.105,4.883,-30.762,0
1542737235.504,3.418,69.824,63.477,-7.324,62.988,0
1542737235.508,-6.836,76.172,72.266,-11.230,77.148,0
1542737235.512,-20.508,93.262,70.312,-28.809,35.156,0
1542737235.516,-19.043,95.703,70.801,-45.898,14.160,0
1542737235.520,-41.016,87.891,75.195,-61.523,7.324,0
1542737235.524,-54.688,102.051,74.219,-76.660,54.688,0
1542737235.528,-67.383,121.094,82.520,-87.891,95.703,0
1542737235.531,-76.660,129.883,93.750,-102.539,85.449,0
1542737235.535,-107.422,132.812,100.586,-125.000,88.867,0
1542737235.539,-141.113,145.508,115.723,-142.578,17.578,0
1542737235.543,-153.320,159.668,134.277,-163.574,-62.988,0
1542737235.547,-163.086,165.039,149.414,-182.129,-17.090,0
1542737235.551,-182.617,168.945,168.945,-182.129,-23.926,0
1542737235.555,-193.848,176.758,189.453,-192.871,-35.645,0
1542737235.559,-187.988,172.363,193.359,-204.590,28.809,0
1542737235.563,-193.848,171.387,180.664,-213.867,96.191,0
1542737235.567,-203.613,183.105,183.594,-232.422,121.582,0
1542737235.571,-201.172,171.875,181.641,-227.051,38.086,0
1542737235.574,-197.754,182.129,159.180,-219.727,44.434,0
1542737235.578,-177.734,188.477,147.461,-202.148,39.062,0
1542737235.582,-164.062,182.129,154.785,-192.383,-23.438,0
1542737235.586,-165.039,175.293,163.086,-192.383,11.230,0
1542737235.590,-148.926,166.016,150.879,-156.250,13.672,0
1542737235.594,-148.926,161.133,123.047,-147.949,31.250,0
1542737235.598,-133.789,135.742,104.492,-125.977,35.645,0
1542737235.602,-117.188,121.582,85.449,-97.168,39.062,0
1542737235.606,-95.215,116.699,64.453,-83.984,40.039,0
1542737235.610,-48.828,96.191,60.059,-32.715,36.621,0
1542737235.614,-24.414,80.566,57.129,-18.555,75.684,0
1542737235.617,-12.695,63.477,57.129,-20.020,104.980,0
1542737235.621,14.648,48.828,54.199,10.742,59.082,0
1542737235.625,46.387,41.016,43.945,18.066,10.742,0
1542737235.629,63.965,33.203,35.156,20.996,28.809,0
1542737235.633,80.078,25.879,17.578,22.949,29.297,0
1542737235.637,98.145,15.137,4.883,39.551,36.621,0
1542737235.641,119.629,10.742,0.977,55.176,65.430,0
1542737235.645,123.047,7.812,-15.625,71.289,31.738,0
1542737235.649,115.234,3.906,-28.320,105.957,35.156,0
1542737235.653,127.930,-1.465,-26.367,109.863,34.180,0
1542737235.656,127.441,-16.113,-31.250,101.562,7.324,0
1542737235.660,122.070,-22.949,-27.344,106.445,15.625,0
1542737235.664,140.137,-12.207,-26.367,111.328,37.109,0
1542737235.668,132.812,-12.695,-33.691,116.699,51.270,0
1542737235.672,111.816,-23.438,-32.227,128.418,14.160,0
1542737235.676,119.629,-24.902,-34.668,142.090,32.227,0
1542737235.680,138.672,-20.508,-47.363,145.508,73.730,0
1542737235.684,136.230,-20.508,-52.734,140.137,69.824,0
1542737235.688,124.023,-26.367,-52.246,136.230,18.066,0
1542737235.692,143.066,-25.391,-53.711,148.926,-4.883,0
1542737235.696,152.832,-26.855,-46.387,147.949,21.484,0
1542737235.699,147.461,-32.227,-39.551,137.695,50.293,0
1542737235.703,142.578,-28.320,-32.227,137.207,34.668,0
1542737235.707,144.043,-19.531,-22.461,138.672,5.859,0
1542737235.711,161.133,-5.859,-20.020,142.578,-28.320,0
1542737235.715,153.320,-10.254,-15.137,139.160,14.648,0
1542737235.719,137.695,-25.391,-12.207,130.859,63.965,0
1542737235.723,146.484,-28.809,-13.672,136.719,37.109,0
1542737235.727,151.855,-22.949,-17.090,142.578,38.574,0
1542737235.731,153.809,-14.648,-30.762,146.484,22.461,0
1542737235.735,165.039,-12.695,-36.133,139.648,-7.812,0
1542737235.739,173.340,-12.207,-30.762,135.742,-20.508,0
1542737235.742,164.551,-12.695,-31.738,137.207,6.348,0
1542737235.746,147.949,-13.184,-33.203,133.789,69.824,0
1542737235.750,141.602,-9.277,-23.438,141.113,51.270,0
1542737235.754,131.836,-4.883,-7.324,135.254,11.230,0
1542737235.758,127.441,-6.836,2.930,115.234,5.859,0
1542737235.762,138.184,-5.859,1.953,115.234,16.113,0
1542737235.766,138.184,4.883,6.348,126.953,31.250,0
1542737235.770,124.512,5.371,9.766,126.465,40.527,0
1542737235.774,112.305,0.000,3.418,108.398,46.387,0
1542737235.778,121.582,2.930,10.254,102.051,36.621,0
1542737235.781,126.465,7.324,17.090,105.957,10.742,0
1542737235.785,113.281,4.395,6.836,97.168,31.738,0
1542737235.789,118.164,12.695,2.930,101.074,33.691,0
1542737235.793,118.652,25.879,3.906,104.004,19.531,0
1542737235.797,120.117,23.438,6.836,92.773,54.199,0
1542737235.801,112.793,20.996,14.648,84.473,113.770,0
1542737235.805,99.121,16.602,23.438,87.402,95.703,0
1542737235.809,116.211,7.324,24.414,101.074,20.020,0
1542737235.813,102.051,4.883,9.766,104.980,12.207,0
1542737235.817,70.801,14.160,4.395,75.684,30.762,0
1542737235.821,64.453,13.184,24.414,59.570,26.367,0
1542737235.824,90.332,7.812,28.320,81.055,6.836,0
1542737235.828,102.051,18.066,26.855,83.496,32.227,0
1542737235.832,103.027,20.508,29.785,93.750,32.227,0
1542737235.836,120.605,22.949,35.156,110.352,-18.555,0
1542737235.840,106.445,24.414,45.410,111.816,6.348,0
1542737235.844,86.426,14.160,44.434,116.699,58.594,0
1542737235.848,88.867,16.113,32.715,97.656,12.207,0
1542737235.852,99.121,19.043,27.832,81.055,14.160,0
1542737235.856,97.168,19.043,29.297,64.941,43.457,0
1542737235.860,86.426,16.602,28.320,37.598,31.738,0
1542737235.864,85.449,18.066,26.855,39.551,37.598,0
1542737235.867,78.125,24.414,26.367,56.641,62.012,0
1542737235.871,62.012,20.508,19.531,72.754,65.918,0
1542737235.875,68.848,21.973,9.766,78.613,13.184,0
1542737235.879,75.684,32.227,5.859,84.473,-7.324,0
1542737235.883,68.848,37.598,2.930,80.078,22.949,0
1542737235.887,72.754,39.551,-2.441,78.125,35.645,0
1542737235.891,68.359,45.410,-0.488,84.961,74.707,0
1542737235.895,51.270,39.062,10.742,82.520,63.477,0
1542737235.899,49.316,30.273,14.648,83.008,43.457,0
1542737235.903,59.082,40.039,16.113,86.914,24.414,0
1542737235.906,64.453,41.016,11.719,74.707,22.949,0
1542737235.910,59.570,28.320,-0.977,56.641,67.871,0
1542737235.914,54.688,26.367,-1.953,51.758,43.457,0
1542737235.918,59.570,26.855,-0.488,58.105,29.785,0
1542737235.922,60.059,19.043,0.977,67.871,35.156,0
1542737235.926,50.781,13.672,7.324,83.496,43.457,0
1542737235.930,55.664,14.648,0.488,77.637,45.898,0
1542737235.934,65.918,22.949,0.488,73.730,5.371,0
1542737235.938,66.406,30.762,21.484,72.266,-37.598,0
1542737235.942,85.938,37.109,29.785,77.148,5.371,0
1542737235.946,82.031,40.527,34.180,79.590,55.176,0
1542737235.949,53.223,36.621,30.762,47.852,72.754,0
1542737235.953,53.223,27.832,30.273,45.410,57.617,0
1542737235.957,49.316,19.043,42.480,60.547,19.531,0
1542737235.961,47.852,14.160,41.016,66.406,22.949,0
1542737235.965,54.199,19.043,31.738,56.641,70.801,0
1542737235.969,56.152,21.484,27.344,46.875,55.176,0
1542737235.973,55.176,8.789,24.414,44.434,13.672,0
1542737235.977,54.199,14.160,23.438,50.293,-2.930,0
1542737235.981,51.270,29.785,34.668,54.688,-20.020,0
1542737235.985,58.105,36.133,50.781,65.918,60.547,0
1542737235.989,60.059,39.551,55.176,68.848,109.863,0
1542737235.992,52.246,41.504,54.688,49.805,60.547,0
1542737235.996,50.781,40.039,42.480,37.109,69.336,0
1542737236.000,70.312,45.410,19.531,57.129,64.941,0
1542737236.004,87.891,52.734,12.207,89.844,21.484,0
1542737236.008,69.824,46.387,27.832,88.867,56.152,0
1542737236.012,51.270,38.574,27.344,59.082,17.578,0
1542737236.016,67.871,29.785,23.438,76.660,-43.945,0
1542737236.020,86.426,20.508,37.598,111.816,-34.668,0
1542737236.024,72.754,19.531,39.062,91.309,2.441,0
1542737236.028,77.148,11.230,33.203,86.426,12.695,0
1542737236.031,91.797,10.254,37.109,90.820,16.602,0
1542737236.035,107.910,15.625,27.832,97.168,62.500,0
1542737236.039,114.258,2.441,23.438,102.539,-12.207,0
1542737236.043,119.629,-15.137,27.832,118.652,-13.184,0
1542737236.047,141.602,-28.809,30.273,142.090,25.391,0
1542737236.051,151.855,-33.691,38.086,148.438,-3.418,0
1542737236.055,153.809,-42.480,51.270,159.668,7.324,0
1542737236.059,147.949,-48.340,63.477,154.785,38.086,0
1542737236.063,153.809,-52.246,68.359,166.992,45.898,0
1542737236.067,133.789,-46.875,74.707,190.430,71.289,0
1542737236.071,119.141,-38.574,72.266,188.477,86.914,0
1542737236.074,138.184,-36.621,62.012,185.547,31.738,0
1542737236.078,151.855,-41.504,54.199,187.500,16.113,0
1542737236.082,131.348,-42.480,49.316,174.805,16.602,0
1542737236.086,116.211,-35.156,48.340,160.156,12.695,0
1542737236.090,113.770,-29.785,54.688,166.504,-0.977,0
1542737236.094,116.211,-19.043,64.453,168.457,11.230,0
1542737236.098,108.398,-10.254,65.918,157.715,52.246,0
1542737236.102,104.004,-3.906,59.082,156.250,31.738,0
1542737236.106,105.957,-1.465,55.664,138.184,51.270,0
1542737236.110,106.934,-4.883,61.035,127.441,43.457,0
1542737236.114,108.887,-4.395,59.570,133.789,68.359,0
1542737236.117,104.492,1.953,59.082,137.207,80.566,0
1542737236.121,110.840,1.953,64.453,121.582,54.199,0
1542737236.125,111.328,4.883,65.430,103.516,46.875,0
1542737236.129,104.492,16.113,64.453,104.492,26.855,0
1542737236.133,110.840,15.137,60.547,103.027,37.598,0
1542737236.137,111.816,14.648,55.176,99.609,51.270,0
1542737236.141,113.281,21.484,47.363,105.469,-24.902,0
1542737236.145,111.816,23.926,55.664,103.027,-14.648,0
1542737236.149,88.379,24.414,63.965,89.844,89.355,0
1542737236.153,83.496,28.320,62.988,87.402,82.520,0
1542737236.156,85.449,31.738,60.547,94.238,22.461,0
1542737236.160,82.031,28.809,48.828,89.844,55.664,0
1542737236.164,87.891,24.902,41.016,87.402,53.223,0
1542737236.168,91.309,27.832,41.504,85.938,-6.836,0
1542737236.172,90.820,31.250,47.852,84.961,-15.137,0
1542737236.176,87.402,37.598,52.734,86.426,-26.367,0
1542737236.180,93.750,41.016,41.016,85.449,-49.805,0
1542737236.184,102.539,34.180,36.621,78.613,-0.977,0
1542737236.188,94.727,25.391,45.898,74.219,65.430,0
1542737236.192,87.402,15.137,48.828,69.824,57.617,0
1542737236.196,79.102,15.625,42.969,55.664,37.109,0
1542737236.199,67.871,30.762,49.316,52.734,36.621,0
1542737236.203,62.012,25.879,43.945,55.664,30.762,0
1542737236.207,63.965,25.879,40.527,49.316,12.207,0
1542737236.211,76.660,44.922,50.781,48.828,9.277,0
1542737236.215,69.824,49.805,44.922,43.945,-5.371,0
1542737236.219,62.988,41.016,32.227,39.062,-26.855,0
1542737236.223,64.941,36.621,25.879,39.551,20.508,0
1542737236.227,65.918,45.898,31.250,37.109,63.965,0
1542737236.231,58.105,52.246,46.875,35.156,51.758,0
1542737236.235,53.223,51.758,46.387,35.156,6.348,0
1542737236.239,52.734,50.781,41.504,33.203,26.855,0
1542737236.242,47.852,42.969,35.645,28.809,73.730,0
1542737236.246,55.176,35.156,27.344,31.738,76.660,0
1542737236.250,61.035,37.598,32.227,49.805,57.617,0
1542737236.254,64.941,46.387,42.480,49.805,63.965,0
1542737236.258,62.988,50.293,45.410,36.133,36.621,0
1542737236.262,62.012,43.457,36.133,43.457,20.508,0
1542737236.266,64.453,36.133,31.738,48.828,33.691,0
1542737236.270,54.199,35.645,36.133,47.852,24.902,0
1542737236.274,51.758,32.715,51.270,51.758,30.273,0
1542737236.278,59.570,32.227,60.547,63.477,68.359,0
1542737236.281,64.453,31.738,59.570,73.242,43.457,0
1542737236.285,71.777,23.926,46.387,63.965,1.465,0
1542737236.289,60.547,24.414,42.480,55.664,-18.555,0
1542737236.293,56.641,29.785,50.293,49.316,42.480,0
1542737236.297,57.617,25.879,54.199,45.410,100.098,0
1542737236.301,56.152,23.438,56.641,48.828,22.461,0
1542737236.305,63.965,30.762,47.852,43.945,39.062,0
1542737236.309,66.895,35.156,39.062,44.922,71.289,0
1542737236.313,61.523,31.250,36.133,50.293,-23.438,0
1542737236.317,50.293,25.879,34.180,58.594,-19.531,0
1542737236.321,41.016,22.949,36.133,58.594,43.945,0
1542737236.324,46.387,23.438,41.992,62.500,66.406,0
1542737236.328,58.105,28.809,41.016,65.918,60.547,0
1542737236.332,49.316,26.367,29.785,46.387,-3.906,0
1542737236.336,53.711,20.508,36.133,42.480,-18.555,0
1542737236.340,61.523,25.879,58.105,54.199,61.523,0
1542737236.344,29.785,29.297,67.383,53.711,60.059,0
1542737236.348,24.414,30.762,56.152,57.617,20.508,0
1542737236.352,39.062,28.809,35.645,51.270,41.016,0
1542737236.356,59.082,31.250,22.461,41.992,-12.207,0
1542737236.360,70.312,37.109,14.648,48.828,-23.438,0
1542737236.364,66.895,35.645,18.555,58.594,5.371,0
1542737236.367,72.266,34.180,20.996,71.777,15.137,0
1542737236.371,66.895,27.344,15.625,76.172,20.020,0
1542737236.375,64.941,31.250,18.066,71.289,-23.926,0
1542737236.379,67.871,38.086,31.250,57.617,20.996,0
1542737236.383,58.105,32.715,43.945,54.688,67.383,0
1542737236.387,62.988,32.227,39.062,66.895,64.453,0
1542737236.391,82.520,36.621,35.645,64.941,33.203,0
1542737236.395,83.984,39.551,38.574,57.129,24.414,0
1542737236.399,76.660,41.016,28.809,59.570,34.180,0
1542737236.403,75.195,35.645,14.160,61.523,44.434,0
1542737236.406,77.637,24.902,6.836,60.059,36.621,0
1542737236.410,96.191,29.785,10.742,70.312,-5.859,0
1542737236.414,88.867,49.805,28.320,73.730,19.043,0
1542737236.418,83.984,41.504,27.344,73.242,-6.348,0
1542737236.422,89.355,37.109,3.418,83.496,-27.832,0
1542737236.426,67.871,52.734,3.906,84.961,62.012,0
1542737236.430,55.176,47.852,25.391,70.312,53.223,0
1542737236.434,43.945,60.059,36.133,35.156,6.836,0
1542737236.438,6.348,83.008,42.969,-13.184,5.371,0
1542737236.442,-22.949,84.473,44.434,-33.691,10.254,0
1542737236.446,-38.086,100.098,41.504,-48.828,41.504,0
1542737236.449,-64.941,117.676,44.922,-89.355,20.020,0
1542737236.453,-80.078,130.859,42.969,-117.188,41.992,0
1542737236.457,-94.238,156.250,42.969,-133.789,85.938,0
1542737236.461,-127.441,165.527,40.039,-143.066,103.516,0
1542737236.465,-160.156,175.293,35.156,-168.945,62.988,0
1542737236.469,-174.316,186.523,39.062,-192.871,21.973,0
1542737236.473,-191.406,187.012,43.457,-194.336,29.785,0
1542737236.477,-207.031,191.406,49.316,-222.168,-3.906,0
1542737236.481,-203.125,216.797,49.805,-243.652,10.742,0
1542737236.485,-202.637,226.562,41.016,-239.258,79.102,0
1542737236.489,-194.824,213.867,35.645,-218.750,69.824,0
1542737236.492,-187.988,226.562,28.809,-237.305,13.672,0
1542737236.496,-190.430,236.328,38.086,-262.207,37.598,0
1542737236.500,-192.383,228.027,44.434,-254.883,95.703,0
1542737236.504,-192.871,219.238,39.062,-249.023,81.055,0
1542737236.508,-180.176,215.820,49.316,-238.281,33.203,0
1542737236.512,-166.016,216.797,57.617,-232.422,25.391,0
1542737236.516,-164.062,209.961,51.270,-186.035,75.195,0
1542737236.520,-144.531,183.594,57.617,-151.855,57.617,0
1542737236.524,-125.000,165.039,59.082,-195.801,26.855,0
1542737236.528,-119.629,154.785,54.688,-189.453,42.480,0
1542737236.531,-104.492,145.020,45.410,-124.512,21.484,0
1542737236.535,-82.031,123.535,29.785,-98.145,23.926,0
1542737236.539,-67.383,94.727,27.344,-107.422,11.230,0
1542737236.543,-45.410,82.031,31.738,-94.727,7.324,0
1542737236.547,2.930,65.918,33.691,-38.086,6.836,0
1542737236.551,18.555,49.316,29.297,-31.250,-11.719,0
1542737236.555,11.230,34.180,13.672,-16.113,-53.223,0
1542737236.559,7.324,5.859,4.883,25.391,7.812,0
1542737236.563,16.602,-7.812,3.418,20.020,62.988,0
1542737236.567,56.152,-9.766,-11.230,-3.906,55.664,0
1542737236.571,72.266,-21.484,-4.883,13.672,38.086,0
1542737236.574,74.707,-20.996,3.418,55.176,53.223,0
1542737236.578,74.707,-15.625,-3.418,71.289,115.234,0
1542737236.582,87.891,-24.414,-0.488,56.152,74.707,0
1542737236.586,93.262,-33.691,0.000,52.246,23.926,0
1542737236.590,58.594,-38.574,-5.371,94.238,45.898,0
1542737236.594,51.270,-38.574,-7.812,84.473,41.992,0
1542737236.598,65.918,-34.668,2.930,23.438,21.484,0
1542737236.602,92.285,-25.879,6.836,35.645,37.598,0
1542737236.606,120.605,-22.461,0.488,74.219,35.645,0
1542737236.610,126.465,-28.320,-4.395,77.637,-39.551,0
1542737236.614,94.727,-35.156,-8.789,89.844,10.742,0
1542737236.617,79.590,-43.945,-11.230,125.488,80.078,0
1542737236.621,90.820,-46.387,-19.043,127.441,13.184,0
1542737236.625,89.844,-45.410,-9.766,109.863,-12.207,0
1542737236.629,90.820,-41.992,4.395,97.168,55.664,0
1542737236.633,104.980,-40.527,2.441,91.309,49.316,0
1542737236.637,119.629,-43.945,3.418,86.914,10.742,0
1542737236.641,119.141,-50.293,14.160,91.309,-9.277,0
1542737236.645,113.281,-45.410,18.066,110.352,7.324,0
1542737236.649,110.352,-45.410,13.672,131.348,107.910,0
1542737236.653,120.605,-44.922,11.230,147.949,103.516,0
1542737236.656,125.488,-36.133,2.930,131.836,58.594,0
1542737236.660,113.281,-30.273,3.906,99.609,64.453,0
1542737236.664,101.074,-27.344,4.395,89.355,8.789,0
1542737236.668,102.539,-29.785,2.441,100.098,-22.949,0
1542737236.672,112.793,-20.020,4.883,104.980,41.504,0
1542737236.676,132.812,-9.766,0.488,98.145,88.379,0
1542737236.680,141.602,-14.648,-5.859,82.520,52.246,0
1542737236.684,132.324,-17.090,-6.348,73.730,21.973,0
1542737236.688,125.977,-14.648,-9.277,95.215,15.625,0
1542737236.692,104.980,-16.113,-8.301,102.539,92.285,0
1542737236.696,73.242,-24.902,3.906,101.074,87.891,0
1542737236.699,78.613,-22.461,-5.371,121.094,3.906,0
1542737236.703,104.492,-20.508,-11.230,108.398,8.301,0
1542737236.707,93.262,-27.344,-0.488,70.801,5.371,0
1542737236.711,76.660,-30.762,1.465,85.449,6.836,0
1542737236.715,90.332,-28.809,1.465,93.750,-41.504,0
1542737236.719,109.863,-20.020,5.859,82.031,-8.789,0
1542737236.723,92.773,-20.020,-3.418,94.238,75.684,0
1542737236.727,89.844,-20.996,-12.207,88.867,26.367,0
1542737236.731,104.980,-19.043,-0.488,83.496,1.465,0
1542737236.735,72.754,-25.391,4.395,78.125,55.176,0
1542737236.739,42.480,-20.508,10.254,82.520,44.922,0
1542737236.742,69.336,-9.766,20.996,87.402,10.254,0
1542737236.746,77.148,-11.719,23.438,97.168,48.828,0
1542737236.750,59.570,-9.766,20.508,124.512,74.707,0
1542737236.754,61.035,-1.953,13.184,102.051,58.594,0
1542737236.758,90.332,-10.742,12.207,44.922,60.059,0
1542737236.762,103.027,-20.020,9.766,40.039,94.727,0
1542737236.766,89.844,-4.395,-0.488,64.453,29.785,0
1542737236.770,81.055,6.836,0.488,62.988,-4.395,0
1542737236.774,62.500,2.441,-0.977,56.152,50.293,0
1542737236.778,45.410,8.301,9.766,81.543,-25.879,0
1542737236.781,59.570,11.719,25.391,106.934,1.465,0
1542737236.785,80.566,1.465,20.020,110.352,61.035,0
1542737236.789,104.004,3.418,20.996,83.008,63.965,0
1542737236.793,107.422,15.625,29.785,71.289,23.438,0
1542737236.797,63.965,14.160,26.855,91.797,-8.301,0
1542737236.801,52.246,14.648,19.043,91.797,15.137,0
1542737236.805,80.078,19.531,19.043,75.195,40.039,0
1542737236.809,83.008,23.438,31.250,76.660,55.664,0
1542737236.813,82.520,24.414,35.645,74.707,1.465,0
1542737236.817,88.867,29.785,34.180,63.965,-12.695,0
1542737236.821,85.449,37.109,32.227,64.941,-23.438,0
1542737236.824,76.172,40.039,28.809,69.824,-37.109,0
1542737236.828,75.684,43.457,32.715,65.918,-23.438,0
1542737236.832,70.312,53.711,43.457,49.316,15.625,0
1542737236.836,25.879,45.410,44.922,47.852,52.734,0
1542737236.840,5.859,23.438,44.434,72.266,54.688,0
1542737236.844,27.344,40.039,40.527,59.570,-20.996,0
1542737236.848,34.668,60.547,40.039,25.391,-43.457,0
1542737236.852,36.621,64.453,33.203,25.391,27.344,0
1542737236.856,25.391,67.383,17.090,34.668,14.160,0
1542737236.860,8.301,68.359,18.066,35.156,31.738,0
1542737236.864,19.043,78.613,20.508,21.484,30.762,0
1542737236.867,24.902,88.867,20.020,1.953,46.875,0
1542737236.871,5.859,85.938,25.391,1.465,116.211,0
1542737236.875,29.785,90.332,19.531,6.836,127.441,0
1542737236.879,41.016,95.215,13.672,-9.766,115.234,0
1542737236.883,18.555,85.938,14.648,0.000,77.637,0
1542737236.887,19.043,82.031,15.625,30.273,80.566,0
1542737236.891,12.207,78.125,9.766,25.391,32.227,0
1542737236.895,-2.930,79.590,1.465,-2.441,21.973,0
1542737236.899,0.000,84.473,3.906,-2.930,52.734,0
1542737236.903,14.160,82.520,9.766,7.812,88.379,0
1542737236.906,43.945,90.332,16.602,3.906,80.078,0
1542737236.910,35.645,90.332,15.137,13.184,6.348,0
1542737236.914,4.883,82.031,17.090,23.926,-10.742,0
1542737236.918,10.254,72.754,20.508,20.020,19.531,0
1542737236.922,29.297,68.359,25.879,25.879,21.973,0
1542737236.926,32.715,77.148,32.715,24.902,10.254,0
1542737236.930,30.762,80.078,31.250,6.836,-17.578,0
1542737236.934,46.387,69.824,35.645,11.230,7.812,0
1542737236.938,49.316,62.988,34.668,33.691,39.062,0
1542737236.942,52.246,62.012,33.203,28.320,83.984,0
1542737236.946,46.875,61.035,41.504,18.555,100.586,0
1542737236.949,40.039,60.059,44.434,29.785,72.754,0
1542737236.953,51.270,61.523,44.922,40.039,29.297,0
1542737236.957,54.688,65.918,44.434,52.246,49.805,0
1542737236.961,41.504,59.082,41.992,42.969,91.797,0
1542737236.965,15.137,49.316,42.969,19.043,91.797,0
1542737236.969,16.113,61.523,45.898,19.043,31.738,0
1542737236.973,27.344,71.289,43.457,24.414,9.766,0
1542737236.977,25.391,75.684,39.551,10.254,32.227,0
1542737236.981,21.484,72.754,28.809,1.953,32.715,0
1542737236.985,12.695,57.129,26.367,16.602,20.020,0
1542737236.989,6.836,55.176,32.715,19.043,-29.297,0
1542737236.992,6.348,69.336,30.273,4.883,7.324,0
1542737236.996,5.371,67.871,31.250,14.648,8.789,0
1542737237.000,6.836,54.688,33.691,13.672,31.250,0
1542737237.004,9.277,54.688,34.668,8.301,65.430,0
1542737237.008,12.207,57.129,23.926,11.719,24.414,0
1542737237.012,18.066,63.965,18.066,16.113,20.996,0
1542737237.016,15.625,69.336,23.438,20.508,23.438,0
1542737237.020,18.066,62.988,18.066,26.855,52.246,0
1542737237.024,22.949,57.129,13.672,20.996,64.941,0
1542737237.028,30.762,57.129,11.719,32.227,51.758,0
1542737237.031,33.691,57.617,20.996,39.062,34.180,0
1542737237.035,7.324,56.152,31.738,10.742,55.664,0
1542737237.039,-7.324,58.594,19.531,3.418,77.148,0
1542737237.043,7.812,52.734,12.695,23.926,37.109,0
1542737237.047,28.320,40.527,8.789,26.855,42.969,0
1542737237.051,45.410,38.086,-0.977,35.645,39.062,0
1542737237.055,40.039,43.457,5.371,40.039,39.551,0
1542737237.059,39.062,50.293,16.113,34.180,96.191,0
1542737237.063,50.293,52.246,7.812,37.598,51.758,0
1542737237.067,45.898,54.199,1.465,43.945,49.316,0
1542737237.071,33.691,54.688,13.672,54.199,75.195,0
1542737237.074,22.461,43.457,18.066,49.316,-23.926,0
1542737237.078,19.043,39.062,6.836,37.598,1.465,0
1542737237.082,14.648,44.434,3.418,32.715,62.012,0
1542737237.086,15.137,46.875,4.883,29.297,33.203,0
1542737237.090,32.227,40.039,-2.441,33.691,48.828,0
1542737237.094,35.156,31.738,-5.371,34.668,30.762,0
1542737237.098,18.555,31.738,-3.418,32.715,29.297,0
1542737237.102,18.555,43.457,-1.465,33.691,70.312,0
1542737237.106,30.273,49.805,1.953,37.109,46.875,0
1542737237.110,41.992,45.410,15.137,31.250,33.691,0
1542737237.114,51.758,39.062,28.320,17.578,32.715,0
1542737237.117,61.035,38.574,41.992,34.668,97.656,0
1542737237.121,55.176,42.480,46.387,41.992,100.098,0
1542737237.125,25.879,38.574,40.527,20.996,39.551,0
1542737237.129,26.367,32.715,39.062,23.438,38.086,0
1542737237.133,42.480,37.109,35.156,35.156,12.695,0
1542737237.137,50.781,47.363,33.203,34.668,8.789,0
1542737237.141,56.641,48.340,29.297,29.297,-12.695,0
1542737237.145,48.340,39.551,29.785,24.902,-26.367,0
1542737237.149,41.504,40.039,43.945,33.691,6.836,0
1542737237.153,57.129,50.781,45.898,37.109,-0.488,0
1542737237.156,68.848,63.477,47.852,32.227,-27.344,0
1542737237.160,67.871,67.871,50.781,39.551,-20.020,0
1542737237.164,52.246,59.082,35.645,32.715,33.203,0
1542737237.168,33.691,50.781,29.297,26.367,14.160,0
1542737237.172,41.504,54.688,36.621,26.367,20.020,0
1542737237.176,55.664,58.594,26.855,17.578,57.617,0
1542737237.180,39.062,42.480,15.137,9.277,37.109,0
1542737237.184,31.250,35.645,2.441,-3.906,53.711,0
1542737237.188,47.852,34.180,-15.137,-1.465,121.582,0
1542737237.192,61.523,37.109,-14.648,4.395,75.684,0
1542737237.196,60.059,44.922,2.441,-5.371,55.176,0
1542737237.199,60.059,38.574,18.066,8.301,44.922,0
1542737237.203,47.852,29.297,27.344,22.949,35.645,0
1542737237.207,49.805,26.855,29.785,23.438,94.238,0
1542737237.211,69.336,34.180,30.762,19.531,97.168,0
1542737237.215,47.852,43.457,38.086,17.090,42.969,0
1542737237.219,28.320,44.434,46.387,23.438,13.672,0
1542737237.223,31.738,39.062,39.062,22.949,49.316,0
1542737237.227,36.621,41.504,25.391,17.090,55.664,0
1542737237.231,43.945,49.316,25.391,18.555,21.484,0
1542737237.235,47.363,36.621,27.832,16.602,24.414,0
1542737237.239,35.156,25.391,28.809,14.160,12.207,0
1542737237.242,25.879,23.438,33.691,11.230,-10.742,0
1542737237.246,50.293,25.391,24.902,20.508,26.855,0
1542737237.250,59.082,23.438,22.461,34.180,55.664,0
1542737237.254,27.832,18.555,45.898,22.461,31.250,0
1542737237.258,14.648,22.949,56.641,7.324,-18.066,0
1542737237.262,22.461,22.949,58.594,17.090,-31.250,0
1542737237.266,20.020,19.531,67.871,10.254,29.785,0
1542737237.270,22.949,16.113,76.660,7.812,58.594,0
1542737237.274,27.832,13.672,83.008,10.742,43.457,0
1542737237.278,15.625,7.812,80.078,0.977,95.703,0
1542737237.281,7.324,-1.465,72.754,12.695,111.328,0
1542737237.285,18.066,2.441,67.871,30.762,65.918,0
1542737237.289,31.250,12.695,63.477,32.715,34.668,0
1542737237.293,31.738,15.137,65.430,27.832,42.480,0
1542737237.297,34.668,24.902,71.289,34.180,19.531,0
1542737237.301,39.551,30.762,69.336,45.410,23.926,0
1542737237.305,43.457,19.531,73.242,47.363,16.113,0
1542737237.309,49.805,12.695,65.918,42.969,19.043,0
1542737237.313,45.898,10.742,64.941,42.969,63.477,0
1542737237.317,27.344,11.230,71.777,46.387,68.359,0
1542737237.321,17.578,18.066,66.895,41.992,47.363,0
1542737237.324,19.043,13.184,56.152,24.902,0.977,0
1542737237.328,20.020,5.859,45.898,17.578,17.090,0
1542737237.332,25.391,15.625,49.316,20.508,27.344,0
1542737237.336,32.715,25.391,54.688,22.461,16.602,0
1542737237.340,26.855,20.508,54.199,29.785,21.973,0
1542737237.344,17.578,16.602,44.434,25.879,64.453,0
1542737237.348,24.414,19.043,39.062,14.160,39.551,0
1542737237.352,34.180,19.043,38.086,12.695,-16.113,0
1542737237.356,42.969,27.832,37.598,16.113,3.906,0
1542737237.360,43.457,35.645,35.645,17.090,13.672,0
1542737237.364,34.668,37.598,27.832,12.695,5.859,0
1542737237.367,33.691,35.156,36.621,8.301,39.062,0
1542737237.371,46.387,25.879,41.016,25.391,33.691,0
1542737237.375,43.945,22.461,34.180,38.086,18.066,0
1542737237.379,40.527,22.461,33.203,39.062,7.324,0
1542737237.383,40.527,17.578,34.668,39.062,27.832,0
1542737237.387,41.992,16.602,39.062,33.691,11.719,0
1542737237.391,35.645,15.625,40.039,34.668,-43.457,0
1542737237.395,25.879,14.160,31.738,39.062,-3.906,0
1542737237.399,24.902,21.484,21.973,35.156,28.320,0
1542737237.403,26.367,24.902,16.113,41.504,9.766,0
1542737237.406,38.574,23.438,14.648,48.828,36.133,0
1542737237.410,34.668,32.715,17.090,42.969,17.578,0
1542737237.414,38.574,37.598,10.742,41.992,32.227,0
1542737237.418,40.039,32.715,11.230,42.480,105.469,0
1542737237.422,34.180,26.855,24.902,28.809,96.680,0
1542737237.426,44.434,30.762,33.691,26.367,50.781,0
1542737237.430,53.711,36.621,38.086,40.527,26.367,0
1542737237.434,42.969,33.691,38.574,42.969,13.672,0
1542737237.438,29.297,36.621,31.250,27.832,16.113,0
1542737237.442,34.180,42.480,23.926,15.625,61.035,0
1542737237.446,41.016,39.062,25.391,23.438,86.426,0
1542737237.449,33.691,41.504,13.672,32.227,69.336,0
1542737237.453,32.715,45.410,4.883,32.227,11.719,0
1542737237.457,29.785,47.363,10.254,30.273,18.066,0
1542737237.461,24.902,46.875,10.742,27.832,44.434,0
1542737237.465,22.461,41.504,8.789,30.273,55.176,0
1542737237.469,32.715,37.109,7.324,34.180,51.270,0
1542737237.473,38.086,40.039,8.789,41.016,65.918,0
1542737237.477,33.691,42.969,24.902,49.316,68.359,0
1542737237.481,44.434,23.438,34.668,57.129,47.363,0
1542737237.485,65.430,24.902,22.949,77.148,27.344,0
1542737237.489,59.082,52.246,15.137,62.012,-6.348,0
1542737237.492,35.645,48.340,21.484,25.879,47.852,0
1542737237.496,35.645,39.062,20.508,24.902,41.504,0
1542737237.500,33.691,44.434,13.184,10.742,28.809,0
1542737237.504,31.738,55.664,1.953,-0.488,22.461,0
1542737237.508,26.855,63.965,-6.348,0.488,-2.930,0
1542737237.512,31.250,70.801,-7.324,-3.906,34.668,0
1542737237.516,36.621,79.590,-1.465,-9.277,55.664,0
1542737237.520,31.250,81.543,7.812,-11.719,51.270,0
1542737237.524,27.832,81.055,12.695,-7.812,44.434,0
1542737237.528,31.738,76.172,10.254,-5.371,25.391,0
1542737237.531,35.156,61.523,8.301,0.977,20.020,0
1542737237.535,39.062,52.246,20.508,12.207,56.641,0
1542737237.539,41.992,52.246,18.555,18.066,-10.254,0
1542737237.543,45.898,52.246,15.137,23.926,-36.621,0
1542737237.547,53.711,43.457,15.137,33.691,69.336,0
1542737237.551,57.617,37.109,12.207,30.273,36.133,0
1542737237.555,64.941,44.434,14.648,30.762,53.711,0
1542737237.559,60.547,55.176,20.996,26.855,41.016,0
1542737237.563,52.246,53.223,36.621,29.297,-20.508,0
1542737237.567,53.711,53.711,38.574,35.156,23.438,0
1542737237.571,51.758,58.594,26.855,23.438,12.695,0
1542737237.574,47.852,50.781,20.508,21.484,20.508,0
1542737237.578,48.828,38.574,23.926,22.949,55.664,0
1542737237.582,49.316,34.668,24.902,21.484,44.434,0
1542737237.586,42.969,41.504,34.668,27.832,43.457,0
1542737237.590,52.734,55.664,38.574,28.809,55.664,0
1542737237.594,48.828,52.734,23.438,20.508,72.754,0
1542737237.598,45.410,44.922,5.859,20.996,73.730,0
1542737237.602,56.152,37.598,5.859,23.438,44.434,0
1542737237.606,50.293,44.434,18.555,22.461,0.488,0
1542737237.610,50.781,59.570,22.461,28.320,-15.137,0
1542737237.614,57.617,56.152,15.625,27.832,24.902,0
1542737237.617,68.359,44.922,11.719,31.250,56.152,0
1542737237.621,60.059,41.992,8.789,31.738,33.203,0
1542737237.625,58.105,43.457,5.859,29.785,65.918,0
1542737237.629,69.336,46.387,5.371,32.715,63.965,0
1542737237.633,69.824,48.828,4.883,35.156,68.848,0
1542737237.637,70.312,47.363,11.230,40.039,86.914,0
1542737237.641,67.383,43.457,11.230,38.086,47.852,0
1542737237.645,75.684,41.016,13.672,39.062,33.203,0
1542737237.649,74.219,37.109,26.367,36.621,-9.277,0
1542737237.653,63.477,30.762,38.574,40.527,15.137,0
1542737237.656,61.523,24.902,41.992,40.039,26.855,0
1542737237.660,57.617,20.996,35.645,35.156,24.902,0
1542737237.664,64.941,25.879,28.320,41.992,63.965,0
1542737237.668,65.430,26.855,18.555,33.203,48.828,0
1542737237.672,63.477,20.508,15.137,38.574,58.105,0
1542737237.676,62.988,25.391,7.812,52.246,51.758,0
1542737237.680,28.320,39.551,12.207,40.527,3.418,0
1542737237.684,6.836,47.852,17.090,20.020,13.184,0
1542737237.688,27.344,44.434,5.371,12.695,-23.926,0
1542737237.692,33.203,30.273,9.277,15.137,-32.715,0
1542737237.696,36.621,31.250,29.297,23.438,-9.277,0
1542737237.699,41.504,43.945,42.480,35.156,-11.230,0
1542737237.703,30.273,38.574,42.969,32.227,-2.930,0
1542737237.707,30.762,33.691,29.785,22.461,9.766,0
1542737237.711,35.645,45.410,14.160,20.020,44.922,0
1542737237.715,39.062,56.641,15.625,19.043,67.871,0
1542737237.719,36.133,46.387,16.113,19.043,19.531,0
1542737237.723,31.738,33.203,3.418,21.484,55.176,0
1542737237.727,35.156,31.250,-5.371,20.020,55.176,0
1542737237.731,30.273,38.574,0.977,20.508,-5.859,0
1542737237.735,22.949,58.105,13.672,24.414,9.277,0
1542737237.739,14.160,55.176,16.602,5.859,5.371,0
1542737237.742,17.578,56.152,35.645,-7.812,68.359,0
1542737237.746,21.484,70.801,39.062,-9.277,67.871,0
1542737237.750,13.184,70.801,34.180,-19.043,-3.906,0
1542737237.754,-14.648,69.824,41.504,-33.691,41.992,0
1542737237.758,-31.250,84.473,44.922,-44.922,100.586,0
1542737237.762,-41.992,93.750,68.359,-48.828,84.473,0
1542737237.766,-58.105,92.773,72.266,-62.012,81.543,0
1542737237.770,-71.289,104.492,69.824,-68.848,51.758,0
1542737237.774,-85.449,122.559,80.078,-70.312,21.484,0
1542737237.778,-84.961,137.695,93.750,-72.266,43.945,0
1542737237.781,-104.492,147.461,107.422,-102.051,17.090,0
1542737237.785,-123.047,152.832,115.234,-146.484,12.695,0
1542737237.789,-122.070,164.551,121.582,-149.414,79.590,0
1542737237.793,-143.066,175.781,123.047,-160.645,56.152,0
1542737237.797,-157.715,178.711,122.070,-181.152,7.812,0
1542737237.801,-155.762,172.363,125.488,-171.387,-10.742,0
1542737237.805,-150.391,175.781,123.535,-168.457,20.020,0
1542737237.809,-142.578,184.570,122.559,-156.738,78.613,0
1542737237.813,-136.230,175.293,140.625,-144.531,83.984,0
1542737237.817,-119.141,168.945,131.348,-140.137,22.461,0
1542737237.821,-105.469,154.785,108.398,-118.164,7.812,0
1542737237.824,-104.004,127.930,102.539,-108.398,69.824,0
1542737237.828,-72.266,108.887,88.379,-84.961,48.828,0
1542737237.832,-67.871,86.914,96.680,-75.684,-7.324,0
1542737237.836,-53.711,61.035,74.707,-58.105,-34.668,0
1542737237.840,-4.395,34.668,52.246,-7.812,3.906,0
1542737237.844,3.418,20.996,74.707,-1.465,89.355,0
1542737237.848,12.695,12.207,74.707,5.371,106.445,0
1542737237.852,27.344,-7.324,60.547,33.203,58.594,0
1542737237.856,55.664,-20.020,53.711,61.035,62.988,0
1542737237.860,88.379,-19.531,58.105,88.379,57.617,0
1542737237.864,97.656,-19.531,52.734,99.609,2.930,0
1542737237.867,93.750,-20.508,45.898,96.680,32.715,0
1542737237.871,93.262,-15.625,39.551,104.492,34.180,0
1542737237.875,96.191,-25.391,26.855,106.445,-10.254,0
1542737237.879,100.586,-34.668,18.555,103.516,45.410,0
1542737237.883,111.328,-28.320,24.414,112.305,80.078,0
1542737237.887,110.352,-29.297,20.508,116.211,73.730,0
1542737237.891,116.699,-27.344,6.348,114.746,15.137,0
1542737237.895,109.375,-23.926,0.977,110.352,-28.809,0
1542737237.899,107.422,-23.926,3.418,112.793,42.480,0
1542737237.903,128.418,-13.672,10.742,120.605,92.773,0
1542737237.906,134.766,-10.254,7.812,124.512,101.562,0
1542737237.910,125.488,-14.648,-1.953,123.535,58.594,0
1542737237.914,110.840,-14.648,-9.277,111.328,38.086,0
1542737237.918,112.793,-21.484,-11.719,108.887,61.523,0
1542737237.922,125.488,-22.949,-7.324,113.770,68.359,0
1542737237.926,108.398,-23.926,-12.207,112.305,21.484,0
1542737237.930,95.703,-31.250,-24.414,113.770,18.066,0
1542737237.934,115.723,-22.949,-29.785,105.957,18.555,0
1542737237.938,130.371,-19.531,-19.531,109.863,19.531,0
1542737237.942,131.348,-26.855,-5.859,115.234,26.855,0
1542737237.946,101.562,-16.113,-8.301,125.488,1.953,0
1542737237.949,101.074,-10.254,-9.277,126.953,23.926,0
1542737237.953,130.859,-12.695,-1.465,106.934,44.434,0
1542737237.957,125.977,-20.020,6.836,101.562,14.648,0
1542737237.961,102.539,-31.250,22.461,96.680,3.906,0
1542737237.965,90.332,-32.715,35.645,104.004,5.371,0
1542737237.969,111.328,-19.531,32.715,114.258,30.762,0
1542737237.973,144.043,-3.906,17.090,104.980,26.367,0
1542737237.977,130.371,-19.531,15.625,106.934,-2.441,0
1542737237.981,105.957,-20.508,16.602,106.445,24.902,0
1542737237.985,95.215,0.977,6.348,87.891,49.316,0
1542737237.989,83.496,-3.906,9.766,78.125,78.613,0
1542737237.992,101.562,-9.766,19.531,85.449,47.363,0
1542737237.996,109.375,7.324,18.555,85.938,-23.438,0
1542737238.000,119.629,10.742,16.113,117.676,-6.348,0
1542737238.004,123.047,3.906,13.672,116.211,39.551,0
1542737238.008,103.027,8.789,20.020,87.891,46.387,0
1542737238.012,96.680,17.090,21.973,87.402,20.020,0
1542737238.016,94.727,20.508,22.461,85.449,16.602,0
1542737238.020,93.262,20.996,21.973,87.402,47.363,0
1542737238.024,74.707,13.184,3.418,68.359,57.617,0
1542737238.028,76.660,5.859,-0.977,67.383,71.289,0
1542737238.031,83.984,8.789,3.418,77.148,90.820,0
1542737238.035,80.566,5.371,12.695,73.730,64.941,0
1542737238.039,88.379,0.977,21.484,77.637,25.391,0
1542737238.043,95.215,6.836,12.695,83.496,16.602,0
1542737238.047,88.867,20.996,17.090,73.730,0.488,0
1542737238.051,56.641,22.949,36.133,49.805,-28.809,0
1542737238.055,45.410,16.113,24.902,59.082,12.207,0
1542737238.059,67.383,18.066,4.883,79.590,80.078,0
1542737238.063,82.520,21.973,8.301,74.707,70.801,0
1542737238.067,96.680,20.996,9.277,75.684,62.012,0
1542737238.071,99.609,29.297,3.418,78.613,11.719,0
1542737238.074,84.473,31.738,-6.836,72.266,33.203,0
1542737238.078,77.148,27.832,-11.719,69.824,73.730,0
1542737238.082,73.730,45.898,-5.859,73.242,39.062,0
1542737238.086,68.848,49.805,11.230,79.102,15.137,0
1542737238.090,60.059,35.645,28.320,76.660,0.488,0
1542737238.094,61.035,36.621,24.902,72.266,20.996,0
1542737238.098,71.777,29.297,25.879,66.895,18.555,0
1542737238.102,86.914,26.855,37.598,64.453,20.020,0
1542737238.106,78.613,30.762,41.992,60.547,26.367,0
1542737238.110,73.242,24.414,43.457,57.617,61.523,0
1542737238.114,79.590,20.020,52.246,57.129,51.758,0
1542737238.117,75.684,10.742,60.547,68.359,3.906,0
1542737238.121,73.730,7.812,53.223,70.312,-5.371,0
1542737238.125,72.266,9.277,51.758,58.105,22.461,0
1542737238.129,76.172,12.207,57.617,58.105,40.527,0
1542737238.133,64.941,14.648,62.012,57.617,2.930,0
1542737238.137,57.129,9.277,44.922,48.828,-52.734,0
1542737238.141,70.801,15.625,30.762,46.387,-19.531,0
1542737238.145,67.871,30.762,39.551,49.805,15.137,0
1542737238.149,60.059,38.086,31.250,47.852,-16.113,0
1542737238.153,69.336,35.156,22.461,47.852,16.602,0
1542737238.156,76.660,29.785,23.438,53.711,38.574,0
1542737238.160,66.895,26.367,25.879,53.711,62.012,0
1542737238.164,59.082,30.762,26.367,51.270,63.477,0
1542737238.168,53.711,25.391,31.250,53.223,85.449,0
1542737238.172,68.848,5.859,36.133,69.824,118.652,0
1542737238.176,77.148,1.953,29.785,67.383,73.242,0
1542737238.180,46.875,21.973,26.367,29.297,10.254,0
1542737238.184,27.832,36.133,23.438,6.348,-4.883,0
1542737238.188,26.855,31.738,22.949,16.113,0.488,0
1542737238.192,19.043,35.645,24.902,15.137,-47.852,0
1542737238.196,10.254,45.410,29.297,-3.906,-13.184,0
1542737238.199,22.949,39.062,32.227,8.301,71.777,0
1542737238.203,21.484,33.203,28.320,5.371,29.297,0
1542737238.207,15.137,36.133,21.973,-11.719,-4.395,0
1542737238.211,32.227,41.992,27.344,6.836,24.414,0
1542737238.215,41.016,41.992,30.762,24.414,23.926,0
1542737238.219,37.598,37.598,17.090,20.020,17.090,0
1542737238.223,42.969,32.227,14.648,23.926,12.695,0
1542737238.227,47.363,31.250,24.902,28.320,-24.414,0
1542737238.231,57.617,34.180,39.062,37.109,-30.273,0
1542737238.235,60.547,31.250,44.922,34.180,14.160,0
1542737238.239,50.293,30.762,42.480,44.922,68.359,0
1542737238.242,55.176,33.691,45.898,56.152,70.801,0
1542737238.246,61.523,34.668,41.504,48.828,32.715,0
1542737238.250,57.129,32.715,43.945,46.875,53.223,0
1542737238.254,57.129,32.227,44.922,44.434,19.531,0
1542737238.258,51.270,27.344,39.062,41.504,20.508,0
1542737238.262,44.922,26.367,46.875,31.250,75.195,0
1542737238.266,47.363,32.715,50.293,28.320,54.199,0
1542737238.270,52.734,36.621,50.293,32.227,81.543,0
1542737238.274,53.223,35.156,51.758,36.133,139.160,0
1542737238.278,47.363,23.926,52.246,45.898,70.312,0
1542737238.281,48.828,21.484,55.176,47.852,22.949,0
1542737238.285,58.105,23.926,48.340,47.852,40.039,0
1542737238.289,69.824,21.973,43.457,48.340,3.906,0
1542737238.293,68.848,20.020,45.898,56.641,19.043,0
1542737238.297,63.965,20.996,44.922,62.012,72.754,0
1542737238.301,58.594,24.414,41.504,62.988,42.480,0
1542737238.305,59.082,38.086,34.668,68.359,21.973,0
1542737238.309,65.430,44.922,37.598,67.871,26.855,0
1542737238.313,61.523,39.062,30.762,58.594,18.066,0
1542737238.317,58.594,34.180,24.414,60.547,60.547,0
1542737238.321,52.246,40.039,23.926,53.711,111.328,0
1542737238.324,45.410,35.156,21.484,41.016,80.078,0
1542737238.328,46.875,25.391,20.996,42.969,58.105,0
1542737238.332,44.922,16.602,14.160,42.969,25.391,0
1542737238.336,39.551,15.137,17.090,39.062,24.902,0
1542737238.340,43.945,24.414,32.227,43.945,59.570,0
1542737238.344,55.664,31.738,42.480,47.363,53.223,0
1542737238.348,52.246,38.086,48.340,47.363,39.551,0
1542737238.352,39.551,37.598,46.387,42.480,36.133,0
1542737238.356,45.410,33.691,35.645,32.227,26.367,0
1542737238.360,43.945,22.949,29.785,39.551,26.367,0
1542737238.364,33.203,29.297,26.855,40.527,32.715,0
1542737238.367,29.297,49.316,17.578,35.645,25.879,0
1542737238.371,40.039,49.316,17.090,41.504,58.594,0
1542737238.375,45.410,40.527,19.531,39.551,70.801,0
1542737238.379,36.133,40.527,19.043,25.879,89.355,0
1542737238.383,39.551,49.316,35.645,31.250,43.945,0
1542737238.387,54.199,55.664,25.391,51.758,-23.438,0
1542737238.391,71.289,52.246,19.531,66.895,-3.906,0
1542737238.395,53.711,45.410,35.645,53.711,21.973,0
1542737238.399,23.926,39.062,19.043,31.250,59.082,0
1542737238.403,37.109,40.527,15.625,42.969,50.293,0
1542737238.406,36.621,36.621,29.785,50.293,27.344,0
1542737238.410,26.367,25.879,36.133,44.922,40.039,0
1542737238.414,35.156,24.902,42.480,40.527,27.832,0
1542737238.418,40.527,22.949,43.945,29.297,-39.062,0
1542737238.422,41.504,26.367,38.574,37.598,-51.758,0
1542737238.426,44.434,38.086,34.668,45.410,7.324,0
1542737238.430,40.527,38.086,33.203,39.551,44.922,0
1542737238.434,40.039,27.832,33.691,46.875,10.254,0
1542737238.438,44.922,29.785,39.062,58.594,22.461,0
1542737238.442,39.551,30.762,34.668,52.246,25.879,0
1542737238.446,40.039,24.902,23.926,42.969,17.578,0
1542737238.449,45.410,27.832,14.160,44.922,33.203,0
1542737238.453,51.270,28.320,14.648,43.457,57.617,0
1542737238.457,59.082,34.668,30.273,47.852,70.801,0
1542737238.461,63.965,51.758,50.781,59.082,35.156,0
1542737238.465,65.430,56.152,49.805,58.594,-1.953,0
1542737238.469,69.824,56.641,37.109,59.570,-56.152,0
1542737238.473,68.359,59.570,39.551,63.965,-36.133,0
1542737238.477,63.477,50.293,43.945,66.895,33.691,0
1542737238.481,56.641,43.945,51.758,65.918,47.363,0
1542737238.485,57.129,48.340,56.641,65.918,45.898,0
1542737238.489,64.453,49.316,57.617,62.988,24.414,0
1542737238.492,58.594,42.969,47.363,60.547,29.785,0
1542737238.496,57.129,36.621,30.762,66.406,20.996,0
1542737238.500,60.059,39.062,29.785,61.035,-1.953,0
1542737238.504,59.570,47.852,32.715,50.781,13.184,0
1542737238.508,50.781,41.016,29.785,43.457,40.039,0
1542737238.512,46.875,32.715,20.996,35.645,50.293,0
1542737238.516,50.781,34.668,15.625,37.598,5.371,0
1542737238.520,48.828,37.109,18.066,39.062,-10.742,0
1542737238.524,52.734,39.062,15.625,40.527,6.348,0
1542737238.528,48.828,33.691,25.879,40.527,10.254,0
1542737238.531,39.551,34.180,37.598,40.527,57.617,0
1542737238.535,31.250,38.086,41.504,36.621,61.523,0
1542737238.539,46.387,33.691,39.551,52.734,12.695,0
1542737238.543,58.594,40.039,23.438,57.129,37.598,0
1542737238.547,38.086,35.645,10.742,24.414,44.434,0
1542737238.551,34.180,25.879,4.883,16.113,28.320,0
1542737238.555,40.527,39.062,-3.418,27.832,57.617,0
1542737238.559,30.273,57.617,-16.113,19.531,51.270,0
1542737238.563,29.785,64.453,-20.020,19.043,-20.508,0
1542737238.567,41.992,66.406,-13.184,28.809,-15.137,0
1542737238.571,48.828,66.406,-17.578,28.320,48.340,0
1542737238.574,49.805,58.594,-16.602,28.320,27.832,0
1542737238.578,49.316,45.410,-17.090,32.715,11.719,0
1542737238.582,52.734,46.387,-28.320,38.574,51.270,0
1542737238.586,54.199,51.758,-17.578,48.828,10.254,0
1542737238.590,55.664,46.387,1.465,55.664,47.852,0
1542737238.594,59.570,47.852,1.465,42.969,86.914,0
1542737238.598,60.547,43.945,-8.789,33.203,27.832,0
1542737238.602,62.012,42.969,-4.883,42.480,-14.160,0
1542737238.606,62.500,49.805,3.906,48.340,-16.602,0
1542737238.610,61.523,46.875,8.301,47.363,-9.277,0
1542737238.614,62.988,41.016,21.484,47.852,19.043,0
1542737238.617,66.895,33.691,28.809,41.504,58.105,0
1542737238.621,67.871,33.691,36.621,33.691,43.945,0
1542737238.625,66.895,44.434,35.645,26.855,12.695,0
1542737238.629,65.430,45.898,28.320,31.250,10.254,0
1542737238.633,65.918,46.875,31.250,44.434,7.324,0
1542737238.637,64.941,37.598,36.621,48.340,13.672,0
1542737238.641,48.340,22.461,28.320,34.668,52.734,0
1542737238.645,40.039,22.949,10.254,31.250,29.785,0
1542737238.649,45.898,32.715,-0.488,27.344,55.176,0
1542737238.653,45.410,42.969,7.324,30.762,98.633,0
1542737238.656,42.969,42.969,25.391,37.109,37.109,0
1542737238.660,45.410,42.480,33.691,38.086,19.531,0
1542737238.664,46.875,47.363,28.320,38.086,61.035,0
1542737238.668,42.480,52.734,22.949,39.551,65.918,0
1542737238.672,45.410,54.688,21.484,41.016,-18.066,0
1542737238.676,57.129,54.688,14.160,37.598,-4.883,0
1542737238.680,53.711,50.781,8.301,36.621,30.762,0
1542737238.684,55.664,49.316,12.207,39.062,10.742,0
1542737238.688,58.594,46.875,14.648,41.016,44.434,0
1542737238.692,48.828,42.969,19.531,45.410,102.051,0
1542737238.696,40.527,39.062,22.949,38.086,75.684,0
1542737238.699,38.086,39.551,21.484,32.227,33.203,0
1542737238.703,44.434,46.387,19.531,38.574,41.504,0
1542737238.707,43.945,46.875,11.719,35.645,17.578,0
1542737238.711,40.039,31.250,-1.953,35.156,38.574,0
1542737238.715,43.945,23.926,0.000,40.039,74.219,0
1542737238.719,40.039,28.809,2.930,36.133,20.508,0
1542737238.723,30.273,20.020,-2.441,28.809,-2.441,0
1542737238.727,35.645,16.113,-0.977,30.273,10.254,0
1542737238.731,40.527,21.973,2.930,34.668,24.414,0
1542737238.735,37.109,21.973,8.789,39.062,54.688,0
1542737238.739,41.504,20.508,11.719,43.457,7.324,0
1542737238.742,52.734,16.113,7.324,43.457,40.527,0
1542737238.746,56.641,21.484,10.742,49.316,36.133,0
1542737238.750,51.758,22.949,17.578,55.176,-22.461,0
1542737238.754,52.246,21.484,15.137,51.270,61.035,0
1542737238.758,58.594,31.738,9.766,49.316,82.520,0
1542737238.762,60.547,27.344,15.625,54.199,22.461,0
1542737238.766,52.246,23.438,29.297,58.105,3.418,0
1542737238.770,44.434,30.762,32.715,53.711,40.039,0
1542737238.774,44.434,24.414,33.203,49.316,89.355,0
1542737238.778,48.828,26.367,38.086,51.270,29.785,0
1542737238.781,57.129,36.621,38.574,62.500,-30.762,0
1542737238.785,68.848,44.434,27.344,72.266,35.645,0
1542737238.789,53.711,49.805,28.320,51.270,72.266,0
1542737238.793,37.109,38.086,46.875,40.527,71.777,0
1542737238.797,48.828,27.344,46.875,52.734,99.609,0
1542737238.801,55.176,28.809,25.879,48.828,81.055,0
1542737238.805,53.223,27.832,20.020,42.480,17.090,0
1542737238.809,62.012,31.738,34.668,56.152,16.602,0
1542737238.813,75.195,38.574,39.062,64.453,63.965,0
1542737238.817,72.754,27.832,30.273,56.152,71.777,0
1542737238.821,68.848,24.902,20.020,49.805,53.223,0
1542737238.824,62.500,20.020,7.812,41.016,55.664,0
1542737238.828,56.152,23.926,2.441,34.180,63.477,0
1542737238.832,61.035,29.785,18.066,33.203,34.668,0
1542737238.836,55.176,11.719,13.672,27.344,21.484,0
1542737238.840,46.875,2.441,-9.766,27.344,52.246,0
1542737238.844,44.434,17.090,-14.160,26.855,56.152,0
1542737238.848,32.227,27.832,5.859,22.949,39.062,0
1542737238.852,13.184,16.602,30.762,20.020,34.180,0
1542737238.856,9.277,17.090,40.039,15.137,12.695,0
1542737238.860,10.742,35.645,45.898,14.648,44.434,0
1542737238.864,1.953,45.898,42.480,0.488,43.945,0
1542737238.867,-10.254,41.992,33.691,-20.020,-7.324,0
1542737238.871,-18.555,37.109,34.668,-24.902,17.578,0
1542737238.875,-35.156,43.945,50.293,-45.410,39.062,0
1542737238.879,-54.199,58.594,72.266,-65.918,46.387,0
1542737238.883,-63.965,72.754,91.797,-69.336,27.344,0
1542737238.887,-76.172,84.473,101.562,-73.730,3.906,0
1542737238.891,-91.309,100.586,94.238,-86.426,21.973,0
1542737238.895,-103.027,116.699,97.656,-108.887,7.324,0
1542737238.899,-115.234,130.859,108.887,-126.465,30.762,0
1542737238.903,-130.371,143.555,112.305,-145.508,53.711,0
1542737238.906,-145.508,158.203,112.793,-168.945,51.758,0
1542737238.910,-155.273,175.293,108.398,-182.129,22.949,0
1542737238.914,-174.316,181.152,102.051,-198.730,7.324,0
1542737238.918,-183.594,179.688,106.445,-205.078,35.645,0
1542737238.922,-194.824,176.270,117.188,-210.938,34.180,0
1542737238.926,-200.195,173.340,122.559,-216.797,11.719,0
1542737238.930,-196.777,168.457,134.277,-218.750,-31.250,0
1542737238.934,-189.453,168.945,138.184,-208.984,0.977,0
1542737238.938,-181.152,161.133,137.207,-192.871,42.969,0
1542737238.942,-172.363,139.160,122.070,-187.500,56.641,0
1542737238.946,-157.715,117.188,113.770,-167.969,-15.137,0
1542737238.949,-147.949,99.609,111.816,-143.555,-29.297,0
1542737238.953,-129.883,86.426,104.492,-122.070,43.945,0
1542737238.957,-101.074,74.219,97.656,-96.191,71.777,0
1542737238.961,-73.730,57.617,82.520,-66.406,79.590,0
1542737238.965,-53.223,42.480,81.543,-41.016,34.668,0
1542737238.969,-29.297,32.715,79.102,-24.902,5.371,0
1542737238.973,-2.441,25.391,62.988,-0.977,31.250,0
1542737238.977,20.020,19.531,44.922,24.414,30.762,0
1542737238.981,27.344,2.441,38.086,34.180,22.461,0
1542737238.985,41.504,-0.488,37.109,45.898,-7.812,0
1542737238.989,63.965,6.836,28.809,66.895,-12.695,0
1542737238.992,79.102,6.348,23.438,85.449,51.758,0
1542737238.996,83.984,-0.488,9.766,95.215,78.125,0
1542737239.000,99.609,-4.883,0.488,104.980,75.195,0
1542737239.004,115.723,-3.418,5.371,106.445,75.684,0
1542737239.008,118.652,1.465,4.395,106.934,26.855,0
1542737239.012,115.234,-1.465,-1.465,96.680,45.898,0
1542737239.016,116.699,-11.719,-9.766,91.797,81.543,0
1542737239.020,125.000,-14.648,-8.301,104.004,63.477,0
1542737239.024,130.371,-13.184,9.277,109.863,49.805,0
1542737239.028,129.395,-10.742,17.578,115.234,32.227,0
1542737239.031,125.977,-0.488,8.301,114.746,37.109,0
1542737239.035,130.371,-4.395,-4.883,113.281,51.270,0
1542737239.039,130.371,-22.461,-9.277,117.188,55.176,0
1542737239.043,129.883,-15.625,-13.184,117.188,49.805,0
1542737239.047,136.230,-8.789,-16.113,120.605,13.184,0
1542737239.051,146.484,-20.020,-13.184,123.047,-2.441,0
1542737239.055,145.508,-27.344,-14.160,124.023,33.691,0
1542737239.059,136.719,-28.809,-26.367,115.723,17.090,0
1542737239.063,133.789,-22.461,-33.691,111.816,-10.254,0
1542737239.067,127.930,-10.742,-23.926,111.328,37.109,0
1542737239.071,128.906,-5.371,-26.855,113.281,44.922,0
1542737239.074,131.836,-1.953,-26.855,119.141,-26.855,0
1542737239.078,123.047,6.348,-19.531,114.258,-40.527,0
1542737239.082,125.488,12.695,-11.719,107.910,-13.672,0
1542737239.086,129.883,8.789,-3.906,104.980,68.359,0
1542737239.090,127.930,6.836,-4.395,106.445,49.316,0
1542737239.094,133.301,6.348,5.859,112.305,59.570,0
1542737239.098,134.277,6.348,9.277,116.699,100.098,0
1542737239.102,137.695,7.324,5.859,110.840,54.688,0
1542737239.106,145.996,8.301,10.254,104.980,4.883,0
1542737239.110,146.973,14.160,4.883,106.445,11.230,0
1542737239.114,141.113,12.695,-4.883,108.887,45.898,0
1542737239.117,138.672,13.672,-0.977,112.793,45.898,0
1542737239.121,127.930,14.648,0.977,112.305,50.293,0
1542737239.125,114.746,12.207,-6.348,102.539,8.789,0
1542737239.129,111.328,12.695,-8.301,100.098,-12.695,0
1542737239.133,108.887,5.859,-11.230,102.051,-8.301,0
1542737239.137,106.445,7.812,-22.461,102.051,-1.953,0
1542737239.141,110.352,17.090,-20.020,100.586,55.176,0
1542737239.145,112.793,20.020,0.000,102.539,46.387,0
1542737239.149,102.051,26.855,4.395,91.309,18.066,0
1542737239.153,95.215,21.484,-3.418,79.102,82.520,0
1542737239.156,92.773,1.953,0.000,79.102,76.660,0
1542737239.160,88.867,-2.930,6.836,80.566,35.156,0
1542737239.164,91.797,3.906,5.859,80.078,59.570,0
1542737239.168,98.145,8.301,4.395,84.473,58.105,0
1542737239.172,98.633,11.230,9.766,94.727,37.109,0
1542737239.176,96.191,17.090,12.695,93.262,-14.160,0
1542737239.180,92.285,20.996,2.441,88.379,-32.715,0
1542737239.184,85.938,18.555,3.906,83.496,41.504,0
1542737239.188,85.449,16.602,8.789,81.543,33.203,0
1542737239.192,88.379,10.742,5.859,77.148,36.133,0
1542737239.196,83.984,11.230,5.859,69.336,23.926,0
1542737239.199,67.871,19.043,-1.953,69.336,-12.695,0
1542737239.203,60.547,22.949,-7.812,68.848,27.832,0
1542737239.207,68.848,23.926,-10.742,64.453,40.039,0
1542737239.211,64.941,25.391,-20.020,59.570,18.066,0
1542737239.215,64.941,20.996,-18.555,62.988,-6.836,0
1542737239.219,67.871,15.625,-9.766,65.430,-52.246,0
1542737239.223,65.918,24.902,-1.465,59.570,-13.672,0
1542737239.227,68.848,22.949,9.766,60.547,-0.977,0
1542737239.231,82.031,14.160,3.418,75.684,-65.430,0
1542737239.235,79.590,29.785,-7.812,72.266,-28.809,0
1542737239.239,62.500,45.410,-8.789,48.828,31.738,0
1542737239.242,61.523,49.316,-2.441,47.363,44.922,0
1542737239.246,72.754,50.781,10.742,58.594,42.480,0
1542737239.250,79.102,50.293,15.625,59.570,46.387,0
1542737239.254,68.848,47.852,13.672,50.781,54.688,0
1542737239.258,71.777,42.480,23.926,56.641,64.453,0
1542737239.262,74.707,41.016,20.996,64.941,51.758,0
1542737239.266,68.359,36.133,14.648,61.035,68.848,0
1542737239.270,71.289,32.227,10.742,65.430,94.727,0
1542737239.274,79.590,30.762,-3.418,62.012,81.055,0
1542737239.278,75.195,22.461,4.395,49.316,81.543,0
1542737239.281,71.777,20.996,13.184,44.922,55.176,0
1542737239.285,72.266,31.738,5.371,44.922,-1.953,0
1542737239.289,68.359,32.227,-0.488,54.199,-8.301,0
1542737239.293,67.383,27.344,-5.371,60.547,47.852,0
1542737239.297,72.754,26.855,3.906,57.129,99.609,0
1542737239.301,73.242,18.555,21.973,48.828,79.102,0
1542737239.305,70.312,13.672,28.320,46.387,41.016,0
1542737239.309,70.312,16.113,19.531,46.387,3.418,0
1542737239.313,74.219,21.973,25.391,46.387,1.953,0
1542737239.317,77.148,37.598,42.480,49.805,40.039,0
1542737239.321,71.777,49.805,50.781,52.246,8.301,0
1542737239.324,68.359,39.551,47.363,58.105,1.953,0
1542737239.328,67.871,39.062,36.133,60.547,40.527,0
1542737239.332,62.012,37.109,28.320,60.059,39.551,0
1542737239.336,62.500,31.250,27.344,59.570,58.105,0
1542737239.340,69.336,29.785,26.855,63.965,61.035,0
1542737239.344,73.730,25.879,22.461,66.406,51.758,0
1542737239.348,72.266,37.598,19.531,63.477,92.773,0
1542737239.352,65.430,48.828,20.996,63.965,77.148,0
1542737239.356,57.617,48.340,16.602,55.176,43.457,0
1542737239.360,61.035,45.898,10.742,45.898,32.715,0
1542737239.364,64.453,47.852,18.555,46.387,-1.465,0
1542737239.367,64.941,52.246,35.156,46.387,26.855,0
1542737239.371,65.430,55.664,44.434,51.270,33.203,0
1542737239.375,63.965,58.105,43.945,56.152,33.691,0
1542737239.379,65.918,58.594,40.527,57.617,60.547,0
1542737239.383,72.754,46.875,39.062,62.988,42.969,0
1542737239.387,76.172,40.527,32.227,62.500,36.133,0
1542737239.391,65.430,52.734,26.367,43.945,16.602,0
1542737239.395,47.852,51.270,38.086,33.691,25.879,0
1542737239.399,49.316,43.945,49.316,38.086,59.082,0
1542737239.403,62.500,40.039,48.828,46.875,35.645,0
1542737239.406,58.594,41.504,47.363,43.945,12.695,0
1542737239.410,57.129,48.340,43.457,43.945,65.918,0
1542737239.414,58.594,39.062,36.133,44.434,98.145,0
1542737239.418,59.082,29.297,34.668,45.898,21.973,0
1542737239.422,57.617,34.668,34.668,53.711,-27.344,0
1542737239.426,60.547,40.039,20.020,53.711,-9.277,0
1542737239.430,69.824,37.109,10.254,54.199,12.695,0
1542737239.434,70.801,32.227,12.695,50.293,13.184,0
1542737239.438,67.871,27.832,10.742,41.504,59.082,0
1542737239.442,72.754,27.344,11.719,45.898,67.871,0
1542737239.446,71.289,34.180,16.113,48.340,12.695,0
1542737239.449,66.406,27.832,23.926,41.504,-9.277,0
1542737239.453,67.383,19.043,32.715,39.062,-9.277,0
1542737239.457,62.500,21.484,36.133,46.875,10.742,0
1542737239.461,59.570,26.855,36.621,53.711,6.348,0
1542737239.465,58.594,37.109,30.762,51.758,21.973,0
1542737239.469,55.176,40.527,20.508,54.199,61.523,0
1542737239.473,60.059,36.133,16.602,56.152,90.820,0
1542737239.477,61.035,40.039,10.742,52.246,76.172,0
1542737239.481,56.641,54.199,7.812,42.480,41.992,0
1542737239.485,58.105,57.617,16.602,43.945,30.273,0
1542737239.489,58.105,57.129,25.879,49.316,89.844,0
1542737239.492,56.152,58.594,23.438,45.898,72.266,0
1542737239.496,53.223,56.641,13.672,48.828,3.418,0
1542737239.500,50.781,58.594,14.648,55.664,114.746,0
1542737239.504,54.199,54.688,21.973,57.129,112.305,0
1542737239.508,59.082,42.480,26.855,54.688,27.344,0
1542737239.512,62.988,42.480,25.879,50.781,66.895,0
1542737239.516,60.547,38.086,29.297,47.363,38.574,0
1542737239.520,50.781,28.320,32.715,43.945,35.156,0
1542737239.524,46.875,37.109,40.527,39.551,66.895,0
1542737239.528,52.246,38.086,63.965,41.016,59.570,0
1542737239.531,44.434,32.715,70.312,46.875,33.203,0
1542737239.535,39.551,43.457,61.035,43.457,58.594,0
1542737239.539,41.504,47.363,55.176,38.574,63.965,0
1542737239.543,36.133,40.039,49.316,38.574,-12.695,0
1542737239.547,34.668,40.527,48.828,40.039,-3.906,0
1542737239.551,37.109,35.156,54.688,37.598,56.152,0
1542737239.555,34.668,33.691,46.875,33.691,55.176,0
1542737239.559,34.180,43.457,42.969,33.691,6.836,0
1542737239.563,35.156,50.781,40.527,31.738,7.324,0
1542737239.567,41.504,50.293,24.902,30.762,41.992,0
1542737239.571,64.941,53.711,19.531,48.340,67.383,0
1542737239.574,64.941,52.246,43.945,58.594,54.199,0
1542737239.578,36.621,46.387,54.199,38.086,7.324,0
1542737239.582,33.691,39.062,31.738,29.785,13.672,0
1542737239.586,40.527,26.367,30.273,37.598,38.086,0
1542737239.590,40.039,27.832,40.039,42.969,16.113,0
1542737239.594,35.156,27.344,28.809,41.992,3.906,0
1542737239.598,31.738,16.602,26.367,40.527,5.371,0
1542737239.602,31.250,14.648,29.785,35.645,31.738,0
1542737239.606,40.527,18.555,22.461,39.062,6.348,0
1542737239.610,49.805,22.461,29.297,47.363,-5.371,0
1542737239.614,49.805,32.227,41.992,44.434,29.297,0
1542737239.617,50.293,34.668,50.781,43.457,11.719,0
1542737239.621,50.781,27.344,53.711,50.781,60.059,0
1542737239.625,49.805,20.996,44.434,50.781,86.426,0
1542737239.629,46.875,21.484,39.062,50.293,52.734,0
1542737239.633,45.898,22.461,34.668,48.828,25.879,0
1542737239.637,43.457,27.344,28.320,41.504,22.949,0
1542737239.641,42.969,33.203,33.203,43.457,43.945,0
1542737239.645,45.898,33.203,36.133,49.805,31.250,0
1542737239.649,42.969,30.273,25.879,49.316,54.688,0
1542737239.653,43.945,17.090,19.531,44.922,57.617,0
1542737239.656,50.781,9.766,26.367,40.039,51.270,0
1542737239.660,55.664,14.160,37.109,39.062,50.293,0
1542737239.664,61.035,22.949,44.922,45.410,4.395,0
1542737239.668,62.988,32.227,43.945,54.199,40.527,0
1542737239.672,62.500,33.691,44.434,53.223,24.902,0
1542737239.676,58.594,35.156,45.410,46.387,-10.742,0
1542737239.680,53.223,37.109,31.738,46.387,80.566,0
1542737239.684,49.805,23.438,31.250,49.805,3.418,0
1542737239.688,45.898,16.602,35.156,51.270,-38.086,0
1542737239.692,49.316,21.973,25.879,47.852,3.418,0
1542737239.696,53.711,21.973,15.625,45.410,-23.926,0
1542737239.699,50.293,18.066,12.695,44.434,33.691,0
1542737239.703,49.316,24.414,11.230,45.410,-15.137,0
1542737239.707,51.758,26.855,11.230,50.781,-22.949,0
1542737239.711,49.805,25.391,18.066,49.316,73.242,0
1542737239.715,58.594,21.973,20.020,46.875,32.715,0
1542737239.719,60.059,17.578,12.695,44.434,26.367,0
1542737239.723,59.570,30.762,14.160,44.922,50.781,0
1542737239.727,67.383,38.574,22.949,51.758,41.992,0
1542737239.731,62.988,27.832,19.531,48.828,22.949,0
1542737239.735,56.152,18.555,19.043,42.480,34.180,0
1542737239.739,54.688,19.531,23.926,41.992,40.527,0
1542737239.742,55.176,23.438,25.879,39.551,25.879,0
1542737239.746,58.105,28.809,29.785,35.645,79.590,0
1542737239.750,56.641,31.250,29.297,34.668,47.852,0
1542737239.754,52.734,25.879,24.414,35.645,41.992,0
1542737239.758,54.688,20.996,14.648,35.156,78.613,0
1542737239.762,55.664,20.508,-1.953,34.180,38.086,0
1542737239.766,57.617,21.973,-0.977,33.203,13.184,0
1542737239.770,61.523,31.250,5.859,37.598,21.484,0
1542737239.774,59.570,44.434,2.441,37.598,66.895,0
1542737239.778,50.293,44.434,5.859,32.227,28.320,0
1542737239.781,49.316,35.156,15.137,35.645,20.508,0
1542737239.785,51.758,30.762,28.320,36.133,12.207,0
1542737239.789,46.387,34.668,41.992,34.180,-19.043,0
1542737239.793,45.410,37.598,36.133,40.039,7.324,0
1542737239.797,55.176,25.391,31.250,50.293,43.945,0
1542737239.801,65.918,26.855,32.715,52.246,31.250,0
1542737239.805,63.965,48.340,25.391,41.504,58.594,0
1542737239.809,49.805,55.176,18.066,27.832,88.867,0
1542737239.813,51.270,57.129,19.043,30.273,35.156,0
1542737239.817,54.199,59.082,18.555,30.762,15.625,0
1542737239.821,48.340,52.734,8.301,33.203,23.926,0
1542737239.824,47.852,45.410,0.977,31.250,8.301,0
1542737239.828,44.434,46.387,6.348,18.066,16.602,0
1542737239.832,48.340,47.852,18.066,30.762,77.148,0
1542737239.836,54.199,50.293,10.742,39.062,59.082,0
1542737239.840,54.199,57.617,6.348,28.320,19.531,0
1542737239.844,46.875,59.570,18.555,26.367,29.297,0
1542737239.848,42.480,57.617,24.902,26.855,31.738,0
1542737239.852,44.434,57.617,34.180,24.902,11.230,0
1542737239.856,52.246,61.035,39.062,27.832,8.301,0
1542737239.860,61.523,57.617,39.062,40.039,37.598,0
1542737239.864,63.965,47.852,42.969,51.758,45.898,0
1542737239.867,56.641,43.945,46.387,44.434,32.227,0
1542737239.871,56.641,45.898,50.293,41.504,9.766,0
1542737239.875,61.035,41.992,50.293,53.711,34.668,0
1542737239.879,62.988,43.945,44.922,58.105,21.484,0
1542737239.883,59.570,48.340,36.133,51.758,28.809,0
1542737239.887,52.734,47.852,31.738,46.387,59.570,0
1542737239.891,59.570,54.199,31.250,52.734,67.871,0
1542737239.895,67.383,52.246,31.738,57.129,49.316,0
1542737239.899,63.965,42.480,35.156,44.434,49.805,0
1542737239.903,62.012,42.480,26.367,40.527,9.766,0
1542737239.906,60.547,39.062,20.508,46.875,-4.395,0
1542737239.910,55.664,36.621,22.461,47.363,67.871,0
1542737239.914,58.594,44.434,20.508,48.828,49.316,0
1542737239.918,67.383,60.059,20.996,54.199,38.086,0
1542737239.922,69.824,60.059,17.578,56.641,33.691,0
1542737239.926,71.777,57.129,13.184,52.734,13.184,0
1542737239.930,77.637,68.359,21.484,57.129,30.273,0
1542737239.934,73.730,74.219,32.227,63.477,62.500,0
1542737239.938,63.477,69.824,29.297,58.105,88.867,0
1542737239.942,56.641,55.176,22.461,46.387,36.133,0
1542737239.946,59.570,39.062,25.391,39.551,9.766,0
1542737239.949,64.941,36.133,35.645,44.434,5.859,0
1542737239.953,61.523,40.039,37.109,50.293,-29.297,0
1542737239.957,56.641,39.062,30.762,50.781,23.438,0
1542737239.961,62.012,45.410,37.109,48.340,12.695,0
1542737239.965,66.406,49.316,43.457,45.898,31.738,0
1542737239.969,68.359,41.992,40.039,55.176,30.273,0
1542737239.973,74.219,35.156,30.762,63.965,53.223,0
1542737239.977,72.754,33.203,24.902,57.617,31.738,0
1542737239.981,68.359,40.527,36.621,51.758,17.090,0
1542737239.985,65.430,42.480,38.574,49.805,39.062,0
1542737239.989,70.312,45.898,33.203,48.828,25.879,0
1542737239.992,73.730,44.922,35.645,48.828,12.695,0
1542737239.996,66.406,31.250,28.320,52.734,-10.254,0
1542737240.000,62.012,19.043,19.043,52.246,40.527,0
1542737240.004,63.965,18.555,24.414,51.758,52.246,0
1542737240.008,68.359,20.020,22.949,51.270,19.531,0
1542737240.012,79.102,10.742,11.230,60.059,70.801,0
1542737240.016,81.543,21.973,2.930,59.082,124.023,0
1542737240.020,52.734,46.387,4.883,23.438,80.078,0
1542737240.024,45.898,44.434,3.906,17.578,78.125,0
1542737240.028,50.293,45.898,1.953,21.973,50.293,0
1542737240.031,46.875,52.734,2.441,20.020,12.207,0
1542737240.035,39.551,46.387,-0.977,7.324,61.523,0
1542737240.039,27.344,42.480,3.418,-0.488,69.824,0
1542737240.043,26.367,41.992,18.066,12.695,67.383,0
1542737240.047,24.414,37.598,21.973,14.160,42.969,0
1542737240.051,41.992,46.387,22.461,25.879,25.879,0
1542737240.055,49.316,53.223,24.902,34.180,65.430,0
1542737240.059,41.016,44.922,20.020,38.086,40.039,0
1542737240.063,35.156,37.109,17.578,36.621,17.090,0
1542737240.067,34.180,40.039,19.531,33.691,38.086,0
1542737240.071,38.086,41.016,15.137,35.156,60.059,0
1542737240.074,41.016,36.621,15.625,34.668,8.789,0
1542737240.078,45.898,37.109,26.367,38.086,28.809,0
1542737240.082,50.293,36.133,19.531,40.527,76.660,0
1542737240.086,58.594,34.180,4.883,46.387,56.641,0
1542737240.090,71.777,36.621,4.883,54.199,24.902,0
1542737240.094,80.078,49.316,11.230,53.223,7.812,0
1542737240.098,76.172,45.898,14.160,50.781,41.016,0
1542737240.102,73.730,43.457,26.367,50.293,41.504,0
1542737240.106,71.777,46.875,22.949,47.363,58.105,0
1542737240.110,66.406,41.016,18.066,41.992,49.316,0
1542737240.114,72.754,49.805,33.203,41.504,8.789,0
1542737240.117,74.219,56.641,41.504,46.875,15.137,0
1542737240.121,69.336,52.734,41.504,42.969,71.289,0
1542737240.125,68.359,41.504,38.086,37.598,76.660,0
1542737240.129,62.988,29.785,28.320,38.574,-10.742,0
1542737240.133,59.570,28.320,19.043,41.016,-15.625,0
1542737240.137,58.105,25.879,11.230,38.574,74.219,0
1542737240.141,57.129,26.855,6.836,36.621,110.352,0
1542737240.145,60.059,37.598,9.766,42.480,90.820,0
1542737240.149,63.965,45.898,21.973,49.805,48.828,0
1542737240.153,72.754,44.434,31.738,54.199,59.082,0
1542737240.156,68.359,29.297,25.879,45.898,27.832,0
1542737240.160,65.430,17.090,14.160,38.574,6.348,0
1542737240.164,84.961,22.949,1.465,52.246,72.266,0
1542737240.168,81.543,22.949,13.184,53.711,55.176,0
1542737240.172,50.781,15.137,31.738,32.715,-1.465,0
1542737240.176,48.828,22.461,24.902,36.621,21.484,0
1542737240.180,53.711,20.996,31.250,43.945,74.219,0
1542737240.184,40.039,7.324,43.945,28.809,32.227,0
1542737240.188,37.109,6.348,38.574,29.785,-5.859,0
1542737240.192,29.297,8.789,37.598,31.738,43.945,0
1542737240.196,30.273,16.113,33.203,35.156,79.590,0
1542737240.199,45.898,27.344,38.574,44.434,65.918,0
1542737240.203,47.363,36.133,40.039,39.062,20.508,0
1542737240.207,45.410,33.203,34.668,41.016,3.418,0
1542737240.211,54.199,32.715,36.133,48.340,8.789,0
1542737240.215,49.805,29.297,25.391,43.945,9.766,0
1542737240.219,41.016,28.320,8.301,37.598,12.207,0
1542737240.223,50.781,24.902,15.625,42.969,-25.879,0
1542737240.227,55.664,20.020,29.297,48.340,-43.457,0
1542737240.231,52.734,28.809,37.109,42.969,39.551,0
1542737240.235,57.617,37.109,41.992,46.875,113.281,0
1542737240.239,61.523,36.621,36.133,43.945,56.152,0
1542737240.242,60.059,33.203,33.203,27.832,6.348,0
1542737240.246,62.500,47.852,41.504,25.879,35.645,0
1542737240.250,65.918,51.270,46.875,37.109,24.414,0
1542737240.254,61.523,41.016,38.574,40.039,63.965,0
1542737240.258,53.223,45.898,33.691,39.551,32.227,0
1542737240.262,54.688,59.082,43.945,39.551,15.137,0
1542737240.266,53.223,57.617,56.641,40.527,72.754,0
1542737240.270,50.781,42.480,54.199,42.969,34.180,0
1542737240.274,55.664,29.785,53.711,39.551,32.227,0
1542737240.278,58.594,29.297,56.641,40.527,66.406,0
1542737240.281,55.664,31.250,54.199,46.875,19.043,0
1542737240.285,52.734,28.320,49.316,42.480,57.617,0
1542737240.289,53.223,41.504,40.039,35.645,80.078,0
1542737240.293,47.852,49.316,28.809,35.645,68.848,0
1542737240.297,37.598,30.762,18.555,33.691,70.801,0
1542737240.301,36.621,22.461,24.414,33.203,37.598,0
1542737240.305,45.410,33.691,32.227,36.133,40.527,0
1542737240.309,48.828,38.574,23.926,36.133,57.617,0
1542737240.313,46.875,34.668,21.973,39.551,48.828,0
1542737240.317,41.504,38.086,29.297,33.691,44.922,0
1542737240.321,41.504,38.086,30.762,27.832,61.523,0
1542737240.324,49.805,35.645,23.926,35.156,10.742,0
1542737240.328,46.387,31.250,18.066,33.691,-7.812,0
1542737240.332,40.039,28.809,17.578,27.344,15.625,0
1542737240.336,40.039,26.367,14.648,26.367,-4.395,0
1542737240.340,44.922,33.203,20.508,34.180,5.371,0
1542737240.344,45.898,39.551,23.926,38.086,19.531,0
1542737240.348,39.062,27.832,23.438,34.668,-0.977,0
1542737240.352,50.293,6.836,27.832,45.898,34.668,0
1542737240.356,61.035,8.789,34.180,53.223,41.992,0
1542737240.360,43.457,35.156,40.527,42.480,12.207,0
1542737240.364,21.973,40.039,36.133,20.020,0.000,0
1542737240.367,34.668,22.461,30.273,28.809,-14.160,0
1542737240.371,63.965,23.926,36.133,59.082,-8.789,0
1542737240.375,57.617,37.109,35.645,42.480,4.883,0
1542737240.379,51.758,34.668,27.344,31.250,25.391,0
1542737240.383,60.547,24.902,22.461,37.598,60.547,0
1542737240.387,57.129,17.578,21.973,43.457,83.984,0
1542737240.391,55.664,15.137,22.949,48.340,23.438,0
1542737240.395,55.664,8.301,19.531,40.527,33.203,0
1542737240.399,52.246,11.719,26.855,39.062,101.074,0
1542737240.403,54.688,21.973,36.621,40.039,27.832,0
1542737240.406,52.246,17.090,44.434,34.668,12.207,0
1542737240.410,51.270,16.113,46.387,30.762,0.977,0
1542737240.414,47.852,24.414,31.738,34.180,-3.906,0
1542737240.418,39.551,20.996,23.926,33.691,63.477,0
1542737240.422,43.945,18.555,19.043,28.320,56.152,0
1542737240.426,48.828,22.461,10.742,29.785,41.504,0
1542737240.430,52.246,35.645,5.371,34.668,15.625,0
1542737240.434,51.758,42.969,11.719,35.156,0.000,0
1542737240.438,43.945,41.992,25.391,35.156,42.480,0
1542737240.442,46.387,51.270,28.320,43.457,36.621,0
1542737240.446,53.223,54.199,30.762,52.246,65.918,0
1542737240.449,47.852,55.176,28.320,46.875,17.578,0
1542737240.453,40.527,54.199,15.137,37.109,0.977,0
1542737240.457,41.992,42.480,7.812,35.645,32.715,0
1542737240.461,45.410,42.969,9.277,41.016,21.484,0
1542737240.465,50.781,50.781,12.207,42.969,113.281,0
1542737240.469,50.293,48.828,13.672,31.250,100.586,0
1542737240.473,45.410,42.969,15.625,28.809,19.531,0
1542737240.477,44.922,46.387,24.414,43.457,-10.742,0
1542737240.481,45.410,46.387,21.484,43.945,-4.883,0
1542737240.485,49.805,38.574,10.254,39.551,20.508,0
1542737240.489,52.246,34.180,7.324,38.574,32.227,0
1542737240.492,58.105,37.598,12.695,40.039,34.668,0
1542737240.496,58.594,50.293,18.555,43.457,23.926,0
1542737240.500,56.152,48.340,33.203,51.758,-35.645,0
1542737240.504,70.801,34.180,44.922,63.477,3.418,0
1542737240.508,62.988,43.457,36.621,50.781,36.621,0
1542737240.512,39.551,52.246,27.344,26.367,15.137,0
1542737240.516,47.852,52.734,17.578,20.996,26.855,0
1542737240.520,51.270,48.828,9.766,28.320,56.152,0
1542737240.524,45.410,43.457,6.348,34.180,55.664,0
1542737240.528,50.781,41.992,15.625,35.645,13.672,0
1542737240.531,53.223,33.203,29.297,34.180,5.371,0
1542737240.535,54.688,36.621,40.527,35.645,-22.949,0
1542737240.539,56.152,44.922,51.270,45.410,-2.930,0
1542737240.543,50.781,36.621,40.039,47.363,11.230,0
1542737240.547,52.246,29.785,26.855,45.410,22.949,0
1542737240.551,58.105,36.621,28.320,43.945,53.711,0
1542737240.555,61.035,32.227,27.832,41.992,106.445,0
1542737240.559,60.547,28.809,31.250,33.691,114.746,0
1542737240.563,60.059,32.715,34.180,29.785,38.574,0
1542737240.567,58.594,32.715,27.832,36.621,18.066,0
1542737240.571,57.617,34.668,24.414,39.551,3.418,0
1542737240.574,58.105,36.621,35.156,42.480,-1.465,0
1542737240.578,57.129,35.156,40.527,49.316,22.461,0
1542737240.582,62.012,28.809,30.273,52.734,31.738,0
1542737240.586,68.359,33.203,22.949,51.270,28.809,0
1542737240.590,61.523,35.645,29.297,48.828,6.348,0
1542737240.594,61.035,34.180,26.855,52.734,24.902,0
1542737240.598,62.012,33.203,13.672,55.664,34.180,0
1542737240.602,58.594,26.367,4.883,50.781,38.574,0
1542737240.606,61.035,31.250,9.766,46.387,67.871,0
1542737240.610,64.941,38.086,17.578,46.387,41.016,0
1542737240.614,65.918,35.156,15.625,55.176,10.742,0
1542737240.617,60.059,37.109,13.184,61.035,13.672,0
1542737240.621,66.406,40.039,13.184,58.594,63.965,0
1542737240.625,72.266,42.480,13.184,61.035,39.551,0
1542737240.629,66.406,37.109,5.859,60.059,-18.066,0
1542737240.633,64.453,36.133,7.324,52.734,-9.766,0
1542737240.637,65.430,41.504,14.160,51.758,-30.273,0
1542737240.641,66.895,37.598,16.113,50.781,20.996,0
1542737240.645,70.312,36.133,23.438,55.176,50.781,0
1542737240.649,64.453,38.086,23.926,50.781,60.059,0
1542737240.653,58.594,41.504,25.391,42.480,65.918,0
1542737240.656,62.012,45.898,33.691,47.852,18.066,0
1542737240.660,56.641,46.875,38.086,49.805,34.180,0
1542737240.664,47.852,49.316,35.645,46.387,62.500,0
1542737240.668,54.688,58.105,36.133,45.410,60.059,0
1542737240.672,56.641,54.688,32.227,44.922,1.953,0
1542737240.676,50.293,41.992,21.973,37.109,-27.344,0
1542737240.680,55.176,40.039,21.973,37.109,31.738,0
1542737240.684,55.664,49.805,26.855,28.809,53.711,0
1542737240.688,54.199,59.570,27.344,20.020,3.418,0
1542737240.692,57.129,54.199,16.113,23.926,4.883,0
1542737240.696,59.570,44.434,5.371,21.973,24.414,0
1542737240.699,67.383,41.016,11.230,26.855,12.695,0
1542737240.703,69.824,40.039,19.531,29.785,45.410,0
1542737240.707,65.918,35.645,11.719,29.297,46.387,0
1542737240.711,64.453,30.273,6.836,34.668,60.059,0
1542737240.715,67.383,27.832,3.906,39.551,82.520,0
1542737240.719,60.547,19.531,14.648,37.598,43.945,0
1542737240.723,58.594,24.414,24.902,36.621,50.781,0
1542737240.727,87.402,41.504,23.438,58.594,84.473,0
1542737240.731,86.426,46.875,26.855,61.035,57.617,0
1542737240.735,52.734,45.410,36.621,33.203,51.270,0
1542737240.739,49.316,41.992,48.828,20.508,38.086,0
1542737240.742,52.246,29.785,58.105,21.973,1.465,0
1542737240.746,33.203,12.207,61.035,10.742,15.137,0
1542737240.750,17.578,10.254,56.641,1.465,82.520,0
1542737240.754,20.020,19.043,62.500,8.789,19.531,0
1542737240.758,12.207,20.020,60.547,2.441,1.953,0
1542737240.762,18.066,20.508,53.711,2.441,11.719,0
1542737240.766,37.109,28.809,64.453,13.184,18.066,0
1542737240.770,41.016,34.180,59.570,16.113,33.691,0
1542737240.774,40.527,33.691,47.363,20.020,35.156,0
1542737240.778,42.480,41.504,41.992,24.414,22.461,0
1542737240.781,38.086,40.039,37.598,27.344,-1.465,0
1542737240.785,34.668,30.273,25.879,26.367,61.523,0
1542737240.789,31.250,35.156,11.230,28.320,54.199,0
1542737240.793,31.738,45.410,9.277,36.621,33.691,0
1542737240.797,41.504,55.176,17.090,42.480,48.340,0
1542737240.801,46.387,53.223,16.602,41.016,16.602,0
1542737240.805,49.805,48.828,14.160,44.922,40.039,0
1542737240.809,49.316,52.246,18.555,51.758,63.477,0
1542737240.813,45.898,44.922,20.020,46.387,16.113,0
1542737240.817,52.246,44.434,20.020,38.086,73.242,0
1542737240.821,53.223,56.152,21.484,41.016,91.309,0
1542737240.824,47.363,49.805,17.578,42.480,49.805,0
1542737240.828,50.293,40.527,11.230,43.457,36.621,0
1542737240.832,53.223,48.340,14.160,45.898,48.340,0
1542737240.836,58.594,47.363,20.020,50.293,48.340,0
1542737240.840,57.617,40.527,17.578,51.270,17.090,0
1542737240.844,48.828,40.039,11.230,39.062,52.734,0
1542737240.848,53.711,32.227,14.648,34.180,19.531,0
1542737240.852,59.082,20.020,35.156,40.039,38.086,0
1542737240.856,49.805,25.879,50.781,39.551,-8.301,0
1542737240.860,50.293,35.645,31.250,39.551,-46.875,0
1542737240.864,50.293,29.297,10.742,40.527,26.855,0
1542737240.867,48.340,33.691,28.809,43.457,28.320,0
1542737240.871,50.781,49.316,41.016,46.387,26.855,0
1542737240.875,47.852,51.758,32.227,33.691,25.391,0
1542737240.879,53.223,55.664,31.738,26.855,0.000,0
1542737240.883,55.664,58.594,29.297,33.203,23.438,0
1542737240.887,51.758,50.781,23.438,33.691,74.707,0
1542737240.891,50.781,44.922,31.250,32.227,69.336,0
1542737240.895,49.805,47.363,40.039,31.738,13.672,0
1542737240.899,48.340,52.734,38.086,32.227,21.973,0
1542737240.903,48.828,61.035,30.273,32.715,-9.766,0
1542737240.906,52.246,62.012,18.066,36.133,6.836,0
1542737240.910,66.895,59.082,17.578,58.105,-6.348,0
1542737240.914,64.453,56.641,26.855,59.570,-20.996,0
1542737240.918,31.250,51.270,26.855,25.879,0.000,0
1542737240.922,20.020,42.480,4.883,14.160,-17.578,0
1542737240.926,33.691,45.410,-7.812,35.645,52.734,0
1542737240.930,33.203,46.387,-8.789,45.898,40.527,0
1542737240.934,25.391,30.762,-12.207,32.715,14.648,0
1542737240.938,31.738,20.508,-6.836,34.180,37.598,0
1542737240.942,33.691,22.949,0.488,45.410,69.336,0
1542737240.946,36.133,38.574,19.043,47.363,50.293,0
1542737240.949,46.387,33.691,28.809,47.363,24.414,0
1542737240.953,46.387,17.578,28.320,48.828,39.551,0
1542737240.957,38.086,12.695,28.809,41.992,68.359,0
1542737240.961,35.156,12.695,29.297,37.109,80.566,0
1542737240.965,34.180,7.812,37.109,40.527,46.875,0
1542737240.969,36.133,6.836,43.457,39.551,57.617,0
1542737240.973,42.480,15.625,46.387,46.387,44.434,0
1542737240.977,43.945,24.902,56.641,51.758,26.855,0
1542737240.981,46.875,40.039,60.059,44.434,64.453,0
1542737240.985,43.945,37.109,44.434,40.527,72.266,0
1542737240.989,42.480,20.020,36.621,43.457,54.688,0
1542737240.992,44.922,21.973,38.086,40.527,55.664,0
1542737240.996,41.992,26.367,37.598,41.504,30.273,0
1542737241.000,43.457,35.645,40.039,41.504,48.828,0
1542737241.004,43.457,50.293,49.805,38.086,77.637,0
1542737241.008,38.574,45.410,59.082,42.969,27.832,0
1542737241.012,39.062,43.457,60.547,47.852,-1.465,0
1542737241.016,37.598,42.480,63.477,50.293,22.461,0
1542737241.020,45.898,41.992,61.523,49.316,60.059,0
1542737241.024,52.246,57.129,39.551,41.016,4.395,0
1542737241.028,51.270,53.223,13.672,37.109,8.789,0
1542737241.031,54.199,40.527,-0.977,37.598,66.895,0
1542737241.035,52.734,41.016,-0.488,38.086,46.875,0
1542737241.039,58.594,49.805,9.277,41.504,49.316,0
1542737241.043,63.477,60.547,22.461,49.316,30.273,0
1542737241.047,54.688,47.852,25.879,42.969,25.879,0
1542737241.051,50.781,41.016,32.715,39.062,21.973,0
1542737241.055,54.688,41.992,47.852,43.457,-6.348,0
1542737241.059,53.223,37.109,37.598,48.340,43.457,0
1542737241.063,50.293,38.086,29.785,49.805,53.711,0
1542737241.067,48.828,33.203,38.086,41.016,11.719,0
1542737241.071,47.363,36.133,34.668,33.691,29.297,0
1542737241.074,51.758,42.969,39.062,39.062,6.836,0
1542737241.078,50.293,36.133,46.875,41.504,18.066,0
1542737241.082,48.828,33.691,40.039,44.434,48.828,0
1542737241.086,49.316,33.691,38.574,43.945,35.156,0
1542737241.090,50.293,32.715,59.570,39.062,24.902,0
1542737241.094,56.152,23.438,58.105,45.410,-3.906,0
1542737241.098,60.547,26.367,37.598,52.246,0.000,0
1542737241.102,47.363,47.852,45.410,35.645,34.668,0
1542737241.106,42.480,43.945,61.523,25.391,79.590,0
1542737241.110,45.410,42.480,53.711,27.832,39.551,0
1542737241.114,41.504,51.758,38.086,18.066,45.898,0
1542737241.117,46.387,47.852,46.875,20.996,41.992,0
1542737241.121,39.551,40.527,67.383,26.367,25.391,0
1542737241.125,36.621,36.133,69.824,30.273,-1.465,0
1542737241.129,47.363,48.828,62.988,42.969,18.066,0
1542737241.133,39.062,51.270,69.824,37.109,42.969,0
1542737241.137,40.039,45.898,55.664,30.273,-25.879,0
1542737241.141,44.922,49.316,46.387,33.203,14.648,0
1542737241.145,41.504,57.617,56.152,35.156,79.102,0
1542737241.149,30.273,54.688,52.246,25.879,32.227,0
1542737241.153,19.531,47.363,50.781,20.996,59.570,0
1542737241.156,28.809,51.758,47.363,26.367,53.711,0
1542737241.160,29.297,50.293,39.551,18.555,20.020,0
1542737241.164,22.461,52.734,50.293,17.578,-2.930,0
1542737241.168,22.461,56.152,49.316,20.508,1.465,0
1542737241.172,17.578,55.176,39.551,15.625,35.645,0
1542737241.176,14.648,53.223,46.875,12.207,24.902,0
1542737241.180,12.695,50.293,52.246,6.348,56.641,0
1542737241.184,-1.465,54.199,53.223,-3.906,64.453,0
1542737241.188,-11.719,64.941,46.387,-14.160,42.480,0
1542737241.192,-26.855,58.105,31.738,-33.691,28.320,0
1542737241.196,-43.457,53.223,44.922,-47.363,58.594,0
1542737241.199,-42.969,79.590,62.988,-48.828,22.949,0
1542737241.203,-51.270,103.516,59.570,-62.500,-16.113,0
1542737241.207,-56.641,120.605,64.453,-69.824,20.020,0
1542737241.211,-66.406,126.953,68.848,-78.613,68.848,0
1542737241.215,-87.891,122.559,80.566,-92.285,55.664,0
1542737241.219,-94.727,130.859,86.426,-104.004,74.707,0
1542737241.223,-92.773,138.672,78.125,-114.746,95.215,0
1542737241.227,-111.328,128.906,84.473,-123.535,85.449,0
1542737241.231,-125.488,125.977,101.074,-136.719,57.129,0
1542737241.235,-126.465,141.602,117.188,-143.066,9.766,0
1542737241.239,-130.371,140.137,117.188,-141.113,-6.348,0
1542737241.242,-136.230,126.465,113.770,-144.531,5.859,0
1542737241.246,-128.418,121.582,113.770,-133.301,-4.883,0
1542737241.250,-107.910,124.512,114.258,-112.305,16.602,0
1542737241.254,-98.145,115.723,114.746,-103.027,42.480,0
1542737241.258,-82.031,113.770,108.398,-89.844,43.457,0
1542737241.262,-65.918,99.609,101.074,-77.148,49.316,0
1542737241.266,-55.176,65.430,87.891,-62.500,61.523,0
1542737241.270,-34.668,62.500,69.336,-34.668,92.773,0
1542737241.274,-14.648,50.781,56.152,-20.020,67.383,0
1542737241.278,0.000,32.227,44.434,-4.395,16.113,0
1542737241.281,10.742,32.227,26.367,14.160,4.395,0
1542737241.285,22.461,26.855,10.742,21.484,14.160,0
1542737241.289,35.645,18.066,5.859,31.738,15.625,0
1542737241.293,48.828,24.902,0.000,44.434,9.277,0
1542737241.297,59.082,41.016,0.977,53.223,-3.906,0
1542737241.301,67.871,25.879,8.789,55.664,-5.859,0
1542737241.305,72.266,4.883,-4.395,63.477,22.461,0
1542737241.309,83.008,10.254,-10.742,70.312,43.945,0
1542737241.313,89.844,-2.930,-11.719,71.289,43.457,0
1542737241.317,92.773,-10.742,-12.207,79.102,69.336,0
1542737241.321,103.027,2.441,-2.930,88.867,26.367,0
1542737241.324,104.492,-2.441,3.906,88.867,27.344,0
1542737241.328,107.422,-9.766,12.207,92.773,8.789,0
1542737241.332,117.188,2.441,24.414,105.469,-1.953,0
1542737241.336,116.699,1.465,27.344,103.027,75.195,0
1542737241.340,117.188,-13.184,24.902,102.051,81.055,0
1542737241.344,120.117,-17.090,20.996,103.516,86.914,0
1542737241.348,127.441,-6.836,7.324,110.352,111.328,0
1542737241.352,131.348,-5.859,-2.441,115.234,83.008,0
1542737241.356,121.094,-17.090,-2.930,107.422,53.711,0
1542737241.360,107.910,-16.602,-4.883,108.887,26.367,0
1542737241.364,105.469,-12.207,-2.930,106.445,48.828,0
1542737241.367,109.863,0.488,10.254,110.352,42.969,0
1542737241.371,105.957,9.766,11.230,106.934,33.203,0
1542737241.375,103.027,14.648,11.719,101.074,15.625,0
1542737241.379,107.422,21.973,16.602,105.469,27.832,0
1542737241.383,102.051,26.855,2.930,100.586,66.406,0
1542737241.387,97.656,33.691,-13.672,92.773,80.566,0
1542737241.391,99.609,28.320,-9.277,93.262,44.434,0
1542737241.395,100.098,23.926,2.930,99.121,-35.156,0
1542737241.399,107.910,16.113,4.883,101.074,4.395,0
1542737241.403,114.258,22.949,-11.230,99.609,47.363,0
1542737241.406,94.238,53.711,-16.602,88.379,50.781,0
1542737241.410,82.031,53.223,-0.977,82.520,-10.254,0
1542737241.414,91.309,41.992,5.371,93.262,-7.324,0
1542737241.418,89.355,48.828,4.395,94.238,77.148,0
1542737241.422,86.426,44.434,2.930,91.797,33.691,0
1542737241.426,88.867,35.645,0.000,92.773,4.395,0
1542737241.430,88.867,34.668,-9.277,89.844,-5.371,0
1542737241.434,89.355,33.203,-6.836,89.844,9.766,0
1542737241.438,90.332,21.484,10.742,89.355,66.406,0
1542737241.442,85.449,12.695,22.461,83.008,47.363,0
1542737241.446,88.867,18.555,20.020,76.172,-6.836,0
1542737241.449,88.867,12.207,8.789,78.125,25.391,0
1542737241.453,80.078,9.766,3.906,81.055,57.129,0
1542737241.457,76.172,19.043,-2.441,64.941,25.391,0
1542737241.461,80.566,28.320,1.465,65.918,-4.395,0
1542737241.465,85.449,31.738,12.695,83.008,19.531,0
1542737241.469,78.613,16.113,16.113,81.055,46.875,0
1542737241.473,70.312,12.695,13.672,78.125,31.738,0
1542737241.477,66.406,19.043,18.066,77.637,10.742,0
1542737241.481,73.730,15.137,22.461,79.590,1.953,0
1542737241.485,79.590,12.695,18.066,82.520,46.387,0
1542737241.489,80.566,14.160,21.484,76.172,23.438,0
1542737241.492,79.590,15.625,24.902,74.707,19.043,0
1542737241.496,80.566,24.902,27.344,76.172,13.184,0
1542737241.500,83.496,25.879,30.762,83.496,-8.789,0
1542737241.504,82.520,27.344,23.926,84.473,27.344,0
1542737241.508,77.148,31.738,29.297,75.195,40.039,0
1542737241.512,72.266,29.297,41.016,75.195,22.461,0
1542737241.516,76.172,38.574,43.457,79.102,14.160,0
1542737241.520,76.660,36.621,45.898,79.590,-11.719,0
1542737241.524,72.754,25.879,39.062,74.707,-26.855,0
1542737241.528,72.754,34.668,25.391,66.406,46.387,0
1542737241.531,75.684,45.410,18.066,64.453,49.805,0
1542737241.535,79.590,38.086,21.973,67.383,26.855,0
1542737241.539,83.496,27.832,33.203,70.312,47.852,0
1542737241.543,83.008,23.926,30.273,74.707,68.848,0
1542737241.547,79.590,29.297,24.902,72.266,55.176,0
1542737241.551,75.684,31.250,26.855,69.336,25.391,0
1542737241.555,69.824,28.320,22.949,70.801,79.102,0
1542737241.559,62.012,32.227,25.391,66.406,77.637,0
1542737241.563,64.941,33.691,19.531,64.453,16.113,0
1542737241.567,63.965,24.902,5.859,59.082,43.457,0
1542737241.571,58.594,29.297,18.066,55.176,63.477,0
1542737241.574,56.152,34.668,24.414,54.688,22.461,0
1542737241.578,56.641,30.762,13.184,55.664,41.504,0
1542737241.582,56.152,24.902,5.371,53.223,90.820,0
1542737241.586,57.129,19.043,7.812,49.805,70.312,0
1542737241.590,62.500,19.531,24.414,54.688,54.199,0
1542737241.594,65.430,27.832,38.574,47.852,57.617,0
1542737241.598,62.012,28.809,47.363,40.039,22.461,0
1542737241.602,75.684,28.809,46.387,60.547,-8.789,0
1542737241.606,94.238,37.598,47.852,77.148,-22.461,0
1542737241.610,68.848,34.180,55.176,51.270,-20.996,0
1542737241.614,47.852,22.949,55.664,27.832,50.781,0
1542737241.617,51.758,19.531,54.688,30.273,100.586,0
1542737241.621,45.898,26.367,51.758,25.391,52.246,0
1542737241.625,43.945,41.016,49.316,18.555,4.395,0
1542737241.629,41.504,38.086,48.340,15.625,0.977,0
1542737241.633,45.898,40.527,42.480,21.484,30.762,0
1542737241.637,48.340,56.641,33.691,23.438,52.246,0
1542737241.641,44.922,53.223,31.250,26.855,66.895,0
1542737241.645,41.992,42.480,34.180,32.715,58.594,0
1542737241.649,37.598,35.645,28.809,29.785,39.551,0
1542737241.653,46.387,37.109,30.273,32.715,60.547,0
1542737241.656,43.457,46.875,29.297,30.273,21.484,0
1542737241.660,41.504,43.945,19.043,24.414,-8.789,0
1542737241.664,45.898,39.062,27.832,25.879,0.977,0
1542737241.668,43.945,48.828,36.621,29.785,29.297,0
1542737241.672,44.922,54.199,33.203,36.621,51.758,0
1542737241.676,51.270,58.594,31.250,42.480,30.762,0
1542737241.680,47.363,63.965,34.668,42.969,32.715,0
1542737241.684,48.340,62.012,24.414,44.922,13.184,0
1542737241.688,52.246,51.758,14.648,52.246,50.293,0
1542737241.692,45.898,44.434,15.137,65.430,58.594,0
1542737241.696,47.852,53.223,22.949,60.059,28.809,0
1542737241.699,55.664,54.688,33.691,29.297,0.488,0
1542737241.703,61.523,47.363,31.250,21.973,14.160,0
1542737241.707,64.453,44.434,25.879,30.762,38.086,0
1542737241.711,61.523,42.969,24.902,27.832,71.777,0
1542737241.715,61.523,48.340,23.926,26.367,39.062,0
1542737241.719,61.035,59.082,20.996,37.598,-47.852,0
1542737241.723,56.641,55.664,19.531,40.039,5.859,0
1542737241.727,57.129,48.828,17.090,38.086,63.965,0
1542737241.731,54.688,54.688,17.578,41.016,43.945,0
1542737241.735,49.805,56.641,24.414,45.898,73.242,0
1542737241.739,50.293,59.082,24.902,47.852,124.512,0
1542737241.742,49.805,50.781,24.902,43.945,74.219,0
1542737241.746,50.293,49.316,15.625,43.457,58.105,0
1542737241.750,59.082,54.199,8.789,51.758,41.504,0
1542737241.754,62.988,49.316,12.207,53.223,4.395,0
1542737241.758,67.383,59.570,17.090,52.734,-16.113,0
1542737241.762,72.266,70.801,28.320,54.199,-5.859,0
1542737241.766,64.453,61.523,26.855,50.293,28.320,0
1542737241.770,70.801,57.129,29.785,53.711,65.430,0
1542737241.774,70.801,58.594,26.367,45.410,47.363,0
1542737241.778,58.105,39.551,18.066,34.668,28.809,0
1542737241.781,61.035,30.273,29.785,48.340,71.777,0
1542737241.785,64.941,35.645,32.227,54.688,52.734,0
1542737241.789,63.965,39.551,33.691,45.898,-14.648,0
1542737241.793,59.082,32.715,29.297,39.062,-12.207,0
1542737241.797,59.082,31.250,27.344,43.457,-27.832,0
1542737241.801,61.523,39.062,34.668,50.781,-22.949,0
1542737241.805,57.129,32.715,28.809,48.828,36.133,0
1542737241.809,50.781,28.320,21.484,44.434,36.621,0
1542737241.813,45.898,40.527,20.996,48.828,29.785,0
1542737241.817,48.340,49.316,26.855,46.875,41.992,0
1542737241.821,46.387,45.898,20.996,38.574,41.504,0
1542737241.824,43.945,43.945,15.625,40.527,74.219,0
1542737241.828,41.992,45.410,18.066,40.527,49.316,0
1542737241.832,37.109,49.316,15.137,36.621,1.953,0
1542737241.836,37.598,47.852,20.996,40.039,-7.812,0
1542737241.840,40.039,47.363,26.855,42.969,-19.043,0
1542737241.844,39.062,48.340,10.742,43.457,-0.977,0
1542737241.848,43.457,49.805,-1.465,44.434,5.859,0
1542737241.852,51.270,48.828,5.371,42.480,29.785,0
1542737241.856,52.246,39.062,4.883,45.410,61.523,0
1542737241.860,55.664,34.668,11.230,42.480,40.039,0
1542737241.864,56.641,44.434,21.973,41.504,30.762,0
1542737241.867,62.012,51.758,21.484,50.293,103.516,0
