timestamps,TP9,AF7,AF8,TP10,Right AUX,Marker0
1553804626.098,13.672,8.301,21.484,40.527,73.242,0
1553804626.102,21.484,17.090,22.949,29.785,61.035,0
1553804626.106,35.645,15.625,26.367,6.348,58.105,0
1553804626.110,21.973,14.648,34.668,13.184,15.625,0
1553804626.114,20.508,19.531,32.715,20.020,49.316,0
1553804626.118,20.996,18.555,16.602,27.832,80.566,0
1553804626.121,33.691,17.578,9.766,13.184,10.254,0
1553804626.125,27.344,19.531,12.207,-0.488,44.434,0
1553804626.129,16.113,18.555,16.113,37.109,10.742,0
1553804626.133,39.551,22.949,22.949,41.992,-31.738,0
1553804626.137,56.152,28.320,26.855,22.461,31.250,0
1553804626.141,66.895,25.391,27.344,26.855,8.301,0
1553804626.145,58.594,21.484,27.832,40.039,-46.387,0
1553804626.149,39.551,27.832,36.133,53.223,-42.480,0
1553804626.153,55.176,27.832,32.715,62.012,-58.105,0
1553804626.157,54.688,21.973,21.973,50.781,-31.250,0
1553804626.161,23.438,19.531,26.367,25.391,8.301,0
1553804626.164,14.160,-0.977,25.879,20.996,-4.883,0
1553804626.168,21.973,1.953,28.320,44.434,-1.465,0
1553804626.172,49.316,31.738,29.297,53.223,4.395,0
1553804626.176,44.922,33.691,21.973,71.289,-14.648,0
1553804626.180,18.555,28.320,24.414,54.688,-48.340,0
1553804626.184,49.316,25.879,23.926,13.672,-46.387,0
1553804626.188,88.379,24.902,17.578,26.855,12.207,0
1553804626.192,72.754,21.973,21.484,44.922,9.766,0
1553804626.196,48.828,27.832,25.879,39.062,-23.926,0
1553804626.200,36.621,37.598,31.250,57.129,21.484,0
1553804626.203,46.387,31.250,30.273,78.613,92.285,0
1553804626.207,53.711,28.809,20.508,69.336,43.945,0
1553804626.211,23.438,27.832,20.020,50.293,42.969,0
1553804626.215,29.297,27.344,25.391,26.855,87.891,0
1553804626.219,51.758,27.832,31.250,42.480,76.172,0
1553804626.223,48.340,19.531,30.273,70.312,40.527,0
1553804626.227,44.922,11.719,26.367,43.457,8.789,0
1553804626.231,33.203,8.301,28.809,38.574,36.133,0
1553804626.235,51.758,17.090,32.227,57.617,8.301,0
1553804626.239,83.008,35.156,35.156,52.734,-6.836,0
1553804626.243,56.152,37.109,40.039,52.734,36.133,0
1553804626.246,14.160,26.855,38.086,53.711,50.293,0
1553804626.250,32.227,26.855,33.203,46.875,33.203,0
1553804626.254,59.570,34.180,27.832,34.180,-5.859,0
1553804626.258,22.461,30.762,27.344,12.207,-21.973,0
1553804626.262,-35.156,27.344,35.156,20.020,16.602,0
1553804626.266,-38.086,31.250,40.039,22.949,26.367,0
1553804626.270,5.371,26.367,40.527,-1.953,-2.441,0
1553804626.274,18.555,21.973,38.086,-5.371,14.648,0
1553804626.278,-1.953,14.648,34.668,-10.254,66.895,0
1553804626.282,-18.555,-0.488,34.180,-42.480,43.457,0
1553804626.286,-12.695,20.020,38.086,-46.387,44.434,0
1553804626.289,3.418,57.617,37.109,-16.113,19.531,0
1553804626.293,-15.625,43.945,26.855,-22.461,32.715,0
1553804626.297,-45.410,21.484,15.625,-30.762,21.484,0
1553804626.301,-37.109,35.645,13.672,-53.711,-25.391,0
1553804626.305,7.324,39.551,12.207,-48.340,24.414,0
1553804626.309,0.977,39.062,20.996,-28.320,6.836,0
1553804626.313,-26.367,41.016,25.879,-22.461,18.066,0
1553804626.317,-15.137,38.086,27.832,4.883,103.027,0
1553804626.321,20.996,31.250,31.250,13.184,67.871,0
1553804626.325,21.484,24.414,28.320,-19.043,-4.883,0
1553804626.328,-9.766,24.902,27.344,-38.574,-0.977,0
1553804626.332,-6.348,27.344,26.855,-28.320,53.223,0
1553804626.336,18.555,25.879,25.391,-22.949,56.152,0
1553804626.340,20.508,23.438,27.344,-6.348,10.742,0
1553804626.344,19.043,24.414,27.832,-8.301,27.832,0
1553804626.348,3.418,28.809,25.879,-10.742,69.336,0
1553804626.352,9.766,25.391,22.461,-5.859,60.059,0
1553804626.356,39.551,20.996,23.438,-18.555,10.742,0
1553804626.360,22.949,24.414,30.273,-28.809,-3.418,0
1553804626.364,-10.254,16.602,36.621,-23.438,-7.812,0
1553804626.368,20.996,0.488,32.715,0.977,18.555,0
1553804626.371,46.875,26.855,26.855,24.414,35.156,0
1553804626.375,30.762,40.527,28.320,21.973,7.812,0
1553804626.379,-4.395,26.855,20.996,9.277,28.809,0
1553804626.383,-0.488,29.297,18.066,41.016,38.086,0
1553804626.387,62.988,35.156,25.391,49.316,25.879,0
1553804626.391,59.082,25.879,28.809,25.879,24.414,0
1553804626.395,35.156,18.066,25.391,11.230,70.801,0
1553804626.399,41.504,26.855,20.996,-8.789,34.180,0
1553804626.403,62.500,30.273,31.250,1.465,-13.672,0
1553804626.407,67.871,26.367,42.480,23.438,41.016,0
1553804626.411,41.992,19.531,32.715,20.508,102.051,0
1553804626.414,13.672,13.184,22.461,10.742,76.660,0
1553804626.418,23.438,8.301,25.391,23.438,-9.766,0
1553804626.422,58.105,16.113,26.855,35.645,-29.297,0
1553804626.426,39.062,32.715,27.832,29.297,-0.977,0
1553804626.430,41.992,36.621,32.227,12.207,12.207,0
1553804626.434,42.969,35.156,32.227,-9.277,15.625,0
1553804626.438,17.090,29.785,25.879,-15.137,-21.484,0
1553804626.442,4.395,31.738,26.855,1.465,-43.945,0
1553804626.446,-2.441,35.156,39.062,1.465,0.488,0
1553804626.450,9.766,19.531,38.086,-9.766,50.781,0
1553804626.453,19.531,15.625,30.273,8.789,24.414,0
1553804626.457,30.273,32.715,18.555,4.395,24.414,0
1553804626.461,19.043,34.180,16.602,-0.977,22.461,0
1553804626.465,-10.742,30.762,19.531,-2.441,28.320,0
1553804626.469,7.324,25.879,19.531,-12.695,59.570,0
1553804626.473,33.203,16.602,23.926,9.277,48.828,0
1553804626.477,-0.488,19.531,23.438,10.742,85.938,0
1553804626.481,-21.973,28.320,16.113,-15.137,69.824,0
1553804626.485,13.672,28.809,22.949,13.184,65.918,0
1553804626.489,49.805,31.738,23.438,60.547,102.539,0
1553804626.493,25.391,30.762,19.531,24.414,71.777,0
1553804626.496,-5.371,22.461,24.414,-16.602,70.801,0
1553804626.500,21.973,18.066,28.320,-13.184,71.289,0
1553804626.504,47.852,26.367,25.391,2.930,24.414,0
1553804626.508,34.668,29.785,30.273,23.438,-11.230,0
1553804626.512,18.555,31.250,35.645,3.418,37.109,0
1553804626.516,28.320,36.133,27.832,19.531,114.746,0
1553804626.520,34.668,33.203,20.508,36.133,38.086,0
1553804626.524,16.113,32.715,17.090,21.484,6.836,0
1553804626.528,2.441,42.969,20.996,25.391,-33.203,0
1553804626.532,15.137,42.969,23.438,38.086,-14.160,0
1553804626.536,35.645,37.598,20.020,41.016,54.688,0
1553804626.539,46.387,29.297,22.461,61.035,-22.949,0
1553804626.543,49.805,20.020,20.020,72.754,-44.434,0
1553804626.547,29.297,19.043,13.184,59.570,12.695,0
1553804626.551,20.020,28.320,16.602,20.996,58.105,0
1553804626.555,33.691,34.180,20.996,6.836,41.504,0
1553804626.559,32.715,35.156,22.949,11.230,4.883,0
1553804626.563,26.367,29.785,25.879,8.789,50.293,0
1553804626.567,54.199,29.785,24.414,30.273,91.309,0
1553804626.571,83.984,33.691,19.531,36.133,47.363,0
1553804626.575,85.938,36.621,19.531,30.273,28.320,0
1553804626.578,48.340,41.016,30.273,36.133,33.691,0
1553804626.582,19.531,23.926,39.062,36.621,3.906,0
1553804626.586,41.016,14.160,40.039,40.039,-28.809,0
1553804626.590,59.570,13.672,42.480,56.152,-6.348,0
1553804626.594,29.297,6.836,38.086,40.527,41.016,0
1553804626.598,-28.320,-0.488,36.133,19.531,42.480,0
1553804626.602,-12.207,-9.766,42.480,-6.348,2.441,0
1553804626.606,18.555,-15.137,50.781,33.203,1.953,0
1553804626.610,-4.395,-17.090,48.340,41.016,7.812,0
1553804626.614,-11.719,-21.973,40.527,-11.230,60.547,0
1553804626.618,13.184,-24.414,41.504,15.137,86.914,0
1553804626.621,24.414,-20.020,42.969,35.156,40.527,0
1553804626.625,13.184,-7.324,36.133,9.766,84.473,0
1553804626.629,2.441,3.906,31.250,41.504,72.266,0
1553804626.633,9.766,2.930,31.250,67.871,55.664,0
1553804626.637,42.480,-1.465,22.461,20.508,86.914,0
1553804626.641,71.289,2.441,22.949,59.082,39.551,0
1553804626.645,52.734,11.719,28.809,93.262,44.434,0
1553804626.649,29.297,12.207,31.738,19.531,32.715,0
1553804626.653,64.453,11.719,33.691,11.230,26.855,0
1553804626.657,83.984,8.301,28.809,28.320,23.438,0
1553804626.661,56.641,1.953,29.785,56.152,4.883,0
1553804626.664,58.105,5.371,27.832,71.777,59.082,0
1553804626.668,62.500,15.137,21.973,11.230,37.598,0
1553804626.672,43.457,21.973,23.438,22.461,43.945,0
1553804626.676,45.410,23.926,33.203,48.340,22.461,0
1553804626.680,65.918,24.902,34.180,19.043,-52.246,0
1553804626.684,71.289,21.973,28.320,37.109,3.906,0
1553804626.688,79.590,23.438,25.391,79.590,-48.828,0
1553804626.692,93.262,28.320,20.996,95.703,-32.715,0
1553804626.696,55.176,28.809,21.973,53.711,36.621,0
1553804626.700,60.547,28.320,21.484,-0.488,14.160,0
1553804626.703,126.953,30.762,16.602,11.230,4.395,0
1553804626.707,121.094,32.227,18.066,41.992,26.367,0
1553804626.711,69.336,27.344,23.926,67.871,37.109,0
1553804626.715,61.035,25.391,22.949,34.180,-5.859,0
1553804626.719,91.797,24.414,20.020,21.973,-11.719,0
1553804626.723,112.793,25.391,23.438,79.102,32.227,0
1553804626.727,106.445,23.926,26.855,80.566,13.184,0
1553804626.731,82.520,21.484,27.344,29.297,-37.598,0
1553804626.735,103.027,23.926,22.949,39.551,20.020,0
1553804626.739,116.699,24.902,21.484,86.914,53.711,0
1553804626.743,59.570,24.414,27.344,68.359,44.434,0
1553804626.746,64.941,18.066,28.809,27.344,45.410,0
1553804626.750,101.562,17.090,28.809,39.062,4.883,0
1553804626.754,116.699,20.508,27.832,43.457,25.391,0
1553804626.758,122.559,27.344,24.414,67.383,100.586,0
1553804626.762,83.984,37.598,20.996,62.012,60.059,0
1553804626.766,81.055,38.086,23.438,64.941,-32.715,0
1553804626.770,105.957,32.715,31.250,61.035,-1.953,0
1553804626.774,117.676,32.715,32.715,48.828,26.367,0
1553804626.778,104.492,33.203,29.297,39.551,-26.367,0
1553804626.782,97.168,27.344,28.320,34.668,-29.785,0
1553804626.786,98.145,18.555,29.297,57.129,21.973,0
1553804626.789,98.633,12.207,27.344,88.867,62.012,0
1553804626.793,89.844,23.926,21.973,84.961,33.203,0
1553804626.797,78.613,31.738,21.484,36.133,34.180,0
1553804626.801,109.375,30.273,20.508,40.039,34.180,0
1553804626.805,109.863,30.762,22.461,62.500,68.359,0
1553804626.809,83.984,32.227,22.949,40.527,78.125,0
1553804626.813,72.754,25.879,27.832,27.344,33.203,0
1553804626.817,64.453,24.414,29.785,48.340,32.227,0
1553804626.821,73.242,28.320,21.973,72.754,17.578,0
1553804626.825,87.891,26.855,23.438,58.594,12.207,0
1553804626.828,67.383,29.785,28.320,28.320,-1.465,0
1553804626.832,54.688,37.109,25.879,39.062,7.324,0
1553804626.836,68.848,38.086,22.949,62.500,3.418,0
1553804626.840,83.496,32.715,25.391,57.617,16.602,0
1553804626.844,79.102,35.156,28.809,59.082,19.531,0
1553804626.848,53.711,37.109,29.785,54.688,19.531,0
1553804626.852,46.875,34.668,27.832,53.223,67.871,0
1553804626.856,79.102,34.668,28.809,75.195,41.016,0
1553804626.860,72.266,31.250,30.762,60.547,-35.156,0
1553804626.864,36.133,29.297,27.832,42.480,11.719,0
1553804626.868,41.504,29.297,30.273,47.363,72.266,0
1553804626.871,76.172,24.902,29.785,46.875,3.906,0
1553804626.875,68.359,24.902,29.297,39.062,5.859,0
1553804626.879,35.645,26.855,30.273,43.457,14.648,0
1553804626.883,32.715,27.832,22.461,29.297,1.953,0
1553804626.887,44.922,29.785,20.996,34.668,11.719,0
1553804626.891,52.246,30.273,24.902,64.941,25.391,0
1553804626.895,35.156,29.297,22.461,50.293,62.012,0
1553804626.899,23.438,24.414,25.879,38.574,39.062,0
1553804626.903,61.523,23.926,27.344,50.293,-12.695,0
1553804626.907,71.777,25.391,26.855,45.410,29.297,0
1553804626.911,29.785,20.020,24.414,47.852,8.301,0
1553804626.914,5.371,16.602,21.973,50.293,11.230,0
1553804626.918,14.648,20.996,21.484,83.008,53.711,0
1553804626.922,41.992,22.949,22.461,72.754,-14.648,0
1553804626.926,45.898,19.043,22.949,26.855,20.996,0
1553804626.930,29.785,21.973,21.973,30.762,61.523,0
1553804626.934,42.480,29.297,24.902,36.621,-4.395,0
1553804626.938,67.871,31.738,27.344,55.176,-9.766,0
1553804626.942,43.457,29.785,23.926,52.246,40.039,0
1553804626.946,14.648,25.391,18.066,51.758,23.926,0
1553804626.950,40.039,25.391,15.625,48.340,1.465,0
1553804626.953,56.152,27.832,17.090,46.387,45.410,0
1553804626.957,36.621,23.438,23.926,83.984,18.555,0
1553804626.961,22.461,21.484,26.367,50.293,-18.066,0
1553804626.965,26.855,20.996,23.438,10.742,10.742,0
1553804626.969,59.082,22.949,25.879,40.527,62.500,0
1553804626.973,62.500,22.461,30.762,46.875,52.246,0
1553804626.977,24.414,14.648,33.203,35.645,24.414,0
1553804626.981,28.320,18.066,32.227,59.082,19.531,0
1553804626.985,53.711,18.555,34.668,96.680,42.480,0
1553804626.989,60.059,17.090,38.574,82.031,78.125,0
1553804626.993,47.852,20.508,34.180,35.645,94.727,0
1553804626.996,38.086,22.949,24.902,14.648,59.082,0
1553804627.000,58.105,27.344,25.391,39.062,43.457,0
1553804627.004,93.750,32.715,29.785,55.664,45.410,0
1553804627.008,79.102,33.203,29.785,42.480,20.508,0
1553804627.012,30.273,30.762,29.785,47.852,16.602,0
1553804627.016,41.504,28.809,32.227,56.641,22.949,0
1553804627.020,67.871,27.832,36.133,61.523,47.363,0
1553804627.024,78.125,27.344,34.668,53.223,49.805,0
1553804627.028,49.316,29.297,31.738,50.293,41.504,0
1553804627.032,36.133,31.250,35.156,32.227,33.203,0
1553804627.036,69.336,26.855,35.156,68.359,97.656,0
1553804627.039,64.453,20.508,33.691,61.523,126.465,0
1553804627.043,41.504,18.555,31.738,7.324,48.340,0
1553804627.047,29.785,24.902,29.785,25.391,23.926,0
1553804627.051,42.969,29.785,26.367,34.668,58.594,0
1553804627.055,73.730,24.414,24.902,38.086,32.227,0
1553804627.059,70.312,22.461,31.738,40.039,29.297,0
1553804627.063,43.457,20.996,29.785,41.504,27.832,0
1553804627.067,51.758,16.113,27.832,32.715,3.906,0
1553804627.071,62.988,21.484,30.762,37.598,46.875,0
1553804627.075,68.359,27.344,31.250,29.785,59.082,0
1553804627.078,67.383,30.273,30.762,28.809,4.883,0
1553804627.082,41.504,32.227,25.879,17.578,15.625,0
1553804627.086,69.824,28.320,21.484,4.883,56.152,0
1553804627.090,78.613,28.320,19.531,24.414,59.570,0
1553804627.094,20.508,26.855,20.020,29.297,17.090,0
1553804627.098,23.926,27.344,22.949,14.160,-35.645,0
1553804627.102,78.125,33.691,26.855,21.484,-16.602,0
1553804627.106,100.586,29.297,24.414,44.434,29.297,0
1553804627.110,63.477,23.926,26.855,62.988,83.496,0
1553804627.114,50.293,26.367,27.832,26.367,80.566,0
1553804627.118,88.379,27.344,22.949,25.879,-12.695,0
1553804627.121,77.637,25.391,26.367,51.758,-25.391,0
1553804627.125,62.988,28.320,25.879,65.430,-0.977,0
1553804627.129,44.434,28.809,25.391,35.645,18.066,0
1553804627.133,25.391,29.297,25.391,11.230,-10.742,0
1553804627.137,66.895,29.297,24.414,52.246,-14.648,0
1553804627.141,75.684,27.344,24.902,25.879,-13.672,0
1553804627.145,56.152,24.414,27.832,51.270,28.320,0
1553804627.149,54.199,19.043,29.297,48.340,51.758,0
1553804627.153,98.633,20.996,28.320,29.785,13.184,0
1553804627.157,113.281,29.297,27.832,52.246,5.859,0
1553804627.161,56.641,32.715,27.344,21.484,-10.254,0
1553804627.164,40.039,28.809,26.855,-5.859,16.602,0
1553804627.168,74.707,25.391,24.902,5.859,97.168,0
1553804627.172,79.102,25.879,23.926,38.086,85.938,0
1553804627.176,31.738,27.344,25.391,32.715,55.176,0
1553804627.180,32.715,29.297,28.809,21.484,68.848,0
1553804627.184,63.965,28.320,30.273,36.621,18.066,0
1553804627.188,91.309,25.391,30.762,36.621,17.578,0
1553804627.192,99.609,24.414,32.715,33.691,73.242,0
1553804627.196,59.082,22.949,28.320,17.578,83.984,0
1553804627.200,33.203,22.949,23.438,-8.789,36.133,0
1553804627.203,61.523,23.926,22.949,26.855,-30.273,0
1553804627.207,65.430,23.926,25.879,49.805,47.852,0
1553804627.211,53.223,24.414,27.832,20.996,40.039,0
1553804627.215,56.152,23.926,33.691,4.395,1.465,0
1553804627.219,54.199,23.926,33.203,27.832,-24.414,0
1553804627.223,68.848,23.926,27.344,70.801,-40.039,0
1553804627.227,53.711,23.926,26.855,57.617,8.301,0
1553804627.231,26.855,26.367,28.809,12.207,3.906,0
1553804627.235,61.523,29.297,26.855,14.648,-6.836,0
1553804627.239,109.863,33.691,26.367,28.809,-25.879,0
1553804627.243,72.754,32.227,26.367,32.715,-18.555,0
1553804627.246,3.906,24.902,23.926,12.695,21.973,0
1553804627.250,34.180,25.391,28.320,-23.926,1.465,0
1553804627.254,69.824,29.785,29.785,41.016,0.977,0
1553804627.258,55.176,23.926,28.320,59.082,19.531,0
1553804627.262,55.176,23.926,27.344,-5.371,-1.953,0
1553804627.266,39.062,35.156,24.902,-4.883,54.688,0
1553804627.270,43.945,37.109,25.879,2.930,44.922,0
1553804627.274,37.109,34.180,27.832,22.949,-49.805,0
1553804627.278,-6.836,33.691,24.414,41.992,-19.043,0
1553804627.282,-3.418,31.738,18.555,15.137,71.289,0
1553804627.286,40.039,29.785,20.508,47.363,113.281,0
1553804627.289,81.055,20.508,23.438,74.219,49.316,0
1553804627.293,81.055,13.672,24.414,2.441,39.062,0
1553804627.297,51.270,21.973,30.273,-8.301,43.457,0
1553804627.301,38.086,24.414,34.668,32.715,29.785,0
1553804627.305,22.461,24.902,30.762,38.574,27.832,0
1553804627.309,11.719,24.902,26.855,19.531,-4.395,0
1553804627.313,13.184,24.902,23.926,9.766,16.602,0
1553804627.317,35.156,29.297,20.020,29.297,50.781,0
1553804627.321,57.129,33.691,21.484,38.086,3.906,0
1553804627.325,60.059,32.227,18.066,28.320,43.457,0
1553804627.328,33.203,23.438,14.648,20.020,75.195,0
1553804627.332,-8.301,25.391,21.484,33.691,8.301,0
1553804627.336,33.691,35.645,30.273,40.527,35.156,0
1553804627.340,78.125,32.715,31.250,46.875,33.691,0
1553804627.344,45.898,30.273,25.391,34.668,-19.531,0
1553804627.348,21.484,31.738,23.926,18.066,4.883,0
1553804627.352,27.832,28.809,25.391,37.598,43.945,0
1553804627.356,51.270,26.367,26.367,59.570,33.691,0
1553804627.360,35.156,26.367,28.320,71.289,23.438,0
1553804627.364,20.508,28.809,27.832,33.691,0.977,0
1553804627.368,34.180,33.203,25.391,15.137,-18.066,0
1553804627.371,17.090,31.250,23.438,50.293,12.207,0
1553804627.375,14.160,26.367,23.926,41.992,58.105,0
1553804627.379,25.391,22.461,20.996,7.324,34.180,0
1553804627.383,30.273,25.391,20.508,19.531,9.277,0
1553804627.387,57.129,35.156,25.391,62.500,-3.418,0
1553804627.391,69.824,36.133,27.344,60.059,26.367,0
1553804627.395,18.555,35.645,26.367,22.949,70.801,0
1553804627.399,6.836,36.621,23.438,11.719,37.109,0
1553804627.403,46.387,28.809,23.926,41.016,2.930,0
1553804627.407,53.711,20.996,25.391,38.574,38.086,0
1553804627.411,34.668,23.438,24.414,22.461,68.848,0
1553804627.414,7.324,20.996,20.020,35.645,75.684,0
1553804627.418,0.000,18.555,24.902,35.156,63.965,0
1553804627.422,36.621,31.250,31.250,49.805,39.551,0
1553804627.426,29.297,37.598,27.832,43.457,41.504,0
1553804627.430,7.812,32.715,23.926,21.484,14.160,0
1553804627.434,25.391,29.297,22.949,39.551,-28.809,0
1553804627.438,40.039,28.809,22.461,32.227,-38.574,0
1553804627.442,30.273,33.203,19.043,7.324,-59.082,0
1553804627.446,18.555,37.598,15.137,27.344,-9.766,0
1553804627.450,20.996,34.180,20.508,40.527,13.672,0
1553804627.453,36.133,32.715,24.902,24.414,16.113,0
1553804627.457,41.016,32.715,24.902,12.207,34.180,0
1553804627.461,8.301,34.180,29.297,28.809,8.301,0
1553804627.465,-0.488,37.109,31.738,34.180,9.766,0
1553804627.469,37.109,33.691,27.344,28.809,12.207,0
1553804627.473,62.500,25.391,25.879,32.715,-18.555,0
1553804627.477,36.133,23.438,26.367,28.320,-23.438,0
1553804627.481,7.324,25.879,27.832,22.949,18.555,0
1553804627.485,27.832,24.902,23.926,7.812,58.105,0
1553804627.489,65.918,25.879,25.879,15.625,-18.555,0
1553804627.493,58.105,26.367,29.785,14.160,-10.254,0
1553804627.496,19.043,27.344,25.391,15.137,23.926,0
1553804627.500,16.602,30.762,21.973,33.203,18.555,0
1553804627.504,36.621,28.320,24.414,27.344,16.113,0
1553804627.508,46.387,27.344,24.902,20.020,66.406,0
1553804627.512,26.855,23.926,29.297,25.879,72.266,0
1553804627.516,28.320,25.391,33.691,28.809,12.695,0
1553804627.520,44.922,25.879,32.715,56.152,42.480,0
1553804627.524,36.133,21.973,33.203,60.547,60.547,0
1553804627.528,6.348,27.344,35.156,22.949,15.625,0
1553804627.532,18.555,34.668,30.273,3.418,20.996,0
1553804627.536,52.734,33.691,26.855,24.902,67.383,0
1553804627.539,54.688,28.809,28.320,49.805,34.668,0
1553804627.543,29.785,31.250,29.297,24.902,45.410,0
1553804627.547,14.648,36.621,28.809,2.930,69.336,0
1553804627.551,49.805,36.621,27.344,24.414,32.227,0
1553804627.555,58.105,34.180,21.484,38.574,42.969,0
1553804627.559,28.809,36.133,16.602,11.719,49.805,0
1553804627.563,16.113,30.273,20.508,25.879,13.672,0
1553804627.567,34.180,29.785,26.855,63.965,-41.992,0
1553804627.571,44.434,37.109,25.391,26.367,22.949,0
1553804627.575,20.020,34.668,24.902,3.418,89.844,0
1553804627.578,5.371,28.320,25.879,21.484,35.156,0
1553804627.582,33.203,27.344,28.320,21.973,14.648,0
1553804627.586,55.176,25.879,31.738,24.902,62.012,0
1553804627.590,55.176,25.391,28.320,24.414,106.934,0
1553804627.594,23.438,27.832,25.391,20.020,90.820,0
1553804627.598,1.465,31.738,23.438,34.180,-2.441,0
1553804627.602,17.090,30.762,23.438,38.574,-2.930,0
1553804627.606,33.203,25.879,25.391,29.297,43.457,0
1553804627.610,29.297,28.320,26.855,38.574,46.875,0
1553804627.614,20.508,32.227,29.785,42.480,47.852,0
1553804627.618,4.395,30.762,34.668,30.762,68.359,0
1553804627.621,26.367,29.297,29.785,23.438,89.355,0
1553804627.625,43.945,27.344,26.855,17.090,0.000,0
1553804627.629,11.719,22.461,28.809,11.230,-0.488,0
1553804627.633,24.414,25.879,23.438,7.812,17.578,0
1553804627.637,53.223,31.738,20.508,4.395,20.508,0
1553804627.641,36.621,29.785,18.066,5.371,61.035,0
1553804627.645,-4.883,29.297,18.066,16.602,5.371,0
1553804627.649,8.301,30.762,20.508,23.926,-20.508,0
1553804627.653,28.320,29.297,23.926,25.391,66.895,0
1553804627.657,21.973,28.320,24.902,31.738,57.129,0
1553804627.661,20.508,32.715,26.367,36.133,-10.742,0
1553804627.664,7.324,28.809,26.367,31.250,17.578,0
1553804627.668,24.902,23.926,26.367,17.090,40.527,0
1553804627.672,39.551,26.855,27.832,16.113,-1.465,0
1553804627.676,6.348,31.250,27.832,6.348,-0.977,0
1553804627.680,-5.859,29.297,29.785,-4.883,3.418,0
1553804627.684,23.926,23.438,28.320,2.441,11.719,0
1553804627.688,47.852,27.344,26.367,33.203,-7.812,0
1553804627.692,41.992,33.203,23.438,40.527,-16.602,0
1553804627.696,8.789,33.203,21.484,7.324,28.320,0
1553804627.700,7.812,32.715,23.438,-11.719,12.207,0
1553804627.703,44.434,36.621,25.391,4.883,16.602,0
1553804627.707,48.340,37.598,21.973,14.160,9.766,0
1553804627.711,20.996,34.180,23.438,12.695,-66.406,0
1553804627.715,20.508,31.738,26.367,28.809,19.043,0
1553804627.719,32.227,32.715,32.227,30.762,71.777,0
1553804627.723,37.598,33.203,31.250,15.625,6.836,0
1553804627.727,23.438,31.738,22.461,17.578,30.762,0
1553804627.731,24.414,30.273,20.508,18.555,42.969,0
1553804627.735,54.199,28.809,20.020,12.695,-13.184,0
1553804627.739,60.547,25.391,19.531,16.602,9.277,0
1553804627.743,14.160,21.484,21.973,27.344,65.918,0
1553804627.746,-19.531,24.414,26.855,26.855,42.969,0
1553804627.750,17.578,22.949,30.273,20.020,-30.273,0
1553804627.754,47.363,20.020,28.320,24.902,-34.668,0
1553804627.758,28.320,22.949,26.367,17.090,42.969,0
1553804627.762,31.250,28.320,28.809,8.789,23.926,0
1553804627.766,29.785,31.738,28.809,16.113,48.340,0
1553804627.770,29.785,29.785,25.391,31.738,42.480,0
1553804627.774,50.293,33.203,24.902,24.414,73.242,0
1553804627.778,23.438,34.668,22.461,6.348,122.070,0
1553804627.782,-1.953,33.691,22.949,20.996,42.480,0
1553804627.786,17.578,31.250,27.344,27.832,44.922,0
1553804627.789,53.711,28.320,30.273,41.504,44.434,0
1553804627.793,39.551,30.273,28.320,38.574,-38.574,0
1553804627.797,18.066,28.320,21.484,9.277,5.859,0
1553804627.801,48.828,31.250,17.578,13.184,58.594,0
1553804627.805,61.523,32.227,27.832,35.156,-10.742,0
1553804627.809,25.391,27.344,35.156,20.508,-31.738,0
1553804627.813,-5.859,28.809,30.762,1.953,-24.414,0
1553804627.817,3.418,24.414,34.180,11.719,20.996,0
1553804627.821,35.156,20.996,38.086,16.113,90.820,0
1553804627.825,33.691,17.090,36.133,31.738,72.266,0
1553804627.828,29.785,9.277,36.621,34.668,40.527,0
1553804627.832,48.828,6.348,37.598,25.391,43.457,0
1553804627.836,68.359,3.906,40.527,44.434,29.297,0
1553804627.840,80.078,6.836,40.039,46.875,-3.906,0
1553804627.844,51.758,10.254,35.156,22.949,-23.926,0
1553804627.848,16.602,7.812,32.227,6.348,-7.812,0
1553804627.852,32.715,10.254,31.250,55.664,23.438,0
1553804627.856,55.176,13.184,31.250,63.965,49.805,0
1553804627.860,57.129,10.254,30.273,35.645,41.016,0
1553804627.864,42.480,8.789,29.785,28.320,31.250,0
1553804627.868,39.551,14.648,24.902,41.504,-26.855,0
1553804627.871,71.289,22.949,21.484,70.312,-22.949,0
1553804627.875,67.383,22.461,25.879,48.828,49.805,0
1553804627.879,33.691,20.996,29.785,16.113,15.137,0
1553804627.883,47.363,22.461,27.832,25.879,-8.789,0
1553804627.887,74.707,22.949,26.367,41.016,-9.277,0
1553804627.891,56.641,22.949,21.973,48.340,44.434,0
1553804627.895,31.250,22.461,18.066,36.621,21.973,0
1553804627.899,22.949,21.973,23.438,21.973,-42.969,0
1553804627.903,55.176,22.461,26.855,58.594,45.410,0
1553804627.907,55.664,22.461,26.855,60.547,26.855,0
1553804627.911,21.484,24.414,26.367,2.441,-31.738,0
1553804627.914,11.719,25.879,24.902,-9.277,37.598,0
1553804627.918,33.691,24.414,22.949,26.855,82.520,0
1553804627.922,75.195,21.973,23.438,50.293,98.145,0
1553804627.926,40.039,19.043,24.414,21.484,46.387,0
1553804627.930,12.207,14.648,25.391,0.977,-11.230,0
1553804627.934,57.617,16.602,26.367,9.277,21.484,0
1553804627.938,77.637,22.949,24.414,6.836,40.527,0
1553804627.942,43.945,20.996,24.902,33.203,62.988,0
1553804627.946,9.766,21.973,24.414,54.199,-2.930,0
1553804627.950,20.996,25.391,26.855,38.086,-20.508,0
1553804627.953,45.410,27.344,30.273,50.293,44.434,0
1553804627.957,41.992,25.879,25.879,24.414,16.113,0
1553804627.961,17.090,19.043,24.414,22.949,-30.273,0
1553804627.965,25.879,21.484,25.879,30.762,-7.812,0
1553804627.969,66.895,28.320,31.250,10.254,46.387,0
1553804627.973,73.730,32.715,34.668,16.602,48.828,0
1553804627.977,55.664,28.809,24.902,4.395,59.082,0
1553804627.981,5.859,23.926,22.461,0.000,56.641,0
1553804627.985,4.883,27.832,28.320,40.039,31.738,0
1553804627.989,57.129,31.250,26.855,41.992,9.277,0
1553804627.993,60.059,27.344,20.508,-9.277,13.672,0
1553804627.996,38.574,21.484,19.043,-23.438,19.531,0
1553804628.000,50.293,11.719,22.949,19.531,16.602,0
1553804628.004,58.594,11.230,28.320,52.734,19.043,0
1553804628.008,40.039,28.320,24.414,19.531,51.758,0
1553804628.012,37.109,41.504,17.090,6.836,13.672,0
1553804628.016,68.848,48.340,15.137,60.547,-16.602,0
1553804628.020,91.309,55.176,13.672,57.129,41.504,0
1553804628.024,83.008,58.594,10.742,17.578,34.180,0
1553804628.028,55.176,65.430,11.719,16.602,-11.230,0
1553804628.032,56.152,73.730,11.230,44.434,-4.395,0
1553804628.036,105.469,83.008,4.883,48.828,27.344,0
1553804628.039,128.906,92.285,2.930,43.457,36.133,0
1553804628.043,113.281,100.586,5.859,54.199,51.758,0
1553804628.047,112.793,105.469,8.301,82.520,38.574,0
1553804628.051,141.113,108.398,3.418,82.520,-10.742,0
1553804628.055,161.133,112.305,-0.977,58.594,14.648,0
1553804628.059,144.531,116.211,7.324,81.055,46.875,0
1553804628.063,114.746,118.164,9.277,77.637,73.242,0
1553804628.067,126.465,118.652,4.395,57.617,61.035,0
1553804628.071,146.484,121.094,2.441,69.824,-5.859,0
1553804628.075,125.977,118.652,5.859,101.562,11.230,0
1553804628.078,101.074,111.328,11.719,91.797,55.664,0
1553804628.082,84.473,104.004,11.719,62.500,39.551,0
1553804628.086,104.004,99.609,8.789,60.059,47.852,0
1553804628.090,113.281,96.680,10.742,64.941,8.301,0
1553804628.094,84.961,88.867,11.230,59.570,-0.977,0
1553804628.098,83.496,85.938,9.277,62.012,43.457,0
1553804628.102,111.816,88.379,12.695,66.406,20.020,0
1553804628.106,103.516,82.031,13.184,52.246,15.137,0
1553804628.110,80.566,73.242,16.113,37.109,-14.160,0
1553804628.114,96.191,75.684,23.438,42.969,-3.906,0
1553804628.118,88.867,80.566,20.996,62.500,42.969,0
1553804628.121,75.684,78.613,14.648,64.453,78.613,0
1553804628.125,85.938,73.242,16.113,52.246,34.668,0
1553804628.129,77.637,71.777,16.602,107.910,25.391,0
1553804628.133,41.992,71.777,15.625,68.848,63.477,0
1553804628.137,78.613,70.801,14.160,7.812,65.918,0
1553804628.141,104.004,67.383,17.090,57.617,68.848,0
1553804628.145,58.105,57.129,20.508,37.598,20.508,0
1553804628.149,58.594,53.711,19.043,31.250,37.598,0
1553804628.153,85.938,55.176,20.020,60.547,72.754,0
1553804628.157,83.008,53.711,22.461,60.547,67.383,0
1553804628.161,68.359,56.152,20.996,50.781,63.477,0
1553804628.164,47.852,56.641,18.066,45.410,-6.348,0
1553804628.168,58.105,50.781,20.996,50.293,10.742,0
1553804628.172,93.750,45.410,24.414,70.312,47.852,0
1553804628.176,86.426,44.922,22.949,61.035,12.695,0
1553804628.180,50.781,43.457,19.531,25.879,-24.414,0
1553804628.184,44.434,42.480,21.484,41.016,-12.207,0
1553804628.188,82.031,45.410,23.926,39.062,20.508,0
1553804628.192,53.711,43.457,22.949,6.348,1.465,0
1553804628.196,6.836,41.016,24.902,35.645,17.090,0
1553804628.200,42.969,45.898,25.879,38.086,55.664,0
1553804628.203,64.941,46.875,24.902,10.742,43.945,0
1553804628.207,55.664,41.504,23.926,22.461,8.301,0
1553804628.211,41.504,39.551,20.020,35.645,10.742,0
1553804628.215,31.738,40.527,17.578,38.574,-15.625,0
1553804628.219,51.270,39.062,16.602,12.695,-10.254,0
1553804628.223,50.293,37.109,16.602,5.371,40.527,0
1553804628.227,40.039,34.180,20.996,59.082,18.555,0
1553804628.231,38.574,30.273,24.414,48.340,-10.254,0
1553804628.235,38.086,37.109,24.414,16.602,56.641,0
1553804628.239,66.895,41.016,24.414,36.133,77.148,0
1553804628.243,89.355,37.598,22.949,27.344,-0.488,0
1553804628.246,56.152,33.203,22.949,6.836,28.320,0
1553804628.250,12.695,29.297,22.949,16.602,31.738,0
1553804628.254,24.902,31.738,22.949,41.504,5.371,0
1553804628.258,61.523,34.180,26.367,42.969,4.883,0
1553804628.262,37.598,28.809,26.855,20.508,47.363,0
1553804628.266,31.250,26.367,26.367,37.109,86.426,0
1553804628.270,52.734,26.855,25.879,25.391,2.930,0
1553804628.274,41.992,25.391,25.879,-9.766,9.277,0
1553804628.278,33.203,24.902,30.762,-5.371,81.543,0
1553804628.282,24.902,29.785,30.762,0.488,114.258,0
1553804628.286,57.617,29.785,24.902,10.254,62.500,0
1553804628.289,62.988,25.879,24.414,24.902,23.438,0
1553804628.293,24.414,27.344,23.926,21.484,53.223,0
1553804628.297,8.301,28.320,18.555,7.324,88.379,0
1553804628.301,20.996,27.344,18.555,16.113,57.129,0
1553804628.305,42.480,26.855,23.926,28.320,24.902,0
1553804628.309,7.812,22.949,30.273,22.461,5.371,0
1553804628.313,-28.809,15.625,30.273,-8.301,11.719,0
1553804628.317,-7.324,7.324,33.203,-12.207,56.152,0
1553804628.321,49.316,4.883,34.180,7.812,10.742,0
1553804628.325,45.898,9.277,34.668,17.578,15.625,0
1553804628.328,-3.418,13.184,33.203,0.977,28.320,0
1553804628.332,-11.719,11.230,29.297,-7.324,17.090,0
1553804628.336,20.508,8.789,30.273,-1.465,11.719,0
1553804628.340,21.484,9.766,28.320,6.348,-22.461,0
1553804628.344,-8.789,8.301,24.902,14.160,17.578,0
1553804628.348,7.324,5.371,21.973,-24.902,3.418,0
1553804628.352,4.395,7.812,27.832,-33.203,-13.672,0
1553804628.356,-16.113,10.254,30.273,-1.953,-33.203,0
1553804628.360,-12.695,10.254,25.391,-0.977,-79.102,0
1553804628.364,-14.648,11.719,24.902,-3.418,-14.160,0
1553804628.368,1.953,14.160,26.367,-7.324,17.578,0
1553804628.371,8.789,4.395,29.297,-5.859,-8.789,0
1553804628.375,-14.160,0.488,33.691,-21.973,18.555,0
1553804628.379,-30.762,5.859,33.203,-40.039,40.527,0
1553804628.383,-20.020,7.324,28.320,-1.465,43.945,0
1553804628.387,17.578,10.254,24.902,19.043,19.043,0
1553804628.391,22.461,12.207,24.414,-13.184,8.789,0
1553804628.395,-6.348,13.184,26.367,-15.625,-7.324,0
1553804628.399,-20.996,13.672,30.273,1.953,1.953,0
1553804628.403,-0.488,12.695,30.273,0.000,14.160,0
1553804628.407,9.277,11.230,25.879,13.672,53.223,0
1553804628.411,-7.812,0.488,27.832,9.766,79.590,0
1553804628.414,-17.090,-4.883,34.180,-2.441,71.777,0
1553804628.418,18.555,6.836,36.133,29.785,65.918,0
1553804628.422,45.898,21.484,38.086,25.391,77.148,0
1553804628.426,16.602,36.133,35.645,8.301,31.738,0
1553804628.430,-30.762,35.645,27.344,9.766,-19.531,0
1553804628.434,-33.203,34.668,25.879,8.789,48.828,0
1553804628.438,-8.301,40.527,24.902,4.883,95.703,0
1553804628.442,6.836,44.434,17.090,28.809,60.547,0
1553804628.446,-9.277,49.805,14.160,6.836,28.320,0
1553804628.450,6.348,50.781,15.137,-11.719,44.434,0
1553804628.453,36.621,55.176,13.672,20.996,29.297,0
1553804628.457,30.762,62.012,16.602,22.461,22.461,0
1553804628.461,-1.953,61.035,21.484,28.320,62.012,0
1553804628.465,-3.906,57.617,20.996,23.438,83.496,0
1553804628.469,43.945,49.805,22.949,27.344,63.965,0
1553804628.473,42.480,38.086,25.391,38.086,54.199,0
1553804628.477,10.254,41.504,24.902,9.277,28.809,0
1553804628.481,0.977,50.293,27.344,-0.977,29.785,0
1553804628.485,0.977,53.711,26.367,12.207,33.203,0
1553804628.489,15.625,47.852,21.973,26.855,17.578,0
1553804628.493,12.695,47.852,21.484,14.160,61.035,0
1553804628.496,4.395,47.363,19.043,1.465,51.758,0
1553804628.500,-6.348,37.109,22.949,-3.418,36.133,0
1553804628.504,24.902,21.973,30.273,-5.371,33.691,0
1553804628.508,25.391,25.391,33.691,29.785,28.809,0
1553804628.512,-1.465,41.992,30.273,30.762,85.449,0
1553804628.516,1.953,34.180,26.367,33.203,66.895,0
1553804628.520,7.812,23.926,23.926,39.062,-42.969,0
1553804628.524,34.668,45.410,19.043,4.395,12.207,0
1553804628.528,3.906,44.922,18.066,12.695,39.062,0
1553804628.532,-21.484,32.227,20.508,25.391,-4.395,0
1553804628.536,17.090,42.480,21.484,22.949,14.160,0
1553804628.539,39.551,39.062,16.602,21.973,-6.836,0
1553804628.543,23.926,30.273,20.020,27.832,-36.133,0
1553804628.547,10.742,32.715,24.902,33.691,8.301,0
1553804628.551,17.578,24.414,25.391,18.066,54.199,0
1553804628.555,24.414,20.508,30.762,-4.395,-24.902,0
1553804628.559,19.531,36.621,35.645,21.484,-21.973,0
1553804628.563,-8.301,36.621,33.203,36.133,0.000,0
1553804628.567,-10.254,31.738,29.297,12.207,-66.895,0
1553804628.571,38.086,36.621,30.273,24.902,-24.414,0
1553804628.575,41.504,41.016,25.391,26.367,73.242,0
1553804628.578,1.465,38.086,23.438,12.695,62.012,0
1553804628.582,10.254,25.879,28.320,16.113,24.414,0
1553804628.586,53.711,16.113,27.344,45.898,74.707,0
1553804628.590,60.547,13.672,26.855,67.871,43.457,0
1553804628.594,38.574,14.648,26.855,54.688,6.348,0
1553804628.598,31.738,11.719,24.902,36.621,31.250,0
1553804628.602,43.945,9.766,26.367,63.477,16.602,0
1553804628.606,69.336,6.348,28.320,85.938,46.387,0
1553804628.610,87.402,8.301,23.438,83.984,41.992,0
1553804628.614,80.078,8.789,26.367,97.656,11.230,0
1553804628.618,67.871,3.906,31.250,118.652,18.066,0
1553804628.621,100.098,3.418,33.203,99.121,39.062,0
1553804628.625,117.188,5.371,32.227,108.398,38.086,0
1553804628.629,84.961,10.254,30.762,113.770,33.203,0
1553804628.633,79.590,5.371,33.203,67.871,0.977,0
1553804628.637,102.539,-1.953,34.668,70.801,71.289,0
1553804628.641,117.188,1.465,35.645,112.305,108.398,0
1553804628.645,90.820,3.418,35.156,117.676,-7.324,0
1553804628.649,73.730,0.488,28.809,101.074,-60.547,0
1553804628.653,107.910,-3.418,28.809,102.051,22.461,0
1553804628.657,107.910,-1.953,35.156,114.746,-4.883,0
1553804628.661,69.824,0.977,32.227,109.863,-50.781,0
1553804628.664,74.707,4.395,32.227,97.656,-5.859,0
1553804628.668,86.914,6.836,35.645,97.656,4.395,0
1553804628.672,85.938,8.301,34.180,73.242,19.043,0
1553804628.676,82.031,13.184,35.156,56.152,54.199,0
1553804628.680,65.918,13.184,37.598,89.355,97.168,0
1553804628.684,77.637,11.719,36.621,107.910,55.664,0
1553804628.688,96.191,11.230,39.062,95.215,7.812,0
1553804628.692,73.730,17.090,35.645,59.082,22.461,0
1553804628.696,47.363,20.020,30.273,62.988,19.531,0
1553804628.700,36.133,21.484,35.156,54.199,24.902,0
1553804628.703,58.105,19.531,31.250,39.062,70.312,0
1553804628.707,76.660,17.578,25.391,71.777,54.199,0
1553804628.711,71.289,16.113,23.926,38.574,27.344,0
1553804628.715,63.477,12.695,26.855,37.109,23.926,0
1553804628.719,84.961,10.254,29.297,40.039,37.598,0
1553804628.723,67.871,12.207,28.809,33.691,19.531,0
1553804628.727,29.785,20.508,34.180,44.434,14.648,0
1553804628.731,57.129,19.531,35.156,24.414,61.523,0
1553804628.735,82.520,11.230,32.227,20.508,76.172,0
1553804628.739,78.125,5.859,36.621,44.922,83.008,0
1553804628.743,57.129,10.254,35.645,56.641,43.457,0
1553804628.746,45.898,20.020,25.391,20.996,28.809,0
1553804628.750,64.453,25.879,21.484,1.465,32.227,0
1553804628.754,58.105,33.203,24.902,19.043,-16.602,0
1553804628.758,27.344,35.156,28.320,16.113,29.297,0
1553804628.762,21.973,30.762,32.715,12.695,27.344,0
1553804628.766,27.344,25.879,35.645,46.875,-52.734,0
1553804628.770,51.270,23.438,29.297,46.875,48.340,0
1553804628.774,49.805,32.715,18.066,-2.441,118.652,0
1553804628.778,23.926,18.555,22.949,-6.348,53.711,0
1553804628.782,37.598,4.883,31.738,6.836,25.879,0
1553804628.786,38.086,32.715,31.250,24.902,55.176,0
1553804628.789,21.484,47.363,33.691,-1.465,58.594,0
1553804628.793,4.395,34.180,34.668,-18.066,59.570,0
1553804628.797,8.301,27.344,36.621,1.953,-16.113,0
1553804628.801,26.367,20.020,40.039,-0.488,-62.988,0
1553804628.805,33.691,11.230,39.062,-8.301,-29.785,0
1553804628.809,23.926,20.996,28.809,17.578,18.066,0
1553804628.813,5.859,22.949,20.996,2.441,59.570,0
1553804628.817,-4.883,23.438,20.508,-19.531,-4.395,0
1553804628.821,11.719,35.645,16.602,6.836,18.066,0
1553804628.825,16.602,36.621,18.555,-23.438,52.246,0
1553804628.828,-7.324,32.227,19.043,-46.387,84.961,0
1553804628.832,-0.977,40.039,21.973,-10.742,10.742,0
1553804628.836,22.949,39.551,32.227,23.926,-34.668,0
1553804628.840,18.555,24.414,31.738,4.883,9.766,0
1553804628.844,-6.836,20.508,29.297,-34.180,-17.090,0
1553804628.848,-13.184,27.832,27.832,-30.762,-24.902,0
1553804628.852,-3.418,20.020,20.020,-1.953,55.664,0
1553804628.856,13.672,14.160,14.160,8.301,45.898,0
1553804628.860,16.113,28.320,18.066,-8.301,-22.461,0
1553804628.864,-6.348,35.156,15.625,-17.090,7.324,0
1553804628.868,-10.742,24.902,17.578,-16.602,11.230,0
1553804628.871,11.230,28.809,26.855,-6.836,-22.461,0
1553804628.875,-4.395,38.574,26.855,1.465,12.695,0
1553804628.879,-39.062,37.598,28.320,-38.574,59.082,0
1553804628.883,-23.438,30.273,29.297,-48.340,25.879,0
1553804628.887,3.906,26.855,27.832,1.465,-11.230,0
1553804628.891,13.184,22.461,28.320,13.672,-29.785,0
1553804628.895,10.742,15.137,27.832,-22.949,57.129,0
1553804628.899,5.859,28.809,30.762,-15.625,56.641,0
1553804628.903,22.949,30.273,32.715,20.508,10.742,0
1553804628.907,-11.719,29.297,27.344,37.598,24.902,0
1553804628.911,-12.695,37.109,27.344,3.906,7.812,0
1553804628.914,-2.930,37.109,32.715,-18.555,34.180,0
1553804628.918,-2.441,31.250,25.391,-11.230,83.496,0
1553804628.922,41.992,14.648,20.020,6.348,81.543,0
1553804628.926,26.855,8.301,23.926,23.438,34.180,0
1553804628.930,-10.254,18.066,22.949,9.277,0.488,0
1553804628.934,8.789,21.484,23.926,3.418,43.945,0
1553804628.938,32.715,17.090,22.461,11.719,14.648,0
1553804628.942,12.695,19.043,20.020,5.371,-8.789,0
1553804628.946,-15.137,28.809,27.344,5.371,14.160,0
1553804628.950,-7.324,27.344,29.785,10.254,-5.371,0
1553804628.953,36.621,27.344,34.668,-2.441,33.691,0
1553804628.957,41.992,36.621,35.156,-2.441,19.531,0
1553804628.961,15.625,35.645,28.320,18.066,-1.465,0
1553804628.965,14.648,47.852,38.086,32.227,-10.742,0
1553804628.969,27.344,49.316,39.551,-0.488,-6.836,0
1553804628.973,-5.371,31.250,34.668,-16.113,3.906,0
1553804628.977,-47.363,26.367,39.551,-1.465,31.738,0
1553804628.981,-44.434,36.133,38.574,-22.949,59.570,0
1553804628.985,-30.762,31.738,36.621,-45.410,0.488,0
1553804628.989,-28.809,24.902,35.645,-35.645,29.785,0
1553804628.993,-47.363,40.039,36.621,-66.406,103.027,0
1553804628.996,-98.145,40.039,46.875,-125.000,98.633,0
1553804629.000,-139.648,36.621,50.781,-158.691,41.504,0
1553804629.004,-127.930,41.992,55.664,-173.340,20.508,0
1553804629.008,-130.859,43.457,57.129,-176.758,39.551,0
1553804629.012,-182.617,53.223,62.988,-192.383,77.148,0
1553804629.016,-208.008,54.688,68.359,-221.191,60.547,0
1553804629.020,-205.078,49.316,63.965,-223.633,7.324,0
1553804629.024,-220.703,57.129,67.383,-223.633,26.855,0
1553804629.028,-249.512,51.758,74.707,-258.789,69.824,0
1553804629.032,-264.648,47.363,76.660,-274.414,51.270,0
1553804629.036,-232.422,31.738,75.195,-250.977,31.738,0
1553804629.039,-194.336,25.879,62.012,-235.840,86.914,0
1553804629.043,-208.008,56.152,49.805,-222.656,61.523,0
1553804629.047,-184.082,76.660,50.781,-182.129,27.832,0
1553804629.051,-137.207,79.590,47.363,-155.762,47.363,0
1553804629.055,-113.770,65.918,35.645,-173.340,-9.277,0
1553804629.059,-85.449,46.387,38.086,-118.652,-12.695,0
1553804629.063,-228.516,37.598,43.457,-314.941,39.551,0
1553804629.067,-510.254,41.016,33.691,-618.652,28.320,0
1553804629.071,-525.391,48.340,21.973,-488.770,-8.789,0
1553804629.075,-378.418,47.363,19.531,-297.363,-72.266,0
1553804629.078,-300.781,35.645,20.020,-193.359,-49.316,0
1553804629.082,-244.141,34.668,16.113,-108.398,-25.879,0
1553804629.086,-140.137,35.645,20.996,-18.555,-0.488,0
1553804629.090,-78.613,25.391,21.973,20.996,27.832,0
1553804629.094,-61.523,22.461,15.137,15.625,-15.625,0
1553804629.098,-15.625,23.438,7.324,38.086,-2.930,0
1553804629.102,16.602,48.340,2.441,67.871,-22.461,0
1553804629.106,52.734,52.246,17.578,96.191,-41.016,0
1553804629.110,56.152,23.926,20.020,137.695,-0.977,0
1553804629.114,54.199,34.180,9.766,104.004,-11.719,0
1553804629.118,85.938,44.434,-0.488,78.613,-4.395,0
1553804629.121,67.871,38.574,-7.324,93.262,10.742,0
1553804629.125,65.918,32.227,7.324,81.543,-62.500,0
1553804629.129,103.027,33.203,12.695,94.727,8.301,0
1553804629.133,115.723,36.621,11.719,106.934,57.617,0
1553804629.137,118.164,40.527,15.137,117.676,14.160,0
1553804629.141,122.070,38.574,14.160,133.789,6.836,0
1553804629.145,121.582,35.156,11.719,125.000,7.812,0
1553804629.149,140.625,28.809,12.695,130.859,17.090,0
1553804629.153,147.949,13.672,8.789,122.559,21.484,0
1553804629.157,133.789,31.738,3.418,106.445,17.578,0
1553804629.161,110.352,49.316,9.277,99.121,-20.996,0
1553804629.164,113.770,51.270,9.766,81.055,-3.906,0
1553804629.168,121.094,40.039,4.395,92.773,4.395,0
1553804629.172,125.000,25.391,9.277,112.305,44.434,0
1553804629.176,143.066,34.668,17.578,128.418,65.430,0
1553804629.180,159.180,40.527,18.066,115.234,49.805,0
1553804629.184,144.043,40.527,11.719,113.281,63.477,0
1553804629.188,155.762,38.574,13.672,121.094,54.688,0
1553804629.192,187.012,37.109,20.996,120.605,59.082,0
1553804629.196,159.180,38.574,13.184,105.957,63.477,0
1553804629.200,115.723,44.922,5.859,83.496,-1.953,0
1553804629.203,114.258,50.293,11.230,79.102,11.230,0
1553804629.207,141.602,46.387,12.695,82.520,120.605,0
1553804629.211,133.789,29.785,17.090,95.703,47.852,0
1553804629.215,115.234,25.391,18.555,96.191,0.977,0
1553804629.219,133.301,27.344,15.137,86.426,47.852,0
1553804629.223,141.602,25.879,23.438,106.445,10.254,0
1553804629.227,112.305,36.621,24.414,118.164,28.809,0
1553804629.231,89.355,40.527,19.043,74.707,58.594,0
1553804629.235,89.844,44.434,24.902,73.242,37.109,0
1553804629.239,78.613,34.668,21.973,76.172,36.621,0
1553804629.243,102.051,18.555,15.137,62.988,53.711,0
1553804629.246,103.516,25.391,20.996,69.336,46.875,0
1553804629.250,88.867,34.668,24.414,54.199,7.812,0
1553804629.254,92.773,38.086,16.602,79.102,-3.906,0
1553804629.258,104.492,40.039,15.137,84.961,46.387,0
1553804629.262,122.559,33.691,19.043,74.707,18.555,0
1553804629.266,96.191,35.156,15.625,52.246,-26.855,0
1553804629.270,86.914,20.508,17.090,51.270,-2.441,0
1553804629.274,107.910,11.719,21.973,73.730,58.105,0
1553804629.278,95.703,41.504,19.043,47.852,38.086,0
1553804629.282,79.102,42.480,17.578,40.527,-17.090,0
1553804629.286,105.957,25.391,14.648,78.613,57.617,0
1553804629.289,114.258,27.832,18.066,71.777,72.754,0
1553804629.293,88.379,28.320,21.973,34.180,40.527,0
1553804629.297,62.012,28.809,17.578,52.734,34.668,0
1553804629.301,86.914,39.551,16.113,80.078,32.227,0
1553804629.305,89.844,48.340,20.020,59.570,41.992,0
1553804629.309,53.223,34.180,23.438,20.996,53.223,0
1553804629.313,60.547,19.043,24.414,56.152,21.484,0
1553804629.317,67.871,30.762,25.391,55.664,-42.480,0
1553804629.321,92.285,37.598,27.344,24.902,-15.137,0
1553804629.325,77.637,24.902,28.809,45.410,33.203,0
1553804629.328,53.711,21.973,29.297,50.781,16.602,0
1553804629.332,54.688,39.062,22.461,52.246,-15.625,0
1553804629.336,67.383,45.898,17.090,33.691,-11.719,0
1553804629.340,57.617,44.922,16.602,34.668,70.312,0
1553804629.344,45.898,44.922,18.066,40.039,132.812,0
1553804629.348,69.336,35.156,26.367,38.086,84.473,0
1553804629.352,90.820,28.809,26.367,31.250,22.949,0
1553804629.356,104.004,31.250,20.508,31.738,6.348,0
1553804629.360,62.500,37.598,19.043,45.410,65.918,0
1553804629.364,20.996,39.062,23.438,35.156,60.059,0
1553804629.368,56.152,35.645,28.809,64.453,58.594,0
1553804629.371,70.801,41.504,30.273,70.801,32.227,0
1553804629.375,69.824,41.992,26.367,2.441,31.738,0
1553804629.379,67.871,33.203,20.020,-8.789,48.340,0
1553804629.383,65.430,17.578,20.508,6.348,-10.742,0
1553804629.387,75.684,15.137,28.809,38.574,-30.273,0
1553804629.391,65.430,34.668,30.273,97.656,2.441,0
1553804629.395,58.594,35.156,25.879,62.500,28.320,0
1553804629.399,32.715,20.508,25.879,-23.926,3.906,0
1553804629.403,31.250,22.949,23.926,22.949,0.488,0
1553804629.407,65.430,34.180,22.461,56.641,11.230,0
1553804629.411,62.988,41.504,31.738,17.578,40.039,0
1553804629.414,55.176,41.016,39.551,16.602,48.340,0
1553804629.418,76.660,40.527,30.762,44.922,-2.441,0
1553804629.422,79.102,39.062,27.344,63.477,18.066,0
1553804629.426,39.062,31.250,31.738,58.105,53.223,0
1553804629.430,37.109,19.043,33.203,50.293,10.254,0
1553804629.434,38.086,20.020,38.086,36.621,15.625,0
1553804629.438,37.598,29.297,34.180,36.133,-19.531,0
1553804629.442,55.176,28.320,25.391,71.777,-49.805,0
1553804629.446,30.762,26.367,29.297,40.527,-4.883,0
1553804629.450,43.457,27.344,28.809,17.090,0.488,0
1553804629.453,85.449,28.809,28.809,50.293,55.176,0
1553804629.457,66.895,25.879,39.551,50.781,32.227,0
1553804629.461,31.250,26.855,41.992,37.109,-21.484,0
1553804629.465,19.043,16.113,42.480,56.152,-7.812,0
1553804629.469,32.715,-7.324,43.945,65.430,9.277,0
1553804629.473,51.758,1.953,40.039,30.762,18.555,0
1553804629.477,50.781,9.277,46.387,29.297,108.398,0
1553804629.481,42.969,2.441,54.199,39.062,127.930,0
1553804629.485,28.320,3.418,49.316,45.898,74.707,0
1553804629.489,44.434,1.465,41.016,65.918,83.008,0
1553804629.493,43.457,-8.789,38.574,47.363,88.867,0
1553804629.496,14.648,-6.836,36.621,21.973,73.242,0
1553804629.500,31.250,7.324,35.645,13.184,35.645,0
1553804629.504,62.500,10.742,36.133,25.391,16.113,0
1553804629.508,55.176,14.160,32.227,56.641,60.547,0
1553804629.512,51.758,15.137,26.855,61.523,31.250,0
1553804629.516,44.434,25.879,28.320,38.086,-47.363,0
1553804629.520,42.969,33.203,29.297,45.898,-1.953,0
1553804629.524,42.969,24.414,26.367,47.363,33.203,0
1553804629.528,32.715,27.344,27.832,33.691,17.578,0
1553804629.532,34.180,27.832,27.832,37.109,22.949,0
1553804629.536,59.570,14.648,30.762,42.480,39.062,0
1553804629.539,77.148,9.766,33.203,36.621,11.719,0
1553804629.543,53.223,16.602,26.367,46.875,7.324,0
1553804629.547,32.227,20.020,25.391,70.312,41.016,0
1553804629.551,62.012,24.902,27.832,45.898,45.898,0
1553804629.555,67.871,33.203,31.738,41.016,-3.418,0
1553804629.559,43.457,28.809,33.203,58.105,1.953,0
1553804629.563,46.387,15.137,31.738,41.504,96.680,0
1553804629.567,50.293,19.043,34.180,32.715,125.488,0
1553804629.571,77.148,19.043,35.645,37.598,40.039,0
1553804629.575,77.148,17.578,35.645,58.105,13.672,0
1553804629.578,50.781,24.414,38.574,57.129,49.805,0
1553804629.582,56.641,26.855,36.133,41.016,56.152,0
1553804629.586,63.965,19.043,30.762,47.852,6.348,0
1553804629.590,57.129,21.484,22.949,44.434,3.906,0
1553804629.594,45.410,31.250,21.484,33.691,31.250,0
1553804629.598,34.668,27.344,32.227,16.113,69.824,0
1553804629.602,32.227,28.809,36.621,6.836,89.355,0
1553804629.606,53.711,25.391,32.227,12.695,76.172,0
1553804629.610,59.082,20.508,27.344,26.855,77.148,0
1553804629.614,31.738,30.273,27.832,50.293,19.043,0
1553804629.618,24.414,29.785,29.785,54.199,-0.977,0
1553804629.621,32.715,34.180,24.414,22.461,58.105,0
1553804629.625,47.852,40.527,25.391,-6.836,45.410,0
1553804629.629,45.898,32.715,32.227,41.504,-16.602,0
1553804629.633,37.109,32.227,32.227,58.594,4.395,0
1553804629.637,59.570,36.621,36.621,8.301,39.062,0
1553804629.641,51.758,35.645,40.527,22.461,7.324,0
1553804629.645,12.695,18.555,31.250,13.184,-40.527,0
1553804629.649,34.180,12.207,20.996,-14.648,20.996,0
1553804629.653,64.453,30.273,13.672,39.551,23.926,0
1553804629.657,53.711,42.969,19.043,47.852,-4.883,0
1553804629.661,41.504,34.668,29.785,-0.977,55.176,0
1553804629.664,48.828,30.273,34.180,18.066,43.457,0
1553804629.668,26.855,34.180,34.668,48.340,8.789,0
1553804629.672,10.742,32.715,30.273,20.508,41.992,0
1553804629.676,14.160,22.461,27.344,0.488,36.621,0
1553804629.680,16.602,9.766,32.715,41.016,-12.207,0
1553804629.684,46.875,26.367,31.250,46.875,-34.180,0
1553804629.688,64.941,34.668,24.902,-5.859,-9.277,0
1553804629.692,36.133,32.227,27.832,-17.090,6.836,0
1553804629.696,7.324,28.809,32.227,7.812,0.488,0
1553804629.700,44.434,21.484,33.203,-5.371,66.895,0
1553804629.703,75.195,27.344,31.250,11.230,51.270,0
1553804629.707,56.152,38.086,24.902,25.879,7.324,0
1553804629.711,36.621,48.340,26.855,19.531,57.617,0
1553804629.715,38.574,45.410,33.691,25.391,53.711,0
1553804629.719,32.715,41.016,28.320,-3.906,-7.812,0
1553804629.723,14.648,45.410,23.438,-32.227,7.324,0
1553804629.727,19.531,45.898,28.320,-14.160,-3.906,0
1553804629.731,41.992,39.551,31.738,26.367,20.996,0
1553804629.735,52.246,35.156,34.180,44.434,50.781,0
1553804629.739,59.570,27.344,34.668,8.301,53.711,0
1553804629.743,52.246,16.113,32.227,-5.371,9.766,0
1553804629.746,49.805,19.043,30.762,6.348,-68.359,0
1553804629.750,88.379,32.227,26.367,38.086,-59.570,0
1553804629.754,75.195,36.621,28.809,66.406,-9.766,0
1553804629.758,56.641,40.039,29.785,34.180,62.500,0
1553804629.762,76.660,52.246,21.484,16.602,66.895,0
1553804629.766,41.992,52.734,24.902,22.461,48.828,0
1553804629.770,35.156,38.086,38.086,31.738,40.527,0
1553804629.774,67.383,36.133,38.574,74.219,38.086,0
1553804629.778,69.336,41.016,32.227,51.270,61.523,0
1553804629.782,72.754,33.203,30.273,35.645,70.312,0
1553804629.786,89.355,36.133,30.762,57.617,55.176,0
1553804629.789,78.125,29.297,33.691,29.297,81.055,0
1553804629.793,36.133,24.902,35.156,28.809,26.367,0
1553804629.797,23.926,36.133,33.691,42.969,-9.766,0
1553804629.801,84.961,27.344,33.691,22.461,41.504,0
1553804629.805,91.797,28.809,28.809,26.367,18.066,0
1553804629.809,32.715,31.738,21.973,40.527,32.227,0
1553804629.813,31.738,26.855,26.855,65.918,58.105,0
1553804629.817,77.637,41.016,31.738,50.293,71.289,0
1553804629.821,101.562,35.156,25.391,19.043,53.223,0
1553804629.825,54.688,21.484,27.344,33.691,-3.418,0
1553804629.828,27.344,30.273,36.133,33.691,4.883,0
1553804629.832,47.363,28.809,40.527,32.227,41.504,0
1553804629.836,60.547,19.043,36.133,42.969,45.898,0
1553804629.840,66.895,41.016,23.926,57.617,14.160,0
1553804629.844,70.801,55.664,18.066,39.062,20.020,0
1553804629.848,67.871,36.621,22.461,42.480,53.223,0
1553804629.852,64.453,28.320,25.879,52.734,26.855,0
1553804629.856,72.754,30.273,32.715,19.531,41.992,0
1553804629.860,69.824,24.902,36.621,25.391,61.523,0
1553804629.864,50.781,30.762,32.227,29.785,46.387,0
1553804629.868,54.199,33.691,29.297,64.941,4.883,0
1553804629.871,67.871,32.715,33.691,65.918,12.207,0
1553804629.875,60.547,37.598,37.109,24.414,91.309,0
1553804629.879,45.898,30.762,29.297,39.551,112.305,0
1553804629.883,58.105,25.391,26.367,43.945,73.242,0
1553804629.887,81.543,33.203,33.203,60.059,35.645,0
1553804629.891,74.219,39.551,29.785,51.270,7.324,0
1553804629.895,40.039,34.668,28.809,29.785,38.086,0
1553804629.899,31.738,23.926,38.574,40.527,16.602,0
1553804629.903,66.895,35.645,31.250,51.758,-7.324,0
1553804629.907,80.078,44.922,21.484,24.414,-18.555,0
1553804629.911,49.805,35.645,24.414,5.371,-35.156,0
1553804629.914,34.180,31.738,21.973,24.414,-2.441,0
1553804629.918,58.594,37.109,21.973,30.273,56.152,0
1553804629.922,57.617,28.320,23.926,41.016,71.289,0
1553804629.926,50.781,26.367,21.484,45.898,98.633,0
1553804629.930,25.879,33.203,24.414,15.137,51.758,0
1553804629.934,30.762,24.414,23.438,17.578,-27.344,0
1553804629.938,83.496,14.160,22.949,45.898,-18.066,0
1553804629.942,67.871,18.555,25.879,36.621,-29.785,0
1553804629.946,41.016,24.902,30.762,41.016,-14.160,0
1553804629.950,57.129,37.109,37.109,31.250,-7.812,0
1553804629.953,50.293,36.621,34.180,27.344,-12.695,0
1553804629.957,15.137,34.180,25.879,31.738,47.363,0
1553804629.961,17.090,36.133,27.344,10.254,37.598,0
1553804629.965,38.574,33.691,33.691,21.973,-5.371,0
1553804629.969,51.758,32.227,34.668,30.762,-6.348,0
1553804629.973,60.547,23.926,34.668,37.109,-12.695,0
1553804629.977,68.359,19.531,33.203,33.203,61.035,0
1553804629.981,68.359,30.762,35.645,25.391,70.312,0
1553804629.985,62.500,35.645,39.551,25.391,3.418,0
1553804629.989,73.730,29.297,33.203,17.090,3.906,0
1553804629.993,41.016,27.344,27.344,10.742,-4.395,0
1553804629.996,19.043,25.879,26.855,14.160,5.371,0
1553804630.000,36.133,27.344,26.855,25.391,14.648,0
1553804630.004,52.734,33.203,27.832,32.227,44.922,0
1553804630.008,45.898,31.250,30.273,26.367,7.812,0
1553804630.012,0.000,26.855,26.367,42.480,22.949,0
1553804630.016,6.348,28.320,25.391,41.504,54.199,0
1553804630.020,56.152,21.484,34.180,18.555,-14.648,0
1553804630.024,64.941,22.461,34.668,15.625,17.090,0
1553804630.028,31.250,29.785,33.691,17.090,31.738,0
1553804630.032,19.531,28.809,35.156,27.344,2.930,0
1553804630.036,48.828,29.297,31.250,20.508,29.785,0
1553804630.039,60.059,34.668,27.832,50.293,54.688,0
1553804630.043,32.715,37.109,30.762,63.965,26.855,0
1553804630.047,27.344,32.715,32.715,39.551,-0.488,0
1553804630.051,53.711,27.832,32.227,-2.441,29.785,0
1553804630.055,65.430,27.344,31.250,-20.996,59.570,0
1553804630.059,41.016,13.184,36.133,31.738,63.477,0
1553804630.063,24.902,10.742,36.621,52.246,17.090,0
1553804630.067,39.062,30.762,26.367,12.695,7.812,0
1553804630.071,44.434,37.598,20.020,34.180,32.715,0
1553804630.075,28.809,37.109,20.996,37.598,26.855,0
1553804630.078,24.902,37.109,27.344,-1.953,5.371,0
1553804630.082,35.645,35.645,31.250,14.648,15.137,0
1553804630.086,40.039,33.203,30.762,21.973,54.688,0
1553804630.090,47.852,32.715,29.785,36.621,37.598,0
1553804630.094,38.574,33.203,30.762,28.320,-22.461,0
1553804630.098,5.859,28.320,27.832,8.789,-27.344,0
1553804630.102,30.762,22.949,30.273,6.348,23.926,0
1553804630.106,67.871,35.645,40.039,29.297,20.996,0
1553804630.110,53.223,41.992,41.504,31.250,-2.441,0
1553804630.114,31.738,34.180,31.738,12.207,41.992,0
1553804630.118,25.391,34.668,20.020,19.043,100.586,0
1553804630.121,31.738,36.133,21.484,36.133,46.387,0
1553804630.125,35.645,32.227,22.949,19.043,-5.371,0
1553804630.129,27.344,26.367,26.855,2.441,20.020,0
1553804630.133,37.109,27.344,29.785,17.578,25.391,0
1553804630.137,57.617,22.949,26.367,24.902,51.270,0
1553804630.141,58.594,26.367,25.391,28.320,75.684,0
1553804630.145,6.348,35.156,28.320,5.371,33.203,0
1553804630.149,-8.301,28.320,33.691,0.488,21.484,0
1553804630.153,34.668,21.973,34.180,27.832,-3.906,0
1553804630.157,45.898,21.484,33.691,44.434,-20.996,0
1553804630.161,46.387,20.508,29.297,36.133,16.602,0
1553804630.164,21.973,19.531,29.297,39.062,49.316,0
1553804630.168,36.621,22.949,35.645,25.391,32.715,0
1553804630.172,70.801,26.367,37.598,30.762,4.883,0
1553804630.176,49.805,23.926,41.504,48.828,45.898,0
1553804630.180,26.367,27.832,43.457,49.805,62.012,0
1553804630.184,38.574,34.180,37.598,54.199,41.504,0
1553804630.188,58.105,34.668,38.086,36.133,39.062,0
1553804630.192,51.270,23.438,36.133,40.039,16.113,0
1553804630.196,43.945,16.113,27.344,42.480,23.926,0
1553804630.200,36.133,24.414,28.320,41.504,94.238,0
1553804630.203,52.246,30.762,36.133,36.621,43.457,0
1553804630.207,70.801,38.086,37.598,41.992,48.340,0
1553804630.211,68.359,39.551,36.133,26.367,96.191,0
1553804630.215,51.270,33.691,33.203,34.180,63.965,0
1553804630.219,56.641,31.250,34.180,51.270,89.355,0
1553804630.223,59.082,34.668,40.527,20.020,98.633,0
1553804630.227,38.574,34.668,43.945,0.000,50.781,0
1553804630.231,32.227,26.855,43.457,11.719,14.160,0
1553804630.235,65.430,22.949,37.598,55.664,6.836,0
1553804630.239,73.730,26.367,32.715,54.199,32.227,0
1553804630.243,71.289,32.715,23.438,27.832,39.062,0
1553804630.246,61.523,36.621,21.484,41.992,41.992,0
1553804630.250,40.039,35.156,31.738,51.758,41.504,0
1553804630.254,56.152,34.668,35.156,42.969,35.156,0
1553804630.258,58.105,31.738,30.762,17.578,27.344,0
1553804630.262,50.781,19.531,26.855,27.832,-7.812,0
1553804630.266,76.172,13.672,30.273,102.051,20.020,0
1553804630.270,94.727,11.719,31.250,118.652,75.195,0
1553804630.274,104.492,5.859,28.320,46.875,79.102,0
1553804630.278,90.820,1.465,30.273,56.641,60.059,0
1553804630.282,102.051,-1.465,29.297,98.633,74.707,0
1553804630.286,135.254,-1.465,29.297,121.582,53.223,0
1553804630.289,111.328,-0.977,38.574,118.652,15.137,0
1553804630.293,85.449,-0.488,46.387,98.145,-10.254,0
1553804630.297,97.656,2.930,44.922,105.957,-10.254,0
1553804630.301,134.766,5.371,36.133,97.656,0.488,0
1553804630.305,123.535,2.441,28.320,76.660,16.602,0
1553804630.309,80.078,2.930,25.879,92.285,51.270,0
1553804630.313,80.566,1.953,26.855,108.887,66.406,0
1553804630.317,99.609,0.000,29.785,98.145,38.086,0
1553804630.321,130.371,11.230,30.273,93.750,62.988,0
1553804630.325,106.934,13.184,31.250,72.754,94.238,0
1553804630.328,59.570,2.930,34.180,75.684,70.312,0
1553804630.332,66.406,4.883,36.621,93.262,11.230,0
1553804630.336,108.887,9.277,40.039,123.535,15.137,0
1553804630.340,112.305,14.648,41.992,101.074,22.949,0
1553804630.344,82.031,21.973,36.621,51.270,-5.859,0
1553804630.348,66.406,28.809,34.180,74.707,-21.484,0
1553804630.352,83.984,31.738,32.715,82.031,-1.953,0
1553804630.356,114.258,21.973,27.832,90.332,-46.875,0
1553804630.360,102.539,17.090,29.297,91.797,-27.344,0
1553804630.364,72.754,22.461,28.809,58.105,62.988,0
1553804630.368,78.613,22.949,25.879,38.574,-5.371,0
1553804630.371,98.145,24.902,29.785,66.895,3.418,0
1553804630.375,75.195,27.344,29.785,83.984,104.492,0
1553804630.379,74.219,25.879,30.762,79.102,49.805,0
1553804630.383,84.961,26.855,33.203,54.199,17.090,0
1553804630.387,74.707,29.297,34.180,56.641,80.566,0
1553804630.391,67.383,29.785,35.645,76.660,90.820,0
1553804630.395,46.387,30.762,35.645,47.363,75.195,0
1553804630.399,66.895,29.297,29.297,17.578,18.066,0
1553804630.403,85.938,27.344,28.809,69.336,1.953,0
1553804630.407,52.734,26.855,35.156,69.336,32.227,0
1553804630.411,48.828,25.879,36.621,29.785,-16.113,0
1553804630.414,55.176,24.414,36.133,39.062,-4.395,0
1553804630.418,36.621,23.438,32.715,54.688,65.918,0
1553804630.422,73.242,28.320,35.645,54.199,36.621,0
1553804630.426,80.078,27.344,35.645,47.852,-6.348,0
1553804630.430,40.039,20.996,30.273,72.754,-21.973,0
1553804630.434,57.129,27.344,29.785,59.570,-6.836,0
1553804630.438,77.637,32.715,34.668,31.738,21.973,0
1553804630.442,63.477,25.391,34.180,17.578,69.336,0
1553804630.446,24.902,27.832,25.879,10.742,83.496,0
1553804630.450,20.996,30.762,28.809,19.043,12.207,0
1553804630.453,52.734,28.320,34.180,8.301,29.297,0
1553804630.457,66.895,37.109,33.691,10.742,54.199,0
1553804630.461,62.500,42.480,38.574,45.410,20.020,0
1553804630.465,29.297,35.645,38.574,39.062,39.551,0
1553804630.469,20.508,27.344,32.715,33.691,15.625,0
1553804630.473,61.523,30.762,32.715,25.391,31.250,0
1553804630.477,77.637,34.668,35.645,15.625,40.527,0
1553804630.481,57.617,32.227,33.691,29.297,23.438,0
1553804630.485,42.480,34.668,33.203,22.461,39.062,0
1553804630.489,62.988,43.945,33.691,35.645,13.184,0
1553804630.493,76.172,43.457,28.809,34.180,-2.930,0
1553804630.496,76.660,35.156,26.855,33.203,51.270,0
1553804630.500,76.660,35.156,32.227,27.344,20.996,0
1553804630.504,77.637,33.203,34.668,32.715,20.996,0
1553804630.508,86.426,35.156,35.156,56.641,27.344,0
1553804630.512,24.414,32.715,32.715,20.508,12.695,0
1553804630.516,18.066,26.367,27.344,-13.672,47.852,0
1553804630.520,64.453,27.832,24.414,-7.812,20.020,0
1553804630.524,65.430,29.297,28.809,13.672,26.855,0
1553804630.528,61.523,31.250,31.738,39.062,64.453,0
1553804630.532,44.922,31.738,26.367,21.973,39.062,0
1553804630.536,48.340,27.344,21.484,2.441,26.855,0
1553804630.539,60.059,34.668,25.391,33.691,12.695,0
1553804630.543,59.082,40.039,30.762,41.016,14.648,0
1553804630.547,47.852,34.180,27.832,10.254,-1.465,0
1553804630.551,60.547,32.227,31.250,23.926,26.855,0
1553804630.555,65.430,25.391,34.180,26.855,65.918,0
1553804630.559,37.109,15.625,33.203,28.320,44.434,0
1553804630.563,60.547,19.531,32.227,71.289,48.828,0
1553804630.567,96.191,38.574,24.414,48.340,10.254,0
1553804630.571,71.289,50.293,20.996,17.090,3.906,0
1553804630.575,68.359,52.734,23.438,41.504,16.113,0
1553804630.578,57.617,57.129,24.902,46.875,21.484,0
1553804630.582,47.363,58.594,20.508,34.668,54.688,0
1553804630.586,60.547,63.477,16.602,10.254,19.043,0
1553804630.590,71.777,69.824,21.484,0.977,40.039,0
1553804630.594,66.406,69.824,22.949,-2.930,77.148,0
1553804630.598,1.465,69.824,19.043,20.996,12.695,0
1553804630.602,23.438,72.266,25.391,43.457,-23.438,0
1553804630.606,82.031,64.941,30.273,0.488,-12.207,0
1553804630.610,27.344,60.547,24.414,-16.113,6.348,0
1553804630.614,10.254,62.988,22.461,6.348,18.555,0
1553804630.618,44.922,58.105,22.949,19.531,59.082,0
1553804630.621,49.805,53.223,21.484,24.902,68.848,0
1553804630.625,46.387,55.664,20.508,31.738,-22.461,0
1553804630.629,48.828,62.988,18.555,24.902,-21.973,0
1553804630.633,62.988,56.152,17.578,-5.371,25.391,0
1553804630.637,68.359,45.898,20.996,-5.859,-31.738,0
1553804630.641,37.598,48.340,23.926,11.230,-39.062,0
1553804630.645,20.996,50.293,22.461,25.879,-0.977,0
1553804630.649,16.602,49.316,21.484,29.785,1.953,0
1553804630.653,20.020,50.781,19.043,16.602,26.855,0
1553804630.657,48.340,49.316,17.578,4.395,22.461,0
1553804630.661,45.410,43.457,20.508,-1.953,-11.230,0
1553804630.664,34.668,42.969,16.113,21.484,6.836,0
1553804630.668,62.012,49.805,14.648,33.203,39.062,0
1553804630.672,72.754,49.805,24.902,29.297,50.781,0
1553804630.676,53.711,44.922,25.391,30.273,39.062,0
1553804630.680,20.020,39.062,26.367,19.531,43.457,0
1553804630.684,14.160,34.668,32.227,59.082,20.996,0
1553804630.688,46.875,35.156,33.203,89.355,45.898,0
1553804630.692,45.898,36.133,26.367,19.043,99.609,0
1553804630.696,40.527,30.762,20.996,-9.766,28.320,0
1553804630.700,54.688,31.250,24.414,13.672,2.930,0
1553804630.703,55.664,45.898,24.902,22.461,2.930,0
1553804630.707,20.020,45.410,20.996,22.949,-35.645,0
1553804630.711,37.598,31.250,23.926,17.578,5.371,0
1553804630.715,45.410,35.645,29.785,24.414,26.367,0
1553804630.719,12.207,49.316,25.879,-5.371,4.883,0
1553804630.723,9.766,40.039,27.344,-20.020,15.625,0
1553804630.727,-22.949,36.133,31.738,0.488,81.055,0
1553804630.731,-46.875,41.016,38.086,-48.828,32.715,0
1553804630.735,-20.020,36.621,40.039,-76.660,-58.105,0
1553804630.739,-8.301,36.133,33.203,-83.984,-3.906,0
1553804630.743,-55.176,37.598,27.832,-90.820,48.340,0
1553804630.746,-75.195,36.621,31.738,-77.148,30.762,0
1553804630.750,-63.477,36.621,39.551,-90.332,42.969,0
1553804630.754,-62.500,36.621,37.598,-104.492,29.297,0
1553804630.758,-68.359,37.109,29.297,-108.887,44.922,0
1553804630.762,-75.684,34.668,27.832,-104.492,4.883,0
1553804630.766,-69.824,28.320,25.391,-90.332,-9.277,0
1553804630.770,-51.758,25.391,20.020,-88.867,13.184,0
1553804630.774,-28.320,31.250,27.344,-71.289,-11.719,0
1553804630.778,-27.344,35.156,30.273,-49.805,-33.691,0
1553804630.782,-44.434,30.273,23.438,-61.523,-25.391,0
1553804630.786,-25.879,26.367,28.320,-54.199,4.395,0
1553804630.789,-9.277,29.785,27.832,-6.348,36.133,0
1553804630.793,-20.020,30.273,23.926,-23.438,51.758,0
1553804630.797,-23.438,27.832,28.320,-48.340,41.992,0
1553804630.801,-20.996,27.832,26.367,-36.621,7.324,0
1553804630.805,-9.766,34.668,25.391,-26.855,42.969,0
1553804630.809,-11.230,37.109,27.832,-25.391,131.836,0
1553804630.813,-28.320,34.180,23.438,-12.695,96.680,0
1553804630.817,-9.277,35.645,22.461,1.465,46.875,0
1553804630.821,27.832,35.156,20.996,-14.648,72.754,0
1553804630.825,18.066,31.250,22.949,-4.883,52.734,0
1553804630.828,-16.602,32.715,30.273,-29.785,51.758,0
1553804630.832,9.766,37.109,27.832,-55.176,88.379,0
1553804630.836,30.273,36.133,23.926,-5.371,57.129,0
1553804630.840,7.812,28.320,30.273,35.156,35.645,0
1553804630.844,-1.465,23.926,32.715,45.410,33.691,0
1553804630.848,24.902,22.461,32.715,12.207,24.902,0
1553804630.852,62.988,23.926,37.109,-17.090,-1.465,0
1553804630.856,64.453,30.762,38.086,2.441,-12.695,0
1553804630.860,14.648,39.551,31.738,-10.742,-26.367,0
1553804630.864,-12.695,44.434,29.297,-6.836,30.273,0
1553804630.868,23.438,38.574,27.344,20.508,44.922,0
1553804630.871,50.293,27.344,24.414,34.668,4.883,0
1553804630.875,30.762,29.297,21.484,30.762,36.621,0
1553804630.879,18.066,35.645,19.043,20.508,42.480,0
1553804630.883,61.035,26.855,22.461,-0.488,20.020,0
1553804630.887,64.453,31.738,31.738,-6.836,19.531,0
1553804630.891,22.461,41.504,35.645,14.648,23.438,0
1553804630.895,14.160,37.109,27.832,20.996,5.859,0
1553804630.899,43.945,27.344,28.809,23.438,16.113,0
1553804630.903,62.500,26.367,32.715,17.578,23.438,0
1553804630.907,34.180,29.297,30.762,12.207,95.703,0
1553804630.911,17.578,33.203,26.855,21.484,66.406,0
1553804630.914,22.949,34.668,27.344,11.719,-34.668,0
1553804630.918,35.645,32.715,32.227,-3.418,33.691,0
1553804630.922,47.852,32.715,32.227,24.902,78.613,0
1553804630.926,43.457,34.180,26.367,9.766,63.477,0
1553804630.930,26.855,34.668,22.461,-7.324,70.801,0
1553804630.934,39.062,33.203,20.508,24.902,15.137,0
1553804630.938,52.246,32.715,24.902,40.527,-0.488,0
1553804630.942,40.527,33.691,30.762,48.828,35.645,0
1553804630.946,45.898,41.992,30.273,52.246,9.766,0
1553804630.950,47.852,41.992,30.273,26.367,24.414,0
1553804630.953,56.641,32.715,30.762,28.809,75.684,0
1553804630.957,61.523,29.785,27.832,41.992,23.438,0
1553804630.961,27.832,24.414,25.879,26.855,44.922,0
1553804630.965,23.926,26.367,24.902,20.020,58.594,0
1553804630.969,50.781,41.016,22.461,23.438,20.508,0
1553804630.973,62.500,48.828,19.531,32.227,42.969,0
1553804630.977,55.664,45.410,22.949,43.457,11.719,0
1553804630.981,41.504,41.016,26.367,23.438,21.484,0
1553804630.985,50.781,36.621,31.250,39.062,-8.301,0
1553804630.989,54.199,29.785,32.227,31.738,0.488,0
1553804630.993,29.297,30.762,28.320,3.418,26.367,0
1553804630.996,25.879,29.785,26.855,13.184,43.457,0
1553804631.000,38.574,27.832,21.973,8.301,59.082,0
1553804631.004,44.434,29.785,29.297,17.578,21.973,0
1553804631.008,34.180,31.250,31.738,37.109,69.336,0
1553804631.012,22.461,29.785,26.855,27.344,133.301,0
1553804631.016,35.156,22.949,30.762,39.551,97.656,0
1553804631.020,53.711,21.973,33.203,57.617,33.691,0
1553804631.024,58.105,23.438,36.621,35.645,-4.395,0
1553804631.028,59.570,23.438,37.109,22.461,26.855,0
1553804631.032,47.852,34.668,29.297,5.859,30.273,0
1553804631.036,20.508,41.992,23.438,7.324,20.508,0
1553804631.039,39.551,41.504,24.414,14.648,-2.441,0
1553804631.043,45.898,47.363,26.855,13.672,-21.973,0
1553804631.047,21.973,49.805,24.902,34.668,19.043,0
1553804631.051,59.570,46.875,20.508,41.504,31.738,0
1553804631.055,69.336,43.457,16.113,29.785,8.301,0
1553804631.059,21.484,40.039,28.320,23.438,10.254,0
1553804631.063,18.066,45.410,40.039,23.438,16.113,0
1553804631.067,31.250,44.922,34.180,16.602,32.227,0
1553804631.071,42.480,41.504,30.273,20.020,80.566,0
1553804631.075,37.598,38.574,24.414,14.160,69.824,0
1553804631.078,51.758,36.133,20.508,13.184,12.695,0
1553804631.082,72.754,42.480,23.926,27.344,-16.113,0
1553804631.086,63.965,40.039,30.762,24.414,3.906,0
1553804631.090,52.246,38.574,31.250,39.062,-13.184,0
1553804631.094,36.621,42.480,26.855,68.359,-32.227,0
1553804631.098,50.293,38.086,25.879,39.062,-23.926,0
1553804631.102,79.590,32.715,23.926,9.277,21.484,0
1553804631.106,67.871,30.273,20.508,35.645,49.805,0
1553804631.110,39.551,40.039,22.949,33.203,-4.883,0
1553804631.114,39.062,47.363,27.832,14.648,20.508,0
1553804631.118,52.734,43.945,26.855,28.320,89.844,0
1553804631.121,51.758,45.898,25.879,45.898,2.930,0
1553804631.125,33.203,45.898,21.973,44.922,-22.949,0
1553804631.129,26.367,32.715,20.508,27.344,1.465,0
1553804631.133,24.414,27.344,16.113,13.672,-47.852,0
1553804631.137,45.898,41.016,14.160,25.879,26.367,0
1553804631.141,43.457,46.875,22.949,41.504,44.922,0
1553804631.145,24.414,38.086,30.273,27.344,43.457,0
1553804631.149,33.203,35.156,28.320,29.297,50.781,0
1553804631.153,71.289,39.551,23.438,28.320,-16.113,0
1553804631.157,71.777,42.969,23.926,20.020,22.949,0
1553804631.161,24.414,37.109,26.855,23.438,33.691,0
1553804631.164,41.016,32.227,25.391,1.465,3.418,0
1553804631.168,81.055,38.574,25.391,20.020,48.340,0
1553804631.172,68.359,40.527,24.902,53.223,83.496,0
1553804631.176,42.480,38.574,20.508,38.574,65.918,0
1553804631.180,36.133,32.715,18.555,30.762,-8.301,0
1553804631.184,41.016,26.855,20.020,41.016,14.160,0
1553804631.188,49.805,31.738,20.020,38.574,44.434,0
1553804631.192,50.781,36.133,22.949,29.297,-10.254,0
1553804631.196,37.598,36.133,24.414,35.156,-16.113,0
1553804631.200,38.086,39.062,20.996,32.227,16.113,0
1553804631.203,62.012,40.039,29.297,21.973,38.086,0
1553804631.207,65.918,37.109,32.715,23.438,21.484,0
1553804631.211,38.086,34.180,21.484,23.438,21.973,0
1553804631.215,33.203,34.668,24.902,37.598,42.480,0
1553804631.219,47.852,37.109,28.320,40.527,-1.465,0
1553804631.223,47.363,33.203,21.973,39.551,-12.207,0
1553804631.227,37.598,31.738,22.461,38.086,26.855,0
1553804631.231,42.969,40.527,23.926,28.809,40.527,0
1553804631.235,34.180,43.945,25.879,38.574,16.113,0
1553804631.239,22.949,41.016,27.832,28.809,2.441,0
1553804631.243,17.090,38.574,27.344,16.113,22.949,0
1553804631.246,-13.184,35.156,28.809,18.066,6.836,0
1553804631.250,-19.531,34.180,27.344,28.809,-4.395,0
1553804631.254,4.395,35.645,25.879,27.344,35.156,0
1553804631.258,2.441,33.691,25.879,9.766,82.031,0
1553804631.262,-14.160,33.691,24.414,-3.418,52.734,0
1553804631.266,-11.719,35.156,26.367,13.672,44.922,0
1553804631.270,-11.230,29.297,31.738,25.879,24.902,0
1553804631.274,-9.277,22.949,31.250,24.414,-1.953,0
1553804631.278,-19.043,18.066,27.832,23.926,32.715,0
1553804631.282,-27.344,12.695,28.809,11.719,11.230,0
1553804631.286,0.000,8.789,32.227,27.344,10.742,0
1553804631.289,26.367,7.324,35.645,50.781,-1.465,0
1553804631.293,20.020,3.418,34.180,56.152,27.344,0
1553804631.297,19.531,-3.418,37.598,42.480,22.949,0
1553804631.301,41.504,-7.812,45.410,48.828,-15.137,0
1553804631.305,53.711,-11.230,41.504,79.590,33.203,0
1553804631.309,37.598,-13.184,37.598,65.918,91.309,0
1553804631.313,29.785,-10.742,36.133,46.387,75.195,0
1553804631.317,33.691,-14.648,35.156,72.754,-25.879,0
1553804631.321,50.293,-18.066,38.086,85.938,16.113,0
1553804631.325,39.062,-16.602,41.504,71.777,41.016,0
1553804631.328,23.438,-19.043,41.504,68.359,4.883,0
1553804631.332,42.969,-20.508,36.621,84.473,38.574,0
1553804631.336,59.570,-14.648,31.250,81.543,60.059,0
1553804631.340,52.246,-9.766,36.133,91.797,30.762,0
1553804631.344,43.945,-13.672,43.457,76.172,67.871,0
1553804631.348,52.734,-12.207,37.598,44.434,95.703,0
1553804631.352,51.758,-6.348,34.180,75.684,69.824,0
1553804631.356,33.691,-4.395,34.668,87.402,48.828,0
1553804631.360,40.039,-6.836,36.133,76.660,39.551,0
1553804631.364,37.598,-5.371,37.109,83.496,53.711,0
1553804631.368,21.484,0.977,30.273,77.148,56.641,0
1553804631.371,27.344,3.906,29.785,80.078,53.711,0
1553804631.375,13.184,6.836,31.738,88.867,65.430,0
1553804631.379,-19.531,9.277,31.738,95.215,52.734,0
1553804631.383,-14.160,10.742,31.738,103.516,51.758,0
1553804631.387,15.137,5.859,34.180,90.332,37.109,0
1553804631.391,6.348,4.395,35.645,66.895,37.598,0
1553804631.395,-15.625,12.207,37.109,59.082,60.547,0
1553804631.399,-4.395,18.066,38.574,61.035,24.902,0
1553804631.403,12.695,20.020,39.062,56.641,-21.973,0
1553804631.407,7.812,17.090,37.109,46.875,-11.719,0
1553804631.411,-5.859,14.160,39.551,50.293,-2.441,0
1553804631.414,14.160,15.625,37.109,53.711,20.020,0
1553804631.418,43.457,11.230,35.645,71.777,10.742,0
1553804631.422,36.133,5.859,34.668,72.266,24.902,0
1553804631.426,8.789,8.789,26.855,38.574,114.258,0
1553804631.430,7.324,13.672,26.855,24.414,43.945,0
1553804631.434,40.527,12.695,28.320,44.922,-1.953,0
1553804631.438,54.688,9.766,29.785,62.500,30.273,0
1553804631.442,33.203,18.066,29.297,59.570,-6.836,0
1553804631.446,3.906,22.461,31.250,31.250,14.160,0
1553804631.450,15.625,18.066,32.227,30.273,54.688,0
1553804631.453,40.039,23.438,28.320,51.758,5.859,0
1553804631.457,35.156,20.996,33.203,46.387,-20.508,0
1553804631.461,13.184,20.508,31.250,42.969,27.344,0
1553804631.465,12.207,26.855,23.926,33.203,46.387,0
1553804631.469,37.109,22.461,27.344,34.668,34.668,0
1553804631.473,30.273,19.043,28.809,51.758,24.902,0
1553804631.477,17.090,22.949,26.367,25.879,-17.090,0
1553804631.481,25.391,20.996,26.367,38.086,44.434,0
1553804631.485,35.156,26.367,25.879,67.383,109.863,0
1553804631.489,50.293,31.250,23.926,54.199,59.082,0
1553804631.493,33.203,28.320,22.461,31.250,38.574,0
1553804631.496,11.230,20.508,20.996,42.480,37.109,0
1553804631.500,27.344,16.113,21.973,55.664,39.062,0
1553804631.504,39.551,21.973,20.020,25.391,14.648,0
1553804631.508,34.180,22.461,21.973,23.926,17.090,0
1553804631.512,14.160,26.367,25.879,50.293,39.551,0
1553804631.516,26.367,34.180,24.902,54.688,45.410,0
1553804631.520,55.664,30.762,20.508,33.203,41.016,0
1553804631.524,39.062,27.832,16.113,38.086,37.109,0
1553804631.528,9.766,30.762,19.531,59.082,15.625,0
1553804631.532,12.207,29.297,24.902,53.223,27.344,0
1553804631.536,29.785,29.297,23.438,52.734,4.395,0
1553804631.539,37.109,33.203,20.508,62.012,1.953,0
1553804631.543,13.672,35.645,21.973,52.246,23.438,0
1553804631.547,-4.883,34.668,24.414,59.082,7.324,0
1553804631.551,8.301,32.715,26.367,56.641,29.785,0
1553804631.555,18.066,29.297,29.297,55.664,37.109,0
1553804631.559,2.441,29.785,26.855,56.152,65.430,0
1553804631.563,-20.508,24.414,25.879,24.902,51.270,0
1553804631.567,-5.859,20.996,26.855,22.949,13.672,0
1553804631.571,13.672,28.809,29.785,52.734,-1.465,0
1553804631.575,-9.766,30.273,31.738,50.293,-1.465,0
1553804631.578,-20.508,30.762,28.809,30.762,55.664,0
1553804631.582,-9.277,28.809,25.879,17.090,23.438,0
1553804631.586,-9.277,28.320,24.902,11.719,7.324,0
1553804631.590,-15.137,30.273,28.809,14.160,75.195,0
1553804631.594,-33.203,28.809,26.367,21.973,40.039,0
1553804631.598,-37.598,26.855,24.414,32.227,26.855,0
1553804631.602,-23.438,24.414,29.297,22.461,3.906,0
1553804631.606,-25.879,29.785,34.180,27.344,-15.625,0
1553804631.610,-60.059,32.715,30.273,18.066,48.340,0
1553804631.614,-74.219,31.250,23.438,4.883,-32.715,0
1553804631.618,-48.340,31.250,23.438,12.695,-7.812,0
1553804631.621,-24.414,27.344,24.902,10.254,62.012,0
1553804631.625,-31.250,25.391,30.273,16.113,34.180,0
1553804631.629,-61.035,26.367,36.133,4.883,57.129,0
1553804631.633,-47.363,15.625,40.527,-13.184,31.738,0
1553804631.637,-22.461,13.184,42.969,20.020,-24.414,0
1553804631.641,-59.570,30.762,36.621,27.344,6.836,0
1553804631.645,-97.656,36.133,27.344,-14.160,-7.812,0
1553804631.649,-83.496,38.574,26.367,-21.484,-26.855,0
1553804631.653,-66.406,40.039,24.902,-36.621,8.301,0
1553804631.657,-80.566,41.992,23.926,-52.734,-6.348,0
1553804631.661,-98.633,47.363,22.949,-79.102,20.508,0
1553804631.664,-110.840,43.457,20.996,-114.746,34.668,0
1553804631.668,-106.445,47.852,21.973,-116.699,32.227,0
1553804631.672,-88.379,46.875,20.996,-119.141,12.207,0
1553804631.676,-103.027,53.711,22.461,-129.883,35.645,0
1553804631.680,-113.281,67.871,25.879,-142.090,51.758,0
1553804631.684,-75.684,53.711,27.344,-129.395,-7.324,0
1553804631.688,-68.848,50.781,18.555,-105.957,-8.301,0
1553804631.692,-91.797,59.082,5.859,-110.352,17.578,0
1553804631.696,-98.145,56.641,11.719,-107.910,8.301,0
1553804631.700,-88.867,61.523,18.555,-105.469,41.016,0
1553804631.703,-64.453,64.453,17.090,-82.520,49.805,0
1553804631.707,-52.246,61.523,17.578,-58.105,48.340,0
1553804631.711,-58.105,56.152,18.066,-37.598,69.824,0
1553804631.715,-46.875,50.781,11.719,-21.973,21.484,0
1553804631.719,-29.297,46.387,11.230,-39.062,65.918,0
1553804631.723,-34.180,44.434,19.043,-46.875,86.426,0
1553804631.727,-46.875,46.875,20.996,-38.574,21.973,0
1553804631.731,-62.012,44.922,20.020,-33.691,39.551,0
1553804631.735,-45.898,41.016,23.926,-38.086,20.508,0
1553804631.739,-22.461,41.016,25.879,-27.344,32.715,0
1553804631.743,-50.781,43.457,25.879,-9.766,49.805,0
1553804631.746,-59.570,50.781,20.996,-12.695,30.762,0
1553804631.750,-40.527,50.781,22.461,-3.906,1.465,0
1553804631.754,-20.020,40.527,29.785,0.488,-1.465,0
1553804631.758,-13.672,37.598,26.855,-1.465,8.301,0
1553804631.762,-27.344,32.715,22.461,14.160,-15.625,0
1553804631.766,-26.367,34.668,20.996,10.742,42.480,0
1553804631.770,19.531,39.062,19.531,12.207,45.410,0
1553804631.774,40.039,34.668,22.949,14.160,-3.418,0
1553804631.778,-9.277,31.250,26.855,3.906,9.766,0
1553804631.782,-16.113,33.203,27.344,28.320,9.277,0
1553804631.786,24.902,32.715,28.809,49.316,8.301,0
1553804631.789,39.551,32.715,30.273,2.441,-18.555,0
1553804631.793,22.461,40.039,24.902,1.953,-38.086,0
1553804631.797,33.203,35.645,19.043,35.645,25.391,0
1553804631.801,66.895,28.809,21.973,2.930,101.562,0
1553804631.805,71.289,32.227,27.832,8.789,91.309,0
1553804631.809,72.266,37.109,25.879,22.461,48.828,0
1553804631.813,78.613,39.062,24.902,24.902,46.387,0
1553804631.817,71.289,33.691,25.879,29.785,32.227,0
1553804631.821,81.543,27.344,26.855,29.785,49.805,0
1553804631.825,88.379,27.344,30.273,9.766,91.309,0
1553804631.828,65.918,37.109,30.762,13.184,61.035,0
1553804631.832,62.988,40.039,27.832,16.602,68.848,0
1553804631.836,89.355,35.156,28.320,11.719,111.816,0
1553804631.840,93.262,36.133,26.855,19.531,39.062,0
1553804631.844,73.242,35.156,21.973,18.555,38.574,0
1553804631.848,43.457,40.527,20.508,18.066,83.984,0
1553804631.852,51.270,36.621,25.391,-2.441,16.113,0
1553804631.856,88.867,33.203,31.738,11.719,-2.441,0
1553804631.860,78.613,35.156,31.250,24.902,61.035,0
1553804631.864,52.734,39.551,22.461,25.879,69.824,0
1553804631.868,63.965,42.480,16.602,33.691,29.297,0
1553804631.871,85.449,44.922,22.949,12.695,7.812,0
1553804631.875,83.984,44.434,24.414,0.977,36.621,0
1553804631.879,51.270,37.109,21.973,24.414,25.391,0
1553804631.883,39.551,28.320,24.414,19.043,-33.691,0
1553804631.887,73.730,30.762,24.902,13.672,-46.387,0
1553804631.891,83.008,36.621,25.391,21.973,-82.520,0
1553804631.895,58.594,34.180,29.785,14.160,-5.371,0
1553804631.899,59.570,33.203,30.762,13.184,78.125,0
1553804631.903,78.125,34.668,27.344,23.438,9.766,0
1553804631.907,79.102,39.062,21.484,31.738,-6.836,0
1553804631.911,78.125,40.527,19.043,26.855,31.250,0
1553804631.914,83.984,37.598,19.531,28.320,43.457,0
1553804631.918,91.797,29.297,24.902,35.645,61.035,0
1553804631.922,73.730,17.090,29.785,31.738,47.363,0
1553804631.926,55.664,15.625,32.715,36.621,10.254,0
1553804631.930,53.223,20.020,31.738,39.062,-24.414,0
1553804631.934,66.895,17.578,31.250,37.109,6.348,0
1553804631.938,66.895,18.555,30.273,36.621,48.828,0
1553804631.942,58.594,22.949,27.344,29.785,37.598,0
1553804631.946,66.895,24.414,29.297,28.320,68.848,0
1553804631.950,73.242,25.879,28.809,32.715,85.938,0
1553804631.953,90.332,26.855,26.855,32.715,25.879,0
1553804631.957,90.332,22.949,25.391,21.973,-14.160,0
1553804631.961,62.012,19.043,29.297,13.184,20.996,0
1553804631.965,57.129,23.926,32.227,25.879,81.055,0
1553804631.969,79.102,27.344,26.855,36.621,39.062,0
1553804631.973,76.660,24.414,22.949,23.926,43.457,0
1553804631.977,47.852,28.809,23.926,20.508,31.250,0
1553804631.981,41.504,31.250,24.902,23.438,-2.930,0
1553804631.985,54.688,29.297,22.949,26.855,14.160,0
1553804631.989,62.012,30.762,19.531,27.344,25.391,0
1553804631.993,45.410,25.879,22.949,23.926,64.941,0
1553804631.996,24.902,26.855,24.414,21.973,92.773,0
1553804632.000,38.086,28.809,28.320,13.184,42.480,0
1553804632.004,54.199,27.344,35.156,23.438,24.414,0
1553804632.008,47.852,34.180,32.715,32.227,61.035,0
1553804632.012,24.414,35.645,28.320,29.297,33.203,0
1553804632.016,13.184,32.227,28.809,10.254,47.852,0
1553804632.020,31.250,27.344,33.203,8.301,46.387,0
1553804632.024,29.785,28.809,33.691,25.391,43.457,0
1553804632.028,-3.418,27.832,27.832,28.320,83.008,0
1553804632.032,-11.719,16.602,26.855,6.836,-13.672,0
1553804632.036,17.090,21.973,27.344,3.906,31.738,0
1553804632.039,27.832,34.668,24.414,18.066,95.703,0
1553804632.043,6.836,35.156,27.832,25.391,10.254,0
1553804632.047,-0.488,32.715,30.762,35.156,64.453,0
1553804632.051,9.277,28.320,28.320,20.020,120.117,0
1553804632.055,13.184,22.461,27.832,18.555,55.664,0
1553804632.059,-3.906,25.391,28.320,13.184,-3.906,0
1553804632.063,-30.762,29.297,27.344,1.953,17.578,0
1553804632.067,-7.812,23.438,31.738,14.648,53.223,0
1553804632.071,38.086,24.414,34.668,36.621,-23.438,0
1553804632.075,9.277,35.645,24.902,16.113,-26.367,0
1553804632.078,-21.973,40.527,18.555,-4.883,49.805,0
1553804632.082,-10.254,43.457,22.461,7.324,39.062,0
1553804632.086,3.418,45.898,22.949,11.230,8.301,0
1553804632.090,9.766,48.340,22.461,21.973,20.020,0
1553804632.094,-3.906,55.176,20.508,37.109,32.715,0
1553804632.098,-23.926,61.035,17.578,23.438,21.484,0
1553804632.102,-7.812,60.547,14.648,26.855,0.000,0
1553804632.106,23.438,58.594,16.113,29.785,-26.855,0
1553804632.110,2.441,52.734,20.020,25.879,7.324,0
1553804632.114,-30.762,48.340,20.996,36.133,10.254,0
1553804632.118,-20.020,49.805,20.020,11.719,-9.766,0
1553804632.121,2.930,54.199,16.113,-11.230,-0.488,0
1553804632.125,-2.441,53.711,15.137,3.906,31.250,0
1553804632.129,-22.949,47.363,20.020,2.441,26.855,0
1553804632.133,-30.273,50.293,15.625,8.789,-1.465,0
1553804632.137,-22.461,55.664,12.695,25.391,47.363,0
1553804632.141,-20.020,56.152,19.043,14.648,0.488,0
1553804632.145,-21.973,56.152,18.066,12.207,-29.297,0
1553804632.149,-15.137,51.758,14.160,23.438,24.414,0
1553804632.153,3.906,48.340,18.555,25.391,44.434,0
1553804632.157,18.555,49.805,20.020,36.133,72.266,0
1553804632.161,8.301,50.293,18.066,41.992,43.457,0
1553804632.164,-7.812,43.945,18.555,54.199,25.879,0
1553804632.168,14.160,42.480,21.973,40.039,37.109,0
1553804632.172,57.129,46.875,26.367,7.324,19.531,0
1553804632.176,34.668,42.969,22.461,10.742,14.160,0
1553804632.180,4.883,38.086,17.578,27.832,-2.441,0
1553804632.184,22.949,38.574,19.531,35.645,-8.789,0
1553804632.188,29.297,39.551,19.531,29.297,71.777,0
1553804632.192,21.484,39.062,21.484,19.531,85.938,0
1553804632.196,9.277,36.621,23.926,21.973,-19.043,0
1553804632.200,24.902,38.574,19.043,30.273,-27.832,0
1553804632.203,54.199,36.133,20.020,52.734,23.438,0
1553804632.207,46.387,33.203,26.855,58.105,13.672,0
1553804632.211,20.996,40.527,26.367,24.414,-4.883,0
1553804632.215,19.043,44.922,21.484,8.789,15.625,0
1553804632.219,36.133,44.434,18.066,25.879,41.504,0
1553804632.223,46.875,41.992,16.113,33.691,20.508,0
1553804632.227,29.297,34.180,18.066,7.324,12.695,0
1553804632.231,23.438,33.691,13.672,6.836,-18.555,0
1553804632.235,42.480,37.598,15.625,15.625,-0.488,0
1553804632.239,50.293,37.109,23.926,14.160,22.949,0
1553804632.243,28.320,39.551,20.020,21.973,-3.906,0
1553804632.246,26.855,39.062,17.578,17.090,52.734,0
1553804632.250,44.922,37.109,20.996,23.438,100.098,0
1553804632.254,40.039,38.086,21.484,23.926,70.312,0
1553804632.258,26.367,37.598,21.973,38.086,31.738,0
1553804632.262,10.254,29.785,25.391,30.762,14.648,0
1553804632.266,19.043,31.250,21.973,7.324,43.457,0
1553804632.270,32.227,33.691,22.461,23.438,25.391,0
1553804632.274,15.137,34.668,21.973,2.930,-7.812,0
1553804632.278,-0.977,39.062,19.531,-6.348,47.363,0
1553804632.282,12.207,39.551,19.531,12.207,41.504,0
1553804632.286,24.902,40.039,18.066,17.578,36.133,0
1553804632.289,26.855,36.133,16.602,15.625,14.160,0
1553804632.293,1.465,29.297,21.973,24.902,1.953,0
1553804632.297,-10.742,34.180,27.832,21.484,6.348,0
1553804632.301,8.789,35.645,28.320,-0.488,37.598,0
1553804632.305,3.906,27.344,32.715,1.953,107.910,0
1553804632.309,-6.348,27.832,35.645,18.555,130.859,0
1553804632.313,-9.277,33.203,29.785,16.602,80.078,0
1553804632.317,0.488,33.691,27.832,1.953,29.785,0
1553804632.321,24.902,36.621,24.414,14.648,30.762,0
1553804632.325,14.648,34.180,22.461,24.902,10.254,0
1553804632.328,-24.414,27.832,25.391,17.090,-6.836,0
1553804632.332,-8.301,25.879,25.879,2.930,33.691,0
1553804632.336,23.438,23.438,24.902,0.488,92.285,0
1553804632.340,12.695,21.973,25.391,5.859,74.219,0
1553804632.344,0.488,23.438,34.180,13.184,27.832,0
1553804632.348,0.977,24.414,35.156,38.574,-17.090,0
1553804632.352,29.297,21.973,27.832,30.273,-3.418,0
1553804632.356,52.734,21.973,24.414,32.227,38.086,0
1553804632.360,23.438,23.926,22.949,43.457,-25.391,0
1553804632.364,8.789,24.414,25.879,35.645,-8.301,0
1553804632.368,40.039,22.461,25.391,55.664,-6.348,0
1553804632.371,61.035,16.602,27.344,69.336,19.043,0
1553804632.375,42.480,9.766,32.715,61.035,29.297,0
1553804632.379,36.133,11.719,29.297,60.547,-13.184,0
1553804632.383,57.129,16.602,25.879,63.477,27.344,0
1553804632.387,87.891,12.207,24.902,79.102,10.742,0
1553804632.391,86.914,13.672,23.438,90.820,14.160,0
1553804632.395,44.922,14.648,23.438,60.547,35.645,0
1553804632.399,48.340,12.207,23.926,51.758,55.176,0
1553804632.403,60.059,17.090,24.902,68.359,42.480,0
1553804632.407,44.434,20.996,22.461,66.406,-8.301,0
1553804632.411,36.133,24.414,17.578,50.781,1.465,0
1553804632.414,44.434,24.902,19.043,48.340,39.062,0
1553804632.418,61.035,22.461,23.438,61.523,6.836,0
1553804632.422,62.500,23.926,27.344,68.359,14.648,0
1553804632.426,59.082,22.461,26.855,57.617,20.996,0
1553804632.430,41.016,21.484,22.461,56.641,9.277,0
1553804632.434,49.805,25.879,24.414,82.031,18.066,0
1553804632.438,83.496,27.832,30.273,80.566,6.348,0
1553804632.442,80.566,25.391,29.297,58.594,72.754,0
1553804632.446,54.688,25.391,23.438,33.691,43.945,0
1553804632.450,48.340,30.762,18.555,19.531,-33.203,0
1553804632.453,62.988,35.645,13.672,41.016,-23.926,0
1553804632.457,59.082,35.645,17.578,49.805,19.043,0
1553804632.461,45.410,32.227,22.949,37.109,65.430,0
1553804632.465,44.922,32.715,22.949,42.969,104.004,0
1553804632.469,63.965,32.227,28.320,61.035,58.594,0
1553804632.473,77.148,31.738,27.344,59.570,18.555,0
1553804632.477,55.664,35.156,20.996,57.617,23.926,0
1553804632.481,43.945,32.227,24.414,60.059,-3.906,0
1553804632.485,65.918,30.273,28.320,53.711,21.484,0
1553804632.489,65.430,34.668,25.879,54.199,50.293,0
1553804632.493,32.227,33.691,19.531,35.156,43.457,0
1553804632.496,22.461,27.832,20.020,20.508,76.172,0
1553804632.500,43.945,28.809,22.461,36.621,14.160,0
1553804632.504,57.129,33.203,24.414,57.617,35.156,0
1553804632.508,39.551,33.203,26.855,50.781,10.742,0
1553804632.512,16.602,33.691,27.832,45.898,-72.266,0
1553804632.516,31.738,36.621,26.855,42.480,-18.066,0
1553804632.520,59.570,34.180,20.508,49.805,25.391,0
1553804632.524,60.547,26.367,19.043,53.711,57.129,0
1553804632.528,37.598,30.273,23.926,40.039,82.031,0
1553804632.532,23.438,40.039,20.996,32.227,88.867,0
1553804632.536,27.344,39.551,14.648,37.109,78.125,0
1553804632.539,31.738,34.668,11.719,36.621,42.480,0
1553804632.543,17.578,31.738,14.648,15.137,45.410,0
1553804632.547,10.254,31.250,27.832,10.742,60.547,0
1553804632.551,31.250,33.691,27.344,30.273,3.418,0
1553804632.555,43.945,33.203,15.137,34.180,43.457,0
1553804632.559,19.043,32.227,16.602,8.789,51.270,0
1553804632.563,8.789,28.809,21.973,21.484,-1.465,0
1553804632.567,29.785,35.156,23.438,43.457,22.949,0
1553804632.571,23.926,42.480,26.855,12.695,53.711,0
1553804632.575,-5.371,39.062,30.273,-3.906,46.387,0
1553804632.578,-36.621,41.992,27.344,-15.137,1.465,0
1553804632.582,-44.434,33.691,28.809,-32.715,-29.785,0
1553804632.586,-38.086,27.832,37.109,-23.926,21.484,0
1553804632.590,-65.430,31.738,39.551,-36.621,56.152,0
1553804632.594,-80.566,32.715,38.574,-74.219,47.363,0
1553804632.598,-72.754,32.227,37.109,-89.844,10.742,0
1553804632.602,-73.242,27.344,33.203,-95.703,-30.762,0
1553804632.606,-73.730,32.227,25.879,-78.613,-1.465,0
1553804632.610,-76.660,32.227,22.949,-66.895,3.418,0
1553804632.614,-77.148,28.320,29.785,-83.496,-0.488,0
1553804632.618,-63.965,35.645,31.738,-83.984,-16.113,0
1553804632.621,-47.363,42.480,22.949,-65.430,-39.551,0
1553804632.625,-58.594,42.480,19.043,-62.500,-18.555,0
1553804632.629,-62.500,36.133,25.879,-38.086,22.949,0
1553804632.633,-31.250,34.668,25.391,-19.531,2.441,0
1553804632.637,-15.625,34.668,21.484,-31.738,58.594,0
1553804632.641,-20.508,33.203,25.879,-30.273,51.758,0
1553804632.645,-37.109,35.645,19.531,-28.809,14.160,0
1553804632.649,-19.531,31.250,19.531,-19.043,27.344,0
1553804632.653,8.301,27.832,27.344,-5.859,-13.672,0
1553804632.657,-6.348,29.297,28.809,-14.648,-10.742,0
1553804632.661,-32.715,30.273,29.297,-16.602,27.832,0
1553804632.664,-21.484,30.762,26.367,-13.184,4.883,0
1553804632.668,-9.277,29.297,25.391,-25.391,0.000,0
1553804632.672,-6.836,30.273,27.344,-20.508,39.062,0
1553804632.676,-10.254,27.832,29.785,-7.324,4.883,0
1553804632.680,-18.555,29.297,32.227,8.789,3.418,0
1553804632.684,1.465,29.785,31.250,19.043,51.270,0
1553804632.688,13.672,26.855,29.785,12.695,55.176,0
1553804632.692,6.348,32.227,27.832,0.488,45.410,0
1553804632.696,-14.160,24.414,28.809,18.066,40.039,0
1553804632.700,-19.531,15.137,25.391,14.648,75.684,0
1553804632.703,-4.883,21.484,18.555,-4.395,108.398,0
1553804632.707,-3.906,23.438,21.484,12.207,47.852,0
1553804632.711,1.953,21.484,21.973,3.906,-48.828,0
1553804632.715,0.977,20.508,23.438,-8.301,-53.223,0
1553804632.719,-4.395,21.973,25.879,22.461,47.852,0
1553804632.723,21.484,25.879,22.949,30.273,54.199,0
1553804632.727,-0.977,22.461,21.973,-8.789,17.090,0
1553804632.731,-26.855,20.996,23.926,-13.672,33.203,0
1553804632.735,-11.719,24.902,25.391,10.742,22.949,0
1553804632.739,-11.230,25.879,22.461,2.441,33.203,0
1553804632.743,-15.625,22.949,22.461,-2.930,80.078,0
1553804632.746,-11.719,24.902,30.273,-4.395,104.492,0
1553804632.750,22.461,25.879,29.297,-15.137,88.867,0
1553804632.754,37.109,28.320,22.949,-2.930,63.965,0
1553804632.758,11.230,27.344,29.297,4.883,25.879,0
1553804632.762,10.254,25.879,30.762,4.395,68.359,0
1553804632.766,39.551,30.762,21.973,22.949,54.199,0
1553804632.770,62.500,30.273,20.996,34.668,32.715,0
1553804632.774,71.777,31.738,27.832,23.438,79.590,0
1553804632.778,61.523,34.668,24.902,6.348,52.734,0
1553804632.782,50.293,32.227,19.531,-22.949,31.250,0
1553804632.786,62.500,32.227,22.461,-16.113,14.160,0
1553804632.789,60.059,33.691,29.297,41.992,12.695,0
1553804632.793,71.777,33.203,26.367,1.953,29.785,0
1553804632.797,71.777,31.250,20.020,-50.781,8.301,0
1553804632.801,51.270,25.879,21.484,-6.836,-8.301,0
1553804632.805,63.965,22.949,25.391,43.945,11.230,0
1553804632.809,91.309,24.902,30.762,22.949,-12.695,0
1553804632.813,92.773,32.715,30.273,-2.441,-8.301,0
1553804632.817,95.215,40.039,20.020,7.324,17.578,0
1553804632.821,98.633,37.598,18.066,-2.930,-9.766,0
1553804632.825,76.660,33.203,20.508,7.324,-23.926,0
1553804632.828,67.383,26.367,20.508,6.348,20.508,0
1553804632.832,77.148,27.344,22.949,4.883,39.551,0
1553804632.836,87.891,29.785,29.297,32.227,56.152,0
1553804632.840,85.449,32.227,26.855,24.414,50.293,0
1553804632.844,74.707,34.668,21.484,14.648,3.418,0
1553804632.848,68.359,35.156,23.926,39.551,0.000,0
1553804632.852,72.754,36.621,24.902,20.508,6.348,0
1553804632.856,72.754,35.156,24.902,8.789,26.367,0
1553804632.860,60.547,26.855,28.320,13.184,42.480,0
1553804632.864,51.270,26.855,25.879,14.648,14.160,0
1553804632.868,62.012,35.156,22.461,31.250,1.465,0
1553804632.871,76.660,34.180,20.020,22.949,32.227,0
1553804632.875,64.941,28.809,16.602,13.672,54.199,0
1553804632.879,57.129,27.832,16.602,20.020,15.137,0
1553804632.883,41.992,30.273,17.090,26.855,4.395,0
1553804632.887,27.344,25.879,17.578,20.020,89.844,0
1553804632.891,16.602,26.367,17.578,26.855,114.258,0
1553804632.895,13.184,33.691,17.578,26.367,37.598,0
1553804632.899,18.066,35.156,19.043,15.625,21.973,0
1553804632.903,31.250,32.715,18.066,41.504,1.465,0
1553804632.907,32.227,33.691,19.043,55.176,-63.477,0
1553804632.911,23.438,33.203,25.879,28.809,-43.945,0
1553804632.914,26.367,33.203,27.344,31.250,26.367,0
1553804632.918,26.855,36.133,23.926,25.391,3.906,0
1553804632.922,27.832,35.156,26.855,27.832,6.348,0
1553804632.926,27.344,32.715,28.809,21.484,36.621,0
1553804632.930,0.000,29.785,25.879,4.395,8.789,0
1553804632.934,-4.395,27.832,21.973,16.602,61.523,0
1553804632.938,13.184,32.227,17.090,20.508,100.586,0
1553804632.942,1.953,26.367,20.020,32.227,54.199,0
1553804632.946,-9.277,20.996,24.902,48.828,28.809,0
1553804632.950,0.977,26.855,24.902,48.340,28.320,0
1553804632.953,16.602,26.367,23.926,55.664,47.852,0
1553804632.957,18.555,21.484,21.973,34.668,24.414,0
1553804632.961,7.812,22.461,21.484,24.414,-18.555,0
1553804632.965,4.883,31.738,21.973,33.203,13.672,0
1553804632.969,9.277,28.809,22.461,24.902,6.836,0
1553804632.973,0.488,19.043,24.902,29.785,-8.789,0
1553804632.977,-14.160,25.879,23.438,29.297,26.367,0
1553804632.981,-4.395,33.203,27.832,29.297,-15.625,0
1553804632.985,10.742,29.297,28.809,47.852,10.742,0
1553804632.989,23.926,25.391,23.438,49.316,52.246,0
1553804632.993,10.742,28.320,24.902,20.996,61.035,0
1553804632.996,0.488,33.203,18.066,20.996,70.312,0
1553804633.000,13.672,31.250,20.508,47.852,17.578,0
1553804633.004,6.348,24.414,27.344,40.527,-1.953,0
1553804633.008,-16.602,18.555,25.391,11.719,-15.137,0
1553804633.012,-26.367,12.207,26.367,14.160,31.250,0
1553804633.016,-5.859,11.719,27.344,38.086,47.852,0
1553804633.020,19.043,11.719,29.785,48.828,17.090,0
1553804633.024,18.066,14.648,28.809,39.551,23.926,0
1553804633.028,1.465,20.508,27.832,20.996,26.367,0
1553804633.032,6.348,23.438,31.738,32.715,29.297,0
1553804633.036,39.551,28.320,28.809,51.758,27.832,0
1553804633.039,35.156,27.344,23.926,25.391,42.480,0
1553804633.043,-15.625,26.367,23.926,14.648,50.293,0
1553804633.047,-20.020,21.973,21.973,16.602,3.906,0
1553804633.051,1.953,13.184,19.043,19.043,28.320,0
1553804633.055,24.902,21.484,18.555,23.438,72.266,0
1553804633.059,20.508,34.180,22.949,19.043,32.715,0
1553804633.063,-3.418,31.738,27.344,14.160,37.598,0
1553804633.067,-4.395,23.926,27.832,20.508,37.598,0
1553804633.071,16.113,20.020,27.832,32.715,-28.320,0
1553804633.075,19.531,18.066,21.973,33.691,-5.371,0
1553804633.078,-2.441,20.996,19.531,14.648,-21.973,0
1553804633.082,8.789,20.508,20.020,-10.742,-37.598,0
1553804633.086,26.855,21.973,21.484,7.324,0.488,0
1553804633.090,37.109,28.320,22.949,18.066,35.156,0
1553804633.094,9.277,24.414,23.926,-1.953,16.113,0
1553804633.098,-19.043,23.926,24.414,-7.324,13.184,0
1553804633.102,9.277,23.926,25.879,11.230,36.133,0
1553804633.106,3.418,17.090,25.879,28.809,65.430,0
1553804633.110,7.324,21.484,23.926,20.020,54.688,0
1553804633.114,5.859,26.367,25.391,16.602,37.109,0
1553804633.118,-4.395,30.762,29.297,28.320,78.125,0
1553804633.121,19.043,34.668,27.832,38.086,55.176,0
1553804633.125,19.043,32.227,29.297,27.832,46.387,0
1553804633.129,-6.348,30.762,34.180,20.020,93.750,0
1553804633.133,2.930,26.855,30.762,24.414,53.711,0
1553804633.137,33.691,20.996,22.949,17.090,-17.578,0
1553804633.141,27.832,13.184,19.531,11.719,-40.039,0
1553804633.145,13.184,11.719,22.949,25.391,39.551,0
1553804633.149,9.766,25.879,25.879,23.926,38.086,0
1553804633.153,3.906,32.227,23.926,28.320,31.250,0
1553804633.157,14.160,39.551,20.996,20.508,46.387,0
1553804633.161,6.348,46.875,28.320,2.930,-3.906,0
1553804633.164,9.277,37.109,25.879,10.742,-0.488,0
1553804633.168,29.297,34.180,20.996,22.461,11.719,0
1553804633.172,20.996,34.668,21.484,42.480,-56.641,0
1553804633.176,-8.789,33.203,19.043,29.297,-11.230,0
1553804633.180,-9.277,27.344,20.996,-7.324,52.246,0
1553804633.184,29.785,11.230,26.367,-8.301,31.250,0
1553804633.188,23.926,8.789,23.926,14.160,-0.488,0
1553804633.192,6.836,9.766,25.391,16.602,12.695,0
1553804633.196,6.836,-1.953,39.551,20.508,21.973,0
1553804633.200,-6.348,20.996,38.086,32.227,6.836,0
1553804633.203,3.418,44.922,24.902,27.832,14.648,0
1553804633.207,10.254,58.105,20.020,35.156,26.855,0
1553804633.211,-1.465,58.105,18.066,35.156,72.754,0
1553804633.215,-13.184,45.410,22.949,24.414,99.609,0
1553804633.219,-21.973,39.551,33.203,28.809,75.195,0
1553804633.223,-8.789,40.039,36.133,28.809,43.457,0
1553804633.227,-9.766,31.250,25.391,5.371,37.598,0
1553804633.231,0.977,26.855,17.578,16.602,42.969,0
1553804633.235,16.602,26.855,23.926,44.434,61.035,0
1553804633.239,22.949,17.090,28.809,48.828,15.137,0
1553804633.243,25.391,10.254,22.461,39.062,-18.066,0
1553804633.246,3.906,24.414,25.879,33.691,-13.184,0
1553804633.250,5.371,39.062,30.273,24.414,40.039,0
1553804633.254,33.691,41.016,24.414,9.766,44.922,0
1553804633.258,20.996,36.133,20.020,16.113,10.254,0
1553804633.262,-0.488,22.461,20.020,23.438,48.340,0
1553804633.266,8.789,14.648,22.949,22.461,80.566,0
1553804633.270,34.180,21.484,23.926,22.461,26.855,0
1553804633.274,30.762,33.691,21.973,38.574,8.789,0
1553804633.278,-24.902,41.016,20.996,34.668,19.531,0
1553804633.282,-49.805,36.621,20.996,17.090,64.453,0
1553804633.286,3.418,36.621,20.996,11.230,17.090,0
1553804633.289,35.156,30.273,23.438,-12.207,-60.547,0
1553804633.293,29.297,27.344,28.320,-5.371,-1.465,0
1553804633.297,14.160,33.203,29.297,21.484,25.879,0
1553804633.301,23.926,28.809,28.320,41.992,22.949,0
1553804633.305,59.570,21.484,26.367,24.902,32.227,0
1553804633.309,30.273,18.555,27.832,8.301,55.176,0
1553804633.313,18.066,17.578,31.738,25.879,62.012,0
1553804633.317,32.715,19.043,34.180,22.949,43.457,0
1553804633.321,58.105,29.785,26.367,31.250,26.855,0
1553804633.325,53.223,43.945,21.484,30.762,4.395,0
1553804633.328,12.695,44.434,26.367,9.766,40.527,0
1553804633.332,20.020,36.621,28.320,20.996,51.758,0
1553804633.336,58.105,30.762,29.785,47.852,10.254,0
1553804633.340,53.223,22.949,34.668,42.480,-7.812,0
1553804633.344,25.879,18.066,29.297,12.695,-46.387,0
1553804633.348,40.039,27.344,23.926,22.949,-44.922,0
1553804633.352,30.273,42.969,28.320,42.480,-14.160,0
1553804633.356,30.273,35.645,31.738,26.855,27.832,0
1553804633.360,81.543,20.508,32.227,20.996,11.719,0
1553804633.364,73.730,25.879,25.879,30.273,8.301,0
1553804633.368,30.273,40.527,15.137,24.414,55.176,0
1553804633.371,32.715,41.992,19.043,44.922,22.949,0
1553804633.375,71.289,32.227,29.297,38.086,13.184,0
1553804633.379,68.359,30.273,31.250,8.789,48.828,0
1553804633.383,29.785,31.738,29.297,10.742,6.836,0
1553804633.387,33.203,30.273,28.320,14.648,10.254,0
1553804633.391,41.504,36.133,29.297,32.715,40.527,0
1553804633.395,39.551,41.504,31.250,48.340,23.438,0
1553804633.399,48.828,32.715,31.738,38.574,-15.625,0
1553804633.403,77.148,17.090,26.367,39.551,-48.828,0
1553804633.407,56.641,22.949,23.438,20.508,35.645,0
1553804633.411,35.645,38.574,26.367,19.043,111.816,0
1553804633.414,60.059,44.434,25.879,46.387,62.012,0
1553804633.418,80.078,36.133,23.438,28.809,10.254,0
1553804633.422,80.078,30.762,20.996,37.598,43.945,0
1553804633.426,59.570,35.156,28.320,60.547,71.289,0
1553804633.430,12.207,38.574,36.621,26.855,4.395,0
1553804633.434,18.555,40.039,36.133,17.578,15.137,0
1553804633.438,43.457,31.250,35.645,44.922,48.828,0
1553804633.442,12.695,22.949,34.668,40.039,15.137,0
1553804633.446,4.883,16.113,41.016,14.160,26.367,0
1553804633.450,32.227,10.742,44.434,20.020,57.129,0
1553804633.453,39.062,12.207,41.992,53.223,60.059,0
1553804633.457,25.391,13.672,40.527,47.852,23.438,0
1553804633.461,28.809,21.973,37.598,19.043,16.602,0
1553804633.465,28.809,27.832,41.992,47.852,3.906,0
1553804633.469,15.625,22.461,35.156,56.152,-7.812,0
1553804633.473,23.926,29.297,28.809,38.086,-22.461,0
1553804633.477,16.113,38.574,36.621,28.809,-10.254,0
1553804633.481,24.414,42.480,36.133,0.000,85.938,0
1553804633.485,49.316,40.039,32.715,-3.418,49.316,0
1553804633.489,31.250,32.227,34.180,4.883,-14.160,0
1553804633.493,11.719,29.785,27.832,-9.277,-2.441,0
1553804633.496,-44.434,32.715,23.926,-20.020,35.156,0
1553804633.500,-58.105,45.410,34.180,-31.250,65.430,0
1553804633.504,-55.176,50.293,33.203,-54.688,33.691,0
1553804633.508,-101.074,40.527,34.180,-89.844,41.992,0
1553804633.512,-104.004,21.484,42.480,-130.371,55.664,0
1553804633.516,-115.234,6.836,40.039,-137.695,79.590,0
1553804633.520,-168.457,21.484,43.457,-149.414,28.320,0
1553804633.524,-203.125,44.922,48.828,-192.871,-48.828,0
1553804633.528,-226.074,50.293,54.688,-217.773,-28.809,0
1553804633.532,-240.234,41.992,62.988,-231.934,11.719,0
1553804633.536,-247.559,57.617,59.570,-242.676,20.996,0
1553804633.539,-229.980,70.312,50.293,-248.047,63.477,0
1553804633.543,-234.375,60.547,52.246,-254.395,96.191,0
1553804633.547,-246.094,64.453,58.594,-234.863,61.035,0
1553804633.551,-200.195,22.949,59.570,-203.125,42.969,0
1553804633.555,-184.570,-16.602,59.082,-159.180,18.555,0
1553804633.559,-168.457,40.039,54.688,-142.090,27.344,0
1553804633.563,-145.508,79.102,48.828,-159.668,25.879,0
1553804633.567,-122.070,67.871,41.504,-149.414,16.113,0
1553804633.571,-94.727,52.734,31.250,-96.191,74.707,0
1553804633.575,-77.637,46.875,29.785,-88.867,53.223,0
1553804633.578,-80.078,41.504,27.832,-75.684,40.527,0
1553804633.582,-48.340,23.438,25.879,-28.809,47.363,0
1553804633.586,0.488,16.113,26.855,-12.695,29.297,0
1553804633.590,-14.160,23.438,23.438,-0.488,32.715,0
1553804633.594,-4.883,27.344,23.926,14.648,20.508,0
1553804633.598,33.691,30.762,21.484,20.508,61.035,0
1553804633.602,54.199,27.344,19.531,43.457,25.391,0
1553804633.606,39.062,32.227,16.113,61.523,44.922,0
1553804633.610,30.273,40.039,11.719,44.434,76.660,0
1553804633.614,72.754,47.363,13.184,57.617,31.738,0
1553804633.618,75.684,48.340,8.789,70.801,37.598,0
1553804633.621,79.590,44.434,7.812,75.195,-48.340,0
1553804633.625,74.707,53.223,7.812,67.383,-98.633,0
1553804633.629,50.293,60.059,6.348,66.895,-15.137,0
1553804633.633,78.613,58.105,3.906,78.125,-1.465,0
1553804633.637,104.492,59.082,0.488,95.215,3.906,0
1553804633.641,113.770,44.434,6.348,90.332,-8.789,0
1553804633.645,89.355,34.180,12.207,106.934,-41.016,0
1553804633.649,78.125,38.086,11.230,116.699,36.133,0
1553804633.653,102.539,37.598,16.113,111.328,34.668,0
1553804633.657,115.723,53.223,16.602,116.211,0.977,0
1553804633.661,112.305,58.105,7.812,91.309,-4.395,0
1553804633.664,99.121,55.176,9.277,81.543,-8.789,0
1553804633.668,120.117,51.758,16.602,93.262,56.152,0
1553804633.672,127.441,43.945,18.066,110.352,62.988,0
1553804633.676,108.887,36.133,7.812,100.586,-4.883,0
1553804633.680,98.633,34.180,6.836,99.609,23.926,0
1553804633.684,111.816,38.574,16.113,112.793,76.660,0
1553804633.688,130.859,43.945,18.066,129.395,52.734,0
1553804633.692,91.797,44.434,16.602,110.352,22.949,0
1553804633.696,60.547,41.016,16.113,86.426,38.086,0
1553804633.700,86.914,38.086,18.555,100.098,62.988,0
1553804633.703,104.492,30.273,18.555,102.051,69.824,0
1553804633.707,87.891,24.414,15.625,74.707,39.551,0
1553804633.711,51.758,34.180,16.602,69.824,70.801,0
1553804633.715,68.359,32.715,16.113,87.402,63.477,0
1553804633.719,104.004,33.691,20.020,83.496,30.273,0
1553804633.723,71.289,38.574,24.902,79.590,50.781,0
1553804633.727,51.270,31.250,18.555,71.777,26.367,0
1553804633.731,63.965,22.461,15.137,88.379,-12.695,0
1553804633.735,120.605,10.742,17.090,100.586,39.062,0
1553804633.739,128.906,17.578,16.113,88.379,33.691,0
1553804633.743,61.035,26.367,21.973,74.707,15.625,0
1553804633.746,58.594,24.902,21.973,61.523,11.719,0
1553804633.750,69.336,31.738,15.137,87.891,-18.066,0
1553804633.754,63.477,33.203,17.090,97.168,38.086,0
1553804633.758,65.918,31.738,23.438,74.219,89.844,0
1553804633.762,88.867,33.203,32.715,80.566,43.457,0
1553804633.766,109.375,39.062,30.762,92.773,57.617,0
1553804633.770,86.426,39.062,23.926,91.309,128.906,0
1553804633.774,64.941,27.832,24.414,56.641,70.801,0
1553804633.778,54.688,23.926,26.367,40.527,2.441,0
1553804633.782,62.012,26.367,28.809,50.293,25.391,0
1553804633.786,67.383,29.785,27.344,66.895,63.477,0
1553804633.789,77.148,30.762,21.973,67.871,104.980,0
1553804633.793,57.617,29.297,17.090,40.527,67.383,0
1553804633.797,31.250,25.879,20.996,47.852,77.637,0
1553804633.801,61.523,17.090,25.879,58.594,61.035,0
1553804633.805,91.309,17.578,26.367,60.547,29.785,0
1553804633.809,61.523,29.297,23.926,58.105,29.297,0
1553804633.813,30.762,38.574,24.902,56.152,14.648,0
1553804633.817,65.430,34.668,23.926,51.270,-20.508,0
1553804633.821,90.820,36.133,20.508,58.105,7.812,0
1553804633.825,63.965,34.668,21.484,66.406,26.367,0
1553804633.828,41.504,25.391,18.066,54.199,-12.207,0
1553804633.832,42.969,21.484,16.602,39.551,17.090,0
1553804633.836,74.219,16.602,28.809,47.852,26.855,0
1553804633.840,52.734,22.949,33.203,54.688,-7.324,0
1553804633.844,25.879,30.762,21.484,22.949,-10.742,0
1553804633.848,42.969,31.738,21.484,13.184,-13.672,0
1553804633.852,69.824,33.203,24.902,35.645,20.996,0
1553804633.856,86.426,33.203,22.949,40.039,56.152,0
1553804633.860,52.734,32.227,26.367,41.504,38.086,0
1553804633.864,22.461,26.855,24.902,45.410,29.297,0
1553804633.868,46.387,30.762,20.996,38.086,76.172,0
1553804633.871,73.242,37.109,23.438,42.969,40.039,0
1553804633.875,71.289,37.109,16.602,40.527,2.441,0
1553804633.879,55.664,34.668,12.695,44.922,-11.230,0
1553804633.883,57.129,29.297,24.414,48.340,-2.930,0
1553804633.887,41.992,23.926,31.738,29.297,30.762,0
1553804633.891,9.766,20.020,37.598,27.344,-10.254,0
1553804633.895,9.766,16.113,40.527,39.062,-11.719,0
1553804633.899,36.133,15.137,31.738,31.738,-1.465,0
1553804633.903,45.898,18.066,23.438,37.598,-6.836,0
1553804633.907,31.738,19.531,21.973,20.508,3.906,0
1553804633.911,32.227,20.020,25.391,5.371,-0.488,0
1553804633.914,22.461,21.973,24.902,23.438,12.207,0
1553804633.918,24.414,20.020,24.902,33.203,20.020,0
1553804633.922,44.434,14.160,31.250,32.715,66.406,0
1553804633.926,55.176,15.625,32.715,39.551,57.617,0
1553804633.930,36.621,17.578,30.762,46.387,50.293,0
1553804633.934,10.742,14.648,31.738,37.109,77.148,0
1553804633.938,54.688,13.672,31.250,30.762,41.016,0
1553804633.942,66.406,21.973,31.250,28.809,53.223,0
1553804633.946,27.344,21.973,31.738,41.504,52.734,0
1553804633.950,23.926,11.719,32.227,32.715,9.766,0
1553804633.953,35.156,4.883,29.785,29.785,26.367,0
1553804633.957,32.715,11.230,21.484,50.293,61.035,0
1553804633.961,21.973,23.926,17.090,46.875,51.270,0
1553804633.965,18.066,23.926,25.391,28.809,-0.977,0
1553804633.969,32.227,21.484,32.715,23.926,45.898,0
1553804633.973,52.246,26.367,32.715,45.410,124.023,0
1553804633.977,33.691,24.902,31.250,41.992,131.836,0
1553804633.981,16.113,30.273,24.902,32.227,102.539,0
1553804633.985,40.527,33.691,26.367,18.066,-2.930,0
1553804633.989,44.922,18.066,30.273,11.230,-34.668,0
1553804633.993,18.555,11.719,29.297,32.227,20.996,0
1553804633.996,-4.395,20.996,30.762,33.691,29.785,0
1553804634.000,17.578,27.344,28.809,25.879,-32.715,0
1553804634.004,65.918,27.344,27.344,20.508,-2.441,0
1553804634.008,42.969,29.785,35.645,34.180,31.738,0
1553804634.012,14.648,36.621,33.691,57.129,12.695,0
1553804634.016,37.598,28.809,28.320,38.086,9.277,0
1553804634.020,39.551,21.484,32.227,52.734,9.277,0
1553804634.024,36.133,26.367,31.738,51.758,0.000,0
1553804634.028,20.508,31.738,36.621,5.371,-19.531,0
1553804634.032,5.371,33.691,36.133,11.230,-21.973,0
1553804634.036,20.996,37.109,24.414,32.715,-11.719,0
1553804634.039,23.438,36.621,21.973,37.598,19.043,0
1553804634.043,16.602,34.668,22.949,16.113,-10.742,0
1553804634.047,26.855,33.203,25.879,9.766,-25.391,0
1553804634.051,47.852,31.250,31.738,37.598,-3.906,0
1553804634.055,48.828,26.367,31.250,38.574,45.898,0
1553804634.059,25.879,26.367,31.738,19.531,65.918,0
1553804634.063,19.043,31.250,33.203,30.762,30.762,0
1553804634.067,24.902,32.227,34.180,21.484,34.180,0
1553804634.071,38.086,31.250,27.344,16.113,46.387,0
1553804634.075,27.832,32.715,25.879,34.668,20.020,0
1553804634.078,17.090,30.273,34.668,32.715,2.441,0
1553804634.082,34.180,31.738,32.715,25.391,20.996,0
1553804634.086,38.574,42.480,26.367,47.852,50.293,0
1553804634.090,37.598,41.992,30.762,51.270,41.504,0
1553804634.094,36.621,32.715,32.715,18.066,-17.578,0
1553804634.098,27.832,25.879,28.320,8.789,-7.812,0
1553804634.102,37.598,24.902,26.367,2.441,38.086,0
1553804634.106,62.988,36.133,26.855,21.973,44.434,0
1553804634.110,21.973,43.457,28.809,40.527,31.738,0
1553804634.114,-0.488,34.180,26.367,19.043,35.156,0
1553804634.118,28.809,25.391,31.738,10.254,25.391,0
1553804634.121,43.457,22.461,46.387,32.227,-18.066,0
1553804634.125,20.996,25.391,44.434,40.039,16.113,0
1553804634.129,14.648,31.738,33.691,1.953,-4.395,0
1553804634.133,45.410,33.203,31.738,3.418,21.973,0
1553804634.137,48.828,39.062,28.809,23.438,60.547,0
1553804634.141,34.668,36.133,23.926,33.691,1.953,0
1553804634.145,16.113,15.625,29.785,31.738,-12.695,0
1553804634.149,30.762,24.414,29.785,28.320,-10.254,0
1553804634.153,65.918,44.434,25.391,21.484,24.414,0
1553804634.157,67.871,36.621,30.762,12.695,17.090,0
1553804634.161,50.293,23.926,35.156,31.250,7.324,0
1553804634.164,24.414,17.090,34.180,43.457,-4.395,0
1553804634.168,31.250,23.438,38.086,48.340,20.996,0
1553804634.172,47.852,43.945,36.621,46.875,58.105,0
1553804634.176,31.250,53.223,30.762,19.043,41.992,0
1553804634.180,29.297,49.316,34.180,20.020,49.316,0
1553804634.184,29.297,42.480,29.785,33.203,3.906,0
1553804634.188,28.809,41.504,20.020,25.879,-46.875,0
1553804634.192,32.227,46.875,16.602,30.273,29.297,0
1553804634.196,22.949,42.480,20.020,26.855,39.551,0
1553804634.200,32.227,35.645,24.414,27.832,-4.883,0
1553804634.203,70.801,37.598,23.438,53.223,53.711,0
1553804634.207,64.941,38.574,24.902,36.621,57.617,0
1553804634.211,13.672,36.133,30.273,27.344,-16.113,0
1553804634.215,22.461,36.133,30.762,33.203,-53.223,0
1553804634.219,48.340,32.715,29.785,25.879,-5.371,0
1553804634.223,44.922,27.832,28.809,30.762,0.488,0
1553804634.227,30.762,29.785,27.344,22.949,50.293,0
1553804634.231,41.992,40.039,26.855,23.926,133.789,0
1553804634.235,47.852,38.086,26.855,28.320,55.176,0
1553804634.239,34.668,28.320,24.414,33.203,15.137,0
1553804634.243,25.391,27.832,26.855,36.621,46.387,0
1553804634.246,23.926,31.250,27.832,23.438,-14.160,0
1553804634.250,43.457,32.227,21.484,33.203,-17.578,0
1553804634.254,64.941,27.344,25.391,36.133,52.734,0
1553804634.258,52.246,24.902,26.367,36.133,23.438,0
1553804634.262,15.625,29.297,23.926,50.293,13.184,0
1553804634.266,23.926,37.109,20.020,41.016,49.805,0
1553804634.270,43.457,33.203,17.090,41.992,53.223,0
1553804634.274,42.480,27.832,26.855,16.602,-29.297,0
1553804634.278,27.832,37.598,34.668,19.043,-43.457,0
1553804634.282,12.207,43.457,31.738,37.109,47.363,0
1553804634.286,33.691,40.527,25.391,18.555,47.363,0
1553804634.289,55.664,32.227,24.902,10.254,39.551,0
1553804634.293,33.691,29.297,26.855,11.719,51.270,0
1553804634.297,18.555,28.809,28.809,19.531,41.992,0
1553804634.301,27.344,24.902,33.691,28.809,67.383,0
1553804634.305,40.527,33.691,30.273,34.668,22.461,0
1553804634.309,29.785,37.598,27.832,34.180,43.945,0
1553804634.313,14.648,33.203,29.785,50.781,42.969,0
1553804634.317,24.902,30.273,24.902,40.039,39.551,0
1553804634.321,33.691,29.297,22.949,21.973,110.840,0
1553804634.325,16.602,34.180,27.344,17.090,126.465,0
1553804634.328,0.977,34.668,28.320,5.371,59.082,0
1553804634.332,24.902,30.762,27.832,18.555,29.785,0
1553804634.336,43.945,21.484,33.691,24.902,61.523,0
1553804634.340,44.922,28.320,30.273,19.531,74.707,0
1553804634.344,28.809,36.621,25.879,17.090,79.590,0
1553804634.348,4.883,35.156,28.809,11.719,52.246,0
1553804634.352,18.066,38.574,26.855,13.672,40.527,0
1553804634.356,29.785,38.574,19.043,20.508,52.734,0
1553804634.360,19.531,40.039,22.461,23.438,9.277,0
1553804634.364,20.996,43.945,29.785,20.020,-6.348,0
1553804634.368,40.527,35.156,30.273,40.039,24.902,0
1553804634.371,45.898,29.785,30.273,55.664,28.320,0
1553804634.375,30.762,27.832,27.344,21.973,58.594,0
1553804634.379,39.062,30.273,25.391,28.320,42.480,0
1553804634.383,54.199,37.598,34.668,34.180,24.902,0
1553804634.387,50.293,36.133,39.062,20.508,48.828,0
1553804634.391,40.527,36.133,31.250,20.996,14.160,0
1553804634.395,26.367,25.391,25.879,26.367,-55.176,0
1553804634.399,42.480,23.438,28.320,22.949,-35.156,0
1553804634.403,50.293,36.133,27.832,21.973,10.742,0
1553804634.407,29.785,32.715,21.973,25.879,17.578,0
1553804634.411,22.461,28.320,25.879,30.762,25.391,0
1553804634.414,17.578,31.250,33.203,43.945,1.953,0
1553804634.418,35.156,28.809,33.203,43.457,-1.953,0
1553804634.422,41.504,30.762,34.668,25.391,46.875,0
1553804634.426,19.043,31.738,30.273,12.695,40.527,0
1553804634.430,18.555,28.809,25.879,24.902,51.758,0
1553804634.434,31.250,30.273,31.250,47.852,42.969,0
1553804634.438,43.945,30.762,34.668,45.898,19.043,0
1553804634.442,41.992,34.668,31.738,30.273,88.867,0
1553804634.446,44.922,35.156,28.320,41.504,49.316,0
1553804634.450,46.875,30.273,23.438,38.086,13.184,0
1553804634.453,55.176,32.227,22.461,31.738,61.035,0
1553804634.457,41.016,30.762,30.762,34.668,27.344,0
1553804634.461,-7.324,21.973,33.691,25.391,-35.645,0
1553804634.465,-5.859,13.184,29.297,31.250,10.742,0
1553804634.469,27.832,10.742,32.227,49.316,49.316,0
1553804634.473,29.297,11.230,36.133,37.598,17.090,0
1553804634.477,9.766,4.395,40.527,9.277,52.734,0
1553804634.481,5.371,-3.906,47.363,31.250,38.086,0
1553804634.485,35.645,-7.324,55.664,43.457,15.625,0
1553804634.489,41.992,-10.742,52.734,28.320,-21.484,0
1553804634.493,20.020,-9.766,41.504,35.645,-21.484,0
1553804634.496,13.184,0.000,37.109,33.691,18.066,0
1553804634.500,14.160,-4.883,40.527,18.066,26.855,0
1553804634.504,27.832,-10.254,37.598,19.043,71.777,0
1553804634.508,19.531,7.812,28.320,20.020,55.176,0
1553804634.512,-4.395,14.648,25.879,16.602,60.547,0
1553804634.516,-2.930,11.719,23.438,25.879,41.504,0
1553804634.520,11.719,11.230,26.855,31.738,44.922,0
1553804634.524,16.113,10.742,33.691,42.480,44.434,0
1553804634.528,17.578,12.207,34.668,54.688,12.207,0
1553804634.532,21.484,13.184,35.156,49.316,8.789,0
1553804634.536,32.715,8.301,42.480,44.922,1.465,0
1553804634.539,32.227,2.441,37.109,41.992,38.086,0
1553804634.543,16.113,5.859,27.832,24.414,29.297,0
1553804634.547,13.184,8.789,33.691,19.043,-0.977,0
1553804634.551,26.367,6.836,39.062,36.133,-14.160,0
1553804634.555,30.273,6.348,34.180,51.270,33.691,0
1553804634.559,13.672,11.719,29.297,37.598,88.379,0
1553804634.563,-3.418,18.555,25.879,33.203,87.402,0
1553804634.567,2.930,22.461,26.855,36.621,60.059,0
1553804634.571,27.344,21.484,31.250,35.645,47.852,0
1553804634.575,25.391,17.090,28.809,44.434,51.270,0
1553804634.578,0.488,20.020,34.180,30.273,40.527,0
1553804634.582,12.695,23.438,43.945,30.273,65.918,0
1553804634.586,43.457,28.320,40.527,43.457,4.395,0
1553804634.590,39.062,25.879,30.762,38.086,-18.066,0
1553804634.594,20.508,24.414,33.691,25.879,23.438,0
1553804634.598,8.301,28.320,29.785,23.926,29.297,0
1553804634.602,26.855,26.367,23.438,41.504,58.105,0
1553804634.606,37.109,22.949,24.902,43.457,16.113,0
1553804634.610,16.113,23.438,27.832,31.250,12.695,0
1553804634.614,7.324,29.785,31.738,23.926,-31.250,0
1553804634.618,36.621,31.738,28.809,42.480,9.277,0
1553804634.621,63.965,30.762,30.273,65.918,46.875,0
1553804634.625,42.480,27.832,32.715,45.410,16.113,0
1553804634.629,0.488,23.926,29.297,29.297,45.898,0
1553804634.633,22.949,22.461,23.438,25.391,45.410,0
1553804634.637,60.547,27.344,21.484,5.371,52.246,0
1553804634.641,30.273,29.297,27.344,9.766,9.277,0
1553804634.645,0.000,21.973,36.621,29.297,-8.789,0
1553804634.649,14.648,15.625,41.016,47.363,63.965,0
1553804634.653,32.715,27.344,36.621,50.781,81.055,0
1553804634.657,16.602,39.551,29.785,19.043,5.371,0
1553804634.661,13.184,39.551,29.785,16.602,-38.086,0
1553804634.664,29.785,41.992,33.203,26.855,23.926,0
1553804634.668,26.367,43.945,33.203,9.766,27.344,0
1553804634.672,37.109,55.176,26.367,19.043,-32.227,0
1553804634.676,57.129,59.570,22.461,30.273,-17.090,0
1553804634.680,40.527,58.105,20.996,28.809,33.203,0
1553804634.684,23.926,60.547,22.949,41.504,31.250,0
1553804634.688,28.320,57.617,24.414,37.598,-32.227,0
1553804634.692,20.020,50.781,29.785,18.066,-46.387,0
1553804634.696,20.020,47.852,32.715,11.230,26.367,0
1553804634.700,26.367,50.293,28.809,5.859,7.324,0
1553804634.703,34.180,46.875,27.832,15.137,-16.113,0
1553804634.707,27.344,42.969,25.391,9.766,-16.113,0
1553804634.711,-0.977,36.133,27.344,6.348,16.602,0
1553804634.715,6.348,37.598,28.320,19.043,39.062,0
1553804634.719,32.227,43.457,28.320,24.902,21.973,0
1553804634.723,51.758,43.945,33.203,28.809,11.719,0
1553804634.727,41.504,44.434,32.715,20.508,4.883,0
1553804634.731,9.766,39.551,30.273,19.531,-1.953,0
1553804634.735,28.320,40.527,29.785,26.367,10.742,0
1553804634.739,44.922,42.480,26.367,28.809,-8.301,0
1553804634.743,35.645,38.574,28.809,32.715,1.465,0
1553804634.746,45.410,40.527,36.133,28.320,77.148,0
1553804634.750,54.688,40.527,41.016,16.602,26.855,0
1553804634.754,55.176,38.574,29.297,14.160,11.230,0
1553804634.758,41.992,36.133,23.438,10.742,26.855,0
1553804634.762,29.785,34.668,32.715,20.508,30.762,0
1553804634.766,29.297,39.551,30.273,39.551,34.180,0
1553804634.770,48.340,37.598,26.367,61.035,13.184,0
1553804634.774,49.316,37.109,29.785,50.293,22.949,0
1553804634.778,22.949,40.039,34.180,10.254,53.223,0
1553804634.782,33.203,34.180,38.574,3.906,84.961,0
1553804634.786,38.574,28.320,37.598,11.230,116.211,0
1553804634.789,35.156,29.785,34.668,5.859,112.793,0
1553804634.793,34.668,30.762,35.156,15.137,94.238,0
1553804634.797,22.949,33.203,35.156,20.508,65.430,0
1553804634.801,30.762,28.320,36.133,23.926,24.902,0
1553804634.805,43.457,30.762,32.715,24.902,22.949,0
1553804634.809,21.484,46.387,30.762,25.391,63.477,0
1553804634.813,13.184,41.016,33.691,38.574,104.492,0
1553804634.817,31.250,35.156,30.273,46.875,38.086,0
1553804634.821,29.785,41.016,26.855,31.738,-3.418,0
1553804634.825,22.949,39.551,30.273,34.180,39.062,0
1553804634.828,9.766,35.645,28.809,21.973,4.395,0
1553804634.832,6.836,30.762,30.762,0.488,18.555,0
1553804634.836,13.184,32.227,39.551,10.742,44.922,0
1553804634.840,20.508,31.738,37.109,12.695,-18.555,0
1553804634.844,26.855,26.855,35.645,25.879,-6.836,0
1553804634.848,4.395,32.227,32.715,7.812,62.500,0
1553804634.852,-0.488,38.574,25.391,-17.090,84.473,0
1553804634.856,9.277,35.645,29.785,-3.906,24.902,0
1553804634.860,9.766,36.133,30.273,-16.602,68.359,0
1553804634.864,0.000,36.621,25.391,-27.832,74.707,0
1553804634.868,-15.137,37.598,25.391,-20.508,34.668,0
1553804634.871,-7.812,40.039,26.855,-6.836,65.430,0
1553804634.875,-8.301,41.504,34.180,-2.441,65.430,0
1553804634.879,-20.508,42.480,38.086,-15.625,41.992,0
1553804634.883,-2.441,41.016,34.668,4.883,-10.742,0
1553804634.887,34.668,40.039,32.227,31.250,-35.156,0
1553804634.891,35.156,34.180,29.297,14.160,-1.465,0
1553804634.895,5.859,33.203,27.344,-0.488,21.973,0
1553804634.899,-6.348,39.551,27.832,2.441,29.785,0
1553804634.903,33.203,40.527,30.273,10.742,-22.949,0
1553804634.907,32.227,33.203,29.297,16.602,-18.066,0
1553804634.911,17.578,32.227,24.902,18.555,44.922,0
1553804634.914,29.297,34.180,24.414,20.508,42.969,0
1553804634.918,33.691,24.902,27.344,27.832,33.203,0
1553804634.922,45.898,24.902,24.902,17.090,35.156,0
1553804634.926,38.086,31.250,21.484,0.000,-11.230,0
1553804634.930,13.672,35.156,25.391,11.719,-14.648,0
1553804634.934,21.973,35.645,24.902,25.391,16.113,0
1553804634.938,32.227,36.621,24.902,22.461,10.254,0
1553804634.942,15.625,38.086,30.273,6.348,27.344,0
1553804634.946,-8.789,33.691,25.391,4.883,15.625,0
1553804634.950,-6.348,32.227,20.508,6.836,6.348,0
1553804634.953,8.789,27.832,26.367,2.930,12.695,0
1553804634.957,4.395,25.879,25.879,5.371,-8.789,0
1553804634.961,5.859,33.203,26.367,5.371,-26.367,0
1553804634.965,8.789,41.504,36.621,15.625,40.039,0
1553804634.969,32.715,39.551,38.086,28.320,30.273,0
1553804634.973,33.203,27.344,34.668,27.832,-11.230,0
1553804634.977,-9.766,23.438,34.180,23.926,-10.742,0
1553804634.981,-19.531,23.438,31.250,12.207,31.738,0
1553804634.985,-1.465,29.785,28.320,7.324,51.270,0
1553804634.989,6.836,34.668,30.762,8.301,15.137,0
1553804634.993,-0.488,32.227,31.738,13.184,-8.301,0
1553804634.996,-5.859,28.809,32.715,28.809,14.160,0
1553804635.000,0.977,27.344,32.227,17.578,30.762,0
1553804635.004,12.207,31.250,23.926,9.766,57.617,0
1553804635.008,-2.930,31.738,20.508,25.391,57.617,0
1553804635.012,3.906,26.367,26.367,30.762,28.320,0
1553804635.016,18.555,28.320,28.320,-13.184,46.387,0
1553804635.020,10.742,38.086,25.879,-27.832,70.801,0
1553804635.024,-8.301,38.086,23.438,-6.836,84.961,0
1553804635.028,-37.598,36.621,21.973,-12.207,40.527,0
1553804635.032,-35.645,36.133,28.809,-6.836,37.109,0
1553804635.036,-11.719,35.156,31.738,-0.977,74.707,0
1553804635.039,-10.254,36.133,26.367,5.859,30.273,0
1553804635.043,-31.250,35.645,25.879,8.301,8.789,0
1553804635.047,-28.809,32.715,32.715,6.836,38.086,0
1553804635.051,-3.906,29.785,34.180,10.254,48.340,0
1553804635.055,4.395,32.715,34.668,27.344,47.363,0
1553804635.059,-8.789,39.551,37.598,9.766,62.012,0
1553804635.063,-20.996,36.133,36.621,-23.438,88.867,0
1553804635.067,-16.113,29.785,33.691,-16.602,55.664,0
1553804635.071,-9.766,33.691,29.297,-4.395,3.906,0
1553804635.075,-21.973,37.109,27.832,-5.371,57.129,0
