timestamps,TP9,AF7,AF8,TP10,Right AUX,Marker0
1553804738.716,7.324,24.902,31.250,14.160,36.133,0
1553804738.720,4.883,33.691,33.203,17.090,31.250,0
1553804738.724,0.000,39.062,30.273,15.625,30.762,0
1553804738.728,7.324,35.156,24.902,29.785,97.168,0
1553804738.731,9.766,41.016,24.414,28.809,56.641,0
1553804738.735,7.812,27.344,32.227,19.043,11.719,0
1553804738.739,15.625,16.113,24.414,23.926,65.918,0
1553804738.743,15.137,32.715,17.578,20.996,27.832,0
1553804738.747,9.277,38.574,13.672,22.949,20.508,0
1553804738.751,-0.977,49.805,23.926,30.762,-7.812,0
1553804738.755,16.113,20.020,49.805,32.715,3.418,0
1553804738.759,21.973,1.465,65.918,32.715,34.180,0
1553804738.763,4.883,42.969,46.875,19.043,-11.719,0
1553804738.767,1.953,72.266,24.902,7.812,26.855,0
1553804738.771,6.836,72.266,24.902,3.418,26.855,0
1553804738.774,0.977,47.852,26.367,1.953,39.551,0
1553804738.778,-2.441,25.391,31.738,15.625,53.223,0
1553804738.782,2.930,45.410,19.043,18.555,-29.297,0
1553804738.786,-19.531,57.617,15.137,4.395,-3.906,0
1553804738.790,-24.414,49.805,29.785,1.953,65.430,0
1553804738.794,-18.555,46.875,32.227,2.441,5.371,0
1553804738.798,-8.789,39.551,25.391,7.324,20.508,0
1553804738.802,-5.371,38.086,24.902,8.789,120.605,0
1553804738.806,-2.930,41.016,32.715,3.418,90.332,0
1553804738.810,-1.953,33.691,39.551,2.930,23.438,0
1553804738.813,-19.043,41.992,37.109,-7.812,67.383,0
1553804738.817,5.859,41.992,35.645,7.812,81.055,0
1553804738.821,4.395,37.109,35.156,9.766,69.824,0
1553804738.825,3.906,62.012,24.414,18.555,37.598,0
1553804738.829,19.043,86.914,28.809,17.090,93.750,0
1553804738.833,-3.418,51.270,39.551,-28.320,57.129,0
1553804738.837,11.230,-15.625,59.570,-10.254,5.859,0
1553804738.841,8.789,4.395,29.785,10.254,38.574,0
1553804738.845,-32.227,23.926,-33.691,-7.324,9.277,0
1553804738.849,-53.223,58.594,11.719,-24.902,49.316,0
1553804738.853,-78.613,111.816,22.949,-44.434,91.797,0
1553804738.856,-47.363,16.113,62.500,-23.438,43.945,0
1553804738.860,6.836,33.691,61.523,0.488,7.812,0
1553804738.864,-90.332,60.547,0.488,-76.172,15.137,0
1553804738.868,-135.254,-25.879,-47.852,-121.582,13.184,0
1553804738.872,-79.590,12.207,-19.043,-79.102,38.574,0
1553804738.876,-115.234,96.191,125.000,-110.352,80.078,0
1553804738.880,-169.434,119.629,103.027,-160.156,83.496,0
1553804738.884,-182.617,-62.500,-13.184,-184.082,34.180,0
1553804738.888,-73.242,-83.008,19.531,-67.383,46.875,0
1553804738.892,2.930,77.637,-15.137,8.789,62.988,0
1553804738.896,-22.461,151.367,-125.488,-43.457,36.133,0
1553804738.899,-67.383,147.461,-20.508,-80.566,27.832,0
1553804738.903,24.414,-230.957,38.086,26.367,-4.883,0
1553804738.907,198.242,-91.309,73.242,184.570,-20.020,0
1553804738.911,133.789,305.664,45.410,98.145,-55.664,0
1553804738.915,10.254,214.844,-34.180,-30.762,-45.898,0
1553804738.919,-52.734,126.465,47.363,-64.453,-4.883,0
1553804738.923,-58.594,80.566,86.914,-56.641,37.598,0
1553804738.927,-19.043,141.602,91.797,-23.438,47.363,0
1553804738.931,12.207,133.789,58.594,0.000,22.461,0
1553804738.935,83.496,147.949,77.148,57.617,42.969,0
1553804738.938,104.980,145.020,99.609,81.055,27.344,0
1553804738.942,65.430,109.375,50.293,38.086,26.855,0
1553804738.946,20.020,96.680,52.246,33.691,33.691,0
1553804738.950,34.180,86.426,53.711,49.316,18.066,0
1553804738.954,79.102,111.328,58.594,59.570,34.668,0
1553804738.958,93.750,119.629,57.617,55.664,5.371,0
1553804738.962,70.801,96.191,51.758,37.598,42.480,0
1553804738.966,89.355,103.027,57.129,20.996,102.539,0
1553804738.970,134.277,112.305,66.406,45.410,56.641,0
1553804738.974,124.023,109.375,69.336,28.809,27.344,0
1553804738.978,103.027,109.863,76.660,27.344,57.617,0
1553804738.981,97.656,104.004,64.941,49.805,8.301,0
1553804738.985,90.332,100.098,49.805,34.668,-6.348,0
1553804738.989,87.891,96.191,60.547,39.062,-6.836,0
1553804738.993,82.031,80.566,58.594,33.691,36.621,0
1553804738.997,60.547,86.426,67.383,28.809,60.547,0
1553804739.001,28.809,93.750,69.336,30.273,-15.625,0
1553804739.005,-0.977,79.590,59.570,-20.508,26.855,0
1553804739.009,-5.371,85.449,57.129,-71.289,50.781,0
1553804739.013,1.953,86.426,61.035,-93.262,74.219,0
1553804739.017,-38.086,69.336,62.012,-117.188,131.348,0
1553804739.021,-62.988,88.867,41.992,-124.023,59.570,0
1553804739.024,-42.480,66.895,0.000,-114.258,63.965,0
1553804739.028,-6.836,76.172,9.766,-70.801,95.215,0
1553804739.032,-42.969,110.352,82.031,-110.840,97.168,0
1553804739.036,-94.727,20.020,104.492,-173.340,70.312,0
1553804739.040,-84.961,5.859,63.965,-137.695,34.180,0
1553804739.044,-81.055,130.371,18.066,-101.074,54.199,0
1553804739.048,-47.852,141.113,18.555,-54.688,-12.695,0
1553804739.052,-27.344,91.797,55.176,-44.922,-4.395,0
1553804739.056,-48.828,70.312,83.496,-81.055,65.430,0
1553804739.060,-37.598,56.641,80.566,-97.168,92.773,0
1553804739.063,-33.203,57.129,63.477,-70.801,96.680,0
1553804739.067,2.930,54.199,32.227,-36.133,53.711,0
1553804739.071,20.020,55.664,31.738,-73.242,6.836,0
1553804739.075,-1.465,57.129,62.988,-66.406,46.875,0
1553804739.079,20.508,72.754,52.734,-8.301,53.223,0
1553804739.083,48.828,58.105,58.105,13.184,-29.785,0
1553804739.087,40.527,55.664,56.152,32.227,-3.418,0
1553804739.091,22.949,53.223,22.949,20.508,36.133,0
1553804739.095,42.480,19.043,43.945,35.645,35.645,0
1553804739.099,91.309,27.344,83.984,69.336,35.645,0
1553804739.103,88.867,57.617,69.336,78.613,61.035,0
1553804739.106,59.570,52.734,33.203,37.109,48.828,0
1553804739.110,64.453,62.988,-32.227,16.113,29.785,0
1553804739.114,69.336,67.383,3.906,59.082,3.906,0
1553804739.118,53.711,67.383,103.516,71.777,25.879,0
1553804739.122,58.594,75.195,95.215,56.641,55.176,0
1553804739.126,36.133,46.387,77.637,40.527,-6.348,0
1553804739.130,35.156,33.691,57.617,16.602,-7.324,0
1553804739.134,73.730,44.434,47.363,20.020,6.348,0
1553804739.138,57.617,52.734,56.641,52.734,32.715,0
1553804739.142,72.266,50.781,53.223,51.270,4.883,0
1553804739.146,75.195,55.664,43.457,38.086,17.090,0
1553804739.149,53.711,56.641,52.246,32.715,20.020,0
1553804739.153,79.590,60.547,54.688,53.223,36.621,0
1553804739.157,81.055,38.086,48.828,76.172,33.203,0
1553804739.161,88.867,29.785,50.781,58.594,54.199,0
1553804739.165,72.266,62.988,45.410,39.551,92.773,0
1553804739.169,46.387,55.176,46.387,41.504,53.223,0
1553804739.173,80.566,56.641,56.641,80.566,-12.695,0
1553804739.177,82.520,70.312,60.059,69.336,20.020,0
1553804739.181,61.035,59.082,55.664,68.848,61.035,0
1553804739.185,73.242,44.434,44.922,76.172,10.254,0
1553804739.188,53.223,44.434,40.039,36.133,16.113,0
1553804739.192,32.715,51.270,43.457,41.504,8.301,0
1553804739.196,53.223,49.805,47.363,60.059,13.184,0
1553804739.200,62.988,48.828,51.270,65.430,50.293,0
1553804739.204,47.363,53.711,48.340,46.875,58.594,0
1553804739.208,39.551,50.293,39.062,34.668,11.719,0
1553804739.212,48.828,53.711,43.945,31.250,-16.113,0
1553804739.216,49.316,56.152,50.293,41.992,43.457,0
1553804739.220,48.340,49.805,45.898,61.035,82.520,0
1553804739.224,36.621,49.316,47.363,59.082,39.062,0
1553804739.228,31.738,50.781,46.875,35.156,10.254,0
1553804739.231,37.598,38.574,44.434,33.203,55.664,0
1553804739.235,30.273,33.203,46.387,44.434,65.918,0
1553804739.239,30.762,54.199,50.293,37.109,5.371,0
1553804739.243,27.832,57.129,46.875,32.227,86.426,0
1553804739.247,14.160,52.246,45.898,32.715,102.051,0
1553804739.251,11.719,35.156,53.223,34.668,46.875,0
1553804739.255,13.184,35.645,44.922,16.113,70.312,0
1553804739.259,7.324,45.898,40.527,16.602,49.805,0
1553804739.263,-2.441,41.504,48.828,30.273,38.574,0
1553804739.267,1.465,38.574,53.223,6.836,79.102,0
1553804739.271,-19.043,34.668,49.805,18.066,92.773,0
1553804739.274,-16.113,31.738,47.852,41.016,78.613,0
1553804739.278,-12.207,40.527,41.504,12.207,28.320,0
1553804739.282,-12.207,41.992,36.621,-3.418,26.367,0
1553804739.286,-6.348,29.785,42.480,1.465,92.285,0
1553804739.290,-19.043,32.715,44.922,-0.488,95.215,0
1553804739.294,-13.672,12.207,42.480,14.160,70.801,0
1553804739.298,-11.719,6.348,37.109,15.137,74.707,0
1553804739.302,-21.484,40.039,33.691,-8.301,89.844,0
1553804739.306,-32.227,31.250,38.086,-19.043,37.598,0
1553804739.310,-23.926,24.414,36.621,0.977,26.855,0
1553804739.313,-7.812,14.160,22.461,17.578,87.402,0
1553804739.317,-0.488,-4.395,26.855,23.438,64.453,0
1553804739.321,6.348,-10.254,21.973,19.531,14.160,0
1553804739.325,23.926,-11.230,13.672,27.832,0.488,0
1553804739.329,41.992,12.695,36.133,18.066,72.754,0
1553804739.333,-41.504,42.969,33.203,-1.465,82.031,0
1553804739.337,-99.609,43.457,28.809,25.391,86.914,0
1553804739.341,-47.363,27.832,39.062,53.711,68.359,0
1553804739.345,-16.113,27.832,30.273,23.438,-6.836,0
1553804739.349,-31.250,13.184,33.203,1.953,45.898,0
1553804739.353,-10.742,3.418,44.434,23.926,69.824,0
1553804739.356,0.488,2.930,39.062,41.016,79.590,0
1553804739.360,-1.465,7.812,24.902,29.785,78.125,0
1553804739.364,23.926,28.320,26.855,37.109,51.758,0
1553804739.368,0.977,31.250,37.598,57.129,49.805,0
1553804739.372,10.742,23.926,36.133,56.152,77.148,0
1553804739.376,19.043,22.949,22.949,47.852,113.770,0
1553804739.380,9.766,27.832,28.809,54.688,35.156,0
1553804739.384,11.719,37.598,41.504,67.871,-36.133,0
1553804739.388,17.090,30.273,42.480,65.918,-6.348,0
1553804739.392,31.738,29.297,45.898,50.293,63.965,0
1553804739.396,33.203,33.203,52.734,50.781,62.500,0
1553804739.399,39.551,31.250,58.594,62.012,21.973,0
1553804739.403,52.734,33.691,51.758,75.684,90.820,0
1553804739.407,35.156,31.250,51.758,63.965,112.793,0
1553804739.411,34.180,23.926,57.129,66.406,-55.176,0
1553804739.415,50.293,31.250,57.617,90.332,-65.430,0
1553804739.419,26.855,32.227,49.805,85.938,13.184,0
1553804739.423,52.734,24.902,51.270,89.844,-22.949,0
1553804739.427,55.664,29.297,51.758,67.383,17.578,0
1553804739.431,30.273,29.785,41.992,35.156,13.672,0
1553804739.435,31.250,29.297,41.504,30.762,0.977,0
1553804739.438,11.230,25.879,38.574,25.391,11.230,0
1553804739.442,23.438,12.695,40.527,36.621,98.145,0
1553804739.446,29.297,24.902,35.156,49.316,78.613,0
1553804739.450,17.090,32.227,27.344,6.348,79.590,0
1553804739.454,25.391,31.250,29.297,0.000,64.453,0
1553804739.458,17.090,29.297,28.809,23.438,-15.137,0
1553804739.462,34.180,24.902,31.250,25.391,5.371,0
1553804739.466,19.043,36.133,30.762,26.855,-26.367,0
1553804739.470,-15.137,38.086,27.832,50.781,-6.836,0
1553804739.474,-0.977,29.785,24.414,66.895,30.762,0
1553804739.478,8.301,26.855,40.039,50.781,15.625,0
1553804739.481,11.719,37.598,37.109,40.527,55.664,0
1553804739.485,-1.465,43.945,13.672,29.785,46.875,0
1553804739.489,-2.930,43.457,19.043,4.395,59.570,0
1553804739.493,26.855,25.391,20.508,9.766,68.359,0
1553804739.497,23.438,28.809,20.996,24.414,110.840,0
1553804739.501,-17.090,44.922,17.578,23.926,115.234,0
1553804739.505,3.906,39.551,21.973,39.062,49.316,0
1553804739.509,16.113,39.062,14.160,-0.488,43.945,0
1553804739.513,-19.043,13.184,7.812,-23.438,34.668,0
1553804739.517,-1.465,4.883,21.973,0.488,46.387,0
1553804739.521,13.672,47.363,12.695,-3.418,25.879,0
1553804739.524,-33.203,69.336,7.812,15.137,72.266,0
1553804739.528,-43.457,51.758,22.461,35.156,55.176,0
1553804739.532,-8.301,7.324,16.602,50.781,10.742,0
1553804739.536,-4.883,4.883,15.625,54.688,56.641,0
1553804739.540,-29.785,58.105,18.066,25.391,77.148,0
1553804739.544,-8.789,62.988,-2.930,-2.441,51.270,0
1553804739.548,-1.465,50.781,2.930,-12.207,-5.371,0
1553804739.552,-22.461,59.082,17.578,-10.742,10.742,0
1553804739.556,1.465,52.246,8.301,-15.137,63.965,0
1553804739.560,36.621,28.320,14.160,17.578,70.801,0
1553804739.563,42.480,45.410,20.020,37.109,34.180,0
1553804739.567,24.414,59.082,5.859,26.367,9.766,0
1553804739.571,46.387,60.547,13.184,42.969,5.371,0
1553804739.575,47.363,39.062,22.461,44.434,42.480,0
1553804739.579,-2.441,16.113,0.977,34.180,-5.371,0
1553804739.583,-8.789,39.062,-4.883,33.691,-7.812,0
1553804739.587,-16.602,54.688,15.137,36.133,50.781,0
1553804739.591,-5.371,48.340,23.926,70.801,-21.484,0
1553804739.595,28.809,35.156,5.371,98.633,-20.020,0
1553804739.599,17.090,46.387,-14.160,34.668,30.762,0
1553804739.603,11.719,42.969,6.348,-3.906,28.809,0
1553804739.606,2.930,44.922,17.578,-3.418,58.594,0
1553804739.610,-10.742,55.664,2.930,-49.316,41.504,0
1553804739.614,-2.930,41.992,2.930,-35.645,18.066,0
1553804739.618,-11.230,45.898,1.953,-32.715,59.082,0
1553804739.622,-12.207,41.504,1.953,2.930,95.703,0
1553804739.626,5.859,16.602,8.789,3.906,74.707,0
1553804739.630,13.184,33.203,12.695,-9.766,-7.812,0
1553804739.634,16.602,68.359,9.766,11.230,-29.785,0
1553804739.638,42.480,54.199,7.812,26.855,42.480,0
1553804739.642,55.664,60.547,2.930,54.199,79.590,0
1553804739.646,15.625,62.988,2.930,67.871,49.316,0
1553804739.649,25.879,56.641,2.930,98.145,-6.348,0
1553804739.653,56.152,56.152,-1.953,97.168,27.344,0
1553804739.657,6.348,39.062,17.578,13.184,39.062,0
1553804739.661,-58.594,17.578,25.879,-44.434,-6.836,0
1553804739.665,-79.590,-6.348,-1.465,-40.527,-5.859,0
1553804739.669,-53.223,30.762,3.906,-28.320,14.160,0
1553804739.673,-96.191,24.902,1.465,-66.895,45.410,0
1553804739.677,-151.855,10.742,1.465,-137.207,91.309,0
1553804739.681,-160.645,28.809,54.688,-160.156,83.496,0
1553804739.685,-217.285,0.488,80.078,-190.430,40.039,0
1553804739.688,-305.176,-35.645,51.758,-313.965,63.965,0
1553804739.692,-287.109,-38.574,67.383,-322.266,90.332,0
1553804739.696,-274.414,-34.668,121.094,-252.930,45.410,0
1553804739.700,-315.918,-49.805,82.520,-288.574,47.852,0
1553804739.704,-276.367,-22.461,76.660,-221.191,67.871,0
1553804739.708,-258.789,-33.691,102.539,-199.219,56.641,0
1553804739.712,-352.051,-93.262,41.016,-288.086,30.273,0
1553804739.716,-385.742,-54.199,19.043,-281.250,48.340,0
1553804739.720,-326.172,-36.133,78.125,-215.820,64.941,0
1553804739.724,-262.695,-66.895,84.473,-126.465,61.523,0
1553804739.728,-255.371,-41.992,72.266,-107.422,78.613,0
1553804739.731,-254.395,-36.621,66.895,-128.418,39.062,0
1553804739.735,-155.273,-30.762,45.898,-108.887,49.316,0
1553804739.739,-89.355,-0.977,55.176,-126.465,72.754,0
1553804739.743,-140.625,-16.113,59.082,-123.047,67.383,0
1553804739.747,-139.648,-31.738,74.707,-83.008,43.945,0
1553804739.751,-97.656,-57.617,117.676,-66.406,39.062,0
1553804739.755,-40.527,-90.332,159.668,-35.156,41.992,0
1553804739.759,-77.637,-2.930,135.254,-54.688,25.391,0
1553804739.763,-136.719,41.992,89.844,-91.309,56.641,0
1553804739.767,-82.520,20.508,110.352,-53.711,45.898,0
1553804739.771,-44.434,38.086,67.383,-22.461,27.344,0
1553804739.774,21.973,17.578,35.156,20.508,27.344,0
1553804739.778,-9.766,-2.441,76.660,45.898,45.410,0
1553804739.782,-55.664,-1.465,66.406,45.898,-22.949,0
1553804739.786,1.465,2.441,50.293,45.410,-30.273,0
1553804739.790,27.832,15.137,61.035,33.691,23.926,0
1553804739.794,38.086,11.719,71.777,36.133,17.578,0
1553804739.798,68.359,16.602,56.152,64.941,-21.973,0
1553804739.802,46.387,18.066,36.133,57.129,0.488,0
1553804739.806,41.016,8.301,29.785,36.133,46.875,0
1553804739.810,76.660,24.902,-14.648,68.359,46.387,0
1553804739.813,50.293,19.531,-17.578,109.375,33.691,0
1553804739.817,45.898,-14.160,62.988,56.152,-2.441,0
1553804739.821,89.355,32.715,69.824,-10.254,-13.672,0
1553804739.825,88.867,57.617,26.855,15.625,5.859,0
1553804739.829,78.613,40.039,24.414,25.879,5.371,0
1553804739.833,117.676,55.176,32.227,29.785,0.977,0
1553804739.837,72.754,33.203,33.203,41.016,7.324,0
1553804739.841,19.043,-20.508,35.156,90.332,55.664,0
1553804739.845,14.160,-10.742,54.688,78.613,2.441,0
1553804739.849,-5.859,31.738,23.926,66.406,-22.461,0
1553804739.853,-48.828,28.320,23.926,73.242,23.438,0
1553804739.856,-130.371,20.996,47.363,0.977,40.039,0
1553804739.860,-93.750,38.574,68.848,-14.160,30.762,0
1553804739.864,-70.312,44.434,32.227,-17.578,0.000,0
1553804739.868,-83.496,6.348,13.672,-50.293,24.902,0
1553804739.872,-84.473,-0.977,29.785,-76.172,42.480,0
1553804739.876,-107.910,27.344,64.941,-89.355,69.336,0
1553804739.880,-79.102,6.836,83.496,-101.074,62.012,0
1553804739.884,-22.461,12.695,54.688,-64.453,65.430,0
1553804739.888,-64.941,32.227,95.215,-50.781,-9.277,0
1553804739.892,-107.422,25.391,78.613,-98.633,-8.301,0
1553804739.896,-94.238,14.648,42.969,-94.238,63.477,0
1553804739.899,-127.441,12.207,41.504,-105.469,47.363,0
1553804739.903,-172.852,25.879,34.668,-83.496,4.883,0
1553804739.907,-177.246,37.598,29.785,-57.617,-1.465,0
1553804739.911,-153.320,38.086,-11.719,-110.352,36.621,0
1553804739.915,-130.371,38.574,-48.340,-58.594,39.062,0
1553804739.919,-116.211,54.688,-22.949,-14.648,7.324,0
1553804739.923,-72.754,43.457,-20.020,-8.789,3.418,0
1553804739.927,-57.617,37.109,-26.855,35.645,17.090,0
1553804739.931,-19.531,56.641,-52.734,2.441,39.062,0
1553804739.935,39.062,67.383,-75.195,-15.137,6.836,0
1553804739.938,75.195,51.758,-65.430,19.043,-32.227,0
1553804739.942,132.324,57.617,-49.805,86.914,-3.418,0
1553804739.946,100.098,70.312,-45.898,76.660,24.414,0
1553804739.950,89.355,67.383,-72.754,60.059,50.293,0
1553804739.954,149.414,57.617,-67.871,114.258,70.801,0
1553804739.958,136.719,57.129,-63.477,115.723,56.641,0
1553804739.962,104.980,66.406,-61.035,142.578,62.012,0
1553804739.966,131.836,61.035,-26.855,189.941,51.270,0
1553804739.970,158.203,73.242,-5.859,164.551,9.766,0
1553804739.974,153.320,86.426,-43.945,152.344,-6.348,0
1553804739.978,107.910,61.035,-43.457,199.707,13.184,0
1553804739.981,98.145,61.523,-43.945,176.758,23.926,0
1553804739.985,189.453,71.289,-13.184,158.203,-13.184,0
1553804739.989,161.133,50.781,56.152,141.113,-29.785,0
1553804739.993,85.449,85.449,-19.043,184.570,68.848,0
1553804739.997,115.234,59.082,-10.742,305.664,121.094,0
1553804740.001,207.520,33.691,-7.324,290.039,56.152,0
1553804740.005,180.664,75.684,-44.434,190.430,20.020,0
1553804740.009,72.754,38.574,-2.930,164.062,39.551,0
1553804740.013,-1.465,29.785,101.074,143.066,41.016,0
1553804740.017,-28.809,57.617,97.168,74.707,53.711,0
1553804740.021,-22.949,86.426,32.227,21.973,61.035,0
1553804740.024,1.465,87.402,3.418,14.160,39.062,0
1553804740.028,56.641,-10.742,23.438,82.520,40.039,0
1553804740.032,117.188,57.129,-32.715,170.410,18.066,0
1553804740.036,136.719,125.488,57.129,107.422,-1.953,0
1553804740.040,60.059,-41.992,158.691,54.688,49.805,0
1553804740.044,-15.625,32.715,61.523,54.199,59.570,0
1553804740.048,-43.945,157.227,30.762,-0.977,37.109,0
1553804740.052,58.105,-14.160,-9.277,145.996,31.738,0
1553804740.056,144.043,-64.941,54.199,220.703,-7.812,0
1553804740.060,116.211,31.250,-14.648,224.609,2.441,0
1553804740.063,-59.082,92.773,60.547,57.617,37.598,0
1553804740.067,-153.809,89.844,87.402,-0.488,25.391,0
1553804740.071,-25.391,84.473,47.363,74.219,11.719,0
1553804740.075,-7.324,52.246,141.113,112.305,9.766,0
1553804740.079,70.312,-25.879,-3.418,260.742,52.734,0
1553804740.083,32.227,72.266,-3.418,182.129,109.863,0
1553804740.087,-49.316,46.875,188.965,35.156,28.320,0
1553804740.091,67.383,95.703,-42.969,167.969,-28.320,0
1553804740.095,82.031,114.258,-133.789,240.723,64.453,0
1553804740.099,55.664,32.227,-1.465,209.473,100.586,0
1553804740.103,33.203,8.301,59.570,179.199,64.941,0
1553804740.106,47.363,13.672,137.695,101.562,60.059,0
1553804740.110,50.781,63.477,-23.926,226.562,42.480,0
1553804740.114,40.527,34.180,10.742,252.441,-16.113,0
1553804740.118,24.902,53.711,40.527,120.605,51.270,0
1553804740.122,153.809,69.824,-90.332,213.867,88.379,0
1553804740.126,110.840,65.430,-6.836,207.031,32.715,0
1553804740.130,57.129,43.457,27.344,173.828,51.758,0
1553804740.134,150.391,-2.441,-82.031,258.789,19.531,0
1553804740.138,77.637,1.465,-0.488,199.219,38.574,0
1553804740.142,-61.523,180.664,72.754,100.098,58.105,0
1553804740.146,38.574,46.875,5.859,167.969,29.785,0
1553804740.149,106.934,-81.543,-3.418,285.645,33.203,0
1553804740.153,51.758,-12.207,57.617,211.426,13.184,0
1553804740.157,105.957,54.199,-2.441,208.496,30.273,0
1553804740.161,150.391,-24.902,53.711,245.605,19.531,0
1553804740.165,153.809,0.488,-5.371,297.363,-19.531,0
1553804740.169,73.730,111.328,-77.637,252.441,45.410,0
1553804740.173,129.395,-4.395,9.277,224.609,103.027,0
1553804740.177,161.621,-18.555,-18.555,186.035,58.105,0
1553804740.181,128.906,41.992,-51.758,175.781,62.988,0
1553804740.185,116.699,-2.441,14.160,173.828,96.680,0
1553804740.188,64.453,31.250,20.020,127.441,41.016,0
1553804740.192,70.801,54.199,-19.531,187.988,33.691,0
1553804740.196,140.137,6.348,-5.371,186.523,51.758,0
1553804740.200,133.301,27.832,-16.602,135.742,119.629,0
1553804740.204,87.402,29.785,10.254,166.016,103.516,0
1553804740.208,70.312,4.395,69.336,161.133,37.598,0
1553804740.212,111.328,2.441,20.996,145.020,43.457,0
1553804740.216,117.676,57.617,-59.082,145.020,-18.555,0
1553804740.220,20.020,36.621,87.402,108.887,-20.508,0
1553804740.224,48.828,-9.766,86.914,150.391,-10.254,0
1553804740.228,149.414,25.879,-37.598,183.594,27.344,0
1553804740.231,59.082,20.996,4.883,88.867,119.141,0
1553804740.235,-9.766,118.164,-10.742,63.477,109.375,0
1553804740.239,62.500,107.910,0.000,93.262,38.574,0
1553804740.243,129.883,-22.949,42.969,119.629,30.273,0
1553804740.247,99.609,9.766,26.367,147.949,13.672,0
1553804740.251,17.578,15.137,9.766,145.508,23.926,0
1553804740.255,-15.137,41.016,36.133,54.688,73.730,0
1553804740.259,3.418,60.547,76.660,4.883,62.012,0
1553804740.263,53.711,3.906,89.844,65.918,24.414,0
1553804740.267,68.359,-10.742,49.316,115.234,11.230,0
1553804740.271,59.570,70.801,-36.133,122.070,58.594,0
1553804740.274,35.645,91.797,3.906,87.891,61.523,0
1553804740.278,57.617,13.672,29.785,65.430,41.504,0
1553804740.282,77.148,7.324,-29.785,25.391,18.555,0
1553804740.286,63.477,18.555,5.371,94.727,36.621,0
1553804740.290,26.855,7.324,41.504,111.328,66.406,0
1553804740.294,-20.996,57.129,47.363,64.941,77.637,0
1553804740.298,74.219,36.621,24.902,94.727,55.664,0
1553804740.302,132.324,1.953,17.090,104.492,61.035,0
1553804740.306,63.477,15.625,39.062,122.559,48.340,0
1553804740.310,52.734,12.207,34.180,118.652,35.645,0
1553804740.313,82.031,19.531,19.043,57.617,66.406,0
1553804740.317,58.594,38.574,-2.930,18.555,58.594,0
1553804740.321,20.996,31.250,18.555,79.102,26.367,0
1553804740.325,24.414,24.414,46.875,72.266,14.648,0
1553804740.329,32.715,23.438,37.109,39.062,7.812,0
1553804740.333,38.574,14.160,4.883,68.359,65.430,0
1553804740.337,4.395,22.461,-2.930,32.227,59.082,0
1553804740.341,5.371,23.438,30.762,24.902,27.832,0
1553804740.345,22.949,20.020,34.180,34.180,66.406,0
1553804740.349,-2.441,27.344,23.438,49.805,78.125,0
1553804740.353,15.137,13.184,30.762,70.801,29.297,0
1553804740.356,20.996,25.391,17.090,26.367,21.973,0
1553804740.360,-35.156,20.508,12.207,29.785,35.156,0
1553804740.364,-15.625,-0.488,36.133,80.566,63.477,0
1553804740.368,43.945,28.809,16.602,39.551,59.082,0
1553804740.372,43.457,43.945,1.465,23.438,27.344,0
1553804740.376,14.648,17.090,41.016,81.543,50.293,0
1553804740.380,15.625,11.719,26.367,43.457,61.035,0
1553804740.384,48.828,35.645,11.230,32.227,55.176,0
1553804740.388,33.203,30.762,31.250,62.988,1.465,0
1553804740.392,37.598,36.621,6.836,29.297,14.648,0
1553804740.396,14.648,23.926,24.414,52.246,58.105,0
1553804740.399,39.551,22.949,42.969,41.504,12.695,0
1553804740.403,13.672,34.668,25.391,2.441,-11.719,0
1553804740.407,-20.996,10.254,34.668,39.062,66.406,0
1553804740.411,34.180,13.672,44.434,55.664,29.785,0
1553804740.415,27.344,36.133,46.875,34.180,-13.672,0
1553804740.419,15.137,41.992,37.598,33.691,38.574,0
1553804740.423,15.625,44.434,23.438,7.812,42.480,0
1553804740.427,-2.441,35.645,35.156,3.418,42.480,0
1553804740.431,-35.156,15.137,44.922,26.855,11.230,0
1553804740.435,-40.527,11.719,39.551,22.949,36.621,0
1553804740.438,-4.395,31.738,37.109,19.531,8.789,0
1553804740.442,-34.180,38.574,23.926,-25.391,21.484,0
1553804740.446,-58.594,23.926,18.555,-4.395,51.758,0
1553804740.450,-24.902,14.648,39.551,54.199,37.598,0
1553804740.454,-29.297,24.902,43.945,21.484,58.594,0
1553804740.458,-12.695,45.898,17.578,-27.344,76.172,0
1553804740.462,-2.441,51.758,-2.930,-55.664,81.543,0
1553804740.466,-3.906,40.527,21.973,-28.809,42.969,0
1553804740.470,-48.340,26.855,37.598,9.766,33.691,0
1553804740.474,-40.039,14.160,53.711,44.434,56.152,0
1553804740.478,48.828,33.203,40.527,77.148,23.926,0
1553804740.481,84.961,54.688,15.625,51.270,34.668,0
1553804740.485,62.012,55.176,32.227,46.387,57.129,0
1553804740.489,6.836,33.203,51.758,75.195,63.477,0
1553804740.493,38.086,26.855,33.691,86.426,32.227,0
1553804740.497,80.566,55.176,33.203,102.539,48.828,0
1553804740.501,100.098,41.992,48.828,121.582,71.777,0
1553804740.505,113.281,33.203,27.832,143.555,-5.859,0
1553804740.509,71.289,38.086,35.156,134.766,-22.461,0
1553804740.513,91.309,43.945,36.133,91.309,-9.277,0
1553804740.517,124.023,50.781,15.137,90.820,-20.996,0
1553804740.521,48.828,21.973,57.129,131.836,41.016,0
1553804740.524,12.207,29.297,60.059,90.820,59.570,0
1553804740.528,52.246,23.438,32.227,82.031,5.371,0
1553804740.532,29.297,22.949,21.973,83.008,38.086,0
1553804740.536,42.480,46.387,13.672,67.383,45.410,0
1553804740.540,79.590,37.109,29.297,93.750,-9.766,0
1553804740.544,40.527,24.414,34.180,83.496,-38.574,0
1553804740.548,45.410,21.484,20.020,59.570,-37.598,0
1553804740.552,36.621,33.203,19.043,71.289,-12.207,0
1553804740.556,-18.066,35.645,31.250,59.082,53.223,0
1553804740.560,-16.602,21.484,28.809,0.977,29.297,0
1553804740.563,7.324,47.852,6.836,41.504,35.156,0
1553804740.567,50.293,66.406,23.926,123.047,71.289,0
1553804740.571,6.348,26.367,25.879,69.336,0.488,0
1553804740.575,20.996,18.066,13.184,18.066,41.504,0
1553804740.579,76.172,35.156,29.297,54.199,99.609,0
1553804740.583,33.203,44.922,24.902,69.336,61.523,0
1553804740.587,47.852,46.875,14.160,73.730,73.730,0
1553804740.591,53.223,46.875,35.645,83.984,58.105,0
1553804740.595,17.090,35.156,42.480,84.473,67.871,0
1553804740.599,19.043,32.227,31.738,55.176,116.211,0
1553804740.603,25.879,45.898,28.320,24.414,95.703,0
1553804740.606,19.043,34.180,15.137,33.203,27.832,0
1553804740.610,1.465,28.320,28.809,26.367,46.387,0
1553804740.614,-31.250,23.438,30.273,9.277,60.059,0
1553804740.618,-16.113,30.762,19.043,16.113,0.000,0
1553804740.622,-11.719,47.363,33.203,11.719,17.090,0
1553804740.626,-48.828,24.902,24.414,8.789,44.434,0
1553804740.630,-17.578,27.344,9.766,25.391,72.266,0
1553804740.634,-7.324,49.805,-0.977,-2.441,64.453,0
1553804740.638,-42.480,35.156,17.090,-11.719,43.945,0
1553804740.642,-83.984,17.090,27.344,14.648,1.953,0
1553804740.646,-69.824,22.461,25.391,28.809,-9.766,0
1553804740.649,-39.062,34.668,6.348,-34.668,2.441,0
1553804740.653,-32.715,44.434,9.277,-56.641,39.551,0
1553804740.657,-28.320,34.668,23.926,19.531,46.875,0
1553804740.661,29.785,40.039,7.324,38.086,38.574,0
1553804740.665,0.488,74.707,7.324,-27.344,56.641,0
1553804740.669,-122.070,44.922,-3.418,-43.945,59.082,0
1553804740.673,-62.012,-10.742,33.691,37.598,40.527,0
1553804740.677,12.207,31.250,53.223,10.254,13.184,0
1553804740.681,22.461,60.059,-18.066,-42.969,0.488,0
1553804740.685,35.156,53.711,-28.320,-34.180,-9.277,0
1553804740.688,-69.824,49.805,-2.441,-52.246,43.945,0
1553804740.692,-120.117,39.551,34.668,-47.363,19.531,0
1553804740.696,-79.102,51.758,-4.395,-13.672,48.340,0
1553804740.700,1.953,46.387,-34.180,17.578,75.684,0
1553804740.704,-95.703,19.043,8.789,-62.500,20.508,0
1553804740.708,-134.277,2.441,52.246,-120.605,62.012,0
1553804740.712,-16.113,38.574,56.152,-54.688,79.102,0
1553804740.716,-11.719,40.039,99.121,-30.762,64.941,0
1553804740.720,9.766,58.105,2.441,-34.668,93.262,0
1553804740.724,-41.016,52.246,-30.273,16.113,45.410,0
1553804740.728,-41.992,43.945,-23.438,48.340,-15.625,0
1553804740.731,-42.480,-6.836,15.625,10.742,-37.598,0
1553804740.735,-56.152,9.277,77.148,-18.555,20.508,0
1553804740.739,49.805,26.855,-2.441,63.965,77.637,0
1553804740.743,-128.418,2.930,151.855,-181.641,37.598,0
1553804740.747,-340.820,81.543,233.398,-212.891,-9.766,0
1553804740.751,-4.883,86.914,-15.137,125.488,-1.953,0
1553804740.755,176.758,7.324,69.824,22.949,88.867,0
1553804740.759,-3.418,152.344,92.285,-69.824,31.250,0
1553804740.763,25.879,117.676,-177.246,64.453,19.043,0
1553804740.767,-52.246,-24.902,80.566,-97.168,78.613,0
1553804740.771,-37.598,-18.555,233.887,-132.324,85.449,0
1553804740.774,-17.090,80.078,13.184,-13.184,79.590,0
1553804740.778,-96.680,157.715,-15.625,-33.203,23.438,0
1553804740.782,-62.012,103.516,9.766,43.945,19.531,0
1553804740.786,62.012,-8.301,34.180,61.035,1.953,0
1553804740.790,47.363,36.133,28.320,37.109,-28.320,0
1553804740.794,-15.137,176.270,-168.457,62.012,-45.898,0
1553804740.798,95.215,4.395,47.363,62.500,0.000,0
1553804740.802,128.906,-100.586,172.363,23.438,35.156,0
1553804740.806,83.008,118.164,-59.570,81.055,-17.090,0
1553804740.810,-57.617,94.238,4.883,54.199,2.930,0
1553804740.813,-115.234,-34.180,59.082,-0.488,56.641,0
1553804740.817,50.781,-40.527,-45.898,141.602,0.977,0
1553804740.821,27.344,16.602,-4.395,142.090,-63.965,0
1553804740.825,-126.953,68.359,72.266,60.059,-12.207,0
1553804740.829,48.340,-4.395,-59.082,110.840,61.523,0
1553804740.833,200.195,-25.391,-55.176,120.117,47.852,0
1553804740.837,74.219,81.543,-43.457,132.324,31.250,0
1553804740.841,-7.324,111.816,23.926,-18.555,22.949,0
1553804740.845,-12.695,-13.672,114.258,-143.555,32.715,0
1553804740.849,29.785,10.742,-3.418,-43.945,36.133,0
1553804740.853,26.367,72.754,-125.977,-42.480,-10.742,0
1553804740.856,90.332,12.695,-33.691,20.508,-13.672,0
1553804740.860,33.691,-10.254,79.102,7.324,71.777,0
1553804740.864,-46.875,26.855,7.324,-51.270,61.523,0
1553804740.868,98.145,-13.672,-78.613,147.949,-8.301,0
1553804740.872,-47.852,62.988,-44.434,58.594,17.090,0
1553804740.876,-44.434,83.496,-20.020,-81.543,46.875,0
1553804740.880,81.055,29.785,63.477,-40.527,38.086,0
1553804740.884,-61.035,53.711,6.836,-30.762,56.641,0
1553804740.888,9.277,1.953,-117.676,103.516,66.406,0
1553804740.892,-95.703,35.645,138.672,21.973,75.195,0
1553804740.896,-170.410,-55.664,172.852,-90.820,79.102,0
1553804740.899,-83.984,-3.418,-35.645,-68.359,32.227,0
1553804740.903,-137.695,18.066,17.578,-81.055,41.016,0
1553804740.907,-229.004,74.219,45.898,-219.727,57.617,0
1553804740.911,-175.293,28.320,77.148,-215.820,3.906,0
1553804740.915,-76.660,-123.047,128.418,-155.762,-23.926,0
1553804740.919,-237.793,-9.277,79.102,-264.648,14.648,0
1553804740.923,-264.160,12.207,13.672,-262.695,21.973,0
1553804740.927,-195.801,-163.086,128.418,-186.035,65.918,0
1553804740.931,-229.980,-58.594,121.582,-210.938,59.082,0
1553804740.935,-259.277,-60.059,145.508,-211.426,41.016,0
1553804740.938,-293.945,-107.910,155.762,-211.914,43.457,0
1553804740.942,-150.391,-70.312,82.520,-160.645,24.414,0
1553804740.946,-89.844,-161.133,125.977,-52.246,20.996,0
1553804740.950,-125.488,-106.934,65.430,-30.273,-8.301,0
1553804740.954,-50.781,-115.234,182.617,-45.898,-40.527,0
1553804740.958,-79.102,-82.031,144.531,-30.762,-12.695,0
1553804740.962,-15.137,1.465,98.145,42.480,47.363,0
1553804740.966,-29.785,31.738,99.121,28.809,-4.395,0
1553804740.970,-147.949,42.969,111.328,-67.383,18.555,0
1553804740.974,-148.438,11.719,192.383,-61.035,35.645,0
1553804740.978,26.855,-132.324,121.094,29.297,-12.695,0
1553804740.981,48.828,-64.453,29.785,23.926,46.387,0
1553804740.985,-56.152,-31.738,101.074,2.930,15.625,0
1553804740.989,78.125,-142.090,115.723,62.988,41.504,0
1553804740.993,88.379,-81.543,83.496,87.891,41.992,0
1553804740.997,38.574,-28.809,69.824,114.746,-15.625,0
1553804741.001,43.457,-28.809,66.406,85.938,31.738,0
1553804741.005,6.836,-56.152,170.410,52.734,-11.230,0
1553804741.009,92.285,-47.363,82.031,144.043,1.465,0
1553804741.013,62.988,-16.602,40.527,129.395,50.781,0
1553804741.017,-47.852,70.312,179.688,30.273,17.578,0
1553804741.021,149.414,-71.777,113.281,165.039,58.105,0
1553804741.024,177.246,-47.852,25.391,206.543,47.852,0
1553804741.028,97.656,27.344,59.082,156.738,6.348,0
1553804741.032,140.137,-20.020,18.066,129.395,4.883,0
1553804741.036,52.734,-3.906,43.945,17.578,34.668,0
1553804741.040,87.891,-34.180,34.668,23.926,34.668,0
1553804741.044,98.145,72.266,-4.395,55.176,23.438,0
1553804741.048,97.168,29.297,18.066,74.707,77.637,0
1553804741.052,152.344,-68.848,18.555,73.730,65.918,0
1553804741.056,158.203,-29.785,-1.953,59.570,13.672,0
1553804741.060,164.062,-31.250,3.418,74.219,45.898,0
1553804741.063,81.543,-27.832,19.531,73.730,2.930,0
1553804741.067,60.547,-10.254,4.395,59.570,70.312,0
1553804741.071,102.539,-10.742,-4.883,48.340,106.934,0
1553804741.075,113.770,-10.254,2.930,52.246,-4.883,0
1553804741.079,91.797,-16.113,6.348,60.059,29.297,0
1553804741.083,111.816,-8.301,0.000,61.035,42.969,0
1553804741.087,115.234,-0.977,-3.418,56.641,0.488,0
1553804741.091,81.543,2.441,-3.418,32.715,60.547,0
1553804741.095,80.566,5.859,-3.906,4.395,73.242,0
1553804741.099,73.242,-2.441,3.418,29.785,61.523,0
1553804741.103,55.176,-1.465,17.090,47.852,34.668,0
1553804741.106,55.664,14.648,26.367,42.480,-3.906,0
1553804741.110,94.238,17.090,27.344,44.922,19.043,0
1553804741.114,67.871,14.648,35.645,36.621,24.414,0
1553804741.118,-18.066,5.859,26.367,4.395,8.789,0
1553804741.122,-33.691,-17.578,17.578,-12.207,36.621,0
1553804741.126,-2.441,-26.855,30.762,2.930,53.711,0
1553804741.130,13.184,13.672,41.992,6.348,125.000,0
1553804741.134,-13.184,33.203,28.809,-20.508,139.648,0
1553804741.138,-17.090,11.719,29.297,-69.824,90.332,0
1553804741.142,-31.738,32.227,35.645,-109.375,63.965,0
1553804741.146,-92.285,28.320,14.648,-133.789,96.680,0
1553804741.149,-72.754,41.504,-12.695,-107.910,81.543,0
1553804741.153,-89.355,38.574,-1.953,-121.094,55.664,0
1553804741.157,-195.801,62.988,-14.648,-185.547,143.555,0
1553804741.161,-161.621,112.793,-33.691,-179.688,135.742,0
1553804741.165,-122.559,66.406,-26.367,-195.312,102.539,0
1553804741.169,-115.723,56.641,-46.875,-201.660,68.848,0
1553804741.173,-67.871,87.402,-60.547,-201.172,26.367,0
1553804741.177,-137.695,108.398,-66.895,-215.820,63.477,0
1553804741.181,-177.246,109.863,-88.379,-171.387,84.473,0
1553804741.185,-187.012,91.797,-100.586,-134.766,47.852,0
1553804741.188,-204.590,98.145,-119.629,-155.762,35.156,0
1553804741.192,-174.316,127.930,-131.348,-175.293,51.270,0
1553804741.196,-170.898,117.188,-104.980,-163.574,44.434,0
1553804741.200,-152.832,111.328,-149.902,-122.070,33.203,0
1553804741.204,-124.023,124.512,-169.922,-96.680,41.016,0
1553804741.208,-86.914,114.746,-86.426,-125.977,55.664,0
1553804741.212,-26.367,100.586,-92.285,-107.422,29.297,0
1553804741.216,-8.789,107.422,-116.211,-61.035,-6.348,0
1553804741.220,-40.039,113.770,-109.863,-47.852,13.672,0
1553804741.224,-31.738,91.797,-110.840,-17.578,31.250,0
1553804741.228,-2.441,96.680,-90.332,20.020,83.496,0
1553804741.231,11.230,116.211,-88.379,27.344,30.273,0
1553804741.235,29.785,91.797,-83.496,52.246,33.203,0
1553804741.239,58.594,81.543,-71.289,113.281,49.316,0
1553804741.243,73.730,80.078,-74.219,112.793,-26.855,0
1553804741.247,105.957,56.152,-85.938,95.703,-14.648,0
1553804741.251,138.184,74.707,-73.242,129.883,8.789,0
1553804741.255,154.297,100.098,-51.270,166.016,-48.340,0
1553804741.259,143.555,86.914,-53.711,150.879,-11.719,0
1553804741.263,178.223,84.961,-59.570,125.488,33.203,0
1553804741.267,195.801,83.984,-54.199,148.926,26.367,0
1553804741.271,174.805,70.801,-47.852,134.766,124.512,0
1553804741.274,158.691,58.105,-39.551,126.953,39.551,0
1553804741.278,168.457,58.594,-29.785,161.621,-32.715,0
1553804741.282,172.363,63.477,-34.180,146.484,39.551,0
1553804741.286,145.508,58.594,-39.062,139.648,35.645,0
1553804741.290,153.320,47.363,-12.207,155.273,-38.086,0
1553804741.294,151.367,47.363,14.160,123.535,-14.648,0
1553804741.298,126.953,43.945,18.066,112.305,35.645,0
1553804741.302,109.375,35.645,16.113,136.230,-3.906,0
1553804741.306,124.023,36.621,16.113,149.902,-3.418,0
1553804741.310,150.391,39.551,23.926,156.250,62.988,0
1553804741.313,119.629,35.645,33.203,147.949,52.734,0
1553804741.317,106.445,29.297,40.039,153.809,60.059,0
1553804741.321,97.656,28.320,43.945,149.414,51.758,0
1553804741.325,72.754,27.344,47.363,142.578,20.020,0
1553804741.329,106.934,32.227,48.340,143.066,-36.133,0
1553804741.333,102.051,30.762,50.781,123.535,-41.992,0
1553804741.337,82.031,26.367,54.199,125.488,15.137,0
1553804741.341,88.867,25.879,51.270,130.859,49.316,0
1553804741.345,92.285,28.320,56.152,121.094,41.992,0
1553804741.349,94.238,27.344,59.570,122.070,28.809,0
1553804741.353,81.055,19.531,53.711,122.559,38.086,0
1553804741.356,68.848,24.414,54.199,120.605,18.066,0
1553804741.360,62.500,19.043,59.570,116.699,38.086,0
1553804741.364,70.801,15.625,56.641,103.516,68.848,0
1553804741.368,91.309,28.320,47.852,111.328,132.324,0
1553804741.372,71.777,33.691,55.176,107.422,127.930,0
1553804741.376,62.500,22.949,64.941,95.215,17.090,0
1553804741.380,52.734,10.254,62.500,89.355,-7.324,0
1553804741.384,72.754,22.461,57.617,88.379,2.930,0
1553804741.388,98.145,31.738,58.594,105.469,-44.434,0
1553804741.392,63.477,16.602,55.176,104.492,-18.066,0
1553804741.396,64.941,11.719,56.152,104.004,36.621,0
1553804741.399,59.570,23.926,59.082,105.957,36.621,0
1553804741.403,38.574,17.578,55.176,76.172,15.625,0
1553804741.407,49.805,16.602,51.270,78.125,21.973,0
1553804741.411,57.617,20.508,45.410,107.422,35.156,0
1553804741.415,42.969,22.461,51.270,78.613,62.012,0
1553804741.419,37.598,25.391,54.199,56.152,59.570,0
1553804741.423,55.176,21.973,54.688,67.871,20.020,0
1553804741.427,57.617,17.090,55.664,60.547,55.176,0
1553804741.431,39.062,22.461,42.480,55.664,124.512,0
1553804741.435,48.340,33.203,33.203,48.340,53.223,0
1553804741.438,26.367,30.273,38.086,36.621,22.949,0
1553804741.442,18.066,23.438,44.922,44.434,11.230,0
1553804741.446,34.668,27.832,42.480,34.180,14.160,0
1553804741.450,10.254,21.973,37.109,26.855,79.102,0
1553804741.454,0.488,18.066,36.621,27.344,68.359,0
1553804741.458,6.348,24.902,37.598,30.762,30.273,0
1553804741.462,-5.859,24.902,43.945,31.738,74.707,0
1553804741.466,3.906,23.438,39.062,38.574,104.492,0
1553804741.470,23.438,28.320,26.855,34.668,104.492,0
1553804741.474,9.277,30.762,34.668,32.715,75.195,0
1553804741.478,11.230,19.043,46.875,26.855,48.340,0
1553804741.481,9.766,22.949,33.691,6.348,89.844,0
1553804741.485,11.719,37.109,26.855,32.715,95.215,0
1553804741.489,7.324,34.180,39.062,31.250,100.098,0
1553804741.493,4.395,26.367,36.621,20.508,104.980,0
1553804741.497,18.555,29.785,25.391,24.902,89.844,0
1553804741.501,4.395,36.133,26.367,23.926,41.992,0
1553804741.505,-14.648,32.227,22.949,29.785,72.266,0
1553804741.509,6.836,30.762,21.973,13.672,67.871,0
1553804741.513,21.973,37.598,26.367,9.277,-5.371,0
1553804741.517,-25.879,37.109,20.020,-1.953,18.555,0
1553804741.521,4.395,24.414,18.066,13.184,54.688,0
1553804741.524,6.836,26.367,22.461,29.297,43.945,0
1553804741.528,-29.297,27.832,20.508,-7.812,25.879,0
1553804741.532,-20.508,28.809,17.578,-19.043,91.309,0
1553804741.536,-32.227,29.785,29.785,3.418,163.086,0
1553804741.540,-34.668,20.508,29.297,-2.930,100.098,0
1553804741.544,-24.902,14.648,20.996,-7.812,24.414,0
1553804741.548,-18.555,9.277,28.809,-11.719,63.965,0
1553804741.552,-33.203,24.414,24.902,-10.254,89.355,0
1553804741.556,-44.434,39.062,19.531,5.859,69.824,0
1553804741.560,-23.926,41.016,14.160,8.789,56.641,0
1553804741.563,4.883,31.250,19.043,8.789,12.207,0
1553804741.567,-1.465,21.973,29.297,9.277,29.297,0
1553804741.571,-22.461,17.578,29.785,7.812,2.441,0
1553804741.575,-25.391,27.832,15.625,10.254,-13.184,0
1553804741.579,-20.020,41.504,11.719,8.789,-31.738,0
1553804741.583,-15.137,46.387,26.367,-2.441,-7.324,0
1553804741.587,-7.324,45.898,22.461,0.977,-15.137,0
1553804741.591,6.836,34.668,16.602,-1.465,5.859,0
1553804741.595,-9.766,37.109,24.902,-0.977,64.941,0
1553804741.599,-34.180,40.527,19.531,3.418,13.184,0
1553804741.603,-9.766,37.598,9.277,11.719,58.594,0
1553804741.606,1.465,36.133,21.484,20.996,74.707,0
1553804741.610,-10.254,41.992,26.855,15.625,-0.488,0
1553804741.614,-8.301,38.574,33.203,6.348,-26.367,0
1553804741.618,-6.348,23.926,34.668,34.180,-2.930,0
1553804741.622,-2.930,29.785,22.461,37.109,33.691,0
1553804741.626,-3.418,42.969,29.297,14.160,43.457,0
1553804741.630,-2.441,43.457,27.344,23.438,36.621,0
1553804741.634,-7.812,51.758,8.789,13.184,35.156,0
1553804741.638,-22.461,50.781,12.207,8.301,7.324,0
1553804741.642,-17.090,40.039,24.414,17.090,15.137,0
1553804741.646,-12.695,37.109,25.879,8.789,51.270,0
1553804741.649,-5.371,37.598,24.902,24.902,8.789,0
1553804741.653,-8.301,33.691,31.738,12.695,11.719,0
1553804741.657,-6.836,34.668,21.973,-6.348,30.273,0
1553804741.661,-35.645,36.621,8.789,5.859,22.461,0
1553804741.665,-24.902,32.227,25.879,17.090,53.223,0
1553804741.669,-12.207,33.203,34.180,14.160,78.125,0
1553804741.673,-3.906,35.645,23.438,18.066,76.172,0
1553804741.677,10.254,35.156,25.879,26.855,19.043,0
1553804741.681,-2.930,37.598,24.414,30.273,-10.742,0
1553804741.685,-8.789,38.574,21.484,4.883,39.062,0
1553804741.688,-2.441,29.297,31.738,-7.324,25.879,0
1553804741.692,18.066,41.016,20.020,20.020,31.250,0
1553804741.696,5.859,50.293,18.555,36.621,38.086,0
1553804741.700,-21.973,37.598,26.855,11.230,29.785,0
1553804741.704,3.418,33.691,24.414,28.809,52.246,0
1553804741.708,4.883,37.598,40.039,48.340,43.945,0
1553804741.712,-30.273,30.273,38.086,17.578,51.758,0
1553804741.716,-26.855,27.832,26.855,-0.488,65.918,0
1553804741.720,-21.484,32.715,26.367,-15.137,56.152,0
1553804741.724,-43.945,50.781,23.926,-19.043,0.977,0
1553804741.728,-61.523,49.805,25.879,21.484,-18.555,0
1553804741.731,-65.918,35.156,42.969,-41.504,20.020,0
1553804741.735,-27.344,36.133,38.574,-42.480,17.090,0
1553804741.739,6.836,21.484,24.902,71.777,79.102,0
1553804741.743,3.418,15.137,34.668,36.133,80.566,0
1553804741.747,16.113,27.344,-0.488,17.090,22.949,0
1553804741.751,-74.707,51.270,94.238,-49.805,24.902,0
1553804741.755,-78.613,43.945,91.309,-55.176,-10.742,0
1553804741.759,-96.680,95.703,-64.453,-29.785,-4.395,0
1553804741.763,-57.617,78.125,50.781,-37.598,29.297,0
1553804741.767,75.684,10.254,38.574,24.902,29.785,0
1553804741.771,-2.441,63.965,-30.762,-25.879,46.387,0
1553804741.774,-98.633,55.176,24.414,-43.945,40.039,0
1553804741.778,-55.664,30.273,52.734,-3.418,28.320,0
1553804741.782,-71.289,104.492,36.133,-58.105,64.453,0
1553804741.786,-50.781,92.773,25.391,-70.801,80.566,0
1553804741.790,33.203,-15.625,107.422,40.039,19.531,0
1553804741.794,-18.555,20.508,29.297,57.617,12.695,0
1553804741.798,-92.285,104.980,-20.996,-62.012,56.152,0
1553804741.802,-81.543,163.574,-20.996,-54.199,19.043,0
1553804741.806,-70.312,36.133,168.457,-81.055,-17.578,0
1553804741.810,-163.086,102.539,140.625,-124.023,-20.996,0
1553804741.813,-53.711,107.422,-32.715,17.578,-50.781,0
1553804741.817,-6.348,-30.273,155.273,-30.273,27.832,0
1553804741.821,77.148,14.648,-98.145,64.941,75.684,0
1553804741.825,31.250,197.266,-143.066,77.637,16.113,0
1553804741.829,-71.289,118.652,3.418,-34.180,26.855,0
1553804741.833,-96.680,24.414,-0.488,-12.695,65.918,0
1553804741.837,-39.551,16.602,68.359,-74.707,64.453,0
1553804741.841,-39.062,46.387,99.121,-62.988,28.320,0
1553804741.845,-19.043,143.555,-51.270,62.500,30.273,0
1553804741.849,77.637,-86.914,80.078,45.898,5.371,0
1553804741.853,-83.984,37.109,168.945,-57.617,9.766,0
1553804741.856,-51.270,158.203,-27.344,35.156,36.133,0
1553804741.860,64.453,21.484,-13.672,96.680,25.879,0
1553804741.864,49.805,-94.238,-2.441,93.750,29.785,0
1553804741.868,-9.277,66.406,-46.387,63.477,9.766,0
1553804741.872,36.621,135.742,-2.930,13.672,3.906,0
1553804741.876,44.922,-33.691,95.215,-31.250,34.668,0
1553804741.880,-16.113,-30.762,-10.742,16.113,117.188,0
1553804741.884,-5.859,51.758,-42.480,58.105,102.051,0
1553804741.888,74.219,-20.508,-8.301,68.359,48.828,0
1553804741.892,145.508,-43.457,-46.387,145.508,45.410,0
1553804741.896,-27.344,72.754,37.598,22.461,65.918,0
1553804741.899,-44.922,65.918,68.359,-28.809,79.590,0
1553804741.903,-53.711,96.191,49.316,-22.461,23.926,0
1553804741.907,20.996,25.391,-78.613,51.270,40.527,0
1553804741.911,168.457,-97.656,-61.523,141.602,64.941,0
1553804741.915,41.504,4.883,82.031,22.949,-13.184,0
1553804741.919,-93.750,66.406,106.934,-82.031,-0.977,0
1553804741.923,54.199,-44.434,74.707,58.594,58.105,0
1553804741.927,52.246,-1.465,21.973,14.648,60.547,0
1553804741.931,-59.570,63.965,64.941,-50.293,76.660,0
1553804741.935,98.633,41.504,-27.344,113.281,66.895,0
1553804741.938,-69.336,237.305,-29.785,45.898,35.645,0
1553804741.942,-156.738,203.613,62.988,-78.125,27.344,0
1553804741.946,102.051,-77.637,-45.410,58.594,-51.758,0
1553804741.950,114.746,-48.340,1.953,120.605,2.930,0
1553804741.954,60.059,59.570,11.719,61.523,59.082,0
1553804741.958,51.270,21.484,51.758,8.301,68.359,0
1553804741.962,37.109,-1.465,48.340,43.457,105.957,0
1553804741.966,-35.645,51.758,-29.297,66.406,64.941,0
1553804741.970,-50.781,73.242,-5.859,-3.418,85.449,0
1553804741.974,137.207,-36.621,20.508,38.574,72.266,0
1553804741.978,102.051,-8.301,70.312,43.457,34.668,0
1553804741.981,-56.641,103.516,170.898,-50.781,43.457,0
1553804741.985,104.004,8.301,-63.965,157.715,67.871,0
1553804741.989,107.910,-18.555,-110.840,166.992,28.320,0
1553804741.993,0.000,28.809,81.055,-45.898,25.391,0
1553804741.997,-104.004,143.066,95.703,-61.035,26.367,0
1553804742.001,15.625,81.543,-45.898,87.402,-3.418,0
1553804742.005,103.516,10.254,15.625,79.590,-8.301,0
1553804742.009,-83.984,103.027,70.312,-85.449,8.301,0
1553804742.013,-14.648,60.059,-28.320,41.992,14.160,0
1553804742.017,114.258,-1.465,-2.930,161.621,72.754,0
1553804742.021,121.582,26.367,33.691,27.344,16.602,0
1553804742.024,-2.441,40.039,68.359,-54.688,21.484,0
1553804742.028,67.871,-28.320,11.230,92.285,64.941,0
1553804742.032,68.848,47.363,-63.965,151.855,9.766,0
1553804742.036,47.852,-22.461,11.719,92.773,33.691,0
1553804742.040,-60.547,102.051,10.742,-29.297,65.918,0
1553804742.044,8.789,74.219,91.797,21.484,65.430,0
1553804742.048,93.750,-62.988,98.145,63.965,14.648,0
1553804742.052,-126.953,152.344,-29.785,-55.664,15.137,0
1553804742.056,-34.668,133.789,-15.137,-53.223,69.824,0
1553804742.060,91.797,-49.805,37.598,39.062,50.293,0
1553804742.063,36.621,-40.039,16.602,91.309,22.461,0
1553804742.067,52.734,100.098,-80.078,67.871,41.016,0
1553804742.071,37.598,74.707,38.086,24.414,75.195,0
1553804742.075,-32.227,130.371,72.266,-53.223,20.020,0
1553804742.079,20.996,18.555,1.465,-26.367,-26.367,0
1553804742.083,-74.219,-25.391,83.008,75.684,11.719,0
1553804742.087,49.805,14.648,46.387,115.234,32.227,0
1553804742.091,147.949,-13.672,-8.301,-19.043,46.875,0
1553804742.095,-41.504,150.391,-37.598,-32.715,27.344,0
1553804742.099,-20.996,108.398,2.441,17.090,40.039,0
1553804742.103,76.660,43.945,-54.688,89.844,94.727,0
1553804742.106,13.672,63.477,72.266,11.230,60.059,0
1553804742.110,-101.562,126.953,43.457,-123.535,34.668,0
1553804742.114,62.012,116.211,-32.715,35.645,11.719,0
1553804742.118,205.078,-69.336,41.504,208.008,-19.043,0
1553804742.122,21.484,44.922,47.852,75.195,14.160,0
1553804742.126,-67.871,70.312,15.625,-73.242,40.039,0
1553804742.130,55.176,45.898,-82.520,7.812,-40.527,0
1553804742.134,136.230,9.766,-13.672,109.863,-19.043,0
1553804742.138,-92.285,183.105,36.133,-95.215,91.797,0
1553804742.142,-73.242,96.680,60.547,-176.270,90.332,0
1553804742.146,53.223,16.113,-41.504,84.961,60.059,0
1553804742.149,73.242,0.977,-75.684,88.867,80.566,0
1553804742.153,11.230,-43.945,89.355,-36.621,86.914,0
1553804742.157,38.086,98.633,-3.906,87.402,36.621,0
1553804742.161,74.707,26.855,-15.625,103.027,12.207,0
1553804742.165,21.973,-10.742,88.867,-40.039,41.992,0
1553804742.169,88.379,11.230,62.988,-7.324,66.406,0
1553804742.173,119.629,72.754,-26.367,100.586,11.230,0
1553804742.177,-106.445,148.926,-2.930,-60.547,59.082,0
1553804742.181,-159.668,133.301,27.832,-40.039,63.965,0
1553804742.185,99.121,24.902,-24.414,109.375,1.953,0
1553804742.188,39.062,45.410,-5.859,-5.371,-19.043,0
1553804742.192,56.641,21.973,-3.906,-11.719,-7.324,0
1553804742.196,91.797,-89.355,135.742,19.531,36.133,0
1553804742.200,14.160,-8.789,27.344,31.250,70.312,0
1553804742.204,142.090,-2.930,-72.266,155.762,78.613,0
1553804742.208,67.383,55.176,27.344,48.340,35.156,0
1553804742.212,-120.117,130.859,42.480,-65.918,33.203,0
1553804742.216,-45.898,15.137,59.082,-9.277,80.566,0
1553804742.220,24.414,-48.828,-22.461,92.773,48.828,0
1553804742.224,5.859,1.465,-31.738,51.270,42.969,0
1553804742.228,-13.672,140.137,-20.020,-0.488,51.270,0
1553804742.231,-49.805,118.652,70.801,-48.340,20.996,0
1553804742.235,-6.348,36.621,82.520,-48.828,57.129,0
1553804742.239,-27.832,79.590,-21.973,-27.832,50.781,0
1553804742.243,-104.980,69.336,-19.043,-12.207,60.547,0
1553804742.247,3.418,-1.465,29.785,38.574,80.078,0
1553804742.251,66.895,-4.883,-19.043,35.156,88.379,0
1553804742.255,25.879,-10.254,-2.930,-7.812,104.980,0
1553804742.259,7.812,3.418,-8.301,13.184,42.480,0
1553804742.263,-38.086,48.828,61.523,-17.090,8.301,0
1553804742.267,5.859,42.480,59.082,0.977,62.500,0
1553804742.271,-29.297,83.984,9.277,15.625,78.613,0
1553804742.274,-18.066,88.379,20.508,9.766,68.359,0
1553804742.278,88.867,-34.668,45.410,77.637,57.129,0
1553804742.282,92.773,50.293,46.875,95.703,40.039,0
1553804742.286,96.680,9.277,42.480,110.352,38.086,0
1553804742.290,37.598,35.156,79.102,79.102,55.176,0
1553804742.294,21.484,161.133,29.785,64.453,49.316,0
1553804742.298,70.801,84.473,13.184,79.590,77.148,0
1553804742.302,86.914,-20.996,88.379,93.262,76.172,0
1553804742.306,0.488,60.547,65.430,82.031,1.465,0
1553804742.310,54.199,73.730,-4.395,102.051,34.180,0
1553804742.313,139.648,-25.391,75.195,123.047,98.633,0
1553804742.317,107.910,18.066,94.727,73.730,47.852,0
1553804742.321,73.730,74.219,8.789,70.801,-34.180,0
1553804742.325,54.688,47.363,27.344,106.934,58.105,0
1553804742.329,96.680,21.484,65.918,107.422,78.125,0
1553804742.333,68.359,75.684,14.160,93.262,51.270,0
1553804742.337,59.082,81.543,9.277,75.195,26.855,0
1553804742.341,75.684,33.691,39.551,51.758,38.574,0
1553804742.345,62.012,63.965,36.621,57.129,76.660,0
1553804742.349,62.988,42.969,60.059,71.289,19.043,0
1553804742.353,16.113,110.352,49.316,30.762,21.484,0
1553804742.356,-8.301,177.246,3.418,19.043,7.324,0
1553804742.360,6.348,71.777,52.734,20.020,5.859,0
1553804742.364,49.316,51.758,70.312,62.500,48.828,0
1553804742.368,92.285,4.395,16.113,75.684,5.859,0
1553804742.372,13.672,88.867,37.598,24.902,-1.953,0
1553804742.376,-15.625,100.586,97.168,44.434,10.742,0
1553804742.380,56.641,47.363,-6.348,79.102,14.648,0
1553804742.384,47.363,67.871,-7.812,49.805,51.758,0
1553804742.388,-11.230,68.848,35.645,13.672,34.668,0
1553804742.392,14.160,67.871,8.301,28.809,108.398,0
1553804742.396,-37.598,104.004,31.738,-1.465,117.676,0
1553804742.399,-104.004,140.625,58.105,-33.203,14.648,0
1553804742.403,-1.953,116.699,21.973,25.391,63.965,0
1553804742.407,116.211,9.766,11.230,91.797,39.551,0
1553804742.411,57.129,67.383,40.039,27.344,-29.785,0
1553804742.415,-77.637,164.551,41.992,-34.668,-39.551,0
1553804742.419,-34.668,75.684,21.973,0.000,36.621,0
1553804742.423,47.852,70.312,28.320,47.363,74.219,0
1553804742.427,34.668,75.684,35.156,51.758,17.578,0
1553804742.431,49.316,44.434,-1.953,54.688,70.312,0
1553804742.435,-34.180,100.586,24.902,13.184,82.520,0
1553804742.438,-68.359,131.348,29.785,-54.199,13.672,0
1553804742.442,-11.230,79.102,24.414,-12.695,29.785,0
1553804742.446,-27.344,102.051,4.395,10.254,40.527,0
1553804742.450,-43.945,137.695,57.129,-39.551,62.500,0
1553804742.454,3.418,90.820,71.289,2.441,32.227,0
1553804742.458,26.367,96.680,-38.574,37.598,-58.594,0
1553804742.462,-14.160,104.492,-1.465,-14.648,-7.812,0
1553804742.466,5.371,32.227,51.758,8.789,55.176,0
1553804742.470,36.621,33.203,22.949,21.973,41.992,0
1553804742.474,-63.965,139.160,-2.441,-14.648,61.523,0
1553804742.478,-94.238,145.508,8.301,-19.043,41.504,0
1553804742.481,19.043,46.387,13.184,36.133,17.578,0
1553804742.485,13.184,39.062,33.203,34.668,32.227,0
1553804742.489,-39.062,58.105,29.297,-28.809,61.523,0
1553804742.493,-143.555,163.086,12.207,-88.867,56.641,0
1553804742.497,-13.184,85.449,47.363,2.441,26.855,0
1553804742.501,62.988,-18.066,47.363,48.340,30.273,0
1553804742.505,28.320,38.086,-15.625,40.039,65.430,0
1553804742.509,27.344,84.473,-7.812,19.043,74.707,0
1553804742.513,7.812,64.453,62.500,-9.766,69.336,0
1553804742.517,28.809,46.875,83.008,32.227,22.461,0
1553804742.521,0.000,89.844,-8.789,22.461,11.719,0
1553804742.524,15.137,88.867,-0.488,20.508,-6.348,0
1553804742.528,62.500,50.293,36.133,61.523,-20.996,0
1553804742.532,7.812,96.680,44.434,4.883,-6.348,0
1553804742.536,31.250,84.473,18.066,62.988,48.340,0
1553804742.540,71.777,93.750,-15.137,93.262,93.262,0
1553804742.544,39.551,88.379,23.438,40.527,28.809,0
1553804742.548,33.203,18.066,104.004,26.367,13.672,0
1553804742.552,27.832,53.223,50.293,29.297,23.438,0
1553804742.556,41.016,72.754,-19.531,52.246,24.902,0
1553804742.560,82.031,71.289,24.414,42.480,46.387,0
1553804742.563,110.840,58.105,-8.301,97.656,-25.391,0
1553804742.567,-20.508,117.676,4.883,73.242,7.812,0
1553804742.571,6.836,36.133,53.223,52.246,84.473,0
1553804742.575,92.773,55.664,-6.348,70.801,68.359,0
1553804742.579,73.242,101.074,-24.414,55.664,87.402,0
1553804742.583,117.676,34.668,41.504,76.172,78.613,0
1553804742.587,52.246,53.711,50.293,64.453,84.961,0
1553804742.591,34.180,10.742,15.625,51.270,92.773,0
1553804742.595,129.395,101.562,-9.766,65.430,25.391,0
1553804742.599,134.766,60.059,10.742,81.055,16.113,0
1553804742.603,49.316,72.266,7.812,48.340,20.508,0
1553804742.606,78.613,106.934,8.789,66.406,49.805,0
1553804742.610,78.613,29.297,25.879,70.312,35.156,0
1553804742.614,77.148,60.547,-10.254,76.172,16.602,0
1553804742.618,134.766,61.523,-2.930,101.074,41.992,0
1553804742.622,53.711,112.305,-9.277,41.504,-7.812,0
1553804742.626,20.508,104.980,3.418,80.078,8.301,0
1553804742.630,101.562,34.668,16.113,118.164,90.332,0
1553804742.634,52.734,76.172,19.043,14.648,57.617,0
1553804742.638,15.137,83.984,9.277,3.418,2.441,0
1553804742.642,29.785,75.684,17.578,54.199,49.805,0
1553804742.646,61.035,56.641,31.250,89.355,86.426,0
1553804742.649,124.512,34.668,-7.812,87.891,85.938,0
1553804742.653,77.148,112.793,-6.836,49.805,55.664,0
1553804742.657,45.898,129.883,17.090,31.250,32.715,0
1553804742.661,109.863,47.363,21.484,65.918,44.434,0
1553804742.665,118.652,35.156,22.461,107.910,43.945,0
1553804742.669,55.176,68.848,8.301,67.871,78.125,0
1553804742.673,27.344,88.379,0.488,74.219,66.895,0
1553804742.677,13.184,115.723,7.812,47.852,106.445,0
1553804742.681,25.391,79.102,3.418,20.996,67.383,0
1553804742.685,33.203,34.180,9.766,54.199,44.922,0
1553804742.688,-41.992,188.477,-10.742,33.203,83.984,0
1553804742.692,2.930,151.367,-7.324,18.555,58.594,0
1553804742.696,95.703,-24.902,28.320,62.988,54.688,0
1553804742.700,-9.277,95.215,15.625,47.363,34.668,0
1553804742.704,17.090,78.613,22.461,80.078,15.137,0
1553804742.708,59.570,100.098,51.270,35.645,42.969,0
1553804742.712,-31.738,160.156,40.527,-65.430,48.828,0
1553804742.716,8.789,73.242,11.719,1.465,83.984,0
1553804742.720,61.523,75.684,10.742,57.129,93.262,0
1553804742.724,38.086,61.523,41.992,19.531,73.730,0
1553804742.728,-3.418,109.375,49.316,-20.996,80.566,0
1553804742.731,-44.434,107.422,-2.930,34.668,57.129,0
1553804742.735,35.645,59.570,13.184,69.336,60.059,0
1553804742.739,-26.367,149.902,42.480,-47.852,80.566,0
1553804742.743,-31.250,108.398,31.250,-41.016,70.312,0
1553804742.747,56.152,80.078,36.133,28.320,54.199,0
1553804742.751,-44.922,162.598,56.641,42.480,81.543,0
1553804742.755,-2.441,10.742,56.641,21.973,75.684,0
1553804742.759,69.336,28.320,47.363,4.883,42.969,0
1553804742.763,-52.734,137.695,20.020,33.203,70.801,0
1553804742.767,-79.590,112.793,-17.090,14.648,84.473,0
1553804742.771,12.695,3.906,36.133,27.832,83.008,0
1553804742.774,-11.230,129.395,22.461,-12.207,83.984,0
1553804742.778,-46.387,125.000,75.195,-49.316,99.121,0
1553804742.782,-2.930,-63.477,69.824,21.973,107.910,0
1553804742.786,-39.062,88.379,69.336,-13.184,53.223,0
1553804742.790,-65.918,73.730,64.453,-28.320,91.309,0
1553804742.794,-7.812,-8.301,52.246,48.340,58.594,0
1553804742.798,-11.719,49.316,105.469,-0.977,8.789,0
1553804742.802,5.859,26.855,43.457,43.945,61.523,0
1553804742.806,119.141,-47.363,12.695,118.652,81.543,0
1553804742.810,28.809,64.941,59.082,-1.465,49.805,0
1553804742.813,-164.551,137.207,22.949,-63.477,50.293,0
1553804742.817,-41.504,-31.250,7.324,41.992,90.332,0
1553804742.821,99.609,-35.645,63.965,26.367,77.148,0
1553804742.825,-9.766,47.363,43.945,-6.836,90.820,0
1553804742.829,3.906,61.523,15.625,2.930,100.586,0
1553804742.833,21.484,41.016,31.738,-35.156,29.785,0
1553804742.837,-123.047,31.250,38.574,-21.973,26.367,0
1553804742.841,-105.469,38.574,51.758,-36.133,81.543,0
1553804742.845,41.992,58.594,37.598,4.883,37.598,0
1553804742.849,-52.246,0.977,13.672,47.852,24.902,0
1553804742.853,-130.371,106.445,14.648,-29.785,58.105,0
1553804742.856,-47.363,165.527,20.020,-43.945,77.148,0
1553804742.860,64.941,-3.418,42.480,39.062,38.086,0
1553804742.864,-12.695,7.812,1.465,63.477,7.812,0
1553804742.868,-14.648,31.738,20.996,-58.105,51.270,0
1553804742.872,56.152,43.457,26.855,-39.062,65.430,0
1553804742.876,48.340,53.223,14.648,88.379,82.520,0
1553804742.880,87.891,46.387,38.086,61.035,72.266,0
1553804742.884,44.434,43.457,39.551,-30.762,9.277,0
1553804742.888,22.949,38.574,42.969,73.242,-28.320,0
1553804742.892,53.711,33.203,60.547,177.246,-52.734,0
1553804742.896,84.473,44.434,44.922,109.375,-27.344,0
1553804742.899,61.035,49.316,43.457,61.523,35.156,0
1553804742.903,51.758,37.598,51.758,81.055,-0.977,0
1553804742.907,82.520,41.504,42.480,82.520,-19.531,0
1553804742.911,108.887,51.270,40.039,83.008,7.324,0
1553804742.915,85.938,53.223,45.898,92.285,28.320,0
1553804742.919,76.660,50.781,43.457,69.824,68.359,0
1553804742.923,50.781,41.992,40.527,41.992,43.945,0
1553804742.927,57.617,41.016,41.992,70.312,75.195,0
1553804742.931,91.797,43.457,46.875,80.078,99.121,0
1553804742.935,76.660,34.180,48.828,100.098,50.293,0
1553804742.938,88.867,33.203,53.223,97.656,2.441,0
1553804742.942,68.359,37.598,56.152,70.801,-11.719,0
1553804742.946,89.844,35.645,47.852,103.027,-1.953,0
1553804742.950,108.398,42.969,42.480,110.840,-22.949,0
1553804742.954,38.574,43.945,47.852,53.711,30.273,0
1553804742.958,44.922,42.969,51.758,49.316,74.707,0
1553804742.962,70.801,47.363,41.016,73.242,83.008,0
1553804742.966,70.312,50.781,36.621,72.754,90.820,0
1553804742.970,74.219,51.758,41.016,79.102,30.762,0
1553804742.974,51.758,45.898,42.480,81.055,-12.207,0
1553804742.978,34.668,45.898,43.457,56.641,-38.086,0
1553804742.981,32.227,49.805,41.992,48.828,-31.738,0
1553804742.985,-12.207,55.176,38.086,42.480,20.508,0
1553804742.989,14.160,50.293,39.062,43.945,-28.809,0
1553804742.993,45.410,48.340,34.180,48.340,0.488,0
1553804742.997,44.922,56.152,27.344,20.508,-0.488,0
1553804743.001,71.289,58.594,26.367,27.832,-4.883,0
1553804743.005,29.297,59.082,28.320,33.203,69.336,0
1553804743.009,2.441,57.129,32.715,28.320,64.941,0
1553804743.013,22.461,53.711,26.367,42.969,25.391,0
1553804743.017,36.621,54.688,24.414,24.414,30.762,0
1553804743.021,52.734,59.570,27.832,-1.465,43.945,0
1553804743.024,9.766,58.594,26.855,-1.465,-7.324,0
1553804743.028,0.977,56.641,23.926,-3.418,-1.465,0
1553804743.032,12.695,62.012,20.996,2.930,28.809,0
1553804743.036,-0.977,61.035,24.414,17.090,1.953,0
1553804743.040,7.812,56.152,29.785,18.066,40.527,0
1553804743.044,10.742,62.012,27.832,18.555,66.895,0
1553804743.048,-7.812,63.477,21.973,2.930,43.945,0
1553804743.052,-30.762,56.641,22.949,-16.113,0.000,0
1553804743.056,-16.602,57.617,24.902,9.766,30.762,0
1553804743.060,3.906,69.824,16.113,-1.953,25.391,0
1553804743.063,-27.344,63.477,19.531,7.812,41.016,0
1553804743.067,-4.883,56.641,19.043,2.441,63.477,0
1553804743.071,12.207,69.336,13.672,0.977,-6.836,0
1553804743.075,-33.203,71.777,12.695,-6.836,-21.973,0
1553804743.079,-34.180,67.871,15.137,-20.508,18.066,0
1553804743.083,-2.441,62.012,21.484,-22.461,13.184,0
1553804743.087,-12.695,57.617,20.020,-34.180,16.113,0
1553804743.091,-42.480,53.711,27.344,-13.184,64.941,0
1553804743.095,-17.578,60.547,24.902,7.324,30.762,0
1553804743.099,-6.836,71.777,14.160,33.691,-15.625,0
1553804743.103,-16.113,65.430,24.902,41.992,68.848,0
1553804743.106,-26.367,61.035,24.902,1.953,110.352,0
1553804743.110,-44.922,63.477,22.461,-24.414,55.664,0
1553804743.114,-8.301,69.336,24.902,3.418,34.180,0
1553804743.118,17.578,62.500,22.949,-12.695,-39.551,0
1553804743.122,-21.484,62.500,28.320,-33.203,18.555,0
1553804743.126,-44.922,68.848,29.297,-16.602,92.773,0
1553804743.130,-32.715,66.895,23.438,-15.625,45.410,0
1553804743.134,2.441,65.430,27.832,-1.465,48.828,0
1553804743.138,19.043,67.871,22.949,-10.742,57.129,0
1553804743.142,2.441,66.406,21.484,-25.879,45.410,0
1553804743.146,-2.930,61.035,26.855,-12.207,20.020,0
1553804743.149,15.137,66.895,20.508,-0.488,12.207,0
1553804743.153,-9.277,62.500,21.973,11.230,74.219,0
1553804743.157,-3.418,62.012,18.066,-22.949,130.371,0
1553804743.161,15.625,64.941,8.789,-30.762,86.426,0
1553804743.165,9.766,61.035,11.719,3.418,17.578,0
1553804743.169,-9.277,55.176,20.996,-10.742,-12.695,0
1553804743.173,-30.762,51.270,20.508,-18.066,-34.180,0
1553804743.177,-4.395,55.176,18.066,3.906,-8.301,0
1553804743.181,-12.207,56.152,20.996,5.371,17.578,0
1553804743.185,-25.391,53.711,19.531,11.719,26.367,0
1553804743.188,-2.930,55.176,16.113,17.090,10.254,0
1553804743.192,-14.648,47.363,19.043,27.832,52.734,0
1553804743.196,18.066,60.059,22.949,33.691,81.543,0
1553804743.200,26.367,70.312,23.926,14.160,-15.625,0
1553804743.204,37.598,59.570,19.043,26.367,-5.371,0
1553804743.208,62.500,68.359,22.461,21.973,64.941,0
1553804743.212,44.434,67.383,10.254,19.531,87.402,0
1553804743.216,84.473,73.242,-2.930,57.617,103.516,0
1553804743.220,70.312,68.359,10.254,70.801,9.277,0
1553804743.224,-0.488,58.105,2.930,53.711,-2.441,0
1553804743.228,7.324,61.523,-2.441,28.320,19.531,0
1553804743.231,39.062,62.012,1.465,15.625,20.508,0
1553804743.235,70.801,62.988,-0.488,26.367,61.523,0
1553804743.239,69.824,58.594,1.953,57.129,57.617,0
1553804743.243,46.387,57.617,5.371,40.527,67.383,0
1553804743.247,39.062,55.176,12.207,15.137,66.406,0
1553804743.251,8.301,46.875,18.555,47.852,0.977,0
1553804743.255,8.789,49.316,16.113,35.645,2.930,0
1553804743.259,34.180,53.711,16.113,31.250,55.664,0
1553804743.263,43.945,49.316,18.066,66.895,40.527,0
1553804743.267,38.574,48.340,16.602,42.969,70.801,0
1553804743.271,29.297,50.293,14.160,41.016,45.898,0
1553804743.274,25.391,53.223,15.137,58.105,34.180,0
1553804743.278,32.227,52.246,25.391,62.988,58.105,0
1553804743.282,42.480,52.734,32.715,76.172,32.715,0
1553804743.286,-1.465,47.852,24.902,31.738,54.688,0
1553804743.290,19.043,47.852,19.043,5.859,50.293,0
1553804743.294,53.711,53.711,17.578,28.320,61.523,0
1553804743.298,29.297,53.711,18.555,37.109,69.824,0
1553804743.302,27.832,51.270,21.973,34.668,-10.742,0
1553804743.306,41.992,53.711,17.090,26.855,0.488,0
1553804743.310,56.641,58.594,12.695,32.227,31.250,0
1553804743.313,45.410,59.570,17.578,27.344,9.766,0
1553804743.317,29.297,54.199,22.461,3.906,67.383,0
1553804743.321,32.715,48.828,22.461,30.762,75.195,0
1553804743.325,36.133,51.758,16.113,40.527,48.340,0
1553804743.329,52.246,51.758,18.066,36.133,47.852,0
1553804743.333,25.879,47.363,23.438,47.363,30.762,0
1553804743.337,-5.371,46.387,20.508,12.207,30.762,0
1553804743.341,14.648,47.363,20.020,25.391,20.996,0
1553804743.345,25.391,50.293,21.973,57.617,-39.551,0
1553804743.349,-1.953,49.316,20.508,36.133,19.043,0
1553804743.353,23.926,44.922,24.414,22.461,61.035,0
1553804743.356,32.715,42.480,24.414,27.832,-34.668,0
1553804743.360,-4.883,49.805,14.648,17.090,1.953,0
1553804743.364,7.324,45.410,17.578,2.930,45.410,0
1553804743.368,11.719,41.504,20.020,20.996,-41.016,0
1553804743.372,14.160,56.152,16.602,9.766,-25.391,0
1553804743.376,29.785,52.246,20.508,13.184,56.152,0
1553804743.380,22.949,44.922,22.949,29.297,66.406,0
1553804743.384,20.508,53.711,20.508,5.859,23.438,0
1553804743.388,8.301,58.594,17.090,8.789,23.926,0
1553804743.392,17.578,47.363,15.137,13.672,59.082,0
1553804743.396,20.996,42.969,19.043,31.738,34.180,0
1553804743.399,13.184,40.527,24.902,47.852,-30.273,0
1553804743.403,55.176,35.156,21.973,36.621,17.578,0
1553804743.407,58.105,45.898,20.020,27.344,37.109,0
1553804743.411,0.000,45.410,27.832,11.230,14.648,0
1553804743.415,20.508,39.551,23.438,-0.977,59.570,0
1553804743.419,-7.324,42.480,28.320,16.113,92.285,0
1553804743.423,-35.645,32.715,15.137,61.035,16.113,0
1553804743.427,34.180,17.090,14.648,107.910,2.930,0
1553804743.431,10.742,33.203,29.297,37.109,83.008,0
1553804743.435,-69.824,20.996,20.020,-60.547,78.613,0
1553804743.438,-101.074,-17.090,32.227,-76.172,102.051,0
1553804743.442,-104.492,8.301,16.602,-58.105,86.426,0
1553804743.446,-124.512,22.461,6.836,-85.449,33.691,0
1553804743.450,-159.668,21.484,0.488,-146.973,20.996,0
1553804743.454,-169.434,-0.488,8.789,-159.668,23.438,0
1553804743.458,-191.895,-53.223,13.672,-163.086,89.355,0
1553804743.462,-159.180,-45.898,8.789,-151.855,95.703,0
1553804743.466,-215.332,-6.348,52.246,-237.793,29.785,0
1553804743.470,-278.320,16.602,32.715,-287.109,29.785,0
1553804743.474,-275.391,22.949,7.324,-312.012,19.043,0
1553804743.478,-257.812,-19.531,47.852,-278.320,22.461,0
1553804743.481,-232.910,-10.254,32.227,-206.055,42.969,0
1553804743.485,-287.598,-8.789,34.668,-243.164,42.969,0
1553804743.489,-264.648,-48.340,33.691,-222.168,33.203,0
1553804743.493,-210.938,-41.016,-5.859,-195.312,50.781,0
1553804743.497,-180.176,-26.855,26.855,-193.359,41.992,0
1553804743.501,-207.520,4.395,27.832,-219.238,46.387,0
1553804743.505,-201.172,12.207,53.711,-205.566,89.844,0
1553804743.509,-162.598,33.691,28.320,-96.680,33.203,0
1553804743.513,-130.371,48.340,-19.531,-108.887,55.176,0
1553804743.517,-158.691,10.742,61.523,-153.320,55.176,0
1553804743.521,-159.180,24.902,60.059,-106.445,-10.742,0
1553804743.524,-59.082,19.043,-20.508,-32.227,61.035,0
1553804743.528,-84.961,11.230,39.551,-12.207,15.137,0
1553804743.532,-154.785,23.926,44.922,-47.363,-41.992,0
1553804743.536,-60.059,-1.953,9.277,-30.762,78.125,0
1553804743.540,11.719,-48.340,25.879,32.227,67.871,0
1553804743.544,-34.180,-19.531,16.113,28.320,-4.883,0
1553804743.548,-88.867,41.016,47.363,-53.711,36.133,0
1553804743.552,-44.922,21.973,3.906,-26.855,87.402,0
1553804743.556,-19.531,0.488,29.297,35.156,78.613,0
1553804743.560,-49.805,39.062,62.988,7.812,45.898,0
1553804743.563,6.836,33.691,15.625,-28.320,52.734,0
1553804743.567,11.230,20.020,38.574,-58.105,14.648,0
1553804743.571,0.977,33.691,42.969,-20.508,-33.691,0
1553804743.575,27.344,3.906,4.883,12.207,15.137,0
1553804743.579,14.160,5.859,19.531,23.926,79.590,0
1553804743.583,-35.645,33.203,44.922,-5.859,29.297,0
1553804743.587,1.465,47.852,12.695,14.160,-5.859,0
1553804743.591,26.855,37.109,19.043,26.855,23.438,0
1553804743.595,-14.648,16.113,53.223,-1.953,0.488,0
1553804743.599,-16.113,3.418,9.766,50.293,-31.738,0
1553804743.603,-8.789,-11.719,38.574,71.289,-30.273,0
1553804743.606,-1.465,38.574,39.062,52.734,22.949,0
1553804743.610,-49.805,44.434,7.324,20.996,53.223,0
1553804743.614,-83.496,9.277,24.902,-11.230,74.707,0
1553804743.618,-87.891,8.789,-53.223,16.602,84.961,0
1553804743.622,-68.848,-3.906,-39.551,-36.133,59.082,0
1553804743.626,-59.570,44.922,20.996,-144.043,21.973,0
1553804743.630,-106.445,11.230,22.949,-156.250,-40.527,0
1553804743.634,-96.191,-44.434,-3.418,-143.066,-10.254,0
1553804743.638,-72.754,-12.207,0.488,-131.836,-13.672,0
1553804743.642,-121.582,14.160,-6.348,-150.879,-1.465,0
1553804743.646,-114.258,14.648,-30.273,-155.273,19.043,0
1553804743.649,-67.383,9.766,-30.273,-100.586,16.113,0
1553804743.653,-79.590,38.574,-20.020,-50.781,43.457,0
1553804743.657,-58.594,61.035,-14.160,-34.668,60.547,0
1553804743.661,-31.250,35.645,-9.766,-16.602,36.621,0
1553804743.665,-26.367,14.648,-1.465,5.371,66.406,0
1553804743.669,-14.160,31.738,2.930,28.809,73.242,0
1553804743.673,-17.090,35.645,-13.184,51.758,27.344,0
1553804743.677,-15.137,35.645,-4.883,66.895,63.477,0
1553804743.681,7.812,23.926,27.344,97.168,61.523,0
1553804743.685,34.668,2.930,12.695,64.453,80.078,0
1553804743.688,41.992,15.625,0.977,42.969,43.945,0
1553804743.692,57.129,-9.766,-24.414,100.586,7.324,0
1553804743.696,99.121,2.930,-12.207,88.379,61.035,0
1553804743.700,91.797,52.734,39.551,-39.551,29.785,0
1553804743.704,53.711,37.109,36.133,-69.336,69.824,0
1553804743.708,82.520,32.227,34.180,3.906,91.309,0
1553804743.712,120.117,23.438,24.902,25.391,52.734,0
1553804743.716,138.672,18.555,12.207,46.387,75.684,0
1553804743.720,141.602,37.598,25.391,72.754,49.805,0
1553804743.724,121.582,33.203,26.367,63.477,88.379,0
1553804743.728,41.504,23.438,20.508,64.941,85.449,0
1553804743.731,-40.527,26.855,15.625,58.594,31.738,0
1553804743.735,12.207,32.715,10.254,75.195,66.406,0
1553804743.739,33.203,13.672,21.973,110.352,65.918,0
1553804743.743,1.953,12.695,15.625,114.746,39.062,0
1553804743.747,39.551,29.297,7.324,83.008,15.137,0
1553804743.751,71.777,29.297,19.531,85.449,32.227,0
1553804743.755,59.082,18.066,26.855,90.820,68.848,0
1553804743.759,42.969,13.184,27.832,82.031,47.852,0
1553804743.763,64.941,22.461,21.973,88.379,16.602,0
1553804743.767,85.449,23.926,23.926,77.148,5.371,0
1553804743.771,99.121,21.973,16.113,93.262,-5.371,0
1553804743.774,104.980,19.531,-14.160,119.629,-3.906,0
1553804743.778,96.191,10.254,2.930,92.285,-10.742,0
1553804743.782,54.199,37.598,48.340,76.660,-35.645,0
1553804743.786,69.336,49.316,50.781,13.184,15.137,0
1553804743.790,124.512,3.906,40.527,28.809,9.277,0
1553804743.794,104.004,-45.410,9.277,107.910,-38.574,0
1553804743.798,83.496,-7.812,-1.953,123.047,-3.418,0
1553804743.802,95.703,50.293,8.789,67.383,-28.320,0
1553804743.806,124.512,9.277,12.207,60.547,-60.059,0
1553804743.810,124.023,30.762,-2.441,107.910,-24.902,0
1553804743.813,61.523,61.523,-37.598,59.082,18.066,0
1553804743.817,33.691,25.879,51.758,17.578,-5.371,0
1553804743.821,-41.016,-19.043,105.957,-49.805,-17.090,0
1553804743.825,-35.156,-16.602,71.777,9.766,48.828,0
1553804743.829,-49.316,-44.434,-1.953,-3.906,38.086,0
1553804743.833,-148.438,-166.016,-18.066,23.926,2.441,0
1553804743.837,-150.391,-94.238,63.477,83.496,27.832,0
1553804743.841,-68.359,-58.105,32.715,-70.312,-18.555,0
1553804743.845,-31.250,-79.102,-14.648,-64.941,-53.223,0
1553804743.849,-35.156,-21.973,18.555,-54.688,2.441,0
1553804743.853,-46.387,12.695,142.578,-58.105,2.930,0
1553804743.856,-136.719,15.137,-6.836,-116.699,0.000,0
1553804743.860,-218.262,-41.016,-60.547,-190.430,2.930,0
1553804743.864,-231.445,-69.336,133.789,-227.539,-3.418,0
1553804743.868,-124.023,-124.512,188.477,-145.996,-29.785,0
1553804743.872,-69.824,-130.371,185.059,-70.801,3.418,0
1553804743.876,-141.113,-71.777,168.945,-106.934,10.254,0
1553804743.880,-161.133,-80.078,135.254,-74.707,21.484,0
1553804743.884,-132.812,-75.684,111.328,-51.758,20.996,0
1553804743.888,-82.031,-77.637,186.523,-14.648,20.508,0
1553804743.892,-101.074,-46.387,208.496,3.418,61.523,0
1553804743.896,-88.867,-48.828,176.758,0.488,29.297,0
1553804743.899,-45.898,-91.309,149.902,12.207,11.230,0
1553804743.903,-30.762,-76.660,95.703,31.250,10.742,0
1553804743.907,-38.574,-78.613,187.500,71.777,-75.195,0
1553804743.911,-102.539,-84.473,237.793,79.102,-84.961,0
1553804743.915,-49.805,-86.914,158.203,104.492,3.906,0
1553804743.919,44.922,-132.812,189.453,43.945,-19.043,0
1553804743.923,1.465,-22.949,230.957,-104.980,-24.414,0
1553804743.927,-96.191,23.926,184.082,-128.906,20.020,0
1553804743.931,-58.594,-30.273,129.883,-70.312,-18.555,0
1553804743.935,-41.016,-52.734,128.906,-88.379,-1.465,0
1553804743.938,1.465,-29.297,163.086,-81.543,10.742,0
1553804743.942,15.137,12.207,110.840,-37.598,-62.988,0
1553804743.946,-30.273,-39.551,77.148,-43.945,9.766,0
1553804743.950,-11.719,-50.293,94.727,-38.086,-4.395,0
1553804743.954,21.973,-49.805,123.047,-17.090,-51.270,0
1553804743.958,15.137,-79.590,111.328,-11.230,-27.832,0
1553804743.962,9.766,-67.383,44.922,6.836,-12.695,0
1553804743.966,67.871,-15.137,109.375,33.691,46.875,0
1553804743.970,40.527,-2.441,131.348,28.809,60.547,0
1553804743.974,25.391,-12.207,57.617,10.254,37.598,0
1553804743.978,50.781,-26.367,42.480,34.180,-32.227,0
1553804743.981,64.453,-89.844,103.516,38.574,-66.895,0
1553804743.985,96.191,-87.402,58.594,81.055,9.766,0
1553804743.989,60.059,7.812,16.113,82.031,10.742,0
1553804743.993,15.137,46.387,54.688,-60.059,11.230,0
1553804743.997,10.254,-21.484,114.746,-107.910,99.609,0
1553804744.001,53.223,-14.160,104.004,-33.691,34.180,0
1553804744.005,45.410,16.602,57.129,-34.180,21.973,0
1553804744.009,15.625,-1.465,41.016,-50.781,55.664,0
1553804744.013,58.105,-18.555,25.879,14.160,16.602,0
1553804744.017,75.684,-22.949,38.086,34.668,-18.066,0
1553804744.021,61.523,-1.465,52.734,0.977,-8.301,0
1553804744.024,39.551,-8.301,39.062,1.953,22.949,0
1553804744.028,44.434,-36.621,5.371,34.180,-23.926,0
1553804744.032,35.156,-21.973,25.391,14.648,19.043,0
1553804744.036,38.086,-23.926,43.945,5.859,50.293,0
1553804744.040,85.938,-63.965,66.895,47.363,9.766,0
1553804744.044,79.590,-28.809,94.238,30.762,59.082,0
1553804744.048,44.922,20.996,90.332,0.000,20.996,0
1553804744.052,37.598,29.785,27.344,18.066,5.859,0
1553804744.056,49.805,-15.137,7.324,0.488,72.266,0
1553804744.060,57.129,5.859,79.590,23.926,-4.395,0
1553804744.063,39.062,41.504,96.680,44.434,-44.922,0
1553804744.067,26.367,-35.645,-20.996,8.789,48.828,0
1553804744.071,78.125,-96.680,-25.879,68.359,60.059,0
1553804744.075,146.484,-25.879,5.371,100.098,-13.184,0
1553804744.079,100.098,26.855,20.020,42.480,-33.203,0
1553804744.083,73.242,20.020,79.590,25.391,55.664,0
1553804744.087,65.430,-4.395,22.949,46.387,19.043,0
1553804744.091,19.531,-47.363,66.406,27.344,-29.785,0
1553804744.095,7.324,-17.090,94.238,6.836,9.766,0
1553804744.099,10.742,0.488,81.055,27.344,50.781,0
1553804744.103,-7.812,2.441,34.180,6.348,60.547,0
1553804744.106,-12.695,2.441,8.789,-10.742,14.160,0
1553804744.110,-1.465,-9.277,55.176,21.973,48.828,0
1553804744.114,24.414,6.836,83.984,6.348,47.363,0
1553804744.118,3.418,-10.254,64.453,-33.691,3.906,0
1553804744.122,-19.531,-18.555,55.664,-35.645,21.973,0
1553804744.126,22.461,-5.371,45.410,1.465,2.930,0
1553804744.130,42.969,-16.113,39.551,-3.418,35.645,0
1553804744.134,73.730,-24.902,73.242,59.570,101.074,0
1553804744.138,86.914,-91.309,112.793,128.906,20.020,0
1553804744.142,29.297,-67.871,74.707,88.379,0.000,0
1553804744.146,-19.531,33.203,53.223,68.359,80.566,0
1553804744.149,-8.789,43.945,46.387,53.711,57.617,0
1553804744.153,43.945,38.574,55.176,33.203,-35.645,0
1553804744.157,41.992,34.668,117.188,-46.387,-11.719,0
1553804744.161,34.180,6.836,84.473,-129.883,30.273,0
1553804744.165,34.180,-19.531,63.477,-66.895,42.969,0
1553804744.169,24.902,-37.109,46.875,-40.039,32.715,0
1553804744.173,4.883,-9.277,66.406,-44.922,37.598,0
1553804744.177,-18.066,-6.836,23.926,-15.137,68.359,0
1553804744.181,20.508,-39.062,-9.277,11.719,20.020,0
1553804744.185,81.055,41.992,101.562,79.102,-6.836,0
1553804744.188,44.922,49.805,108.887,38.086,46.875,0
1553804744.192,5.371,-60.547,95.703,-12.695,63.965,0
1553804744.196,7.812,-57.129,100.098,17.578,52.734,0
1553804744.200,1.465,33.691,71.777,26.367,7.324,0
1553804744.204,4.883,62.500,73.730,10.742,-1.953,0
1553804744.208,-23.438,5.371,59.570,-21.484,63.477,0
1553804744.212,-24.902,6.836,39.062,-25.391,79.590,0
1553804744.216,-13.184,36.133,34.668,-24.414,52.734,0
1553804744.220,-25.391,0.977,51.758,-41.504,13.184,0
1553804744.224,-18.066,-2.930,68.359,-16.602,40.527,0
1553804744.228,5.859,12.695,59.082,-8.789,62.012,0
1553804744.231,11.230,19.531,44.922,-8.789,60.547,0
1553804744.235,14.648,22.461,37.109,28.320,45.898,0
1553804744.239,39.551,12.207,58.105,49.316,56.641,0
1553804744.243,28.809,0.000,42.969,22.461,43.945,0
1553804744.247,48.340,1.953,67.871,41.504,67.871,0
1553804744.251,83.984,10.742,115.234,70.312,79.102,0
1553804744.255,63.477,18.066,95.215,20.996,-1.465,0
1553804744.259,71.289,26.855,80.078,7.812,-15.137,0
1553804744.263,48.828,8.301,59.570,-4.883,85.938,0
1553804744.267,18.555,5.859,22.461,-10.254,166.504,0
1553804744.271,46.387,56.152,70.312,7.324,82.031,0
1553804744.274,41.016,54.199,101.074,20.508,-17.578,0
1553804744.278,22.461,17.578,53.223,22.949,13.184,0
1553804744.282,42.969,39.551,73.242,23.926,33.203,0
1553804744.286,20.508,56.641,85.449,16.113,-8.301,0
1553804744.290,-29.297,9.277,60.547,-26.855,-19.531,0
1553804744.294,-6.348,11.230,43.945,-4.395,74.219,0
1553804744.298,41.016,17.090,50.781,26.855,100.586,0
1553804744.302,33.691,-24.414,54.688,36.621,-19.043,0
1553804744.306,29.297,-9.277,57.129,62.500,-47.852,0
1553804744.310,60.059,56.641,51.270,81.055,-19.043,0
1553804744.313,33.691,49.805,50.293,76.172,-13.672,0
1553804744.317,-22.949,39.062,77.637,-22.461,17.578,0
1553804744.321,71.289,1.465,101.562,-6.348,27.832,0
1553804744.325,101.074,-32.715,111.328,12.695,0.000,0
1553804744.329,23.926,62.012,97.656,-34.668,-16.602,0
1553804744.333,10.742,85.938,68.848,-36.621,15.137,0
1553804744.337,-14.648,29.297,24.414,-66.406,-35.156,0
1553804744.341,12.695,9.766,31.738,-29.297,-52.246,0
1553804744.345,35.156,19.043,38.086,3.418,4.395,0
1553804744.349,37.598,35.645,18.555,26.855,-28.809,0
1553804744.353,47.363,42.969,74.219,42.969,-12.207,0
1553804744.356,50.293,33.691,125.488,27.832,2.441,0
1553804744.360,34.668,20.996,94.727,13.184,-6.348,0
1553804744.364,23.438,-4.395,48.340,19.043,48.340,0
1553804744.368,39.551,1.465,67.383,25.391,99.609,0
1553804744.372,44.434,61.523,80.078,20.020,74.219,0
1553804744.376,62.012,43.945,45.898,24.414,48.828,0
1553804744.380,58.105,-2.441,54.199,27.832,-15.137,0
1553804744.384,48.828,20.996,78.125,30.273,4.883,0
1553804744.388,39.551,38.574,91.309,53.223,20.996,0
1553804744.392,53.711,26.855,88.379,58.594,28.320,0
1553804744.396,45.410,13.672,77.637,36.133,60.059,0
1553804744.399,5.371,14.648,67.383,-4.883,67.383,0
1553804744.403,19.043,-10.254,53.711,5.859,41.016,0
1553804744.407,35.156,-7.324,77.148,15.625,-7.324,0
1553804744.411,18.066,72.754,121.582,-5.371,58.105,0
1553804744.415,35.645,68.848,98.633,6.348,76.660,0
1553804744.419,48.828,38.086,63.965,23.438,-3.906,0
1553804744.423,28.809,25.391,73.242,6.836,6.348,0
1553804744.427,4.883,10.742,56.152,-17.578,91.797,0
1553804744.431,33.691,-31.250,57.617,5.859,61.035,0
1553804744.435,31.250,-2.930,84.961,14.648,-33.691,0
1553804744.438,5.371,56.152,94.238,34.180,-35.645,0
1553804744.442,16.113,30.273,102.051,26.855,-0.488,0
1553804744.446,-21.973,10.254,58.594,-21.973,-3.418,0
1553804744.450,20.508,-26.367,59.082,20.508,42.480,0
1553804744.454,74.219,28.320,127.930,61.035,90.820,0
1553804744.458,9.277,85.449,102.051,18.555,87.402,0
1553804744.462,-17.090,38.086,69.824,-3.906,16.602,0
1553804744.466,37.109,49.316,23.438,23.438,21.973,0
1553804744.470,28.809,41.504,5.859,17.578,57.617,0
1553804744.474,14.648,-8.789,92.285,15.137,103.516,0
1553804744.478,28.809,0.977,117.188,19.043,88.867,0
1553804744.481,-2.441,8.301,95.703,-10.742,51.758,0
1553804744.485,0.000,36.133,86.426,6.348,47.363,0
1553804744.489,20.996,51.758,76.660,40.039,41.016,0
1553804744.493,22.461,34.668,69.824,40.527,79.590,0
1553804744.497,52.734,31.250,65.430,32.227,23.926,0
1553804744.501,66.406,50.293,62.012,41.992,-11.230,0
1553804744.505,37.109,51.270,84.961,37.598,78.613,0
1553804744.509,34.668,37.598,62.988,14.160,126.465,0
1553804744.513,91.309,41.504,83.984,38.574,116.699,0
1553804744.517,72.754,48.828,119.629,9.277,-2.930,0
1553804744.521,1.465,23.926,98.633,-39.062,-20.020,0
1553804744.524,3.418,-26.855,33.691,-30.273,10.254,0
1553804744.528,21.484,-6.836,31.250,-6.348,23.926,0
1553804744.532,27.832,26.367,95.215,13.672,11.230,0
1553804744.536,11.230,44.434,83.984,-17.578,-37.598,0
1553804744.540,7.812,50.781,77.148,-13.184,-9.766,0
1553804744.544,12.695,38.086,56.152,10.254,25.879,0
1553804744.548,23.926,38.086,51.758,0.488,103.027,0
1553804744.552,29.297,17.578,75.195,12.207,113.770,0
1553804744.556,50.293,41.504,108.887,36.621,96.191,0
1553804744.560,53.223,59.082,100.098,32.715,93.262,0
1553804744.563,8.301,22.461,49.316,-2.441,93.750,0
1553804744.567,16.602,7.812,69.824,-6.348,84.961,0
1553804744.571,22.461,1.953,63.477,-0.488,54.688,0
1553804744.575,3.418,17.578,61.035,4.883,67.871,0
1553804744.579,9.277,54.199,116.211,2.930,110.352,0
1553804744.583,8.301,51.270,85.449,-9.277,48.828,0
1553804744.587,3.418,40.527,41.992,-20.508,48.340,0
1553804744.591,7.812,35.156,79.102,-14.648,75.195,0
1553804744.595,3.418,1.953,83.008,4.883,34.668,0
1553804744.599,5.371,21.973,21.484,10.254,61.523,0
1553804744.603,19.531,44.922,17.578,6.348,83.496,0
1553804744.606,-2.441,26.367,118.164,4.883,41.992,0
1553804744.610,-8.301,36.621,92.773,-0.977,27.344,0
1553804744.614,24.414,21.484,62.988,-5.371,58.594,0
1553804744.618,19.043,12.695,65.430,-13.184,34.180,0
1553804744.622,21.484,35.645,62.988,-13.672,40.527,0
1553804744.626,6.348,38.086,69.824,-2.930,75.195,0
1553804744.630,-1.465,37.109,78.125,2.930,48.828,0
1553804744.634,12.695,41.504,107.910,2.930,65.918,0
1553804744.638,19.043,42.969,106.934,2.930,50.293,0
1553804744.642,25.391,12.207,91.309,8.789,39.551,0
1553804744.646,16.113,14.648,56.152,30.762,74.219,0
1553804744.649,0.488,28.320,33.203,0.000,95.215,0
1553804744.653,-20.996,32.227,56.152,-42.969,104.980,0
1553804744.657,-52.246,54.688,81.055,-52.734,75.684,0
1553804744.661,-72.266,34.180,38.574,-58.105,47.363,0
1553804744.665,-80.078,22.949,33.691,-59.570,56.641,0
1553804744.669,-57.617,48.340,60.547,-75.195,107.910,0
1553804744.673,-74.707,45.410,55.176,-115.723,119.141,0
1553804744.677,-104.980,28.320,26.855,-123.535,93.262,0
1553804744.681,-84.961,56.152,5.371,-109.863,93.750,0
1553804744.685,-78.125,61.523,24.414,-115.723,124.023,0
1553804744.688,-81.543,47.852,-9.766,-121.094,112.305,0
1553804744.692,-43.457,52.734,-27.344,-110.352,114.258,0
1553804744.696,-1.465,66.406,-1.465,-92.773,59.082,0
1553804744.700,34.668,78.613,-12.207,-50.293,60.059,0
1553804744.704,78.613,75.684,-14.648,-9.277,109.375,0
1553804744.708,103.516,79.590,-16.113,18.066,49.805,0
1553804744.712,129.395,85.449,-19.531,40.039,22.949,0
1553804744.716,145.508,83.984,-35.645,67.383,88.867,0
1553804744.720,156.738,82.031,-33.691,94.238,73.242,0
1553804744.724,166.016,87.891,-22.949,117.188,37.598,0
1553804744.728,166.504,94.727,-17.578,141.602,42.480,0
1553804744.731,169.434,91.797,-13.184,149.902,-6.348,0
1553804744.735,187.500,89.844,-28.320,145.020,-55.176,0
1553804744.739,209.473,98.145,-29.785,145.020,26.855,0
1553804744.743,207.520,101.562,-20.020,157.715,48.828,0
1553804744.747,220.703,109.375,-20.020,155.762,13.672,0
1553804744.751,225.586,97.656,-24.414,153.320,69.336,0
1553804744.755,232.422,90.332,-30.762,158.691,62.012,0
1553804744.759,237.793,117.676,-25.391,152.832,7.812,0
1553804744.763,197.266,98.633,-15.137,138.184,45.898,0
1553804744.767,195.312,62.988,-25.391,143.066,54.199,0
1553804744.771,198.242,85.449,-20.020,154.785,39.551,0
1553804744.774,176.758,88.379,20.996,123.047,112.793,0
1553804744.778,164.062,73.242,40.527,98.145,81.543,0
1553804744.782,149.902,80.566,6.836,80.078,44.922,0
1553804744.786,163.574,79.102,10.254,85.938,56.152,0
1553804744.790,141.602,63.477,26.367,104.004,55.176,0
1553804744.794,95.215,52.246,-14.160,73.730,70.801,0
1553804744.798,105.469,54.688,-6.836,63.477,71.289,0
1553804744.802,103.516,8.789,38.574,79.590,91.797,0
1553804744.806,120.605,6.348,30.762,122.559,77.148,0
1553804744.810,171.387,119.141,39.551,165.527,64.941,0
1553804744.813,86.914,89.355,45.898,88.379,35.645,0
1553804744.817,45.410,-2.441,44.922,66.406,32.715,0
1553804744.821,92.773,6.348,59.082,114.258,43.945,0
1553804744.825,61.523,46.387,-23.926,56.641,33.691,0
1553804744.829,36.621,50.781,-13.184,14.160,41.992,0
1553804744.833,37.109,48.340,74.707,26.367,67.383,0
1553804744.837,31.250,38.086,82.520,59.082,122.559,0
1553804744.841,40.039,29.297,13.672,83.008,104.004,0
1553804744.845,58.594,41.992,30.273,84.961,29.297,0
1553804744.849,68.359,15.625,86.426,49.316,-0.488,0
1553804744.853,77.637,32.715,54.688,23.926,9.277,0
1553804744.856,116.699,5.371,56.641,67.383,50.293,0
1553804744.860,106.445,-26.367,33.691,95.215,40.527,0
1553804744.864,67.383,68.359,9.766,61.523,31.738,0
1553804744.868,23.926,104.004,45.898,1.465,61.523,0
1553804744.872,-7.324,62.500,67.871,-10.254,23.438,0
1553804744.876,21.484,43.945,85.938,37.598,27.832,0
1553804744.880,-13.672,40.527,83.008,47.363,51.758,0
1553804744.884,-33.691,35.645,39.551,26.855,51.270,0
1553804744.888,-18.066,24.902,42.480,16.113,42.969,0
1553804744.892,-10.742,27.832,44.922,35.645,20.996,0
1553804744.896,-0.977,27.832,34.668,101.562,66.406,0
1553804744.899,8.301,30.273,30.273,112.305,67.383,0
1553804744.903,24.902,49.805,39.062,91.797,69.824,0
1553804744.907,45.410,61.035,49.805,24.902,91.797,0
1553804744.911,73.242,69.336,40.039,-41.992,70.312,0
1553804744.915,89.355,62.500,28.809,-4.883,51.270,0
1553804744.919,87.402,45.898,25.879,36.133,-6.836,0
1553804744.923,93.262,68.848,23.926,52.246,-32.227,0
1553804744.927,101.074,93.750,17.578,49.805,77.637,0
1553804744.931,82.520,86.914,18.066,47.363,69.824,0
1553804744.935,69.824,75.195,18.066,57.617,68.359,0
1553804744.938,102.051,80.566,1.953,84.473,94.727,0
1553804744.942,97.656,84.473,-6.836,74.707,24.902,0
1553804744.946,61.035,78.125,16.602,50.293,22.461,0
1553804744.950,66.406,68.848,-6.836,63.965,82.031,0
1553804744.954,83.008,19.531,-27.832,76.660,96.191,0
1553804744.958,108.887,-35.645,1.465,106.934,70.801,0
1553804744.962,100.586,76.660,-25.391,90.332,44.922,0
1553804744.966,75.684,159.668,39.551,72.754,46.875,0
1553804744.970,46.387,92.285,68.848,23.926,46.875,0
1553804744.974,115.234,82.031,-1.465,10.742,66.406,0
1553804744.978,173.828,82.520,35.156,80.078,44.922,0
1553804744.981,163.086,68.848,39.062,90.332,25.879,0
1553804744.985,184.082,22.949,-20.508,49.316,46.875,0
1553804744.989,116.211,-68.359,6.348,25.879,18.555,0
1553804744.993,74.219,16.602,-12.207,50.293,8.301,0
1553804744.997,21.973,124.512,-65.918,63.965,-3.418,0
1553804745.001,-102.051,73.242,29.785,59.082,44.434,0
1553804745.005,-108.887,50.781,62.012,47.363,82.031,0
1553804745.009,-49.316,23.926,-3.906,67.383,68.359,0
1553804745.013,22.949,23.438,42.480,97.656,95.215,0
1553804745.017,19.531,91.797,55.664,44.434,20.020,0
1553804745.021,-10.254,104.492,38.086,26.367,94.727,0
1553804745.024,115.723,-57.617,-70.312,140.137,175.781,0
1553804745.028,246.094,-20.508,-70.312,240.723,41.504,0
1553804745.032,133.789,156.738,86.914,91.309,98.633,0
1553804745.036,-29.297,70.312,48.340,-47.852,145.508,0
1553804745.040,-21.484,70.312,45.898,25.879,33.203,0
1553804745.044,61.523,100.098,76.172,124.512,48.340,0
1553804745.048,83.496,-20.996,-75.684,178.223,83.496,0
1553804745.052,115.234,24.414,-40.039,227.539,82.031,0
1553804745.056,220.703,136.719,112.793,149.414,78.125,0
1553804745.060,85.449,210.449,84.473,-52.734,67.383,0
1553804745.063,-136.230,218.262,46.875,-167.969,64.941,0
1553804745.067,-113.281,140.137,-19.043,-148.438,88.379,0
1553804745.071,-20.508,38.086,-127.441,-31.738,87.891,0
1553804745.075,53.711,130.859,-30.273,81.543,14.648,0
1553804745.079,37.598,183.105,128.418,48.340,16.602,0
1553804745.083,-10.742,73.242,140.137,-38.086,32.715,0
1553804745.087,4.883,56.152,111.816,-40.527,14.160,0
1553804745.091,4.395,58.594,-7.324,6.836,63.965,0
1553804745.095,-20.508,116.211,-17.090,35.156,95.703,0
1553804745.099,-1.465,126.465,56.641,41.016,58.105,0
1553804745.103,38.574,185.059,-80.566,50.293,67.383,0
1553804745.106,-6.836,126.465,58.105,-6.836,82.520,0
1553804745.110,35.156,79.590,175.781,-12.207,92.285,0
1553804745.114,44.434,96.680,98.633,16.113,89.355,0
1553804745.118,88.379,91.797,90.332,27.832,18.555,0
1553804745.122,65.918,91.797,83.984,28.320,108.398,0
1553804745.126,8.789,73.242,82.031,14.648,128.418,0
1553804745.130,53.711,75.195,53.223,12.207,55.664,0
1553804745.134,-25.879,82.520,52.246,31.738,81.543,0
1553804745.138,-61.523,80.566,83.496,26.855,108.887,0
1553804745.142,-52.246,88.867,85.449,-4.883,92.285,0
1553804745.146,-89.844,84.961,82.031,-1.465,38.574,0
1553804745.149,-84.473,80.566,60.059,0.488,38.574,0
1553804745.153,-62.500,76.172,56.152,-5.859,88.867,0
1553804745.157,-37.598,72.266,56.641,-10.742,104.492,0
1553804745.161,-10.742,85.938,59.082,6.348,91.797,0
1553804745.165,-0.488,83.496,66.406,26.367,72.754,0
1553804745.169,-28.809,71.777,54.688,31.738,56.152,0
1553804745.173,-51.758,85.449,65.430,61.523,51.270,0
1553804745.177,-36.621,84.961,72.754,77.148,14.160,0
1553804745.181,-17.090,86.914,15.625,-78.613,47.852,0
1553804745.185,-10.254,86.426,21.484,-135.254,86.426,0
1553804745.188,-23.438,75.195,65.430,-62.500,23.926,0
1553804745.192,-18.555,93.262,59.570,-60.059,-9.277,0
1553804745.196,-21.973,89.844,72.266,-55.176,6.836,0
1553804745.200,-46.387,72.754,85.938,-85.938,47.363,0
1553804745.204,-44.922,62.012,73.242,-62.988,102.539,0
1553804745.208,-28.320,39.062,47.852,-9.766,128.906,0
1553804745.212,-35.645,61.523,50.293,-12.695,89.844,0
1553804745.216,-52.734,77.148,58.105,-57.617,68.359,0
1553804745.220,-48.340,59.570,55.664,-55.664,103.027,0
1553804745.224,-37.109,32.715,55.664,-34.668,147.461,0
1553804745.228,-25.391,41.992,30.762,-31.250,149.902,0
1553804745.231,-11.719,88.379,42.969,-21.484,176.270,0
1553804745.235,2.441,81.055,64.453,-36.133,177.246,0
1553804745.239,7.812,63.477,41.016,-34.180,218.262,0
1553804745.243,-21.973,42.969,49.805,-28.320,251.953,0
1553804745.247,-64.453,40.039,49.316,-22.461,272.461,0
1553804745.251,-95.703,56.641,37.598,-8.301,300.293,0
1553804745.255,-103.516,50.781,55.176,-25.391,301.758,0
1553804745.259,-89.355,44.434,57.129,-21.973,334.961,0
1553804745.263,-86.426,49.316,50.293,-15.625,359.375,0
1553804745.267,-60.547,41.504,59.570,-12.695,349.609,0
1553804745.271,-56.152,48.340,58.105,-12.207,352.539,0
1553804745.274,-59.082,46.387,49.805,23.926,360.352,0
1553804745.278,-52.246,38.086,49.316,29.785,369.629,0
1553804745.282,-32.227,47.363,48.828,-2.930,365.723,0
1553804745.286,-16.602,44.922,54.688,19.043,371.094,0
1553804745.290,-51.270,50.781,54.688,-2.930,378.418,0
1553804745.294,-28.320,44.434,52.734,-17.090,363.281,0
1553804745.298,-24.902,42.480,51.758,1.465,334.473,0
1553804745.302,-33.691,47.852,52.734,-46.875,347.168,0
1553804745.306,-15.137,37.109,60.547,-74.707,329.102,0
1553804745.310,-12.695,37.598,45.410,-35.645,288.574,0
1553804745.313,-39.551,44.434,32.227,-16.602,303.711,0
1553804745.317,-47.852,51.758,54.688,-20.508,301.270,0
1553804745.321,-16.602,49.805,51.270,-8.301,275.879,0
1553804745.325,-18.066,46.875,40.527,-14.648,255.371,0
1553804745.329,-37.109,43.457,53.223,3.418,248.047,0
1553804745.333,-30.273,30.273,56.641,26.855,238.281,0
1553804745.337,-14.648,30.273,42.969,-4.395,209.473,0
1553804745.341,-36.133,44.434,39.062,1.465,204.102,0
1553804745.345,-18.066,46.875,46.875,-4.395,205.566,0
1553804745.349,-12.695,33.691,42.480,10.254,191.406,0
1553804745.353,-22.949,27.344,38.574,42.480,169.922,0
1553804745.356,-29.785,33.691,58.594,24.414,156.250,0
1553804745.360,-3.418,37.109,62.500,-8.301,152.344,0
1553804745.364,-33.203,43.945,49.805,-5.859,141.113,0
1553804745.368,-93.262,33.203,52.734,-4.883,112.305,0
1553804745.372,-56.152,28.809,45.410,-14.648,64.941,0
1553804745.376,-53.223,24.414,51.270,-17.578,49.805,0
1553804745.380,-53.711,23.926,63.477,-19.043,17.090,0
1553804745.384,-0.488,36.621,56.641,0.000,-19.531,0
1553804745.388,-20.020,29.297,48.828,12.207,-44.434,0
1553804745.392,-42.480,-5.859,52.246,20.996,-61.035,0
1553804745.396,2.930,0.000,39.062,9.766,-92.773,0
1553804745.399,14.160,42.480,29.785,21.973,-88.867,0
1553804745.403,10.254,50.781,47.363,25.879,-121.094,0
1553804745.407,2.930,31.738,60.059,20.996,-157.715,0
1553804745.411,-12.207,4.395,67.871,44.922,-139.648,0
1553804745.415,2.930,7.324,40.039,41.016,-177.734,0
1553804745.419,26.855,19.043,19.043,32.227,-175.781,0
1553804745.423,7.324,43.945,39.551,14.160,-167.480,0
1553804745.427,-6.836,82.031,28.809,32.227,-165.527,0
1553804745.431,4.883,74.707,21.484,63.965,-164.551,0
1553804745.435,-6.836,50.781,38.086,76.172,-199.707,0
1553804745.438,27.344,36.133,48.340,98.145,-174.805,0
1553804745.442,35.645,31.738,49.316,117.188,-145.020,0
1553804745.446,11.230,18.555,4.395,61.523,-160.156,0
1553804745.450,26.367,27.832,-10.742,5.371,-160.645,0
1553804745.454,0.488,62.988,37.598,4.883,-166.992,0
1553804745.458,13.184,69.824,25.391,4.395,-154.297,0
1553804745.462,66.895,25.391,0.488,11.230,-145.508,0
1553804745.466,23.438,6.836,32.227,4.883,-118.164,0
1553804745.470,24.414,38.086,45.898,-7.812,-76.172,0
1553804745.474,24.902,32.227,41.992,2.441,-58.594,0
1553804745.478,13.184,53.711,35.645,17.090,-57.129,0
1553804745.481,43.945,46.387,28.320,9.766,-47.852,0
1553804745.485,36.133,19.531,-3.906,37.598,-21.973,0
1553804745.489,-13.672,29.297,-30.273,24.414,-24.414,0
1553804745.493,-55.176,14.160,-18.555,-22.461,-4.395,0
1553804745.497,-81.055,-44.434,-16.113,-46.387,23.926,0
1553804745.501,-113.281,-14.648,-38.086,-71.777,40.039,0
1553804745.505,-172.852,17.578,0.977,-137.207,66.406,0
1553804745.509,-207.520,19.531,90.332,-171.387,65.430,0
1553804745.513,-270.020,9.277,147.461,-229.980,73.730,0
1553804745.517,-331.055,-55.664,97.656,-282.227,111.816,0
1553804745.521,-353.027,-107.910,26.855,-277.344,132.324,0
1553804745.524,-340.332,-64.453,45.410,-236.816,136.230,0
1553804745.528,-313.477,-4.883,-10.254,-210.938,126.953,0
1553804745.532,-297.363,-65.430,-21.484,-178.711,141.113,0
1553804745.536,-314.941,-98.145,141.602,-193.848,130.859,0
1553804745.540,-382.324,-52.246,151.367,-290.527,120.117,0
1553804745.544,-355.469,7.812,86.426,-275.879,145.020,0
1553804745.548,-354.004,14.160,187.012,-291.504,135.254,0
1553804745.552,-272.461,-87.891,134.277,-226.562,121.582,0
1553804745.556,-176.758,-64.941,34.180,-120.117,138.184,0
1553804745.560,-213.867,14.160,78.125,-165.039,157.715,0
1553804745.563,-179.199,-14.160,50.781,-115.234,152.344,0
1553804745.567,-224.609,-47.363,186.035,-114.258,160.156,0
1553804745.571,-182.129,-56.641,169.922,-106.445,165.527,0
1553804745.575,-29.297,-12.695,6.836,60.059,183.594,0
1553804745.579,-60.059,20.020,126.465,52.246,175.293,0
1553804745.583,-59.570,9.766,107.422,19.531,186.523,0
1553804745.587,-32.715,-20.020,98.145,10.742,189.941,0
1553804745.591,-29.297,-9.766,120.117,17.578,187.500,0
1553804745.595,-49.316,36.133,85.449,21.973,202.637,0
1553804745.599,-66.406,16.602,94.238,-10.742,223.633,0
1553804745.603,-47.363,-33.203,113.770,6.836,233.887,0
1553804745.606,-27.344,-4.883,104.492,26.367,222.168,0
1553804745.610,-2.930,13.184,40.039,34.668,252.441,0
1553804745.614,22.461,-9.277,31.738,54.688,292.969,0
1553804745.618,6.836,0.488,59.570,52.734,294.434,0
1553804745.622,0.488,1.953,50.293,32.715,298.340,0
1553804745.626,16.113,-34.668,23.438,40.039,284.180,0
1553804745.630,10.742,-29.785,-8.789,67.383,279.785,0
1553804745.634,7.324,55.664,-1.465,52.246,295.898,0
1553804745.638,5.859,80.078,22.949,20.020,309.082,0
1553804745.642,23.926,48.828,30.762,45.410,324.707,0
1553804745.646,5.371,33.691,27.344,53.711,299.805,0
1553804745.649,26.855,21.484,30.762,62.012,300.781,0
1553804745.653,25.391,34.668,-18.555,36.621,320.312,0
1553804745.657,31.738,23.438,-16.113,42.480,312.500,0
1553804745.661,30.273,-20.996,25.879,49.316,302.246,0
1553804745.665,14.648,0.488,14.648,-6.348,271.484,0
1553804745.669,32.227,43.457,15.137,-22.461,272.461,0
1553804745.673,30.273,28.809,-0.977,8.301,270.996,0
1553804745.677,41.504,21.973,-64.453,17.090,244.629,0
1553804745.681,-4.883,51.758,-50.781,-27.832,245.117,0
1553804745.685,-12.695,4.883,10.742,-5.859,236.816,0
1553804745.688,34.180,2.441,-47.363,46.875,241.211,0
1553804745.692,38.086,38.086,-56.641,27.344,253.906,0
1553804745.696,50.781,35.645,2.441,27.344,233.887,0
1553804745.700,65.918,38.086,20.996,26.855,223.145,0
1553804745.704,14.160,20.996,6.836,31.738,251.953,0
1553804745.708,9.766,21.973,-6.348,36.133,238.281,0
1553804745.712,30.273,30.273,-1.465,14.160,223.633,0
1553804745.716,27.344,25.879,-8.789,29.297,226.074,0
1553804745.720,40.527,31.738,-13.184,11.719,230.957,0
1553804745.724,18.066,34.180,-17.090,7.812,258.789,0
1553804745.728,26.855,25.391,-18.066,34.180,257.324,0
1553804745.731,55.176,27.832,-8.301,69.336,251.953,0
1553804745.735,67.871,8.301,-51.758,60.059,246.582,0
1553804745.739,56.152,-14.648,-52.734,43.457,278.320,0
1553804745.743,50.293,35.645,-12.695,51.758,298.828,0
1553804745.747,42.480,49.805,24.902,32.227,298.828,0
1553804745.751,-5.859,33.691,15.137,10.742,320.312,0
1553804745.755,-34.668,29.297,-20.020,25.879,328.613,0
1553804745.759,-0.977,34.668,15.625,52.246,321.777,0
1553804745.763,24.902,36.133,16.602,7.812,303.711,0
1553804745.767,-0.977,17.578,-27.344,-44.434,344.238,0
1553804745.771,17.090,-3.906,-3.418,-36.621,367.676,0
1553804745.774,31.250,17.578,2.441,-1.465,337.891,0
1553804745.778,19.043,47.363,-6.348,19.531,322.754,0
1553804745.782,27.344,37.109,-13.672,10.254,305.664,0
1553804745.786,17.578,31.738,-26.367,10.254,283.691,0
1553804745.790,31.738,26.855,0.977,14.160,275.391,0
1553804745.794,69.824,17.090,-6.348,0.488,223.145,0
1553804745.798,94.238,-4.883,-40.039,68.359,225.586,0
1553804745.802,13.184,12.207,-1.953,72.266,253.418,0
1553804745.806,-45.898,24.414,-14.160,17.578,223.145,0
1553804745.810,-11.719,37.598,-9.277,72.754,194.336,0
1553804745.813,28.320,64.941,65.918,27.344,167.969,0
1553804745.817,2.441,12.695,20.996,-51.270,174.316,0
1553804745.821,-44.434,-16.113,-9.277,-12.207,169.922,0
1553804745.825,-12.207,-20.996,35.645,20.996,145.020,0
1553804745.829,-0.488,14.648,30.273,22.461,127.930,0
1553804745.833,-32.227,58.105,-18.066,-20.996,114.258,0
1553804745.837,-9.277,40.527,4.395,-61.035,90.820,0
1553804745.841,-6.836,22.949,20.020,-26.855,113.770,0
1553804745.845,-10.254,12.207,5.371,7.324,114.258,0
1553804745.849,29.785,23.438,15.625,21.484,68.848,0
1553804745.853,30.273,41.504,4.395,2.441,64.453,0
1553804745.856,11.719,32.227,-19.043,-0.488,58.105,0
1553804745.860,47.852,-44.922,-6.836,55.176,74.219,0
1553804745.864,22.461,-24.414,39.062,52.246,81.055,0
1553804745.868,-13.672,55.176,35.645,17.578,15.625,0
1553804745.872,-10.742,60.059,17.578,23.926,10.742,0
1553804745.876,-7.812,62.988,27.344,14.160,34.668,0
1553804745.880,16.602,40.527,-10.254,14.160,-0.488,0
1553804745.884,27.344,34.180,-45.410,41.016,-16.113,0
1553804745.888,14.160,37.109,-2.441,15.137,2.930,0
1553804745.892,29.785,45.898,-6.836,2.930,-29.297,0
1553804745.896,57.129,10.742,-11.719,-8.789,-40.527,0
1553804745.899,20.996,14.160,53.711,-0.977,-47.852,0
1553804745.903,2.441,50.781,83.008,10.254,-70.801,0
1553804745.907,-10.254,23.926,50.781,8.301,-58.594,0
1553804745.911,47.852,28.320,-1.953,40.527,-62.012,0
1553804745.915,27.832,45.898,30.762,42.969,-73.730,0
1553804745.919,3.906,-16.602,60.059,27.832,-98.145,0
1553804745.923,56.152,34.180,14.160,30.762,-115.234,0
1553804745.927,-14.648,49.316,0.488,17.090,-110.352,0
1553804745.931,-63.477,-23.438,41.016,4.883,-139.160,0
1553804745.935,-47.852,43.945,43.457,5.371,-120.605,0
1553804745.938,-76.172,85.449,35.156,-79.590,-86.914,0
1553804745.942,-139.160,53.711,53.711,-65.918,-120.117,0
1553804745.946,-96.191,42.480,67.871,-10.254,-132.812,0
1553804745.950,-54.199,48.828,40.039,-59.082,-99.121,0
1553804745.954,-70.801,32.227,47.363,-75.684,-83.496,0
1553804745.958,-148.438,33.691,74.219,-114.258,-109.863,0
1553804745.962,-173.828,59.570,44.922,-147.461,-97.656,0
1553804745.966,-132.324,75.684,33.691,-117.188,-71.289,0
1553804745.970,-125.000,83.496,30.273,-111.816,-104.492,0
1553804745.974,-126.465,63.477,28.320,-157.715,-76.172,0
1553804745.978,-150.391,56.152,16.113,-178.711,-48.340,0
1553804745.981,-125.977,82.520,2.930,-164.062,-57.617,0
1553804745.985,-115.723,84.961,22.949,-168.945,-48.828,0
1553804745.989,-178.223,98.633,25.879,-174.316,-11.230,0
1553804745.993,-94.238,105.957,0.000,-146.484,-4.395,0
1553804745.997,-62.012,98.633,-5.371,-143.555,-22.949,0
1553804746.001,-92.285,103.516,1.953,-98.633,-7.324,0
1553804746.005,-10.742,113.281,-16.602,-83.496,19.043,0
1553804746.009,31.738,104.004,-36.133,-55.664,23.438,0
1553804746.013,9.277,82.031,-20.508,20.020,47.852,0
1553804746.017,11.719,109.863,-11.719,18.066,72.266,0
1553804746.021,57.617,167.969,-14.648,58.105,76.660,0
1553804746.024,70.801,145.996,1.465,158.691,67.871,0
1553804746.028,88.867,122.070,-14.648,167.969,94.727,0
1553804746.032,123.047,149.902,-22.949,89.844,82.520,0
1553804746.036,170.410,151.855,0.000,143.066,73.730,0
1553804746.040,193.359,156.738,29.785,174.805,78.613,0
1553804746.044,229.004,164.062,9.766,190.918,65.430,0
1553804746.048,256.348,140.137,-6.348,257.324,77.148,0
1553804746.052,240.234,128.418,17.578,288.086,52.246,0
1553804746.056,269.043,162.598,19.043,297.852,55.664,0
1553804746.060,283.691,189.453,33.203,283.203,83.496,0
1553804746.063,264.648,185.547,25.879,319.824,80.078,0
1553804746.067,289.062,174.316,32.715,346.191,69.824,0
1553804746.071,288.574,173.340,60.059,350.098,106.445,0
1553804746.075,257.812,166.504,53.223,364.746,125.000,0
1553804746.079,252.441,165.527,70.312,361.328,91.309,0
1553804746.083,262.695,171.875,62.012,341.797,95.215,0
1553804746.087,263.672,162.598,82.520,356.445,114.746,0
1553804746.091,231.445,147.461,92.285,374.023,105.957,0
1553804746.095,164.551,145.508,90.332,337.891,113.281,0
1553804746.099,153.809,143.066,95.215,337.402,103.516,0
1553804746.103,195.801,135.742,111.328,359.375,104.980,0
1553804746.106,169.434,144.531,131.836,326.660,135.742,0
1553804746.110,156.250,141.602,136.719,305.664,137.207,0
1553804746.114,151.855,118.652,131.836,305.664,149.414,0
1553804746.118,123.047,135.742,113.770,316.895,154.297,0
1553804746.122,122.070,145.020,131.836,292.480,140.137,0
1553804746.126,136.230,131.348,135.254,249.512,177.734,0
1553804746.130,150.879,132.812,134.277,237.305,170.898,0
1553804746.134,121.094,115.234,157.715,272.949,121.582,0
1553804746.138,101.562,110.840,167.969,299.316,145.508,0
1553804746.142,88.379,125.000,166.504,256.836,160.156,0
1553804746.146,68.848,123.535,163.574,267.090,113.281,0
1553804746.149,84.473,120.605,145.996,255.371,113.281,0
1553804746.153,85.449,121.582,171.387,214.355,95.703,0
1553804746.157,17.090,109.375,193.848,235.352,81.543,0
1553804746.161,33.691,125.977,179.688,237.305,93.750,0
1553804746.165,58.105,146.973,189.941,240.723,58.105,0
1553804746.169,44.922,141.113,201.660,227.051,54.688,0
1553804746.173,43.457,125.488,192.383,212.891,68.848,0
1553804746.177,52.734,128.418,212.891,232.910,42.480,0
1553804746.181,55.176,149.902,206.543,202.637,14.160,0
1553804746.185,47.852,159.180,187.012,168.945,43.457,0
1553804746.188,73.242,154.785,208.496,169.922,58.105,0
1553804746.192,45.410,178.223,215.332,167.969,64.453,0
1553804746.196,18.555,170.898,210.938,169.922,71.289,0
1553804746.200,71.777,146.484,194.336,157.227,48.828,0
1553804746.204,8.789,150.879,198.242,186.523,45.410,0
1553804746.208,23.926,152.832,235.840,197.754,41.016,0
1553804746.212,57.617,147.949,249.512,170.898,25.391,0
1553804746.216,20.020,148.438,216.309,191.895,38.574,0
1553804746.220,36.621,166.016,204.102,195.801,69.336,0
1553804746.224,49.316,171.875,212.402,168.457,82.031,0
1553804746.228,37.598,172.852,227.539,154.785,116.699,0
1553804746.231,-13.184,165.527,257.812,155.762,118.652,0
1553804746.235,19.043,165.527,237.305,184.570,87.891,0
1553804746.239,52.734,170.898,220.703,180.176,111.816,0
1553804746.243,-11.719,168.945,234.375,91.797,116.699,0
1553804746.247,-39.551,186.035,242.676,96.680,103.027,0
1553804746.251,-9.766,175.293,218.750,164.551,102.051,0
1553804746.255,-22.949,161.621,214.355,179.199,62.500,0
1553804746.259,-29.297,168.457,250.000,137.207,73.730,0
1553804746.263,93.262,155.762,264.648,123.535,31.250,0
1553804746.267,118.652,175.781,238.281,177.246,8.789,0
1553804746.271,49.805,181.641,225.098,150.879,35.156,0
1553804746.274,52.734,169.434,246.094,129.883,27.344,0
1553804746.278,74.707,171.387,259.277,155.273,12.207,0
1553804746.282,71.289,167.480,260.742,179.199,15.625,0
1553804746.286,60.059,162.598,242.676,161.133,44.922,0
1553804746.290,87.891,175.781,248.047,129.883,8.789,0
1553804746.294,75.195,172.363,266.602,121.094,-5.371,0
1553804746.298,53.223,170.898,247.070,123.047,4.395,0
1553804746.302,63.965,155.762,270.020,126.465,7.812,0
1553804746.306,62.012,132.812,285.645,122.070,27.832,0
1553804746.310,54.688,172.363,238.281,134.277,40.527,0
1553804746.313,69.824,183.105,251.465,167.480,27.344,0
1553804746.317,45.898,170.410,281.250,160.645,18.066,0
1553804746.321,21.484,174.316,259.277,117.676,28.809,0
1553804746.325,83.496,170.410,258.789,93.750,53.711,0
1553804746.329,14.160,194.824,287.109,96.191,67.383,0
1553804746.333,17.578,186.035,273.438,140.625,18.066,0
1553804746.337,122.070,159.668,254.883,138.672,17.090,0
1553804746.341,82.520,173.340,257.324,127.441,10.742,0
1553804746.345,89.844,182.617,268.555,125.000,-14.160,0
1553804746.349,93.750,171.875,264.160,124.512,-26.367,0
1553804746.353,78.613,187.012,263.672,96.191,-22.461,0
1553804746.356,55.176,206.055,264.648,77.637,19.043,0
1553804746.360,47.852,182.617,250.977,104.492,-2.441,0
1553804746.364,74.707,189.453,274.414,130.371,-23.438,0
1553804746.368,68.848,193.359,270.508,91.797,-13.184,0
1553804746.372,61.523,205.078,244.629,42.480,-14.160,0
1553804746.376,121.582,201.172,280.762,58.105,-16.113,0
1553804746.380,96.680,192.871,289.551,49.316,-5.859,0
1553804746.384,81.543,211.426,253.418,41.016,9.277,0
1553804746.388,88.867,209.473,266.602,55.664,29.297,0
1553804746.392,78.125,210.449,301.758,91.797,19.043,0
1553804746.396,94.727,203.125,281.738,106.445,11.719,0
1553804746.399,67.383,197.754,267.090,66.406,36.621,0
1553804746.403,79.102,212.402,261.719,37.109,50.781,0
1553804746.407,95.215,210.938,272.461,57.129,71.777,0
1553804746.411,78.613,193.848,291.016,116.211,77.148,0
1553804746.415,89.355,197.266,286.621,122.070,63.477,0
1553804746.419,68.359,204.590,260.742,97.168,54.688,0
1553804746.423,92.285,203.125,272.949,72.754,39.551,0
1553804746.427,160.156,200.684,291.504,68.359,69.824,0
1553804746.431,109.863,188.477,256.836,93.262,77.148,0
1553804746.435,54.199,180.176,260.742,85.449,62.500,0
1553804746.438,60.059,188.965,291.992,65.430,69.824,0
1553804746.442,68.359,182.129,286.621,82.031,77.148,0
1553804746.446,82.520,173.828,245.117,72.266,55.176,0
1553804746.450,72.266,210.938,245.605,43.457,17.090,0
1553804746.454,30.762,191.895,301.758,40.527,30.762,0
1553804746.458,58.594,166.016,291.992,60.547,41.992,0
1553804746.462,81.055,194.336,265.137,70.801,30.273,0
1553804746.466,-0.488,187.012,278.320,28.809,26.367,0
1553804746.470,-5.371,182.617,282.715,15.137,30.273,0
1553804746.474,24.414,172.852,279.785,26.367,42.480,0
1553804746.478,18.555,188.477,280.273,28.809,37.109,0
1553804746.481,22.949,184.570,289.062,48.828,19.531,0
1553804746.485,28.809,182.129,272.461,31.738,13.672,0
1553804746.489,3.906,193.848,270.996,-1.953,8.301,0
1553804746.493,-4.883,171.875,279.297,1.953,-4.395,0
1553804746.497,27.344,167.969,270.508,31.250,-42.480,0
1553804746.501,13.184,166.504,284.180,40.527,-41.992,0
1553804746.505,56.152,160.645,243.164,34.668,-31.738,0
1553804746.509,43.945,164.551,262.207,65.918,-74.219,0
1553804746.513,31.250,177.246,307.129,72.754,-80.078,0
1553804746.517,1.953,151.367,279.785,0.977,-66.406,0
1553804746.521,-13.184,144.043,294.922,-29.785,-45.410,0
1553804746.524,-20.020,156.250,304.199,10.742,-66.406,0
1553804746.528,-45.410,141.113,278.809,19.531,-95.703,0
1553804746.532,52.734,156.250,273.926,-8.301,-100.098,0
1553804746.536,-30.762,145.508,300.293,-27.344,-81.055,0
1553804746.540,-90.820,115.723,299.805,-22.949,-75.684,0
1553804746.544,9.277,141.602,272.461,-13.184,-79.102,0
1553804746.548,16.602,141.113,283.203,-16.113,-68.848,0
1553804746.552,2.441,125.000,275.879,6.836,-89.355,0
1553804746.556,14.648,131.836,269.531,24.414,-102.051,0
1553804746.560,39.551,146.484,276.367,20.020,-73.730,0
1553804746.563,68.848,145.508,266.113,11.719,-77.637,0
1553804746.567,25.879,149.902,278.320,20.996,-115.723,0
1553804746.571,9.277,152.344,274.902,30.273,-152.344,0
1553804746.575,56.641,139.648,259.277,13.672,-125.977,0
1553804746.579,54.199,150.391,271.973,13.672,-110.840,0
1553804746.583,15.625,156.738,256.348,16.113,-138.184,0
1553804746.587,21.973,148.926,245.117,-8.301,-144.531,0
1553804746.591,28.320,130.371,275.391,15.137,-160.156,0
1553804746.595,-4.883,136.230,281.250,19.531,-154.297,0
1553804746.599,23.926,182.617,244.629,0.977,-153.320,0
1553804746.603,73.242,159.668,225.586,26.367,-149.414,0
1553804746.606,69.336,152.344,244.141,1.953,-158.203,0
1553804746.610,-4.883,140.137,242.188,11.230,-158.691,0
1553804746.614,-53.711,134.277,251.953,16.602,-146.973,0
1553804746.618,-17.578,153.320,238.770,11.719,-141.602,0
1553804746.622,36.621,153.809,244.629,24.414,-128.906,0
1553804746.626,21.973,173.828,245.605,5.371,-132.812,0
1553804746.630,10.742,174.805,230.957,19.043,-145.996,0
1553804746.634,66.406,161.133,244.141,31.250,-138.184,0
1553804746.638,22.461,157.715,234.863,30.762,-122.559,0
1553804746.642,-14.160,181.152,221.680,20.996,-133.789,0
1553804746.646,21.484,199.707,236.328,14.648,-158.203,0
1553804746.649,56.641,162.598,239.258,20.508,-144.531,0
1553804746.653,72.266,146.484,241.699,20.020,-152.832,0
1553804746.657,61.523,171.387,215.332,34.180,-189.941,0
1553804746.661,62.012,175.781,212.402,41.504,-163.574,0
1553804746.665,29.297,148.438,229.980,19.043,-163.574,0
1553804746.669,18.555,148.438,210.449,19.043,-187.012,0
1553804746.673,68.848,177.734,211.426,28.809,-159.668,0
1553804746.677,24.414,162.598,213.379,11.719,-155.762,0
1553804746.681,23.438,137.695,185.059,-18.066,-176.758,0
1553804746.685,38.574,145.020,206.055,-8.789,-188.477,0
1553804746.688,2.441,137.695,220.703,19.043,-168.945,0
1553804746.692,45.898,146.973,179.199,20.996,-169.922,0
1553804746.696,46.875,148.438,185.059,6.348,-190.430,0
1553804746.700,-0.488,137.695,183.594,-13.184,-212.891,0
1553804746.704,8.301,124.023,177.734,-6.836,-197.266,0
1553804746.708,18.555,124.023,197.754,-9.766,-166.504,0
1553804746.712,42.969,123.047,191.895,3.418,-169.922,0
1553804746.716,31.250,123.535,166.992,1.953,-177.734,0
1553804746.720,49.316,122.559,162.598,12.207,-148.438,0
1553804746.724,30.273,134.277,180.176,10.254,-161.621,0
1553804746.728,-3.418,137.207,166.016,-27.344,-189.941,0
1553804746.731,18.066,119.629,162.598,-6.348,-182.617,0
1553804746.735,10.742,126.953,179.688,15.137,-182.617,0
1553804746.739,0.000,122.070,163.086,-28.320,-172.852,0
1553804746.743,6.836,140.137,135.742,-24.414,-160.645,0
1553804746.747,31.738,140.625,158.203,2.441,-198.242,0
1553804746.751,-19.531,125.000,162.598,-31.250,-208.008,0
1553804746.755,-30.762,128.418,134.766,-3.906,-182.617,0
1553804746.759,24.414,121.582,151.855,43.945,-209.473,0
1553804746.763,7.324,126.953,156.738,-23.438,-193.359,0
1553804746.767,-4.883,135.742,153.320,-35.645,-181.641,0
1553804746.771,10.254,114.746,153.320,27.832,-193.848,0
1553804746.774,14.160,117.188,165.039,12.695,-172.363,0
1553804746.778,28.320,136.230,159.180,2.930,-169.434,0
1553804746.782,19.043,126.953,156.738,-13.672,-151.367,0
1553804746.786,8.301,127.441,161.621,-36.621,-121.094,0
1553804746.790,12.207,134.277,156.250,-10.742,-122.559,0
1553804746.794,20.996,135.742,129.883,-23.926,-134.277,0
1553804746.798,6.348,149.414,131.348,-40.527,-111.328,0
1553804746.802,2.441,138.184,147.461,-2.441,-83.496,0
1553804746.806,0.488,137.695,138.184,-14.160,-128.418,0
1553804746.810,3.906,154.297,123.047,-44.434,-137.207,0
1553804746.813,24.902,142.578,124.023,-32.227,-114.258,0
1553804746.817,24.414,138.672,128.418,8.301,-106.445,0
1553804746.821,-7.812,158.691,118.164,21.484,-101.074,0
1553804746.825,-20.508,144.043,129.883,28.809,-129.883,0
1553804746.829,-6.836,119.141,133.301,-10.742,-123.047,0
1553804746.833,-8.789,128.906,83.984,-22.461,-77.148,0
1553804746.837,25.879,143.066,88.379,-4.883,-94.727,0
1553804746.841,2.441,145.020,111.328,-34.180,-76.172,0
1553804746.845,-50.293,127.930,97.168,-13.184,-69.824,0
1553804746.849,-18.555,128.418,88.867,-43.945,-57.129,0
1553804746.853,-14.160,126.953,89.844,-81.543,-26.367,0
1553804746.856,-11.719,134.766,83.496,-30.762,-37.109,0
1553804746.860,-16.113,124.512,83.008,-23.926,-39.062,0
1553804746.864,-45.898,125.000,88.379,-10.254,-22.461,0
1553804746.868,-39.062,146.973,98.633,-16.113,-4.883,0
1553804746.872,-15.625,139.648,75.195,-32.227,-1.465,0
1553804746.876,-23.438,147.949,84.473,-24.902,3.418,0
1553804746.880,-37.109,129.395,97.656,-15.137,-6.836,0
1553804746.884,16.113,127.930,70.312,0.977,-52.734,0
1553804746.888,-3.418,138.672,77.148,7.812,-50.781,0
1553804746.892,-44.922,134.277,84.473,-49.805,-33.203,0
1553804746.896,-30.762,154.785,55.664,-77.148,-38.086,0
1553804746.899,-18.555,139.160,70.312,-25.391,-28.320,0
1553804746.903,-46.387,120.605,79.102,-3.906,-38.086,0
1553804746.907,-51.270,133.789,68.359,-28.809,-62.988,0
1553804746.911,-41.992,133.789,80.566,-28.320,-54.199,0
1553804746.915,-27.832,118.164,82.031,-20.020,-49.805,0
1553804746.919,-32.715,131.836,63.477,-47.363,-41.504,0
1553804746.923,1.953,146.484,62.500,-37.109,-39.551,0
1553804746.927,-3.906,152.832,74.219,-32.715,-73.242,0
1553804746.931,-16.602,136.719,68.848,-25.391,-80.078,0
1553804746.935,-27.344,114.746,46.387,-22.949,-63.477,0
1553804746.938,-57.617,120.605,67.871,-17.090,-69.824,0
1553804746.942,-37.598,136.230,67.383,-33.691,-82.031,0
1553804746.946,-26.367,134.277,44.434,-42.969,-47.363,0
1553804746.950,-49.805,136.230,54.199,-34.180,-35.156,0
1553804746.954,-52.246,150.879,56.152,-20.020,-40.527,0
1553804746.958,-17.578,153.320,85.938,56.152,-75.684,0
1553804746.962,-35.156,137.207,74.219,62.988,-69.336,0
1553804746.966,-24.902,136.230,51.270,45.410,-30.273,0
1553804746.970,-14.160,145.996,56.152,41.992,-15.137,0
1553804746.974,-8.301,165.527,43.457,20.996,-9.277,0
1553804746.978,6.836,168.945,53.223,43.457,-40.039,0
1553804746.981,41.504,166.504,44.434,-41.992,-16.113,0
1553804746.985,24.902,180.664,41.504,-87.891,-34.668,0
1553804746.989,0.977,156.250,51.758,-57.617,12.207,0
1553804746.993,10.254,106.934,23.926,-79.590,31.250,0
1553804746.997,-20.020,142.090,31.250,-79.102,14.648,0
1553804747.001,12.695,186.035,63.477,-34.668,-19.531,0
1553804747.005,16.602,157.227,32.227,-43.945,-40.527,0
1553804747.009,-51.758,138.184,3.418,-88.379,-23.926,0
1553804747.013,-7.812,149.902,30.273,-79.590,-41.504,0
1553804747.017,40.527,130.371,24.902,-30.762,-65.430,0
1553804747.021,-6.836,129.883,28.320,-77.148,-38.086,0
1553804747.024,-122.070,167.480,4.883,-158.203,41.504,0
1553804747.028,-91.797,192.383,-19.043,-44.922,-16.113,0
1553804747.032,-83.008,134.766,85.449,-21.484,-43.457,0
1553804747.036,-162.109,102.539,73.242,-118.164,-26.855,0
1553804747.040,-152.344,39.062,70.801,-128.418,6.348,0
1553804747.044,-119.629,4.883,115.234,-96.191,-9.766,0
1553804747.048,-135.254,52.246,112.305,-111.816,-30.762,0
1553804747.052,-204.102,49.316,94.238,-187.012,13.184,0
1553804747.056,-229.492,59.570,70.801,-212.891,2.930,0
1553804747.060,-232.910,56.152,46.875,-262.207,11.719,0
1553804747.063,-174.805,57.617,47.363,-221.191,68.848,0
1553804747.067,-185.059,40.527,83.008,-158.203,36.133,0
1553804747.071,-152.344,39.551,74.707,-189.453,-43.945,0
1553804747.075,-145.508,13.672,77.637,-195.801,27.344,0
1553804747.079,-198.730,-5.859,83.984,-130.859,61.523,0
1553804747.083,-170.898,10.742,105.469,-83.008,52.734,0
1553804747.087,-136.230,6.836,112.305,-79.102,1.465,0
1553804747.091,-143.555,3.906,88.867,-59.570,-7.812,0
1553804747.095,-113.770,-0.977,87.402,-73.242,35.645,0
1553804747.099,-89.844,1.465,71.289,-40.527,-11.230,0
1553804747.103,-127.441,-5.859,99.121,-4.883,-58.105,0
1553804747.106,-104.492,-5.859,123.535,40.039,-27.344,0
1553804747.110,-65.430,15.137,123.535,76.172,-19.531,0
1553804747.114,-43.457,21.973,103.516,51.270,-21.973,0
1553804747.118,-63.477,9.766,62.988,66.895,-6.348,0
1553804747.122,-30.762,20.996,61.523,54.199,-4.883,0
1553804747.126,29.297,29.297,107.422,-23.926,-10.742,0
1553804747.130,-31.738,10.254,98.633,-3.906,19.043,0
1553804747.134,-48.340,6.836,95.703,31.250,12.207,0
1553804747.138,-27.344,10.742,133.301,27.344,28.809,0
1553804747.142,-7.324,16.602,119.629,56.641,61.035,0
1553804747.146,56.641,35.156,92.285,44.922,18.066,0
1553804747.149,45.898,49.316,85.449,71.289,-27.832,0
1553804747.153,30.273,45.898,69.336,72.266,16.602,0
1553804747.157,49.316,39.551,55.176,58.594,58.594,0
1553804747.161,11.719,36.621,61.035,75.195,-12.695,0
1553804747.165,-9.766,54.688,25.879,7.812,-0.488,0
1553804747.169,5.371,67.383,5.859,-9.277,-15.625,0
1553804747.173,49.316,68.359,23.438,66.406,-39.551,0
1553804747.177,60.547,68.848,-7.812,66.406,-25.879,0
1553804747.181,83.496,62.500,-22.461,47.852,42.480,0
1553804747.185,61.035,79.102,-5.371,82.520,32.227,0
1553804747.188,-42.969,73.730,10.742,48.828,-22.949,0
1553804747.192,-40.527,59.082,-9.766,25.879,51.270,0
1553804747.196,-11.230,62.988,-50.781,46.387,87.402,0
1553804747.200,14.648,64.941,-42.480,79.590,84.473,0
1553804747.204,59.082,86.914,-57.129,72.754,4.883,0
1553804747.208,78.125,89.844,-35.645,69.336,-20.508,0
1553804747.212,58.105,78.125,-15.137,16.113,6.348,0
1553804747.216,16.113,74.219,-53.711,-46.875,76.172,0
1553804747.220,-7.324,61.035,-55.664,6.348,86.426,0
1553804747.224,29.297,71.777,-60.059,20.020,58.105,0
1553804747.228,71.777,93.262,-79.590,20.508,15.625,0
1553804747.231,62.012,83.984,-103.516,34.180,-30.273,0
1553804747.235,60.547,62.500,-110.352,-7.812,27.832,0
1553804747.239,9.277,64.453,-39.062,-16.602,77.148,0
1553804747.243,15.625,63.477,-33.203,20.020,90.820,0
1553804747.247,58.105,62.988,-54.199,20.020,46.875,0
1553804747.251,50.781,83.984,-61.035,25.879,-5.859,0
1553804747.255,19.043,81.543,-68.359,21.973,55.664,0
1553804747.259,46.875,67.383,-58.594,-17.090,75.684,0
1553804747.263,69.824,74.219,-70.801,0.000,14.648,0
1553804747.267,29.785,88.379,-70.801,22.461,37.598,0
1553804747.271,-11.719,78.125,-66.895,39.062,53.223,0
1553804747.274,-62.988,46.875,-51.758,49.316,-8.789,0
1553804747.278,-54.199,42.480,-38.574,24.902,23.926,0
1553804747.282,-93.750,55.664,-40.527,12.695,106.445,0
1553804747.286,-96.680,47.363,-88.379,-16.602,76.172,0
1553804747.290,-23.438,53.223,-51.758,0.488,-5.371,0
1553804747.294,-40.039,84.473,-62.988,-43.457,89.355,0
1553804747.298,-114.258,61.035,-96.191,-105.957,79.590,0
1553804747.302,-97.656,26.367,14.160,-75.684,39.551,0
1553804747.306,-142.578,55.664,22.949,-105.469,57.617,0
1553804747.310,-155.273,45.898,-0.488,-140.625,64.941,0
1553804747.313,-110.352,61.523,0.000,-104.980,73.730,0
1553804747.317,-192.871,57.617,-16.113,-163.086,62.012,0
1553804747.321,-236.816,48.340,-29.785,-250.000,30.762,0
1553804747.325,-216.309,73.242,-41.504,-255.859,38.086,0
1553804747.329,-204.102,66.895,-19.531,-202.637,29.785,0
1553804747.333,-186.523,78.125,-34.180,-239.746,-9.766,0
1553804747.337,-213.379,58.594,-53.711,-243.652,59.570,0
1553804747.341,-285.156,53.223,-51.270,-174.805,93.750,0
1553804747.345,-278.809,87.891,-90.820,-190.430,24.414,0
1553804747.349,-213.379,103.027,-116.211,-149.414,6.836,0
1553804747.353,-190.918,102.051,-118.164,-108.398,109.863,0
1553804747.356,-213.379,98.145,-136.230,-142.090,100.586,0
1553804747.360,-142.578,107.422,-141.602,-123.535,-5.859,0
1553804747.364,-79.590,122.070,-145.508,-66.895,81.543,0
1553804747.368,-57.617,117.188,-153.320,-1.953,89.844,0
1553804747.372,0.000,127.441,-182.129,4.395,30.762,0
1553804747.376,34.180,132.812,-195.801,4.883,-9.766,0
1553804747.380,31.250,95.703,-218.262,39.551,-25.879,0
1553804747.384,54.688,94.727,-231.445,29.785,51.758,0
1553804747.388,63.965,148.926,-173.828,9.766,64.453,0
1553804747.392,98.633,166.016,-175.293,49.805,-5.859,0
1553804747.396,122.559,166.504,-214.355,73.242,18.066,0
1553804747.399,139.160,149.902,-185.547,107.910,-11.719,0
1553804747.403,167.969,145.508,-187.012,114.746,-49.316,0
1553804747.407,127.930,137.695,-182.129,103.027,-9.277,0
1553804747.411,113.770,128.418,-184.570,120.117,22.949,0
1553804747.415,127.930,132.324,-187.500,145.020,39.062,0
1553804747.419,116.211,135.254,-187.988,146.973,95.215,0
1553804747.423,125.977,142.578,-192.871,100.098,67.871,0
1553804747.427,171.387,125.000,-182.617,102.051,-14.160,0
1553804747.431,179.199,105.469,-175.293,138.184,59.082,0
1553804747.435,128.906,111.328,-150.879,109.375,76.660,0
1553804747.438,35.156,105.957,-166.016,92.285,36.621,0
1553804747.442,29.297,110.840,-192.383,85.938,2.441,0
1553804747.446,70.801,90.820,-128.906,71.289,41.992,0
1553804747.450,84.473,81.543,-91.309,106.445,55.664,0
1553804747.454,89.844,85.449,-115.234,135.254,-21.973,0
1553804747.458,71.777,64.941,-140.137,38.574,42.969,0
