timestamps,TP9,AF7,AF8,TP10,Right AUX,Marker0
9499.944,30.273,45.410,34.180,22.461,41.992,0
9499.948,31.738,45.898,37.598,20.508,57.129,0
9499.952,37.109,43.945,38.574,28.320,70.801,0
9499.956,37.109,44.434,38.574,28.809,62.988,0
9499.960,30.273,44.434,36.621,26.367,48.828,0
9499.964,29.297,39.551,35.645,29.785,58.105,0
9499.967,30.273,40.527,36.621,27.832,58.594,0
9499.971,28.809,42.480,35.645,22.949,43.457,0
9499.975,28.809,41.992,35.645,22.949,29.785,0
9499.979,26.367,35.645,29.297,20.508,25.879,0
9499.983,28.320,29.785,21.484,18.066,35.156,0
9499.987,29.785,33.691,29.297,19.531,43.457,0
9499.991,24.414,35.645,33.203,22.949,29.297,0
9499.995,26.855,34.180,33.691,24.414,30.273,0
9499.999,34.180,35.645,37.109,26.855,55.176,0
9500.003,30.762,34.180,34.668,30.762,56.152,0
9500.007,27.344,31.738,33.203,30.762,28.809,0
9500.010,30.762,36.621,35.645,35.156,21.484,0
9500.014,32.715,37.598,39.062,34.180,33.691,0
9500.018,33.691,36.133,34.668,26.367,27.832,0
9500.022,34.668,40.039,33.203,29.785,20.020,0
9500.026,34.668,42.969,33.203,31.250,16.602,0
9500.030,37.109,42.480,37.109,34.668,29.297,0
9500.034,41.016,37.109,36.133,38.574,43.945,0
9500.038,41.016,37.598,31.738,33.691,35.645,0
9500.042,37.598,38.086,39.062,36.133,24.414,0
9500.046,34.180,36.621,40.527,36.133,40.039,0
9500.050,32.227,36.621,40.039,32.715,53.711,0
9500.053,33.203,37.109,45.410,34.668,49.805,0
9500.057,33.203,41.016,45.410,36.133,40.039,0
9500.061,32.227,40.039,36.621,33.203,33.691,0
9500.065,35.645,38.574,36.133,32.227,45.898,0
9500.069,34.180,40.039,43.457,32.227,57.129,0
9500.073,28.809,36.133,38.086,26.855,39.551,0
9500.077,24.414,30.762,29.785,25.391,23.926,0
9500.081,25.391,30.273,26.855,22.949,44.922,0
9500.085,27.344,30.762,29.297,21.973,65.918,0
9500.089,24.414,31.738,27.344,23.438,50.781,0
9500.092,25.879,30.762,22.461,23.926,27.832,0
9500.096,25.879,31.738,23.926,26.855,37.598,0
9500.100,24.902,30.273,27.832,28.320,53.223,0
9500.104,27.344,34.668,31.738,32.715,55.664,0
9500.108,26.367,40.527,31.250,27.832,41.504,0
9500.112,22.949,36.621,21.973,20.020,38.086,0
9500.116,20.508,33.203,19.531,19.531,56.152,0
9500.120,18.066,32.227,20.996,19.043,57.129,0
9500.124,24.902,34.180,21.973,18.066,42.969,0
9500.128,28.320,36.133,22.461,18.066,41.992,0
9500.132,28.320,38.574,20.020,20.996,51.758,0
9500.135,40.039,44.922,24.414,26.367,54.688,0
9500.139,39.062,46.387,20.020,26.855,52.734,0
9500.143,25.391,42.480,18.555,24.902,43.945,0
9500.147,18.555,38.574,28.809,25.391,49.316,0
9500.151,15.625,33.691,32.227,26.367,60.059,0
9500.155,15.137,33.691,28.320,23.926,41.016,0
9500.159,14.160,37.109,25.879,25.879,20.996,0
9500.163,20.508,38.086,30.273,31.250,37.598,0
9500.167,24.902,36.621,27.344,26.855,50.781,0
9500.171,22.461,35.156,21.973,25.391,43.457,0
9500.175,26.855,39.062,23.438,25.879,33.203,0
9500.178,32.227,42.969,30.273,27.344,34.668,0
9500.182,35.156,41.992,32.227,29.785,49.316,0
9500.186,38.574,41.016,34.180,28.320,55.664,0
9500.190,37.598,41.504,40.039,28.809,49.805,0
9500.194,37.598,45.410,35.645,34.180,43.945,0
9500.198,43.945,52.734,29.785,36.133,54.199,0
9500.202,48.828,53.711,30.273,34.668,63.477,0
9500.206,45.898,53.223,27.832,31.250,49.805,0
9500.210,41.504,54.199,30.762,32.227,42.480,0
9500.214,40.527,50.781,34.668,31.738,56.152,0
9500.217,42.480,50.293,35.156,31.250,69.336,0
9500.221,46.875,46.875,35.645,31.250,68.848,0
9500.225,34.668,41.016,37.109,29.297,44.434,0
9500.229,31.250,39.062,36.621,24.902,32.227,0
9500.233,38.574,38.574,36.133,26.367,51.270,0
9500.237,32.715,37.598,39.062,30.762,54.688,0
9500.241,26.367,37.598,33.691,26.367,30.273,0
9500.245,30.273,41.504,33.691,31.738,27.832,0
9500.249,38.086,39.551,41.992,34.668,41.504,0
9500.253,39.062,38.574,40.039,35.156,49.805,0
9500.257,36.133,45.410,37.109,34.180,52.734,0
9500.260,30.762,46.387,35.645,21.484,36.133,0
9500.264,35.645,47.852,31.738,26.855,36.621,0
9500.268,40.039,47.852,30.762,29.297,44.434,0
9500.272,33.203,44.922,27.832,20.508,29.785,0
9500.276,32.715,45.410,30.762,24.902,21.973,0
9500.280,37.109,50.781,32.715,23.926,27.344,0
9500.284,39.551,54.688,35.156,22.461,39.062,0
9500.288,37.598,49.805,35.156,27.344,39.062,0
9500.292,28.809,45.898,35.645,25.391,17.578,0
9500.296,23.926,44.922,37.598,18.066,7.812,0
9500.300,25.879,41.016,36.621,17.090,20.508,0
9500.303,23.438,39.551,39.551,19.043,20.508,0
9500.307,23.438,42.480,37.598,18.555,5.859,0
9500.311,26.855,47.852,33.691,20.508,10.742,0
9500.315,29.785,48.828,22.949,20.020,26.367,0
9500.319,33.203,46.387,19.531,20.020,39.062,0
9500.323,27.832,41.504,25.391,20.020,34.180,0
9500.327,27.344,41.504,19.531,17.578,22.461,0
9500.331,32.227,45.410,19.531,17.578,34.668,0
9500.335,33.203,46.387,23.438,18.555,41.016,0
9500.339,31.250,43.945,26.855,20.508,33.203,0
9500.342,24.414,38.086,26.855,17.578,20.996,0
9500.346,22.461,34.180,25.391,17.090,20.508,0
9500.350,28.809,35.645,27.832,19.043,28.320,0
9500.354,32.227,34.180,26.855,19.531,23.926,0
9500.358,25.391,35.645,20.996,20.508,8.301,0
9500.362,26.855,36.621,18.555,21.484,6.348,0
9500.366,29.297,35.645,21.484,23.438,22.949,0
9500.370,31.738,38.086,25.879,20.508,36.133,0
9500.374,32.715,40.527,33.691,22.461,25.879,0
9500.378,27.832,41.992,34.668,25.391,21.484,0
9500.382,29.785,37.109,30.273,21.484,37.598,0
9500.385,38.574,38.086,37.109,24.414,55.176,0
9500.389,41.016,40.527,34.668,24.902,53.711,0
9500.393,36.133,38.574,26.855,23.438,45.410,0
9500.397,37.109,37.598,27.344,23.438,62.012,0
9500.401,40.527,40.039,28.809,23.438,60.547,0
9500.405,36.133,40.527,35.156,24.902,37.109,0
9500.409,27.344,36.133,35.156,24.414,19.043,0
9500.413,25.391,36.133,35.156,28.809,20.996,0
9500.417,24.902,35.645,35.156,33.691,40.527,0
9500.421,22.461,36.133,27.344,30.273,44.434,0
9500.425,24.902,40.527,25.391,26.367,32.715,0
9500.428,28.809,41.504,27.344,23.438,35.156,0
9500.432,38.086,40.527,25.879,26.855,48.828,0
9500.436,42.969,37.598,26.855,31.738,55.176,0
9500.440,34.668,37.598,30.762,29.785,44.434,0
9500.444,35.156,43.457,34.668,29.297,39.551,0
9500.448,38.574,40.527,33.203,26.855,48.828,0
9500.452,39.062,37.109,27.832,25.879,52.734,0
9500.456,43.457,40.039,20.508,28.320,49.316,0
9500.460,39.062,40.039,29.297,30.273,42.969,0
9500.464,38.574,41.016,37.109,32.715,51.758,0
9500.467,38.086,41.016,34.668,29.297,62.988,0
9500.471,35.156,39.062,33.691,22.461,55.176,0
9500.475,26.855,34.180,35.645,21.484,42.480,0
9500.479,20.996,36.621,39.551,28.320,55.176,0
9500.483,21.973,36.621,38.574,27.832,71.289,0
9500.487,26.855,35.156,38.574,22.949,64.453,0
9500.491,32.227,37.598,40.039,26.855,49.316,0
9500.495,32.715,40.039,36.621,27.832,41.504,0
9500.499,40.039,40.527,37.598,26.855,51.758,0
9500.503,38.574,36.621,35.645,26.367,55.664,0
9500.507,31.738,36.621,35.645,26.367,39.551,0
9500.510,31.250,38.086,27.832,25.879,26.855,0
9500.514,38.086,36.621,17.578,25.879,40.527,0
9500.518,39.551,39.062,26.855,24.902,58.105,0
9500.522,27.832,38.086,33.691,26.855,61.523,0
9500.526,29.297,36.621,37.109,33.691,54.199,0
9500.530,36.621,38.574,41.016,37.598,58.594,0
9500.534,33.691,39.062,41.016,39.062,66.406,0
9500.538,28.320,37.598,44.922,38.086,65.918,0
9500.542,20.996,33.691,44.922,31.738,54.199,0
9500.546,16.602,30.762,34.668,28.320,42.480,0
9500.550,20.020,28.809,33.691,26.855,44.434,0
9500.553,24.902,30.273,35.645,28.320,44.922,0
9500.557,25.879,28.809,33.691,27.832,34.668,0
9500.561,25.391,28.809,36.133,24.902,29.785,0
9500.565,27.832,32.715,39.551,25.391,41.016,0
9500.569,31.250,34.668,41.016,28.320,51.270,0
9500.573,29.785,37.598,40.527,30.273,45.410,0
9500.577,26.855,37.109,37.598,19.531,39.551,0
9500.581,31.250,34.668,37.109,21.484,49.805,0
9500.585,36.621,31.738,40.039,28.320,59.570,0
9500.589,35.645,31.738,40.039,28.809,61.523,0
9500.592,31.250,30.273,43.945,27.832,46.875,0
9500.596,29.297,31.250,50.293,21.484,37.598,0
9500.600,28.809,36.133,45.898,20.020,40.039,0
9500.604,28.320,37.109,40.039,21.484,45.410,0
9500.608,31.738,39.062,49.316,27.832,58.594,0
9500.612,30.762,40.039,46.875,29.297,62.012,0
9500.616,29.785,38.574,36.133,24.902,59.570,0
9500.620,34.180,40.527,42.969,30.273,66.895,0
9500.624,33.203,39.551,47.363,30.762,63.965,0
9500.628,29.297,36.621,46.875,27.832,63.477,0
9500.632,32.715,37.109,50.781,29.785,81.543,0
9500.635,38.574,35.645,49.805,26.367,90.332,0
9500.639,41.504,35.156,48.828,28.809,83.984,0
9500.643,35.645,35.156,45.898,32.715,72.754,0
9500.647,38.086,37.109,43.457,35.645,83.496,0
9500.651,46.387,38.086,50.293,35.156,96.680,0
9500.655,40.527,37.598,50.293,29.785,79.590,0
9500.659,36.133,37.598,46.875,29.297,58.594,0
9500.663,37.598,35.156,46.875,25.391,60.547,0
9500.667,40.527,40.527,50.781,27.832,78.125,0
9500.671,39.551,43.457,49.805,31.250,83.008,0
9500.675,31.738,40.527,41.992,25.391,66.406,0
9500.678,26.367,38.574,44.434,24.414,56.152,0
9500.682,31.738,37.109,52.734,31.250,67.383,0
9500.686,33.203,38.086,59.082,34.180,78.125,0
9500.690,32.227,38.574,62.012,31.250,63.965,0
9500.694,34.180,39.062,57.617,32.227,46.875,0
9500.698,38.086,42.969,50.781,35.156,51.758,0
9500.702,39.551,41.992,48.340,33.691,55.664,0
9500.706,37.109,41.992,47.852,30.273,48.340,0
9500.710,37.598,42.969,43.457,28.320,40.527,0
9500.714,31.738,36.133,41.504,27.344,45.410,0
9500.717,27.832,32.715,42.969,27.832,58.594,0
9500.721,28.809,33.691,40.527,27.344,60.059,0
9500.725,33.203,37.109,41.504,26.855,54.199,0
9500.729,37.109,37.598,41.016,24.414,54.199,0
9500.733,41.016,33.203,38.086,26.367,66.406,0
9500.737,34.668,34.180,37.598,28.320,65.918,0
9500.741,33.691,37.109,40.039,30.762,53.223,0
9500.745,40.527,38.574,41.504,34.180,58.594,0
9500.749,35.156,39.062,39.551,31.738,66.895,0
9500.753,29.297,39.062,36.621,27.832,67.383,0
9500.757,25.879,39.062,38.574,24.902,60.059,0
9500.760,30.762,44.922,50.781,27.344,59.570,0
9500.764,33.203,42.969,43.457,28.320,71.777,0
9500.768,24.414,36.133,30.762,21.973,70.801,0
9500.772,23.926,38.574,39.062,23.926,59.082,0
9500.776,29.785,38.574,42.969,30.273,52.246,0
9500.780,32.227,35.645,43.457,30.762,54.199,0
9500.784,35.645,38.086,42.969,30.762,64.453,0
9500.788,33.203,40.039,44.434,30.273,62.988,0
9500.792,27.832,36.133,42.969,27.344,43.945,0
9500.796,28.809,32.715,43.457,28.809,39.062,0
9500.800,29.297,33.691,43.945,29.297,48.828,0
9500.803,32.715,36.133,40.527,29.785,50.781,0
9500.807,39.062,37.598,41.992,33.691,41.992,0
9500.811,37.598,40.527,42.480,36.133,42.480,0
9500.815,37.598,42.480,41.992,39.551,52.246,0
9500.819,50.293,46.387,45.410,41.504,66.895,0
9500.823,45.410,44.922,42.480,34.180,56.152,0
9500.827,36.621,43.457,38.574,32.227,39.062,0
9500.831,42.969,43.945,39.062,37.598,51.758,0
9500.835,45.898,39.551,40.527,39.062,58.105,0
9500.839,47.852,37.109,35.156,37.109,49.805,0
9500.842,45.410,36.621,23.926,37.109,40.527,0
9500.846,40.039,34.668,25.879,34.180,42.480,0
9500.850,35.645,31.250,28.320,25.879,43.945,0
9500.854,36.621,33.203,30.273,28.809,39.551,0
9500.858,33.691,36.133,32.715,25.879,22.461,0
9500.862,29.785,33.203,26.855,17.578,16.113,0
9500.866,36.133,34.668,26.855,25.391,39.062,0
9500.870,43.945,39.062,26.855,32.715,49.805,0
9500.874,43.945,39.062,26.367,33.691,40.039,0
9500.878,35.156,36.133,28.809,30.762,30.273,0
9500.882,35.156,37.109,30.762,28.320,35.645,0
9500.885,40.039,36.621,28.320,23.926,38.574,0
9500.889,38.574,36.621,24.902,22.461,26.367,0
9500.893,34.180,40.039,29.297,26.367,18.066,0
9500.897,30.762,37.598,33.203,26.367,27.344,0
9500.901,36.621,38.086,32.715,27.344,44.922,0
9500.905,38.086,40.039,35.156,30.762,46.387,0
9500.909,33.691,41.504,35.156,34.180,36.621,0
9500.913,33.203,44.434,32.715,32.227,38.574,0
9500.917,35.156,41.992,33.691,28.809,49.316,0
9500.921,34.668,38.086,36.133,29.297,51.270,0
9500.925,28.809,38.574,38.086,23.438,35.156,0
9500.928,29.297,41.016,26.855,20.996,36.621,0
9500.932,34.668,40.039,29.785,25.879,53.711,0
9500.936,30.762,37.109,39.551,23.438,53.223,0
9500.940,21.973,35.645,34.668,24.414,41.016,0
9500.944,24.902,37.598,31.250,28.809,30.762,0
9500.948,34.668,39.551,33.203,30.273,40.039,0
9500.952,36.133,39.062,33.203,27.344,53.711,0
9500.956,29.785,36.621,28.809,20.508,40.039,0
9500.960,28.320,36.133,31.250,23.438,25.391,0
9500.964,28.809,33.691,32.715,24.902,34.668,0
9500.967,33.203,31.738,28.809,23.438,43.457,0
9500.971,33.203,31.738,30.762,20.996,35.156,0
9500.975,19.043,30.762,31.250,14.160,20.996,0
9500.979,21.484,29.785,29.785,17.578,25.391,0
9500.983,29.785,31.738,28.320,20.996,39.062,0
9500.987,31.738,34.668,30.273,18.555,43.945,0
9500.991,28.320,30.762,33.203,13.184,33.203,0
9500.995,23.438,28.809,35.645,12.695,20.020,0
9500.999,20.996,29.297,36.621,12.207,21.484,0
9501.003,15.625,30.762,34.668,12.207,25.391,0
9501.007,18.066,33.203,41.504,14.648,24.414,0
9501.010,17.578,33.691,39.551,10.742,19.531,0
9501.014,17.578,36.133,35.156,16.113,30.273,0
9501.018,23.438,37.109,34.180,23.438,40.039,0
9501.022,26.367,37.109,34.180,25.391,37.109,0
9501.026,25.391,38.574,36.621,27.344,32.227,0
9501.030,24.902,40.039,33.691,27.344,36.133,0
9501.034,26.855,37.598,32.715,25.391,45.898,0
9501.038,29.785,33.203,36.133,27.344,53.223,0
9501.042,29.297,35.645,37.109,30.273,45.410,0
9501.046,25.391,38.574,37.598,24.902,38.574,0
9501.050,21.484,34.180,34.668,24.902,42.969,0
9501.053,20.996,27.344,31.250,26.855,44.434,0
9501.057,23.438,30.273,33.691,28.320,34.180,0
9501.061,27.344,37.109,37.109,33.691,32.227,0
9501.065,28.809,40.039,33.203,27.344,43.945,0
9501.069,35.645,38.574,31.250,24.414,52.734,0
9501.073,36.621,37.109,33.691,26.367,47.363,0
9501.077,30.273,38.574,37.598,29.297,39.551,0
9501.081,32.227,37.109,37.109,31.250,47.852,0
9501.085,38.086,37.109,36.133,31.250,62.012,0
9501.089,31.738,37.109,36.621,32.227,67.871,0
9501.092,21.484,33.691,26.367,30.762,44.922,0
9501.096,24.902,34.180,31.738,34.668,33.691,0
9501.100,34.668,34.668,37.598,32.227,50.781,0
9501.104,29.785,32.715,32.715,25.391,47.363,0
9501.108,18.555,29.297,36.133,29.785,34.180,0
9501.112,21.484,27.832,36.621,32.715,33.203,0
9501.116,26.367,29.297,29.785,32.715,47.852,0
9501.120,32.227,33.203,29.297,31.250,58.594,0
9501.124,32.227,30.273,31.738,24.902,44.922,0
9501.128,25.391,29.297,30.762,22.949,34.668,0
9501.132,25.391,32.715,28.320,24.414,44.922,0
9501.135,29.785,34.180,32.715,28.320,58.105,0
9501.139,31.250,36.133,38.574,26.855,47.852,0
9501.143,28.320,36.621,38.574,20.996,34.180,0
9501.147,31.250,36.621,32.227,20.020,38.086,0
9501.151,35.645,37.109,33.203,23.926,45.898,0
9501.155,35.156,40.039,40.527,29.297,46.387,0
9501.159,32.227,41.016,40.039,29.297,34.668,0
9501.163,32.715,41.504,38.086,26.855,34.668,0
9501.167,32.715,41.016,39.551,26.855,42.969,0
9501.171,34.668,41.016,41.504,27.832,42.969,0
9501.175,34.668,42.480,41.016,28.809,35.156,0
9501.178,28.320,41.504,33.203,27.344,34.180,0
9501.182,32.715,40.039,31.250,26.855,48.340,0
9501.186,41.504,37.109,32.227,25.879,59.570,0
9501.190,43.457,36.133,28.320,26.855,56.152,0
9501.194,37.598,36.621,27.344,24.414,47.363,0
9501.198,32.227,29.785,25.391,16.113,46.387,0
9501.202,32.715,27.344,18.066,18.555,44.922,0
9501.206,32.715,30.762,17.090,19.043,25.879,0
9501.210,33.691,34.180,27.832,20.508,13.672,0
9501.214,35.156,37.109,28.809,25.391,26.367,0
9501.217,37.109,40.039,24.902,26.367,38.574,0
9501.221,39.062,40.039,27.832,29.297,39.551,0
9501.225,30.273,33.691,23.926,24.414,30.273,0
9501.229,31.250,33.691,26.367,24.902,40.527,0
9501.233,37.109,38.574,31.250,23.926,57.617,0
9501.237,34.180,37.598,30.273,21.484,55.176,0
9501.241,37.598,38.574,34.668,29.785,46.387,0
9501.245,37.109,39.062,35.645,34.180,45.410,0
9501.249,38.086,39.062,39.551,33.691,55.664,0
9501.253,40.039,40.039,38.086,29.297,48.340,0
9501.257,38.574,41.504,33.691,29.297,34.668,0
9501.260,35.156,45.410,34.668,32.227,29.785,0
9501.264,34.668,43.457,34.668,30.273,37.109,0
9501.268,39.062,39.551,35.156,32.715,46.875,0
9501.272,37.109,40.039,35.645,28.320,42.969,0
9501.276,32.715,40.039,37.109,28.320,39.062,0
9501.280,33.691,39.062,36.133,31.738,44.434,0
9501.284,36.133,40.527,35.645,28.809,54.199,0
9501.288,40.527,44.922,34.180,28.809,58.105,0
9501.292,37.109,43.457,32.715,24.902,40.039,0
9501.296,34.180,42.969,33.691,25.879,32.715,0
9501.300,36.133,42.480,29.297,28.320,41.016,0
9501.303,34.668,38.574,28.320,26.855,43.457,0
9501.307,32.715,40.527,30.762,31.250,37.109,0
9501.311,30.762,38.574,26.855,32.227,32.227,0
9501.315,32.715,33.203,26.855,27.344,42.480,0
9501.319,36.133,33.691,25.391,23.438,44.922,0
9501.323,35.156,36.621,32.715,24.414,39.551,0
9501.327,28.320,32.715,32.715,21.973,27.832,0
9501.331,22.461,29.297,25.879,15.625,31.738,0
9501.335,21.973,31.250,25.879,17.090,44.922,0
9501.339,18.555,27.832,20.020,14.160,34.668,0
9501.342,17.090,27.832,23.926,18.066,25.879,0
9501.346,14.648,27.832,21.973,19.043,26.367,0
9501.350,15.625,31.738,18.555,16.113,34.180,0
9501.354,23.926,38.574,24.902,19.043,33.691,0
9501.358,23.926,41.016,22.461,18.555,20.996,0
9501.362,24.414,35.645,20.996,18.066,27.344,0
9501.366,25.879,29.297,22.461,20.508,41.504,0
9501.370,23.926,31.250,22.461,20.508,46.387,0
9501.374,22.949,34.180,23.438,17.090,36.133,0
9501.378,21.973,41.504,25.391,21.484,25.879,0
9501.382,31.738,45.898,28.809,25.391,41.016,0
9501.385,32.715,41.504,26.367,19.043,49.316,0
9501.389,27.832,41.992,24.902,20.508,37.109,0
9501.393,25.391,39.062,24.902,23.438,32.715,0
9501.397,28.320,36.133,24.902,26.855,42.969,0
9501.401,33.691,41.016,27.344,32.227,53.223,0
9501.405,32.227,41.016,27.344,31.738,48.828,0
9501.409,34.668,34.668,20.020,27.832,35.156,0
9501.413,34.180,32.227,20.020,26.367,35.156,0
9501.417,39.062,36.621,28.320,35.156,55.176,0
9501.421,46.387,40.039,33.691,34.668,60.547,0
9501.425,47.363,39.062,32.227,28.320,45.898,0
9501.428,43.945,36.133,25.391,30.762,45.410,0
9501.432,41.504,32.715,23.438,31.250,62.500,0
9501.436,40.527,35.645,26.855,34.668,68.848,0
9501.440,34.668,37.109,27.344,32.227,51.758,0
9501.444,32.227,38.086,28.320,28.809,34.668,0
9501.448,35.645,38.574,29.297,33.203,39.062,0
9501.452,44.434,40.039,32.227,35.645,44.922,0
9501.456,46.387,37.598,35.156,35.645,38.574,0
9501.460,38.086,36.133,36.133,35.645,29.785,0
9501.464,36.133,39.551,35.645,39.062,41.016,0
9501.467,37.598,39.551,36.133,38.086,48.828,0
9501.471,34.668,38.574,34.668,36.133,41.504,0
9501.475,30.273,39.551,33.691,34.668,36.133,0
9501.479,27.344,37.598,31.738,27.832,37.598,0
9501.483,33.691,36.621,29.785,28.809,50.781,0
9501.487,33.203,38.574,29.785,31.738,54.688,0
9501.491,28.809,37.598,28.809,34.668,42.480,0
9501.495,33.203,39.062,28.320,35.645,32.227,0
9501.499,38.086,43.945,33.691,34.180,35.645,0
9501.503,38.574,42.480,25.391,28.809,33.691,0
9501.507,33.203,37.598,15.137,27.344,19.043,0
9501.510,35.645,38.086,35.645,32.227,17.090,0
9501.514,37.598,37.598,40.527,29.785,27.832,0
9501.518,37.109,32.715,29.785,25.391,37.109,0
9501.522,36.621,35.645,33.691,29.785,38.574,0
9501.526,35.156,39.062,34.180,29.785,27.832,0
9501.530,36.133,38.574,31.250,29.297,30.762,0
9501.534,31.738,37.598,29.785,28.320,38.574,0
9501.538,26.855,34.180,26.855,22.949,32.715,0
9501.542,28.809,34.180,25.879,25.879,22.949,0
9501.546,28.809,33.203,25.391,23.438,23.438,0
9501.550,25.879,29.785,27.832,18.066,31.738,0
9501.553,24.902,30.273,33.203,20.996,33.203,0
9501.557,24.414,33.691,35.156,26.367,22.949,0
9501.561,22.949,36.621,33.691,26.367,18.555,0
9501.565,26.367,33.691,31.738,21.484,31.250,0
9501.569,33.691,33.691,34.180,21.484,46.387,0
9501.573,32.227,31.738,34.668,20.508,37.109,0
9501.577,28.809,29.785,24.902,22.461,28.809,0
9501.581,27.344,32.715,18.555,27.832,42.969,0
9501.585,28.809,38.086,29.785,27.832,55.176,0
9501.589,34.180,37.598,36.621,30.762,43.457,0
9501.592,34.180,33.691,34.668,29.297,22.461,0
9501.596,33.691,35.645,34.668,27.344,29.297,0
9501.600,38.574,38.574,36.621,30.762,47.363,0
9501.604,40.039,41.016,42.480,36.621,55.664,0
9501.608,32.227,39.062,43.945,34.668,43.945,0
9501.612,32.715,37.598,37.109,28.809,38.574,0
9501.616,42.480,39.551,31.738,28.809,53.711,0
9501.620,41.992,40.039,33.203,34.180,66.895,0
9501.624,37.598,40.039,40.527,39.062,65.430,0
9501.628,40.039,39.551,42.969,34.668,55.664,0
9501.632,46.387,39.551,47.852,30.762,66.895,0
9501.635,43.945,38.574,52.246,28.320,77.148,0
9501.639,37.598,39.551,49.805,31.250,66.406,0
9501.643,32.715,39.062,47.852,31.250,54.688,0
9501.647,32.227,39.062,49.316,28.320,61.523,0
9501.651,35.645,35.645,47.852,27.344,72.754,0
9501.655,38.086,34.668,50.293,26.367,65.430,0
9501.659,35.645,38.574,60.059,27.344,48.828,0
9501.663,34.668,39.551,63.477,28.809,57.129,0
9501.667,40.039,41.016,63.477,26.855,75.195,0
9501.671,40.039,37.109,61.035,28.809,70.312,0
9501.675,34.668,34.180,60.059,33.203,53.711,0
9501.678,32.227,37.109,62.988,33.203,62.012,0
9501.682,30.273,38.086,63.477,33.691,82.031,0
9501.686,32.227,39.062,56.152,36.133,83.008,0
9501.690,36.621,40.527,49.316,29.297,73.242,0
9501.694,36.621,40.527,48.828,22.949,66.895,0
9501.698,42.480,44.922,55.176,28.809,75.195,0
9501.702,42.480,45.410,52.734,27.832,76.660,0
9501.706,38.086,42.969,39.551,22.949,64.453,0
9501.710,27.344,39.551,36.621,25.879,51.270,0
9501.714,21.484,39.062,42.480,29.785,50.781,0
9501.717,28.320,40.039,44.434,30.762,60.059,0
9501.721,32.715,39.062,41.016,27.344,61.523,0
9501.725,34.180,41.016,42.480,30.273,49.805,0
9501.729,35.645,41.016,35.645,33.203,45.898,0
9501.733,34.180,40.527,36.133,24.414,54.199,0
9501.737,34.668,40.527,48.340,21.484,56.152,0
9501.741,35.645,41.992,53.223,25.879,45.410,0
9501.745,35.645,40.527,56.152,25.879,40.039,0
9501.749,29.785,35.156,49.805,22.461,44.922,0
9501.753,26.367,34.668,46.875,24.414,46.875,0
9501.757,22.949,35.645,45.410,25.879,38.086,0
9501.760,21.973,37.109,44.922,26.367,34.180,0
9501.764,29.785,41.016,46.875,30.273,46.875,0
9501.768,32.227,40.039,43.945,29.785,58.105,0
9501.772,30.273,37.109,40.527,26.855,54.199,0
9501.776,28.809,34.668,40.527,28.809,43.945,0
9501.780,29.297,34.668,39.062,26.367,48.828,0
9501.784,32.227,37.598,40.039,21.484,67.383,0
9501.788,31.250,35.645,43.457,24.414,69.336,0
9501.792,29.297,36.621,39.062,30.762,55.176,0
9501.796,29.297,39.551,36.133,28.320,54.688,0
9501.800,28.809,36.133,34.180,22.461,61.035,0
9501.803,38.574,36.133,37.598,29.297,60.059,0
9501.807,44.922,34.668,41.016,29.785,47.852,0
9501.811,39.062,32.227,40.039,27.344,43.457,0
9501.815,32.715,33.203,40.527,28.320,50.293,0
9501.819,27.832,33.203,36.621,29.785,53.223,0
9501.823,22.461,31.250,31.250,31.738,49.316,0
9501.827,21.973,28.809,38.574,34.180,48.340,0
9501.831,24.902,30.273,38.086,28.809,50.781,0
9501.835,29.785,32.227,36.621,23.438,50.781,0
9501.839,35.156,30.762,41.016,31.250,53.711,0
9501.842,35.156,29.297,42.480,35.645,48.828,0
9501.846,38.086,33.691,41.016,32.227,54.688,0
9501.850,35.645,36.133,38.574,32.227,68.848,0
9501.854,29.785,30.762,29.297,27.832,65.430,0
9501.858,34.668,29.785,28.320,30.273,47.852,0
9501.862,35.156,34.180,29.297,33.691,41.992,0
9501.866,30.762,36.621,23.926,32.715,57.129,0
9501.870,27.344,37.109,21.484,29.297,56.641,0
9501.874,23.926,33.203,18.555,22.949,40.039,0
9501.878,24.414,30.273,20.996,25.879,41.992,0
9501.882,24.902,28.320,20.996,23.438,51.270,0
9501.885,26.855,30.762,15.137,18.555,58.594,0
9501.889,27.344,38.086,21.484,9.766,52.246,0
9501.893,23.438,38.086,22.461,3.418,34.180,0
9501.897,23.438,36.621,20.996,10.254,39.062,0
9501.901,22.949,35.645,27.344,14.648,46.875,0
9501.905,24.902,38.086,31.738,16.602,34.180,0
9501.909,23.926,40.039,33.203,14.160,19.531,0
9501.913,23.438,39.551,30.273,12.695,20.996,0
9501.917,30.273,40.527,34.180,19.043,39.062,0
9501.921,32.227,40.527,33.691,22.461,48.340,0
9501.925,27.344,39.551,22.949,20.020,36.133,0
9501.928,26.367,36.133,17.090,20.508,32.715,0
9501.932,37.109,34.180,21.973,25.879,47.852,0
9501.936,40.527,37.109,26.367,28.320,50.293,0
9501.940,36.621,38.574,23.438,27.344,33.203,0
9501.944,34.668,39.062,27.344,23.926,28.320,0
9501.948,34.180,38.086,28.320,18.555,41.016,0
9501.952,33.691,34.668,25.879,18.066,51.270,0
9501.956,35.156,36.621,25.879,20.508,40.039,0
9501.960,33.203,39.062,22.949,22.949,23.438,0
9501.964,30.762,37.598,21.484,28.809,35.645,0
9501.967,31.738,37.109,21.484,24.414,48.340,0
9501.971,27.344,39.551,26.367,17.578,33.203,0
9501.975,23.926,39.062,22.461,20.020,13.672,0
9501.979,27.832,37.109,21.484,27.832,22.949,0
9501.983,31.250,35.156,31.738,26.367,38.086,0
9501.987,34.180,31.250,33.691,21.973,35.645,0
9501.991,35.645,31.738,34.668,22.949,22.461,0
9501.995,31.738,35.156,34.668,25.391,23.926,0
9501.999,35.156,39.551,34.668,30.762,44.922,0
9502.003,37.598,39.062,37.598,28.809,48.828,0
9502.007,33.691,33.203,36.133,28.809,30.273,0
9502.010,25.879,28.320,31.250,30.273,18.066,0
9502.014,24.902,30.762,31.250,26.855,30.762,0
9502.018,30.273,38.574,35.645,29.785,45.898,0
9502.022,28.320,36.621,34.668,28.320,38.086,0
9502.026,23.438,32.227,30.273,24.902,28.320,0
9502.030,26.855,32.227,25.879,25.879,35.156,0
9502.034,29.785,32.227,28.320,28.320,49.316,0
9502.038,28.320,36.133,32.715,27.832,49.805,0
9502.042,29.785,37.109,30.762,31.738,34.180,0
9502.046,34.668,36.133,27.344,38.574,29.785,0
9502.050,34.180,37.598,23.926,32.715,38.574,0
9502.053,34.180,39.062,27.832,32.227,42.480,0
9502.057,29.297,36.621,30.273,35.645,31.738,0
9502.061,23.926,35.156,30.762,29.785,21.484,0
9502.065,27.832,41.504,24.902,25.391,35.156,0
9502.069,30.273,43.945,19.043,25.391,48.340,0
9502.073,33.203,41.016,33.691,30.762,46.387,0
9502.077,37.109,41.016,41.504,32.227,43.457,0
9502.081,31.738,39.062,37.598,23.926,45.898,0
9502.085,31.250,37.598,35.156,22.949,58.105,0
9502.089,34.668,41.016,30.762,28.320,62.988,0
9502.092,29.297,41.992,29.785,31.738,56.152,0
9502.096,23.926,40.527,30.762,31.250,59.570,0
9502.100,24.902,41.016,27.344,29.297,63.965,0
9502.104,27.344,41.992,25.879,28.320,54.199,0
9502.108,20.996,38.574,22.461,23.926,34.668,0
9502.112,18.066,38.574,16.602,21.484,35.645,0
9502.116,22.461,39.551,19.531,22.949,55.664,0
9502.120,30.273,39.062,25.391,23.438,64.453,0
9502.124,33.691,41.016,28.320,24.902,51.758,0
9502.128,32.227,40.039,31.738,29.785,44.434,0
9502.132,33.203,38.086,38.086,29.785,59.570,0
9502.135,34.180,37.109,36.133,24.902,66.406,0
9502.139,31.738,36.133,31.738,24.902,53.711,0
9502.143,29.785,41.992,28.320,25.391,41.504,0
9502.147,31.738,44.434,28.809,25.391,46.875,0
9502.151,34.668,42.480,29.785,25.879,58.105,0
9502.155,36.133,41.992,25.879,26.855,44.434,0
9502.159,33.691,40.039,28.320,26.855,25.391,0
9502.163,32.227,37.598,27.344,24.414,31.738,0
9502.167,35.156,40.527,22.949,27.344,50.781,0
9502.171,32.715,40.527,25.391,20.508,49.805,0
9502.175,27.344,39.551,27.832,17.090,32.227,0
9502.178,32.715,42.969,27.832,24.902,36.621,0
9502.182,36.621,43.945,28.809,29.785,54.688,0
9502.186,36.133,47.363,28.320,31.738,58.594,0
9502.190,38.574,46.875,28.809,32.227,44.922,0
9502.194,34.180,41.504,28.809,32.227,36.133,0
9502.198,30.273,38.086,25.391,31.738,45.898,0
9502.202,34.668,38.574,23.926,31.250,53.711,0
9502.206,34.180,41.992,26.367,33.203,46.875,0
9502.210,33.203,41.992,28.809,35.645,33.691,0
9502.214,40.039,43.457,31.250,36.621,44.434,0
9502.217,44.922,45.898,29.785,34.668,58.594,0
9502.221,45.410,46.387,29.785,37.109,61.523,0
9502.225,48.340,47.852,33.691,40.039,51.758,0
9502.229,45.410,42.969,34.668,35.645,47.852,0
9502.233,39.062,36.621,33.691,35.156,53.223,0
9502.237,40.527,39.551,35.645,42.480,50.293,0
9502.241,41.016,40.039,37.598,41.992,43.945,0
9502.245,37.109,40.039,38.086,37.109,39.062,0
9502.249,36.133,41.992,32.227,33.203,47.363,0
9502.253,36.621,41.504,18.066,33.691,53.711,0
9502.257,36.133,42.969,21.973,32.715,35.156,0
9502.260,41.992,44.922,42.480,39.551,35.156,0
9502.264,43.457,41.016,50.781,41.504,53.223,0
9502.268,41.504,38.086,46.387,33.691,59.082,0
9502.272,35.645,35.645,49.316,33.691,61.035,0
9502.276,27.832,31.738,46.387,29.785,58.105,0
9502.280,30.273,33.203,43.457,31.738,74.219,0
9502.284,31.250,34.180,41.016,30.273,82.031,0
9502.288,32.715,30.273,32.227,27.832,59.082,0
9502.292,35.645,28.809,30.762,30.762,37.598,0
9502.296,38.086,33.691,36.133,35.156,44.434,0
9502.300,37.598,35.645,39.551,33.691,40.527,0
9502.303,38.086,34.180,33.691,25.391,12.695,0
9502.307,36.621,34.180,38.086,31.738,4.883,0
9502.311,30.762,34.668,41.016,33.691,6.348,0
9502.315,33.203,37.109,35.156,28.809,22.949,0
9502.319,34.668,35.645,31.250,24.902,41.992,0
9502.323,30.273,35.156,26.855,18.555,35.645,0
9502.327,31.250,33.203,26.855,20.508,24.414,0
9502.331,30.273,27.832,29.785,22.461,37.598,0
9502.335,30.273,28.320,29.785,23.438,53.223,0
9502.339,28.809,30.273,22.949,24.902,49.316,0
9502.342,25.879,33.203,19.043,23.926,38.574,0
9502.346,29.297,34.668,27.832,32.715,44.922,0
9502.350,36.621,38.086,31.250,35.645,51.758,0
9502.354,41.992,39.062,37.598,37.598,50.293,0
9502.358,39.062,37.598,35.645,36.133,42.969,0
9502.362,31.738,37.109,26.855,28.809,35.645,0
9502.366,32.715,40.527,31.250,34.180,49.316,0
9502.370,40.039,46.387,32.227,39.551,60.547,0
9502.374,35.645,43.945,26.367,36.621,57.129,0
9502.378,30.762,37.598,24.902,32.715,55.664,0
9502.382,36.133,32.227,26.855,35.156,63.965,0
9502.385,41.504,34.668,27.344,35.645,65.430,0
9502.389,42.969,38.086,25.879,34.180,56.152,0
9502.393,41.016,38.086,29.785,36.621,48.828,0
9502.397,43.945,38.574,31.250,36.621,55.176,0
9502.401,40.527,36.621,27.344,36.621,64.941,0
9502.405,33.203,35.156,27.344,40.527,53.223,0
9502.409,31.738,40.527,29.297,38.086,36.621,0
9502.413,32.715,47.852,32.715,32.227,42.969,0
9502.417,28.809,44.434,24.414,28.320,51.758,0
9502.421,22.949,38.574,24.902,27.832,42.969,0
9502.425,18.066,39.062,34.668,27.832,26.855,0
9502.428,25.391,43.457,36.133,29.297,30.762,0
9502.432,29.785,47.363,38.086,28.809,46.387,0
9502.436,22.949,43.457,39.062,27.832,48.828,0
9502.440,26.367,41.016,40.527,33.203,45.898,0
9502.444,30.762,41.992,35.645,34.180,40.039,0
9502.448,30.762,44.434,29.297,34.180,45.410,0
9502.452,30.762,43.457,27.832,28.320,47.852,0
9502.456,29.785,40.039,28.320,27.344,37.598,0
9502.460,24.414,38.086,26.367,32.715,32.715,0
9502.464,24.414,37.109,23.926,30.762,40.039,0
9502.467,29.785,40.039,27.344,27.832,48.828,0
9502.471,33.203,41.992,31.738,26.855,45.410,0
9502.475,31.250,41.504,30.273,24.414,27.344,0
9502.479,30.273,37.109,29.785,23.926,24.902,0
9502.483,34.668,35.645,33.203,26.367,41.992,0
9502.487,36.621,37.598,32.715,27.344,48.340,0
9502.491,30.762,36.133,23.438,22.461,33.203,0
9502.495,29.785,38.086,25.391,23.926,29.297,0
9502.499,31.738,38.086,35.645,27.344,45.410,0
9502.503,28.809,35.645,30.762,27.344,45.898,0
9502.507,24.414,39.551,34.668,25.879,31.738,0
9502.510,20.020,41.016,36.133,20.996,16.602,0
9502.514,24.902,38.086,33.203,21.973,20.508,0
9502.518,33.691,35.156,31.250,22.949,33.203,0
9502.522,31.250,35.645,28.320,23.438,34.668,0
9502.526,23.438,37.109,33.691,21.973,32.227,0
9502.530,27.832,38.086,35.645,22.461,45.410,0
9502.534,33.691,40.039,33.691,27.344,63.965,0
9502.538,36.621,38.574,30.273,25.391,64.453,0
9502.542,39.062,39.062,33.203,31.738,52.246,0
9502.546,35.645,40.527,35.156,30.273,42.969,0
9502.550,34.180,40.039,34.180,28.809,45.410,0
9502.553,34.668,36.133,37.109,34.180,45.898,0
9502.557,27.344,33.203,36.621,28.320,32.715,0
9502.561,23.438,36.621,34.668,28.320,31.250,0
9502.565,27.344,35.156,35.645,31.250,45.898,0
9502.569,27.832,33.691,33.691,30.273,49.805,0
9502.573,27.832,33.203,20.996,27.344,41.016,0
9502.577,24.902,34.180,19.043,19.043,33.203,0
9502.581,24.414,38.086,25.879,20.020,43.457,0
9502.585,31.250,36.133,29.785,22.949,56.641,0
9502.589,36.133,34.668,33.203,23.926,54.688,0
9502.592,31.250,36.621,29.785,23.438,44.922,0
9502.596,29.297,36.621,23.438,26.367,50.781,0
9502.600,38.574,37.109,30.762,33.691,64.941,0
9502.604,36.621,38.086,31.250,28.809,48.340,0
9502.608,34.180,39.551,29.785,27.832,27.832,0
9502.612,34.180,40.039,29.297,24.414,24.902,0
9502.616,33.691,39.551,27.832,22.461,37.598,0
9502.620,37.109,39.551,31.250,20.996,49.805,0
9502.624,37.598,43.945,28.320,20.020,42.480,0
9502.628,31.738,47.852,23.438,16.602,34.668,0
9502.632,34.668,45.410,29.785,18.066,46.387,0
9502.635,41.016,46.387,34.180,26.367,62.988,0
9502.639,35.156,44.922,25.391,26.367,53.711,0
9502.643,27.832,38.086,28.809,24.902,38.086,0
9502.647,29.785,34.668,36.133,27.832,51.270,0
9502.651,33.203,34.668,35.645,32.227,60.547,0
9502.655,34.668,37.598,34.180,32.715,54.199,0
9502.659,36.621,39.551,29.297,32.227,40.527,0
9502.663,30.762,37.598,29.785,29.297,40.039,0
9502.667,30.273,39.062,33.203,22.949,54.199,0
9502.671,28.809,41.992,34.180,23.438,56.152,0
9502.675,15.137,37.598,30.273,18.555,40.527,0
9502.678,12.695,33.203,28.320,17.578,33.203,0
9502.682,28.809,37.109,30.762,21.484,53.711,0
9502.686,28.809,39.551,34.668,17.578,59.570,0
9502.690,22.949,39.551,34.180,14.160,41.016,0
9502.694,30.273,41.504,35.645,22.461,41.016,0
9502.698,30.762,39.062,40.527,23.438,53.711,0
9502.702,30.762,35.645,39.551,22.461,60.059,0
9502.706,32.715,37.109,35.645,23.926,51.270,0
9502.710,32.227,40.527,39.551,25.879,40.039,0
9502.714,31.738,39.062,41.992,25.879,47.363,0
9502.717,31.250,34.668,37.109,22.949,54.688,0
9502.721,31.738,33.203,39.551,26.367,51.270,0
9502.725,27.344,32.227,47.852,32.227,46.387,0
9502.729,30.273,33.203,57.129,37.109,57.129,0
9502.733,37.598,36.621,56.641,33.203,75.195,0
9502.737,38.086,35.156,51.758,32.715,70.312,0
9502.741,38.574,33.203,48.828,34.180,58.594,0
9502.745,36.133,35.156,44.434,31.250,52.246,0
9502.749,34.180,37.109,43.945,30.762,51.758,0
9502.753,35.645,35.645,42.969,29.297,54.688,0
9502.757,32.715,32.227,49.316,30.273,48.828,0
9502.760,31.250,31.250,46.875,32.715,37.109,0
9502.764,35.156,31.250,39.551,31.250,43.457,0
9502.768,39.062,35.156,49.316,29.785,54.688,0
9502.772,38.086,37.598,52.246,28.320,50.293,0
9502.776,38.086,36.133,50.293,34.180,48.340,0
9502.780,39.551,35.645,50.293,33.203,49.805,0
9502.784,36.621,34.668,52.734,30.273,60.059,0
9502.788,37.109,37.109,56.641,34.668,66.895,0
9502.792,34.180,37.109,52.246,32.715,46.387,0
9502.796,35.156,35.156,43.945,26.855,39.062,0
9502.800,35.156,33.203,43.457,24.414,48.828,0
9502.803,33.203,32.227,43.457,29.297,51.270,0
9502.807,29.297,33.203,39.062,27.832,26.855,0
9502.811,22.949,31.738,36.621,20.020,2.930,0
9502.815,23.926,31.738,38.574,22.461,20.996,0
9502.819,24.902,29.297,38.574,24.414,33.691,0
9502.823,27.344,30.273,43.945,35.156,38.086,0
9502.827,29.785,30.762,52.246,40.039,38.086,0
9502.831,31.738,26.367,44.922,29.785,40.527,0
9502.835,34.180,30.273,36.133,29.785,50.781,0
9502.839,33.691,33.203,38.574,30.762,39.062,0
9502.842,29.785,30.273,42.480,31.250,29.785,0
9502.846,30.273,29.297,40.527,35.645,42.480,0
9502.850,35.645,31.738,38.574,39.062,57.129,0
9502.854,34.668,31.738,40.527,41.016,55.176,0
9502.858,34.180,31.738,43.457,41.992,43.457,0
9502.862,38.086,33.691,47.363,41.992,45.410,0
9502.866,36.621,32.227,47.852,37.109,52.734,0
9502.870,35.645,32.715,45.898,35.645,54.199,0
9502.874,31.250,31.738,45.410,34.180,39.551,0
9502.878,28.320,31.250,40.527,32.227,32.227,0
9502.882,33.203,35.645,38.086,31.250,47.852,0
9502.885,31.738,33.203,46.387,24.414,50.293,0
9502.889,28.809,30.762,47.852,25.391,38.086,0
9502.893,28.809,31.738,43.457,30.273,30.273,0
9502.897,29.785,32.715,41.992,29.785,38.574,0
9502.901,30.762,33.691,42.480,32.227,50.781,0
9502.905,23.438,29.785,40.527,27.832,49.316,0
9502.909,18.555,30.762,38.574,22.949,34.668,0
9502.913,14.648,31.738,41.992,22.461,29.785,0
9502.917,17.578,32.715,45.410,25.879,44.434,0
9502.921,21.484,34.180,42.969,28.320,44.922,0
9502.925,16.602,27.832,40.527,25.879,25.391,0
9502.928,18.066,25.391,40.039,24.902,19.043,0
9502.932,26.367,29.785,38.574,21.973,34.180,0
9502.936,28.809,30.762,40.039,21.973,46.875,0
9502.940,20.508,29.297,37.598,21.484,36.133,0
9502.944,19.531,34.668,39.551,20.996,29.785,0
9502.948,26.855,34.668,43.945,24.414,34.668,0
9502.952,27.344,32.715,38.086,23.926,38.086,0
9502.956,25.391,39.551,37.109,19.531,39.062,0
9502.960,28.809,44.434,41.504,21.484,26.367,0
9502.964,30.273,42.480,40.527,25.391,29.297,0
9502.967,31.250,36.621,44.434,26.855,46.387,0
9502.971,33.203,32.227,45.410,28.809,48.340,0
9502.975,31.738,33.203,45.898,34.180,45.410,0
9502.979,27.832,31.250,48.340,29.297,44.922,0
9502.983,30.762,27.344,42.480,29.297,51.758,0
9502.987,31.738,32.227,35.645,31.250,51.758,0
9502.991,26.367,36.621,29.785,24.902,36.133,0
9502.995,24.902,36.621,28.809,25.879,28.809,0
9502.999,27.344,32.715,23.926,22.461,37.598,0
9503.003,29.297,33.203,32.715,24.902,48.828,0
9503.007,22.461,27.832,44.922,31.738,39.551,0
9503.010,23.926,27.344,44.922,28.320,31.250,0
9503.014,29.785,31.738,39.551,22.949,45.898,0
9503.018,27.832,27.832,35.645,22.461,51.758,0
9503.022,26.855,26.855,37.598,28.809,39.062,0
9503.026,25.391,31.250,33.203,31.738,32.715,0
9503.030,28.320,34.668,28.809,29.785,38.574,0
9503.034,29.785,32.715,31.738,24.902,38.574,0
9503.038,29.297,30.762,31.250,20.996,31.738,0
9503.042,21.973,32.227,32.227,29.297,20.020,0
9503.046,16.113,35.156,34.668,35.156,22.461,0
9503.050,20.020,35.156,32.227,23.926,35.156,0
9503.053,24.902,37.109,36.133,20.020,37.109,0
9503.057,25.879,38.574,37.109,23.438,24.414,0
9503.061,26.855,36.133,35.156,21.973,17.090,0
9503.065,27.344,36.133,33.203,22.949,31.250,0
9503.069,26.855,37.598,33.203,22.949,49.316,0
9503.073,29.785,34.668,34.668,19.531,43.457,0
9503.077,28.320,34.668,31.738,22.949,27.344,0
9503.081,29.785,38.574,31.738,29.297,40.039,0
9503.085,35.156,39.551,34.180,31.738,56.641,0
9503.089,31.738,34.668,34.668,25.391,48.340,0
9503.092,32.227,30.273,34.180,24.902,32.715,0
9503.096,38.086,33.691,37.109,33.203,41.504,0
9503.100,43.945,36.621,37.598,31.250,58.105,0
9503.104,44.922,41.504,35.156,31.250,57.617,0
9503.108,31.738,41.016,34.668,28.809,39.551,0
9503.112,26.855,37.109,32.227,22.461,32.227,0
9503.116,36.133,41.504,31.250,27.832,48.828,0
9503.120,43.457,44.434,32.227,37.598,62.012,0
9503.124,34.668,44.922,32.715,32.227,47.852,0
9503.128,18.066,41.016,34.668,20.020,27.832,0
9503.132,18.555,38.574,36.621,19.531,33.691,0
9503.135,28.320,37.109,37.109,23.438,48.828,0
9503.139,36.133,41.992,36.133,25.879,53.711,0
9503.143,39.062,45.898,33.691,27.344,48.828,0
9503.147,37.598,39.551,35.156,26.855,59.570,0
9503.151,39.551,38.574,36.621,26.855,73.730,0
9503.155,38.574,40.527,36.133,24.902,57.617,0
9503.159,34.180,40.527,35.156,26.855,38.574,0
9503.163,38.086,42.480,35.156,29.785,46.875,0
9503.167,37.109,40.527,37.109,23.438,53.711,0
9503.171,28.809,35.645,34.180,18.555,44.922,0
9503.175,29.297,36.133,28.809,23.438,30.273,0
9503.178,30.273,37.598,32.227,32.715,29.785,0
9503.182,25.391,35.156,28.320,28.320,43.457,0
9503.186,28.809,36.621,22.949,20.996,47.852,0
9503.190,27.832,40.039,29.297,23.926,37.109,0
9503.194,23.926,39.551,30.273,23.438,27.832,0
9503.198,29.785,36.621,32.715,26.367,38.574,0
9503.202,34.668,34.668,37.109,29.785,51.758,0
9503.206,29.297,29.785,30.273,20.020,38.574,0
9503.210,27.344,31.250,24.902,21.484,28.809,0
9503.214,32.227,35.156,23.438,24.414,38.574,0
9503.217,37.109,33.203,13.672,23.438,52.734,0
9503.221,26.855,29.297,12.207,26.855,49.316,0
9503.225,21.484,28.809,22.949,27.832,27.832,0
9503.229,28.320,26.367,28.320,30.273,29.297,0
9503.233,28.320,26.855,30.762,31.250,42.969,0
9503.237,22.949,28.809,29.785,25.879,40.039,0
9503.241,22.949,30.762,27.344,28.320,25.879,0
9503.245,23.926,32.715,29.785,27.832,20.020,0
9503.249,22.949,31.250,29.785,20.020,27.832,0
9503.253,27.344,32.227,27.344,19.531,32.227,0
9503.257,30.273,32.227,31.738,22.461,29.297,0
9503.260,28.320,30.762,33.203,19.531,20.508,0
9503.264,21.973,33.203,27.832,20.996,26.855,0
9503.268,20.996,30.273,27.832,22.461,38.086,0
9503.272,23.926,31.250,30.762,19.531,25.391,0
9503.276,23.926,31.250,30.762,18.066,6.348,0
9503.280,20.996,26.855,31.250,18.555,17.090,0
9503.284,26.367,30.273,28.809,18.555,36.621,0
9503.288,34.180,32.227,29.785,20.020,37.109,0
9503.292,34.180,35.156,35.645,23.926,27.832,0
9503.296,32.715,31.738,36.133,16.113,30.273,0
9503.300,26.367,26.855,29.297,8.789,38.086,0
9503.303,24.414,30.762,34.180,15.137,45.410,0
9503.307,24.902,29.297,40.527,17.578,34.180,0
9503.311,20.996,28.809,37.109,18.066,28.320,0
9503.315,20.508,30.273,32.227,19.043,45.898,0
9503.319,23.438,24.902,31.250,19.531,52.734,0
9503.323,25.391,25.879,30.762,22.949,41.992,0
9503.327,19.043,29.297,29.297,23.926,36.133,0
9503.331,20.020,27.832,37.109,21.973,48.340,0
9503.335,30.273,27.832,34.668,22.949,59.570,0
9503.339,31.250,29.785,30.762,23.438,54.688,0
9503.342,28.320,27.832,41.016,21.973,41.992,0
9503.346,24.414,30.762,42.969,19.043,41.992,0
9503.350,29.785,35.645,44.922,29.297,56.152,0
9503.354,34.180,32.715,41.016,27.832,54.199,0
9503.358,30.762,33.203,33.203,20.020,34.180,0
9503.362,35.645,35.645,37.598,26.367,34.668,0
9503.366,36.621,32.227,41.992,28.320,46.387,0
9503.370,33.691,27.832,38.574,25.391,45.898,0
9503.374,32.227,28.320,33.203,28.809,37.598,0
9503.378,27.832,32.715,33.203,28.809,32.715,1
9503.382,26.855,34.668,34.668,28.320,46.875,0
9503.385,36.133,37.598,36.621,40.527,62.500,0
9503.389,38.086,38.086,37.598,37.598,51.758,0
9503.393,32.227,36.621,40.039,27.344,36.621,0
9503.397,38.574,33.691,41.504,26.855,42.480,0
9503.401,40.527,31.250,44.434,26.855,55.176,0
9503.405,33.691,31.250,44.434,25.879,53.223,0
9503.409,31.738,31.738,36.621,26.855,41.504,0
9503.413,31.250,28.809,37.109,27.344,47.363,0
9503.417,29.785,23.926,39.551,25.879,62.500,0
9503.421,31.738,28.809,38.574,27.832,59.570,0
9503.425,31.250,31.250,43.945,29.297,43.945,0
9503.428,31.738,33.691,35.645,27.832,40.527,0
9503.432,34.180,36.621,31.250,27.344,55.176,0
9503.436,30.762,32.715,40.039,24.414,54.688,0
9503.440,28.809,30.762,37.598,25.391,34.180,0
9503.444,27.832,36.621,33.691,27.832,31.738,0
9503.448,25.391,32.715,32.715,21.973,49.316,0
9503.452,27.344,24.902,32.227,18.066,55.176,0
9503.456,26.855,27.832,32.715,23.926,46.387,0
9503.460,23.926,30.273,33.203,31.250,34.668,0
9503.464,25.879,32.715,32.715,25.391,40.527,0
9503.467,27.344,32.715,34.180,28.320,54.199,0
9503.471,23.438,29.297,34.180,35.156,45.410,0
9503.475,23.438,33.691,33.203,28.320,33.203,0
9503.479,28.809,38.086,38.574,28.320,44.434,0
9503.483,31.738,34.180,37.598,26.855,51.270,0
9503.487,37.109,35.645,33.691,26.367,50.781,0
9503.491,33.691,36.621,32.715,28.809,45.898,0
9503.495,26.367,35.156,31.250,26.855,46.387,0
9503.499,32.227,38.086,37.598,32.715,63.477,0
9503.503,37.598,40.039,41.992,33.691,70.801,0
9503.507,35.645,40.527,37.598,29.297,55.664,0
9503.510,35.156,43.457,36.621,30.762,41.016,0
9503.514,33.691,43.457,36.133,29.785,48.828,0
9503.518,32.227,39.551,38.574,32.715,64.941,0
9503.522,32.227,39.551,30.762,32.227,60.547,0
9503.526,34.180,38.574,25.879,36.133,52.246,0
9503.530,32.227,34.668,39.551,33.691,63.965,0
9503.534,35.156,34.180,35.645,24.902,76.172,0
9503.538,38.086,36.621,28.320,26.855,75.684,0
9503.542,32.227,38.086,30.762,24.414,64.941,0
9503.546,31.250,38.086,33.691,25.391,67.383,0
9503.550,33.203,40.039,33.691,28.809,72.754,0
9503.553,35.645,40.527,31.738,25.879,66.406,0
9503.557,33.203,38.574,31.738,26.855,51.758,0
9503.561,23.438,39.062,35.156,30.273,45.410,0
9503.565,24.902,38.574,35.156,25.879,47.852,0
9503.569,28.320,36.621,27.344,20.508,43.945,0
9503.573,31.250,40.527,28.320,24.902,40.527,0
9503.577,32.227,42.480,30.762,23.438,33.691,0
9503.581,23.926,38.086,21.973,17.090,27.344,0
9503.585,27.832,36.621,15.137,20.020,34.668,0
9503.589,29.785,37.109,15.137,23.438,32.227,0
9503.592,28.809,37.109,17.578,24.414,20.996,0
9503.596,28.809,36.621,18.555,26.367,24.902,0
9503.600,31.738,37.109,21.484,27.344,37.109,0
9503.604,39.551,38.574,22.949,25.391,42.969,0
9503.608,38.574,38.574,24.902,36.621,40.039,0
9503.612,35.156,36.133,19.531,34.668,38.574,0
9503.616,39.551,33.691,15.625,22.949,50.781,0
9503.620,40.527,37.109,18.066,28.320,58.105,0
9503.624,35.156,41.016,20.996,29.785,43.457,0
9503.628,34.180,38.086,26.367,26.367,27.832,0
9503.632,39.551,39.551,27.832,28.809,37.598,0
9503.635,38.574,39.062,24.414,23.438,43.457,0
9503.639,34.180,33.203,27.344,22.461,31.738,0
9503.643,27.344,33.203,24.414,28.809,25.879,0
9503.647,26.367,34.668,17.090,31.250,37.109,0
9503.651,35.156,32.715,25.391,32.715,50.781,0
9503.655,31.250,33.203,25.879,27.832,42.969,0
9503.659,23.438,31.250,21.484,17.578,16.602,0
9503.663,26.367,30.762,22.461,20.508,14.648,0
9503.667,29.297,34.180,26.367,24.902,26.367,0
9503.671,28.809,30.273,28.809,20.508,23.438,0
9503.675,33.203,26.367,22.949,19.531,10.742,0
9503.678,33.691,29.785,24.414,26.855,17.578,0
9503.682,32.715,31.250,31.738,33.691,37.109,0
9503.686,37.109,29.785,30.762,33.691,49.805,0
9503.690,39.551,32.715,27.344,33.691,42.480,0
9503.694,40.527,38.086,30.273,37.598,29.297,0
9503.698,41.016,36.621,32.715,35.645,41.016,0
9503.702,40.527,33.691,33.691,33.203,49.805,0
9503.706,40.527,34.668,34.668,37.598,44.434,0
9503.710,37.598,34.668,30.273,33.203,36.133,0
9503.714,35.156,34.668,27.344,26.367,44.434,0
9503.717,37.109,33.691,30.273,24.414,59.570,0
9503.721,36.133,32.715,33.203,25.879,56.641,0
9503.725,34.668,38.574,40.527,27.344,40.039,0
9503.729,30.762,36.621,43.945,20.996,30.273,0
9503.733,27.344,32.227,39.551,18.555,41.016,0
9503.737,29.297,32.715,41.016,22.461,47.852,0
9503.741,32.227,33.691,44.922,26.367,36.133,0
9503.745,29.785,36.133,40.527,23.438,34.180,0
9503.749,23.926,32.227,33.203,18.066,47.363,0
9503.753,25.391,32.715,41.992,20.020,53.223,0
9503.757,29.785,37.598,51.270,22.461,36.621,0
9503.760,29.785,41.504,52.734,25.879,25.879,0
9503.764,28.809,36.621,59.570,21.484,39.062,0
9503.768,30.273,33.203,55.176,14.648,46.875,0
9503.772,26.367,33.691,48.340,21.484,50.781,0
9503.776,24.902,30.273,51.758,25.879,54.199,0
9503.780,29.785,32.715,48.340,23.438,64.453,0
9503.784,32.715,36.133,45.410,25.391,68.359,0
9503.788,34.668,34.668,46.875,25.391,53.711,0
9503.792,30.762,36.621,46.387,23.926,35.156,0
9503.796,26.855,37.109,44.434,23.926,35.156,0
9503.800,28.320,33.203,47.852,24.414,48.340,0
9503.803,32.715,36.133,53.711,20.996,51.270,0
9503.807,32.227,38.574,56.152,26.855,50.293,0
9503.811,29.785,34.668,49.805,31.738,52.246,0
9503.815,32.715,32.227,39.062,25.391,60.547,0
9503.819,41.016,34.180,41.504,25.391,68.359,0
9503.823,37.598,34.668,44.434,27.832,55.664,0
9503.827,24.902,34.668,41.992,25.879,29.297,0
9503.831,22.461,37.109,43.457,24.902,32.227,0
9503.835,32.715,37.598,47.363,27.832,48.340,0
9503.839,37.598,37.109,42.969,27.344,46.875,0
9503.842,31.738,35.645,28.320,23.926,39.551,0
9503.846,34.668,37.598,36.621,27.832,48.340,0
9503.850,33.691,34.180,47.363,31.250,56.641,0
9503.854,28.320,33.203,42.480,27.344,50.781,0
9503.858,28.320,36.133,41.504,20.020,31.250,0
9503.862,24.414,37.598,39.551,18.066,18.555,0
9503.866,22.949,39.062,37.598,20.996,31.738,0
9503.870,28.320,37.109,39.062,33.203,45.410,0
9503.874,31.250,36.621,41.504,34.180,40.039,0
9503.878,28.320,38.086,38.574,24.414,41.504,0
9503.882,29.785,35.645,36.133,24.414,56.152,0
9503.885,34.668,33.203,41.016,31.250,62.500,0
9503.889,34.180,34.668,41.992,36.621,52.734,0
9503.893,28.320,36.621,34.668,32.715,32.227,0
9503.897,25.879,34.180,32.715,31.250,34.180,0
9503.901,26.367,35.156,36.133,31.250,48.340,0
9503.905,25.391,35.156,34.668,30.273,51.758,0
9503.909,28.320,35.156,33.691,34.180,48.340,0
9503.913,32.715,36.133,31.738,32.715,58.105,0
9503.917,31.738,36.133,24.414,27.832,71.777,0
9503.921,34.180,39.551,23.438,32.227,67.383,0
9503.925,34.180,43.457,29.785,32.227,43.945,0
9503.928,30.762,45.410,27.832,30.762,32.715,0
9503.932,33.203,42.480,22.461,29.297,42.480,0
9503.936,34.668,39.062,27.344,27.344,50.293,0
9503.940,23.926,38.574,28.320,26.855,44.434,0
9503.944,19.043,34.668,29.785,20.508,37.109,0
9503.948,29.297,36.621,38.574,21.973,51.758,0
9503.952,33.691,39.551,37.598,23.926,55.176,0
9503.956,31.250,38.574,28.320,22.949,41.504,0
9503.960,26.367,37.109,27.344,21.484,31.738,0
9503.964,24.902,33.691,35.645,24.414,34.668,0
9503.967,36.621,36.621,39.551,25.879,50.293,0
9503.971,46.875,40.527,33.691,18.066,53.223,0
9503.975,36.133,37.109,25.391,14.160,37.109,0
9503.979,28.320,35.645,20.020,15.625,36.621,0
9503.983,32.715,37.598,18.066,18.555,46.875,0
9503.987,32.227,35.645,16.602,17.578,46.387,0
9503.991,27.344,30.762,13.672,15.625,30.273,0
9503.995,24.902,29.785,14.648,19.531,21.484,0
9503.999,24.902,29.785,16.113,18.555,29.297,0
9504.003,28.320,29.297,15.625,20.020,38.574,0
9504.007,32.227,34.668,20.996,29.785,40.527,0
9504.010,32.227,31.738,27.344,27.832,38.574,0
9504.014,30.762,28.320,24.902,19.531,46.875,0
9504.018,31.250,31.250,13.672,17.090,50.781,0
9504.022,31.738,24.902,16.113,19.043,43.457,0
9504.026,28.320,24.902,26.367,18.555,27.344,0
9504.030,26.367,30.273,27.832,18.066,27.344,0
9504.034,31.738,30.762,33.691,25.879,41.992,0
9504.038,39.551,31.250,32.227,27.832,44.434,0
9504.042,39.551,35.645,34.668,33.691,42.969,0
9504.046,35.645,38.086,40.039,37.598,51.270,0
9504.050,32.715,33.691,36.133,27.832,60.059,0
9504.053,34.180,32.227,31.738,24.414,60.059,0
9504.057,34.668,35.156,29.785,21.484,41.992,0
9504.061,32.227,39.062,31.250,23.438,31.250,0
9504.065,31.250,37.109,33.203,31.738,45.410,0
9504.069,30.762,35.645,32.715,31.738,57.617,0
9504.073,33.203,36.621,31.738,28.320,55.664,0
9504.077,36.133,37.598,35.156,33.203,45.898,0
9504.081,35.645,41.016,36.621,30.273,47.852,0
9504.085,37.598,42.969,32.227,22.949,55.664,0
9504.089,37.109,41.504,36.133,23.926,46.875,0
9504.092,27.344,38.086,39.551,21.973,27.344,0
9504.096,22.949,38.086,36.133,21.973,33.691,0
9504.100,26.855,39.551,36.621,25.391,57.617,0
9504.104,20.996,36.133,28.320,20.996,62.500,0
9504.108,16.113,33.203,28.320,21.973,51.270,0
9504.112,20.020,33.691,35.156,26.367,50.293,0
9504.116,28.320,37.109,33.691,26.367,59.570,0
9504.120,34.180,37.109,34.668,25.879,58.105,0
9504.124,26.855,31.250,36.621,26.855,40.039,0
9504.128,20.508,29.785,35.645,21.973,32.227,0
9504.132,21.973,31.738,31.738,18.555,41.504,0
9504.135,30.273,36.621,34.668,26.855,53.223,0
9504.139,33.691,41.992,39.062,25.391,52.734,0
9504.143,26.367,39.062,35.156,16.602,40.527,0
9504.147,21.484,34.180,36.133,21.973,49.316,0
9504.151,22.461,32.227,37.598,25.391,58.594,0
9504.155,25.391,37.598,37.109,21.973,45.898,0
9504.159,23.926,43.945,41.016,22.461,25.879,0
9504.163,24.414,41.504,42.480,24.414,27.832,0
9504.167,24.902,36.133,39.551,27.344,42.969,0
9504.171,27.344,36.621,37.109,28.809,49.316,0
9504.175,30.762,35.156,39.062,31.738,45.898,0
9504.178,28.809,32.715,43.945,33.203,47.363,0
9504.182,28.809,37.598,45.898,31.250,57.617,0
9504.186,32.227,38.086,44.922,28.809,54.688,0
9504.190,31.250,31.250,44.434,30.273,35.645,0
9504.194,30.762,34.180,45.410,33.203,30.273,0
9504.198,28.320,34.180,44.434,23.438,32.227,0
9504.202,27.344,31.250,40.039,18.555,35.645,0
9504.206,27.832,32.715,34.180,22.949,33.203,0
9504.210,24.414,31.738,32.227,27.344,29.785,0
9504.214,28.809,33.203,32.227,29.297,42.969,0
9504.217,33.203,33.203,30.762,20.508,45.410,0
9504.221,30.762,36.621,29.785,18.066,28.320,0
9504.225,26.367,39.551,23.438,20.996,9.277,0
9504.229,24.414,34.668,20.996,22.461,13.184,0
9504.233,29.785,32.227,18.066,22.949,32.715,0
9504.237,34.668,33.203,20.996,24.414,41.992,0
9504.241,31.738,36.621,26.367,28.809,36.621,0
9504.245,25.391,32.227,22.461,26.855,37.598,0
9504.249,24.902,29.785,24.902,27.344,53.223,0
9504.253,27.832,32.715,26.855,25.879,56.152,0
9504.257,32.227,34.668,30.273,28.809,46.387,0
9504.260,31.250,36.133,34.180,29.297,35.156,0
9504.264,31.250,37.109,31.250,26.367,37.109,0
9504.268,35.645,37.109,32.715,29.297,46.387,0
9504.272,31.250,33.203,36.621,27.344,43.945,0
9504.276,27.832,33.203,36.133,29.297,41.016,0
9504.280,27.344,37.109,29.297,29.297,51.270,0
9504.284,26.855,38.086,21.973,23.438,58.105,0
9504.288,32.227,41.504,30.762,22.949,56.641,0
9504.292,31.738,43.457,41.504,22.461,41.992,0
9504.296,30.273,41.992,41.016,24.902,33.691,0
9504.300,32.715,38.574,36.621,30.273,47.363,0
9504.303,37.109,39.062,36.133,38.086,56.152,0
9504.307,37.109,39.551,42.480,34.668,49.805,0
9504.311,31.738,33.691,37.598,23.926,41.504,0
9504.315,32.715,33.691,26.855,21.484,53.223,0
9504.319,39.551,36.133,23.926,23.926,57.617,0
9504.323,37.598,38.086,31.250,28.809,43.457,0
9504.327,28.809,36.621,35.156,26.367,27.344,0
9504.331,26.855,31.738,31.250,24.902,32.227,0
9504.335,28.809,29.785,29.297,26.855,47.363,0
9504.339,32.715,35.645,30.273,28.320,47.852,0
9504.342,32.227,38.086,37.109,31.738,41.992,0
9504.346,32.715,33.691,34.180,29.785,44.434,0
9504.350,41.504,32.227,30.762,30.273,53.223,0
9504.354,45.898,33.691,32.715,29.785,51.270,0
9504.358,41.992,35.645,32.715,34.668,43.457,0
9504.362,39.062,35.645,27.832,32.227,29.785,0
9504.366,38.086,36.133,22.949,26.855,28.809,0
9504.370,40.039,37.109,31.738,36.621,44.922,0
9504.374,41.016,35.645,31.738,38.574,38.086,0
9504.378,38.086,33.691,30.273,41.504,35.645,0
9504.382,44.434,35.645,34.668,46.875,62.988,0
9504.385,48.340,36.621,35.645,36.621,69.824,0
9504.389,41.016,36.621,34.180,28.809,43.457,0
9504.393,35.156,37.109,34.668,29.297,20.996,0
9504.397,32.227,36.621,37.109,33.691,28.320,0
9504.401,33.691,36.133,35.645,36.621,46.387,0
9504.405,31.250,36.621,30.762,33.691,47.852,0
9504.409,32.227,39.062,25.879,31.738,38.574,0
9504.413,37.109,37.109,25.879,30.273,41.504,0
9504.417,37.598,36.133,27.344,26.855,50.293,0
9504.421,35.645,36.621,28.809,23.438,41.992,0
9504.425,31.250,31.738,26.367,18.066,18.555,0
9504.428,28.809,28.809,28.320,18.066,14.160,0
9504.432,30.762,33.203,30.762,24.414,34.180,0
9504.436,32.227,34.180,28.809,24.414,44.434,0
9504.440,30.273,32.715,25.391,23.438,40.039,0
9504.444,27.344,34.668,21.973,28.809,39.062,0
9504.448,32.715,36.621,21.484,33.203,51.758,0
9504.452,39.551,36.133,23.926,32.227,61.523,0
9504.456,36.133,35.645,24.902,30.762,49.805,0
9504.460,32.227,36.133,20.508,32.227,33.203,0
9504.464,32.227,37.109,21.973,31.250,34.180,0
9504.467,26.855,33.203,26.855,25.391,41.992,0
9504.471,25.391,29.297,16.602,23.438,44.922,0
9504.475,28.320,39.062,16.113,28.320,41.992,0
9504.479,34.180,41.016,29.785,28.320,41.504,0
9504.483,35.156,33.203,27.832,23.438,49.316,0
9504.487,29.297,34.180,24.902,24.902,51.270,0
9504.491,27.832,35.645,28.809,29.297,35.645,0
9504.495,27.344,37.109,27.344,25.391,27.344,0
9504.499,26.367,40.039,24.902,20.020,34.180,0
9504.503,28.320,41.504,29.785,17.578,44.434,0
9504.507,33.203,42.969,33.203,20.020,42.969,0
9504.510,34.180,41.992,29.297,25.879,40.527,0
9504.514,33.203,41.504,26.367,20.508,50.781,0
9504.518,35.156,39.062,28.320,17.090,49.805,0
9504.522,32.227,30.762,29.785,18.066,37.109,0
9504.526,26.855,32.715,23.926,12.695,20.996,0
9504.530,27.344,34.668,23.926,14.648,15.137,0
9504.534,29.785,33.691,27.344,21.484,26.855,0
9504.538,27.344,33.691,27.344,20.996,37.598,0
9504.542,22.949,33.691,32.227,19.043,30.762,0
9504.546,26.367,37.598,30.273,22.461,30.273,0
9504.550,31.250,39.551,27.832,21.484,45.410,0
9504.553,33.203,36.621,31.250,20.020,47.852,0
9504.557,30.273,35.156,27.344,20.508,39.551,0
9504.561,24.902,33.691,26.855,20.020,31.250,0
9504.565,21.484,28.809,24.902,23.438,34.668,0
9504.569,25.391,30.273,23.438,26.855,47.852,0
9504.573,26.367,35.156,23.438,28.320,50.293,0
9504.577,22.461,32.227,25.879,29.297,43.945,0
9504.581,21.973,29.297,25.879,27.832,52.734,0
9504.585,26.367,29.297,21.973,30.762,62.988,0
9504.589,26.855,29.785,23.926,26.855,52.246,0
9504.592,26.855,30.762,21.973,24.414,32.227,0
9504.596,26.367,30.273,11.719,26.367,29.297,0
9504.600,26.367,30.762,14.160,24.902,35.645,0
9504.604,32.715,34.668,28.320,28.320,43.457,0
9504.608,32.715,34.180,34.668,33.203,44.434,0
9504.612,26.855,25.879,32.715,29.297,41.992,0
9504.616,25.879,25.391,26.855,24.414,51.270,0
9504.620,27.344,32.715,29.785,28.809,55.664,0
9504.624,26.367,34.668,37.598,30.273,44.434,0
9504.628,22.949,33.203,39.062,30.273,31.250,0
9504.632,30.273,38.574,39.551,32.715,41.016,0
9504.635,34.668,41.016,41.016,29.297,53.711,0
9504.639,34.668,37.598,38.086,30.273,43.945,0
9504.643,33.691,37.109,39.551,33.691,33.691,0
9504.647,25.879,32.227,41.016,27.832,42.480,0
9504.651,21.484,29.297,43.457,25.391,54.688,0
9504.655,17.090,29.297,43.945,22.949,45.898,0
9504.659,16.602,29.785,35.645,24.414,26.367,0
9504.663,20.020,36.133,35.645,27.832,31.738,0
9504.667,19.043,37.598,34.180,23.438,44.922,0
9504.671,19.043,35.645,31.738,27.344,41.016,0
9504.675,20.508,31.250,29.785,36.621,26.855,0
9504.678,22.461,32.227,29.297,32.715,31.250,0
9504.682,20.020,33.691,19.043,16.113,47.852,0
9504.686,20.508,30.273,14.648,14.648,47.852,0
9504.690,21.484,34.180,25.879,25.879,36.133,0
9504.694,20.996,38.086,25.391,26.855,23.926,0
9504.698,26.367,33.203,27.344,26.367,30.273,0
9504.702,29.297,34.180,30.273,23.438,39.062,0
9504.706,32.227,36.133,27.832,21.484,34.668,0
9504.710,36.621,36.621,24.902,29.297,33.691,0
9504.714,38.574,39.062,24.414,33.691,44.922,0
9504.717,41.992,41.504,25.879,38.574,61.523,0
9504.721,43.457,40.039,28.320,39.062,58.594,0
9504.725,40.039,39.551,30.762,38.086,39.551,0
9504.729,41.504,43.457,32.715,42.969,38.086,0
9504.733,40.527,38.086,32.715,34.668,50.293,0
9504.737,39.551,35.156,33.691,29.785,53.223,0
9504.741,41.016,36.621,33.203,36.621,40.527,0
9504.745,41.504,39.062,32.715,40.527,38.086,0
9504.749,41.504,35.156,30.273,27.344,48.340,0
9504.753,40.039,32.227,31.250,22.949,53.223,0
9504.757,38.574,38.086,36.133,30.762,50.293,0
9504.760,30.273,35.156,33.203,31.738,37.598,0
9504.764,34.180,32.227,32.227,35.645,41.992,0
9504.768,42.480,30.273,32.227,34.180,56.641,0
9504.772,34.180,30.762,29.297,29.785,53.711,0
9504.776,24.902,35.645,23.438,30.762,51.758,0
9504.780,24.902,34.668,26.855,32.715,66.406,0
9504.784,28.809,34.668,34.668,35.156,74.219,0
9504.788,32.227,34.180,31.738,32.715,65.918,0
9504.792,31.250,33.691,35.645,35.156,49.805,0
9504.796,31.250,34.180,41.016,32.715,41.016,0
9504.800,32.227,32.227,32.715,24.414,49.316,0
9504.803,35.645,34.180,26.855,25.391,59.082,0
9504.807,38.574,38.086,27.832,25.391,55.664,0
9504.811,38.086,40.527,32.227,29.297,54.688,0
9504.815,42.969,41.016,36.621,31.738,63.965,0
9504.819,41.504,38.574,38.574,27.832,63.477,0
9504.823,39.551,36.621,38.086,24.414,50.781,0
9504.827,36.133,36.133,40.039,25.879,40.527,0
9504.831,32.715,35.156,41.504,28.320,44.922,0
9504.835,32.715,33.203,41.016,23.926,58.594,0
9504.839,28.809,31.738,44.922,31.250,60.059,0
9504.842,24.902,32.227,49.316,45.898,52.246,0
9504.846,25.391,32.227,50.293,30.273,57.617,0
9504.850,32.227,30.273,52.734,17.090,76.660,0
9504.854,34.668,24.902,52.246,21.973,75.195,0
9504.858,24.902,24.902,49.316,22.461,49.316,0
9504.862,23.926,31.250,49.316,24.414,38.574,0
9504.866,29.297,34.180,50.293,24.414,50.781,0
9504.870,34.180,36.133,52.734,25.391,63.477,0
9504.874,34.668,35.156,49.316,26.855,60.547,0
9504.878,26.367,33.691,48.828,27.832,54.199,0
9504.882,29.785,34.668,53.711,31.250,65.918,0
9504.885,40.039,38.574,56.641,35.156,81.055,0
9504.889,33.203,35.156,62.988,31.250,75.195,0
9504.893,25.391,32.715,59.082,20.508,54.688,0
9504.897,29.785,34.180,46.875,20.020,49.316,0
9504.901,33.203,32.715,49.805,30.273,56.641,0
9504.905,36.621,32.715,52.734,26.855,55.664,0
9504.909,36.621,32.715,48.828,20.020,49.316,0
9504.913,32.715,35.156,49.805,21.973,57.617,0
9504.917,33.203,39.062,50.293,27.344,68.359,0
9504.921,34.180,37.598,42.480,29.785,66.895,0
9504.925,30.762,35.645,34.668,24.414,54.688,0
9504.928,26.855,35.156,34.180,23.438,44.922,0
9504.932,29.785,34.668,35.645,22.461,52.734,0
9504.936,33.691,35.156,35.645,20.996,58.594,0
9504.940,32.715,35.156,37.109,24.414,47.852,0
9504.944,29.297,35.645,40.527,22.461,46.387,0
9504.948,29.297,33.691,38.086,18.066,55.664,0
9504.952,30.273,28.809,33.203,20.508,61.523,0
9504.956,26.367,28.320,35.156,11.230,52.246,0
9504.960,19.043,32.715,40.039,16.113,34.668,0
9504.964,16.602,33.203,43.945,26.855,35.156,0
9504.967,21.484,30.273,39.062,21.484,47.852,0
9504.971,25.879,29.297,35.645,18.066,54.688,0
9504.975,24.414,31.738,39.551,26.367,44.922,0
9504.979,26.855,38.574,44.922,21.973,49.805,0
9504.983,38.086,40.039,47.363,8.789,63.965,0
9504.987,33.691,37.598,39.062,10.742,58.105,0
9504.991,23.926,37.109,32.715,20.020,43.945,0
9504.995,25.879,37.109,31.250,17.578,34.668,0
9504.999,26.855,38.574,33.203,22.461,42.969,0
9505.003,28.320,42.969,37.109,25.391,51.758,0
9505.007,26.855,39.062,34.668,17.090,45.410,0
9505.010,21.484,33.203,30.273,22.949,36.621,0
9505.014,22.949,34.180,29.785,28.320,43.457,0
9505.018,27.832,33.691,34.668,25.391,53.711,0
9505.022,27.832,33.203,26.855,25.391,50.293,0
9505.026,27.832,38.086,28.320,27.832,38.574,0
9505.030,29.785,40.039,42.480,34.180,35.156,0
9505.034,29.297,38.574,43.457,35.645,43.457,0
9505.038,32.227,40.527,46.387,28.320,52.734,0
9505.042,34.180,37.598,43.457,22.949,39.551,0
9505.046,32.227,36.133,40.039,27.832,31.250,0
9505.050,33.691,38.086,42.480,30.273,49.805,0
9505.053,41.504,37.109,43.945,36.133,58.105,0
9505.057,40.527,36.621,45.410,36.621,45.410,0
9505.061,33.691,35.645,40.039,33.691,39.551,0
9505.065,34.180,31.250,35.156,32.715,40.039,0
9505.069,30.762,28.809,34.668,27.344,37.109,0
9505.073,26.855,34.668,30.273,27.344,35.645,0
9505.077,26.367,32.715,29.297,23.438,24.902,0
9505.081,22.461,27.344,30.762,20.508,20.020,0
9505.085,22.461,27.344,30.762,20.020,34.180,0
9505.089,24.902,30.273,27.832,18.555,35.645,0
9505.092,26.367,32.715,27.344,26.855,18.555,0
9505.096,27.832,33.203,32.227,25.391,19.043,0
9505.100,29.297,38.086,36.133,18.066,33.691,0
9505.104,25.879,37.109,34.668,19.043,37.109,0
9505.108,20.508,34.668,36.133,27.832,24.902,0
9505.112,20.020,36.133,36.621,31.250,20.020,0
9505.116,21.484,33.691,34.668,19.531,28.809,0
9505.120,26.367,34.180,39.551,20.508,35.645,0
9505.124,26.367,37.109,46.875,21.973,27.344,0
9505.128,24.414,40.039,34.180,13.184,16.113,0
9505.132,34.180,41.504,21.484,21.484,35.156,0
9505.135,34.668,34.180,28.809,24.414,52.246,0
9505.139,29.297,31.738,31.250,21.973,47.363,0
9505.143,29.785,35.645,29.297,25.879,39.551,0
9505.147,31.250,35.156,23.438,22.949,44.922,0
9505.151,32.715,36.133,23.438,24.414,57.129,0
9505.155,34.180,37.598,25.391,25.391,53.223,0
9505.159,29.785,35.645,26.367,26.855,38.086,0
9505.163,27.832,33.203,26.855,27.832,36.621,0
9505.167,36.133,36.621,28.320,23.438,51.758,0
9505.171,32.715,36.621,33.691,20.996,55.664,0
9505.175,23.926,31.250,31.250,24.902,43.457,0
9505.178,27.832,33.691,31.250,30.762,43.945,0
9505.182,28.809,33.203,35.156,32.227,52.734,0
9505.186,32.227,33.691,37.109,29.297,57.129,0
9505.190,30.762,36.133,36.133,26.855,40.527,0
9505.194,23.926,34.668,26.367,20.996,20.020,0
9505.198,27.832,36.133,20.996,17.090,30.273,0
9505.202,26.367,34.180,23.438,17.578,37.109,0
9505.206,26.855,32.715,24.902,18.555,32.227,0
9505.210,23.926,31.250,25.879,20.996,24.414,0
9505.214,26.855,27.832,25.879,25.391,36.133,0
9505.217,35.645,28.809,27.344,31.250,51.270,0
9505.221,28.809,26.367,30.762,25.391,39.551,0
9505.225,24.902,28.809,30.762,23.926,30.273,0
9505.229,21.973,27.832,23.438,27.832,28.320,0
9505.233,18.555,27.344,19.043,23.926,35.156,0
9505.237,20.996,22.949,23.438,18.066,42.969,0
9505.241,21.973,24.414,24.414,17.578,38.086,0
9505.245,18.555,32.227,22.949,20.020,37.109,0
9505.249,21.484,31.250,24.414,20.508,47.852,0
9505.253,29.297,29.785,25.391,20.996,55.664,0
9505.257,26.367,29.785,27.344,22.461,44.434,0
9505.260,24.414,32.227,26.855,32.227,27.344,0
9505.264,29.297,33.691,17.578,28.809,36.621,0
9505.268,29.297,30.273,20.996,17.578,47.363,0
9505.272,26.367,29.297,26.367,19.531,41.504,0
9505.276,25.391,31.250,23.438,28.320,31.738,0
9505.280,26.855,30.273,20.996,27.344,34.668,0
9505.284,25.879,28.809,20.996,19.531,43.945,0
9505.288,26.855,26.855,20.020,17.578,40.527,0
9505.292,27.344,27.344,20.508,18.555,22.949,0
9505.296,24.902,24.414,23.438,16.113,19.043,0
9505.300,25.879,22.949,23.926,14.648,31.738,0
9505.303,23.438,27.344,19.043,11.230,33.203,0
9505.307,22.461,30.762,18.555,12.207,28.809,0
9505.311,23.438,32.715,20.996,20.020,33.203,0
9505.315,28.809,32.715,19.531,24.902,49.805,0
9505.319,37.109,34.180,22.949,33.691,63.965,0
9505.323,28.809,31.738,23.438,26.855,50.781,0
9505.327,21.484,31.738,22.461,22.949,34.180,0
9505.331,25.879,30.762,24.902,35.645,41.992,0
9505.335,26.367,28.809,23.926,33.691,49.805,0
9505.339,26.855,32.227,23.438,25.879,50.781,0
9505.342,27.344,33.691,26.855,30.762,45.410,0
9505.346,26.367,34.180,27.832,36.621,44.922,0
9505.350,25.879,31.250,22.949,31.738,45.898,0
9505.354,27.344,31.250,23.438,22.949,42.969,0
9505.358,24.902,33.691,22.461,14.160,22.461,0
9505.362,21.973,31.738,16.602,19.043,13.184,0
9505.366,21.484,30.273,26.367,26.855,28.809,0
9505.370,22.949,28.809,37.598,23.926,39.062,0
9505.374,28.809,27.344,37.109,23.438,44.922,0
9505.378,31.250,28.320,28.320,22.949,41.992,0
9505.382,31.738,29.785,21.973,22.949,46.875,0
9505.385,31.738,29.297,22.461,28.320,54.199,0
9505.389,31.738,26.855,20.020,27.832,38.086,0
9505.393,33.691,28.320,20.996,23.438,28.320,0
9505.397,33.203,31.250,20.508,24.902,36.133,0
9505.401,35.156,32.227,18.066,30.762,44.434,0
9505.405,40.527,39.551,22.461,31.738,45.410,0
9505.409,43.457,42.969,24.414,28.809,37.598,0
9505.413,40.039,40.527,28.320,35.645,52.734,0
9505.417,40.527,40.527,26.855,30.762,67.383,0
9505.421,39.551,39.062,22.461,23.926,52.734,0
9505.425,32.715,40.039,25.879,29.297,35.156,0
9505.428,30.273,40.527,32.227,25.391,34.668,0
9505.432,34.668,40.039,35.156,17.090,48.828,0
9505.436,38.086,41.504,38.086,22.461,57.617,0
9505.440,35.645,38.574,35.645,22.949,48.828,0
9505.444,30.273,35.645,26.855,23.926,39.062,0
9505.448,30.762,37.109,28.320,33.203,55.176,0
9505.452,35.645,38.574,33.203,28.320,66.406,0
9505.456,35.645,33.203,30.762,27.344,52.734,0
9505.460,31.250,29.785,26.367,30.273,38.086,0
9505.464,32.227,34.180,26.855,26.855,44.922,0
9505.467,41.504,35.156,27.344,26.367,56.152,0
9505.471,41.016,28.320,25.391,21.973,55.664,0
9505.475,35.156,28.320,26.367,22.461,50.293,0
9505.479,37.109,32.715,20.020,28.320,46.387,0
9505.483,34.668,28.809,22.461,25.879,46.387,0
9505.487,30.273,26.855,29.297,18.555,43.945,0
9505.491,27.344,30.273,31.738,15.137,23.926,0
9505.495,23.438,32.227,34.668,17.090,10.254,0
9505.499,20.020,31.738,25.879,19.043,22.949,0
9505.503,22.949,29.785,21.484,14.160,31.250,0
9505.507,24.902,29.297,25.391,10.742,22.461,0
9505.510,17.578,31.250,27.832,11.719,19.531,0
9505.514,14.160,31.250,30.762,13.184,35.156,0
9505.518,20.996,29.785,29.785,17.578,46.875,0
9505.522,30.273,32.227,32.715,27.344,43.457,0
9505.526,30.762,35.156,33.691,29.785,28.809,0
9505.530,25.879,32.227,27.344,24.902,30.762,0
9505.534,31.738,29.785,26.855,22.461,42.969,0
9505.538,38.574,31.250,30.762,25.391,44.922,0
9505.542,34.668,34.180,37.109,36.621,43.945,0
9505.546,30.273,34.180,37.598,39.062,43.945,0
9505.550,32.715,31.738,30.762,28.320,49.805,0
9505.553,31.738,33.203,29.785,22.949,57.617,0
9505.557,33.203,36.133,32.715,24.902,41.016,0
9505.561,33.691,36.621,30.762,33.203,24.414,0
9505.565,38.086,37.598,27.832,33.203,37.598,0
9505.569,40.527,33.691,23.926,31.738,52.246,0
9505.573,38.086,35.645,22.949,32.715,48.340,0
9505.577,36.133,40.527,26.855,27.344,39.062,0
9505.581,33.691,41.016,32.715,26.855,43.945,0
9505.585,36.621,41.504,26.855,36.621,53.711,0
9505.589,39.551,40.527,19.043,41.016,52.246,0
9505.592,35.156,40.527,26.367,32.227,36.621,0
9505.596,30.273,39.551,26.855,29.297,30.273,0
9505.600,33.691,37.598,28.809,31.738,43.945,0
9505.604,35.156,37.109,28.809,26.855,47.852,0
9505.608,34.180,40.039,23.926,27.832,37.598,0
9505.612,30.762,37.109,27.832,34.668,35.156,0
9505.616,29.297,36.133,31.250,35.156,45.410,0
9505.620,31.250,42.969,28.809,30.762,53.223,0
9505.624,28.809,42.480,29.297,32.715,38.086,0
9505.628,24.902,38.086,34.180,34.180,25.391,0
9505.632,26.855,33.691,36.133,30.273,38.574,0
9505.635,32.715,35.645,35.645,36.621,54.688,0
9505.639,34.180,38.086,37.109,39.062,53.711,0
9505.643,24.902,29.785,30.273,31.738,44.434,0
9505.647,17.090,26.367,23.438,32.715,45.898,0
9505.651,19.043,29.785,25.391,34.668,53.223,0
9505.655,19.043,29.785,27.832,24.414,45.410,0
9505.659,15.625,27.832,28.320,24.414,24.414,0
9505.663,16.113,25.879,26.855,28.320,19.043,0
9505.667,16.602,23.926,25.879,26.367,29.297,0
9505.671,22.949,26.855,30.762,28.809,40.527,0
9505.675,30.273,29.785,35.156,28.320,37.109,0
9505.678,27.344,30.762,34.180,26.855,34.180,0
9505.682,33.203,32.227,31.738,32.227,47.852,0
9505.686,39.062,30.762,29.785,32.715,51.270,0
9505.690,33.691,26.855,29.297,30.762,36.133,0
9505.694,28.320,26.855,34.668,28.809,26.367,0
9505.698,29.297,23.926,27.832,21.973,32.227,0
9505.702,31.738,24.414,19.043,24.902,43.457,0
9505.706,26.367,29.297,32.227,30.762,37.598,0
9505.710,23.926,26.855,39.551,30.762,28.320,0
9505.714,31.738,30.762,34.180,25.391,43.457,0
9505.717,33.691,32.227,27.344,24.414,58.105,0
9505.721,34.180,27.832,27.832,29.785,55.176,0
9505.725,33.691,28.809,30.762,32.715,39.062,0
9505.729,29.785,31.250,34.668,35.645,43.945,0
9505.733,31.250,29.785,33.203,31.738,62.988,0
9505.737,29.785,29.297,26.855,26.367,54.688,0
9505.741,22.949,29.297,24.414,32.715,40.039,0
9505.745,19.531,26.855,22.949,38.086,39.551,0
9505.749,18.555,24.902,24.414,31.250,46.875,0
9505.753,20.996,25.879,24.414,23.926,48.340,0
9505.757,20.996,26.855,23.438,24.902,35.156,0
9505.760,18.066,29.297,24.902,30.273,20.020,0
9505.764,25.879,32.227,26.855,32.227,30.762,0
9505.768,31.250,35.156,30.762,32.715,44.922,0
9505.772,28.809,36.621,34.180,31.738,42.969,0
9505.776,27.344,36.621,35.156,32.715,37.109,0
9505.780,24.902,36.621,30.273,26.855,37.109,0
9505.784,32.227,39.062,29.297,29.785,44.434,0
9505.788,41.992,44.434,34.668,37.598,54.688,0
9505.792,38.086,42.480,34.668,27.344,41.504,0
9505.796,31.250,37.109,32.227,29.785,32.227,0
9505.800,31.250,35.645,31.250,37.109,43.945,0
9505.803,33.691,37.598,29.297,26.367,52.246,0
9505.807,34.180,40.039,27.344,20.020,40.039,0
9505.811,34.180,35.156,22.461,21.484,29.785,0
9505.815,36.133,33.691,20.020,25.879,42.969,0
9505.819,33.203,32.715,18.066,24.902,48.828,0
9505.823,35.645,35.156,20.020,24.414,48.340,0
9505.827,30.762,37.598,28.809,23.438,40.039,0
9505.831,26.367,35.645,20.020,20.996,40.039,0
9505.835,32.227,31.738,11.230,27.832,57.129,0
9505.839,34.180,33.203,17.090,29.785,57.129,0
9505.842,31.250,36.133,20.508,23.438,42.969,0
9505.846,27.832,35.645,20.020,21.484,47.852,0
9505.850,31.250,37.109,19.531,18.555,57.617,0
9505.854,27.344,33.691,18.555,21.973,51.270,0
9505.858,20.020,30.762,17.578,27.832,33.691,0
9505.862,15.625,32.715,20.020,27.344,24.414,0
9505.866,13.184,37.598,22.949,27.344,37.598,0
9505.870,21.973,43.945,25.391,24.902,54.688,0
9505.874,24.414,41.992,29.297,20.996,46.875,0
9505.878,19.531,35.645,29.297,21.973,33.691,0
9505.882,23.926,40.527,27.832,29.297,50.293,0
9505.885,26.855,40.527,27.832,18.555,55.664,0
9505.889,24.414,34.180,27.832,10.742,46.875,0
9505.893,25.879,34.180,26.855,16.602,34.180,0
9505.897,28.320,33.203,30.273,23.926,36.621,0
9505.901,26.367,27.344,36.133,35.156,53.711,0
9505.905,25.391,25.391,36.133,37.598,57.617,0
9505.909,23.926,28.809,37.109,30.762,50.293,0
9505.913,26.367,30.762,34.180,33.203,52.246,0
9505.917,35.645,32.227,36.621,38.574,75.195,0
9505.921,36.621,34.180,45.898,31.738,82.031,0
9505.925,32.715,33.691,49.316,29.785,64.941,0
9505.928,31.250,30.762,45.898,33.691,59.082,0
9505.932,37.109,31.250,46.387,29.785,68.848,0
9505.936,41.992,32.227,48.828,37.109,77.148,0
9505.940,40.039,30.762,49.316,41.504,76.172,0
9505.944,36.133,31.738,46.387,36.621,70.801,0
9505.948,34.180,30.273,35.156,37.109,83.496,0
9505.952,34.668,31.250,36.621,31.250,88.379,0
9505.956,31.250,34.180,43.945,29.785,68.848,0
9505.960,29.297,34.668,44.434,23.438,48.340,0
9505.964,28.809,35.645,48.340,21.484,55.176,0
9505.967,26.367,33.691,49.316,27.344,61.523,0
9505.971,25.879,30.273,49.316,19.531,50.781,0
9505.975,24.414,29.297,49.805,15.137,42.969,0
9505.979,26.367,29.785,43.945,12.695,46.387,0
9505.983,32.715,30.762,37.598,17.090,57.129,0
9505.987,31.738,32.227,36.621,19.043,59.570,0
9505.991,31.738,29.297,37.109,15.137,45.898,0
9505.995,33.691,27.832,35.645,22.949,39.551,0
9505.999,28.320,27.344,34.180,20.996,48.340,0
9506.003,30.762,29.297,38.574,20.508,60.547,0
9506.007,38.574,33.203,45.410,26.367,62.012,0
9506.010,36.621,36.621,46.387,25.879,56.641,0
9506.014,38.574,39.551,46.387,24.902,61.035,0
9506.018,39.062,40.527,47.363,24.414,64.941,0
9506.022,35.645,42.480,46.875,31.250,60.547,0
9506.026,34.180,40.039,46.875,37.598,45.898,0
9506.030,34.668,42.969,45.898,35.645,48.340,0
9506.034,37.598,42.480,42.969,25.879,59.082,0
9506.038,40.039,35.645,43.945,20.508,57.617,0
9506.042,38.086,38.086,45.898,25.879,55.664,0
9506.046,37.109,41.016,48.340,31.250,64.453,0
9506.050,35.645,38.574,44.922,29.297,74.219,0
9506.053,35.645,39.062,40.527,29.785,68.848,0
9506.057,32.715,42.969,48.340,26.367,54.688,0
9506.061,30.273,44.922,49.316,23.438,44.434,0
9506.065,36.621,47.363,46.875,30.273,50.781,0
9506.069,45.898,49.316,50.293,33.203,60.059,0
9506.073,39.551,46.875,50.781,26.367,54.199,0
9506.077,27.832,42.480,45.898,30.273,41.504,0
9506.081,33.203,40.527,46.387,34.668,53.223,0
9506.085,37.109,38.574,46.875,31.738,62.012,0
9506.089,37.109,38.086,44.434,33.691,55.176,0
9506.092,33.691,39.062,43.945,32.715,40.527,0
9506.096,32.715,40.039,41.016,35.645,37.109,0
9506.100,32.715,38.574,37.598,34.180,48.340,0
9506.104,34.180,36.621,40.039,28.320,45.898,0
9506.108,35.156,36.133,37.598,27.832,32.715,0
9506.112,29.785,32.715,31.738,31.250,29.785,0
9506.116,29.785,29.785,31.250,28.320,41.016,0
9506.120,34.668,29.785,34.180,20.996,46.875,0
9506.124,32.715,31.250,35.645,29.785,38.574,0
9506.128,31.250,30.273,32.715,25.391,27.832,0
9506.132,31.250,28.320,30.273,22.461,34.180,0
9506.135,27.832,26.367,30.762,24.902,40.039,0
9506.139,23.926,26.367,35.645,21.484,35.156,0
9506.143,22.461,25.391,35.156,26.855,33.691,0
9506.147,24.902,25.391,29.785,25.879,44.922,0
9506.151,30.762,30.273,30.762,26.367,56.641,0
9506.155,31.738,30.762,32.227,27.344,52.246,0
9506.159,22.461,28.320,23.438,24.414,39.062,0
9506.163,25.879,33.691,19.531,30.273,43.457,0
9506.167,29.785,35.645,30.762,28.809,53.711,0
9506.171,27.344,33.203,33.691,27.344,54.199,0
9506.175,27.832,33.691,31.738,30.762,43.457,0
9506.178,27.832,30.762,36.621,26.367,41.992,0
9506.182,32.227,29.297,38.574,26.367,55.664,0
9506.186,33.203,34.180,27.832,30.273,55.176,0
9506.190,31.250,39.551,19.531,24.902,41.016,0
9506.194,31.738,41.992,18.066,24.902,29.297,0
9506.198,33.203,43.457,20.996,27.832,39.062,0
9506.202,35.645,41.504,24.902,26.855,52.734,0
9506.206,33.203,37.109,21.973,27.832,44.434,0
9506.210,28.809,34.668,20.508,31.738,31.250,0
9506.214,30.762,33.203,24.414,29.785,40.527,0
9506.217,31.738,35.645,30.273,23.438,52.734,0
9506.221,23.438,36.621,34.180,22.461,45.410,0
9506.225,18.555,34.180,33.691,24.414,24.902,0
9506.229,22.949,35.156,31.738,19.531,20.996,0
9506.233,29.297,39.062,28.320,16.602,30.273,0
9506.237,32.227,34.668,26.855,16.602,41.016,0
9506.241,27.344,30.273,26.367,15.137,41.504,0
9506.245,26.367,34.180,34.180,20.996,37.598,0
9506.249,29.785,34.180,36.133,21.973,40.039,0
9506.253,32.227,36.621,31.250,17.578,42.480,0
9506.257,34.668,40.527,33.203,25.879,39.062,0
9506.260,28.809,40.527,31.738,20.508,22.461,0
9506.264,24.902,37.109,30.762,10.254,18.066,0
9506.268,23.926,33.691,33.203,13.184,27.344,0
9506.272,22.949,31.250,35.645,15.137,23.438,0
9506.276,19.531,32.227,40.527,15.625,19.531,0
9506.280,18.066,33.691,34.668,19.043,21.973,0
9506.284,25.879,35.156,27.832,22.949,32.227,0
9506.288,20.020,32.715,29.785,18.066,34.180,0
9506.292,11.719,33.203,36.621,19.043,24.902,0
9506.296,10.742,34.668,40.527,16.113,23.438,0
9506.300,6.348,31.250,37.598,13.184,26.855,0
9506.303,5.371,26.855,31.738,3.906,31.738,0
9506.307,5.859,25.391,29.785,-0.977,28.809,0
9506.311,5.859,31.738,35.156,8.789,20.508,0
9506.315,8.789,35.645,36.133,3.906,27.344,0
9506.319,15.137,37.109,33.691,0.977,38.086,0
9506.323,8.301,37.598,30.273,3.418,24.414,0
9506.327,0.000,33.691,33.203,-0.488,-1.465,0
9506.331,1.465,31.250,35.156,-4.883,-2.441,0
9506.335,-6.348,30.762,33.203,-8.789,3.418,0
9506.339,-15.625,28.320,30.273,-15.137,-8.789,0
9506.342,-23.926,32.227,29.297,-22.949,-22.461,0
9506.346,-32.227,36.133,33.691,-26.855,-14.648,0
9506.350,-38.574,34.180,27.344,-39.551,-14.160,0
9506.354,-44.434,37.109,21.484,-55.664,-32.715,0
9506.358,-51.758,41.016,26.855,-55.176,-51.270,0
9506.362,-61.035,41.016,31.738,-57.129,-59.082,0
9506.366,-62.988,38.574,38.574,-62.500,-51.758,0
9506.370,-67.383,41.504,36.621,-70.801,-52.246,0
9506.374,-70.801,41.504,36.133,-73.242,-60.059,0
9506.378,-70.312,32.227,45.410,-70.312,-62.988,0
9506.382,-68.848,32.715,41.992,-73.242,-53.711,0
9506.385,-60.547,38.086,35.645,-67.871,-37.598,0
9506.389,-53.711,35.645,39.062,-62.988,-42.969,0
9506.393,-52.734,27.832,39.062,-59.570,-59.082,0
9506.397,-43.945,26.367,35.645,-46.875,-43.457,0
9506.401,-31.738,29.785,32.227,-38.086,-20.020,0
9506.405,-26.367,27.832,29.297,-30.273,-17.578,0
9506.409,-25.879,25.879,24.902,-17.578,-22.949,0
9506.413,-17.090,23.438,23.438,-5.371,-9.766,0
9506.417,-1.953,24.414,25.391,-2.930,14.648,0
9506.421,6.836,25.391,24.902,0.000,20.020,0
9506.425,13.672,24.902,28.320,8.301,13.184,0
9506.428,14.648,24.414,30.762,7.812,15.625,0
9506.432,12.207,25.879,29.297,4.395,29.297,0
9506.436,12.695,30.762,29.785,5.371,30.762,0
9506.440,6.836,26.855,33.691,8.789,15.625,0
9506.444,0.488,24.902,33.691,0.977,-0.977,0
9506.448,-5.371,27.832,28.320,-14.648,-5.371,0
9506.452,-13.184,33.203,22.949,-18.066,-1.953,0
9506.456,-25.391,28.809,24.414,-28.320,-18.066,0
9506.460,-40.039,28.809,31.738,-38.574,-42.969,0
9506.464,-55.176,30.762,37.598,-44.434,-42.969,0
9506.467,-74.707,27.832,36.621,-72.754,-43.457,0
9506.471,-94.238,25.879,38.574,-97.656,-64.941,0
9506.475,-103.027,29.297,38.574,-106.934,-86.426,0
9506.479,-100.586,33.691,38.574,-110.840,-89.844,0
9506.483,-107.910,28.809,44.922,-109.863,-84.473,0
9506.487,-111.328,29.785,41.504,-110.352,-86.914,0
9506.491,-108.398,31.738,36.133,-108.398,-101.074,0
9506.495,-106.445,28.809,36.621,-96.680,-103.027,0
9506.499,-93.262,29.785,35.645,-81.543,-82.031,0
9506.503,-76.172,31.250,36.621,-81.055,-62.500,0
9506.507,-64.453,30.762,33.691,-74.219,-56.152,0
9506.510,-48.340,33.691,37.598,-53.711,-55.176,0
9506.514,-34.668,29.297,41.504,-29.297,-35.156,0
9506.518,-22.461,25.879,40.039,-18.066,-8.301,0
9506.522,-5.371,27.344,38.086,-16.602,-2.441,0
9506.526,5.371,24.902,36.621,0.488,1.465,0
9506.530,19.043,27.832,34.180,18.555,28.320,0
9506.534,37.109,28.809,27.832,33.203,53.223,0
9506.538,48.828,29.785,26.855,40.527,68.359,0
9506.542,51.758,25.879,22.949,46.387,62.012,0
9506.546,53.711,18.066,17.090,54.688,57.129,0
9506.550,65.430,19.043,21.973,64.453,83.008,0
9506.553,79.102,22.949,27.344,77.637,96.191,0
9506.557,87.891,24.902,25.879,85.449,84.961,0
9506.561,95.215,24.902,27.344,90.332,81.543,0
9506.565,99.609,22.949,27.344,96.191,97.656,0
9506.569,103.027,21.484,20.996,99.609,114.258,0
9506.573,104.004,21.973,20.996,104.980,115.234,0
9506.577,98.145,20.508,18.555,101.074,103.027,0
9506.581,95.215,16.113,12.695,97.168,103.516,0
9506.585,99.609,18.066,15.137,99.121,109.863,0
9506.589,105.957,21.484,19.531,96.191,105.957,0
9506.592,104.980,23.438,21.973,98.633,96.680,0
9506.596,101.562,25.391,24.414,96.191,99.609,0
9506.600,104.492,26.367,23.438,92.285,115.234,0
9506.604,103.027,29.785,18.066,92.773,117.188,0
9506.608,99.121,34.668,17.090,91.797,108.398,0
9506.612,103.516,38.574,20.996,95.215,108.398,0
9506.616,103.516,39.551,24.414,93.750,113.770,0
9506.620,103.516,40.527,28.809,92.773,124.512,0
9506.624,102.539,41.504,33.691,94.238,116.211,0
9506.628,96.680,40.039,28.320,91.309,100.098,0
9506.632,100.586,44.434,26.367,92.285,116.211,0
9506.635,100.098,47.363,24.902,86.914,116.211,0
9506.639,95.703,47.363,19.531,86.914,96.191,0
9506.643,94.727,49.805,21.973,89.844,90.332,0
9506.647,90.820,48.828,23.926,92.773,100.586,0
9506.651,90.332,46.387,29.297,92.773,111.328,0
9506.655,89.844,42.969,31.250,83.008,100.586,0
9506.659,83.008,41.504,29.785,82.031,86.914,0
9506.663,77.637,42.480,24.414,83.496,90.332,0
9506.667,78.613,39.551,28.320,84.961,105.469,0
9506.671,82.520,35.645,34.668,76.172,105.469,0
9506.675,80.078,35.645,25.391,69.824,86.426,0
9506.678,79.590,37.109,17.090,74.219,81.543,0
9506.682,84.961,37.598,19.531,75.195,101.074,0
9506.686,87.402,41.016,21.973,73.730,111.816,0
9506.690,83.496,39.062,20.508,74.707,104.004,0
9506.694,78.613,40.527,17.090,71.777,96.680,0
9506.698,75.684,42.969,14.648,65.430,103.516,0
9506.702,78.125,39.062,18.555,70.312,113.770,0
9506.706,80.078,39.551,20.996,79.590,103.516,0
9506.710,73.242,39.551,19.531,66.895,83.496,0
9506.714,75.684,40.039,19.531,53.711,93.262,0
9506.717,77.637,40.039,20.020,50.781,102.051,0
9506.721,69.336,36.621,18.555,52.246,87.891,0
9506.725,67.871,38.086,21.484,55.176,71.777,0
9506.729,65.430,37.109,22.461,49.805,69.336,0
9506.733,60.547,33.691,17.090,44.922,77.637,0
9506.737,61.523,33.691,14.648,47.852,80.566,0
9506.741,56.152,30.273,16.602,49.316,69.336,0
9506.745,51.758,29.297,18.066,47.363,64.453,0
9506.749,55.176,33.203,13.184,49.805,71.289,0
9506.753,55.176,32.227,13.184,53.223,78.613,0
9506.757,52.734,29.785,19.531,51.758,73.730,0
9506.760,48.828,31.250,22.949,47.363,62.988,0
9506.764,48.340,27.344,25.879,41.504,67.871,0
9506.768,48.340,21.484,22.461,40.527,70.312,0
9506.772,46.387,22.949,24.902,50.781,64.453,0
9506.776,45.410,25.391,25.879,50.781,48.828,0
9506.780,47.852,28.809,25.391,50.293,47.852,0
9506.784,49.805,31.738,25.391,47.852,61.523,0
9506.788,51.758,32.227,22.949,45.898,64.453,0
9506.792,48.828,35.645,24.902,52.734,55.176,0
9506.796,47.852,37.598,23.926,52.246,55.176,0
9506.800,46.387,34.668,26.367,47.363,66.406,0
9506.803,44.922,31.738,21.484,45.410,63.965,0
9506.807,50.781,33.203,26.367,44.434,55.176,0
9506.811,42.480,32.227,36.621,43.945,49.805,0
9506.815,35.156,28.320,33.691,42.969,53.711,0
9506.819,41.992,31.250,34.668,43.457,61.035,0
9506.823,39.062,31.738,37.109,43.457,49.316,0
9506.827,34.180,31.250,35.645,41.992,34.668,0
9506.831,38.086,36.621,30.273,41.504,41.016,0
9506.835,42.969,37.598,28.809,43.457,47.852,0
9506.839,45.410,38.574,27.832,44.434,44.922,0
9506.842,41.016,37.109,23.926,41.504,31.738,0
9506.846,41.016,36.621,27.344,43.945,42.480,0
9506.850,46.387,37.598,35.156,44.922,62.012,0
9506.854,53.223,37.598,38.086,49.316,63.965,0
9506.858,61.523,38.574,36.621,51.758,52.734,0
9506.862,54.688,31.250,32.715,48.340,37.598,0
9506.866,46.875,28.320,28.809,50.781,50.293,0
9506.870,54.688,33.203,26.367,44.922,65.430,0
9506.874,53.711,31.738,27.832,41.504,53.711,0
9506.878,49.316,28.320,26.855,44.922,52.734,0
9506.882,48.828,27.832,20.996,47.363,64.453,0
9506.885,37.109,28.809,23.438,38.574,57.617,0
9506.889,30.762,30.762,25.391,34.180,43.457,0
9506.893,30.762,32.715,28.809,38.574,39.551,0
9506.897,33.691,32.227,33.203,38.086,49.316,0
9506.901,41.504,32.715,30.762,41.016,62.500,0
9506.905,45.410,32.715,27.344,43.457,59.570,0
9506.909,42.969,31.250,26.855,42.969,42.480,0
9506.913,40.527,34.180,29.785,47.852,46.875,0
9506.917,41.504,34.668,33.203,44.922,56.641,0
9506.921,41.504,33.691,36.133,43.457,54.199,0
9506.925,39.062,33.691,41.992,45.898,44.922,0
9506.928,39.062,33.691,50.293,34.668,43.945,0
9506.932,44.434,35.156,47.363,32.227,62.012,0
9506.936,42.480,34.668,39.062,35.645,69.336,0
9506.940,39.062,39.551,41.992,38.086,65.918,0
9506.944,38.574,42.480,45.410,37.109,57.617,0
9506.948,38.086,39.551,50.781,40.039,67.871,0
9506.952,37.598,36.621,52.246,34.180,81.055,0
9506.956,41.016,35.156,45.898,27.832,72.754,0
9506.960,36.133,37.109,42.969,28.320,54.199,0
9506.964,29.785,35.645,44.434,27.832,54.688,0
9506.967,36.133,37.598,46.875,36.133,73.242,0
9506.971,39.551,33.691,44.434,30.273,72.266,0
9506.975,33.691,26.367,41.992,24.902,54.688,0
9506.979,32.227,28.809,41.504,30.762,56.152,0
9506.983,34.668,30.762,42.969,30.273,69.824,0
9506.987,32.227,30.273,41.992,29.785,70.312,0
9506.991,31.738,32.227,38.086,26.367,55.176,0
9506.995,30.762,31.250,41.992,20.508,44.434,0
9506.999,30.273,28.320,36.621,16.113,49.316,0
9507.003,33.203,30.273,27.344,17.578,51.270,0
9507.007,34.180,34.180,38.574,26.367,50.781,0
9507.010,30.273,34.180,39.551,20.996,41.504,0
9507.014,26.367,30.273,31.738,14.648,40.527,0
9507.018,31.250,30.273,33.203,27.344,53.223,0
9507.022,36.621,32.715,36.621,30.273,56.152,0
9507.026,30.762,35.156,37.598,26.855,42.480,0
9507.030,23.926,33.691,38.574,32.227,38.086,0
9507.034,29.297,29.785,37.109,24.414,48.340,0
9507.038,29.785,31.250,39.062,15.625,47.852,2
9507.042,28.809,34.180,42.480,22.949,41.504,0
9507.046,30.273,34.668,43.945,27.832,43.945,0
9507.050,27.344,30.762,40.039,27.344,48.340,0
9507.053,27.344,27.344,34.180,34.668,53.711,0
9507.057,25.391,27.832,34.668,35.645,49.316,0
9507.061,23.926,28.320,34.180,29.297,43.945,0
9507.065,28.320,26.855,31.250,29.297,50.781,0
9507.069,30.273,26.855,34.668,29.297,53.711,0
9507.073,26.855,29.785,36.621,35.645,48.828,0
9507.077,23.438,30.762,31.738,37.109,44.922,0
9507.081,22.949,28.320,33.691,30.273,55.664,0
9507.085,23.438,27.344,34.180,23.926,57.129,0
9507.089,22.461,29.297,30.273,26.367,41.992,0
9507.092,21.973,31.250,34.180,27.832,25.391,0
9507.096,16.113,28.320,36.621,22.461,24.902,0
9507.100,19.531,29.785,43.945,24.414,41.992,0
9507.104,21.973,30.762,48.828,22.461,45.898,0
9507.108,19.531,31.250,51.758,21.973,36.621,0
9507.112,19.043,35.156,44.434,26.367,32.715,0
9507.116,22.461,31.250,40.527,31.250,43.945,0
9507.120,25.879,29.297,52.246,27.344,52.734,0
9507.124,22.949,31.738,43.457,21.484,38.086,0
9507.128,19.531,34.668,37.109,26.855,26.855,0
9507.132,19.531,34.668,39.551,26.367,35.156,0
9507.135,23.438,31.738,41.016,24.902,48.340,0
9507.139,21.484,29.297,44.434,25.391,46.387,0
9507.143,16.602,29.297,45.898,19.531,30.762,0
9507.147,20.996,29.297,45.410,16.602,41.016,0
9507.151,28.320,29.297,43.457,17.578,59.082,0
9507.155,27.344,26.367,44.434,21.973,53.711,0
9507.159,19.043,23.926,40.527,16.602,34.668,0
9507.163,16.602,27.344,35.645,17.578,38.086,0
9507.167,23.926,26.855,38.574,20.020,54.199,0
9507.171,36.621,25.391,39.551,19.531,55.664,0
9507.175,42.969,30.273,41.016,26.855,51.270,0
9507.178,35.645,33.203,37.598,30.273,47.363,0
9507.182,33.691,30.273,35.156,36.133,59.570,0
9507.186,33.203,29.297,37.598,35.645,67.871,0
9507.190,25.391,28.320,34.180,26.367,55.664,0
9507.194,27.344,30.273,30.762,26.855,49.805,0
9507.198,34.668,32.715,26.367,26.855,61.035,0
9507.202,37.109,31.738,25.391,23.926,68.359,0
9507.206,33.691,34.668,25.879,24.414,56.641,0
9507.210,30.273,37.598,20.508,30.762,40.527,0
9507.214,34.180,35.645,21.973,34.668,49.316,0
9507.217,38.574,32.227,24.902,26.367,55.176,0
9507.221,41.992,30.273,30.273,22.461,46.387,0
9507.225,32.227,30.273,33.203,31.250,35.156,0
9507.229,24.902,32.227,30.273,32.227,34.180,0
9507.233,26.367,31.250,33.203,20.996,48.828,0
9507.237,27.832,31.738,32.227,21.973,50.781,0
9507.241,28.809,35.156,23.926,32.227,38.574,0
9507.245,26.855,33.203,25.391,32.227,30.762,0
9507.249,29.785,33.691,37.598,32.227,45.898,0
9507.253,28.320,31.250,44.434,34.668,54.199,0
9507.257,24.414,26.855,43.945,32.227,49.805,0
9507.260,26.855,25.879,48.828,30.762,43.457,0
9507.264,29.297,26.855,47.852,28.809,44.922,0
9507.268,32.227,27.344,44.434,28.320,58.105,0
9507.272,31.250,26.367,41.992,28.809,53.711,0
9507.276,29.297,26.367,39.062,29.297,36.133,0
9507.280,26.855,26.855,39.551,31.250,29.785,0
9507.284,24.902,29.297,41.016,31.738,35.645,0
9507.288,26.367,32.715,40.527,32.227,41.504,0
9507.292,29.785,32.715,39.062,27.832,32.227,0
9507.296,28.809,31.738,38.574,22.461,33.691,0
9507.300,31.250,30.762,37.598,25.879,53.223,0
9507.303,34.668,32.227,34.668,28.809,61.035,0
9507.307,33.203,37.109,34.180,29.297,55.176,0
9507.311,28.809,31.738,27.832,24.414,39.551,0
9507.315,28.809,24.414,23.438,24.414,45.410,0
9507.319,33.691,25.879,30.762,31.738,60.059,0
9507.323,37.109,31.738,38.574,34.668,47.852,0
9507.327,33.203,31.250,41.504,30.762,27.344,0
9507.331,25.879,26.367,36.621,27.832,28.809,0
9507.335,31.738,28.320,30.762,29.297,46.875,0
9507.339,32.715,32.715,29.297,31.738,51.270,0
9507.342,27.832,30.273,29.785,29.785,37.598,0
9507.346,25.391,29.785,30.762,24.902,37.109,0
9507.350,24.414,29.297,32.715,20.020,45.410,0
9507.354,31.738,29.785,30.762,27.344,49.316,0
9507.358,34.668,37.598,28.809,32.715,40.039,0
9507.362,39.551,40.527,32.715,25.391,32.715,0
9507.366,43.457,37.109,31.250,24.414,41.992,0
9507.370,39.551,35.645,33.691,29.785,45.410,0
9507.374,38.574,36.621,39.062,28.320,34.180,0
9507.378,31.250,35.156,30.762,21.973,22.949,0
9507.382,34.180,37.598,28.809,29.297,41.992,0
9507.385,40.039,40.039,31.738,28.320,57.129,0
9507.389,37.598,41.016,33.203,27.832,48.828,0
9507.393,34.180,40.039,38.574,33.691,39.062,0
9507.397,34.180,38.574,38.086,33.691,44.922,0
9507.401,33.691,38.086,38.574,25.391,53.711,0
9507.405,32.227,36.621,30.762,19.531,50.293,0
9507.409,32.227,38.086,27.344,25.391,34.668,0
9507.413,31.250,38.574,34.668,30.273,26.855,0
9507.417,33.691,40.527,42.969,41.016,47.363,0
9507.421,37.109,41.504,47.852,39.062,56.641,0
9507.425,34.668,41.504,41.504,33.203,40.527,0
9507.428,31.738,39.062,41.504,36.133,25.391,0
9507.432,33.203,36.133,41.992,29.785,35.645,0
9507.436,37.109,37.109,37.598,27.344,49.316,0
9507.440,35.156,38.086,33.203,33.691,39.551,0
9507.444,27.832,37.598,29.297,31.738,30.762,0
9507.448,27.832,35.645,33.691,25.879,43.457,0
9507.452,28.809,31.250,42.969,23.926,55.176,0
9507.456,28.320,27.832,48.828,29.785,52.734,0
9507.460,28.320,32.227,42.969,33.691,34.180,0
9507.464,25.391,36.621,38.574,28.809,37.109,0
9507.467,26.855,34.180,41.992,29.297,51.270,0
9507.471,23.926,28.809,36.133,24.902,47.852,0
9507.475,27.344,32.715,35.645,26.855,39.551,0
9507.479,26.367,38.574,35.156,21.484,39.062,0
9507.483,23.438,34.180,31.738,17.090,55.664,0
9507.487,29.785,35.156,33.203,26.855,62.500,0
9507.491,32.715,38.086,34.180,25.879,49.316,0
9507.495,33.203,36.621,36.133,26.367,51.758,0
9507.499,30.762,33.691,31.738,29.785,63.965,0
9507.503,27.832,32.715,26.367,25.879,62.012,0
9507.507,26.855,34.180,24.902,22.949,51.270,0
9507.510,22.461,35.156,27.344,28.809,45.410,0
9507.514,22.461,40.039,29.297,26.855,52.246,0
9507.518,25.391,34.180,28.320,21.973,41.992,0
9507.522,24.902,31.250,27.832,26.367,29.785,0
9507.526,25.391,35.645,27.832,22.949,23.438,0
9507.530,29.785,38.086,28.320,26.367,24.414,0
9507.534,36.133,37.598,28.809,33.691,40.039,0
9507.538,38.086,35.156,25.391,26.367,46.875,0
9507.542,32.715,35.645,23.926,18.555,34.180,0
9507.546,31.250,38.086,21.484,24.902,33.691,0
9507.550,34.180,35.645,22.949,29.785,46.387,0
9507.553,36.621,32.715,27.344,24.414,55.176,0
9507.557,38.086,33.691,22.949,31.250,45.898,0
9507.561,34.668,33.691,22.949,28.809,30.273,0
9507.565,33.691,36.621,30.273,20.508,36.133,0
9507.569,34.668,39.062,38.086,22.461,46.387,0
9507.573,31.250,37.598,37.598,21.484,35.645,0
9507.577,24.902,33.691,33.691,22.949,17.578,0
9507.581,27.832,30.273,34.180,26.367,25.879,0
9507.585,33.203,28.320,32.227,30.273,37.109,0
9507.589,38.086,32.227,29.785,27.832,38.574,0
9507.592,39.062,32.715,32.227,23.926,35.645,0
9507.596,33.203,32.715,32.227,27.344,39.062,0
9507.600,33.691,32.227,30.762,34.180,54.199,0
9507.604,36.133,32.715,37.598,35.156,62.500,0
9507.608,34.180,37.598,40.039,34.668,51.758,0
9507.612,32.715,36.133,33.691,38.574,42.480,0
9507.616,34.668,35.645,32.227,36.133,44.922,0
9507.620,37.109,37.109,35.156,32.227,45.898,0
9507.624,37.109,37.109,35.156,35.156,42.969,0
9507.628,34.668,36.621,34.180,35.645,27.832,0
9507.632,30.762,36.621,32.715,33.203,34.668,0
9507.635,35.156,40.039,31.738,38.086,52.246,0
9507.639,34.180,39.551,32.227,31.738,43.457,0
9507.643,25.391,35.156,30.273,20.996,34.668,0
9507.647,24.902,35.645,24.902,23.438,41.504,0
9507.651,30.762,38.086,23.926,23.926,51.758,0
9507.655,34.180,40.039,28.809,26.855,53.223,0
9507.659,33.691,39.062,30.273,29.297,37.598,0
9507.663,32.227,39.062,33.203,25.391,37.598,0
9507.667,33.691,35.645,36.621,21.484,48.340,0
9507.671,35.645,32.715,37.109,26.855,50.293,0
9507.675,34.180,34.668,34.180,33.203,38.086,0
9507.678,34.180,36.133,25.391,34.668,33.203,0
9507.682,39.062,37.109,31.738,28.809,47.852,0
9507.686,41.992,37.598,41.504,26.367,56.641,0
9507.690,38.086,35.645,39.551,35.645,52.246,0
9507.694,32.227,32.227,33.691,37.598,41.504,0
9507.698,30.273,35.645,30.762,32.715,53.223,0
9507.702,32.715,34.668,31.250,29.297,70.312,0
9507.706,31.250,32.227,25.391,22.949,60.059,0
9507.710,28.320,33.691,25.391,24.414,46.387,0
9507.714,29.297,31.738,32.227,27.344,49.316,0
9507.717,35.156,35.156,26.855,20.996,54.688,0
9507.721,34.180,36.621,20.020,18.555,51.270,0
9507.725,27.344,33.691,25.391,20.508,29.785,0
9507.729,23.926,30.273,30.273,24.414,16.602,0
9507.733,22.949,27.832,27.832,28.809,29.785,0
9507.737,26.855,31.250,28.320,20.508,41.992,0
9507.741,25.879,33.203,25.879,16.602,35.156,0
9507.745,25.391,32.227,24.414,22.461,33.691,0
9507.749,29.297,31.738,28.320,24.902,44.922,0
9507.753,29.297,29.297,31.250,25.391,51.758,0
9507.757,29.785,29.785,37.598,22.949,52.734,0
9507.760,30.273,31.738,39.062,17.090,34.668,0
9507.764,23.926,28.809,36.133,22.949,26.855,0
9507.768,25.879,29.297,32.227,23.926,39.062,0
9507.772,27.344,32.227,29.785,19.531,38.086,0
9507.776,23.926,31.250,31.250,21.973,20.020,0
9507.780,29.785,32.227,29.785,20.996,20.508,0
9507.784,33.691,37.109,30.762,23.926,37.598,0
9507.788,28.320,36.621,36.133,25.879,36.621,0
9507.792,27.832,33.691,41.016,28.809,28.320,0
9507.796,26.367,29.297,42.480,29.785,29.785,0
9507.800,21.484,24.414,37.598,20.996,38.574,0
9507.803,18.555,22.461,29.297,16.602,46.875,0
9507.807,19.043,24.414,30.762,17.090,33.203,0
9507.811,22.461,32.227,41.992,23.438,27.344,0
9507.815,20.996,30.762,40.527,21.973,41.016,0
9507.819,22.949,24.414,34.668,24.902,47.363,0
9507.823,26.855,29.785,30.273,33.691,42.480,0
9507.827,24.414,33.691,28.320,30.273,30.273,0
9507.831,24.902,28.809,30.762,31.738,34.180,0
9507.835,28.320,28.320,27.344,25.391,49.805,0
9507.839,29.785,31.250,26.367,20.020,59.082,0
9507.842,25.391,28.320,26.855,23.438,50.293,0
9507.846,28.809,28.809,23.438,29.297,52.734,0
9507.850,39.551,34.180,32.227,37.109,78.125,0
9507.854,37.109,32.715,33.691,26.367,79.102,0
9507.858,28.809,29.297,24.414,22.461,55.664,0
9507.862,23.438,28.320,21.484,31.250,41.992,0
9507.866,20.508,27.832,21.973,33.203,47.363,0
9507.870,23.926,32.227,28.320,32.715,53.711,0
9507.874,23.438,36.133,33.691,33.691,41.504,0
9507.878,18.555,36.133,32.227,27.832,23.438,0
9507.882,17.090,34.668,31.250,24.902,30.273,0
9507.885,21.973,38.574,31.738,33.203,50.293,0
9507.889,23.438,41.504,30.762,29.297,45.898,0
9507.893,18.066,30.762,30.762,21.973,29.785,0
9507.897,14.160,23.926,31.250,23.926,37.109,0
9507.901,17.090,25.879,30.273,26.367,52.734,0
9507.905,23.438,26.367,32.227,29.785,51.758,0
9507.909,22.949,28.809,32.715,29.785,37.598,0
9507.913,21.484,33.691,26.367,30.762,34.180,0
9507.917,20.020,35.156,25.391,32.227,39.062,0
9507.921,17.090,36.133,28.809,32.715,34.180,0
9507.925,15.137,36.621,28.320,28.320,25.391,0
9507.928,13.672,38.086,29.297,20.508,15.625,0
9507.932,17.090,40.039,31.250,25.391,22.949,0
9507.936,21.973,39.062,29.785,28.320,34.180,0
9507.940,22.949,31.738,27.832,27.344,20.996,0
9507.944,25.391,29.785,33.691,27.344,15.137,0
9507.948,27.832,29.297,29.785,22.949,28.320,0
9507.952,32.227,27.344,24.414,24.414,38.086,0
9507.956,34.668,30.273,31.738,26.855,37.598,0
9507.960,28.320,26.855,35.645,34.668,28.809,0
9507.964,26.855,26.855,37.598,46.387,33.203,0
9507.967,31.250,28.320,37.109,35.156,42.969,0
9507.971,30.273,26.367,37.109,20.996,35.645,0
9507.975,29.297,27.832,37.598,24.902,21.973,0
9507.979,35.645,28.320,39.551,32.715,22.461,0
9507.983,40.527,24.902,37.598,29.785,34.180,0
9507.987,42.480,24.902,31.738,28.809,35.645,0
9507.991,36.621,25.879,30.273,31.738,21.973,0
9507.995,31.250,26.855,29.785,27.344,18.555,0
9507.999,38.086,33.203,34.180,36.621,43.457,0
9508.003,41.992,32.227,36.621,40.527,56.641,0
9508.007,39.551,30.273,34.668,28.320,42.969,0
9508.010,35.645,28.809,29.297,25.879,28.809,0
9508.014,40.039,29.785,29.297,31.738,37.598,0
9508.018,45.898,33.203,33.203,37.598,49.805,0
9508.022,42.969,30.762,30.273,33.691,41.992,0
9508.026,36.621,27.832,29.785,30.762,30.273,0
9508.030,40.527,28.809,32.715,36.133,41.016,0
9508.034,48.340,30.273,33.203,34.668,57.129,0
9508.038,48.340,34.668,35.645,37.109,64.941,0
9508.042,40.039,34.180,34.668,33.203,52.734,0
9508.046,36.621,31.250,32.227,21.973,41.992,0
9508.050,35.645,29.297,32.715,26.855,52.734,0
9508.053,40.039,26.855,39.551,34.668,65.430,0
9508.057,41.992,28.809,43.457,28.320,59.082,0
9508.061,36.133,33.203,35.156,20.508,47.363,0
9508.065,34.668,34.668,36.133,27.344,58.594,0
9508.069,36.133,31.250,33.691,29.785,64.453,0
9508.073,38.574,33.691,35.156,31.738,55.176,0
9508.077,39.062,36.621,49.805,39.062,47.852,0
9508.081,42.480,36.133,54.199,34.668,53.223,0
9508.085,42.969,39.062,48.340,27.344,60.059,0
9508.089,38.086,35.645,41.992,26.855,51.270,0
9508.092,37.598,32.227,41.992,21.484,40.039,0
9508.096,32.715,34.668,40.039,18.555,50.293,0
9508.100,33.203,36.133,35.645,22.949,61.035,0
9508.104,38.574,37.109,34.180,26.855,63.965,0
9508.108,36.621,36.621,40.039,32.715,53.223,0
9508.112,34.180,35.156,40.527,33.203,41.504,0
9508.116,35.156,33.203,36.133,17.578,49.316,0
9508.120,35.645,32.715,38.574,11.719,53.711,0
9508.124,29.785,28.809,36.133,16.602,39.062,0
9508.128,24.902,32.715,33.203,20.020,24.902,0
9508.132,32.715,40.039,40.039,25.879,40.039,0
9508.135,37.598,39.062,41.992,22.949,53.223,0
9508.139,33.203,32.227,36.133,24.902,49.805,0
9508.143,27.832,30.273,36.621,27.832,41.016,0
9508.147,23.926,30.762,35.645,20.996,38.086,0
9508.151,27.832,35.156,34.180,22.949,49.805,0
9508.155,26.367,38.086,36.621,24.902,47.363,0
9508.159,23.926,37.109,40.039,29.785,35.645,0
9508.163,27.344,36.621,43.457,29.297,37.109,0
9508.167,33.691,37.598,37.109,28.320,51.270,0
9508.171,34.668,30.762,37.598,28.320,58.594,0
9508.175,27.344,28.809,41.992,24.902,45.410,0
9508.178,23.926,34.180,40.527,30.762,37.598,0
9508.182,28.320,34.180,38.574,32.227,49.316,0
9508.186,34.180,34.180,36.133,34.668,59.570,0
9508.190,30.762,30.762,31.738,28.809,45.410,0
9508.194,26.855,30.762,31.250,28.809,31.738,0
9508.198,25.391,33.691,35.156,34.180,41.504,0
9508.202,28.320,33.203,32.715,28.320,50.781,0
9508.206,31.250,33.203,36.621,29.297,49.316,0
9508.210,26.855,33.203,36.133,28.809,38.574,0
9508.214,26.367,35.156,33.691,32.227,43.457,0
9508.217,36.133,35.156,39.062,31.738,57.129,0
9508.221,40.039,34.180,40.527,29.297,56.152,0
9508.225,39.062,34.668,43.945,35.645,41.992,0
9508.229,36.133,33.691,46.387,36.133,36.621,0
9508.233,31.738,29.297,41.016,28.809,47.852,0
9508.237,31.250,30.762,37.598,21.973,55.176,0
9508.241,31.738,35.156,39.062,27.832,45.898,0
9508.245,30.762,32.227,42.969,30.273,36.133,0
9508.249,31.738,29.785,36.621,21.484,47.363,0
9508.253,34.668,33.691,31.250,23.438,55.664,0
9508.257,36.133,34.668,36.133,26.367,50.293,0
9508.260,36.133,36.133,40.527,29.297,42.969,0
9508.264,33.203,36.133,40.039,32.227,46.875,0
9508.268,27.344,30.273,36.133,22.461,46.387,0
9508.272,26.367,28.320,38.086,22.461,41.016,0
9508.276,25.391,30.273,28.809,24.414,33.203,0
9508.280,25.879,31.738,21.973,17.578,36.621,0
9508.284,28.320,28.320,31.738,14.648,52.734,0
9508.288,28.320,28.809,31.250,16.113,50.781,0
9508.292,29.297,32.715,28.320,22.461,34.180,0
9508.296,27.832,30.762,26.855,22.461,25.879,0
9508.300,29.297,31.250,30.762,20.508,40.039,0
9508.303,33.691,32.227,35.156,19.531,52.734,0
9508.307,36.133,29.785,31.738,22.949,43.457,0
9508.311,38.086,29.785,27.832,25.879,36.621,0
9508.315,38.574,33.203,27.344,21.484,43.945,0
9508.319,36.621,35.645,31.738,25.391,55.176,0
9508.323,34.180,32.715,33.203,28.320,45.410,0
9508.327,30.273,29.785,32.715,31.250,27.832,0
9508.331,31.250,33.203,35.156,37.109,42.480,0
9508.335,38.574,35.645,41.016,42.480,62.988,0
9508.339,44.434,36.133,46.387,37.598,61.523,0
9508.342,37.109,31.250,42.480,29.297,41.992,0
9508.346,34.180,31.250,35.645,27.832,42.480,0
9508.350,37.598,33.203,32.227,25.391,57.129,0
9508.354,35.156,34.668,35.156,34.180,64.941,0
9508.358,35.645,36.621,36.621,31.738,57.129,0
9508.362,40.527,34.180,30.273,24.902,51.758,0
9508.366,45.410,32.715,28.320,30.273,63.965,0
9508.370,41.992,35.645,23.438,31.250,59.570,0
9508.374,31.738,36.621,22.949,33.691,48.340,0
9508.378,29.785,35.156,38.086,34.668,44.434,0
9508.382,36.133,36.133,39.551,31.738,46.875,0
9508.385,39.551,36.133,35.645,24.902,57.617,0
9508.389,38.574,31.250,33.203,27.832,59.082,0
9508.393,33.691,30.762,26.367,31.738,46.875,0
9508.397,36.133,33.203,18.555,23.438,52.734,0
9508.401,40.039,33.691,18.066,24.902,69.824,0
9508.405,35.156,33.691,21.973,29.785,67.383,0
9508.409,32.715,33.203,20.020,33.203,53.223,0
9508.413,37.598,40.039,22.461,32.227,58.594,0
9508.417,38.086,40.527,24.902,25.879,62.012,0
9508.421,33.691,35.645,21.973,29.297,57.129,0
9508.425,32.227,35.645,24.902,34.180,46.387,0
9508.428,37.109,35.645,27.832,38.574,36.621,0
9508.432,42.969,36.133,30.762,33.203,49.316,0
9508.436,47.363,37.109,30.762,25.879,61.035,0
9508.440,43.457,35.645,26.855,29.785,58.594,0
9508.444,31.250,33.203,24.902,30.762,48.828,0
9508.448,38.086,38.574,30.273,29.785,56.641,0
9508.452,46.387,42.480,35.645,28.809,73.242,0
9508.456,40.039,37.598,30.762,28.320,68.848,0
9508.460,34.668,34.180,25.391,31.250,50.781,0
9508.464,37.109,33.691,23.438,32.715,47.852,0
9508.467,40.527,34.668,23.438,36.621,59.082,0
9508.471,39.062,35.156,23.926,35.156,54.199,0
9508.475,34.668,33.691,23.438,34.180,30.273,0
9508.479,29.785,34.668,14.160,27.344,25.879,0
9508.483,36.133,35.156,13.672,25.391,44.922,0
9508.487,38.086,31.738,25.879,29.297,51.270,0
9508.491,32.227,33.203,26.855,29.297,39.551,0
9508.495,37.598,40.527,27.832,36.621,43.457,0
9508.499,42.480,40.039,25.879,34.668,59.082,0
9508.503,41.504,37.109,25.391,26.855,63.965,0
9508.507,42.480,41.504,30.762,28.809,54.688,0
9508.510,40.527,41.992,34.668,30.273,39.062,0
9508.514,37.598,38.574,34.668,31.250,40.527,0
9508.518,39.551,38.574,36.133,30.273,48.828,0
9508.522,38.086,38.086,35.156,27.832,42.969,0
9508.526,39.551,37.109,34.668,30.762,29.785,0
9508.530,37.598,37.598,34.180,31.250,28.320,0
9508.534,34.668,39.062,34.668,29.785,44.922,0
9508.538,35.156,35.645,35.645,27.344,49.805,0
9508.542,33.203,38.574,33.691,31.738,44.922,0
9508.546,32.227,42.480,33.203,35.156,46.875,0
9508.550,30.273,37.109,33.203,28.809,50.293,0
9508.553,26.855,37.598,36.133,21.484,52.734,0
9508.557,24.902,38.574,28.809,20.020,39.062,0
9508.561,24.902,38.574,21.973,25.879,30.273,0
9508.565,29.785,38.086,29.785,31.738,44.434,0
9508.569,34.668,37.598,35.156,36.621,57.617,0
9508.573,33.691,38.574,32.227,36.621,51.758,0
9508.577,25.879,35.156,25.391,26.367,34.668,0
9508.581,26.367,32.227,26.367,27.832,38.574,0
9508.585,30.762,31.250,24.902,26.367,46.875,0
9508.589,31.738,35.156,22.461,26.367,47.852,0
9508.592,24.902,35.156,21.484,29.297,32.715,0
9508.596,21.484,33.203,20.020,24.902,24.414,0
9508.600,29.297,35.645,23.926,26.367,43.457,0
9508.604,32.227,35.156,27.344,24.414,46.875,0
9508.608,28.320,34.668,24.414,21.973,30.273,0
9508.612,28.809,36.621,12.207,22.949,29.297,0
9508.616,32.227,35.645,13.184,25.879,43.945,0
9508.620,28.809,33.691,24.414,23.926,52.246,0
9508.624,27.832,35.645,22.461,23.926,50.293,0
9508.628,30.273,36.133,20.996,26.855,39.551,0
9508.632,27.344,34.180,21.973,30.273,36.621,0
9508.635,28.809,37.109,20.508,33.203,48.828,0
9508.639,28.320,37.598,21.484,26.367,44.434,0
9508.643,24.902,33.691,22.461,22.949,23.438,0
9508.647,29.297,37.109,28.320,33.691,28.320,0
9508.651,30.273,38.086,29.297,36.621,36.133,0
9508.655,28.320,36.621,24.414,20.020,33.691,0
9508.659,26.367,34.180,24.414,13.672,33.203,0
9508.663,26.367,34.668,22.461,21.973,37.598,0
9508.667,26.367,38.574,24.414,23.926,48.828,0
9508.671,28.320,38.086,30.762,25.391,47.363,0
9508.675,30.762,36.133,32.715,29.785,36.621,0
9508.678,29.297,38.086,31.250,28.809,31.738,0
9508.682,30.762,37.598,27.832,28.320,38.574,0
9508.686,34.668,32.227,29.785,32.227,44.922,0
9508.690,31.738,27.832,29.297,31.250,37.598,0
9508.694,28.320,27.832,31.738,35.645,40.039,0
9508.698,32.715,29.785,35.645,31.738,56.641,0
9508.702,34.668,32.715,32.227,30.762,63.965,0
9508.706,36.621,37.598,33.203,41.504,60.059,0
9508.710,40.039,40.039,31.738,36.133,49.316,0
9508.714,41.016,37.598,26.367,28.320,46.387,0
9508.717,41.504,38.574,27.344,27.344,56.641,0
9508.721,35.156,39.551,25.391,31.250,49.316,0
9508.725,27.832,37.598,29.297,28.320,29.785,0
9508.729,30.762,39.551,38.086,28.320,38.086,0
9508.733,38.086,38.086,40.527,31.250,48.340,0
9508.737,30.762,31.738,32.715,25.879,47.363,0
9508.741,26.367,31.250,31.250,30.273,37.598,0
9508.745,27.832,31.738,31.738,25.391,25.391,0
9508.749,29.297,32.227,32.715,21.484,37.598,0
9508.753,32.715,33.203,34.180,24.414,49.805,0
9508.757,32.715,36.133,32.227,26.855,43.945,0
9508.760,31.738,36.133,31.250,30.273,38.086,0
9508.764,33.691,34.180,29.297,36.133,39.551,0
9508.768,39.062,32.227,27.344,33.203,50.781,0
9508.772,43.457,33.691,29.785,30.762,50.781,0
9508.776,41.504,35.645,32.227,37.109,35.156,0
9508.780,36.621,29.785,33.691,33.691,33.203,0
9508.784,38.086,27.832,32.715,26.367,44.922,0
9508.788,45.410,33.691,36.621,34.668,57.129,0
9508.792,40.527,34.668,36.621,38.574,40.527,0
9508.796,28.320,33.203,29.297,25.391,21.484,0
9508.800,27.344,30.762,29.785,18.066,32.715,0
9508.803,31.250,28.320,30.762,19.531,38.574,0
9508.807,28.809,26.855,24.902,19.043,35.156,0
9508.811,26.367,25.391,33.203,23.438,33.203,0
9508.815,26.855,27.344,38.086,30.762,37.109,0
9508.819,27.344,26.855,27.832,27.344,41.992,0
9508.823,35.645,27.344,29.785,23.926,41.992,0
9508.827,38.086,31.738,36.133,23.438,37.109,0
9508.831,29.785,32.227,31.250,20.508,31.738,0
9508.835,29.297,28.809,29.785,21.484,34.668,0
9508.839,27.832,27.832,30.273,25.391,30.762,0
9508.842,26.855,30.273,29.297,25.879,22.461,0
9508.846,24.414,27.832,33.691,26.855,29.297,0
9508.850,26.367,27.344,36.621,31.250,43.945,0
9508.854,29.297,28.320,33.203,41.504,49.805,0
9508.858,31.250,31.250,29.785,48.340,41.992,0
9508.862,29.785,32.227,33.691,34.668,33.691,0
9508.866,28.809,31.738,29.785,25.879,43.945,0
9508.870,35.645,35.156,27.832,28.809,56.152,0
9508.874,29.297,35.645,29.297,24.414,42.969,0
9508.878,22.461,33.691,23.438,27.832,25.391,0
9508.882,27.832,38.086,27.344,30.762,34.668,0
9508.885,29.297,38.574,22.461,23.438,41.504,0
9508.889,26.855,30.273,12.695,18.555,33.691,0
9508.893,23.926,28.320,20.508,20.508,24.414,0
9508.897,23.438,29.785,23.438,26.855,29.297,0
9508.901,27.832,31.250,22.461,25.879,42.480,0
9508.905,27.344,31.738,20.020,18.066,42.969,0
9508.909,24.902,31.738,19.531,16.113,32.227,0
9508.913,23.926,30.273,21.484,22.461,28.320,0
9508.917,24.414,27.832,21.973,22.949,40.527,0
9508.921,31.738,29.785,21.973,20.020,47.852,0
9508.925,31.738,30.273,22.461,20.020,35.645,0
9508.928,25.879,33.691,24.902,26.855,26.367,0
9508.932,30.273,33.203,20.996,29.785,32.715,0
9508.936,34.668,30.273,18.555,23.926,37.598,0
9508.940,32.227,27.344,21.973,24.902,32.715,0
9508.944,31.250,27.344,19.531,25.879,24.902,0
9508.948,31.738,28.809,13.184,24.902,34.180,0
9508.952,35.645,27.344,12.695,26.855,47.852,0
9508.956,40.039,29.297,20.996,27.832,48.828,0
9508.960,35.645,28.320,24.414,27.832,40.527,0
9508.964,38.574,27.832,24.902,32.715,50.293,0
9508.967,47.363,31.250,28.320,36.133,65.430,0
9508.971,38.086,32.227,31.250,32.715,59.082,0
9508.975,33.691,34.668,34.180,29.297,49.805,0
9508.979,35.156,35.156,32.227,30.273,41.992,0
9508.983,28.809,31.738,25.391,25.391,37.598,0
9508.987,31.250,31.250,27.832,20.020,40.039,0
9508.991,32.227,32.227,38.574,25.879,33.691,0
9508.995,28.320,29.297,37.598,26.855,28.809,0
9508.999,28.809,26.855,31.738,23.438,37.598,0
9509.003,28.809,27.344,28.809,27.344,40.039,0
9509.007,28.809,27.344,30.273,20.508,33.203,0
9509.010,30.762,36.621,30.273,22.949,30.273,0
9509.014,29.785,37.598,28.320,33.691,42.969,0
9509.018,33.203,32.715,23.438,26.367,50.781,0
9509.022,38.086,32.715,20.508,25.391,49.805,0
9509.026,31.738,34.668,28.320,33.203,45.898,0
9509.030,27.832,38.086,29.785,30.273,47.852,0
9509.034,33.691,36.133,22.949,33.203,58.105,0
9509.038,33.691,32.715,20.996,31.250,52.734,0
9509.042,32.715,34.180,24.414,25.391,37.598,0
9509.046,33.203,34.668,23.926,29.785,31.738,0
9509.050,37.598,34.668,25.879,34.180,44.922,0
9509.053,41.504,36.133,27.832,31.738,58.594,0
9509.057,37.109,32.715,24.902,33.203,52.734,0
9509.061,37.598,29.297,24.902,37.109,37.109,0
9509.065,40.527,28.809,20.020,27.832,39.062,0
9509.069,44.434,31.738,18.066,32.227,57.129,0
9509.073,37.598,33.691,25.391,33.691,48.340,0
9509.077,26.367,33.203,29.785,29.297,27.344,0
9509.081,28.320,30.273,34.180,35.645,33.203,0
9509.085,37.598,31.738,39.551,35.645,44.922,0
9509.089,36.621,34.180,37.598,26.855,41.504,0
9509.092,30.762,33.203,33.691,27.344,27.832,0
9509.096,33.691,32.227,34.180,33.691,31.738,0
9509.100,34.180,31.738,27.832,31.250,47.363,0
9509.104,34.668,36.621,31.250,32.715,57.129,0
9509.108,32.227,38.086,38.574,29.297,47.852,0
9509.112,29.785,34.668,31.250,20.020,39.551,0
9509.116,32.227,33.691,21.484,27.344,55.664,0
9509.120,30.762,34.180,20.508,28.809,59.082,0
9509.124,29.785,34.180,27.832,24.414,48.828,0
9509.128,28.809,33.203,34.668,29.785,42.969,0
9509.132,26.855,31.738,32.715,34.180,50.781,0
9509.135,33.691,35.645,33.203,31.738,55.664,0
9509.139,33.203,35.645,36.133,25.391,41.016,0
9509.143,25.879,33.691,27.832,27.344,30.273,0
9509.147,26.855,30.762,26.367,33.691,39.062,0
9509.151,26.855,23.926,43.945,34.180,52.734,0
9509.155,25.391,25.391,45.898,29.785,51.270,0
9509.159,19.531,26.855,37.598,30.762,36.133,0
9509.163,16.113,29.785,44.434,29.297,38.086,0
9509.167,17.578,31.738,49.316,18.066,59.570,0
9509.171,22.461,29.785,45.898,12.207,61.035,0
9509.175,27.344,29.297,48.828,20.996,53.711,0
9509.178,24.902,31.738,48.340,28.809,50.293,0
9509.182,27.344,31.738,47.363,27.344,60.547,0
9509.186,32.227,29.785,48.828,30.762,71.289,0
9509.190,32.715,30.762,50.781,34.180,55.664,0
9509.194,31.738,33.691,47.852,27.832,43.457,0
9509.198,27.832,34.180,53.223,30.273,58.594,0
9509.202,26.855,32.715,52.246,30.273,64.453,0
9509.206,23.926,30.273,36.621,24.902,61.035,0
9509.210,19.531,31.738,42.480,26.367,57.617,0
9509.214,20.020,32.227,49.805,26.855,60.547,0
9509.217,23.438,28.320,49.805,29.785,76.172,0
9509.221,23.438,30.762,43.457,30.273,75.684,0
9509.225,19.531,32.715,35.645,20.996,54.688,0
9509.229,20.020,29.785,40.039,25.391,53.711,0
9509.233,20.996,28.320,40.527,34.668,62.012,0
9509.237,19.043,29.297,34.668,26.855,57.129,0
9509.241,18.555,29.785,34.180,21.973,48.340,0
9509.245,20.020,32.715,38.574,34.180,46.387,0
9509.249,24.902,35.156,41.016,32.227,57.129,0
9509.253,27.344,33.203,43.457,25.879,64.453,0
9509.257,31.250,35.645,51.270,34.180,63.477,0
9509.260,29.297,35.645,49.316,29.785,51.758,0
9509.264,24.902,29.297,38.086,22.949,51.758,0
9509.268,23.438,27.344,33.691,25.879,65.430,0
9509.272,22.949,31.250,37.109,29.297,61.035,0
9509.276,26.367,34.180,43.945,26.367,47.363,0
9509.280,27.832,35.156,39.551,30.273,44.434,0
9509.284,28.809,34.668,35.156,35.645,54.199,0
9509.288,29.297,33.691,45.898,27.832,60.547,0
9509.292,28.320,31.738,45.898,26.367,51.758,0
9509.296,30.273,34.668,40.527,29.297,48.828,0
9509.300,30.762,36.621,37.109,27.344,54.688,0
9509.303,34.668,35.156,33.203,32.227,59.570,0
9509.307,34.180,34.668,32.227,29.785,54.688,0
9509.311,27.832,36.133,32.227,19.531,43.457,0
9509.315,28.320,34.668,31.738,17.090,51.758,0
9509.319,34.668,35.645,32.227,24.902,66.406,0
9509.323,32.227,37.109,33.691,26.855,57.617,0
9509.327,24.414,38.086,28.809,25.391,39.551,0
9509.331,25.391,38.574,27.344,27.344,43.457,0
9509.335,26.855,35.156,30.273,26.855,52.246,0
9509.339,27.344,36.621,33.691,23.438,52.734,0
9509.342,22.461,35.156,34.180,20.508,41.992,0
9509.346,23.926,36.133,34.180,28.320,40.527,0
9509.350,36.133,41.504,37.598,31.738,55.664,0
9509.354,39.551,41.504,35.156,25.879,56.641,0
9509.358,32.227,38.086,34.180,28.320,46.875,0
9509.362,26.367,37.598,36.621,27.344,39.551,0
9509.366,28.809,40.527,31.738,25.879,56.152,0
9509.370,32.227,38.574,25.391,32.715,69.824,0
9509.374,31.250,35.645,31.738,38.086,51.758,0
9509.378,31.250,39.551,41.992,40.039,42.480,0
9509.382,29.297,36.133,42.480,31.738,48.340,0
9509.385,31.738,34.180,40.039,29.297,57.617,0
9509.389,35.645,35.645,41.992,33.691,52.246,0
9509.393,35.645,32.715,37.598,35.645,29.785,0
9509.397,34.180,31.250,32.715,29.785,26.855,0
9509.401,33.691,32.715,36.133,25.391,37.109,0
9509.405,35.156,31.738,36.621,36.621,40.527,0
9509.409,35.156,32.227,30.273,35.645,34.180,0
9509.413,32.227,31.738,33.203,32.715,39.062,0
9509.417,30.762,31.250,37.598,30.273,51.758,0
9509.421,33.203,34.668,39.062,27.344,55.176,0
9509.425,33.203,38.574,41.016,32.227,45.410,0
9509.428,29.297,34.180,39.551,27.832,25.879,0
9509.432,35.645,32.715,40.039,26.855,32.227,0
9509.436,39.062,35.156,40.039,26.855,41.504,0
9509.440,30.273,31.738,34.180,21.973,27.344,0
9509.444,30.273,28.320,34.180,27.832,21.484,0
9509.448,32.227,29.785,36.133,25.879,31.250,0
9509.452,30.762,26.855,31.738,23.926,38.574,0
9509.456,34.180,27.344,29.297,31.738,40.039,0
9509.460,34.180,31.250,28.809,27.344,35.645,0
9509.464,33.691,33.691,32.715,20.996,42.480,0
9509.467,33.203,31.738,36.621,18.066,53.223,0
9509.471,35.156,28.320,35.645,23.926,55.664,0
9509.475,40.039,34.668,36.133,36.621,43.945,0
9509.479,45.898,39.551,37.109,39.551,37.598,0
9509.483,51.758,40.039,33.203,30.762,48.340,0
9509.487,45.410,37.109,33.691,30.762,42.969,0
9509.491,34.668,36.133,32.227,32.715,24.902,0
9509.495,33.203,32.715,31.738,31.738,17.578,0
9509.499,37.109,29.785,30.762,31.738,24.414,0
9509.503,33.691,32.227,23.926,28.809,32.227,0
9509.507,26.367,32.715,24.414,28.320,24.414,0
9509.510,29.297,32.715,33.203,22.461,15.625,0
9509.514,34.180,34.668,39.551,20.508,26.367,0
9509.518,33.203,37.109,37.109,24.414,41.504,0
9509.522,34.668,35.156,37.598,26.855,43.457,0
9509.526,32.715,33.203,41.992,26.855,29.297,0
9509.530,31.738,33.203,40.527,26.855,23.926,0
9509.534,35.645,33.203,36.133,36.133,40.039,0
9509.538,39.062,38.086,41.992,33.691,52.734,0
9509.542,36.133,38.574,40.039,17.090,37.109,0
9509.546,33.691,34.668,31.250,22.461,31.738,0
9509.550,38.574,37.109,31.250,34.668,52.246,0
9509.553,38.574,37.598,35.645,37.598,62.500,0
9509.557,30.762,36.133,39.551,37.109,52.246,0
9509.561,24.414,37.109,36.133,37.109,36.133,0
9509.565,23.926,35.645,33.691,28.809,41.992,0
9509.569,27.832,34.668,30.762,24.414,53.711,0
9509.573,32.227,37.109,30.762,35.645,51.758,0
9509.577,31.738,37.598,34.180,31.250,44.434,0
9509.581,31.738,31.738,31.250,22.949,48.828,0
9509.585,31.250,31.738,25.391,25.879,53.223,0
9509.589,36.133,37.598,24.902,28.320,52.246,0
9509.592,43.945,42.969,32.715,32.715,43.945,0
9509.596,41.504,44.434,30.762,31.738,40.039,0
9509.600,37.109,41.016,23.438,34.180,48.828,0
9509.604,37.109,39.062,20.996,31.250,55.176,0
9509.608,35.645,33.691,17.578,22.461,44.434,0
9509.612,37.109,32.715,24.414,32.227,41.016,0
9509.616,35.156,35.645,26.855,29.297,50.293,0
9509.620,36.133,35.156,27.344,30.273,58.105,0
9509.624,38.086,33.203,36.621,37.598,53.223,0
9509.628,33.691,32.227,32.227,33.691,34.180,0
9509.632,37.598,36.133,29.785,30.762,36.133,0
9509.635,41.016,34.180,28.809,25.879,42.480,0
9509.639,37.109,29.785,26.855,23.438,29.297,0
9509.643,36.133,31.738,28.809,25.391,14.160,0
9509.647,39.551,33.691,26.855,25.879,24.902,0
9509.651,41.992,30.762,28.320,34.668,41.504,0
9509.655,40.039,32.227,22.949,35.156,38.574,0
9509.659,37.598,34.668,20.020,26.367,35.156,0
9509.663,31.738,34.180,23.926,26.367,33.691,0
9509.667,29.297,33.203,26.855,27.832,41.016,0
9509.671,34.668,32.715,25.879,27.344,54.199,0
9509.675,32.715,31.250,20.508,20.996,43.945,0
9509.678,30.273,25.391,19.043,20.020,30.762,0
9509.682,37.598,25.391,20.508,26.855,37.598,0
9509.686,36.133,29.297,20.508,22.949,38.086,0
9509.690,31.250,30.762,22.461,27.344,31.250,0
9509.694,27.832,28.320,26.367,35.156,27.832,0
9509.698,27.832,24.902,22.949,25.879,34.668,0
9509.702,32.715,21.973,20.996,18.066,50.781,0
9509.706,31.738,21.484,22.949,17.090,51.270,0
9509.710,28.320,22.949,24.902,20.996,36.133,0
9509.714,28.320,27.344,16.113,24.902,41.992,0
9509.717,29.297,34.180,17.090,28.320,47.852,0
9509.721,25.391,32.227,29.297,20.020,36.621,0
9509.725,30.762,32.227,29.297,19.043,26.855,0
9509.729,35.645,33.203,23.926,22.949,26.855,0
9509.733,33.203,33.691,19.043,18.066,41.016,0
9509.737,35.156,35.156,22.461,22.461,45.898,0
9509.741,32.227,33.203,23.926,23.926,32.227,0
9509.745,29.297,32.227,22.461,26.367,29.785,0
9509.749,28.320,29.785,22.461,30.273,39.062,0
9509.753,25.391,27.832,22.949,25.879,44.922,0
9509.757,22.461,23.438,23.926,18.066,40.527,0
9509.760,21.973,23.438,23.926,29.297,32.715,0
9509.764,22.461,27.344,26.367,35.645,41.016,0
9509.768,23.438,26.855,23.926,18.066,49.805,0
9509.772,25.391,24.902,20.508,18.555,47.363,0
9509.776,22.461,24.902,24.414,25.391,28.809,0
9509.780,20.508,25.879,31.250,24.902,23.438,0
9509.784,24.902,29.297,33.691,23.438,33.691,0
9509.788,29.297,31.250,33.203,22.461,34.180,0
9509.792,27.832,30.762,35.645,26.367,25.879,0
9509.796,25.391,28.809,33.691,26.367,25.391,0
9509.800,29.785,29.297,22.949,24.902,45.410,0
9509.803,36.133,33.203,20.996,24.414,54.688,0
9509.807,34.180,30.273,30.273,27.832,45.410,0
9509.811,30.273,25.391,33.203,27.832,36.621,0
9509.815,31.738,27.344,39.551,32.227,44.922,0
9509.819,37.598,28.320,42.480,36.133,62.012,0
9509.823,39.062,26.367,38.086,35.645,55.664,0
9509.827,32.227,23.926,32.227,25.391,31.250,0
9509.831,34.668,22.949,29.785,29.297,37.598,0
9509.835,38.086,26.367,36.621,37.598,52.734,0
9509.839,32.227,29.297,35.156,24.414,44.922,0
9509.842,30.273,25.391,27.832,20.020,29.785,0
9509.846,36.133,26.855,33.691,29.297,32.227,0
9509.850,38.574,26.367,38.574,39.551,48.340,0
9509.854,38.086,25.879,35.645,39.062,52.734,0
9509.858,38.086,29.785,36.621,31.250,42.969,0
9509.862,30.273,27.832,36.133,18.555,30.273,0
9509.866,28.809,28.320,33.691,18.555,38.086,0
9509.870,32.715,28.320,33.691,28.809,51.758,0
9509.874,28.320,27.832,34.668,25.879,40.527,0
9509.878,26.855,32.715,35.156,18.555,22.949,0
9509.882,33.203,32.715,34.180,25.879,32.227,0
9509.885,34.180,29.785,31.738,25.391,45.410,0
9509.889,33.691,35.645,32.715,22.461,39.062,0
9509.893,33.203,35.645,30.762,29.297,27.344,0
9509.897,29.297,25.879,31.250,29.297,31.250,0
9509.901,26.855,24.414,35.156,31.250,45.410,0
9509.905,25.391,25.879,30.762,26.855,40.527,0
9509.909,26.855,26.855,32.227,24.902,31.738,0
9509.913,32.227,32.227,35.645,30.273,43.457,0
9509.917,34.668,36.133,33.203,27.832,58.105,0
9509.921,37.109,33.691,33.691,30.762,59.570,0
9509.925,34.180,33.203,31.250,28.809,44.922,0
9509.928,29.785,34.668,28.320,25.391,37.109,0
9509.932,33.691,31.250,25.879,26.855,48.828,0
9509.936,33.203,25.391,24.414,22.949,45.410,0
9509.940,25.879,26.855,27.832,31.738,27.344,0
9509.944,18.555,30.273,32.715,31.250,19.531,0
9509.948,24.902,33.203,33.203,20.996,34.668,0
9509.952,31.738,34.180,35.156,23.438,52.734,0
9509.956,27.832,28.320,31.738,24.414,51.758,0
9509.960,25.879,26.855,24.902,26.367,44.922,0
9509.964,27.832,29.297,23.926,27.344,54.688,0
9509.967,32.715,31.738,25.391,33.691,63.477,0
9509.971,35.645,31.738,23.926,38.086,63.965,0
9509.975,33.203,32.715,20.508,34.668,54.199,0
9509.979,32.227,33.691,29.297,29.785,52.734,0
9509.983,33.691,31.738,35.156,30.762,67.383,0
9509.987,34.180,29.297,30.762,27.344,66.406,0
9509.991,33.203,27.344,28.809,23.438,46.875,0
9509.995,31.250,28.320,29.297,27.832,39.062,0
9509.999,32.227,27.832,29.297,27.832,55.664,0
9510.003,30.762,28.320,26.367,25.879,61.035,0
9510.007,28.809,30.273,28.320,30.273,53.711,0
9510.010,31.250,32.227,32.715,30.273,41.992,0
9510.014,29.785,31.250,31.250,27.832,41.016,0
9510.018,31.250,27.832,32.715,35.156,57.617,0
9510.022,35.156,26.855,32.227,32.715,52.734,0
9510.026,34.668,29.785,25.391,26.367,32.715,0
9510.030,32.715,34.180,30.273,31.250,29.785,0
9510.034,30.762,33.203,34.180,23.926,28.320,0
9510.038,31.250,33.203,30.762,21.484,27.832,0
9510.042,29.297,36.133,38.086,31.250,28.809,0
9510.046,27.832,38.086,41.504,27.344,30.273,0
9510.050,25.879,34.668,31.250,22.949,43.945,0
9510.053,24.902,29.785,24.902,21.973,51.758,0
9510.057,26.855,27.832,25.879,22.461,45.898,0
9510.061,28.809,26.367,25.879,29.785,43.457,0
9510.065,30.273,27.832,21.484,27.344,51.270,0
9510.069,32.227,28.809,21.973,22.949,56.152,0
9510.073,33.691,29.297,28.809,30.762,54.199,0
9510.077,31.738,28.809,34.668,36.621,37.109,0
9510.081,33.691,31.738,36.133,32.227,37.598,0
9510.085,34.180,35.156,38.574,26.855,50.781,0
9510.089,32.227,33.691,40.039,28.809,40.527,0
9510.092,28.320,33.691,35.645,32.227,25.879,0
9510.096,28.809,34.180,32.227,29.297,26.855,0
9510.100,36.133,33.691,37.598,30.273,42.480,0
9510.104,38.574,30.273,39.551,25.879,44.434,0
9510.108,31.250,27.832,36.133,21.484,26.367,0
9510.112,25.879,26.367,32.715,23.438,26.855,0
