timestamps,TP9,AF7,AF8,TP10,Right AUX,Marker0
1542736836.512,39.551,-44.922,1.465,121.582,6.348,0
1542736836.516,65.918,-29.785,-5.859,106.445,-4.395,0
1542736836.520,62.988,-22.461,-8.789,106.445,36.133,0
1542736836.524,51.758,-24.414,3.906,126.953,39.551,0
1542736836.528,51.758,-27.344,2.930,124.023,43.457,0
1542736836.532,43.945,-24.902,-6.836,127.441,24.414,0
1542736836.535,59.082,-19.043,-6.348,138.184,41.016,0
1542736836.539,62.012,-23.438,-2.441,121.094,64.941,0
1542736836.543,47.852,-37.598,-7.812,106.934,76.172,0
1542736836.547,58.105,-28.320,-23.438,101.562,62.988,0
1542736836.551,62.012,-21.973,-25.391,107.422,22.949,0
1542736836.555,21.484,-27.832,-19.531,112.305,61.035,0
1542736836.559,26.367,-19.531,-15.625,90.820,35.645,0
1542736836.563,35.156,-10.254,-19.531,69.336,15.137,0
1542736836.567,23.438,-17.090,-29.785,61.523,76.660,0
1542736836.571,32.715,-29.785,-34.668,53.711,55.176,0
1542736836.574,39.551,-29.297,-35.645,64.453,46.875,0
1542736836.578,41.016,-16.113,-40.039,66.895,43.457,0
1542736836.582,22.949,-15.625,-23.438,79.590,58.594,0
1542736836.586,38.086,-16.113,-10.254,86.914,59.570,0
1542736836.590,39.062,-16.602,-16.113,81.055,30.273,0
1542736836.594,34.180,-19.043,-20.996,107.910,25.391,0
1542736836.598,49.805,-12.207,-8.789,124.512,60.059,0
1542736836.602,5.371,-9.277,-1.465,77.637,89.355,0
1542736836.606,-21.973,-8.789,-11.719,47.852,43.945,0
1542736836.610,-23.438,-5.859,-9.277,41.992,19.531,0
1542736836.614,-43.945,-4.883,-8.301,21.973,20.996,0
1542736836.617,-56.152,-0.488,-9.766,-6.836,41.016,0
1542736836.621,-68.359,-2.441,-10.254,-16.602,41.016,0
1542736836.625,-81.543,-6.348,2.441,-18.066,47.852,0
1542736836.629,-87.891,3.906,15.625,-24.414,23.926,0
1542736836.633,-84.473,18.066,16.113,-28.320,25.879,0
1542736836.637,-73.242,17.578,20.996,-22.461,54.199,0
1542736836.641,-59.570,9.766,27.344,-3.418,39.551,0
1542736836.645,-46.387,5.371,14.160,11.719,25.391,0
1542736836.649,-41.504,-0.488,-5.859,12.695,4.395,0
1542736836.653,-48.828,5.859,-8.789,9.277,40.039,0
1542736836.657,-45.410,14.648,-0.977,22.461,101.562,0
1542736836.660,-20.996,13.672,2.930,29.785,79.590,0
1542736836.664,-20.996,9.766,1.953,40.039,34.668,0
1542736836.668,-22.949,5.859,-0.488,53.223,4.395,0
1542736836.672,-7.324,6.836,3.906,38.574,22.461,0
1542736836.676,-13.672,8.789,10.254,34.668,97.168,0
1542736836.680,-3.906,2.441,17.090,66.895,102.051,0
1542736836.684,14.160,-0.977,14.648,78.125,32.227,0
1542736836.688,14.160,0.977,15.625,74.707,-1.465,0
1542736836.692,6.348,6.348,31.738,68.359,45.410,0
1542736836.696,8.301,13.184,24.902,55.664,71.777,0
1542736836.699,9.277,19.531,15.625,57.129,41.016,0
1542736836.703,9.277,26.367,26.855,78.125,70.801,0
1542736836.707,33.203,27.344,20.020,83.984,31.250,0
1542736836.711,35.156,27.344,18.066,63.965,3.906,0
1542736836.715,29.297,26.855,17.578,63.965,49.316,0
1542736836.719,24.902,30.273,10.742,65.918,39.551,0
1542736836.723,-2.930,45.410,4.883,58.105,11.230,0
1542736836.727,-9.277,44.434,0.488,69.336,21.484,0
1542736836.731,5.859,30.273,7.812,75.684,69.824,0
1542736836.735,18.555,31.738,8.789,66.406,11.230,0
1542736836.739,13.672,38.086,7.324,70.312,18.555,0
1542736836.742,20.996,42.480,7.812,60.059,99.121,0
1542736836.746,19.531,46.875,22.461,62.988,68.359,0
1542736836.750,-0.977,45.410,39.551,91.797,8.789,0
1542736836.754,1.465,46.875,27.832,80.566,9.766,0
1542736836.758,12.207,48.828,12.695,58.594,41.992,0
1542736836.762,18.555,52.734,21.484,58.105,40.039,0
1542736836.766,9.277,54.688,26.367,64.941,-1.465,0
1542736836.770,13.184,43.945,11.230,53.711,-15.625,0
1542736836.774,19.531,33.203,5.859,45.410,-17.090,0
1542736836.778,7.812,37.109,12.207,63.477,29.297,0
1542736836.782,4.395,34.180,18.555,66.895,55.176,0
1542736836.785,-12.207,20.996,10.742,62.012,41.992,0
1542736836.789,-11.719,23.438,-2.441,60.547,36.621,0
1542736836.793,2.441,34.668,4.395,62.988,42.480,0
1542736836.797,8.789,40.527,8.301,58.594,60.547,0
1542736836.801,7.324,41.992,0.000,41.504,6.348,0
1542736836.805,-4.395,36.621,4.395,53.711,5.859,0
1542736836.809,-2.441,26.855,9.766,61.035,1.953,0
1542736836.813,25.391,32.227,18.555,54.199,14.160,0
1542736836.817,11.230,29.785,42.480,73.242,39.551,0
1542736836.821,-3.906,22.461,49.316,77.637,-32.715,0
1542736836.824,9.277,17.578,39.062,85.938,-0.488,0
1542736836.828,15.625,11.230,28.320,85.449,63.965,0
1542736836.832,25.391,13.672,11.719,64.941,86.426,0
1542736836.836,14.160,10.742,0.488,69.824,55.176,0
1542736836.840,6.836,13.184,1.465,61.035,7.812,0
1542736836.844,20.508,6.836,12.695,66.895,10.742,0
1542736836.848,24.902,5.371,23.926,74.219,78.125,0
1542736836.852,18.066,8.301,28.809,63.477,29.297,0
1542736836.856,24.902,-7.812,36.133,80.566,-21.484,0
1542736836.860,24.414,-4.883,24.414,88.379,-23.438,0
1542736836.864,22.461,3.418,12.695,73.730,-2.441,0
1542736836.867,31.738,2.441,15.137,66.895,65.918,0
1542736836.871,34.668,11.719,11.230,55.176,63.965,0
1542736836.875,16.113,14.648,1.465,34.180,26.367,0
1542736836.879,-2.930,14.160,4.395,37.598,-43.945,0
1542736836.883,1.953,12.207,7.324,44.922,38.086,0
1542736836.887,17.578,7.324,1.465,46.387,87.891,0
1542736836.891,33.691,9.766,7.324,38.574,47.363,0
1542736836.895,50.293,17.578,17.090,35.156,63.477,0
1542736836.899,30.762,18.066,20.508,51.758,23.438,0
1542736836.903,-12.207,14.160,19.531,51.270,6.348,0
1542736836.907,-30.762,10.254,22.949,41.504,16.602,0
1542736836.910,-8.789,9.277,31.738,42.969,46.387,0
1542736836.914,5.371,12.207,37.598,39.551,80.078,0
1542736836.918,-8.301,10.254,35.645,30.273,46.387,0
1542736836.922,5.371,11.719,32.715,42.480,31.738,0
1542736836.926,18.066,13.184,31.738,61.523,52.734,0
1542736836.930,12.207,12.695,29.297,59.082,51.270,0
1542736836.934,21.484,20.020,35.645,57.617,41.992,0
1542736836.938,27.344,21.973,37.109,58.105,49.805,0
1542736836.942,21.484,16.113,24.902,54.688,51.270,0
1542736836.946,24.414,15.625,19.531,53.711,39.551,0
1542736836.949,29.297,21.973,18.066,54.199,2.441,0
1542736836.953,24.902,20.020,8.789,56.641,40.527,0
1542736836.957,14.648,18.066,9.277,52.246,123.535,0
1542736836.961,21.973,26.367,22.461,45.410,106.445,0
1542736836.965,32.715,36.621,23.438,48.340,64.941,0
1542736836.969,13.672,39.062,18.066,51.270,81.543,0
1542736836.973,11.230,40.527,14.648,44.434,17.578,0
1542736836.977,21.484,50.293,17.578,47.363,-19.043,0
1542736836.981,9.766,49.316,37.109,51.270,48.340,0
1542736836.985,13.672,47.363,54.199,49.805,23.926,0
1542736836.989,26.367,50.781,54.199,49.316,-6.348,0
1542736836.992,25.391,55.176,44.922,50.293,11.230,0
1542736836.996,18.555,51.270,41.016,39.551,22.949,0
1542736837.000,24.414,42.480,24.414,31.250,-20.508,0
1542736837.004,28.809,47.852,13.184,34.668,34.180,0
1542736837.008,28.320,60.059,22.949,32.227,62.988,0
1542736837.012,23.926,64.453,28.320,41.504,33.691,0
1542736837.016,26.367,58.105,20.508,61.035,88.379,0
1542736837.020,31.738,51.270,1.953,56.152,58.594,0
1542736837.024,42.969,51.270,-8.301,61.035,11.719,0
1542736837.028,44.434,50.293,-1.465,60.547,29.297,0
1542736837.032,19.043,43.945,3.906,42.969,75.684,0
1542736837.035,32.227,41.016,0.000,57.617,8.789,0
1542736837.039,54.688,34.180,-5.371,86.914,-67.871,0
1542736837.043,44.922,36.133,-11.719,85.449,-51.758,0
1542736837.047,59.082,51.758,-4.395,89.355,14.648,0
1542736837.051,62.988,62.012,9.766,96.680,90.820,0
1542736837.055,52.734,61.523,15.625,90.332,53.711,0
1542736837.059,69.336,54.199,20.020,114.746,-15.625,0
1542736837.063,70.312,49.316,23.926,121.094,1.465,0
1542736837.067,63.477,46.875,16.113,116.699,17.578,0
1542736837.071,68.359,51.270,15.625,121.094,7.324,0
1542736837.074,59.570,40.527,16.602,121.582,-0.977,0
1542736837.078,59.570,46.875,21.484,119.629,50.293,0
1542736837.082,65.430,57.617,25.391,97.656,73.730,0
1542736837.086,66.895,33.691,13.184,83.496,39.551,0
1542736837.090,60.059,15.625,11.719,88.867,62.012,0
1542736837.094,57.617,19.531,10.254,91.797,36.621,0
1542736837.098,57.617,18.555,9.766,87.891,-2.441,0
1542736837.102,63.477,16.602,17.090,93.750,51.270,0
1542736837.106,59.082,21.484,25.391,106.934,48.828,0
1542736837.110,45.898,24.902,36.133,104.004,23.438,0
1542736837.114,49.316,36.621,36.621,103.027,49.316,0
1542736837.117,47.363,37.109,41.992,103.516,36.621,0
1542736837.121,48.828,30.762,44.922,96.191,24.902,0
1542736837.125,45.898,27.832,38.574,104.004,0.000,0
1542736837.129,38.574,20.508,41.504,111.328,33.691,0
1542736837.133,35.156,21.484,42.480,105.957,12.695,0
1542736837.137,28.320,30.273,44.922,99.121,28.320,0
1542736837.141,24.414,28.320,45.410,101.562,98.145,0
1542736837.145,29.785,25.879,49.805,95.703,52.246,0
1542736837.149,29.297,27.832,58.594,86.426,23.926,0
1542736837.153,30.273,26.367,56.641,95.215,41.504,0
1542736837.157,30.762,28.809,47.852,95.703,87.891,0
1542736837.160,34.180,35.645,33.203,87.891,52.246,0
1542736837.164,36.621,34.180,24.414,83.008,43.457,0
1542736837.168,25.879,33.203,37.109,86.914,99.121,0
1542736837.172,28.320,36.621,41.992,104.980,90.332,0
1542736837.176,29.785,38.574,45.410,118.652,113.281,0
1542736837.180,25.391,37.598,47.363,104.980,47.852,0
1542736837.184,36.133,39.062,37.109,83.496,36.133,0
1542736837.188,35.156,46.875,26.367,81.055,42.480,0
1542736837.192,16.602,40.039,19.043,79.102,9.766,0
1542736837.196,13.672,34.668,29.297,79.590,26.367,0
1542736837.199,18.555,33.691,44.434,80.078,-24.414,0
1542736837.203,13.184,36.133,41.992,64.941,-1.953,0
1542736837.207,16.602,36.621,47.852,63.477,2.930,0
1542736837.211,20.996,34.668,61.035,70.801,0.000,0
1542736837.215,12.207,39.062,61.035,75.684,31.738,0
1542736837.219,16.602,39.062,50.293,86.426,44.922,0
1542736837.223,19.043,41.992,38.086,84.961,5.859,0
1542736837.227,13.672,49.805,41.016,74.219,-37.598,0
1542736837.231,22.461,50.293,47.852,72.754,32.227,0
1542736837.235,13.184,46.875,40.527,66.895,52.246,0
1542736837.239,3.906,49.805,36.621,61.523,20.996,0
1542736837.242,8.301,62.012,31.738,53.223,47.852,0
1542736837.246,9.766,60.059,24.902,53.223,26.367,0
1542736837.250,14.160,57.617,20.020,56.152,73.242,0
1542736837.254,14.648,61.035,10.742,68.359,124.512,0
1542736837.258,18.066,60.547,11.719,71.777,41.504,0
1542736837.262,32.715,66.895,14.648,61.523,47.852,0
1542736837.266,33.691,67.383,15.137,72.266,87.891,0
1542736837.270,30.762,64.453,9.277,83.008,48.828,0
1542736837.274,24.902,69.336,1.465,87.891,-16.602,0
1542736837.278,12.695,64.941,14.648,91.797,-76.172,0
1542736837.282,5.859,60.547,22.949,76.660,-47.363,0
1542736837.285,7.324,69.336,29.297,66.895,26.367,0
1542736837.289,7.812,74.707,33.203,67.871,64.453,0
1542736837.293,5.859,67.383,26.855,69.824,51.758,0
1542736837.297,-0.977,54.199,33.203,73.730,24.414,0
1542736837.301,-9.277,47.852,40.527,73.730,43.457,0
1542736837.305,-3.906,44.922,37.109,72.754,76.660,0
1542736837.309,-2.441,40.527,35.645,64.453,42.969,0
1542736837.313,-1.465,41.504,28.320,58.105,-34.180,0
1542736837.317,-11.230,41.992,24.414,47.852,-42.969,0
1542736837.321,-18.555,47.363,33.203,31.250,-20.020,0
1542736837.324,-10.254,45.898,37.109,33.203,-38.574,0
1542736837.328,-21.973,35.645,35.645,45.410,5.859,0
1542736837.332,-17.578,26.855,35.645,36.621,52.734,0
1542736837.336,-1.953,31.738,35.156,28.809,37.109,0
1542736837.340,-10.254,46.387,36.133,35.156,-13.672,0
1542736837.344,-15.625,58.105,40.039,34.668,60.059,0
1542736837.348,3.906,49.316,49.316,57.129,99.609,0
1542736837.352,23.438,45.410,43.945,83.984,36.133,0
1542736837.356,10.742,66.406,33.203,62.500,27.832,0
1542736837.360,-7.324,62.012,31.250,42.969,39.551,0
1542736837.364,15.137,52.734,19.043,68.359,47.852,0
1542736837.367,26.855,59.570,8.301,77.637,46.875,0
1542736837.371,8.789,52.734,11.719,66.895,26.855,0
1542736837.375,10.254,41.992,6.348,66.895,20.508,0
1542736837.379,15.137,38.574,-0.488,72.266,47.852,0
1542736837.383,21.973,29.297,10.742,68.848,78.125,0
1542736837.387,20.508,26.367,20.020,58.105,54.688,0
1542736837.391,3.418,29.785,20.996,52.734,51.758,0
1542736837.395,1.953,37.598,25.879,52.734,12.207,0
1542736837.399,5.371,41.016,39.062,67.871,17.090,0
1542736837.403,2.441,38.574,49.316,57.617,67.383,0
1542736837.407,3.418,39.551,42.969,43.457,41.992,0
1542736837.410,-6.348,34.180,36.133,43.457,8.301,0
1542736837.414,-11.719,33.691,39.062,45.410,57.617,0
1542736837.418,-0.488,40.039,39.062,46.387,44.434,0
1542736837.422,5.859,40.527,28.320,47.852,-1.465,0
1542736837.426,-8.789,33.691,24.902,57.617,6.836,0
1542736837.430,-2.930,33.203,25.879,46.387,44.922,0
1542736837.434,16.113,34.668,18.555,44.922,46.875,0
1542736837.438,23.926,27.344,14.648,64.453,75.195,0
1542736837.442,23.926,24.414,16.113,60.547,73.730,0
1542736837.446,18.066,26.855,29.785,59.082,41.504,0
1542736837.449,15.625,21.484,38.574,67.383,55.176,0
1542736837.453,10.742,13.184,27.344,57.617,97.168,0
1542736837.457,10.742,16.113,25.391,62.988,109.375,0
1542736837.461,11.719,15.625,34.180,65.918,56.152,0
1542736837.465,11.230,11.230,44.922,56.152,12.695,0
1542736837.469,4.883,15.625,56.641,58.594,5.859,0
1542736837.473,6.348,17.090,50.781,51.758,65.918,0
1542736837.477,7.812,20.508,46.875,52.246,76.660,0
1542736837.481,12.695,27.832,49.805,59.570,70.801,0
1542736837.485,18.066,35.645,48.828,48.828,32.715,0
1542736837.489,2.930,32.227,47.852,51.758,-15.625,0
1542736837.492,-13.184,26.855,38.086,51.270,-1.953,0
1542736837.496,-2.441,25.879,26.367,54.688,24.414,0
1542736837.500,0.000,19.043,18.555,50.781,16.113,0
1542736837.504,12.695,20.020,24.902,41.504,-56.152,0
1542736837.508,27.344,26.367,31.250,47.363,-48.340,0
1542736837.512,19.531,23.926,18.555,50.293,-29.785,0
1542736837.516,29.297,20.020,15.625,64.453,8.789,0
1542736837.520,6.836,29.785,31.250,58.105,52.734,0
1542736837.524,11.230,46.387,52.246,58.594,9.277,0
1542736837.528,41.016,34.180,46.875,66.895,-1.465,0
1542736837.532,46.387,21.484,36.133,82.031,38.574,0
1542736837.535,64.941,28.320,28.809,116.699,84.473,0
1542736837.539,74.219,11.719,35.156,108.398,52.246,0
1542736837.543,88.379,17.090,35.645,104.004,-6.348,0
1542736837.547,88.867,31.738,35.645,133.301,-11.719,0
1542736837.551,71.777,25.391,44.434,121.582,47.852,0
1542736837.555,95.703,19.531,35.645,132.324,53.223,0
1542736837.559,102.051,6.836,42.969,150.391,39.551,0
1542736837.563,90.820,2.441,40.039,135.742,93.262,0
1542736837.567,83.496,-1.953,34.668,122.070,38.574,0
1542736837.571,87.402,-5.371,33.691,120.605,-25.879,0
1542736837.574,113.281,-1.465,23.926,129.395,16.602,0
1542736837.578,117.676,1.465,26.367,155.762,9.766,0
1542736837.582,95.215,4.395,29.297,161.621,43.945,0
1542736837.586,97.168,5.371,30.273,125.977,72.266,0
1542736837.590,93.262,5.859,54.688,135.254,84.473,0
1542736837.594,68.848,5.371,61.035,147.461,77.148,0
1542736837.598,78.125,-2.930,32.227,135.742,67.871,0
1542736837.602,90.820,-7.324,17.578,128.418,37.109,0
1542736837.606,74.707,-11.230,30.273,118.652,36.133,0
1542736837.610,53.711,-16.602,33.203,99.121,58.594,0
1542736837.614,66.895,-7.324,46.387,103.027,55.664,0
1542736837.617,65.918,5.859,50.781,107.910,73.730,0
1542736837.621,62.500,9.766,20.996,88.379,62.500,0
1542736837.625,66.406,7.324,9.766,82.520,68.848,0
1542736837.629,47.852,-6.348,2.441,85.449,68.848,0
1542736837.633,42.480,-1.953,-16.113,82.031,37.109,0
1542736837.637,63.965,13.184,-12.207,93.750,-1.465,0
1542736837.641,58.105,11.230,15.625,88.379,-15.137,0
1542736837.645,35.156,17.578,28.809,68.848,-10.742,0
1542736837.649,31.738,19.043,10.254,58.594,27.832,0
1542736837.653,35.645,12.207,20.020,79.102,84.961,0
1542736837.657,35.645,24.414,27.344,79.590,102.051,0
1542736837.660,31.250,37.598,-4.883,60.059,126.953,0
1542736837.664,19.043,20.020,1.465,68.359,100.098,0
1542736837.668,26.855,19.531,19.531,72.266,34.180,0
1542736837.672,24.902,30.273,13.184,74.707,36.621,0
1542736837.676,26.367,56.641,16.113,79.590,12.695,0
1542736837.680,34.180,67.383,6.348,76.172,46.387,0
1542736837.684,8.301,28.809,6.348,46.875,48.828,0
1542736837.688,14.648,32.227,16.602,34.180,8.301,0
1542736837.692,36.621,65.430,32.715,47.852,18.555,0
1542736837.696,15.625,94.727,43.945,57.617,22.461,0
1542736837.699,-2.441,138.184,48.828,68.848,15.625,0
1542736837.703,15.137,149.414,49.805,41.992,43.945,0
1542736837.707,5.859,154.297,50.781,39.062,70.312,0
1542736837.711,-11.230,212.891,69.336,47.852,55.176,0
1542736837.715,-27.344,279.297,80.566,21.973,53.711,0
1542736837.719,-58.594,307.617,64.941,13.184,40.527,0
1542736837.723,-55.176,324.707,53.711,-0.488,-17.090,0
1542736837.727,-63.965,361.816,56.641,-18.066,6.348,0
1542736837.731,-50.293,398.438,62.500,0.977,65.430,0
1542736837.735,-46.387,411.621,73.730,1.953,68.359,0
1542736837.739,-77.148,416.504,73.242,-32.715,46.387,0
1542736837.742,-71.289,416.504,61.523,-36.621,41.016,0
1542736837.746,-58.594,408.203,66.406,-21.484,44.434,0
1542736837.750,-78.613,404.297,76.660,-32.715,13.672,0
1542736837.754,-82.520,391.602,74.707,-50.781,5.371,0
1542736837.758,-99.609,356.445,75.684,-68.848,28.809,0
1542736837.762,-110.352,336.914,85.449,-66.895,9.277,0
1542736837.766,-96.191,338.867,94.238,-61.035,37.109,0
1542736837.770,-101.562,323.242,112.305,-69.824,94.238,0
1542736837.774,-116.211,293.945,125.977,-70.312,47.363,0
1542736837.778,-114.258,276.855,103.516,-66.406,-4.395,0
1542736837.782,-101.074,261.230,98.633,-58.594,8.301,0
1542736837.785,-102.539,241.699,108.887,-56.152,28.809,0
1542736837.789,-111.816,215.332,105.469,-51.758,45.898,0
1542736837.793,-98.145,171.387,105.469,-38.574,61.523,0
1542736837.797,-90.332,118.652,100.586,-25.391,12.695,0
1542736837.801,-73.242,71.289,88.867,-3.906,20.508,0
1542736837.805,-57.617,22.949,84.473,-18.066,37.598,0
1542736837.809,-51.270,-15.625,74.707,-14.160,80.078,0
1542736837.813,-9.277,-45.410,69.336,33.203,35.156,0
1542736837.817,22.949,-79.102,69.824,48.340,11.719,0
1542736837.821,21.484,-104.980,72.754,52.246,50.293,0
1542736837.824,8.301,-115.723,72.754,55.176,6.836,0
1542736837.828,11.719,-131.836,67.871,62.988,16.113,0
1542736837.832,44.922,-149.902,66.895,73.730,9.277,0
1542736837.836,47.852,-173.340,62.500,78.125,-16.602,0
1542736837.840,50.293,-187.500,53.711,120.605,-10.742,0
1542736837.844,54.688,-190.918,41.504,119.629,-53.223,0
1542736837.848,52.246,-197.754,38.086,86.426,4.883,0
1542736837.852,58.594,-205.566,29.297,88.867,50.293,0
1542736837.856,65.918,-216.309,11.230,86.914,13.672,0
1542736837.860,69.336,-225.098,3.418,93.750,20.996,0
1542736837.864,60.547,-219.727,10.742,118.652,56.152,0
1542736837.867,67.383,-205.566,13.184,127.441,2.441,0
1542736837.871,78.613,-195.801,18.555,115.234,16.113,0
1542736837.875,70.312,-186.035,19.531,112.305,74.219,0
1542736837.879,82.520,-182.129,20.508,114.258,54.688,0
1542736837.883,85.938,-180.176,33.203,122.070,8.301,0
1542736837.887,73.242,-176.270,29.297,128.418,-5.859,0
1542736837.891,75.684,-177.734,23.926,117.188,30.762,0
1542736837.895,76.660,-171.387,29.785,101.562,91.309,0
1542736837.899,65.918,-160.156,28.320,93.750,95.215,0
1542736837.903,61.035,-149.414,28.809,86.914,29.785,0
1542736837.907,70.801,-141.602,30.273,92.285,-29.297,0
1542736837.910,58.594,-142.090,25.391,99.121,-17.090,0
1542736837.914,39.551,-136.230,15.137,81.543,53.223,0
1542736837.918,37.598,-134.277,20.020,67.871,55.664,0
1542736837.922,40.039,-128.906,30.273,69.824,-17.578,0
1542736837.926,41.992,-119.629,20.996,80.078,1.953,0
1542736837.930,42.480,-112.305,5.859,80.566,49.805,0
1542736837.934,33.203,-108.887,5.859,63.477,35.645,0
1542736837.938,40.039,-96.191,6.348,67.871,47.363,0
1542736837.942,47.852,-84.473,4.395,85.449,97.168,0
1542736837.946,38.574,-83.008,13.672,91.309,87.891,0
1542736837.949,43.945,-80.078,16.602,82.031,36.133,0
1542736837.953,34.180,-77.148,13.184,71.289,24.414,0
1542736837.957,25.879,-70.312,7.324,74.219,31.250,0
1542736837.961,30.273,-64.453,4.395,86.426,39.062,0
1542736837.965,27.832,-59.082,8.301,79.102,15.625,0
1542736837.969,20.508,-51.270,14.648,74.707,-25.391,0
1542736837.973,24.902,-51.270,17.090,90.820,-11.719,0
1542736837.977,36.133,-50.293,20.508,94.238,20.996,0
1542736837.981,48.828,-42.969,25.391,74.219,10.254,0
1542736837.985,49.805,-41.992,18.555,69.824,10.742,0
1542736837.989,40.039,-43.945,13.184,71.777,70.312,0
1542736837.992,43.457,-41.504,17.090,70.801,64.941,0
1542736837.996,41.504,-35.156,17.090,82.031,64.941,0
1542736838.000,29.297,-29.785,15.137,81.055,42.480,0
1542736838.004,24.902,-25.391,11.230,81.543,1.465,0
1542736838.008,26.367,-20.508,11.230,92.773,47.852,0
1542736838.012,26.855,-18.066,15.137,83.984,5.859,0
1542736838.016,25.879,-20.508,15.137,69.336,22.949,0
1542736838.020,20.508,-21.484,14.648,65.430,28.320,0
1542736838.024,22.461,-16.602,12.695,60.547,-28.320,0
1542736838.028,24.902,-12.695,17.090,58.105,28.320,0
1542736838.032,11.230,-16.602,24.414,58.105,104.492,0
1542736838.035,8.789,-9.766,28.809,55.176,117.676,0
1542736838.039,17.578,0.977,33.691,56.641,83.496,0
1542736838.043,8.789,2.930,38.086,53.711,97.168,0
1542736838.047,20.020,3.906,40.039,51.270,67.383,0
1542736838.051,29.785,6.836,38.086,62.500,-47.852,0
1542736838.055,23.926,14.160,25.879,59.082,19.043,0
1542736838.059,31.250,20.508,25.879,62.500,40.527,0
1542736838.063,36.133,12.695,28.809,66.406,28.320,0
1542736838.067,39.551,4.883,24.902,58.594,96.680,0
1542736838.071,35.645,9.277,22.461,55.176,70.801,0
1542736838.074,30.762,13.184,21.484,67.383,-3.906,0
1542736838.078,62.988,17.578,31.738,93.262,2.441,0
1542736838.082,55.176,41.504,44.434,81.055,92.773,0
1542736838.086,-4.395,48.340,51.758,26.855,78.125,0
1542736838.090,-37.109,42.480,52.246,6.836,41.016,0
1542736838.094,-62.500,69.336,39.062,-17.578,22.949,0
1542736838.098,-106.445,108.398,37.598,-72.266,33.691,0
1542736838.102,-138.184,133.301,50.781,-99.609,37.598,0
1542736838.106,-145.020,163.086,41.016,-124.023,-6.348,0
1542736838.110,-166.992,187.500,30.273,-163.086,3.418,0
1542736838.114,-195.312,196.289,46.387,-183.105,42.969,0
1542736838.117,-233.398,218.750,44.434,-204.102,82.031,0
1542736838.121,-249.023,237.305,34.668,-220.703,95.703,0
1542736838.125,-261.230,244.141,43.945,-242.188,61.035,0
1542736838.129,-279.297,250.488,60.059,-264.160,76.172,0
1542736838.133,-277.832,266.602,77.148,-276.367,52.734,0
1542736838.137,-288.574,270.996,91.309,-302.246,63.477,0
1542736838.141,-287.109,260.254,96.680,-302.734,51.758,0
1542736838.145,-276.855,258.301,102.539,-285.645,43.945,0
1542736838.149,-267.090,263.184,105.957,-284.180,89.355,0
1542736838.153,-260.742,259.277,99.609,-270.996,62.500,0
1542736838.157,-250.977,250.977,95.215,-249.512,8.789,0
1542736838.160,-231.934,238.770,92.285,-241.699,20.020,0
1542736838.164,-213.867,212.402,87.402,-216.797,53.223,0
1542736838.168,-197.266,184.570,83.008,-192.383,46.387,0
1542736838.172,-177.246,169.434,61.523,-166.504,7.324,0
1542736838.176,-161.133,145.020,43.457,-132.324,50.781,0
1542736838.180,-139.648,111.816,23.926,-111.816,49.805,0
1542736838.184,-99.609,84.961,8.789,-72.266,-16.113,0
1542736838.188,-76.660,59.570,12.695,-39.062,39.551,0
1542736838.192,-67.383,34.668,9.766,-14.160,80.078,0
1542736838.196,-43.945,22.949,7.812,8.301,43.457,0
1542736838.199,-15.625,24.902,-6.348,26.367,64.453,0
1542736838.203,2.930,16.113,-21.484,51.758,61.523,0
1542736838.207,12.207,-1.953,-25.879,69.824,22.949,0
1542736838.211,28.320,-9.766,-27.344,69.824,31.738,0
1542736838.215,34.180,-11.230,-26.855,85.938,2.930,0
1542736838.219,33.691,-17.090,-28.320,97.656,-16.113,0
1542736838.223,42.969,-32.227,-12.207,96.680,39.062,0
1542736838.227,40.527,-42.969,-3.906,98.145,63.965,0
1542736838.231,39.551,-51.270,-3.418,94.238,53.223,0
1542736838.235,54.688,-58.105,1.953,97.168,0.488,0
1542736838.239,59.570,-66.895,15.137,101.562,-8.301,0
1542736838.242,76.660,-72.266,30.273,123.047,67.871,0
1542736838.246,80.078,-67.871,22.949,125.000,13.184,0
1542736838.250,78.125,-61.523,18.066,129.883,1.953,0
1542736838.254,88.867,-62.500,15.625,135.254,20.020,0
1542736838.258,77.148,-68.848,8.301,122.070,4.883,0
1542736838.262,84.473,-64.941,2.441,135.742,36.621,0
1542736838.266,88.867,-66.406,1.465,142.578,77.148,0
1542736838.270,79.590,-64.941,5.859,129.395,67.383,0
1542736838.274,92.285,-60.547,9.766,128.906,8.301,0
1542736838.278,104.492,-62.500,7.812,139.648,20.508,0
1542736838.282,99.121,-55.664,5.859,143.066,38.086,0
1542736838.285,90.332,-51.270,13.184,144.043,0.977,0
1542736838.289,93.262,-46.875,10.254,144.531,2.441,0
1542736838.293,96.191,-48.340,-4.883,145.508,-11.230,0
1542736838.297,93.750,-57.129,-6.348,147.949,-4.395,0
1542736838.301,89.844,-54.199,-0.977,131.836,11.230,0
1542736838.305,84.473,-53.223,-4.395,121.094,17.090,0
1542736838.309,85.449,-55.176,-3.906,125.488,41.504,0
1542736838.313,89.844,-46.387,0.000,126.465,3.418,0
1542736838.317,86.914,-41.016,2.930,125.488,69.824,0
1542736838.321,85.449,-40.039,5.371,128.418,108.887,0
1542736838.324,79.102,-40.527,3.418,111.816,37.598,0
1542736838.328,73.730,-39.062,2.441,109.863,75.684,0
1542736838.332,71.289,-35.156,6.348,112.305,20.508,0
1542736838.336,73.242,-36.133,9.766,95.215,29.297,0
1542736838.340,69.336,-30.273,21.973,104.492,51.758,0
1542736838.344,64.941,-20.020,24.414,107.910,29.785,0
1542736838.348,69.336,-12.695,13.184,96.680,65.430,0
1542736838.352,59.570,-9.277,17.578,107.910,87.891,0
1542736838.356,50.293,-2.441,19.043,98.145,71.777,0
1542736838.360,60.547,1.465,10.254,93.750,-16.113,0
1542736838.364,85.449,3.418,7.812,101.074,-1.465,0
1542736838.367,76.660,2.930,13.672,98.633,70.312,0
1542736838.371,61.523,-0.977,14.648,90.820,65.918,0
1542736838.375,68.359,7.812,10.254,69.824,-6.348,0
1542736838.379,62.988,20.020,5.859,94.727,13.184,0
1542736838.383,53.223,27.344,-5.859,93.750,-1.465,0
1542736838.387,54.688,24.902,-9.277,65.430,53.711,0
1542736838.391,65.430,22.949,-2.930,85.449,124.512,0
1542736838.395,56.641,10.742,5.859,96.680,80.566,0
1542736838.399,43.457,-1.953,17.090,88.867,52.734,0
1542736838.403,23.926,-2.441,12.207,87.402,53.223,0
1542736838.407,32.715,-2.930,9.766,97.168,44.434,0
1542736838.410,34.668,2.441,8.789,100.586,-5.371,0
1542736838.414,31.738,8.789,12.695,80.566,-9.766,0
1542736838.418,37.598,6.348,28.320,53.223,15.625,0
1542736838.422,32.227,1.953,25.879,83.008,50.781,0
1542736838.426,71.289,3.418,10.742,108.887,65.918,0
1542736838.430,67.871,1.465,6.836,89.844,3.906,0
1542736838.434,35.645,2.441,10.742,76.660,2.930,0
1542736838.438,67.383,12.695,12.207,111.816,34.180,0
1542736838.442,71.289,15.625,17.090,109.375,36.133,0
1542736838.446,28.809,5.859,11.230,71.777,5.859,0
1542736838.449,32.227,5.859,5.859,76.660,25.391,0
1542736838.453,34.180,9.766,-1.953,78.613,23.926,0
1542736838.457,33.203,9.766,2.441,73.242,-41.504,0
1542736838.461,51.758,19.043,2.441,77.148,24.414,0
1542736838.465,50.293,23.926,-6.348,68.848,58.594,0
1542736838.469,33.203,12.695,3.418,77.148,33.691,0
1542736838.473,38.086,11.719,4.883,96.680,44.922,0
1542736838.477,41.504,24.414,5.859,90.820,34.180,0
1542736838.481,24.902,21.484,14.648,77.637,52.734,0
1542736838.485,16.113,17.578,17.090,83.008,9.277,0
1542736838.489,19.531,26.367,14.648,83.008,34.180,0
1542736838.492,10.742,29.297,19.531,72.754,69.336,0
1542736838.496,11.230,23.926,19.043,75.195,33.691,0
1542736838.500,24.902,26.855,18.066,81.543,29.785,0
1542736838.504,26.855,38.574,15.625,77.148,5.371,0
1542736838.508,23.438,41.016,1.465,65.918,36.621,0
1542736838.512,22.461,32.715,4.395,73.730,36.133,0
1542736838.516,21.484,30.762,14.648,81.055,31.738,0
1542736838.520,26.367,29.785,-7.324,73.242,98.145,0
1542736838.524,31.738,25.391,-15.137,55.664,117.676,0
1542736838.528,39.551,20.020,-5.371,68.848,75.684,0
1542736838.532,33.691,16.602,-7.812,81.543,84.961,0
1542736838.535,23.926,22.461,-15.625,51.270,66.406,0
1542736838.539,12.695,25.879,-9.766,57.617,29.297,0
1542736838.543,14.648,32.715,0.488,64.941,33.203,0
1542736838.547,15.625,38.574,3.906,65.918,54.688,0
1542736838.551,17.578,36.621,4.883,74.219,97.168,0
1542736838.555,23.926,40.039,17.090,67.383,50.293,0
1542736838.559,23.926,47.852,31.738,58.105,8.789,0
1542736838.563,25.391,49.805,43.945,67.871,36.621,0
1542736838.567,20.020,44.922,56.152,79.102,21.484,0
1542736838.571,20.020,40.527,52.246,69.824,7.324,0
1542736838.574,25.391,44.434,39.551,66.406,33.691,0
1542736838.578,15.137,50.293,42.480,66.895,53.711,0
1542736838.582,12.207,42.480,52.734,62.500,71.289,0
1542736838.586,6.836,34.180,62.012,72.266,80.078,0
1542736838.590,-13.184,32.227,63.965,80.566,96.191,0
1542736838.594,-4.883,32.715,60.547,74.707,79.102,0
1542736838.598,24.902,30.762,55.176,48.340,55.664,0
1542736838.602,13.184,28.809,52.734,42.969,10.254,0
1542736838.606,4.395,35.156,57.129,47.852,-26.855,0
1542736838.610,8.789,41.992,62.012,43.945,37.109,0
1542736838.614,-1.953,42.969,60.059,41.992,62.988,0
1542736838.617,13.184,41.504,55.176,46.875,40.527,0
1542736838.621,39.551,32.715,51.758,59.082,14.160,0
1542736838.625,36.621,18.066,35.645,71.777,-8.301,0
1542736838.629,18.066,30.762,23.438,73.242,31.738,0
1542736838.633,-1.465,48.828,27.832,55.664,7.812,0
1542736838.637,2.930,51.758,26.367,48.340,11.719,0
1542736838.641,22.461,57.617,26.855,56.152,58.105,0
1542736838.645,27.344,63.477,29.297,56.641,57.129,0
1542736838.649,33.691,66.406,23.438,65.430,36.133,0
1542736838.653,32.227,65.430,21.973,80.078,15.625,0
1542736838.657,28.320,54.199,23.438,68.359,19.531,0
1542736838.660,31.738,37.109,25.879,60.547,-17.578,0
1542736838.664,23.438,33.691,20.996,58.594,41.504,0
1542736838.668,18.555,45.898,4.883,47.363,47.852,0
1542736838.672,18.555,47.363,9.766,52.246,5.859,0
1542736838.676,19.043,44.922,8.301,50.781,30.762,0
1542736838.680,27.344,45.410,-0.488,41.016,36.621,0
1542736838.684,27.832,34.668,8.789,50.293,42.969,0
1542736838.688,15.625,30.762,8.789,54.688,65.430,0
1542736838.692,31.738,30.762,5.859,54.199,25.391,0
1542736838.696,19.531,23.438,10.254,56.641,-40.039,0
1542736838.699,-4.883,20.996,22.949,69.824,47.852,0
1542736838.703,22.949,27.344,25.879,64.453,66.895,0
1542736838.707,28.320,25.879,27.832,51.270,23.926,0
1542736838.711,17.090,20.996,29.785,61.523,98.145,0
1542736838.715,39.062,21.484,37.109,65.918,58.594,0
1542736838.719,41.016,17.578,47.852,60.547,24.414,0
1542736838.723,23.438,11.719,32.715,66.406,56.641,0
1542736838.727,28.809,14.160,20.508,79.102,81.055,0
1542736838.731,18.555,26.367,27.344,66.406,87.402,0
1542736838.735,17.578,30.762,29.297,64.453,69.824,0
1542736838.739,15.625,24.414,17.578,78.125,12.207,0
1542736838.742,13.672,28.809,16.602,66.406,-3.906,0
1542736838.746,28.809,32.227,30.273,57.129,35.156,0
1542736838.750,29.297,24.414,28.809,68.359,37.109,0
1542736838.754,33.691,20.020,25.879,66.895,20.996,0
1542736838.758,30.273,20.020,29.297,57.617,1.465,0
1542736838.762,29.297,21.973,22.949,66.895,43.945,0
1542736838.766,26.367,26.367,16.113,66.406,42.480,0
1542736838.770,7.324,27.344,20.020,60.059,3.906,0
1542736838.774,6.348,20.996,21.484,95.215,20.996,0
1542736838.778,8.789,22.461,16.602,100.586,46.875,0
1542736838.782,-0.488,20.508,14.160,64.941,0.977,0
1542736838.785,6.348,8.301,20.508,61.035,-41.016,0
1542736838.789,22.461,10.742,26.855,71.777,-18.555,0
1542736838.793,34.668,17.090,31.250,71.777,-5.859,0
1542736838.797,41.016,12.695,31.738,58.594,4.395,0
1542736838.801,35.645,9.277,26.855,74.707,30.273,0
1542736838.805,28.809,6.348,19.043,70.312,5.859,0
1542736838.809,11.230,3.418,12.695,45.898,-7.812,0
1542736838.813,10.254,14.160,13.672,56.641,20.508,0
1542736838.817,12.207,25.391,15.137,61.035,26.855,0
1542736838.821,0.000,29.297,23.926,64.941,-19.043,0
1542736838.824,-2.441,23.438,36.621,75.684,68.359,0
1542736838.828,0.977,25.391,40.039,77.148,90.332,0
1542736838.832,5.859,41.504,29.785,69.824,-12.695,0
1542736838.836,3.418,44.434,14.648,65.918,40.039,0
1542736838.840,11.230,45.898,5.371,67.383,81.055,0
1542736838.844,17.578,45.410,5.371,75.684,38.574,0
1542736838.848,12.207,41.992,8.789,78.613,24.414,0
1542736838.852,8.301,42.969,8.789,69.336,39.062,0
1542736838.856,8.789,36.621,16.602,61.035,23.926,0
1542736838.860,21.973,32.227,14.160,56.152,72.266,0
1542736838.864,18.555,26.367,9.277,60.547,113.770,0
1542736838.867,3.418,25.391,14.648,54.199,47.852,0
1542736838.871,-0.488,32.715,14.160,63.477,-39.551,0
1542736838.875,20.996,38.086,18.066,87.891,-23.926,0
1542736838.879,35.156,46.387,30.762,76.172,41.504,0
1542736838.883,38.574,54.199,29.297,69.824,59.082,0
1542736838.887,60.547,49.316,28.320,91.309,50.781,0
1542736838.891,52.246,39.551,52.246,97.656,45.410,0
1542736838.895,23.438,47.852,59.082,83.984,74.219,0
1542736838.899,4.883,48.340,63.477,71.289,83.984,0
1542736838.903,1.953,41.504,69.824,65.918,59.570,0
1542736838.907,5.371,38.086,52.246,61.523,60.059,0
1542736838.910,0.488,25.879,39.551,51.270,38.574,0
1542736838.914,-11.719,20.508,43.945,51.270,62.988,0
1542736838.918,-10.254,28.320,41.504,48.828,64.941,0
1542736838.922,2.441,34.668,42.969,60.547,-0.488,0
1542736838.926,0.000,25.391,51.758,61.035,15.625,0
1542736838.930,3.418,20.996,51.270,55.664,9.277,0
1542736838.934,16.602,25.391,50.781,74.707,-38.574,0
1542736838.938,9.277,21.484,53.223,77.637,0.000,0
1542736838.942,11.230,18.066,47.363,75.684,65.430,0
1542736838.946,24.902,22.461,41.016,67.383,106.934,0
1542736838.949,21.973,28.320,41.992,66.406,69.336,0
1542736838.953,13.184,31.738,43.457,71.289,40.527,0
1542736838.957,19.043,36.621,41.992,70.801,34.668,0
1542736838.961,23.438,41.992,36.621,71.289,43.945,0
1542736838.965,17.090,41.016,37.598,71.777,126.953,0
1542736838.969,24.902,38.574,46.875,79.102,91.797,0
1542736838.973,29.785,39.551,54.199,73.730,15.137,0
1542736838.977,20.508,31.250,56.152,64.941,44.922,0
1542736838.981,32.227,27.832,52.734,70.312,46.875,0
1542736838.985,30.273,30.762,62.012,75.684,18.555,0
1542736838.989,12.695,30.273,67.383,75.195,33.691,0
1542736838.992,6.836,31.738,57.129,75.195,39.551,0
1542736838.996,2.441,37.109,51.758,75.195,40.039,0
1542736839.000,10.742,45.410,51.270,79.590,21.973,0
1542736839.004,25.391,51.270,45.410,69.824,-0.488,0
1542736839.008,20.996,43.945,28.320,62.500,-1.465,0
1542736839.012,25.879,39.062,17.578,69.336,5.371,0
1542736839.016,31.738,47.363,19.531,74.707,-6.348,0
1542736839.020,26.855,56.152,17.090,68.848,-37.109,0
1542736839.024,36.133,50.781,6.348,65.430,-4.395,0
1542736839.028,40.527,29.297,0.000,77.148,50.293,0
1542736839.032,43.457,21.973,5.859,77.637,62.988,0
1542736839.035,35.156,22.461,6.836,67.871,22.461,0
1542736839.039,20.996,22.461,-4.395,69.336,8.789,0
1542736839.043,0.000,23.438,-7.324,64.453,60.547,0
1542736839.047,5.371,26.367,3.418,64.453,66.406,0
1542736839.051,9.766,22.461,-1.465,66.895,40.527,0
1542736839.055,6.836,19.531,-2.930,62.988,41.016,0
1542736839.059,11.230,24.414,9.277,71.777,22.461,0
1542736839.063,14.648,21.484,7.812,66.895,-15.625,0
1542736839.067,19.043,18.555,-0.977,60.059,21.484,0
1542736839.071,16.602,24.414,6.836,62.500,39.062,0
1542736839.074,13.672,32.715,12.207,64.453,17.090,0
1542736839.078,16.113,27.832,5.859,62.500,-28.320,0
1542736839.082,24.414,19.043,5.859,54.199,6.836,0
1542736839.086,17.090,21.484,11.719,60.547,27.344,0
1542736839.090,9.766,16.602,10.742,58.105,14.648,0
1542736839.094,19.043,17.578,14.160,45.898,47.363,0
1542736839.098,27.344,36.621,25.391,50.781,52.734,0
1542736839.102,29.785,36.621,32.227,56.152,88.379,0
1542736839.106,28.320,27.344,23.926,64.453,46.387,0
1542736839.110,18.555,28.809,19.531,72.266,41.992,0
1542736839.114,33.691,35.645,32.227,56.641,29.297,0
1542736839.117,44.922,44.922,36.133,59.082,55.664,0
1542736839.121,13.672,43.457,24.414,69.336,69.824,0
1542736839.125,5.859,32.227,12.695,61.035,11.719,0
1542736839.129,20.020,34.668,8.789,63.965,0.977,0
1542736839.133,18.066,38.086,2.441,67.383,-3.906,0
1542736839.137,19.531,31.250,3.418,63.477,22.461,0
1542736839.141,26.367,39.062,13.672,59.570,55.664,0
1542736839.145,18.066,45.410,19.531,55.176,41.992,0
1542736839.149,4.395,32.227,17.578,45.898,60.059,0
1542736839.153,-2.930,20.508,11.719,42.480,41.992,0
1542736839.157,4.395,24.414,12.695,40.039,-21.484,0
1542736839.160,11.230,35.156,15.625,49.805,31.250,0
1542736839.164,14.160,39.551,14.160,56.152,59.082,0
1542736839.168,19.531,36.133,11.230,44.434,38.086,0
1542736839.172,20.508,32.715,9.277,42.969,25.391,0
1542736839.176,22.949,31.738,11.230,53.711,1.465,0
1542736839.180,19.043,27.832,-0.488,61.523,81.055,0
1542736839.184,17.578,26.367,-7.324,67.383,130.859,0
1542736839.188,13.184,23.438,5.859,62.012,62.988,0
1542736839.192,24.902,3.906,18.555,68.359,83.008,0
1542736839.196,43.945,5.371,18.066,86.426,120.117,0
1542736839.199,17.578,33.203,15.625,58.594,89.355,0
1542736839.203,-10.742,39.551,10.742,36.133,55.176,0
1542736839.207,4.883,30.273,-4.395,49.316,42.480,0
1542736839.211,8.301,25.391,-2.930,43.457,78.125,0
1542736839.215,-1.465,36.621,4.883,34.180,68.848,0
1542736839.219,-6.348,49.316,-1.465,30.273,52.246,0
1542736839.223,-3.906,49.805,-10.742,28.809,75.684,0
1542736839.227,-0.488,56.152,1.465,24.414,73.730,0
1542736839.231,9.766,53.711,16.113,32.715,35.156,0
1542736839.235,25.879,42.969,15.625,45.898,-19.531,0
1542736839.239,20.020,36.621,4.883,44.434,34.668,0
1542736839.242,19.531,35.156,-6.348,39.062,53.223,0
1542736839.246,16.602,37.598,-12.695,50.293,24.414,0
1542736839.250,23.438,38.574,-25.391,56.641,49.805,0
1542736839.254,41.504,43.945,-27.832,61.523,45.410,0
1542736839.258,49.316,49.316,-19.043,63.477,20.996,0
1542736839.262,45.410,55.664,-15.137,62.012,62.500,0
1542736839.266,42.480,60.059,-9.766,70.312,24.414,0
1542736839.270,39.551,52.734,-9.277,59.570,-3.906,0
1542736839.274,40.039,43.945,-1.953,52.734,40.039,0
1542736839.278,33.203,45.898,4.883,54.199,57.129,0
1542736839.282,14.160,42.969,8.301,58.105,29.297,0
1542736839.285,0.977,28.320,15.625,62.500,-38.574,0
1542736839.289,0.488,22.461,15.625,61.035,1.953,0
1542736839.293,1.465,22.949,7.324,59.570,42.969,0
1542736839.297,2.930,21.484,0.488,57.617,33.691,0
1542736839.301,6.348,26.855,-1.465,53.711,20.996,0
1542736839.305,-1.953,37.109,4.395,46.875,29.297,0
1542736839.309,-6.348,30.762,12.695,38.086,41.016,0
1542736839.313,1.465,20.996,8.301,37.109,4.883,0
1542736839.317,5.859,22.949,2.441,50.781,4.883,0
1542736839.321,9.277,23.926,4.395,51.270,44.434,0
1542736839.324,18.066,20.996,2.441,47.852,33.691,0
1542736839.328,27.832,26.855,5.859,60.547,34.668,0
1542736839.332,24.414,35.645,15.137,65.430,7.812,0
1542736839.336,32.227,31.250,20.996,71.289,-0.488,0
1542736839.340,31.738,27.832,20.996,72.754,18.066,0
1542736839.344,25.879,34.668,23.926,60.059,-9.277,0
1542736839.348,25.879,40.039,25.879,62.500,40.527,0
1542736839.352,20.508,37.109,14.160,64.941,43.457,0
1542736839.356,27.344,32.227,20.020,63.477,0.977,0
1542736839.360,29.297,33.691,31.738,73.242,26.855,0
1542736839.364,8.789,33.691,22.949,72.266,19.531,0
1542736839.367,3.418,29.297,11.719,61.035,11.230,0
1542736839.371,11.230,28.809,7.324,61.035,30.273,0
1542736839.375,7.812,26.367,7.812,52.734,25.879,0
1542736839.379,8.789,20.996,16.602,49.805,47.852,0
1542736839.383,13.672,23.926,23.438,52.246,69.336,0
1542736839.387,12.695,25.391,24.414,47.363,40.039,0
1542736839.391,8.301,21.484,31.738,44.434,36.133,0
1542736839.395,21.973,23.926,38.574,42.480,33.203,0
1542736839.399,26.855,27.832,44.434,49.316,-20.996,0
1542736839.403,9.766,32.715,50.293,45.410,11.230,0
1542736839.407,11.230,33.691,47.363,38.086,57.617,0
1542736839.410,18.066,28.320,33.691,42.480,20.996,0
1542736839.414,3.906,30.762,37.109,45.898,-29.297,0
1542736839.418,7.812,40.527,40.039,54.199,-0.488,0
1542736839.422,17.090,40.039,40.039,63.477,38.574,0
1542736839.426,20.020,37.109,29.785,69.336,33.203,0
1542736839.430,16.113,41.504,11.719,70.312,21.973,0
1542736839.434,12.695,41.992,13.184,65.918,1.465,0
1542736839.438,26.855,41.992,3.418,71.777,36.621,0
1542736839.442,42.969,40.527,-10.254,79.590,97.168,0
1542736839.446,45.410,20.020,4.395,79.590,81.055,0
1542736839.449,22.949,10.742,24.902,68.848,45.898,0
1542736839.453,4.395,27.344,27.344,54.199,69.824,0
1542736839.457,-0.488,28.809,31.738,54.199,68.848,0
1542736839.461,-16.113,27.832,42.480,41.992,44.434,0
1542736839.465,-31.250,23.438,44.434,30.273,10.742,0
1542736839.469,-29.297,13.184,48.340,32.227,15.625,0
1542736839.473,-29.785,15.137,41.504,25.879,46.875,0
1542736839.477,-14.648,18.555,41.016,34.668,64.941,0
1542736839.481,2.441,20.020,49.316,49.805,40.527,0
1542736839.485,5.371,20.996,43.945,51.758,39.551,0
1542736839.489,13.672,26.367,40.527,55.664,57.129,0
1542736839.492,11.719,40.527,43.945,55.664,32.715,0
1542736839.496,8.301,40.039,35.156,46.875,-0.977,0
1542736839.500,14.648,29.785,13.184,44.434,41.992,0
1542736839.504,25.391,26.855,9.766,46.875,28.809,0
1542736839.508,27.344,32.715,25.391,57.129,-33.691,0
1542736839.512,23.438,36.133,36.133,59.082,11.719,0
1542736839.516,20.996,35.645,38.574,55.664,-10.254,0
1542736839.520,4.395,32.227,37.598,56.641,-42.969,0
1542736839.524,-1.465,28.320,43.457,65.918,2.930,0
1542736839.528,-1.953,25.879,43.457,67.871,20.996,0
1542736839.532,-19.531,22.949,27.344,46.387,26.855,0
1542736839.535,-32.227,32.715,19.531,36.133,67.871,0
1542736839.539,-20.508,41.016,25.879,43.457,95.215,0
1542736839.543,-12.695,41.016,31.250,34.180,70.312,0
1542736839.547,-12.207,36.133,40.527,30.273,68.359,0
1542736839.551,-11.719,42.969,46.387,48.340,72.754,0
1542736839.555,-23.926,49.316,38.574,44.922,39.551,0
1542736839.559,-23.926,48.340,34.180,26.367,43.945,0
1542736839.563,-33.691,47.852,45.898,20.020,98.633,0
1542736839.567,-46.387,47.363,39.551,14.648,126.465,0
1542736839.571,-38.086,50.781,32.715,11.719,70.312,0
1542736839.574,-37.598,61.035,48.828,18.555,54.199,0
1542736839.578,-22.949,79.590,60.547,17.090,70.312,0
1542736839.582,-19.043,97.656,65.430,5.371,32.227,0
1542736839.586,-48.340,99.609,61.523,-10.254,4.883,0
1542736839.590,-48.828,101.074,63.477,-18.066,10.254,0
1542736839.594,-41.016,111.816,46.387,-23.438,34.668,0
1542736839.598,-70.801,122.070,28.320,-28.809,17.578,0
1542736839.602,-87.891,130.859,37.109,-31.250,29.297,0
1542736839.606,-88.379,131.348,41.016,-44.434,28.320,0
1542736839.610,-97.168,141.113,35.645,-42.969,60.059,0
1542736839.614,-97.168,144.043,34.180,-47.363,38.086,0
1542736839.617,-100.586,137.207,51.758,-57.129,36.621,0
1542736839.621,-100.098,138.672,72.266,-56.641,32.715,0
1542736839.625,-93.750,159.668,78.613,-51.270,-5.371,0
1542736839.629,-139.160,154.785,83.984,-70.801,-4.883,0
1542736839.633,-174.316,142.090,74.707,-111.328,20.996,0
1542736839.637,-156.250,149.414,70.801,-119.629,26.367,0
1542736839.641,-138.672,160.156,77.148,-104.980,69.336,0
1542736839.645,-146.973,175.293,69.336,-115.234,115.234,0
1542736839.649,-148.438,178.223,73.242,-116.699,67.383,0
1542736839.653,-144.531,185.059,83.984,-118.164,2.441,0
1542736839.657,-150.391,190.430,92.285,-127.930,-0.977,0
1542736839.660,-130.371,176.270,104.004,-109.863,42.480,0
1542736839.664,-134.277,168.457,121.582,-102.051,12.207,0
1542736839.668,-143.066,158.691,131.348,-100.586,15.625,0
1542736839.672,-114.746,145.996,128.418,-85.449,47.852,0
1542736839.676,-125.977,142.090,128.906,-84.473,44.922,0
1542736839.680,-115.234,126.953,111.816,-64.941,40.527,0
1542736839.684,-86.426,111.816,89.844,-47.363,33.691,0
1542736839.688,-80.566,97.656,95.215,-59.082,16.113,0
1542736839.692,-71.289,84.961,94.727,-36.621,22.461,0
1542736839.696,-67.871,75.684,79.590,-19.531,81.055,0
1542736839.699,-50.293,60.059,61.523,-4.395,92.773,0
1542736839.703,-22.461,40.039,47.852,24.414,9.277,0
1542736839.707,-10.742,29.297,35.645,24.902,32.715,0
1542736839.711,11.719,20.996,24.414,41.504,61.035,0
1542736839.715,33.691,6.836,20.996,67.871,12.207,0
1542736839.719,49.805,-2.930,20.996,83.984,-10.254,0
1542736839.723,56.641,-9.277,19.531,97.168,-11.230,0
1542736839.727,67.383,-16.113,18.066,106.934,-25.391,0
1542736839.731,75.684,-26.855,6.348,114.258,-16.113,0
1542736839.735,74.219,-37.109,-13.184,110.352,-8.789,0
1542736839.739,79.102,-34.180,-18.555,109.375,20.020,0
1542736839.742,93.262,-35.156,-15.625,118.652,51.758,0
1542736839.746,97.656,-42.969,-12.207,129.883,-7.324,0
1542736839.750,84.473,-50.781,-10.254,125.488,13.184,0
1542736839.754,82.031,-48.340,-2.441,123.047,32.227,0
1542736839.758,88.867,-46.875,-0.977,121.582,54.688,0
1542736839.762,88.379,-44.922,-13.672,124.512,82.031,0
1542736839.766,96.191,-38.574,-28.809,136.230,79.590,0
1542736839.770,95.215,-38.086,-36.133,132.812,33.203,0
1542736839.774,87.891,-40.527,-38.086,127.441,-3.418,0
1542736839.778,99.609,-37.598,-52.734,126.465,45.898,0
1542736839.782,109.375,-28.320,-57.129,133.789,37.109,0
1542736839.785,103.027,-28.809,-48.340,136.719,41.992,0
1542736839.789,96.191,-26.855,-43.457,131.348,26.855,0
1542736839.793,92.285,-22.949,-31.250,129.395,62.988,0
1542736839.797,96.680,-25.391,-15.625,136.230,65.918,0
1542736839.801,97.168,-29.785,-15.625,140.625,30.273,0
1542736839.805,98.145,-22.949,-28.320,137.695,53.711,0
1542736839.809,99.121,-17.090,-37.109,131.348,4.395,0
1542736839.813,92.285,-16.113,-39.551,131.836,6.348,0
1542736839.817,90.332,-10.254,-38.086,125.977,48.340,0
1542736839.821,84.961,-16.113,-26.367,129.395,62.012,0
1542736839.824,86.426,-20.508,-12.695,140.137,89.355,0
1542736839.828,86.426,-16.113,-10.254,131.836,61.035,0
1542736839.832,92.285,-10.742,-0.488,127.930,22.461,0
1542736839.836,89.844,-14.648,11.719,127.441,47.363,0
1542736839.840,66.895,-18.555,11.719,118.652,-3.906,0
1542736839.844,68.359,-12.207,12.695,114.746,-59.570,0
1542736839.848,78.613,-5.859,10.742,118.164,14.160,0
1542736839.852,79.102,-5.371,1.953,115.234,62.500,0
1542736839.856,74.219,-11.719,-9.277,120.605,19.531,0
1542736839.860,80.566,-10.254,-9.277,120.605,34.180,0
1542736839.864,82.520,0.000,-7.324,118.164,58.594,0
1542736839.867,78.125,6.836,-21.484,128.418,120.605,0
1542736839.871,78.125,8.301,-20.996,129.883,119.141,0
1542736839.875,73.730,-0.977,-5.859,124.512,22.461,0
1542736839.879,77.637,-6.836,3.906,117.188,9.766,0
1542736839.883,78.125,-3.906,8.789,114.258,-11.719,0
1542736839.887,66.895,0.977,9.766,116.699,1.953,0
1542736839.891,62.012,1.465,22.461,112.793,10.254,0
1542736839.895,60.059,-1.465,35.645,103.516,22.949,0
1542736839.899,50.293,-6.348,31.738,100.098,13.184,0
1542736839.903,47.363,-1.953,19.043,104.004,8.301,0
1542736839.907,47.852,8.789,9.277,102.051,41.016,0
1542736839.910,53.223,14.160,13.184,94.238,27.832,0
1542736839.914,63.965,8.301,35.645,108.398,54.199,0
1542736839.918,71.777,14.648,33.691,118.652,26.855,0
1542736839.922,46.875,29.297,12.207,90.820,-1.953,0
1542736839.926,34.180,29.785,5.859,76.172,41.016,0
1542736839.930,37.598,27.832,0.488,72.266,60.547,0
1542736839.934,32.227,30.762,2.930,65.918,60.547,0
1542736839.938,38.574,34.180,9.766,68.359,85.449,0
1542736839.942,47.852,30.273,-7.324,77.637,56.641,0
1542736839.946,60.547,24.414,-18.066,91.309,35.645,0
1542736839.949,56.152,16.602,-15.137,89.355,52.246,0
1542736839.953,43.457,9.766,-26.855,81.055,41.992,0
1542736839.957,38.574,6.836,-39.062,84.473,1.953,0
1542736839.961,41.504,9.277,-46.387,84.473,15.625,0
1542736839.965,53.223,15.625,-38.086,84.473,75.195,0
1542736839.969,41.992,20.996,-22.949,85.938,42.969,0
1542736839.973,35.156,25.879,-20.020,90.332,-9.277,0
1542736839.977,41.504,32.715,-21.484,89.355,-13.184,0
1542736839.981,38.574,34.668,-16.602,85.938,-14.160,0
1542736839.985,38.574,35.645,-8.301,85.938,-8.301,0
1542736839.989,61.035,35.645,1.953,85.938,46.875,0
1542736839.992,71.777,21.973,9.766,88.867,127.441,0
1542736839.996,51.270,19.043,13.184,83.008,98.145,0
1542736840.000,36.621,29.297,20.020,82.031,4.883,0
1542736840.004,38.086,33.203,30.273,83.008,7.324,0
1542736840.008,42.969,36.621,35.156,75.195,11.230,0
1542736840.012,39.551,36.621,31.250,68.359,18.066,0
1542736840.016,40.527,29.785,24.414,67.383,24.902,0
1542736840.020,34.180,26.367,18.555,69.336,34.668,0
1542736840.024,27.344,25.391,13.184,72.754,76.172,0
1542736840.028,27.344,22.949,14.160,75.684,87.402,0
1542736840.032,33.203,19.531,14.160,68.359,50.781,0
1542736840.035,35.156,20.996,15.625,63.965,67.383,0
1542736840.039,16.602,23.926,24.902,65.430,37.598,0
1542736840.043,20.996,24.414,34.668,59.082,-34.180,0
1542736840.047,29.785,27.832,38.574,67.383,23.926,0
1542736840.051,27.832,30.762,42.969,74.219,39.062,0
1542736840.055,29.785,33.691,36.621,62.500,11.719,0
1542736840.059,27.344,38.574,22.461,62.012,17.090,0
1542736840.063,0.000,37.109,20.508,62.012,46.387,0
1542736840.067,-4.883,34.180,18.066,58.105,43.945,0
1542736840.071,19.531,32.227,16.113,62.500,3.906,0
1542736840.074,24.414,26.367,20.020,61.523,22.949,0
1542736840.078,23.438,24.414,16.602,57.129,44.922,0
1542736840.082,44.922,34.668,9.277,67.871,73.242,0
1542736840.086,68.359,41.504,3.418,97.168,81.055,0
1542736840.090,56.641,38.086,13.184,83.008,73.242,0
1542736840.094,8.301,38.086,33.691,29.785,67.871,0
1542736840.098,-5.371,35.645,33.691,19.043,15.137,0
1542736840.102,-0.977,34.668,39.551,17.578,33.203,0
1542736840.106,-20.996,28.320,41.504,10.742,77.148,0
1542736840.110,-29.785,23.926,39.551,18.555,55.664,0
1542736840.114,-51.270,21.973,46.387,10.742,32.715,0
1542736840.117,-45.898,14.648,37.598,21.484,-9.766,0
1542736840.121,-12.207,13.184,35.645,49.805,-45.898,0
1542736840.125,-1.465,20.020,39.551,52.246,-28.809,0
1542736840.129,1.465,15.137,49.316,53.223,44.434,0
1542736840.133,1.465,7.324,63.965,49.805,39.551,0
1542736840.137,-5.859,8.301,65.918,45.898,11.230,0
1542736840.141,-17.090,10.254,65.430,54.199,63.965,0
1542736840.145,-10.254,15.625,56.641,49.805,17.090,0
1542736840.149,5.371,16.602,52.246,38.086,-12.695,0
1542736840.153,3.418,11.719,56.641,47.852,63.477,0
1542736840.157,9.277,4.883,50.293,62.500,29.297,0
1542736840.160,12.695,3.906,44.434,56.641,17.090,0
1542736840.164,4.883,5.371,42.969,42.969,29.785,0
1542736840.168,10.254,2.930,37.109,40.039,26.367,0
1542736840.172,17.578,5.859,28.320,45.410,36.621,0
1542736840.176,7.812,15.625,20.996,53.223,12.695,0
1542736840.180,-6.348,23.438,25.879,56.641,27.832,0
1542736840.184,2.441,35.156,27.832,54.688,36.621,0
1542736840.188,18.066,43.457,30.273,46.875,19.531,0
1542736840.192,27.344,38.086,32.227,41.504,-28.320,0
1542736840.196,33.691,37.598,18.555,38.086,-28.320,0
1542736840.199,37.109,42.480,12.695,48.340,12.695,0
1542736840.203,43.945,48.340,20.020,56.152,53.711,0
1542736840.207,44.922,53.711,22.949,57.617,15.625,0
1542736840.211,39.062,38.086,27.344,71.777,-20.508,0
1542736840.215,32.715,20.996,23.926,77.148,2.441,0
1542736840.219,16.602,16.602,18.066,75.684,-17.090,0
1542736840.223,-5.371,9.277,11.230,71.289,0.488,0
1542736840.227,11.230,3.418,5.371,66.895,5.859,0
1542736840.231,33.203,10.254,9.766,73.242,35.645,0
1542736840.235,24.902,20.020,20.020,70.312,54.688,0
1542736840.239,17.578,7.812,25.391,62.012,44.434,0
1542736840.242,22.461,1.953,18.066,61.523,26.855,0
1542736840.246,31.250,12.695,1.953,59.082,-6.836,0
1542736840.250,34.668,17.578,-6.348,48.340,-15.137,0
1542736840.254,44.922,25.391,-14.648,52.734,14.160,0
1542736840.258,59.570,20.508,-18.555,69.336,54.199,0
1542736840.262,41.992,12.207,5.371,57.129,12.207,0
1542736840.266,18.555,13.184,16.113,39.062,9.277,0
1542736840.270,20.508,2.930,14.648,52.734,77.148,0
1542736840.274,31.250,-5.859,12.695,52.734,73.730,0
1542736840.278,3.418,2.441,14.648,35.645,26.855,0
1542736840.282,-23.926,8.301,21.973,38.574,45.410,0
1542736840.285,-13.672,4.395,29.297,40.527,46.387,0
1542736840.289,2.441,12.695,38.086,42.480,45.410,0
1542736840.293,0.977,23.438,32.227,41.992,94.238,0
1542736840.297,-21.484,15.625,24.414,31.738,90.820,0
1542736840.301,-22.949,18.066,20.996,31.738,64.941,0
1542736840.305,-6.836,23.926,27.832,49.805,-7.324,0
1542736840.309,7.324,21.973,30.762,56.641,8.789,0
1542736840.313,26.855,27.832,27.344,63.965,49.316,0
1542736840.317,24.902,35.156,31.738,75.195,70.312,0
1542736840.321,4.883,26.855,26.367,56.152,56.152,0
1542736840.324,11.230,11.719,23.926,55.176,18.066,0
1542736840.328,20.020,12.695,27.344,63.965,29.785,0
1542736840.332,13.184,16.602,25.391,54.688,30.273,0
1542736840.336,22.461,15.625,34.668,54.688,38.086,0
1542736840.340,36.133,18.555,40.039,47.852,19.043,0
1542736840.344,41.992,32.227,33.691,40.039,-5.859,0
1542736840.348,25.879,38.086,25.391,43.945,24.902,0
1542736840.352,17.090,32.715,18.555,47.852,59.082,0
1542736840.356,11.230,32.715,21.484,52.734,94.238,0
1542736840.360,-6.836,35.156,14.160,49.316,66.895,0
1542736840.364,-10.254,32.715,9.277,58.105,23.926,0
1542736840.367,-11.719,37.109,22.461,42.969,56.641,0
1542736840.371,-8.301,37.109,27.832,24.414,67.383,0
1542736840.375,10.254,37.109,34.180,32.715,71.289,0
1542736840.379,13.184,34.668,36.133,40.039,98.633,0
1542736840.383,6.836,33.691,30.762,41.992,77.637,0
1542736840.387,5.859,32.715,35.156,49.316,92.773,0
1542736840.391,7.812,22.461,45.898,54.199,118.164,0
1542736840.395,15.625,32.227,52.734,62.012,94.727,0
1542736840.399,-2.441,38.086,42.969,49.316,81.055,0
1542736840.403,-4.883,31.250,31.738,52.246,45.898,0
1542736840.407,14.648,31.250,35.156,67.383,28.320,0
1542736840.410,5.859,31.738,41.504,68.359,24.414,0
1542736840.414,15.137,30.273,35.645,65.430,-37.598,0
1542736840.418,15.625,26.367,29.785,59.570,-56.152,0
1542736840.422,9.277,30.273,33.691,64.453,13.184,0
1542736840.426,2.441,39.551,24.902,66.895,56.152,0
1542736840.430,0.488,42.969,13.184,65.430,45.898,0
1542736840.434,14.160,41.992,18.066,60.547,74.219,0
1542736840.438,19.531,44.922,12.207,57.129,60.547,0
1542736840.442,21.484,40.527,-2.930,58.105,52.734,0
1542736840.446,20.508,41.992,-2.930,45.410,48.828,0
1542736840.449,29.297,42.480,14.160,56.152,34.668,0
1542736840.453,41.016,37.598,16.602,77.637,56.641,0
1542736840.457,32.227,63.477,-1.953,58.105,41.992,0
1542736840.461,23.438,79.102,-7.812,40.527,51.270,0
1542736840.465,39.062,65.918,10.254,46.387,27.832,0
1542736840.469,49.316,60.547,17.578,59.570,13.672,0
1542736840.473,38.574,61.035,9.277,63.965,4.395,0
1542736840.477,42.969,54.688,0.488,57.129,-13.184,0
1542736840.481,48.828,42.480,1.953,56.152,14.648,0
1542736840.485,59.082,52.734,12.695,70.801,8.301,0
1542736840.489,62.012,53.711,10.254,68.848,-21.484,0
1542736840.492,53.711,39.062,13.184,61.523,28.809,0
1542736840.496,42.969,38.574,18.555,63.965,61.035,0
1542736840.500,25.391,32.227,13.672,60.059,-17.090,0
1542736840.504,20.996,27.344,15.137,61.035,12.207,0
1542736840.508,40.039,34.668,15.137,47.363,36.621,0
1542736840.512,50.293,39.551,15.625,50.781,27.344,0
1542736840.516,29.785,45.898,37.109,68.359,48.340,0
1542736840.520,27.344,49.805,52.734,67.871,35.645,0
1542736840.524,45.410,45.898,53.223,53.223,52.734,0
1542736840.528,30.762,34.668,24.902,38.574,47.852,0
1542736840.532,14.648,28.809,-1.953,41.016,18.066,0
1542736840.535,14.160,27.344,0.488,41.504,47.852,0
1542736840.539,20.508,28.320,14.160,48.340,68.359,0
1542736840.543,9.766,23.926,27.344,49.316,102.539,0
1542736840.547,-5.371,22.461,22.461,33.203,57.617,0
1542736840.551,-24.902,40.039,13.672,43.457,3.418,0
1542736840.555,-20.508,68.359,23.926,43.457,41.992,0
1542736840.559,-7.324,57.129,41.992,20.508,41.504,0
1542736840.563,-0.977,42.969,41.016,25.391,37.109,0
1542736840.567,7.812,54.199,45.410,40.039,54.199,0
1542736840.571,5.859,64.941,58.105,16.113,53.223,0
1542736840.574,-31.250,62.988,58.594,8.789,-16.602,0
1542736840.578,-53.223,70.801,53.711,-7.324,-20.020,0
1542736840.582,-53.711,90.820,57.617,-39.551,-3.418,0
1542736840.586,-76.660,93.262,60.059,-42.480,43.457,0
1542736840.590,-83.008,104.004,54.199,-52.246,71.777,0
1542736840.594,-96.680,122.070,62.012,-70.801,53.711,0
1542736840.598,-109.375,136.719,84.961,-78.613,36.621,0
1542736840.602,-120.117,150.879,105.469,-81.055,18.066,0
1542736840.606,-129.883,162.109,118.164,-95.703,50.781,0
1542736840.610,-122.559,153.809,116.211,-103.516,20.508,0
1542736840.614,-139.648,145.996,111.816,-115.234,-4.395,0
1542736840.617,-165.039,152.832,115.234,-129.883,42.480,0
1542736840.621,-156.738,162.109,121.582,-131.836,38.574,0
1542736840.625,-156.738,164.062,123.047,-134.277,2.441,0
1542736840.629,-177.246,172.363,126.953,-145.508,-2.930,0
1542736840.633,-193.359,181.641,137.207,-154.297,38.574,0
1542736840.637,-207.031,175.781,141.113,-150.391,43.945,0
1542736840.641,-191.406,176.270,125.000,-151.367,37.109,0
1542736840.645,-171.387,175.781,121.582,-148.438,34.180,0
1542736840.649,-163.574,164.551,121.094,-132.324,-8.301,0
1542736840.653,-157.227,154.297,113.770,-137.695,3.418,0
1542736840.657,-145.020,146.973,107.910,-117.676,9.766,0
1542736840.660,-131.348,128.418,111.816,-102.051,-3.906,0
1542736840.664,-111.816,108.887,103.516,-73.730,-18.066,0
1542736840.668,-55.664,98.633,80.078,-34.180,-22.461,0
1542736840.672,-33.691,79.590,60.059,-24.414,16.113,0
1542736840.676,-29.297,64.941,42.969,3.906,82.520,0
1542736840.680,0.488,58.105,24.414,32.715,79.102,0
1542736840.684,3.906,46.875,10.254,35.645,19.043,0
1542736840.688,10.742,30.273,3.906,50.293,50.781,0
1542736840.692,39.062,13.184,0.488,62.500,72.754,0
1542736840.696,63.477,6.348,6.348,75.195,36.621,0
1542736840.699,58.594,-4.395,9.277,94.727,49.316,0
1542736840.703,75.195,-12.207,13.672,102.051,55.176,0
1542736840.707,99.609,-8.789,13.184,108.398,46.875,0
1542736840.711,99.609,-8.301,11.230,113.281,36.133,0
1542736840.715,96.191,-13.184,7.812,115.723,15.137,0
1542736840.719,82.520,-27.344,3.906,116.699,46.875,0
1542736840.723,83.984,-32.227,-0.488,118.164,64.941,0
1542736840.727,89.355,-28.809,-8.789,113.281,46.875,0
1542736840.731,75.684,-25.391,-13.184,115.234,10.254,0
1542736840.735,73.730,-22.949,-20.020,126.953,35.645,0
1542736840.739,97.656,-36.133,-33.203,140.625,68.848,0
1542736840.742,105.469,-48.340,-39.551,139.648,-41.016,0
1542736840.746,95.215,-56.641,-38.086,149.414,-72.266,0
1542736840.750,100.098,-57.617,-35.156,166.992,15.625,0
1542736840.754,103.027,-52.734,-31.738,155.273,76.660,0
1542736840.758,102.051,-47.363,-36.621,140.137,83.008,0
1542736840.762,91.797,-41.504,-46.387,129.883,51.758,0
1542736840.766,106.934,-34.668,-42.480,124.023,51.758,0
1542736840.770,124.023,-38.574,-34.668,122.559,83.008,0
1542736840.774,107.910,-49.316,-43.457,118.164,51.758,0
1542736840.778,97.656,-43.945,-51.270,124.023,45.410,0
1542736840.782,102.051,-33.691,-52.734,146.484,64.941,0
1542736840.785,111.328,-35.156,-41.016,154.785,64.941,0
1542736840.789,100.098,-34.668,-25.391,136.230,49.316,0
1542736840.793,73.730,-26.367,-25.391,117.676,37.109,0
1542736840.797,86.914,-29.297,-20.020,120.605,33.203,0
1542736840.801,97.656,-37.598,-21.484,130.859,0.000,0
1542736840.805,97.168,-37.109,-34.668,122.070,-14.648,0
1542736840.809,100.586,-25.879,-29.785,122.559,19.043,0
1542736840.813,95.215,-23.926,-21.973,133.301,36.621,0
1542736840.817,90.332,-32.715,-31.250,127.930,53.711,0
1542736840.821,89.844,-32.715,-43.457,115.234,59.082,0
1542736840.824,81.055,-35.156,-38.574,119.141,36.133,0
1542736840.828,80.078,-34.180,-31.738,128.418,32.227,0
1542736840.832,75.195,-26.855,-22.461,130.371,28.809,0
1542736840.836,61.035,-23.926,-3.418,117.676,41.992,0
1542736840.840,66.406,-23.438,4.395,99.121,32.227,0
1542736840.844,62.012,-22.461,12.207,108.887,42.969,0
1542736840.848,69.824,-12.695,18.555,107.422,85.938,0
1542736840.852,76.660,-6.348,29.297,118.652,54.688,0
1542736840.856,68.359,-10.254,40.527,122.559,31.738,0
1542736840.860,94.727,-20.508,29.785,97.656,-0.977,0
1542736840.864,89.355,-23.438,11.230,92.285,4.883,0
1542736840.867,56.641,-15.137,11.719,95.215,49.316,0
1542736840.871,61.035,-12.207,20.508,102.051,16.113,0
1542736840.875,63.965,-3.906,28.320,112.793,37.109,0
1542736840.879,58.105,9.766,23.926,95.703,86.426,0
1542736840.883,59.570,12.207,16.113,87.891,95.215,0
1542736840.887,67.871,19.531,19.043,98.145,76.172,0
1542736840.891,58.105,19.531,22.461,97.656,12.695,0
1542736840.895,61.035,20.996,24.902,96.680,-1.953,0
1542736840.899,74.707,20.020,39.062,96.191,18.555,0
1542736840.903,67.383,10.742,40.039,95.215,1.953,0
1542736840.907,57.129,14.160,35.156,102.051,-4.395,0
1542736840.910,59.570,16.602,35.156,94.727,-1.953,0
1542736840.914,65.430,12.695,33.203,86.914,18.555,0
1542736840.918,65.918,13.184,40.039,92.773,8.301,0
1542736840.922,56.152,15.137,37.598,90.332,40.039,0
1542736840.926,50.781,17.090,26.855,102.539,52.246,0
1542736840.930,59.082,16.113,17.578,99.609,6.348,0
1542736840.934,68.848,15.625,0.977,83.984,19.531,0
1542736840.938,61.035,12.695,-1.465,79.102,50.293,0
1542736840.942,58.594,3.906,9.766,75.195,46.387,0
1542736840.946,68.359,13.184,13.184,86.426,41.992,0
1542736840.949,76.172,25.879,19.043,94.727,36.133,0
1542736840.953,64.941,18.066,19.531,85.938,19.531,0
1542736840.957,42.969,15.137,15.137,69.824,-4.395,0
1542736840.961,41.504,18.066,23.926,73.242,18.555,0
1542736840.965,42.969,20.020,29.297,86.426,29.785,0
1542736840.969,36.133,26.367,23.926,77.148,28.809,0
1542736840.973,32.227,16.602,24.414,80.566,33.691,0
1542736840.977,41.016,8.789,31.738,76.660,13.184,0
1542736840.981,53.711,10.742,30.273,74.707,9.277,0
1542736840.985,58.105,20.020,26.855,75.195,4.395,0
1542736840.989,54.688,24.902,34.180,77.637,39.551,0
1542736840.992,46.875,24.902,34.668,81.055,31.738,0
1542736840.996,55.176,24.414,34.180,84.961,-7.812,0
1542736841.000,62.988,24.902,46.875,79.102,27.832,0
1542736841.004,64.453,22.949,48.828,71.289,44.434,0
1542736841.008,62.012,31.738,41.016,90.820,40.527,0
1542736841.012,58.105,37.598,35.156,82.520,14.648,0
1542736841.016,44.922,26.367,40.527,60.059,-1.465,0
1542736841.020,40.039,21.484,48.340,63.477,20.996,0
1542736841.024,46.875,32.227,38.086,77.148,47.363,0
1542736841.028,43.457,40.039,22.949,68.848,32.227,0
1542736841.032,27.832,33.203,22.461,64.453,49.805,0
1542736841.035,28.320,25.879,28.809,64.941,66.895,0
1542736841.039,36.621,37.109,28.809,63.477,16.113,0
1542736841.043,25.879,36.621,26.855,50.293,60.059,0
1542736841.047,29.785,26.367,31.250,35.645,61.035,0
1542736841.051,43.457,27.344,27.832,53.711,19.531,0
1542736841.055,59.082,32.715,20.996,86.426,27.344,0
1542736841.059,58.594,28.809,25.879,87.891,22.949,0
1542736841.063,39.551,24.902,20.996,65.918,-2.930,0
1542736841.067,23.926,23.438,19.043,60.547,43.457,0
1542736841.071,22.461,11.719,19.043,64.941,60.059,0
1542736841.074,9.277,3.418,9.766,62.500,60.059,0
1542736841.078,-9.766,-1.465,14.160,51.270,54.688,0
1542736841.082,-7.812,-13.672,17.090,52.734,45.410,0
1542736841.086,7.324,-3.418,24.414,52.246,47.363,0
1542736841.090,22.949,8.789,35.156,52.246,37.598,0
1542736841.094,34.180,1.465,22.461,59.570,15.137,0
1542736841.098,38.086,5.371,0.000,60.547,15.625,0
1542736841.102,32.715,0.977,-1.953,58.594,77.148,0
1542736841.106,28.320,-2.930,-2.930,60.547,46.387,0
1542736841.110,25.879,7.324,-16.602,60.547,17.090,0
1542736841.114,17.578,9.766,-20.020,56.152,19.043,0
1542736841.117,2.930,5.371,-10.742,46.387,37.109,0
1542736841.121,-0.977,3.418,-4.395,33.691,55.664,0
1542736841.125,4.883,13.672,9.277,34.180,23.438,0
1542736841.129,15.137,18.066,17.578,34.180,19.043,0
1542736841.133,18.066,12.207,14.160,29.785,39.062,0
1542736841.137,22.949,13.672,9.766,41.504,8.301,0
1542736841.141,24.414,20.020,7.812,62.012,-17.578,0
1542736841.145,17.578,24.414,5.371,69.336,61.035,0
1542736841.149,27.344,36.133,15.137,66.406,84.473,0
1542736841.153,32.227,49.316,28.320,54.199,65.918,0
1542736841.157,22.949,55.176,23.926,49.805,83.496,0
1542736841.160,23.926,55.664,20.508,57.129,35.156,0
1542736841.164,28.320,47.852,15.625,60.059,7.812,0
1542736841.168,35.645,42.480,10.254,62.012,43.945,0
1542736841.172,38.086,44.434,10.742,71.289,24.414,0
1542736841.176,34.180,36.621,13.672,65.918,34.180,0
1542736841.180,29.785,25.391,14.160,57.617,70.312,0
1542736841.184,19.043,20.020,8.301,63.477,67.871,0
1542736841.188,20.508,11.719,-4.395,65.430,94.727,0
1542736841.192,20.996,9.766,-12.695,57.617,49.316,0
1542736841.196,17.090,14.648,-8.789,62.500,21.484,0
1542736841.199,23.926,21.484,-0.488,64.453,18.066,0
1542736841.203,28.320,26.855,6.348,68.359,33.203,0
1542736841.207,22.949,29.785,10.254,74.707,29.785,0
1542736841.211,15.137,30.762,6.348,63.477,-3.906,0
1542736841.215,17.578,30.273,6.348,60.547,-1.953,0
1542736841.219,19.531,35.645,25.879,64.453,-18.066,0
1542736841.223,24.414,41.016,43.945,60.059,0.000,0
1542736841.227,29.785,41.504,45.410,56.152,34.668,0
1542736841.231,20.996,41.992,37.109,62.500,47.363,0
1542736841.235,10.254,36.133,30.762,57.617,90.332,0
1542736841.239,14.648,37.109,32.715,51.758,77.637,0
1542736841.242,20.996,49.316,37.109,57.617,23.926,0
1542736841.246,26.855,55.664,26.367,59.082,51.758,0
1542736841.250,16.602,38.574,25.391,54.688,74.219,0
1542736841.254,-1.465,27.344,28.320,43.457,-3.418,0
1542736841.258,1.953,33.203,20.508,47.852,0.977,0
1542736841.262,4.883,37.598,37.598,62.012,69.336,0
1542736841.266,4.395,43.945,49.316,53.223,33.691,0
1542736841.270,14.648,45.410,35.645,45.898,10.254,0
1542736841.274,17.578,37.598,22.949,48.340,23.438,0
1542736841.278,12.695,28.320,25.879,46.387,0.977,0
1542736841.282,6.836,42.480,38.574,48.828,52.734,0
1542736841.285,14.648,53.223,42.969,52.734,84.961,0
1542736841.289,2.930,38.574,29.297,49.316,25.391,0
1542736841.293,-19.043,29.785,18.555,42.969,-17.090,0
1542736841.297,-18.066,26.855,26.855,37.109,-8.789,0
1542736841.301,-9.766,21.973,40.527,45.410,38.086,0
1542736841.305,12.207,31.738,43.457,47.852,20.996,0
1542736841.309,11.230,45.898,47.363,37.598,-9.766,0
1542736841.313,-13.184,58.105,65.430,43.457,11.719,0
1542736841.317,-27.832,70.801,75.684,39.062,20.508,0
1542736841.321,-36.133,68.359,77.148,19.531,3.418,0
1542736841.324,-37.598,64.453,83.496,6.348,14.160,0
1542736841.328,-56.152,61.523,86.426,-12.207,64.453,0
1542736841.332,-60.059,83.496,92.285,-19.531,36.621,0
1542736841.336,-66.895,100.586,85.938,-25.391,31.250,0
1542736841.340,-74.219,108.398,91.797,-38.574,38.086,0
1542736841.344,-86.914,125.977,104.980,-58.594,20.508,0
1542736841.348,-100.098,137.695,111.328,-81.055,36.133,0
1542736841.352,-110.840,149.902,113.770,-99.121,50.293,0
1542736841.356,-137.207,163.574,105.957,-116.699,81.055,0
1542736841.360,-153.809,174.805,116.211,-128.418,62.988,0
1542736841.364,-166.016,181.152,136.230,-139.160,66.895,0
1542736841.367,-189.941,181.152,143.555,-167.480,120.605,0
1542736841.371,-208.008,180.176,128.906,-190.430,74.707,0
1542736841.375,-210.938,190.430,125.000,-190.918,-7.324,0
1542736841.379,-221.680,195.312,139.160,-202.148,3.418,0
1542736841.383,-221.191,187.500,140.137,-206.543,48.828,0
1542736841.387,-229.492,184.082,142.090,-207.520,85.449,0
1542736841.391,-220.703,187.012,147.461,-190.918,104.980,0
1542736841.395,-202.148,182.129,145.996,-165.527,81.543,0
1542736841.399,-207.031,179.199,138.184,-168.457,44.922,0
1542736841.403,-182.129,168.457,121.582,-154.785,8.789,0
1542736841.407,-169.434,158.203,122.070,-131.348,-54.199,0
1542736841.410,-159.180,151.367,120.605,-117.676,11.719,0
1542736841.414,-117.676,121.582,100.586,-82.520,68.848,0
1542736841.418,-104.004,95.215,88.379,-62.988,22.949,0
1542736841.422,-94.727,65.430,71.777,-61.523,21.484,0
1542736841.426,-62.988,47.852,46.387,-34.180,27.832,0
1542736841.430,-43.457,43.457,39.062,-11.230,3.418,0
1542736841.434,-29.297,25.391,34.668,2.441,42.969,0
1542736841.438,-10.254,17.578,23.926,24.902,69.824,0
1542736841.442,12.695,19.043,20.508,51.758,48.340,0
1542736841.446,30.273,13.184,15.625,68.359,89.844,0
1542736841.449,36.621,8.789,7.812,73.730,95.703,0
1542736841.453,45.898,-3.906,1.465,70.801,44.922,0
1542736841.457,52.734,-22.949,-13.672,71.289,23.926,0
1542736841.461,46.875,-32.227,-24.414,82.520,-10.742,0
1542736841.465,66.406,-37.598,-19.043,96.680,-1.465,0
1542736841.469,89.355,-42.969,-19.531,107.422,35.645,0
1542736841.473,85.938,-31.738,-29.297,112.305,27.344,0
1542736841.477,70.801,-23.438,-28.809,112.305,9.277,0
1542736841.481,67.383,-30.762,-26.367,115.234,5.859,0
1542736841.485,81.543,-36.133,-29.297,131.836,93.262,0
1542736841.489,102.539,-40.039,-36.621,148.926,66.406,0
1542736841.492,105.469,-28.809,-34.180,149.414,30.273,0
1542736841.496,85.938,-19.531,-17.578,133.789,10.254,0
1542736841.500,73.242,-17.578,-21.973,134.766,-23.926,0
1542736841.504,87.891,-13.184,-37.598,144.043,32.227,0
1542736841.508,92.285,-14.648,-46.387,133.789,54.688,0
1542736841.512,87.402,-22.461,-52.246,122.070,71.777,0
1542736841.516,95.215,-24.414,-58.105,124.512,52.246,0
1542736841.520,94.727,-16.602,-61.035,122.559,39.062,0
1542736841.524,97.168,-14.648,-62.500,134.277,52.734,0
1542736841.528,104.980,-26.855,-62.988,121.582,-5.859,0
1542736841.532,108.398,-20.508,-63.965,99.609,0.000,0
1542736841.535,100.098,-8.789,-64.453,101.562,-3.906,0
1542736841.539,88.379,-15.625,-50.293,103.027,-30.273,0
1542736841.543,89.844,-15.137,-38.574,112.793,11.230,0
1542736841.547,96.191,-15.625,-47.363,115.234,39.551,0
1542736841.551,89.844,-18.555,-44.434,133.301,13.184,0
1542736841.555,84.473,-20.508,-37.109,126.953,-18.555,0
1542736841.559,84.473,-39.062,-37.598,106.934,6.348,0
1542736841.563,80.566,-49.316,-30.273,118.164,53.223,0
1542736841.567,87.402,-41.992,-22.461,117.188,91.797,0
1542736841.571,99.609,-36.133,-11.719,124.512,104.004,0
1542736841.574,96.680,-31.250,-7.812,125.488,88.867,0
1542736841.578,95.215,-33.203,-18.066,121.582,79.590,0
1542736841.582,98.633,-35.156,-14.648,127.441,73.242,0
1542736841.586,95.215,-31.250,-6.348,131.348,49.316,0
1542736841.590,98.145,-28.320,-8.301,133.301,11.719,0
1542736841.594,100.586,-23.926,-14.648,132.812,30.762,0
1542736841.598,90.820,-21.484,-12.695,122.559,57.617,0
1542736841.602,86.426,-18.066,9.766,122.070,-2.930,0
1542736841.606,88.867,-13.184,22.461,126.953,-24.902,0
1542736841.610,86.914,-10.742,22.949,118.652,-15.625,0
1542736841.614,78.613,-8.789,19.043,110.352,36.133,0
1542736841.617,76.660,-10.254,15.625,109.863,64.453,0
1542736841.621,82.520,-2.441,19.531,108.887,6.836,0
1542736841.625,75.684,3.418,22.949,102.051,-13.184,0
1542736841.629,72.266,7.324,28.809,96.680,24.902,0
1542736841.633,77.637,12.207,32.715,96.191,91.309,0
1542736841.637,80.566,17.578,37.598,102.539,98.633,0
1542736841.641,78.125,24.414,35.156,112.305,83.496,0
1542736841.645,69.824,22.461,20.020,111.816,74.219,0
1542736841.649,70.312,21.484,11.719,112.793,49.805,0
1542736841.653,68.359,27.832,11.719,113.770,61.523,0
1542736841.657,66.406,27.832,4.883,113.281,66.895,0
1542736841.660,65.430,28.809,-3.906,108.887,-11.719,0
1542736841.664,66.895,24.902,0.977,103.516,-22.949,0
1542736841.668,59.082,20.996,-1.465,104.492,42.969,0
1542736841.672,51.758,23.926,-16.113,99.609,9.766,0
1542736841.676,53.223,28.320,-21.973,97.656,-25.391,0
1542736841.680,48.828,32.227,-17.578,100.586,-7.324,0
1542736841.684,48.828,33.691,-7.324,100.586,-19.043,0
1542736841.688,44.922,21.973,-2.441,92.773,-25.879,0
1542736841.692,41.016,19.043,-4.395,85.938,5.371,0
1542736841.696,50.293,28.320,-4.395,98.633,16.113,0
1542736841.699,42.969,32.715,-4.883,90.820,50.293,0
1542736841.703,27.344,38.086,-3.418,72.266,70.312,0
1542736841.707,38.086,39.062,-0.977,81.055,70.312,0
1542736841.711,40.527,33.691,-0.488,92.773,76.172,0
1542736841.715,35.645,33.691,-6.836,92.285,47.852,0
1542736841.719,41.504,30.762,-17.578,93.262,46.387,0
1542736841.723,44.922,27.344,-16.602,89.844,31.738,0
1542736841.727,36.621,22.949,-5.371,85.449,-3.906,0
1542736841.731,33.203,8.789,14.648,88.867,-32.715,0
1542736841.735,38.574,8.301,26.855,88.379,-32.227,0
1542736841.739,31.738,15.625,25.391,85.449,2.441,0
1542736841.742,22.949,20.020,13.672,83.008,22.949,0
1542736841.746,30.762,23.926,8.301,81.055,63.477,0
1542736841.750,27.832,20.020,8.301,78.125,96.680,0
1542736841.754,28.809,22.461,-0.977,74.219,16.113,0
1542736841.758,34.668,30.273,13.184,71.289,-19.531,0
1542736841.762,39.062,35.156,27.344,71.289,36.133,0
1542736841.766,42.969,39.062,20.996,80.566,31.738,0
1542736841.770,40.527,26.855,15.625,75.684,26.855,0
1542736841.774,42.480,26.855,-2.441,69.336,30.762,0
1542736841.778,38.574,42.480,-11.230,70.801,-9.766,0
1542736841.782,35.156,42.480,1.465,66.895,39.551,0
1542736841.785,38.574,38.574,4.883,73.242,97.168,0
1542736841.789,43.945,45.898,1.953,76.660,55.664,0
1542736841.793,42.969,59.082,-9.277,60.547,40.039,0
1542736841.797,38.574,60.059,-16.113,60.059,21.484,0
1542736841.801,39.062,44.434,-19.531,71.777,11.230,0
1542736841.805,46.875,41.504,-11.719,78.125,63.965,0
1542736841.809,47.363,36.133,8.301,82.031,65.918,0
1542736841.813,39.551,20.508,3.418,82.031,-36.133,0
1542736841.817,40.527,28.320,-5.859,82.520,28.809,0
1542736841.821,42.969,38.086,-6.836,88.379,125.488,0
1542736841.824,49.316,45.898,-1.953,88.379,83.984,0
1542736841.828,51.758,49.805,-1.953,80.078,21.484,0
1542736841.832,42.480,41.504,-10.742,79.102,33.691,0
1542736841.836,43.945,46.875,-14.160,80.078,44.922,0
1542736841.840,44.922,46.875,-18.066,75.195,18.066,0
1542736841.844,41.504,42.969,-17.578,63.965,7.812,0
1542736841.848,37.598,51.270,-12.207,58.594,37.109,0
1542736841.852,37.598,55.176,-9.766,62.012,57.617,0
1542736841.856,36.621,48.340,-4.395,59.082,29.785,0
1542736841.860,24.414,45.898,0.000,61.035,49.805,0
1542736841.864,22.461,50.293,4.883,59.082,37.598,0
1542736841.867,25.391,55.664,17.578,58.594,6.348,0
1542736841.871,17.578,50.781,26.367,59.570,56.641,0
1542736841.875,9.277,43.457,23.438,52.734,43.945,0
1542736841.879,4.883,33.691,10.742,45.410,36.133,0
1542736841.883,4.883,24.902,6.836,40.527,42.480,0
1542736841.887,14.648,32.227,13.184,41.992,31.738,0
1542736841.891,26.367,31.250,8.301,47.852,18.066,0
1542736841.895,25.391,26.855,-0.977,48.340,41.504,0
1542736841.899,24.902,29.297,5.371,51.270,79.102,0
1542736841.903,26.855,34.668,17.578,60.547,58.594,0
1542736841.907,22.949,41.504,17.578,60.547,52.734,0
1542736841.910,19.531,39.062,0.488,61.523,18.555,0
1542736841.914,18.066,37.598,-8.789,57.129,2.930,0
1542736841.918,22.949,39.062,1.465,60.059,41.016,0
1542736841.922,22.949,33.203,-4.395,63.477,44.922,0
1542736841.926,8.301,19.043,-14.160,45.898,46.875,0
1542736841.930,4.395,23.438,-4.883,41.016,44.922,0
1542736841.934,8.789,27.344,5.371,48.340,2.930,0
1542736841.938,18.555,28.320,-12.207,57.129,8.789,0
1542736841.942,34.668,31.738,-21.973,76.172,3.418,0
1542736841.946,16.113,27.344,-1.465,62.012,26.367,0
1542736841.949,-4.883,31.738,-1.953,42.969,43.945,0
1542736841.953,-9.277,34.180,-2.930,40.039,11.230,0
1542736841.957,-4.883,32.715,4.395,34.180,-20.020,0
1542736841.961,-5.371,30.762,11.230,22.949,37.598,0
1542736841.965,-14.160,35.156,22.461,16.113,69.824,0
1542736841.969,-10.742,26.855,20.508,25.391,47.363,0
1542736841.973,-14.160,23.926,17.578,21.973,67.383,0
1542736841.977,-4.395,31.250,24.902,28.320,56.641,0
1542736841.981,4.883,23.926,23.438,40.527,113.281,0
1542736841.985,7.812,16.602,16.602,45.898,69.336,0
1542736841.989,5.371,14.160,21.484,46.387,29.297,0
1542736841.992,10.254,17.090,30.762,47.852,43.457,0
1542736841.996,16.113,13.672,27.344,51.758,43.457,0
1542736842.000,12.207,16.113,27.344,48.828,45.898,0
1542736842.004,20.508,27.832,29.297,53.223,71.777,0
1542736842.008,15.625,19.531,27.832,57.617,35.645,0
1542736842.012,11.719,13.184,24.414,54.688,27.832,0
1542736842.016,20.020,13.672,11.230,57.617,30.273,0
1542736842.020,22.949,6.836,-0.488,58.105,41.016,0
1542736842.024,20.996,9.766,-5.371,59.082,35.645,0
1542736842.028,17.578,16.602,0.977,59.570,16.602,0
1542736842.032,22.949,13.672,12.207,58.105,51.758,0
1542736842.035,20.508,11.230,15.137,63.965,34.180,0
1542736842.039,10.742,12.207,21.973,65.918,33.203,0
1542736842.043,11.230,18.555,27.344,68.848,55.176,0
1542736842.047,13.184,20.996,29.297,64.941,62.988,0
1542736842.051,8.301,16.113,31.738,60.547,40.527,0
1542736842.055,7.812,24.902,32.227,60.547,3.418,0
1542736842.059,14.160,25.879,31.738,65.430,46.875,0
1542736842.063,19.043,17.578,26.855,66.895,52.246,0
1542736842.067,23.438,9.766,30.762,64.941,64.453,0
1542736842.071,25.879,11.719,36.621,66.895,79.102,0
1542736842.074,25.879,17.090,31.738,67.871,60.547,0
1542736842.078,26.855,23.438,34.668,62.012,38.086,0
1542736842.082,25.391,29.785,36.133,56.641,19.531,0
1542736842.086,29.297,27.344,34.668,66.895,56.641,0
1542736842.090,32.227,26.855,45.898,69.336,48.828,0
1542736842.094,29.297,28.320,54.199,72.754,11.230,0
1542736842.098,30.273,29.297,56.152,74.219,21.973,0
1542736842.102,27.344,27.344,55.664,62.012,33.691,0
1542736842.106,22.461,35.645,50.781,57.617,2.441,0
1542736842.110,20.020,32.715,49.316,58.105,26.367,0
1542736842.114,12.207,24.414,36.621,52.734,58.594,0
1542736842.117,8.789,30.762,19.043,53.223,50.781,0
1542736842.121,13.184,28.809,6.348,57.129,31.738,0
1542736842.125,6.348,25.391,1.953,46.387,0.488,0
1542736842.129,9.766,27.344,-1.465,43.457,31.738,0
1542736842.133,18.066,19.043,-10.254,54.688,36.133,0
1542736842.137,17.578,8.789,-4.395,50.781,-44.434,0
1542736842.141,22.949,18.555,15.137,49.316,-34.668,0
1542736842.145,23.438,31.250,24.902,48.828,32.715,0
1542736842.149,28.320,24.414,28.320,54.688,25.879,0
1542736842.153,47.363,27.344,24.902,74.707,21.484,0
1542736842.157,35.645,51.758,18.555,62.988,28.320,0
1542736842.160,16.113,50.293,19.043,46.387,52.246,0
1542736842.164,28.320,40.527,18.555,53.223,47.852,0
1542736842.168,31.250,39.062,9.766,49.316,-5.371,0
1542736842.172,30.762,41.992,-5.371,41.504,-16.602,0
1542736842.176,22.461,42.480,-8.301,33.691,29.785,0
1542736842.180,17.578,42.969,-1.953,40.527,81.055,0
1542736842.184,17.578,60.547,9.277,51.270,101.074,0
1542736842.188,22.949,69.824,27.832,63.477,54.688,0
1542736842.192,22.949,54.199,22.949,61.035,-5.859,0
1542736842.196,20.508,45.410,2.930,57.129,10.254,0
1542736842.199,30.273,42.969,-15.137,57.129,66.406,0
1542736842.203,18.555,32.715,-24.414,39.062,69.824,0
1542736842.207,14.160,27.344,-32.227,40.527,62.012,0
1542736842.211,22.461,25.879,-33.691,44.434,38.086,0
1542736842.215,24.902,25.879,-23.438,44.434,23.926,0
1542736842.219,29.785,26.855,-15.137,50.293,61.523,0
1542736842.223,23.438,22.949,-15.137,48.340,30.273,0
1542736842.227,24.902,23.926,-19.531,41.016,52.246,0
1542736842.231,32.227,37.598,-13.184,49.316,56.152,0
1542736842.235,31.250,43.457,14.648,61.523,2.441,0
1542736842.239,30.762,38.574,38.574,54.199,26.855,0
1542736842.242,22.461,29.785,36.133,42.969,-20.996,0
1542736842.246,18.066,28.809,29.785,34.668,24.902,0
1542736842.250,25.391,37.109,31.738,37.109,47.363,0
1542736842.254,24.902,33.203,40.039,42.969,11.719,0
1542736842.258,19.043,31.250,40.527,39.551,62.988,0
1542736842.262,20.020,31.738,37.109,38.086,70.801,0
1542736842.266,21.973,25.879,38.574,41.016,58.594,0
1542736842.270,13.184,27.832,45.898,41.504,37.598,0
1542736842.274,-6.348,34.180,33.691,24.414,-6.836,0
1542736842.278,-28.809,40.527,20.020,11.230,-27.344,0
1542736842.282,-24.902,59.570,35.645,19.531,19.531,0
1542736842.285,-29.297,69.824,45.898,10.254,63.965,0
1542736842.289,-50.293,60.547,44.434,-5.371,80.078,0
1542736842.293,-58.594,45.898,50.293,-16.602,55.176,0
1542736842.297,-63.477,46.387,52.734,-24.414,35.156,0
1542736842.301,-67.383,66.406,57.129,-22.949,37.109,0
1542736842.305,-78.613,77.637,55.664,-34.668,-27.832,0
1542736842.309,-82.031,102.051,62.012,-43.945,-34.668,0
1542736842.313,-87.402,117.676,72.754,-50.781,65.430,0
1542736842.317,-101.074,117.188,73.730,-65.430,95.215,0
1542736842.321,-115.723,123.047,74.707,-82.520,29.785,0
1542736842.324,-134.766,122.559,88.867,-94.727,1.953,0
1542736842.328,-160.156,135.254,92.285,-116.699,40.527,0
1542736842.332,-170.410,147.461,101.562,-131.348,16.602,0
1542736842.336,-175.781,146.973,127.930,-143.066,11.230,0
1542736842.340,-187.500,152.832,134.766,-155.273,50.293,0
1542736842.344,-198.730,162.109,124.023,-163.574,32.715,0
1542736842.348,-211.426,167.480,123.047,-182.129,7.812,0
1542736842.352,-216.309,170.898,121.582,-195.312,17.578,0
1542736842.356,-215.820,170.410,125.000,-194.336,30.762,0
1542736842.360,-211.426,173.828,136.230,-179.688,63.477,0
1542736842.364,-199.707,187.500,132.812,-158.691,104.004,0
1542736842.367,-189.941,187.012,120.117,-160.156,70.801,0
1542736842.371,-184.082,183.105,114.746,-159.180,35.645,0
1542736842.375,-172.852,171.387,112.793,-142.578,19.531,0
1542736842.379,-153.809,157.227,113.281,-128.418,63.965,0
1542736842.383,-141.113,144.043,106.934,-120.117,9.766,0
1542736842.387,-111.328,124.512,92.773,-95.703,20.020,0
1542736842.391,-85.449,105.469,100.098,-63.477,95.215,0
1542736842.395,-82.520,76.172,98.633,-56.641,58.594,0
1542736842.399,-53.711,58.105,65.918,-32.227,96.191,0
1542736842.403,-29.785,44.434,52.734,-2.441,66.406,0
1542736842.407,-18.066,25.879,37.109,11.230,6.348,0
1542736842.410,6.348,17.578,16.113,36.621,-4.883,0
1542736842.414,7.812,10.254,8.301,41.504,-21.484,0
1542736842.418,31.250,-1.465,-5.371,62.988,30.273,0
1542736842.422,49.805,-15.625,3.418,88.867,44.434,0
1542736842.426,50.781,-21.484,2.441,92.285,35.645,0
1542736842.430,64.941,-33.691,-10.254,106.445,49.805,0
1542736842.434,70.801,-48.340,-20.020,106.445,115.234,0
1542736842.438,73.730,-55.664,-35.645,104.492,132.812,0
1542736842.442,84.473,-50.781,-34.180,113.281,86.914,0
1542736842.446,96.191,-46.875,-26.855,126.953,103.027,0
1542736842.449,96.680,-50.781,-16.113,136.230,69.824,0
1542736842.453,100.098,-49.316,-12.207,132.812,58.594,0
1542736842.457,110.840,-41.504,-19.043,141.113,81.543,0
1542736842.461,111.328,-37.598,-26.855,151.367,12.695,0
1542736842.465,100.098,-43.457,-38.086,148.438,-0.977,0
1542736842.469,120.605,-46.387,-46.387,168.945,43.945,0
1542736842.473,115.234,-54.688,-31.738,160.156,78.613,0
1542736842.477,87.402,-56.152,-20.996,136.230,-2.930,0
1542736842.481,92.285,-56.152,-24.902,145.996,-29.785,0
1542736842.485,100.098,-60.059,-22.461,151.855,5.859,0
1542736842.489,105.957,-69.824,-14.648,158.691,8.789,0
1542736842.492,101.562,-69.336,-11.719,151.367,32.715,0
1542736842.496,103.516,-64.941,-5.371,151.855,33.691,0
1542736842.500,109.863,-60.547,8.789,149.902,43.945,0
1542736842.504,119.629,-57.129,15.625,162.598,34.180,0
1542736842.508,123.047,-62.988,24.902,181.152,10.254,0
1542736842.512,114.746,-65.918,26.367,164.062,-4.883,0
1542736842.516,106.445,-70.801,14.160,150.391,5.859,0
1542736842.520,101.562,-74.219,10.742,146.973,40.039,0
1542736842.524,98.633,-64.453,17.578,146.484,39.551,0
1542736842.528,97.168,-55.176,22.949,151.367,39.062,0
1542736842.532,99.609,-47.363,34.180,151.367,48.340,0
1542736842.535,101.562,-45.410,41.016,152.832,16.113,0
1542736842.539,95.703,-46.387,30.762,152.832,31.738,0
1542736842.543,98.633,-34.668,21.484,145.996,55.176,0
1542736842.547,93.262,-32.227,6.836,133.301,34.180,0
1542736842.551,87.891,-35.156,-1.465,138.184,22.949,0
1542736842.555,85.449,-28.320,6.836,130.371,36.621,0
1542736842.559,78.125,-27.344,8.789,114.258,38.574,0
1542736842.563,73.242,-20.996,2.930,115.723,19.043,0
1542736842.567,70.312,-8.301,-7.324,115.234,42.969,0
1542736842.571,71.777,-3.906,-12.207,119.629,50.293,0
1542736842.574,74.219,-5.859,-5.371,126.465,21.484,0
1542736842.578,79.590,-6.836,1.465,125.000,20.020,0
1542736842.582,88.867,-0.488,-6.836,126.953,36.621,0
1542736842.586,87.891,1.953,-4.883,127.441,62.012,0
1542736842.590,79.590,-8.301,-1.465,115.723,53.223,0
1542736842.594,79.102,-2.930,-8.789,112.793,63.965,0
1542736842.598,77.148,3.418,-11.719,121.582,62.988,0
1542736842.602,73.730,1.953,-18.066,121.094,4.883,0
1542736842.606,70.801,-1.465,-17.578,109.863,23.438,0
1542736842.610,65.430,0.488,-18.555,105.957,32.715,0
1542736842.614,59.082,12.695,-29.785,103.027,31.738,0
1542736842.617,52.246,1.953,-28.320,93.262,-22.949,0
1542736842.621,48.340,-14.648,-13.672,90.332,-31.250,0
1542736842.625,49.316,-6.836,4.883,100.098,-2.441,0
1542736842.629,50.293,0.488,22.461,106.934,-8.301,0
1542736842.633,57.617,-5.859,22.461,105.469,52.734,0
1542736842.637,53.711,-16.113,8.301,98.145,93.262,0
1542736842.641,45.898,-10.254,-3.418,95.215,75.195,0
1542736842.645,43.945,0.488,-2.441,95.703,66.895,0
1542736842.649,41.016,1.953,15.625,104.980,62.988,0
1542736842.653,46.387,9.766,24.414,113.770,33.691,0
1542736842.657,48.828,16.602,16.113,105.469,77.637,0
1542736842.660,48.340,25.391,19.531,101.562,73.242,0
1542736842.664,56.152,27.344,27.344,111.328,51.270,0
1542736842.668,58.105,16.602,23.438,112.305,9.766,0
1542736842.672,52.734,20.508,9.277,110.840,-18.066,0
1542736842.676,52.246,24.902,10.742,101.562,-10.742,0
1542736842.680,55.176,20.508,18.555,92.285,-18.066,0
1542736842.684,56.152,24.414,11.719,86.914,-34.668,0
1542736842.688,51.270,17.578,14.648,86.914,-41.992,0
1542736842.692,71.289,17.090,11.719,110.840,-33.691,0
1542736842.696,82.520,20.996,22.461,111.328,9.277,0
1542736842.699,37.598,8.789,41.504,76.660,52.734,0
1542736842.703,23.926,-4.395,39.551,73.242,16.602,0
1542736842.707,49.805,-3.906,39.551,101.074,-34.180,0
1542736842.711,65.918,-0.488,33.691,115.723,-4.395,0
1542736842.715,62.012,-9.766,29.785,107.910,47.363,0
1542736842.719,64.453,-17.090,35.156,117.188,40.527,0
1542736842.723,72.754,-17.578,41.016,126.953,37.109,0
1542736842.727,68.848,-25.879,50.293,120.605,62.988,0
1542736842.731,73.242,-34.180,53.223,130.371,53.223,0
1542736842.735,80.566,-36.621,54.199,141.602,33.691,0
1542736842.739,92.773,-37.109,55.176,156.250,44.434,0
1542736842.742,104.492,-28.320,52.246,163.086,58.105,0
1542736842.746,107.422,-34.180,36.133,164.551,27.344,0
1542736842.750,108.398,-37.109,22.461,170.410,32.715,0
1542736842.754,110.352,-24.414,18.555,168.945,90.332,0
1542736842.758,106.445,-16.113,14.648,161.133,80.566,0
1542736842.762,99.121,-15.137,-3.906,156.250,45.410,0
1542736842.766,100.098,-19.043,-6.348,154.785,1.465,0
1542736842.770,103.027,-9.766,11.719,153.809,-34.180,0
1542736842.774,97.168,-5.859,22.461,144.043,4.883,0
1542736842.778,95.215,2.441,28.809,138.184,27.344,0
1542736842.782,90.820,6.348,29.785,131.836,4.395,0
1542736842.785,81.055,-1.465,32.715,129.883,-22.949,0
1542736842.789,78.613,-4.395,44.922,137.207,-7.812,0
1542736842.793,80.566,-1.465,56.641,136.230,30.273,0
1542736842.797,83.984,-0.977,64.941,136.719,41.504,0
1542736842.801,77.148,4.395,64.941,128.418,9.277,0
1542736842.805,69.336,6.348,51.270,121.582,-11.719,0
1542736842.809,63.965,8.301,50.293,118.164,47.363,0
1542736842.813,58.105,22.461,60.547,104.004,66.895,0
1542736842.817,57.617,27.832,57.129,105.957,10.254,0
1542736842.821,57.129,19.043,53.711,115.234,38.574,0
1542736842.824,50.781,18.066,49.805,105.957,90.332,0
1542736842.828,50.781,27.832,35.156,99.121,61.523,0
1542736842.832,54.199,31.738,34.668,95.215,31.250,0
1542736842.836,57.129,30.273,40.039,98.633,18.066,0
1542736842.840,68.359,37.109,38.086,108.398,-43.457,0
1542736842.844,63.477,34.180,35.645,103.516,-46.875,0
1542736842.848,57.129,35.645,25.391,100.586,-0.977,0
1542736842.852,50.781,31.250,15.625,106.445,-2.930,0
1542736842.856,43.945,23.438,17.090,106.934,11.230,0
1542736842.860,47.363,13.672,20.508,104.004,15.625,0
1542736842.864,47.363,5.859,16.113,101.074,21.484,0
1542736842.867,48.340,11.230,18.555,95.703,58.105,0
1542736842.871,43.945,21.484,21.484,92.285,48.828,0
1542736842.875,40.039,21.973,22.949,85.449,56.641,0
1542736842.879,40.039,13.672,29.297,80.078,48.828,0
1542736842.883,39.551,10.742,23.438,82.520,7.812,0
1542736842.887,37.109,14.648,20.996,84.473,34.180,0
1542736842.891,37.598,17.578,31.250,88.379,45.898,0
1542736842.895,37.109,24.414,41.504,88.379,73.242,0
1542736842.899,32.227,22.461,41.016,83.496,79.102,0
1542736842.903,25.391,13.672,31.250,86.914,80.566,0
1542736842.907,24.902,17.090,32.715,88.379,70.312,0
1542736842.910,30.273,20.508,29.297,89.844,29.785,0
1542736842.914,39.551,28.809,30.762,98.633,40.039,0
1542736842.918,52.246,38.574,41.016,98.145,49.805,0
1542736842.922,51.270,37.109,44.434,91.797,49.805,0
1542736842.926,62.500,20.020,45.898,110.352,78.125,0
1542736842.930,80.078,38.574,30.273,125.977,89.355,0
1542736842.934,53.223,57.129,9.277,86.426,95.215,0
1542736842.938,25.879,47.852,13.184,54.199,33.203,0
1542736842.942,10.742,50.293,25.879,32.715,-8.301,0
1542736842.946,-21.484,62.988,24.414,-5.859,32.715,0
1542736842.949,-50.781,70.801,16.113,-36.133,73.730,0
1542736842.953,-61.523,76.660,7.812,-46.387,76.660,0
1542736842.957,-86.426,94.238,-1.953,-76.660,46.875,0
1542736842.961,-97.656,99.609,-3.418,-87.891,3.418,0
1542736842.965,-114.746,111.328,-8.301,-113.281,-39.062,0
1542736842.969,-126.465,105.957,-8.789,-121.582,-9.766,0
1542736842.973,-126.465,107.910,-4.883,-110.840,-18.066,0
1542736842.977,-166.016,104.980,-13.184,-155.762,-16.113,0
1542736842.981,-155.762,88.867,-10.254,-146.973,-9.277,0
1542736842.985,-143.555,93.262,-2.441,-129.883,16.113,0
1542736842.989,-122.070,103.027,-10.254,-114.746,56.641,0
1542736842.992,-113.770,106.934,-20.020,-111.816,69.336,0
1542736842.996,-104.980,99.121,-27.344,-104.004,60.547,0
1542736843.000,-73.242,91.797,-22.949,-77.148,-20.020,0
1542736843.004,-72.266,90.332,-22.461,-63.477,-7.812,0
1542736843.008,-61.035,87.402,-25.391,-52.246,22.461,0
1542736843.012,-42.969,76.660,-28.320,-39.551,-4.395,0
1542736843.016,-37.598,66.406,-37.109,-31.250,29.297,0
1542736843.020,-33.691,52.734,-33.203,-29.785,74.219,0
1542736843.024,-31.738,42.969,-15.137,-18.066,57.617,0
1542736843.028,-28.809,38.574,-4.883,-14.160,63.477,0
1542736843.032,-13.184,41.504,-3.906,-5.859,73.242,0
1542736843.035,-3.418,47.363,-2.930,3.418,42.480,0
1542736843.039,-12.207,42.480,-8.789,4.883,-4.395,0
1542736843.043,-12.695,40.039,5.859,9.277,-32.227,0
1542736843.047,-1.953,44.922,19.043,18.066,-11.719,0
1542736843.051,-3.418,41.016,14.160,16.113,14.160,0
1542736843.055,-0.977,34.180,7.324,10.742,36.621,0
1542736843.059,13.672,41.992,10.742,30.762,48.828,0
1542736843.063,20.020,53.223,0.488,47.363,37.109,0
1542736843.067,17.578,56.641,-16.113,46.875,37.109,0
1542736843.071,14.160,62.988,2.441,45.410,8.301,0
1542736843.074,14.160,52.734,12.695,44.434,29.785,0
1542736843.078,18.066,43.945,16.113,49.316,47.363,0
1542736843.082,21.484,49.805,27.344,59.082,18.555,0
1542736843.086,24.902,56.152,20.020,57.617,46.875,0
1542736843.090,25.879,58.594,6.348,48.340,58.594,0
1542736843.094,25.879,48.340,20.996,55.664,-6.836,0
1542736843.098,23.438,49.316,37.598,60.547,-15.137,0
1542736843.102,25.879,51.758,33.203,59.570,-7.812,0
1542736843.106,30.762,41.016,25.391,63.965,35.645,0
1542736843.110,32.715,29.785,19.531,66.895,79.590,0
1542736843.114,35.645,28.809,12.695,55.176,16.602,0
1542736843.117,32.715,30.762,13.184,49.805,65.430,0
1542736843.121,28.809,24.414,20.508,54.688,96.680,0
1542736843.125,29.297,24.902,36.621,55.664,41.504,0
1542736843.129,36.133,33.203,50.293,54.199,15.137,0
1542736843.133,31.738,27.344,44.922,53.711,6.836,0
1542736843.137,21.973,30.273,43.945,60.059,31.250,0
1542736843.141,23.926,43.945,50.293,55.176,64.941,0
1542736843.145,11.230,36.133,41.504,40.527,79.590,0
1542736843.149,4.883,28.809,29.785,48.828,45.410,0
1542736843.153,7.812,25.391,15.625,55.176,50.781,0
1542736843.157,2.930,20.020,-4.883,46.387,41.504,0
1542736843.160,5.371,27.344,-13.184,43.457,52.246,0
1542736843.164,11.719,31.250,-11.719,47.363,72.754,0
1542736843.168,14.648,26.367,-7.812,57.129,59.570,0
1542736843.172,20.508,28.320,-13.184,58.105,63.965,0
1542736843.176,23.438,35.156,-14.648,62.012,54.199,0
1542736843.180,21.484,38.086,-13.672,69.336,20.020,0
1542736843.184,19.043,32.227,-15.625,64.941,54.688,0
1542736843.188,17.578,23.438,-17.578,60.059,57.617,0
1542736843.192,21.484,27.344,-12.207,62.012,8.301,0
1542736843.196,25.391,35.156,7.324,65.430,23.438,0
1542736843.199,20.508,32.715,10.742,62.012,55.176,0
1542736843.203,17.578,33.203,8.789,48.828,74.707,0
1542736843.207,23.926,38.086,15.137,46.387,62.500,0
1542736843.211,21.973,35.645,11.719,58.105,50.781,0
1542736843.215,21.484,33.203,4.395,61.523,53.223,0
1542736843.219,24.414,38.574,2.930,57.617,29.297,0
1542736843.223,25.879,47.363,13.672,62.988,21.484,0
1542736843.227,26.367,41.992,29.785,59.570,24.414,0
1542736843.231,22.461,36.133,20.996,55.664,22.949,0
1542736843.235,27.832,37.598,9.277,66.406,31.738,0
1542736843.239,35.645,29.297,19.043,61.035,-24.414,0
1542736843.242,43.457,19.531,21.484,64.453,-44.922,0
1542736843.246,40.527,34.180,11.719,57.129,0.977,0
1542736843.250,6.348,38.086,0.488,25.879,53.711,0
1542736843.254,-0.488,26.855,-14.648,23.926,56.641,0
1542736843.258,10.254,37.109,-12.207,35.156,53.223,0
1542736843.262,12.207,41.504,-3.906,41.016,70.312,0
1542736843.266,14.648,34.668,0.977,40.039,42.480,0
1542736843.270,10.742,28.809,8.789,31.250,26.367,0
1542736843.274,12.207,20.508,23.438,29.297,57.129,0
1542736843.278,20.508,25.879,34.668,38.086,37.598,0
1542736843.282,23.438,32.715,35.645,45.898,19.531,0
1542736843.285,24.414,34.668,30.273,49.316,36.621,0
1542736843.289,30.273,39.551,20.508,49.805,15.137,0
1542736843.293,31.250,38.574,12.207,48.340,3.906,0
1542736843.297,25.391,36.621,9.277,47.852,18.555,0
1542736843.301,24.902,35.645,14.648,51.270,0.977,0
1542736843.305,28.809,44.434,28.809,55.664,26.367,0
1542736843.309,25.391,49.805,32.715,54.688,38.086,0
1542736843.313,21.973,37.598,24.414,49.805,19.043,0
1542736843.317,22.461,33.691,31.250,51.758,99.609,0
1542736843.321,22.949,39.551,32.715,49.805,79.590,0
1542736843.324,25.879,47.363,36.621,53.711,64.453,0
1542736843.328,28.320,52.246,31.250,57.129,97.656,0
1542736843.332,24.902,39.551,15.137,57.617,56.641,0
1542736843.336,22.949,31.250,7.812,57.617,10.742,0
1542736843.340,31.250,37.598,7.812,58.594,13.672,0
1542736843.344,27.832,41.504,10.742,59.082,69.824,0
1542736843.348,17.090,37.598,12.207,56.152,80.078,0
1542736843.352,20.020,24.414,22.461,56.152,61.035,0
1542736843.356,18.555,17.578,33.203,50.293,65.430,0
1542736843.360,17.578,25.391,31.250,52.734,26.855,0
1542736843.364,16.602,25.879,20.996,52.246,28.809,0
1542736843.367,11.230,16.602,19.043,51.758,67.383,0
1542736843.371,5.371,6.348,14.160,60.059,16.602,0
1542736843.375,4.883,6.836,20.996,60.059,-19.043,0
1542736843.379,7.812,21.484,25.879,55.664,-32.715,0
1542736843.383,7.324,22.949,21.484,58.105,-31.738,0
1542736843.387,9.766,17.578,21.973,58.594,-28.320,0
1542736843.391,15.137,19.531,26.367,60.547,-7.812,0
1542736843.395,29.785,21.484,34.180,65.430,30.273,0
1542736843.399,35.156,18.555,34.180,63.477,11.230,0
1542736843.403,35.156,22.461,37.109,65.918,17.578,0
1542736843.407,40.039,25.391,32.715,68.848,33.691,0
1542736843.410,36.621,24.902,24.902,66.406,58.594,0
1542736843.414,30.762,25.879,14.648,61.035,51.270,0
1542736843.418,28.809,21.484,6.836,58.105,24.414,0
1542736843.422,25.391,28.320,20.020,62.988,22.461,0
1542736843.426,27.344,36.133,22.461,63.965,19.531,0
1542736843.430,31.738,36.621,15.137,57.129,55.176,0
1542736843.434,33.691,30.762,16.602,51.758,102.539,0
1542736843.438,30.273,29.297,14.160,61.035,110.352,0
1542736843.442,31.250,40.039,22.461,65.918,68.848,0
1542736843.446,34.668,44.922,37.598,70.801,2.930,0
1542736843.449,22.949,35.645,27.832,65.918,-40.527,0
1542736843.453,21.973,24.902,18.555,59.570,-28.320,0
1542736843.457,26.855,22.949,20.020,59.570,-2.930,0
1542736843.461,26.367,30.273,25.879,58.105,-10.254,0
1542736843.465,30.762,41.504,35.645,59.082,-10.742,0
1542736843.469,36.133,49.316,32.227,63.477,28.320,0
1542736843.473,36.133,45.898,21.973,59.570,23.438,0
1542736843.477,31.250,35.156,17.090,52.246,41.504,0
1542736843.481,34.180,31.738,14.160,57.129,83.008,0
1542736843.485,37.109,30.762,21.484,60.059,20.996,0
1542736843.489,35.156,35.645,22.461,64.941,-1.465,0
1542736843.492,35.156,36.621,23.926,72.266,83.984,0
1542736843.496,34.668,24.414,14.648,62.012,72.266,0
1542736843.500,32.227,28.320,1.465,54.688,7.812,0
1542736843.504,41.992,46.387,7.812,63.965,19.531,0
1542736843.508,45.898,50.781,8.789,66.895,0.977,0
1542736843.512,35.645,37.109,5.859,59.570,50.781,0
1542736843.516,37.109,25.391,-1.465,54.199,88.379,0
1542736843.520,34.668,27.344,-10.254,44.922,3.418,0
1542736843.524,26.367,24.902,-2.930,47.363,9.277,0
1542736843.528,31.738,18.066,13.672,62.012,64.453,0
1542736843.532,32.227,17.578,9.766,57.617,39.551,0
1542736843.535,28.809,23.438,-9.766,48.340,66.895,0
1542736843.539,27.832,34.180,-15.137,56.641,83.984,0
1542736843.543,32.715,37.109,-12.695,58.594,58.105,0
1542736843.547,51.270,31.738,-14.648,75.684,20.020,0
1542736843.551,34.180,42.969,4.395,74.707,42.969,0
1542736843.555,-3.418,52.734,26.367,39.551,24.414,0
1542736843.559,0.977,55.176,25.391,40.527,-5.371,0
1542736843.563,2.441,50.293,29.297,41.504,51.758,0
1542736843.567,-11.719,40.527,30.762,28.809,65.918,0
1542736843.571,-3.418,48.828,20.996,34.668,74.707,0
1542736843.574,2.441,41.992,11.719,36.133,53.711,0
1542736843.578,5.371,27.344,13.184,39.062,31.250,0
1542736843.582,11.719,29.297,23.438,44.922,50.293,0
1542736843.586,15.625,36.621,36.133,49.805,21.484,0
1542736843.590,19.531,45.410,35.156,58.594,-13.184,0
1542736843.594,17.090,47.852,18.066,52.246,20.996,0
1542736843.598,15.625,49.805,12.695,46.875,7.324,0
1542736843.602,20.996,45.898,32.715,55.664,22.949,0
1542736843.606,17.090,37.598,50.781,53.223,41.992,0
1542736843.610,11.230,31.738,39.062,52.246,49.316,0
1542736843.614,14.648,35.645,30.273,54.199,59.570,0
1542736843.617,26.855,36.621,38.574,57.617,32.227,0
1542736843.621,27.344,25.879,32.227,62.012,12.695,0
1542736843.625,20.020,22.461,27.344,51.758,1.465,0
1542736843.629,25.391,21.973,33.691,55.664,10.742,0
1542736843.633,22.461,16.602,32.715,64.941,36.621,0
1542736843.637,21.484,19.531,31.738,66.895,39.551,0
1542736843.641,27.344,20.020,29.785,66.406,0.977,0
1542736843.645,27.344,17.090,22.949,64.453,13.184,0
1542736843.649,27.832,16.113,19.043,60.059,64.453,0
1542736843.653,26.367,17.090,19.531,56.152,71.777,0
1542736843.657,22.461,22.461,18.066,57.129,59.570,0
1542736843.660,19.043,6.836,10.742,54.688,17.578,0
1542736843.664,16.602,-10.254,-4.395,50.293,13.672,0
1542736843.668,16.113,0.000,-3.906,48.828,15.137,0
1542736843.672,19.043,8.301,11.719,47.852,32.715,0
1542736843.676,28.809,7.812,9.277,63.477,67.871,0
1542736843.680,38.574,6.348,12.695,83.008,56.152,0
1542736843.684,18.066,7.812,37.109,62.988,51.270,0
1542736843.688,-0.977,11.719,33.203,43.457,33.691,0
1542736843.692,4.395,14.160,23.438,57.617,33.691,0
1542736843.696,3.418,12.207,27.344,59.570,41.992,0
1542736843.699,-0.488,0.977,26.367,55.176,81.055,0
1542736843.703,0.488,-10.254,28.320,50.781,38.086,0
1542736843.707,-3.906,-12.207,30.273,42.480,9.277,0
1542736843.711,-1.465,-9.277,34.180,43.945,16.113,0
1542736843.715,7.324,-3.418,44.434,40.527,-41.992,0
1542736843.719,12.207,6.836,48.828,47.363,12.207,0
1542736843.723,17.090,20.996,53.711,63.477,60.059,0
1542736843.727,20.996,23.438,50.781,65.430,98.145,0
1542736843.731,12.695,10.742,42.480,56.641,99.121,0
1542736843.735,13.672,18.066,54.688,54.688,26.855,0
1542736843.739,21.484,25.879,60.059,58.105,74.707,0
1542736843.742,16.113,25.391,48.828,54.688,66.406,0
1542736843.746,2.930,24.902,38.574,39.551,1.465,0
1542736843.750,-4.883,21.484,32.227,31.250,25.879,0
1542736843.754,-14.648,25.391,25.879,30.273,43.457,0
1542736843.758,-31.250,29.785,28.320,14.648,23.926,0
1542736843.762,-54.688,36.133,33.691,-7.812,-1.465,0
1542736843.766,-75.684,52.246,38.574,-18.555,30.762,0
1542736843.770,-86.426,77.148,54.688,-29.297,37.109,0
1542736843.774,-95.703,94.238,72.754,-47.363,35.645,0
1542736843.778,-106.934,108.398,81.055,-60.059,63.965,0
1542736843.782,-118.652,122.559,77.148,-63.965,36.621,0
1542736843.785,-135.742,129.395,77.148,-79.590,12.207,0
1542736843.789,-148.926,139.160,88.867,-96.680,15.137,0
1542736843.793,-166.504,144.531,99.121,-110.352,6.836,0
1542736843.797,-183.594,136.230,104.980,-135.742,8.301,0
1542736843.801,-205.078,132.812,113.770,-158.691,-15.625,0
1542736843.805,-208.984,141.113,128.906,-166.992,-38.574,0
1542736843.809,-203.125,150.879,134.277,-172.363,-25.391,0
1542736843.813,-214.355,146.973,142.090,-181.152,57.617,0
1542736843.817,-201.660,134.277,153.809,-170.410,91.797,0
1542736843.821,-196.777,132.324,141.113,-161.621,46.875,0
1542736843.824,-187.988,115.723,125.977,-146.484,64.941,0
1542736843.828,-174.316,116.699,118.164,-142.578,55.664,0
1542736843.832,-155.762,120.605,115.234,-131.348,20.020,0
1542736843.836,-107.422,104.492,107.422,-82.520,-37.109,0
1542736843.840,-99.609,104.492,99.609,-74.707,5.371,0
1542736843.844,-67.383,99.609,97.168,-42.480,20.508,0
1542736843.848,-28.809,78.613,79.590,-1.465,3.906,0
1542736843.852,-30.273,49.805,64.453,-6.348,61.035,0
1542736843.856,-2.930,26.367,66.406,22.461,59.082,0
1542736843.860,22.461,16.602,63.965,46.875,26.855,0
1542736843.864,31.250,10.742,42.969,51.758,0.488,0
1542736843.867,41.992,-0.488,28.809,63.965,9.277,0
1542736843.871,55.176,-14.160,19.043,81.055,17.578,0
1542736843.875,66.895,-23.926,8.301,93.262,37.598,0
1542736843.879,70.801,-25.879,-7.812,100.098,87.891,0
1542736843.883,80.566,-24.902,-19.043,104.980,85.938,0
1542736843.887,81.543,-19.531,-19.531,105.469,67.383,0
1542736843.891,78.613,-24.414,-20.508,104.980,85.938,0
1542736843.895,85.449,-33.691,-26.367,105.957,87.402,0
1542736843.899,90.820,-28.809,-29.297,112.305,60.059,0
1542736843.903,93.262,-23.438,-25.879,120.117,20.508,0
1542736843.907,101.074,-25.879,-26.367,131.348,1.953,0
1542736843.910,100.098,-34.180,-29.785,126.465,38.086,0
1542736843.914,92.285,-38.574,-35.156,119.629,25.879,0
1542736843.918,99.121,-41.992,-24.902,134.277,77.637,0
1542736843.922,105.957,-42.969,-15.137,139.648,78.613,0
1542736843.926,105.957,-28.320,-20.508,125.488,26.855,0
1542736843.930,90.332,-11.719,-18.066,105.957,54.688,0
1542736843.934,74.707,-22.949,-3.906,106.934,57.129,0
1542736843.938,80.566,-28.809,-8.789,110.352,62.988,0
1542736843.942,79.102,-19.531,-26.367,104.492,32.715,0
1542736843.946,82.520,-7.812,-35.156,116.211,0.488,0
1542736843.949,90.332,-4.395,-33.691,119.141,77.637,0
1542736843.953,96.191,-7.812,-36.621,121.582,87.891,0
1542736843.957,92.773,-10.742,-36.621,122.070,-6.836,0
1542736843.961,93.750,-17.090,-34.180,127.441,-5.859,0
1542736843.965,107.910,-7.324,-36.133,135.742,50.293,0
1542736843.969,107.910,-12.695,-35.645,130.371,8.301,0
1542736843.973,95.703,-25.391,-40.527,120.605,5.371,0
1542736843.977,96.680,-18.066,-45.410,125.488,8.789,0
1542736843.981,96.191,-14.648,-42.480,127.441,15.625,0
1542736843.985,95.215,-10.742,-41.992,121.094,52.246,0
1542736843.989,92.285,-8.301,-38.574,119.141,64.941,0
1542736843.992,85.938,-19.043,-32.715,112.305,59.082,0
1542736843.996,90.820,-22.461,-26.855,109.863,58.594,0
1542736844.000,92.285,-22.461,-26.367,104.004,81.543,0
1542736844.004,85.449,-21.484,-23.438,104.492,62.988,0
1542736844.008,81.543,-20.020,-19.531,107.422,-23.438,0
1542736844.012,86.914,-18.066,-24.902,102.539,-26.855,0
1542736844.016,79.590,-6.836,-27.832,102.539,11.719,0
1542736844.020,69.824,-12.207,-24.902,99.121,24.902,0
1542736844.024,83.496,-9.766,-3.418,107.910,61.035,0
1542736844.028,83.984,-5.371,1.953,115.234,52.734,0
1542736844.032,75.195,-10.254,-1.953,105.957,27.344,0
1542736844.035,78.125,-9.277,9.766,103.027,28.809,0
1542736844.039,79.102,-5.859,7.324,102.539,7.812,0
1542736844.043,76.172,-3.418,12.695,103.516,43.457,0
1542736844.047,69.824,3.906,23.438,98.145,4.395,0
1542736844.051,60.547,10.254,35.645,96.191,-21.484,0
1542736844.055,54.688,14.160,43.945,98.145,75.195,0
1542736844.059,51.270,13.672,32.715,95.215,56.641,0
1542736844.063,57.129,15.625,20.508,89.355,-13.672,0
1542736844.067,54.688,14.160,24.414,86.914,-12.207,0
1542736844.071,47.852,7.812,26.855,85.449,63.477,0
1542736844.074,47.363,5.859,29.785,80.078,110.840,0
1542736844.078,44.434,-4.883,27.344,78.613,44.434,0
1542736844.082,45.410,-6.348,15.625,80.078,4.395,0
1542736844.086,41.504,11.230,25.879,69.824,7.324,0
1542736844.090,43.457,22.461,34.668,63.965,-11.230,0
1542736844.094,51.270,27.832,26.367,68.359,25.391,0
1542736844.098,51.270,25.391,23.926,79.590,2.441,0
1542736844.102,46.387,21.973,16.113,85.938,-53.711,0
1542736844.106,31.738,26.855,24.902,77.148,-3.418,0
1542736844.110,25.391,27.832,25.879,70.801,-9.766,0
1542736844.114,28.809,24.414,18.555,72.754,53.711,0
1542736844.117,29.297,22.461,18.555,72.266,56.641,0
1542736844.121,27.344,20.020,5.371,66.406,9.766,0
1542736844.125,31.250,30.762,8.789,68.359,59.570,0
1542736844.129,26.367,31.738,18.555,63.477,21.484,0
1542736844.133,20.020,22.461,14.160,55.664,30.762,0
1542736844.137,23.926,29.785,17.090,57.617,73.242,0
1542736844.141,20.996,29.297,18.066,67.383,37.598,0
1542736844.145,19.043,25.879,8.301,67.871,-20.508,0
1542736844.149,21.484,27.832,0.000,66.406,27.344,0
1542736844.153,20.996,24.414,-10.254,68.359,-0.488,0
1542736844.157,20.020,27.344,-14.160,70.312,31.250,0
1542736844.160,20.508,22.949,-5.859,72.266,136.719,0
1542736844.164,23.438,19.531,-15.625,72.266,84.473,0
1542736844.168,30.762,23.926,-13.672,72.754,11.230,0
1542736844.172,32.715,21.973,-0.488,78.125,40.527,0
1542736844.176,23.438,25.391,-1.953,75.195,40.527,0
1542736844.180,17.090,28.809,-6.836,68.848,-7.324,0
1542736844.184,15.625,25.879,-8.301,66.406,11.719,0
1542736844.188,16.113,23.438,-17.090,61.523,25.879,0
1542736844.192,16.602,27.344,-30.273,62.500,34.180,0
1542736844.196,20.020,31.250,-42.969,61.523,85.938,0
1542736844.199,20.020,37.598,-53.711,63.965,118.652,0
1542736844.203,15.625,42.969,-45.410,71.289,95.215,0
1542736844.207,20.508,40.527,-32.715,69.336,55.176,0
1542736844.211,18.066,29.297,-26.367,61.035,31.250,0
1542736844.215,10.742,23.438,-15.137,63.965,4.883,0
1542736844.219,10.254,25.391,0.488,69.336,37.598,0
1542736844.223,6.836,27.344,13.184,62.012,50.293,0
1542736844.227,14.160,35.645,14.160,64.453,65.430,0
1542736844.231,19.043,45.410,9.277,66.406,23.438,0
1542736844.235,9.766,46.875,7.812,60.059,-29.297,0
1542736844.239,13.672,45.410,0.488,63.965,37.109,0
1542736844.242,17.090,41.992,-13.184,58.594,10.254,0
1542736844.246,14.160,35.156,-20.996,57.617,10.254,0
1542736844.250,14.160,39.551,-14.648,62.988,44.434,0
1542736844.254,9.766,41.016,-10.254,58.105,44.922,0
1542736844.258,9.277,38.574,-15.625,60.547,93.750,0
1542736844.262,21.973,47.852,-15.137,76.172,80.566,0
1542736844.266,36.133,41.992,-2.441,85.938,54.688,0
1542736844.270,14.648,25.879,11.719,57.129,62.988,0
1542736844.274,-10.742,17.090,10.254,34.180,27.832,0
1542736844.278,-3.418,17.090,11.230,50.293,28.809,0
1542736844.282,0.000,18.555,7.324,60.547,37.109,0
1542736844.285,2.441,17.090,4.883,60.547,46.387,0
1542736844.289,1.465,21.484,24.414,55.176,71.777,0
1542736844.293,0.000,20.996,27.832,59.570,81.055,0
1542736844.297,1.465,11.230,16.602,64.941,66.895,0
1542736844.301,1.465,8.301,13.184,60.547,39.062,0
1542736844.305,3.906,8.789,12.207,58.105,13.672,0
1542736844.309,11.230,9.766,25.391,63.477,23.438,0
1542736844.313,23.438,17.578,33.203,66.406,25.391,0
1542736844.317,28.320,26.367,34.180,65.918,28.809,0
1542736844.321,18.555,22.461,36.621,66.406,47.363,0
1542736844.324,14.648,20.508,24.902,66.895,49.805,0
1542736844.328,16.113,17.090,12.695,60.547,62.012,0
1542736844.332,19.531,11.230,14.160,56.152,35.156,0
1542736844.336,26.855,5.371,23.926,60.547,15.625,0
1542736844.340,26.367,0.488,23.926,57.129,58.594,0
1542736844.344,18.555,9.277,21.973,56.641,85.449,0
1542736844.348,20.020,20.996,33.203,62.012,46.387,0
1542736844.352,25.879,21.484,39.551,64.453,0.000,0
1542736844.356,22.461,17.090,34.668,65.430,-13.184,0
1542736844.360,23.926,17.090,37.598,66.895,-11.719,0
1542736844.364,26.855,11.719,41.992,66.895,12.207,0
1542736844.367,25.391,12.207,35.156,68.848,36.133,0
1542736844.371,25.879,23.926,35.645,71.289,26.855,0
1542736844.375,22.461,27.832,35.156,68.848,28.809,0
1542736844.379,20.508,20.996,21.973,72.266,46.387,0
1542736844.383,10.742,9.277,12.695,65.430,25.391,0
1542736844.387,2.930,11.230,14.160,53.223,24.902,0
1542736844.391,9.277,20.996,20.996,55.176,76.172,0
1542736844.395,3.906,20.020,16.113,56.152,69.336,0
1542736844.399,2.930,25.391,12.207,58.594,12.207,0
1542736844.403,12.695,32.227,22.461,65.430,-4.883,0
1542736844.407,9.277,25.391,19.531,60.547,38.574,0
1542736844.410,8.789,20.020,4.883,55.664,72.754,0
1542736844.414,16.113,17.578,2.930,56.641,7.324,0
1542736844.418,18.555,12.695,16.113,54.199,-1.953,0
1542736844.422,14.648,18.066,33.691,50.781,34.180,0
1542736844.426,17.090,30.762,46.387,55.176,57.617,0
1542736844.430,17.578,26.855,43.945,55.176,41.016,0
1542736844.434,17.578,21.973,31.738,51.758,67.871,0
1542736844.438,17.090,25.391,30.273,54.688,66.406,0
1542736844.442,11.230,26.855,36.133,56.641,23.438,0
1542736844.446,10.254,29.297,41.504,55.664,54.199,0
1542736844.449,18.066,33.203,43.457,60.059,54.199,0
1542736844.453,27.344,36.133,41.504,67.383,42.969,0
1542736844.457,24.414,39.551,41.016,70.801,33.691,0
1542736844.461,22.949,42.480,34.668,71.777,43.945,0
1542736844.465,37.109,51.758,38.086,74.219,40.039,0
1542736844.469,32.715,56.152,49.316,72.754,22.949,0
1542736844.473,6.836,40.527,49.316,57.129,18.066,0
1542736844.477,5.371,28.809,48.828,55.664,40.039,0
1542736844.481,13.184,26.367,48.340,54.199,44.922,0
1542736844.485,20.508,29.297,47.363,54.688,60.547,0
1542736844.489,13.672,35.156,46.387,56.152,61.523,0
1542736844.492,2.930,35.156,31.738,47.363,67.383,0
1542736844.496,5.859,36.133,17.090,46.387,70.312,0
1542736844.500,12.695,32.227,8.789,51.270,28.809,0
1542736844.504,11.230,25.391,8.789,43.945,38.086,0
1542736844.508,1.465,25.879,7.324,32.227,64.453,0
1542736844.512,-1.953,25.391,5.371,36.621,31.250,0
1542736844.516,-2.441,23.926,10.742,38.086,-23.438,0
1542736844.520,-2.441,19.531,6.836,35.156,23.926,0
1542736844.524,-4.883,27.344,7.324,39.062,45.410,0
1542736844.528,2.441,36.621,13.672,46.387,-43.457,0
1542736844.532,9.277,36.621,14.160,43.945,-40.527,0
1542736844.535,2.441,26.855,0.488,39.551,-20.508,0
1542736844.539,3.906,29.297,-8.789,40.527,-1.465,0
1542736844.543,11.230,49.316,7.812,47.363,24.414,0
1542736844.547,14.160,59.570,20.996,56.152,-20.020,0
1542736844.551,14.648,52.734,24.902,53.711,41.016,0
1542736844.555,14.648,43.457,18.066,44.922,110.352,0
1542736844.559,14.160,44.434,11.230,53.223,54.199,0
1542736844.563,17.090,57.129,17.090,61.523,30.762,0
1542736844.567,26.855,63.965,13.184,58.594,65.430,0
1542736844.571,22.949,56.641,12.207,53.711,76.660,0
1542736844.574,18.555,49.316,23.926,54.199,63.477,0
1542736844.578,16.602,44.434,25.879,54.688,3.906,0
1542736844.582,16.602,40.527,23.438,49.805,-16.602,0
1542736844.586,21.484,45.410,30.273,49.316,34.180,0
1542736844.590,26.855,56.641,39.551,54.199,28.809,0
1542736844.594,20.996,63.477,45.898,58.594,4.395,0
1542736844.598,13.672,62.012,57.617,58.594,64.941,0
1542736844.602,11.230,51.270,54.199,55.664,65.430,0
1542736844.606,14.160,45.898,51.270,61.035,2.441,0
1542736844.610,15.625,39.062,54.199,62.012,30.762,0
1542736844.614,9.766,27.832,49.316,58.594,38.086,0
1542736844.617,9.766,30.762,50.781,56.641,19.043,0
1542736844.621,15.625,31.250,56.152,56.641,35.156,0
1542736844.625,29.297,22.949,48.828,70.801,45.410,0
1542736844.629,27.344,33.691,29.297,65.918,58.594,0
1542736844.633,13.672,42.969,17.090,48.340,41.016,0
1542736844.637,7.324,41.016,19.043,41.992,19.043,0
1542736844.641,14.160,44.922,25.879,53.223,-3.906,0
1542736844.645,20.508,62.500,24.414,53.711,42.969,0
1542736844.649,9.277,69.336,18.066,42.969,30.273,0
1542736844.653,9.766,65.430,15.625,49.316,-44.434,0
1542736844.657,3.418,51.758,1.465,38.086,-1.953,0
1542736844.660,0.488,29.297,-3.418,40.039,34.668,0
1542736844.664,12.695,31.250,6.348,57.617,-7.324,0
1542736844.668,11.230,36.133,12.695,57.129,31.738,0
1542736844.672,14.160,41.504,25.879,57.129,71.777,0
1542736844.676,25.391,56.152,33.203,61.035,13.184,0
1542736844.680,20.508,47.363,28.320,51.758,2.441,0
1542736844.684,9.277,41.504,26.367,46.875,48.340,0
1542736844.688,11.719,44.922,24.902,51.758,58.105,0
1542736844.692,20.020,43.457,25.879,58.594,37.109,0
1542736844.696,23.438,56.152,30.762,66.406,19.531,0
1542736844.699,27.832,69.336,34.668,74.219,3.906,0
1542736844.703,28.809,66.406,41.016,74.707,1.953,0
1542736844.707,21.484,62.012,47.852,62.988,64.453,0
1542736844.711,17.578,62.500,42.480,56.152,40.039,0
1542736844.715,20.020,58.594,24.414,57.129,35.156,0
1542736844.719,19.043,52.734,24.902,54.199,23.926,0
1542736844.723,12.207,44.922,28.809,51.758,-1.465,0
1542736844.727,13.672,42.480,34.180,50.781,28.809,0
1542736844.731,18.066,39.062,43.457,49.805,55.176,0
1542736844.735,14.160,37.598,30.273,49.316,85.938,0
1542736844.739,15.137,43.945,6.836,50.781,78.125,0
1542736844.742,21.484,42.969,-2.441,59.082,83.496,0
1542736844.746,17.090,37.109,-5.371,60.059,71.289,0
1542736844.750,20.996,39.551,-0.488,56.641,50.781,0
1542736844.754,41.016,39.551,20.020,72.754,24.414,0
1542736844.758,52.734,39.062,18.555,87.402,53.711,0
1542736844.762,32.227,56.152,6.348,62.988,60.547,0
1542736844.766,15.137,63.965,12.695,45.410,-11.719,0
1542736844.770,19.043,55.664,17.090,56.152,-29.297,0
1542736844.774,28.320,52.734,15.625,64.941,0.000,0
1542736844.778,30.762,58.594,18.555,63.477,23.438,0
1542736844.782,35.645,57.129,15.137,66.406,65.430,0
1542736844.785,33.691,47.852,17.578,70.801,36.621,0
1542736844.789,27.344,44.434,21.973,66.406,15.137,0
1542736844.793,34.180,43.945,24.414,66.895,47.852,0
1542736844.797,25.879,34.180,20.020,68.848,56.641,0
1542736844.801,13.672,21.484,7.324,63.965,14.648,0
1542736844.805,12.695,13.184,2.930,58.594,16.602,0
1542736844.809,16.113,12.695,-5.371,58.594,82.520,0
1542736844.813,17.090,18.555,-12.695,52.246,76.660,0
1542736844.817,20.996,17.578,-9.766,50.781,20.996,0
1542736844.821,29.297,16.602,-2.441,59.570,29.297,0
1542736844.824,38.086,24.414,0.977,61.035,47.852,0
1542736844.828,39.551,24.414,5.859,63.965,16.113,0
1542736844.832,30.762,11.230,8.301,65.430,15.137,0
1542736844.836,31.738,8.301,2.930,65.918,45.410,0
1542736844.840,29.785,13.184,3.906,63.477,84.961,0
1542736844.844,25.879,19.043,7.812,68.359,38.574,0
1542736844.848,24.414,23.926,13.672,67.383,24.902,0
1542736844.852,21.973,26.855,11.230,63.965,39.062,0
1542736844.856,23.438,36.133,8.789,68.359,30.762,0
1542736844.860,28.320,42.480,5.859,68.359,40.527,0
1542736844.864,27.832,34.668,8.789,65.918,42.969,0
1542736844.867,21.973,30.762,17.578,62.012,68.848,0
1542736844.871,20.996,24.414,18.066,56.152,67.383,0
1542736844.875,24.414,27.344,18.555,54.199,47.363,0
1542736844.879,27.344,46.875,20.020,53.223,48.828,0
1542736844.883,29.785,55.664,19.043,50.293,78.125,0
1542736844.887,25.879,39.551,7.324,43.945,69.824,0
1542736844.891,14.648,22.461,-0.977,35.645,52.246,0
1542736844.895,12.695,23.926,0.000,29.297,63.477,0
1542736844.899,14.160,36.621,-6.348,29.297,12.207,0
1542736844.903,18.555,49.316,4.883,36.133,30.273,0
1542736844.907,30.273,56.641,33.203,50.293,46.875,0
1542736844.910,20.996,45.410,22.949,44.434,-14.160,0
1542736844.914,2.930,22.949,-10.742,27.832,-3.418,0
1542736844.918,0.000,16.602,-13.672,25.391,42.969,0
1542736844.922,4.883,19.043,1.953,28.320,38.574,0
1542736844.926,8.789,31.250,10.254,33.203,37.109,0
1542736844.930,4.395,50.293,10.254,32.715,51.758,0
1542736844.934,3.906,49.316,7.812,36.621,65.918,0
1542736844.938,-7.324,45.410,8.301,27.832,56.152,0
1542736844.942,-19.531,40.039,19.043,16.602,41.992,0
1542736844.946,-12.695,39.551,34.668,24.902,19.043,0
1542736844.949,-12.207,50.781,32.715,25.391,22.949,0
1542736844.953,-6.348,53.223,25.391,27.344,58.594,0
1542736844.957,1.953,58.105,34.668,33.691,62.500,0
1542736844.961,0.488,57.129,41.992,29.785,40.527,0
1542736844.965,0.000,44.922,44.922,27.344,19.531,0
1542736844.969,-0.488,46.875,43.945,26.855,18.555,0
1542736844.973,-0.488,56.641,52.734,24.902,58.594,0
1542736844.977,0.488,55.664,58.594,25.879,69.336,0
1542736844.981,3.906,57.617,55.664,31.738,57.129,0
1542736844.985,6.348,61.523,42.969,38.086,30.273,0
1542736844.989,13.672,61.523,32.227,40.527,7.324,0
1542736844.992,21.484,58.594,35.645,47.852,-8.789,0
1542736844.996,21.484,48.828,23.926,52.246,18.066,0
1542736845.000,17.090,43.945,26.855,52.734,65.430,0
1542736845.004,12.207,39.062,33.691,46.387,6.836,0
1542736845.008,10.254,37.598,34.180,40.527,-53.223,0
1542736845.012,3.418,41.992,40.527,39.062,-36.133,0
1542736845.016,-2.441,44.434,45.898,33.691,31.250,0
1542736845.020,-12.207,55.176,49.805,23.438,30.762,0
1542736845.024,-26.855,70.312,49.805,8.301,16.113,0
1542736845.028,-44.434,83.984,60.547,-7.324,-13.184,0
1542736845.032,-59.570,96.191,64.453,-18.555,62.500,0
1542736845.035,-74.707,96.680,76.172,-40.039,119.629,0
1542736845.039,-91.797,102.539,95.215,-63.477,56.641,0
1542736845.043,-109.375,109.863,105.469,-79.590,31.250,0
1542736845.047,-126.953,117.188,116.211,-99.121,11.719,0
1542736845.051,-146.973,129.883,121.582,-114.746,28.320,0
1542736845.055,-155.762,146.973,122.070,-125.977,6.836,0
1542736845.059,-165.527,158.691,117.676,-145.020,-0.977,0
1542736845.063,-191.895,161.133,107.422,-167.969,97.656,0
1542736845.067,-208.496,164.551,95.703,-179.199,47.852,0
1542736845.071,-204.102,169.922,108.887,-177.734,7.812,0
1542736845.074,-211.426,161.621,112.793,-180.664,16.113,0
1542736845.078,-214.844,153.809,97.168,-185.059,33.203,0
1542736845.082,-202.637,156.738,88.867,-179.199,25.879,0
1542736845.086,-190.918,156.738,81.543,-169.434,10.254,0
1542736845.090,-181.152,147.461,89.355,-158.203,63.477,0
1542736845.094,-166.504,138.184,105.469,-140.625,69.336,0
1542736845.098,-145.508,123.535,110.840,-118.652,-14.160,0
1542736845.102,-120.117,105.469,91.797,-95.703,-11.719,0
1542736845.106,-99.609,84.473,69.336,-62.988,54.199,0
1542736845.110,-69.336,67.383,57.129,-32.715,17.090,0
1542736845.114,-41.504,52.246,40.527,-12.695,15.625,0
1542736845.117,-26.855,28.809,28.320,2.441,26.367,0
1542736845.121,-14.160,9.766,23.438,17.090,41.504,0
1542736845.125,0.977,-3.906,18.066,29.785,84.961,0
1542736845.129,23.438,-15.137,17.578,51.758,36.621,0
1542736845.133,33.691,-20.996,2.441,70.801,46.387,0
1542736845.137,33.691,-29.297,-8.789,74.707,79.102,0
1542736845.141,44.434,-38.574,-4.883,81.543,30.273,0
1542736845.145,60.059,-41.992,5.371,96.191,5.371,0
1542736845.149,74.707,-37.109,5.371,110.840,33.203,0
1542736845.153,89.844,-34.668,-4.883,118.652,71.289,0
1542736845.157,96.191,-44.922,1.465,124.023,72.266,0
1542736845.160,100.098,-44.434,7.812,132.324,33.691,0
1542736845.164,107.910,-43.457,-7.812,138.184,65.918,0
1542736845.168,106.445,-56.641,-30.273,132.812,90.820,0
1542736845.172,112.305,-54.688,-26.367,136.719,65.430,0
1542736845.176,120.605,-42.969,-13.672,149.414,30.762,0
1542736845.180,123.535,-35.156,-9.766,147.949,45.898,0
1542736845.184,124.023,-37.109,-5.371,146.973,88.867,0
1542736845.188,118.164,-35.645,-5.859,151.855,49.805,0
1542736845.192,114.746,-36.133,-14.160,148.438,27.344,0
1542736845.196,121.582,-41.016,-15.137,144.531,-29.297,0
1542736845.199,125.977,-40.039,-10.742,144.531,-17.578,0
1542736845.203,119.141,-35.156,-11.230,144.043,33.691,0
1542736845.207,111.328,-32.715,-20.020,139.160,33.203,0
1542736845.211,104.004,-40.039,-26.367,135.742,60.547,0
1542736845.215,100.098,-48.340,-17.090,130.859,43.945,0
1542736845.219,100.586,-47.363,-15.625,130.859,18.066,0
1542736845.223,96.680,-48.828,-23.438,135.742,13.184,0
1542736845.227,97.168,-41.504,-10.254,137.695,27.344,0
1542736845.231,100.586,-25.879,7.324,138.672,20.508,0
1542736845.235,102.051,-22.461,8.301,135.254,13.184,0
1542736845.239,103.027,-15.625,3.906,131.836,-20.996,0
1542736845.242,90.820,-16.602,-12.207,124.512,-57.617,0
1542736845.246,84.473,-21.484,-21.973,121.094,25.879,0
1542736845.250,82.031,-23.926,-16.113,118.652,39.062,0
1542736845.254,81.543,-21.484,-9.277,116.699,41.504,0
1542736845.258,82.520,-20.508,-6.836,110.840,0.000,0
1542736845.262,77.637,-22.461,-9.277,103.516,22.461,0
1542736845.266,80.566,-15.137,0.488,104.980,40.039,0
1542736845.270,79.590,-9.277,11.719,102.539,21.484,0
1542736845.274,79.590,-2.930,9.277,103.027,35.645,0
1542736845.278,84.961,10.254,10.254,111.816,21.484,0
1542736845.282,88.867,16.602,20.020,114.746,93.262,0
1542736845.285,91.797,16.602,18.555,114.258,92.773,0
1542736845.289,83.496,10.742,15.625,115.723,54.199,0
1542736845.293,71.289,2.441,17.090,114.746,31.250,0
1542736845.297,69.336,7.324,14.648,112.305,52.734,0
1542736845.301,70.312,17.090,8.301,116.699,80.078,0
1542736845.305,63.477,16.113,0.977,108.398,83.984,0
1542736845.309,62.012,17.090,4.395,105.469,43.945,0
1542736845.313,73.242,23.926,26.367,114.746,0.977,0
1542736845.317,78.613,25.879,32.715,118.164,72.754,0
1542736845.321,91.797,27.344,31.250,131.836,79.102,0
1542736845.324,81.055,22.949,52.246,118.164,47.852,0
1542736845.328,41.992,15.625,57.129,82.520,37.109,0
1542736845.332,36.133,13.672,44.922,77.637,53.223,0
1542736845.336,33.691,1.465,47.363,73.730,8.789,0
1542736845.340,19.043,-4.395,52.246,62.500,-63.477,0
1542736845.344,10.742,10.742,53.223,60.059,-3.906,0
1542736845.348,5.859,16.602,48.340,54.688,16.113,0
1542736845.352,17.578,23.438,34.180,57.129,-17.090,0
1542736845.356,31.250,25.879,34.180,73.242,45.410,0
1542736845.360,27.344,13.672,29.297,74.219,82.031,0
1542736845.364,32.715,13.184,4.395,73.730,49.316,0
1542736845.367,36.133,21.484,-16.113,74.219,24.902,0
1542736845.371,34.668,17.090,-18.555,78.613,-28.320,0
1542736845.375,30.273,17.578,-9.766,78.125,-25.879,0
1542736845.379,25.391,21.484,-5.371,74.219,84.473,0
1542736845.383,31.250,18.066,-8.789,77.148,33.691,0
1542736845.387,35.156,27.832,-9.766,76.172,-40.527,0
1542736845.391,39.062,27.344,-10.742,74.219,42.969,0
1542736845.395,44.922,18.066,-20.996,70.312,78.125,0
