timestamps,TP9,AF7,AF8,TP10,Right AUX,Marker0
12919.268,43.457,145.996,10.742,48.340,104.004,0
12919.272,34.180,356.445,26.855,15.137,27.832,0
12919.276,22.949,-207.520,26.367,20.508,13.184,0
12919.280,38.574,-366.211,24.414,34.668,89.355,0
12919.284,37.598,101.074,22.461,19.531,61.523,0
12919.287,28.320,293.457,25.879,26.855,51.758,0
12919.291,24.414,-92.285,28.320,37.598,92.773,0
12919.295,29.785,-520.020,29.785,23.438,63.965,0
12919.299,34.180,-51.270,35.645,20.508,12.207,0
12919.303,50.781,253.418,41.504,44.922,28.809,0
12919.307,66.895,-138.672,41.016,61.523,64.941,0
12919.311,53.223,-462.402,41.016,59.082,50.293,0
12919.315,38.574,-245.117,39.551,56.152,-2.930,0
12919.319,39.062,309.570,33.691,43.945,-28.809,0
12919.323,39.551,208.984,41.992,33.691,6.836,0
12919.327,32.715,-401.367,46.387,36.621,-7.324,0
12919.330,32.715,-315.430,41.504,45.410,56.152,0
12919.334,38.574,242.188,45.898,52.246,105.469,0
12919.338,31.250,323.730,39.062,29.785,72.266,0
12919.342,37.109,-329.590,33.203,35.645,-17.578,0
12919.346,40.527,-744.141,35.156,24.902,-22.949,0
12919.350,38.086,5.859,31.738,14.648,16.113,0
12919.354,56.152,461.426,37.109,38.086,25.391,0
12919.358,55.176,109.375,46.875,30.762,52.734,0
12919.362,44.922,-460.938,46.875,41.504,58.105,0
12919.366,34.668,-187.012,32.715,40.039,47.852,0
12919.369,32.715,420.410,34.180,27.344,6.348,0
12919.373,23.926,219.238,39.551,33.691,-0.977,0
12919.377,15.625,-338.867,34.180,22.949,19.531,0
12919.381,3.906,-326.172,38.574,-8.789,6.348,0
12919.385,6.836,100.586,32.715,-3.906,45.410,0
12919.389,21.484,209.473,28.809,23.438,20.996,0
12919.393,17.578,-240.723,20.996,28.320,-30.273,0
12919.397,28.809,-266.602,22.949,26.367,52.246,0
12919.401,41.016,293.457,40.039,30.273,60.059,0
12919.405,30.762,392.578,36.133,44.434,22.949,0
12919.409,12.695,-3.906,25.879,30.762,59.082,0
12919.412,7.324,-375.977,17.090,3.418,23.926,0
12919.416,13.184,90.332,19.043,10.254,-8.789,0
12919.420,17.578,448.730,21.973,8.301,0.000,0
12919.424,7.812,27.832,24.902,7.324,12.207,0
12919.428,2.930,-515.137,24.902,17.090,16.113,0
12919.432,12.207,-238.770,26.367,13.184,4.883,0
12919.436,26.855,416.504,34.668,-1.953,46.875,0
12919.440,33.203,383.301,34.668,9.277,84.961,0
12919.444,18.066,-489.746,30.762,7.812,31.738,0
12919.448,4.883,-459.961,23.438,-8.301,72.266,0
12919.452,15.625,408.691,21.484,11.719,77.637,0
12919.455,37.598,398.926,30.273,34.180,-2.930,0
12919.459,30.273,-182.129,38.086,30.273,-2.930,0
12919.463,27.344,-382.324,36.133,28.809,43.945,0
12919.467,33.691,190.430,35.645,39.551,39.551,0
12919.471,22.949,483.398,25.391,22.949,38.086,0
12919.475,20.020,-100.586,19.531,-6.836,37.109,0
12919.479,7.324,-502.441,20.508,-10.742,40.039,0
12919.483,20.020,-172.852,22.461,12.695,11.230,0
12919.487,41.992,111.816,25.879,24.414,-23.926,0
12919.491,36.621,39.551,30.273,34.668,-17.578,0
12919.494,43.457,-458.984,39.062,48.828,-38.086,0
12919.498,46.387,-166.016,29.297,42.480,6.836,0
12919.502,30.762,334.961,22.949,38.574,10.254,0
12919.506,26.855,169.434,34.180,40.527,4.395,0
12919.510,26.367,-348.633,37.109,26.855,-20.020,0
12919.514,27.344,-330.078,35.156,15.625,-15.625,0
12919.518,39.551,328.125,30.273,17.090,21.484,0
12919.522,44.922,289.551,34.668,28.320,42.480,0
12919.526,51.270,-331.543,41.504,25.879,67.871,0
12919.530,39.551,-437.012,30.273,17.090,26.855,0
12919.534,40.527,130.859,38.086,19.043,3.418,0
12919.537,47.852,426.270,46.387,21.973,-10.742,0
12919.541,25.391,-113.770,31.250,17.090,-10.254,0
12919.545,14.160,-672.852,22.949,7.324,6.348,0
12919.549,20.020,-161.133,17.090,6.836,-48.828,0
12919.553,25.391,436.035,23.438,6.836,-4.395,0
12919.557,23.438,183.594,36.133,3.906,5.371,0
12919.561,15.625,-449.707,41.992,-3.418,-23.438,0
12919.565,13.184,-273.926,40.527,-4.883,21.484,0
12919.569,31.738,368.164,19.043,0.488,77.637,0
12919.573,35.156,215.820,16.602,3.418,34.180,0
12919.577,33.691,-390.625,40.039,29.785,-17.578,0
12919.580,27.832,-286.621,37.109,25.391,42.480,0
12919.584,23.438,130.371,24.414,-6.836,74.219,0
12919.588,24.414,280.762,27.344,-0.977,96.191,0
12919.592,19.043,-46.387,34.180,9.766,40.039,0
12919.596,28.809,-387.207,39.062,15.625,11.230,0
12919.600,32.227,91.309,39.062,26.855,31.250,0
12919.604,14.160,430.176,40.039,26.367,55.176,0
12919.608,15.137,101.562,36.133,6.348,43.945,0
12919.612,40.527,-408.203,34.180,-14.160,-2.930,0
12919.616,50.293,-184.082,34.668,6.348,-14.160,1
12919.619,52.734,409.180,33.203,27.832,29.785,0
12919.623,52.246,146.973,26.855,20.508,81.543,0
12919.627,63.965,-558.594,33.203,16.602,49.316,0
12919.631,73.730,-226.074,45.898,36.133,2.930,0
12919.635,65.430,412.109,30.762,40.039,-11.230,0
12919.639,59.082,442.871,22.461,22.461,20.996,0
12919.643,49.316,-186.035,29.785,36.621,19.043,0
12919.647,49.805,-318.848,33.203,28.320,33.691,0
12919.651,74.707,279.297,30.273,32.715,-19.531,0
12919.655,58.594,462.402,41.992,8.789,-39.551,0
12919.659,32.715,-23.926,45.898,-11.719,8.301,0
12919.662,39.551,-480.957,31.250,33.691,49.316,0
12919.666,41.992,-36.133,30.273,28.809,36.621,0
12919.670,46.875,481.934,34.180,16.113,-0.977,0
12919.674,43.945,279.297,35.645,23.438,96.680,0
12919.678,33.203,-220.215,41.504,19.043,102.539,0
12919.682,36.133,-78.125,54.688,26.855,48.340,0
12919.686,40.527,257.812,48.828,28.320,19.531,0
12919.690,34.668,230.957,42.480,31.738,-17.578,0
12919.694,17.578,-217.773,43.945,22.949,14.648,0
12919.698,14.648,-173.340,31.250,9.766,4.395,0
12919.702,24.414,365.723,30.762,26.367,-20.508,0
12919.705,27.832,395.996,31.250,26.855,-7.812,0
12919.709,40.527,-157.715,35.645,13.184,20.020,0
12919.713,53.223,-395.508,37.109,11.230,16.602,0
12919.717,71.777,208.008,28.809,16.602,-1.465,0
12919.721,97.168,491.211,33.203,8.789,4.395,0
12919.725,92.773,-100.586,42.969,-15.625,50.293,0
12919.729,83.496,-455.078,50.781,-21.973,65.918,0
12919.733,85.449,128.906,51.270,-2.441,3.418,0
12919.737,66.895,631.836,41.016,16.113,41.992,0
12919.741,39.551,276.367,33.691,21.973,6.836,0
12919.744,23.926,-349.609,30.762,17.090,9.277,0
12919.748,25.391,12.695,24.902,16.113,86.426,0
12919.752,25.879,590.332,24.414,30.762,51.758,0
12919.756,28.809,302.734,39.062,45.898,-40.527,0
12919.760,11.230,-334.473,41.016,37.598,-32.227,0
12919.764,-18.555,-438.965,30.762,19.531,34.668,0
12919.768,5.859,206.055,27.832,6.348,42.969,0
12919.772,14.160,624.023,26.367,9.766,92.285,0
12919.776,-0.977,17.578,24.902,19.043,58.594,0
12919.780,-0.977,-284.180,29.297,14.160,15.625,0
12919.784,14.160,295.898,25.391,12.207,43.945,0
12919.787,27.832,625.977,28.320,19.531,53.711,0
12919.791,21.973,199.707,35.645,18.066,12.695,0
12919.795,6.836,-301.758,32.227,15.625,2.441,0
12919.799,19.043,111.328,32.227,30.273,-10.254,0
12919.803,34.180,390.137,37.598,49.316,-30.273,0
12919.807,20.996,131.348,34.668,37.598,32.715,0
12919.811,24.902,-239.258,39.062,15.625,30.273,0
12919.815,21.973,-93.262,45.898,11.719,-19.043,0
12919.819,17.090,575.684,54.688,20.508,17.090,0
12919.823,8.789,426.270,52.246,19.043,39.551,0
12919.827,7.324,-232.422,44.434,10.742,27.344,0
12919.830,28.320,-181.641,40.039,2.930,21.973,0
12919.834,45.898,406.250,36.133,-5.371,51.758,0
12919.838,48.828,578.125,39.062,2.441,31.738,0
12919.842,52.734,-19.531,42.969,23.926,-26.367,0
12919.846,48.340,-388.184,45.898,33.203,-19.531,0
12919.850,32.715,179.199,42.969,15.625,46.875,0
12919.854,48.340,497.559,47.852,15.625,47.363,0
12919.858,63.477,199.219,62.988,48.340,11.719,0
12919.862,53.223,-339.844,54.199,47.852,29.785,0
12919.866,41.504,-186.035,34.668,21.973,72.754,0
12919.869,30.762,482.910,30.762,26.367,69.824,0
12919.873,32.227,360.840,33.691,42.969,-6.836,0
12919.877,29.297,-237.793,32.227,37.598,-12.695,0
12919.881,33.691,-133.301,30.762,28.320,36.621,0
12919.885,38.086,402.832,28.809,30.762,14.648,0
12919.889,49.316,476.074,25.879,43.945,-6.836,0
12919.893,47.363,-152.832,43.945,48.340,-14.160,0
12919.897,29.297,-413.086,56.152,20.996,-32.227,0
12919.901,24.414,249.023,48.340,9.766,48.340,0
12919.905,12.207,346.680,41.504,23.438,81.055,0
12919.909,17.578,-121.094,44.922,25.391,24.902,0
12919.912,39.551,-274.902,51.758,18.066,44.922,0
12919.916,33.691,215.820,45.410,12.695,42.480,0
12919.920,18.555,633.789,37.598,22.461,42.480,0
12919.924,27.832,206.055,29.785,11.230,28.320,0
12919.928,34.668,-386.719,26.367,8.789,-14.648,0
12919.932,33.203,-64.453,24.902,17.578,-30.273,0
12919.936,48.340,535.156,22.949,12.695,-16.113,0
12919.940,52.734,418.945,31.250,28.809,8.301,0
12919.944,41.016,-323.730,45.410,40.527,5.371,0
12919.948,49.805,-274.414,46.875,35.156,46.875,0
12919.952,62.500,447.754,50.293,34.180,66.406,0
12919.955,55.176,498.535,55.664,35.645,28.809,0
12919.959,45.898,1.953,59.082,41.992,15.137,0
12919.963,37.109,-407.227,59.082,36.133,33.691,0
12919.967,41.016,37.109,47.363,17.578,0.977,0
12919.971,34.668,577.148,35.156,20.996,34.180,0
12919.975,19.043,173.828,36.133,19.043,54.199,0
12919.979,16.113,-313.477,30.273,8.301,19.043,0
12919.983,19.043,63.477,24.414,13.184,15.625,0
12919.987,27.344,552.246,36.133,8.789,47.852,0
12919.991,19.043,211.426,49.805,9.277,22.949,0
12919.994,7.812,-470.703,57.129,20.020,-11.719,0
12919.998,0.000,-83.008,41.016,5.371,34.668,0
12920.002,4.883,441.406,36.621,-3.906,27.832,0
12920.006,21.973,167.480,41.504,-1.953,21.484,0
12920.010,28.809,-312.988,36.621,6.348,18.555,0
12920.014,32.715,-281.738,42.969,12.695,-29.785,0
12920.018,40.039,464.844,37.109,-1.465,39.551,0
12920.022,33.203,569.824,25.879,0.488,84.473,0
12920.026,26.367,-49.316,33.203,19.531,49.316,0
12920.030,28.320,-326.172,44.434,18.555,-17.578,0
12920.034,36.133,205.566,55.176,24.414,-32.227,0
12920.037,32.227,514.160,42.969,34.668,24.414,0
12920.041,28.809,-24.414,42.969,41.992,-11.230,0
12920.045,35.156,-636.230,51.270,31.250,9.277,0
12920.049,47.363,-86.914,51.270,31.738,50.293,0
12920.053,44.922,567.871,41.992,35.156,4.883,0
12920.057,28.320,344.238,33.691,19.043,15.625,0
12920.061,12.207,-268.066,45.898,19.531,42.969,0
12920.065,23.438,-183.105,46.875,23.926,26.855,0
12920.069,38.574,449.219,31.738,25.879,41.992,0
12920.073,25.391,446.777,27.344,20.020,48.340,0
12920.077,13.672,-100.098,34.668,10.254,43.457,0
12920.080,7.324,-186.035,38.574,13.184,78.125,0
12920.084,20.020,325.195,35.645,25.391,117.188,0
12920.088,30.273,461.914,33.691,26.367,40.527,0
12920.092,29.297,-26.855,47.852,28.320,-40.527,0
12920.096,39.551,-432.129,49.805,33.203,-71.289,0
12920.100,45.898,164.551,39.062,34.180,-13.672,0
12920.104,41.992,412.598,42.480,41.016,62.500,0
12920.108,43.457,-48.340,46.875,38.574,15.137,0
12920.112,41.016,-406.738,46.387,48.340,-36.621,0
12920.116,48.340,-47.852,46.875,56.152,-9.277,0
12920.119,48.340,538.574,38.574,42.969,30.273,0
12920.123,37.598,329.102,24.414,31.738,51.270,0
12920.127,27.344,-351.562,20.020,18.066,35.645,0
12920.131,27.344,-301.270,24.902,21.973,28.809,0
12920.135,35.645,324.707,30.273,34.180,55.176,0
12920.139,24.902,418.457,29.297,20.996,65.918,0
12920.143,21.484,-279.297,37.109,16.113,45.898,0
12920.147,25.879,-549.316,42.480,26.855,48.828,2
12920.151,27.344,238.281,38.086,37.598,17.090,0
12920.155,37.598,524.414,42.480,29.785,-17.090,0
12920.159,49.805,102.051,44.922,45.410,44.434,0
12920.162,42.480,-407.227,49.805,61.523,12.695,0
12920.166,35.645,37.109,40.527,42.480,14.648,0
12920.170,38.086,589.844,30.273,26.855,53.223,0
12920.174,33.203,204.590,26.855,27.344,4.883,0
12920.178,26.855,-430.176,25.879,26.367,5.371,0
12920.182,34.668,-246.094,37.598,20.508,50.781,0
12920.186,46.875,213.379,42.480,23.438,41.016,0
12920.190,39.551,291.504,32.227,16.113,56.152,0
12920.194,24.414,-139.160,31.738,10.742,91.309,0
12920.198,35.645,-126.465,40.039,15.625,83.984,0
12920.202,41.504,415.039,31.250,19.043,67.383,0
12920.205,36.621,359.863,25.879,20.020,-28.320,0
12920.209,47.852,-128.906,42.480,37.109,-41.992,0
12920.213,47.363,-327.148,51.270,32.227,8.301,0
12920.217,41.016,199.707,28.320,12.207,-36.133,0
12920.221,38.086,433.594,15.137,15.625,-60.547,0
12920.225,34.180,-60.547,28.809,26.855,13.672,0
12920.229,29.785,-472.168,35.156,32.715,83.984,0
12920.233,27.832,15.137,35.156,15.625,53.711,0
12920.237,40.039,574.707,37.109,16.602,58.594,0
12920.241,36.133,283.203,40.527,28.320,38.086,0
12920.244,27.832,-601.074,46.387,23.438,-10.254,0
12920.248,44.434,-415.527,47.363,31.250,-18.555,0
12920.252,46.875,425.293,34.180,37.109,-22.949,0
12920.256,38.574,405.762,24.414,25.879,12.695,0
12920.260,46.875,-170.898,41.016,27.832,57.129,0
12920.264,43.945,-340.332,52.734,29.785,4.883,0
12920.268,26.367,291.504,32.227,14.160,-5.859,0
12920.272,19.531,426.270,13.184,9.766,23.926,0
12920.276,23.438,-147.461,23.926,17.090,47.363,0
12920.280,33.203,-410.156,42.480,12.695,12.695,0
12920.284,28.809,60.547,37.109,8.789,-29.785,0
12920.287,21.973,434.082,31.250,18.066,-10.742,0
12920.291,24.414,121.582,39.062,25.391,6.836,0
12920.295,28.320,-405.273,41.992,34.180,8.301,0
12920.299,41.992,17.578,32.715,38.086,20.508,0
12920.303,43.945,357.422,26.367,32.227,25.879,0
12920.307,41.992,-0.488,40.039,26.855,37.598,0
12920.311,48.828,-341.309,54.688,37.598,50.293,0
12920.315,37.598,-166.016,35.156,22.461,32.227,0
12920.319,30.762,394.531,21.484,7.812,56.641,0
12920.323,29.297,162.109,30.762,19.043,-5.371,0
12920.327,21.973,-456.543,35.156,23.438,-26.855,0
12920.330,22.949,-319.336,34.180,21.484,26.855,0
12920.334,28.809,337.891,30.273,16.113,46.387,0
12920.338,38.574,544.434,31.250,24.902,26.367,0
12920.342,30.273,-98.145,36.621,28.809,1.953,0
12920.346,6.836,-591.797,36.133,15.137,-21.973,0
12920.350,3.906,42.480,28.320,5.859,-14.648,0
12920.354,15.625,562.500,27.344,-1.953,61.523,0
12920.358,31.738,221.191,34.180,-3.906,56.152,0
12920.362,40.527,-443.848,27.832,-8.301,20.020,0
12920.366,49.805,-276.855,22.461,-17.090,-11.719,0
12920.369,62.012,338.379,29.785,-23.438,13.672,0
12920.373,57.617,266.602,36.621,-13.672,68.848,0
12920.377,52.734,-250.000,43.457,16.602,62.500,0
12920.381,37.598,-225.098,44.434,27.832,39.551,0
12920.385,40.039,163.086,60.547,41.504,42.969,0
12920.389,38.574,312.012,67.383,50.781,59.570,0
12920.393,5.859,-97.656,44.922,37.109,36.133,0
12920.397,7.812,-303.711,29.297,29.297,30.762,0
12920.401,20.020,266.602,13.672,31.738,52.246,0
12920.405,9.766,448.242,15.137,28.320,30.273,0
12920.409,9.766,21.973,32.715,30.273,12.695,0
12920.412,18.066,-454.590,46.387,38.574,46.387,0
12920.416,21.484,23.438,40.527,31.250,97.656,0
12920.420,21.973,511.719,38.574,39.551,44.922,0
12920.424,21.484,-62.500,51.758,41.016,-4.395,0
12920.428,19.043,-586.914,52.246,33.691,36.133,0
12920.432,17.090,-93.262,52.734,30.273,32.227,0
12920.436,16.602,495.117,61.035,20.996,11.719,0
12920.440,3.418,388.184,53.223,19.531,18.555,0
12920.444,-0.977,-251.465,48.340,22.461,42.480,0
12920.448,2.441,-249.023,44.434,14.648,48.340,0
12920.452,18.555,379.883,50.293,26.855,5.859,0
12920.455,35.645,484.863,61.523,50.781,20.996,0
12920.459,24.902,-113.281,49.316,44.434,41.504,0
12920.463,20.508,-562.500,34.668,30.273,64.941,0
12920.467,28.809,-14.160,25.879,28.809,80.566,0
12920.471,47.852,527.344,30.273,52.734,55.176,0
12920.475,58.105,167.480,39.062,63.477,56.152,0
12920.479,54.688,-413.086,41.016,41.016,24.414,0
12920.483,51.758,-129.883,35.156,27.832,-5.859,0
12920.487,43.945,517.090,22.461,22.461,66.406,0
12920.491,39.551,342.773,33.691,24.902,80.566,0
12920.494,28.320,-342.773,44.434,27.832,4.395,0
12920.498,31.250,-163.574,39.551,21.484,-5.371,0
12920.502,39.551,363.770,37.109,18.066,-14.648,0
12920.506,34.668,208.496,36.133,20.996,-27.344,0
12920.510,37.598,-362.793,46.875,26.855,4.395,0
12920.514,30.273,-382.812,46.875,20.020,37.109,0
12920.518,12.207,326.172,21.484,3.418,20.508,0
12920.522,7.324,416.504,10.254,-0.488,20.996,0
12920.526,9.277,-193.359,16.113,9.766,10.742,0
12920.530,12.695,-403.809,25.879,11.719,10.742,0
12920.534,14.160,167.969,35.156,7.812,38.086,0
12920.537,11.230,448.242,44.922,8.789,-14.160,0
12920.541,18.555,-10.254,48.828,16.113,19.043,0
12920.545,20.020,-625.000,43.945,14.648,32.227,0
12920.549,26.367,-154.297,42.480,16.602,31.250,0
12920.553,42.480,386.719,42.969,26.367,14.160,0
12920.557,40.039,136.719,38.086,20.020,10.742,0
12920.561,41.504,-411.133,56.152,29.785,1.465,0
12920.565,39.062,-520.508,54.199,17.090,-28.809,0
12920.569,27.832,171.387,20.996,-7.324,-6.348,0
12920.573,27.344,418.457,19.531,5.859,14.160,0
12920.577,24.902,-158.203,19.531,13.184,26.855,0
12920.580,32.227,-356.934,19.043,20.996,-7.324,0
12920.584,50.781,185.059,41.992,31.250,-13.184,0
12920.588,57.129,485.352,50.293,34.180,35.645,0
12920.592,40.527,12.695,40.039,42.969,14.160,0
12920.596,30.273,-470.215,44.922,39.062,-6.348,0
12920.600,39.551,-19.531,44.922,27.832,28.320,0
12920.604,39.551,268.555,34.180,37.598,64.941,0
12920.608,35.645,-104.980,32.227,41.504,29.785,0
12920.612,35.156,-431.641,29.785,32.715,-6.348,0
12920.616,36.621,-145.996,23.926,27.344,-39.062,0
12920.619,42.480,458.008,23.926,33.691,-8.789,0
12920.623,43.945,337.891,32.715,36.133,66.406,0
12920.627,37.598,-308.594,41.016,32.715,34.180,0
12920.631,41.992,-261.230,37.109,34.668,-4.395,0
12920.635,43.457,337.402,30.273,33.691,-18.555,0
12920.639,30.762,438.477,37.598,25.391,3.418,0
12920.643,27.832,-201.660,40.527,23.438,-0.977,0
12920.647,32.715,-458.008,44.922,38.086,64.941,0
12920.651,32.227,155.273,39.062,32.715,85.938,0
12920.655,31.250,400.391,30.762,23.926,44.922,0
12920.659,33.203,41.016,33.691,37.109,78.125,0
12920.662,24.902,-484.375,38.574,32.715,60.547,0
12920.666,24.902,-265.137,32.227,19.043,4.883,0
12920.670,37.598,401.367,29.297,29.297,12.695,0
12920.674,40.527,266.602,34.668,48.828,74.219,0
12920.678,30.762,-367.676,30.273,41.992,16.113,0
12920.682,32.715,-218.750,29.785,25.879,2.930,0
12920.686,35.156,357.422,30.273,26.855,12.695,0
12920.690,26.367,370.117,30.273,22.461,29.297,2
12920.694,20.020,-299.805,42.969,20.508,88.379,0
12920.698,11.230,-395.020,33.203,16.602,44.922,0
12920.702,8.789,257.324,19.043,9.766,14.160,0
12920.705,11.230,195.312,30.273,7.812,19.531,0
12920.709,15.137,-220.703,31.250,14.648,30.273,0
12920.713,16.602,-383.301,24.902,17.578,41.016,0
12920.717,25.391,116.699,23.926,31.250,28.320,0
12920.721,41.016,436.523,24.414,52.246,-27.344,0
12920.725,41.016,-9.766,36.133,49.316,-14.160,0
12920.729,30.273,-411.133,44.434,41.016,21.484,0
12920.733,20.996,14.160,29.785,46.387,38.086,0
12920.737,25.391,518.555,26.855,46.875,37.109,0
12920.741,24.414,203.125,34.668,35.156,39.551,0
12920.744,24.902,-618.164,38.086,34.180,37.109,0
12920.748,29.297,-384.766,39.062,18.555,46.387,0
12920.752,32.227,476.562,37.109,12.695,67.383,0
12920.756,43.457,462.891,37.109,30.762,66.895,0
12920.760,53.223,-160.645,43.945,46.875,50.781,0
12920.764,59.082,-370.117,55.664,49.805,-2.930,0
12920.768,61.523,247.070,48.340,44.922,-19.531,0
12920.772,41.504,403.320,25.879,35.645,10.254,0
12920.776,28.320,-140.137,31.250,36.621,21.484,0
12920.780,27.344,-408.691,41.504,41.992,3.418,0
12920.784,23.926,109.375,38.086,38.574,41.016,0
12920.787,17.090,428.223,35.156,35.156,51.270,0
12920.791,22.949,19.043,20.508,35.156,33.691,0
12920.795,28.809,-496.094,22.461,34.180,21.973,0
12920.799,32.715,-93.750,38.574,34.180,-41.992,0
12920.803,41.992,348.145,41.016,36.621,-2.441,0
12920.807,35.645,40.527,42.480,32.715,28.320,0
12920.811,33.691,-349.609,44.434,37.109,20.996,0
12920.815,31.738,-186.035,37.598,28.809,21.973,0
12920.819,39.551,433.594,34.180,32.227,15.625,0
12920.823,52.734,412.598,42.969,49.805,30.273,0
12920.827,41.504,-143.066,35.645,36.133,66.406,0
12920.830,36.133,-320.312,29.785,31.738,37.598,0
12920.834,48.828,133.301,21.973,34.668,7.812,0
12920.838,46.875,413.086,14.160,28.320,36.133,0
12920.842,31.250,-136.230,29.785,27.832,25.391,0
12920.846,32.227,-671.387,38.086,26.367,17.090,0
12920.850,42.480,-32.715,34.180,19.531,-0.977,0
12920.854,41.504,530.762,38.086,18.066,0.000,0
12920.858,41.992,230.469,47.852,27.832,21.973,0
12920.862,39.551,-391.113,49.316,31.250,25.879,0
12920.866,24.414,-191.406,45.898,18.066,0.488,0
12920.869,19.043,422.363,38.574,12.207,-41.992,0
12920.873,20.508,382.324,33.691,24.902,42.969,0
12920.877,25.391,-176.270,37.109,27.344,88.379,0
12920.881,45.410,-272.949,54.199,34.668,84.961,0
12920.885,52.734,150.879,56.152,34.180,88.867,0
12920.889,32.227,262.207,23.438,15.625,27.344,0
12920.893,17.578,-182.617,21.973,15.137,4.883,0
12920.897,21.973,-357.910,32.715,17.090,4.395,0
12920.901,23.926,211.426,30.762,16.113,-2.930,0
12920.905,24.902,462.891,31.738,20.508,19.043,0
12920.909,28.320,54.688,39.062,26.367,11.230,0
12920.912,27.344,-406.250,41.016,27.344,-15.137,0
12920.916,30.273,33.691,34.180,16.113,2.930,0
12920.920,32.715,551.270,34.180,7.812,46.875,0
12920.924,22.949,268.066,45.410,5.371,102.051,0
12920.928,22.949,-463.867,43.945,12.207,33.203,0
12920.932,26.855,-290.527,35.156,11.719,-1.953,0
12920.936,20.508,384.277,22.949,10.254,-23.438,0
12920.940,21.484,371.094,6.836,17.090,-41.016,0
12920.944,34.180,-392.090,28.320,37.109,25.391,0
12920.948,37.598,-591.797,47.363,41.992,-6.836,0
12920.952,32.227,226.074,34.180,23.438,-12.695,0
12920.955,20.020,481.934,30.762,19.043,40.039,0
12920.959,8.301,-35.645,31.738,16.113,17.090,0
12920.963,10.254,-382.812,30.762,13.672,41.504,0
12920.967,17.090,154.785,25.879,11.230,44.922,0
12920.971,25.879,517.578,25.879,21.973,1.953,0
12920.975,25.879,-1.465,35.156,24.902,0.977,0
12920.979,23.926,-510.254,27.344,10.742,-6.348,0
12920.983,28.809,-229.492,22.949,-8.789,-16.602,0
12920.987,42.969,258.789,38.574,-31.738,62.988,0
12920.991,58.105,275.391,48.828,-24.902,80.078,0
12920.994,49.316,-277.344,38.086,-17.090,33.203,0
12920.998,44.922,-177.734,39.062,-3.906,-4.395,0
12921.002,40.527,342.773,53.223,27.344,-42.969,0
12921.006,10.742,367.676,42.480,28.320,23.438,0
12921.010,0.000,-237.305,29.297,30.273,4.883,0
12921.014,6.836,-382.812,26.855,41.504,-26.367,0
12921.018,15.137,363.281,33.203,51.758,47.363,0
12921.022,32.227,418.945,43.945,56.641,51.758,0
12921.026,32.715,-327.637,46.387,58.105,5.859,0
12921.030,19.043,-531.250,38.086,42.969,-5.371,0
12921.034,12.695,130.859,36.621,27.832,3.418,0
12921.037,13.672,527.344,31.738,27.344,-13.184,0
12921.041,17.578,104.004,28.809,30.762,-21.484,0
12921.045,18.555,-445.312,45.410,37.109,29.785,0
12921.049,27.832,-21.484,56.152,32.227,64.941,0
12921.053,34.180,560.059,52.246,32.227,68.359,0
12921.057,21.973,384.277,38.086,28.809,54.199,0
12921.061,13.184,-280.273,33.203,25.879,35.645,0
12921.065,8.789,-321.777,37.109,25.391,-12.695,0
12921.069,12.695,276.367,46.875,26.855,-23.438,0
12921.073,12.207,321.777,47.852,28.320,26.855,0
12921.077,7.324,-262.207,39.062,24.414,21.484,0
12921.080,11.230,-347.656,30.273,18.066,25.391,0
12921.084,19.043,41.016,37.109,7.812,14.648,0
12921.088,25.391,223.145,50.293,14.160,-20.996,0
12921.092,29.785,32.715,49.805,20.020,1.465,0
12921.096,21.484,-379.883,41.992,15.137,3.906,0
12921.100,28.320,44.922,40.039,19.043,-20.020,0
12921.104,36.621,447.266,41.992,26.367,-8.301,0
12921.108,20.996,153.809,27.832,21.973,-1.953,0
12921.112,26.367,-368.652,34.180,31.250,-0.977,0
12921.116,41.016,-198.730,40.527,37.598,42.480,0
12921.119,35.156,422.852,26.855,24.902,53.711,0
12921.123,24.902,186.035,31.738,17.090,20.020,0
12921.127,20.020,-543.945,30.762,10.742,21.484,0
12921.131,20.508,-349.609,19.043,10.742,-27.344,0
12921.135,30.273,384.277,16.602,30.762,14.160,0
12921.139,44.922,545.898,31.738,45.410,69.824,0
12921.143,38.086,-131.836,42.969,33.203,47.363,0
12921.147,29.297,-419.434,46.875,14.648,54.199,0
12921.151,48.828,233.398,53.223,20.996,44.434,0
12921.155,62.988,525.391,48.340,38.086,29.785,0
12921.159,50.293,119.629,38.086,38.086,33.691,0
12921.162,40.039,-606.445,33.691,31.738,-20.020,0
12921.166,39.551,-266.113,30.762,20.996,39.062,0
12921.170,51.758,496.094,36.133,28.320,63.965,0
12921.174,62.500,281.738,51.270,46.387,44.922,0
12921.178,53.711,-250.488,41.992,40.039,98.633,0
12921.182,44.922,-203.125,17.578,33.691,52.246,0
12921.186,50.781,308.105,30.273,33.691,43.945,0
12921.190,54.688,395.508,49.805,32.227,69.824,0
12921.194,59.082,-223.633,47.363,46.875,51.758,0
12921.198,56.152,-306.152,32.715,39.062,15.625,0
12921.202,50.781,294.922,27.832,30.273,35.645,0
12921.205,44.434,401.367,37.598,25.879,33.203,0
12921.209,53.223,-172.363,40.527,25.391,-17.090,0
12921.213,51.270,-570.312,40.527,25.391,-25.391,0
12921.217,47.363,60.547,37.598,22.461,-17.578,0
12921.221,41.504,486.328,39.062,30.762,-7.812,0
12921.225,23.438,-170.898,31.250,23.926,-21.973,0
12921.229,35.156,-638.672,30.762,31.250,-19.531,0
12921.233,42.969,-64.941,45.410,38.086,-15.625,0
12921.237,35.645,468.262,42.480,23.438,-24.902,0
12921.241,33.203,289.551,38.086,17.090,22.461,0
12921.244,22.461,-443.848,41.016,28.320,1.953,0
12921.248,23.926,-299.805,40.039,36.621,-10.742,0
12921.252,33.691,476.074,33.691,39.062,66.406,1
12921.256,27.832,371.094,37.598,46.387,70.801,0
12921.260,32.227,-275.391,44.922,46.875,3.418,0
12921.264,51.758,-609.375,54.688,50.293,-51.270,0
12921.268,55.176,-19.531,46.387,40.527,-12.207,0
12921.272,43.945,442.871,29.785,33.691,-28.809,0
12921.276,37.598,-82.520,33.691,34.180,-90.332,0
12921.280,31.738,-401.367,33.203,27.832,-4.883,0
12921.284,28.809,32.227,35.156,16.602,-5.371,0
12921.287,22.949,491.699,39.062,9.277,27.344,0
12921.291,28.320,222.168,44.922,23.926,58.105,0
12921.295,47.852,-384.277,55.664,39.062,9.277,0
12921.299,41.992,-76.172,41.016,36.621,22.949,0
12921.303,26.367,365.723,23.926,26.855,11.230,0
12921.307,18.066,100.586,35.156,16.602,-22.949,0
12921.311,28.320,-441.895,46.875,28.809,-10.254,0
12921.315,33.203,-306.152,33.691,35.645,13.672,0
12921.319,27.344,456.543,19.531,31.250,53.711,0
12921.323,30.762,375.977,21.973,45.410,54.199,0
12921.327,35.156,-339.844,38.574,46.387,48.340,0
12921.330,35.645,-399.902,43.457,39.551,8.789,0
12921.334,32.227,221.191,26.855,41.992,-10.742,0
12921.338,36.133,554.199,24.414,43.945,51.758,0
12921.342,38.574,40.039,27.344,42.969,61.523,0
12921.346,47.363,-445.801,43.457,62.988,46.387,0
12921.350,52.246,-32.227,52.734,69.824,39.551,0
12921.354,33.691,408.203,29.297,32.227,41.016,0
12921.358,19.531,247.559,26.855,19.043,57.129,0
12921.362,25.879,-446.777,37.598,38.086,30.273,0
12921.366,34.668,-460.449,44.922,34.668,-0.488,0
12921.369,25.391,312.500,51.758,28.320,23.438,0
12921.373,19.043,401.855,39.551,27.832,43.457,0
12921.377,30.762,-199.707,44.434,32.715,48.340,0
12921.381,39.062,-288.086,53.711,32.715,33.691,0
12921.385,37.109,252.930,34.668,22.949,7.324,0
12921.389,36.133,465.820,21.973,19.531,17.578,0
12921.393,33.203,-40.527,30.273,24.902,50.781,0
12921.397,34.180,-412.109,41.016,40.527,55.176,0
12921.401,47.852,77.148,44.922,51.758,29.785,0
12921.405,48.828,192.383,46.875,26.367,-20.508,0
12921.409,49.316,-181.641,53.223,20.508,-30.273,0
12921.412,50.293,-421.387,57.617,47.852,-11.719,0
12921.416,37.598,-5.859,41.504,37.598,5.859,0
12921.420,28.320,455.078,27.832,25.391,41.992,0
12921.424,33.203,164.551,31.738,35.156,38.574,0
12921.428,35.156,-370.605,41.016,31.738,-2.930,0
12921.432,22.949,-242.676,33.691,10.742,-62.988,0
12921.436,20.020,375.000,20.996,5.859,-48.828,0
12921.440,27.344,450.195,23.926,12.695,55.664,0
12921.444,30.762,-223.145,43.945,21.973,95.215,0
12921.448,35.156,-467.285,48.828,27.832,20.020,0
12921.452,34.180,275.391,38.086,20.996,38.574,0
12921.455,34.180,557.617,41.504,20.508,89.844,0
12921.459,23.438,39.062,41.016,20.996,48.340,0
12921.463,20.996,-513.672,41.992,26.367,28.809,0
12921.467,42.480,-115.234,42.480,36.133,20.508,0
12921.471,41.504,528.320,26.855,29.785,49.316,0
12921.475,41.504,219.727,29.297,39.062,84.961,0
12921.479,47.363,-437.012,39.551,51.270,23.926,0
12921.483,35.156,-208.496,27.832,40.527,-31.738,0
12921.487,27.832,435.059,14.160,29.785,14.160,0
12921.491,28.320,248.535,21.484,20.508,56.152,0
12921.494,31.738,-426.758,35.156,17.578,35.156,0
12921.498,28.809,-215.820,38.574,14.648,15.625,0
12921.502,31.250,355.957,39.551,15.625,51.758,0
12921.506,26.855,181.641,39.062,14.160,46.387,0
12921.510,14.160,-201.660,35.645,6.836,72.754,0
12921.514,4.883,-254.883,32.227,-2.441,77.637,0
12921.518,4.883,311.523,29.785,-2.930,49.805,0
12921.522,18.555,487.793,32.715,15.625,48.828,0
12921.526,25.879,-81.055,41.016,33.203,3.418,0
12921.530,19.043,-379.395,32.227,21.973,31.250,0
12921.534,13.184,119.141,22.949,10.742,62.988,0
12921.537,12.695,422.852,26.855,13.672,17.578,0
12921.541,17.090,54.199,33.691,25.391,60.059,0
12921.545,10.742,-620.605,32.227,23.926,76.660,0
12921.549,22.949,-285.156,35.156,25.391,16.113,0
12921.553,30.762,493.164,37.598,35.645,28.809,0
12921.557,26.367,391.602,31.738,39.551,52.734,0
12921.561,35.156,-251.465,35.645,34.668,46.875,0
12921.565,35.156,-320.801,40.527,26.855,12.695,0
12921.569,26.367,348.145,43.945,20.508,-0.977,0
12921.573,19.531,503.418,36.621,17.578,50.293,0
12921.577,20.996,-48.340,31.738,26.855,69.336,0
12921.580,38.086,-293.457,44.922,35.156,66.895,0
12921.584,51.270,116.699,51.270,44.922,11.719,0
12921.588,48.340,323.242,49.805,41.992,-24.902,0
12921.592,38.086,66.406,43.457,31.250,69.336,0
12921.596,35.645,-439.453,30.762,12.207,39.062,0
12921.600,66.406,-2.441,32.227,6.836,9.766,0
12921.604,81.055,303.711,33.203,6.836,-13.672,0
12921.608,75.684,-74.707,36.621,-0.488,-22.949,0
12921.612,76.172,-394.531,46.875,21.973,8.789,0
12921.616,68.848,-178.223,44.434,33.691,28.809,0
12921.619,52.246,448.730,44.434,30.762,23.438,0
12921.623,40.527,313.965,42.480,39.062,-23.926,0
12921.627,28.320,-281.738,40.039,51.270,-1.953,0
12921.631,11.719,-331.055,36.133,47.852,59.570,0
12921.635,20.996,225.586,33.203,51.270,38.574,0
12921.639,25.391,472.168,37.598,47.363,-16.602,0
12921.643,20.508,-134.277,46.875,37.109,52.734,0
12921.647,29.297,-580.078,67.383,39.551,85.449,0
12921.651,24.902,99.609,48.828,25.879,-1.465,0
12921.655,14.648,429.199,32.227,24.414,-45.410,0
12921.659,15.625,81.055,42.480,24.414,13.184,0
12921.662,15.625,-397.949,40.527,11.230,44.434,0
12921.666,17.090,-110.840,37.109,9.766,-14.648,0
12921.670,25.391,475.098,41.016,21.484,-31.738,0
12921.674,24.902,244.629,40.039,30.273,-20.508,0
12921.678,15.137,-470.703,35.156,21.484,-62.012,0
12921.682,12.695,-415.527,27.344,12.207,-34.180,0
12921.686,32.227,130.371,29.297,27.344,2.930,0
12921.690,36.133,296.875,46.875,43.457,15.137,0
12921.694,20.508,-125.977,47.363,33.691,54.688,0
12921.698,19.043,-254.883,30.762,22.949,45.898,0
12921.702,24.902,312.500,25.879,39.062,53.711,0
12921.705,25.879,410.645,21.484,38.086,3.418,0
12921.709,32.227,4.395,41.504,42.969,15.625,0
12921.713,34.180,-408.691,61.523,62.500,34.180,0
12921.717,33.691,66.406,41.504,44.922,47.363,0
12921.721,23.438,531.250,29.297,25.391,60.547,0
12921.725,15.625,60.547,39.062,24.902,29.297,0
12921.729,22.461,-480.469,41.992,27.832,68.359,0
12921.733,37.598,-110.840,32.715,34.180,85.938,0
12921.737,48.340,504.883,32.715,43.457,49.805,0
12921.741,35.156,370.605,40.527,41.504,37.598,0
12921.744,32.715,-584.473,43.457,34.180,-62.012,0
12921.748,35.156,-502.930,29.297,27.344,-15.137,0
12921.752,38.086,415.039,24.414,41.992,42.969,0
12921.756,54.688,405.273,40.527,49.316,-34.180,0
12921.760,59.082,-171.875,53.223,50.781,-20.508,0
12921.764,35.156,-364.746,41.016,38.086,47.363,0
12921.768,26.367,229.004,31.738,19.043,39.551,0
12921.772,27.832,364.746,29.297,20.020,-37.109,0
12921.776,24.414,-184.082,38.574,34.180,-36.133,0
12921.780,27.832,-542.969,47.363,45.410,-18.555,0
12921.784,36.133,-245.117,51.270,41.504,-48.340,0
12921.787,41.504,206.055,56.641,43.945,-7.812,0
12921.791,44.434,153.320,47.363,57.617,7.324,0
12921.795,49.316,-368.652,36.621,60.059,1.953,0
12921.799,53.711,-81.055,29.785,49.805,40.527,0
12921.803,54.688,424.316,27.344,41.992,9.766,1
12921.807,59.570,326.660,43.457,37.109,38.574,0
12921.811,66.895,-207.031,54.199,37.109,58.594,0
12921.815,76.660,-282.715,54.199,50.781,3.418,0
12921.819,65.430,262.695,40.527,44.434,-15.137,0
12921.823,40.527,251.953,30.762,23.926,25.391,0
12921.827,34.668,-366.211,34.180,22.949,33.203,0
12921.830,36.621,-480.957,36.133,36.133,35.645,0
12921.834,34.668,142.090,41.504,44.434,40.039,0
12921.838,41.504,567.383,37.109,41.016,63.477,0
12921.842,52.246,83.008,35.156,51.270,50.293,0
12921.846,53.223,-456.055,35.645,58.594,32.715,0
12921.850,53.711,79.590,36.621,50.781,83.496,0
12921.854,53.711,583.496,44.922,46.875,83.008,0
12921.858,40.039,280.273,50.781,45.410,25.879,0
12921.862,37.109,-413.086,46.387,44.922,-11.230,0
12921.866,41.016,-387.695,40.039,39.062,-52.246,0
12921.869,37.598,226.074,34.180,33.691,-53.711,0
12921.873,25.879,289.062,22.949,32.227,-15.137,0
12921.877,30.762,-201.660,41.016,44.922,19.531,0
12921.881,38.574,-290.039,63.477,45.410,34.180,0
12921.885,22.461,104.004,45.898,33.203,46.387,0
12921.889,25.879,254.395,35.156,39.551,24.902,0
12921.893,37.109,-128.418,41.504,37.598,-28.320,0
12921.897,33.203,-441.406,35.156,32.715,-58.105,0
12921.901,29.785,75.684,28.809,24.902,-45.898,0
12921.905,23.438,418.457,41.016,19.043,-13.672,0
12921.909,29.785,90.820,44.922,32.227,7.812,0
12921.912,39.062,-502.441,39.062,44.922,9.277,0
12921.916,27.832,-138.184,39.551,38.086,58.105,0
12921.920,36.133,596.680,45.898,35.645,107.910,0
12921.924,37.598,144.531,38.574,27.832,76.660,0
12921.928,30.273,-590.332,38.086,24.414,25.391,0
12921.932,44.922,-214.355,41.992,43.457,21.484,0
12921.936,36.133,447.754,31.250,40.039,30.273,0
12921.940,21.973,451.660,26.855,37.109,33.691,0
12921.944,25.879,-196.289,28.809,42.969,27.832,0
12921.948,33.691,-413.086,38.086,41.016,13.184,0
12921.952,31.250,243.652,38.574,28.320,27.344,0
12921.955,33.203,547.852,39.062,35.645,72.754,0
12921.959,35.645,-71.289,44.434,41.016,19.531,0
12921.963,30.273,-671.875,37.598,29.297,3.418,0
12921.967,33.203,-152.832,28.320,36.621,68.359,0
12921.971,33.203,441.895,30.762,44.434,-1.953,0
12921.975,27.832,125.977,37.598,47.363,-38.086,0
12921.979,30.273,-372.070,29.297,48.828,21.484,0
12921.983,35.156,-134.766,26.855,44.434,34.180,0
12921.987,39.062,374.512,37.109,36.133,-10.254,0
12921.991,48.828,302.734,46.387,44.922,-1.465,0
12921.994,47.852,-291.504,54.199,48.828,26.367,0
12921.998,34.180,-270.996,34.668,24.414,-8.789,0
12922.002,31.250,298.340,13.672,19.043,11.230,0
12922.006,38.086,253.906,19.531,22.461,9.277,0
12922.010,36.133,-309.082,36.133,30.273,0.000,0
12922.014,24.414,-554.688,39.062,26.367,-12.207,0
12922.018,23.438,118.652,36.621,14.160,7.324,0
12922.022,29.297,501.953,25.879,15.137,102.539,0
12922.026,22.949,-151.367,16.113,12.695,115.234,0
12922.030,17.090,-517.578,29.785,10.254,59.570,0
12922.034,21.484,28.809,44.922,15.137,17.578,0
12922.037,17.090,433.105,43.457,21.484,-10.742,0
12922.041,2.441,146.973,36.621,23.926,25.391,0
12922.045,7.324,-446.777,37.109,26.367,39.551,0
12922.049,19.531,-119.629,35.645,30.273,68.848,0
12922.053,18.066,402.344,35.156,27.832,58.105,0
12922.057,33.203,191.895,42.969,33.203,-2.441,0
12922.061,60.059,-327.148,56.641,61.035,-5.371,0
12922.065,49.805,-501.953,52.246,48.828,56.152,0
12922.069,44.434,123.047,34.668,22.949,89.355,0
12922.073,53.711,461.426,28.809,20.996,24.414,0
12922.077,43.945,-43.945,32.227,19.531,38.086,0
12922.080,48.340,-329.102,33.203,29.785,65.918,0
12922.084,53.711,104.492,32.715,20.996,22.949,0
12922.088,49.316,437.012,38.086,15.137,-12.695,0
12922.092,42.969,69.824,35.156,19.531,-19.043,0
12922.096,44.434,-386.719,30.762,29.785,40.527,0
12922.100,37.598,-64.453,38.086,41.504,42.969,0
12922.104,22.949,222.656,41.992,28.809,27.344,0
12922.108,28.320,-41.992,42.480,26.367,2.441,0
12922.112,30.762,-427.734,41.504,36.621,-41.504,0
12922.116,25.391,-241.699,36.133,31.250,-51.758,0
12922.119,33.203,394.531,51.270,44.434,-31.738,0
12922.123,37.109,307.617,63.965,57.129,18.066,0
12922.127,23.926,-301.270,33.691,45.410,30.762,0
12922.131,26.855,-312.012,11.230,37.598,16.602,0
12922.135,39.062,331.055,20.508,42.480,50.293,0
12922.139,30.273,508.789,37.598,46.387,34.668,0
12922.143,17.578,-100.098,49.316,35.156,17.578,0
12922.147,17.578,-514.160,54.199,38.574,52.246,0
12922.151,33.691,-40.039,35.645,46.875,9.766,0
12922.155,39.062,385.254,20.020,35.645,10.742,0
12922.159,44.922,158.203,34.668,29.785,37.598,0
12922.162,53.223,-512.695,46.387,34.180,8.301,0
12922.166,36.133,-388.184,36.621,20.996,-5.859,0
12922.170,27.832,442.383,34.180,8.301,82.031,0
12922.174,22.461,371.094,38.574,4.395,84.473,0
12922.178,14.160,-296.875,36.133,7.324,17.090,0
12922.182,17.090,-300.293,30.762,16.602,0.977,0
12922.186,23.926,229.492,38.086,18.066,-44.922,0
12922.190,28.320,410.645,46.387,20.996,1.953,0
12922.194,12.207,-243.164,40.039,17.578,33.203,0
12922.198,5.371,-412.598,41.016,17.090,48.828,0
12922.202,-0.488,243.164,40.527,17.578,52.734,0
12922.205,-10.254,280.273,33.691,0.000,55.176,0
12922.209,1.465,-94.727,34.668,-7.324,73.730,0
12922.213,-1.953,-385.742,23.438,-12.695,10.254,0
12922.217,7.324,79.102,13.184,-21.973,0.488,0
12922.221,29.297,500.488,19.531,-23.438,20.508,0
12922.225,35.645,126.953,27.832,-34.180,33.203,0
12922.229,40.527,-379.883,28.809,-38.086,32.227,0
12922.233,45.410,-113.770,29.297,-18.555,5.371,0
12922.237,41.504,474.609,29.785,0.977,26.367,0
12922.241,20.996,287.109,32.227,3.418,37.598,0
12922.244,0.488,-565.918,27.832,-5.859,32.227,0
12922.248,-3.906,-473.633,26.855,0.977,69.336,0
12922.252,-1.953,396.973,44.922,4.395,47.363,0
12922.256,-2.441,464.355,46.387,2.930,0.977,0
12922.260,16.602,-117.188,54.688,21.973,-1.953,0
12922.264,10.254,-433.594,54.688,22.949,-14.160,0
12922.268,-20.508,174.805,32.227,1.953,2.930,0
12922.272,-15.625,537.109,26.855,0.977,27.344,0
12922.276,-9.766,78.125,24.902,9.766,31.738,0
12922.280,-7.324,-385.254,27.832,11.230,33.203,0
12922.284,-0.977,-50.781,24.902,7.812,0.977,0
12922.287,1.953,363.770,19.043,16.602,0.488,0
12922.291,8.301,76.660,20.996,29.297,14.648,0
12922.295,19.043,-435.547,35.645,29.297,49.316,0
12922.299,17.578,-177.734,44.922,33.203,24.902,0
12922.303,17.090,213.379,42.480,30.762,-13.184,0
12922.307,15.137,88.867,39.551,14.160,16.602,0
12922.311,10.742,-307.129,36.621,8.789,1.953,0
12922.315,18.066,-309.570,32.227,5.859,-17.090,0
12922.319,26.367,334.961,24.414,1.465,4.395,0
12922.323,22.461,419.434,33.203,6.836,7.812,0
12922.327,19.531,-133.301,41.504,17.090,14.648,0
12922.330,26.855,-372.559,40.039,26.855,15.137,0
12922.334,20.508,43.945,34.668,13.672,2.930,0
12922.338,7.324,428.711,27.832,2.930,34.180,0
12922.342,4.883,44.434,40.039,16.113,57.617,0
12922.346,8.301,-627.441,41.992,17.578,46.875,0
12922.350,6.836,-124.023,22.461,0.488,28.809,0
12922.354,7.324,567.871,21.484,-2.930,72.754,0
12922.358,8.789,272.949,29.785,15.137,50.781,0
12922.362,6.348,-489.746,38.574,17.090,5.371,0
12922.366,8.301,-298.828,41.992,6.836,50.293,0
12922.369,15.137,412.598,41.016,12.695,23.926,0
12922.373,14.648,396.973,39.551,22.461,10.742,0
12922.377,23.438,-189.941,29.297,35.645,34.180,0
12922.381,31.738,-385.254,19.531,41.504,57.129,0
12922.385,29.297,2.930,23.926,18.555,50.781,0
12922.389,39.551,267.578,53.711,22.949,4.883,0
12922.393,48.340,-33.691,62.988,44.434,13.672,0
12922.397,25.879,-396.484,37.598,14.160,25.391,0
12922.401,19.531,73.242,29.297,-6.348,7.324,0
12922.405,25.391,387.695,31.738,2.441,-28.809,0
12922.409,16.113,77.637,30.273,7.324,-16.113,0
12922.412,17.090,-398.438,33.203,6.836,12.695,0
12922.416,33.691,-135.742,42.969,4.883,12.695,0
12922.420,41.504,404.785,46.387,9.277,37.109,0
12922.424,45.410,231.445,48.828,21.973,30.273,0
12922.428,36.621,-419.434,44.434,27.344,27.832,0
12922.432,27.344,-384.766,35.156,25.391,29.785,0
12922.436,29.785,290.039,37.598,22.949,34.180,0
12922.440,41.016,429.688,40.527,34.180,27.832,0
12922.444,44.434,-183.105,38.574,50.293,57.617,0
12922.448,45.898,-419.434,38.086,33.203,21.973,0
12922.452,48.828,248.047,32.715,19.531,11.230,0
12922.455,38.574,509.766,32.715,27.344,48.828,0
12922.459,40.039,-0.488,48.340,40.039,11.230,0
12922.463,39.551,-586.914,63.965,38.574,7.324,0
12922.467,27.832,-228.027,42.969,16.113,20.996,2
12922.471,27.344,470.215,20.996,5.859,38.574,0
12922.475,23.438,139.648,28.320,7.812,69.336,0
12922.479,25.879,-549.316,35.156,7.812,2.441,0
12922.483,31.738,-339.355,35.645,8.301,-16.113,0
12922.487,34.668,225.586,41.992,6.348,46.875,0
12922.491,41.992,299.805,47.363,14.648,36.621,0
12922.494,36.133,-221.191,41.992,20.020,40.527,0
12922.498,28.320,-243.164,21.973,7.812,20.996,0
12922.502,21.484,317.871,22.461,2.441,14.160,0
12922.506,23.926,405.273,41.504,3.418,25.879,0
12922.510,21.973,-88.867,43.945,10.254,23.926,0
12922.514,28.809,-362.305,47.363,33.691,33.203,0
12922.518,38.574,222.168,44.922,41.016,31.738,0
12922.522,26.367,442.871,30.762,29.297,71.289,0
12922.526,20.508,-187.012,32.227,25.879,53.711,0
12922.530,31.250,-524.902,36.133,36.133,16.113,0
12922.534,29.297,31.250,30.762,40.527,43.457,0
12922.537,22.461,487.305,23.438,32.227,46.387,0
12922.541,21.973,145.508,31.250,25.879,0.000,0
12922.545,18.555,-482.910,39.551,26.367,-4.395,0
12922.549,29.297,-191.406,43.945,36.133,19.043,0
12922.553,34.180,443.359,43.945,30.762,18.555,0
12922.557,22.949,383.789,37.109,18.066,12.207,0
12922.561,6.836,-256.836,40.527,21.973,1.953,0
12922.565,6.348,-382.812,37.109,20.020,19.531,0
12922.569,20.996,218.262,33.203,26.855,23.438,0
12922.573,28.320,366.699,37.598,32.227,49.316,0
12922.577,27.344,-146.973,40.527,23.438,41.016,0
12922.580,26.855,-433.594,30.273,26.855,-29.785,0
12922.584,16.113,-47.363,27.344,19.531,35.645,0
12922.588,18.066,313.477,41.016,14.648,87.402,0
12922.592,24.414,172.852,47.852,10.254,86.914,0
12922.596,17.090,-364.746,38.574,-7.812,103.027,0
12922.600,28.320,-67.383,33.203,-1.465,28.320,0
12922.604,33.691,409.180,30.762,8.301,-32.715,0
12922.608,27.832,254.395,26.367,14.648,25.879,0
12922.612,29.785,-294.434,30.273,18.066,37.109,0
12922.616,21.484,-322.754,29.297,14.648,-9.277,0
12922.619,23.438,301.758,26.367,22.461,11.230,0
12922.623,27.832,232.422,39.062,18.555,26.855,0
12922.627,14.160,-438.965,46.387,7.324,11.719,0
12922.631,14.648,-355.469,35.645,10.254,24.902,0
12922.635,12.695,252.441,29.785,8.301,-21.484,0
12922.639,13.184,499.512,34.180,6.836,-16.113,0
12922.643,11.230,-104.004,31.738,8.789,12.695,0
12922.647,25.879,-565.430,37.598,20.508,-6.836,0
12922.651,42.480,123.535,52.734,28.320,46.875,0
12922.655,21.973,441.895,44.922,16.602,1.465,0
12922.659,14.160,117.676,31.738,7.812,-8.301,0
12922.662,14.160,-525.879,20.508,-3.418,18.555,0
12922.666,17.578,-456.055,19.531,-2.441,-18.066,0
12922.670,29.297,314.941,25.391,6.348,3.906,0
12922.674,31.738,334.961,27.832,10.742,33.203,0
12922.678,29.785,-230.469,37.598,15.137,53.711,0
12922.682,30.273,-262.695,41.504,14.160,36.621,0
12922.686,24.414,308.594,36.621,9.277,14.160,0
12922.690,20.508,502.441,30.273,3.906,63.965,0
12922.694,22.461,-60.547,37.109,2.930,83.496,0
12922.698,26.855,-305.176,43.457,5.859,48.340,0
12922.702,16.602,197.754,41.992,-6.836,12.207,0
12922.705,11.719,377.930,39.551,-16.602,-27.344,0
12922.709,35.156,-62.500,45.898,10.254,20.996,0
12922.713,40.039,-558.105,49.316,16.602,25.879,0
12922.717,25.879,-27.344,31.738,4.395,12.695,0
12922.721,26.855,550.293,23.926,16.602,44.434,0
12922.725,35.645,-10.742,28.320,25.879,37.598,0
12922.729,31.738,-549.805,30.762,28.320,72.266,0
12922.733,33.203,-168.945,34.668,34.668,-10.254,0
12922.737,36.621,422.852,49.316,40.527,-33.691,0
12922.741,31.738,382.812,51.758,42.480,38.086,0
12922.744,23.926,-320.312,34.180,32.715,15.137,0
12922.748,27.832,-323.242,24.902,25.879,3.418,0
12922.752,44.922,349.609,36.133,39.062,9.766,0
12922.756,43.457,356.934,37.598,42.969,8.301,0
12922.760,34.668,-184.082,40.527,51.758,4.395,0
12922.764,32.715,-568.848,62.500,51.270,24.414,0
12922.768,27.832,-37.598,56.641,28.809,74.219,0
12922.772,25.879,461.914,37.598,20.020,42.969,0
12922.776,34.180,73.242,47.363,38.086,24.902,0
12922.780,34.180,-399.414,54.688,47.852,8.301,0
12922.784,26.855,-85.449,41.016,37.109,-18.066,0
12922.787,29.297,453.125,30.762,38.086,7.812,0
12922.791,33.691,271.973,39.062,42.480,29.297,0
12922.795,25.391,-333.984,40.527,30.273,30.762,0
12922.799,26.855,-186.035,38.574,28.320,-14.648,0
12922.803,38.574,241.211,37.109,32.227,-5.371,0
12922.807,37.109,174.805,29.785,28.809,44.922,0
12922.811,32.715,-200.684,33.691,27.344,53.711,0
12922.815,35.156,-309.570,54.199,28.809,15.137,0
12922.819,33.691,274.414,48.340,27.344,-47.852,0
12922.823,19.043,389.648,30.273,21.484,12.207,0
12922.827,8.301,-207.520,38.574,17.578,20.996,0
12922.830,-2.441,-526.367,27.832,-0.977,-45.898,0
12922.834,0.000,32.227,23.438,-2.441,-39.062,0
12922.838,11.719,490.723,33.203,12.207,-20.020,0
12922.842,7.812,59.082,30.762,17.578,2.930,0
12922.846,7.812,-487.305,35.645,12.207,20.508,0
12922.850,37.109,-167.480,46.387,10.742,8.789,0
12922.854,57.617,366.211,48.828,7.324,22.949,0
12922.858,70.312,294.434,47.852,4.883,25.879,0
12922.862,77.637,-359.375,46.387,0.488,17.090,0
12922.866,81.055,-505.371,42.969,7.812,15.137,0
12922.869,88.867,232.422,40.527,35.156,22.949,0
12922.873,66.406,479.980,17.578,38.086,57.617,0
12922.877,29.297,-138.184,18.555,36.133,48.828,0
12922.881,17.090,-447.754,37.598,40.039,-13.672,0
12922.885,23.926,107.910,38.574,42.969,-27.832,0
12922.889,28.320,438.965,28.809,43.457,26.855,0
12922.893,28.320,-5.371,33.691,50.781,43.457,0
12922.897,16.602,-488.770,42.969,44.922,15.625,0
12922.901,21.973,-29.297,41.992,40.039,37.109,0
12922.905,42.969,290.039,42.969,53.711,80.566,0
12922.909,41.992,-48.340,34.180,45.410,37.109,0
12922.912,26.855,-389.160,37.598,47.852,10.254,0
12922.916,22.461,-74.707,34.180,44.434,27.344,0
12922.920,32.715,520.996,25.391,40.039,44.434,0
12922.924,34.180,360.840,22.461,44.922,82.031,0
12922.928,19.043,-249.512,12.695,29.785,75.195,0
12922.932,15.625,-226.562,13.184,16.602,34.180,0
12922.936,23.926,370.117,17.578,23.438,0.000,0
12922.940,37.598,464.844,22.461,44.434,13.672,0
12922.944,39.062,-239.746,35.645,50.781,-4.395,0
12922.948,32.227,-575.195,37.598,41.992,-26.855,0
12922.952,41.016,137.207,29.297,37.109,37.109,0
12922.955,46.875,504.883,32.715,33.691,36.133,0
12922.959,39.551,118.164,43.457,37.598,38.574,0
12922.963,39.062,-539.551,48.340,39.551,28.320,0
12922.967,41.504,-199.219,35.156,32.715,50.293,0
12922.971,36.133,492.188,21.973,32.227,29.297,0
12922.975,39.551,222.656,41.016,47.852,6.836,0
12922.979,35.645,-346.191,46.387,42.480,36.621,0
12922.983,14.160,-213.379,15.137,12.207,20.020,0
12922.987,30.273,378.906,11.230,21.484,20.020,0
12922.991,36.133,307.617,27.832,36.133,39.062,0
12922.994,20.020,-407.227,38.086,26.367,20.508,0
12922.998,28.320,-335.449,36.133,16.602,18.066,0
12923.002,30.273,250.000,31.738,16.602,18.555,0
12923.006,24.414,150.391,31.250,13.184,-5.859,0
12923.010,29.785,-221.680,41.992,19.531,0.977,0
12923.014,40.527,-329.102,54.688,30.273,69.824,0
12923.018,47.852,196.289,44.922,29.297,41.504,0
12923.022,34.180,514.160,32.715,30.762,72.266,0
12923.026,27.832,59.082,35.156,26.367,87.891,0
12923.030,40.527,-378.418,37.109,32.715,68.848,0
12923.034,47.363,20.020,34.668,37.109,81.055,0
12923.037,38.086,429.688,22.949,20.508,51.758,0
12923.041,45.898,128.418,36.133,40.039,46.875,0
12923.045,54.199,-609.863,56.641,49.805,51.270,0
12923.049,37.109,-389.160,39.062,30.273,29.297,0
12923.053,28.320,418.945,13.184,23.926,13.672,0
12923.057,37.109,399.902,26.367,24.414,5.859,1
12923.061,40.039,-190.430,57.129,27.832,44.922,0
12923.065,20.996,-451.172,49.316,24.414,7.324,0
12923.069,18.555,155.273,39.062,22.461,-52.734,0
12923.073,31.250,501.465,41.992,30.273,27.832,0
12923.077,26.855,10.742,34.668,33.203,64.453,0
12923.080,28.320,-358.887,33.203,21.973,72.754,0
12923.084,34.180,2.441,29.785,17.578,31.738,0
12923.088,30.273,376.465,24.902,23.926,29.785,0
12923.092,30.273,84.473,32.227,31.250,36.133,0
12923.096,43.945,-493.652,50.781,35.645,-37.598,0
12923.100,45.410,-72.266,53.223,29.297,0.977,0
12923.104,31.250,314.453,34.180,17.090,38.574,0
12923.108,41.016,8.789,29.785,15.625,14.648,0
12923.112,42.480,-345.215,39.062,25.391,30.273,0
12923.116,38.086,-243.652,40.527,30.273,11.719,0
12923.119,35.156,368.164,37.109,36.621,-7.812,0
12923.123,19.531,350.586,31.738,32.715,6.348,0
12923.127,20.996,-254.883,34.180,34.180,-3.418,0
12923.131,23.438,-462.891,44.922,38.574,10.742,0
12923.135,15.137,119.141,40.527,20.508,36.621,0
12923.139,18.066,533.203,39.062,14.648,50.781,0
12923.143,20.020,-74.219,55.664,40.527,59.082,0
12923.147,9.277,-656.738,52.734,29.297,75.684,0
12923.151,1.953,39.551,18.555,-3.906,89.355,0
12923.155,5.859,523.926,14.160,-3.906,28.320,0
12923.159,7.324,205.566,28.320,12.695,39.551,0
12923.162,9.766,-404.297,29.785,20.508,71.289,0
12923.166,21.973,-211.426,27.344,20.508,23.926,0
12923.170,32.227,447.266,21.973,15.625,7.324,0
12923.174,36.621,323.730,29.297,20.020,13.184,0
12923.178,37.109,-335.449,40.039,36.621,52.246,0
12923.182,33.691,-459.473,35.156,36.133,36.133,0
12923.186,31.250,62.988,41.016,31.250,33.691,0
12923.190,30.273,350.098,45.410,25.879,56.152,0
12923.194,22.949,-60.059,43.457,26.855,63.477,0
12923.198,17.578,-284.180,43.945,26.367,96.191,0
12923.202,27.344,232.422,42.480,15.625,87.891,0
12923.205,28.809,440.918,35.645,16.602,34.668,0
12923.209,14.160,49.805,36.133,16.113,14.160,0
12923.213,9.277,-499.023,32.715,7.812,-64.453,0
12923.217,10.742,-63.477,22.949,7.812,-49.805,0
12923.221,12.695,480.957,30.273,20.996,20.020,0
12923.225,22.461,85.938,40.527,15.137,0.977,0
12923.229,26.855,-534.180,47.363,14.160,13.672,0
12923.233,26.367,-283.203,44.922,21.973,20.996,0
12923.237,25.879,366.211,27.832,10.742,-33.203,0
12923.241,19.531,289.551,29.297,1.953,-43.945,0
12923.244,6.348,-537.598,31.738,-3.906,-5.859,0
12923.248,11.719,-587.891,35.156,6.348,0.488,0
12923.252,24.414,287.109,33.691,18.066,-0.488,0
12923.256,25.879,475.586,25.391,13.184,14.160,0
12923.260,24.902,-63.965,36.621,12.695,24.902,0
12923.264,13.672,-432.129,33.691,4.883,34.668,0
12923.268,12.695,108.398,30.762,10.254,21.973,0
12923.272,20.996,364.746,38.574,26.367,-31.250,0
12923.276,26.367,-57.129,39.551,33.203,-1.465,0
12923.280,19.043,-407.715,35.156,25.391,20.996,0
12923.284,10.254,-224.121,23.926,-0.977,0.000,0
12923.287,25.391,179.199,19.531,-6.836,-2.441,0
12923.291,39.062,220.703,23.926,13.184,18.066,0
12923.295,33.203,-293.457,22.949,21.973,44.922,0
12923.299,37.109,-233.398,19.531,24.414,41.016,0
12923.303,38.086,284.668,14.160,20.996,22.461,0
12923.307,36.133,348.145,22.949,13.672,20.508,0
12923.311,43.945,-184.082,48.828,25.391,10.254,0
12923.315,38.574,-320.312,54.199,23.438,42.969,0
12923.319,25.391,250.488,45.410,7.812,59.082,0
12923.323,20.996,233.398,38.574,4.395,-26.855,0
12923.327,21.973,-392.090,32.227,12.207,-51.758,0
12923.330,22.461,-559.082,21.973,21.484,-34.180,0
12923.334,19.531,134.277,12.207,17.578,44.922,0
12923.338,19.531,588.379,17.090,19.531,75.684,0
12923.342,20.508,127.441,29.297,25.879,32.227,0
12923.346,24.414,-416.992,30.273,19.043,78.613,0
12923.350,30.762,-7.324,19.531,11.719,107.910,0
12923.354,35.156,509.766,21.973,13.672,36.621,0
12923.358,24.902,267.578,37.109,16.113,0.488,0
12923.362,25.391,-432.129,41.504,19.043,41.992,0
12923.366,46.875,-448.242,43.945,23.438,21.484,0
12923.369,51.758,208.008,45.410,19.531,-18.066,0
12923.373,39.551,360.840,41.992,22.461,-8.789,0
12923.377,27.344,-148.926,39.062,27.344,-2.441,0
12923.381,28.320,-340.332,28.809,28.809,29.297,0
12923.385,35.645,-8.789,17.090,25.879,8.789,0
12923.389,33.203,309.082,20.508,22.949,20.020,0
12923.393,37.109,82.031,34.180,30.762,53.223,0
12923.397,42.480,-412.598,28.320,36.621,1.953,0
12923.401,35.645,52.734,22.461,29.297,25.391,0
12923.405,42.480,507.812,37.598,22.949,64.941,0
12923.409,42.480,160.645,36.621,25.391,-8.301,0
12923.412,42.480,-490.234,42.969,33.691,-14.160,0
12923.416,45.898,-223.633,50.781,34.668,108.887,0
12923.420,33.691,455.078,35.645,20.996,79.102,0
12923.424,23.926,166.504,30.762,14.648,12.695,0
12923.428,26.367,-530.273,31.250,16.113,5.371,0
12923.432,27.832,-292.480,31.250,26.367,14.160,0
12923.436,28.320,355.957,34.668,31.738,-4.883,0
12923.440,32.715,447.266,41.992,29.785,-29.785,0
12923.444,21.973,-161.621,35.156,31.738,-24.902,0
12923.448,19.043,-404.297,20.996,22.949,28.320,0
12923.452,19.043,218.750,20.996,15.625,36.621,0
12923.455,21.484,484.863,28.809,20.996,-5.371,0
12923.459,28.320,-21.484,38.574,33.203,-15.137,0
12923.463,24.414,-677.246,44.922,29.785,0.000,0
12923.467,37.109,-272.949,56.152,31.250,62.988,0
12923.471,49.316,463.867,51.270,41.992,40.039,0
12923.475,35.645,189.453,30.273,34.180,4.883,0
12923.479,25.391,-433.105,26.855,25.879,34.668,0
12923.483,19.531,-248.535,27.832,21.973,28.320,0
12923.487,17.090,353.516,28.320,19.043,2.930,0
12923.491,28.809,382.324,28.320,22.461,9.766,0
12923.494,33.203,-222.168,29.785,25.879,34.180,0
12923.498,27.344,-319.824,35.156,25.391,14.160,0
12923.502,33.203,251.465,36.621,30.762,32.227,0
12923.506,36.133,312.500,35.645,36.133,18.066,0
12923.510,30.762,-222.168,39.062,44.922,10.742,0
12923.514,22.949,-556.641,40.039,35.645,0.488,0
12923.518,37.109,94.727,52.734,20.508,3.906,0
12923.522,45.410,497.559,67.383,31.738,54.688,0
12923.526,30.762,-114.258,51.270,20.508,74.219,0
12923.530,33.691,-544.434,33.203,-4.883,58.594,0
12923.534,61.035,-75.684,19.043,-10.742,67.383,0
12923.537,85.449,454.102,13.184,-1.953,85.938,0
12923.541,96.191,256.836,27.832,13.672,51.270,0
12923.545,85.449,-386.230,39.551,23.438,57.129,0
12923.549,71.289,-225.098,33.203,22.949,55.176,0
12923.553,63.965,347.656,30.762,35.645,59.082,0
12923.557,46.875,286.133,27.832,46.387,53.223,0
12923.561,36.133,-300.781,32.715,49.805,-4.395,0
12923.565,21.484,-647.949,38.086,40.039,-26.855,0
12923.569,22.949,-70.312,43.945,45.898,-67.871,0
12923.573,32.715,462.402,57.617,49.316,-8.301,0
12923.577,8.301,-1.465,49.805,30.273,11.230,0
12923.580,1.465,-445.801,32.227,25.879,-18.555,0
12923.584,1.953,44.922,20.020,24.902,43.945,0
12923.588,8.789,517.578,28.809,27.832,48.828,0
12923.592,18.555,150.391,40.527,35.156,43.945,0
12923.596,14.648,-517.090,27.344,31.738,7.324,0
12923.600,24.414,-206.055,24.414,32.227,6.836,0
12923.604,24.414,232.910,40.527,32.715,39.062,0
12923.608,18.555,29.785,44.922,22.461,2.441,0
12923.612,25.879,-370.605,43.457,20.996,-24.902,0
12923.616,20.020,-251.953,34.180,24.414,8.789,0
12923.619,26.855,373.047,40.039,38.574,-5.371,0
12923.623,40.039,355.469,48.828,42.480,-48.340,0
12923.627,29.297,-212.402,39.551,27.344,-19.043,0
12923.631,19.043,-380.371,28.809,11.230,4.883,0
12923.635,28.320,198.242,22.949,11.719,-3.906,0
12923.639,34.668,500.000,37.598,35.156,-5.371,0
12923.643,25.391,-41.992,48.340,34.180,-12.207,0
12923.647,22.461,-593.750,50.293,23.438,-0.977,1
12923.651,30.762,-89.355,50.781,22.461,56.152,0
12923.655,28.809,365.723,41.504,22.461,41.992,0
12923.659,13.184,118.164,37.598,25.391,8.789,0
12923.662,8.301,-449.219,39.551,22.461,58.594,0
12923.666,22.949,-400.391,34.668,20.508,67.383,0
12923.670,32.227,330.078,32.227,30.273,26.367,0
12923.674,23.438,367.188,34.180,30.762,16.602,0
12923.678,27.344,-237.305,38.574,22.461,25.879,0
12923.682,39.551,-367.676,40.527,35.645,3.906,0
12923.686,45.410,207.031,46.387,48.340,-8.789,0
12923.690,48.340,426.758,51.758,41.992,-5.859,0
12923.694,31.738,-203.125,50.781,26.367,19.043,0
12923.698,19.531,-477.539,46.387,9.766,65.430,0
12923.702,24.414,127.930,41.504,14.160,46.387,0
12923.705,25.879,270.020,39.062,12.695,39.551,0
12923.709,29.785,-127.930,37.598,18.066,59.082,0
12923.713,27.344,-513.184,29.785,21.484,34.668,0
12923.717,30.762,-63.965,29.297,20.996,12.695,0
12923.721,43.457,453.125,36.621,27.832,-2.930,0
12923.725,44.434,173.340,40.527,35.645,24.902,0
12923.729,33.203,-420.410,33.691,31.250,-3.418,0
12923.733,33.203,-206.543,29.297,19.531,22.949,0
12923.737,39.551,429.199,39.551,29.297,46.387,0
12923.741,46.387,271.973,43.945,38.086,-21.484,0
12923.744,37.109,-527.832,40.527,31.738,16.113,0
12923.748,24.414,-612.305,32.715,23.926,20.020,0
12923.752,36.621,279.785,32.227,23.438,32.715,0
12923.756,42.480,526.855,29.785,25.391,55.176,0
12923.760,31.250,-48.828,30.273,22.461,4.395,0
12923.764,21.973,-459.473,28.809,16.113,3.906,0
12923.768,31.250,24.414,24.414,19.043,9.766,0
12923.772,40.527,447.266,28.320,25.391,35.645,0
12923.776,35.156,164.551,26.855,25.391,73.242,0
12923.780,27.344,-417.480,32.227,29.297,-4.395,0
12923.784,27.832,-200.684,29.297,25.879,-46.875,0
12923.787,36.133,289.062,25.879,20.020,-38.086,0
12923.791,36.621,94.727,31.250,20.996,-39.062,0
12923.795,35.156,-417.480,34.180,29.297,38.574,0
12923.799,34.668,-181.641,37.598,37.109,66.406,0
12923.803,33.203,286.133,37.598,28.320,37.598,0
12923.807,30.273,179.688,35.156,21.973,67.383,0
12923.811,14.648,-199.707,41.016,18.555,59.082,0
12923.815,11.230,-300.781,41.992,22.949,54.199,0
12923.819,20.996,293.945,38.086,27.344,53.223,0
12923.823,23.438,463.867,44.922,23.926,30.762,0
12923.827,21.973,-23.438,50.781,32.715,65.918,0
12923.830,17.090,-475.098,38.574,25.879,39.062,0
12923.834,20.996,-138.184,19.043,13.184,-18.555,0
12923.838,26.855,408.691,14.648,11.230,26.855,0
12923.842,20.508,116.699,20.508,16.113,49.805,0
12923.846,23.438,-634.766,23.438,19.043,45.898,0
12923.850,31.250,-263.672,22.461,10.742,18.555,0
12923.854,24.902,474.609,27.344,11.230,10.254,0
12923.858,21.484,370.605,33.691,20.020,25.391,0
12923.862,29.297,-304.199,41.016,22.949,20.996,0
12923.866,36.133,-358.398,44.434,23.926,10.254,0
12923.869,37.109,393.066,42.480,27.344,55.664,0
12923.873,39.062,479.980,50.293,36.133,31.250,0
12923.877,33.691,-147.461,52.734,42.969,-23.438,0
12923.881,24.902,-445.312,36.621,31.738,20.020,0
12923.885,20.508,-134.277,23.926,14.648,-0.488,0
12923.889,33.691,231.934,23.438,21.484,-5.859,0
12923.893,36.133,49.316,26.367,27.832,9.766,0
12923.897,19.531,-442.871,30.762,13.184,-29.297,0
12923.901,14.648,9.766,32.715,6.348,23.438,0
12923.905,20.020,456.055,37.598,14.648,35.156,0
12923.909,21.973,148.926,34.668,23.926,-37.598,0
12923.912,13.184,-313.477,29.785,20.996,59.082,0
12923.916,27.832,-108.887,37.109,26.855,75.195,0
12923.920,38.574,442.383,33.691,31.738,16.602,0
12923.924,30.273,356.445,26.855,24.902,61.523,0
12923.928,37.598,-338.867,33.203,37.109,39.062,0
12923.932,38.574,-387.207,30.762,35.156,73.242,0
12923.936,34.180,172.852,29.785,24.902,15.625,0
12923.940,34.668,464.844,28.809,18.066,20.020,0
12923.944,25.879,-205.078,31.738,13.184,29.297,0
12923.948,16.113,-749.512,37.598,13.184,-52.734,0
12923.952,22.461,110.352,30.762,16.113,16.113,0
12923.955,18.066,544.434,24.902,15.625,27.344,0
12923.959,27.344,120.117,28.809,25.879,10.254,0
12923.963,38.086,-417.969,40.039,30.273,56.641,0
12923.967,36.621,-49.805,42.969,30.762,62.012,0
12923.971,45.410,568.848,32.715,41.016,71.777,0
12923.975,49.805,182.617,33.691,41.504,25.391,0
12923.979,40.039,-506.348,50.293,44.922,-62.012,0
12923.983,49.805,-340.820,57.129,55.664,13.184,0
12923.987,41.504,278.809,36.621,41.016,63.965,0
12923.991,15.137,412.598,22.461,4.395,22.461,0
12923.994,9.277,-219.238,25.391,2.441,-18.066,0
12923.998,18.066,-310.547,28.809,18.555,5.859,0
12924.002,20.020,202.637,35.645,14.648,15.137,0
12924.006,15.625,295.410,30.273,0.488,28.320,0
12924.010,18.066,-43.457,30.273,14.160,39.551,0
12924.014,20.508,-395.996,30.273,22.949,17.578,0
12924.018,26.367,126.953,23.438,19.043,39.551,0
12924.022,29.785,434.570,36.133,23.926,50.293,0
12924.026,22.949,-153.320,41.504,9.766,27.832,0
12924.030,19.531,-593.262,35.156,8.789,-14.160,0
12924.034,35.645,-79.102,30.762,24.902,20.996,0
12924.037,47.852,505.371,37.109,33.203,23.926,0
12924.041,44.434,295.898,41.504,37.109,21.484,0
12924.045,28.809,-432.617,38.086,22.949,-25.391,0
12924.049,23.438,-351.562,39.551,10.742,-75.684,0
12924.053,25.391,380.859,34.180,12.695,4.883,0
12924.057,38.574,475.586,39.062,31.250,44.922,0
12924.061,52.246,-174.805,49.805,48.340,17.578,0
12924.065,33.691,-478.516,33.691,29.297,5.859,0
12924.069,28.809,169.922,25.391,11.230,69.336,0
12924.073,31.250,476.074,38.086,14.160,128.418,0
12924.077,29.297,-6.836,35.156,17.578,91.797,0
12924.080,26.855,-361.328,31.250,22.949,59.082,0
12924.084,20.508,-120.117,30.762,9.277,47.363,0
12924.088,21.973,237.305,32.227,-0.977,7.812,0
12924.092,32.227,149.902,41.016,16.113,-25.391,0
12924.096,31.738,-424.316,37.598,18.555,-45.410,0
12924.100,24.414,-141.602,26.855,6.348,2.930,0
12924.104,29.297,401.855,22.461,11.719,0.000,0
12924.108,35.645,313.965,21.484,18.066,3.906,0
12924.112,35.156,-259.277,21.973,20.508,2.930,0
12924.116,39.062,-397.949,22.949,15.137,2.441,0
12924.119,42.969,261.719,21.484,11.719,18.066,0
12924.123,41.992,308.594,38.086,28.809,35.156,0
12924.127,44.434,-384.277,41.992,38.086,11.719,0
12924.131,33.691,-470.215,20.508,29.785,-28.809,0
12924.135,26.367,165.527,22.949,25.391,-27.832,0
12924.139,22.461,545.898,34.180,18.066,23.926,0
12924.143,22.949,49.805,35.645,17.578,37.598,0
12924.147,27.832,-503.906,33.691,24.414,27.344,0
12924.151,32.227,-16.602,26.367,18.555,13.184,0
12924.155,36.133,476.074,27.344,18.066,-18.066,0
12924.159,33.691,229.980,33.203,23.438,-27.344,0
12924.162,29.785,-580.566,33.691,29.785,-86.914,0
12924.166,41.504,-562.500,32.715,27.344,-59.082,0
12924.170,46.387,326.172,33.203,25.391,16.113,0
12924.174,28.809,408.691,36.133,29.297,10.254,0
12924.178,32.227,-143.555,50.293,38.574,76.660,0
12924.182,37.109,-312.988,51.758,34.180,101.562,0
12924.186,29.785,211.914,34.180,19.531,19.043,0
12924.190,23.926,475.098,26.855,7.812,-10.254,0
12924.194,21.973,-36.133,24.414,7.324,15.137,0
12924.198,13.672,-380.859,19.043,11.230,18.555,0
12924.202,-2.441,111.816,13.672,1.953,22.461,0
12924.205,-1.465,471.191,15.137,-0.488,53.223,0
12924.209,6.348,54.688,27.832,13.672,33.203,0
12924.213,2.441,-546.875,38.574,17.578,18.066,0
12924.217,6.348,-125.488,36.621,14.160,53.711,0
12924.221,21.484,522.461,43.457,19.043,45.410,0
12924.225,33.203,55.176,51.270,24.414,2.441,0
12924.229,42.480,-531.250,50.781,19.043,44.434,0
12924.233,69.824,-158.203,56.152,15.137,63.965,0
12924.237,88.867,462.402,39.551,2.930,39.551,0
12924.241,75.195,385.742,17.090,-14.648,35.156,0
12924.244,64.453,-264.160,17.578,-6.348,36.133,0
12924.248,51.270,-278.320,16.113,2.930,83.984,0
12924.252,36.621,372.559,15.137,11.230,93.262,0
12924.256,39.062,458.984,20.020,24.414,49.805,0
12924.260,27.832,-71.777,23.926,24.902,2.930,0
12924.264,7.812,-631.836,35.156,20.020,-20.020,0
12924.268,17.578,-197.754,44.922,29.297,-4.883,0
12924.272,19.531,524.414,41.992,30.762,32.227,0
12924.276,3.906,223.633,40.039,23.438,39.551,0
12924.280,-6.836,-374.512,36.621,25.391,13.184,0
12924.284,-13.184,-160.156,31.738,22.461,20.508,0
12924.287,-3.906,424.316,37.598,18.555,29.297,0
12924.291,1.465,362.305,38.574,16.113,20.020,0
12924.295,0.000,-282.227,38.086,20.020,18.066,0
12924.299,13.672,-259.277,38.086,25.391,34.668,0
12924.303,17.578,222.656,29.785,24.414,59.082,0
12924.307,16.602,205.566,38.086,23.926,30.762,0
12924.311,20.020,-134.766,39.062,31.250,35.645,0
12924.315,29.785,-334.961,29.785,29.297,26.367,0
12924.319,54.199,201.660,29.297,36.621,-34.180,0
12924.323,57.129,462.402,30.762,38.574,18.555,0
12924.327,57.129,-48.828,50.293,45.898,11.230,0
12924.330,52.734,-413.574,53.223,46.875,6.836,0
12924.334,36.133,18.555,21.484,24.414,1.953,0
12924.338,38.574,513.184,21.484,20.508,2.930,1
12924.342,34.668,208.984,38.086,18.555,60.059,0
12924.346,33.203,-513.672,51.758,21.973,-27.344,0
12924.350,33.691,-288.574,49.805,18.555,-24.414,0
12924.354,23.438,336.914,33.691,11.230,55.664,0
12924.358,20.996,232.422,30.273,15.625,3.906,0
12924.362,16.113,-387.695,30.762,16.113,-8.301,0
12924.366,15.625,-440.918,28.320,12.695,3.906,0
12924.369,19.531,264.648,20.996,11.719,-18.066,0
12924.373,25.391,436.523,20.996,21.973,-8.301,0
12924.377,30.273,-92.285,27.832,22.461,11.719,0
12924.381,26.855,-415.527,24.902,8.789,20.996,0
12924.385,31.738,55.176,15.137,5.371,24.414,0
12924.389,30.762,504.395,21.973,2.930,69.336,0
12924.393,24.414,115.234,35.645,-0.488,59.570,0
12924.397,37.598,-577.637,47.363,9.766,-31.250,0
12924.401,47.363,-257.324,48.340,21.484,-50.293,0
12924.405,34.180,224.609,32.715,5.371,48.828,0
12924.409,26.367,-226.074,28.320,-2.441,20.020,0
12924.412,31.738,-600.586,34.180,10.742,20.508,0
12924.416,30.762,-271.484,35.156,15.137,21.484,0
12924.420,26.855,321.289,34.668,19.531,-27.344,0
12924.424,31.738,369.629,42.480,20.996,34.668,0
12924.428,26.855,-216.309,50.781,20.020,46.387,0
12924.432,27.832,-342.773,41.992,38.574,-0.977,0
12924.436,37.109,272.461,21.484,47.852,1.465,0
12924.440,41.504,493.652,23.438,45.410,23.438,0
12924.444,38.574,-166.992,35.645,50.781,0.977,0
12924.448,41.504,-562.988,34.668,44.922,42.969,0
12924.452,55.664,37.109,34.668,48.340,19.043,0
12924.455,54.199,463.379,40.527,48.340,-1.465,0
12924.459,46.387,217.285,36.133,36.133,83.496,0
12924.463,48.340,-499.512,34.180,38.574,76.172,0
12924.467,53.223,-309.082,35.156,34.668,65.918,0
12924.471,51.758,501.465,27.832,32.715,101.074,0
12924.475,39.551,253.418,26.367,37.109,41.992,0
12924.479,38.574,-386.719,30.762,35.156,3.418,0
12924.483,37.109,-256.836,32.227,29.297,63.477,0
12924.487,32.227,330.078,33.203,26.855,46.875,0
12924.491,28.809,341.309,34.180,34.180,25.879,0
12924.494,30.273,-232.910,41.504,35.156,86.426,0
12924.498,44.434,-292.969,48.340,42.480,101.562,0
12924.502,54.688,175.293,57.129,53.711,17.578,0
12924.506,58.594,166.992,58.105,44.922,-28.320,0
12924.510,50.293,-162.598,36.621,35.645,-15.137,0
12924.514,27.832,-394.531,17.578,30.762,37.109,0
12924.518,23.926,97.656,13.184,22.461,49.805,0
12924.522,33.203,514.160,20.508,25.391,76.660,0
12924.526,35.645,182.129,24.902,32.715,124.512,0
12924.530,29.297,-355.469,29.297,33.203,73.730,0
12924.534,26.855,-193.359,29.785,30.273,23.926,0
12924.537,37.109,308.105,40.039,21.484,0.488,0
12924.541,36.621,178.711,43.945,19.043,6.836,0
12924.545,31.250,-604.980,43.457,19.531,2.441,0
12924.549,34.668,-509.277,42.969,19.043,4.883,0
12924.553,35.156,342.285,24.902,18.066,12.695,0
12924.557,34.180,471.680,27.344,25.879,32.715,0
12924.561,22.461,-106.934,42.480,34.180,28.320,0
12924.565,21.484,-505.371,40.039,31.738,-39.551,0
12924.569,41.992,159.180,35.156,37.109,53.223,0
12924.573,39.551,559.082,29.785,43.457,89.844,0
12924.577,42.969,83.984,35.645,46.387,37.109,0
12924.580,47.363,-403.809,40.039,43.457,23.438,0
12924.584,33.691,-95.215,32.227,33.203,26.367,0
12924.588,37.109,397.461,31.250,34.180,79.102,0
12924.592,35.156,141.602,37.598,43.945,53.223,0
12924.596,21.484,-436.523,41.016,38.086,12.207,0
12924.600,20.508,-130.371,34.668,23.438,11.719,0
12924.604,20.996,329.590,28.809,31.250,61.523,0
12924.608,27.832,164.551,32.715,41.992,85.938,0
12924.612,30.273,-222.656,34.668,38.574,70.312,0
12924.616,21.973,-220.215,26.855,31.250,84.961,0
12924.619,24.414,365.723,27.344,27.832,51.270,0
12924.623,29.785,406.250,36.621,35.156,-11.230,0
12924.627,25.391,-105.957,38.086,31.738,30.762,0
12924.631,20.996,-411.133,35.156,13.184,78.613,0
12924.635,33.691,8.789,34.668,11.719,22.461,0
12924.639,39.062,450.195,34.668,14.648,-21.973,0
12924.643,33.203,25.391,42.969,27.344,37.109,0
12924.647,27.344,-698.242,44.922,27.344,11.230,0
12924.651,31.250,-211.426,30.273,27.344,-11.719,0
12924.655,35.156,437.988,23.438,38.574,-11.719,0
12924.659,29.785,263.672,28.809,35.645,-23.438,0
12924.662,35.156,-384.277,37.598,36.621,7.812,0
12924.666,42.969,-247.559,38.086,43.457,53.223,0
12924.670,51.758,487.305,34.180,51.758,80.078,0
12924.674,48.828,443.848,25.879,56.152,44.922,0
12924.678,48.828,-237.793,32.227,63.965,30.762,0
12924.682,38.086,-457.031,41.016,44.434,36.621,0
12924.686,25.879,-2.441,29.785,20.020,15.625,0
12924.690,32.715,314.453,25.879,28.320,-19.531,0
12924.694,26.855,-44.922,33.691,27.832,-41.504,0
12924.698,13.184,-369.629,32.227,13.184,18.066,0
12924.702,19.531,99.609,34.180,20.996,31.250,0
12924.705,31.738,431.641,29.297,22.461,-10.254,0
12924.709,42.969,102.539,21.484,29.297,10.254,0
12924.713,46.875,-509.277,40.039,43.457,-20.508,0
12924.717,31.738,-145.020,38.086,20.020,-36.133,0
12924.721,15.625,472.656,18.066,1.953,4.395,0
12924.725,11.230,211.426,18.066,8.301,16.113,0
12924.729,10.254,-456.055,27.344,15.137,16.113,0
12924.733,25.879,-319.824,28.809,18.066,39.062,0
12924.737,35.645,380.371,30.762,23.438,20.996,0
12924.741,30.762,446.777,31.250,26.367,-27.344,0
12924.744,36.621,-344.238,36.621,33.203,6.348,0
12924.748,53.711,-635.254,43.945,32.227,-3.418,0
12924.752,58.594,194.824,39.062,35.156,-22.461,0
12924.756,51.758,542.480,25.879,32.227,29.785,0
12924.760,51.270,93.750,31.250,35.156,59.570,0
12924.764,45.410,-416.992,39.062,41.016,63.965,0
12924.768,32.227,-37.598,29.785,27.344,29.785,0
12924.772,21.973,399.414,28.809,27.344,8.301,0
12924.776,20.508,91.309,27.832,37.109,42.480,0
12924.780,20.996,-459.961,31.250,35.156,28.809,0
12924.784,26.855,-355.957,43.945,41.992,15.625,0
12924.787,28.809,204.102,39.062,32.715,41.992,0
12924.791,25.391,327.637,29.297,9.766,20.508,0
12924.795,21.973,-251.465,30.273,9.766,-11.719,0
12924.799,28.809,-235.352,32.715,17.578,20.020,0
12924.803,34.668,352.539,35.156,16.113,40.039,0
12924.807,35.645,394.043,35.645,18.066,-13.672,0
12924.811,41.992,-100.586,40.039,31.738,-19.531,0
12924.815,42.480,-376.953,40.527,39.551,5.859,0
12924.819,39.551,128.418,23.926,31.250,-0.488,0
12924.823,30.762,335.449,20.996,27.344,16.113,0
12924.827,26.855,-244.141,33.203,25.391,-0.488,0
12924.830,34.180,-518.066,38.086,33.203,18.066,0
12924.834,37.109,98.145,34.180,36.621,84.961,0
12924.838,37.598,577.148,29.297,39.551,46.875,0
12924.842,31.250,229.492,28.809,41.992,26.855,0
12924.846,21.484,-388.672,35.156,28.320,57.129,0
12924.850,30.273,-121.582,48.340,35.156,58.594,0
12924.854,27.832,469.238,46.875,36.133,28.320,0
12924.858,10.742,444.336,29.785,25.391,40.039,0
12924.862,1.953,-199.707,29.785,26.855,54.688,0
12924.866,1.953,-451.172,32.227,26.855,19.531,0
12924.869,20.508,195.312,26.367,36.621,47.852,0
12924.873,23.926,504.395,28.809,42.969,85.938,0
12924.877,19.043,2.441,41.504,41.016,42.480,0
12924.881,19.531,-358.398,38.574,30.762,50.293,0
12924.885,25.879,-4.883,27.344,27.832,61.523,0
12924.889,38.086,402.344,22.461,27.832,36.621,0
12924.893,42.969,197.266,18.555,22.949,72.266,0
12924.897,47.852,-401.367,36.621,26.855,5.371,0
12924.901,45.898,-63.965,55.664,29.785,2.441,0
12924.905,36.133,403.809,47.852,22.949,34.180,0
12924.909,25.879,219.238,34.180,27.832,17.578,0
12924.912,22.461,-411.133,41.504,30.273,15.137,0
12924.916,30.762,-356.445,44.434,24.902,5.371,0
12924.920,42.969,443.848,34.180,24.414,25.391,0
12924.924,57.617,245.605,30.273,17.090,2.930,0
12924.928,83.496,-545.898,42.969,18.066,-82.520,0
12924.932,87.891,-416.992,46.387,6.836,-48.340,0
12924.936,76.172,337.402,41.016,-10.254,57.617,0
12924.940,62.988,595.703,40.039,-3.906,89.355,0
12924.944,32.715,-35.645,34.668,10.254,36.621,0
12924.948,8.789,-530.273,30.273,21.973,-39.551,0
12924.952,3.906,99.609,28.809,26.367,13.672,0
12924.955,10.742,523.926,42.480,41.504,24.414,0
12924.959,6.836,92.285,50.781,47.852,4.883,0
12924.963,-7.812,-651.367,42.969,36.621,0.977,0
12924.967,-5.859,-478.027,26.367,27.832,-53.223,0
12924.971,-2.441,378.418,22.949,25.879,-18.555,1
12924.975,8.789,373.047,37.109,35.156,33.691,0
12924.979,19.531,-302.246,44.434,32.715,-14.160,0
12924.983,26.367,-319.824,43.457,22.461,-7.812,0
12924.987,38.574,305.176,47.363,34.180,16.113,0
12924.991,33.203,422.363,48.340,37.109,23.926,0
12924.994,40.527,-134.277,58.105,41.504,22.949,0
12924.998,39.062,-350.586,51.758,39.551,-1.953,0
12925.002,14.648,136.719,25.391,17.578,-13.672,0
12925.006,19.043,332.031,18.066,13.184,-3.418,0
12925.010,24.902,-63.477,23.926,20.996,43.945,0
12925.014,10.254,-488.281,34.180,19.043,44.434,0
12925.018,18.555,52.734,33.203,15.137,37.598,0
12925.022,35.645,477.539,30.762,22.949,4.395,0
12925.026,37.109,-69.824,40.039,24.902,-7.812,0
12925.030,25.879,-546.387,42.969,19.043,14.648,0
12925.034,13.184,-166.992,26.367,21.484,-15.137,0
12925.037,12.207,463.379,17.090,15.137,5.371,0
12925.041,17.578,368.652,29.297,15.137,41.016,0
12925.045,4.395,-337.891,24.902,16.113,10.742,0
12925.049,-3.906,-327.148,17.578,7.324,-7.324,0
12925.053,4.883,214.355,37.109,6.348,-10.254,0
12925.057,11.230,304.688,46.387,10.742,-28.320,0
12925.061,11.719,-111.816,49.805,23.926,32.227,0
12925.065,12.207,-624.023,44.434,20.996,49.805,0
12925.069,12.695,-85.938,28.320,3.418,13.184,0
12925.073,11.719,500.000,26.367,8.301,7.324,0
12925.077,17.090,107.910,29.297,16.602,27.344,0
12925.080,19.531,-372.070,37.598,13.184,57.617,0
12925.084,21.484,24.414,34.668,6.348,115.723,0
12925.088,27.344,555.664,16.113,8.301,113.281,0
12925.092,23.926,277.344,15.137,2.441,35.645,0
12925.096,13.672,-373.047,22.949,-6.348,12.695,0
12925.100,22.461,-256.348,20.020,5.371,34.668,0
12925.104,24.902,136.719,13.184,11.719,0.977,0
12925.108,22.949,94.727,24.414,10.742,7.812,0
12925.112,23.438,-204.590,32.227,13.184,72.266,0
12925.116,19.531,-259.277,27.832,10.742,58.105,0
12925.119,34.180,306.641,37.109,15.625,65.918,0
12925.123,42.480,373.535,49.805,29.297,34.668,0
12925.127,25.391,-103.516,43.457,18.066,13.672,0
12925.131,5.371,-366.699,29.785,1.953,42.480,0
12925.135,3.906,137.695,21.484,7.812,41.504,0
12925.139,7.812,525.879,17.090,9.277,19.043,0
12925.143,13.184,45.898,23.438,22.949,-12.695,0
12925.147,17.578,-571.289,32.715,32.227,7.812,0
12925.151,5.859,-203.613,23.926,20.020,37.109,0
12925.155,0.488,429.688,23.926,10.742,73.730,0
12925.159,8.301,360.840,26.367,18.555,77.148,0
12925.162,8.301,-385.254,22.461,36.133,21.484,0
12925.166,17.578,-522.949,26.855,20.508,0.000,0
12925.170,32.227,306.641,33.203,12.207,46.875,0
12925.174,32.715,509.277,33.691,33.691,67.871,0
12925.178,32.227,-174.805,42.480,41.016,41.016,0
12925.182,32.227,-493.164,41.992,40.039,21.973,0
12925.186,29.297,177.246,21.973,24.414,45.898,0
12925.190,25.391,505.859,18.066,15.625,16.113,0
12925.194,26.855,-75.195,27.832,24.902,8.301,0
12925.198,33.691,-545.898,31.250,35.156,24.414,0
12925.202,40.527,-46.875,28.809,33.203,4.395,0
12925.205,37.598,226.074,34.668,28.320,-15.625,0
12925.209,33.203,-49.805,38.086,34.180,-18.555,0
12925.213,34.180,-375.977,39.062,45.410,22.949,0
12925.217,43.945,-78.125,31.250,49.316,44.922,0
12925.221,54.199,492.188,30.273,50.781,37.598,0
12925.225,50.293,241.699,38.086,50.781,-28.320,0
12925.229,43.457,-384.277,35.156,45.410,-67.383,0
12925.233,35.645,-222.656,31.738,37.598,37.598,0
12925.237,20.508,379.883,29.297,24.414,68.359,0
12925.241,20.020,291.504,37.109,26.367,-34.180,0
12925.244,29.297,-473.145,46.387,35.156,-54.199,0
12925.248,21.484,-654.785,30.273,18.555,0.977,0
12925.252,11.230,214.844,16.602,6.348,28.809,0
12925.256,11.230,539.551,19.043,7.324,22.949,0
12925.260,10.742,64.453,20.508,6.836,5.859,0
12925.264,11.230,-457.520,21.973,10.254,6.348,0
12925.268,24.414,8.301,24.414,12.695,41.016,0
12925.272,29.297,520.996,35.156,21.973,11.719,0
12925.276,17.090,246.094,35.156,18.066,31.738,0
12925.280,9.766,-314.941,26.855,8.301,63.965,0
12925.284,21.484,-244.141,35.645,11.719,-17.090,0
12925.287,20.508,315.430,33.203,16.602,20.996,0
12925.291,17.578,288.086,25.391,20.020,62.988,0
12925.295,26.367,-333.008,37.598,29.785,47.852,0
12925.299,24.902,-333.496,37.598,19.043,38.086,0
12925.303,26.855,240.723,30.762,12.207,49.316,0
12925.307,33.691,212.402,31.738,28.320,26.367,0
12925.311,41.992,-201.660,36.133,41.504,-31.250,0
12925.315,58.105,-353.516,53.711,53.711,47.363,0
12925.319,47.852,239.746,48.340,48.828,85.938,0
12925.323,23.438,509.277,32.227,30.273,57.129,0
12925.327,18.066,32.227,17.090,25.391,24.414,0
12925.330,10.254,-462.402,12.695,23.438,-30.762,0
12925.334,11.230,-153.809,19.043,12.695,22.949,0
12925.338,18.555,361.816,26.855,15.625,42.969,0
12925.342,21.973,151.367,36.621,18.066,10.742,0
12925.346,25.879,-607.422,40.039,17.578,31.738,0
12925.350,35.156,-350.098,27.344,12.207,28.320,0
12925.354,38.086,474.121,17.578,14.160,66.895,0
12925.358,43.457,367.676,39.551,32.715,45.898,0
12925.362,39.551,-311.523,48.340,33.691,-4.883,0
12925.366,23.438,-430.664,30.762,23.438,-6.836,0
12925.369,20.508,270.020,33.203,15.137,5.859,0
12925.373,26.367,550.781,52.734,18.066,65.918,0
12925.377,16.113,20.508,39.551,14.160,62.012,0
12925.381,1.953,-475.098,20.508,2.930,26.855,0
12925.385,0.488,-192.871,21.484,2.441,25.391,0
12925.389,9.766,295.410,21.484,11.230,27.832,0
12925.393,15.137,176.270,27.832,16.113,49.316,0
12925.397,15.137,-384.766,37.109,21.973,29.785,0
12925.401,22.461,-128.418,39.551,25.879,-25.391,0
12925.405,22.949,439.941,31.250,15.137,20.996,0
12925.409,13.184,302.734,27.344,12.695,30.273,0
12925.412,12.695,-416.504,31.738,19.531,-4.883,0
12925.416,22.461,-317.871,22.461,25.879,60.547,0
12925.420,40.039,422.363,12.207,33.203,55.664,0
12925.424,39.551,401.855,10.254,32.715,16.602,0
12925.428,30.762,-271.484,20.996,24.902,16.602,0
12925.432,34.180,-479.980,32.715,17.090,35.156,0
12925.436,43.945,158.203,33.203,18.555,39.062,0
12925.440,56.641,539.062,46.875,33.691,19.043,0
12925.444,44.434,-126.953,48.340,35.156,-4.883,0
12925.448,20.020,-727.539,28.809,20.996,-16.113,0
12925.452,20.996,-30.762,33.203,20.508,-22.949,0
12925.455,27.344,536.133,46.387,24.414,13.184,0
12925.459,23.926,214.355,41.504,21.484,8.789,0
12925.463,23.926,-445.312,33.691,18.555,2.930,0
12925.467,30.762,-204.102,38.574,16.113,-1.953,0
12925.471,36.133,402.832,39.062,18.555,-23.926,0
12925.475,33.691,160.156,30.762,23.926,-41.504,0
12925.479,38.574,-460.938,30.273,23.926,-46.875,0
12925.483,28.809,-489.258,26.367,9.277,-10.254,0
12925.487,20.508,86.426,19.043,3.418,28.809,0
12925.491,33.203,388.672,21.973,17.090,37.109,0
12925.494,32.227,-102.051,25.879,24.414,1.953,0
12925.498,26.367,-362.793,25.391,16.602,0.488,0
12925.502,30.273,146.484,35.645,12.695,13.184,0
12925.506,22.461,419.922,38.574,15.625,32.715,0
12925.510,5.859,63.965,32.227,9.277,20.508,0
12925.514,-1.465,-439.453,37.109,3.418,-8.301,0
12925.518,2.441,-12.207,35.156,-3.418,-7.324,0
12925.522,19.043,416.016,35.645,6.836,41.504,0
12925.526,38.086,119.629,43.945,28.809,62.012,0
12925.530,33.203,-437.012,40.527,36.133,7.812,0
12925.534,30.273,-256.836,37.598,27.344,25.879,0
12925.537,34.668,435.059,36.133,20.996,27.344,0
12925.541,32.715,397.949,41.016,39.551,13.184,0
12925.545,34.668,-462.891,50.781,48.340,35.645,0
12925.549,46.387,-487.305,42.969,29.785,77.148,0
12925.553,43.945,392.578,30.273,21.484,87.891,0
12925.557,38.086,494.629,35.645,30.762,11.719,0
12925.561,32.227,-84.961,38.574,37.109,-10.254,0
12925.565,28.320,-468.750,25.391,24.414,7.812,0
12925.569,25.391,45.898,23.926,8.789,44.922,0
12925.573,36.133,452.148,36.133,25.391,66.895,0
12925.577,30.273,83.496,20.020,24.902,17.090,0
12925.580,9.766,-410.156,17.578,18.066,-13.184,0
12925.584,9.766,-208.008,28.320,15.625,33.203,0
12925.588,13.184,248.047,30.273,1.465,67.871,0
12925.592,21.973,156.250,34.668,6.348,4.883,0
12925.596,22.461,-408.203,34.668,17.578,-33.691,0
12925.600,29.785,-202.637,36.621,29.785,15.625,0
12925.604,46.387,376.953,41.992,48.828,14.648,0
12925.608,44.434,392.578,36.621,53.223,27.832,0
12925.612,37.598,-253.906,27.344,38.574,-56.641,0
12925.616,26.367,-502.441,22.949,24.414,-61.523,0
12925.619,34.668,174.805,21.484,22.461,22.949,0
12925.623,58.594,272.461,23.926,15.137,0.000,0
12925.627,73.242,-256.836,29.785,3.906,63.477,0
12925.631,82.031,-407.715,29.785,-0.977,84.961,0
12925.635,85.449,145.020,24.902,-4.883,41.504,0
12925.639,80.078,568.848,33.691,6.836,34.180,0
12925.643,63.477,204.590,47.852,27.344,90.820,2
12925.647,41.504,-414.062,37.109,27.832,65.918,0
12925.651,26.855,-134.766,22.949,22.461,27.344,0
12925.655,24.414,493.652,22.949,39.551,59.570,0
12925.659,23.926,388.184,30.273,50.781,44.434,0
12925.662,20.996,-404.785,28.320,51.758,36.621,0
12925.666,26.855,-557.129,17.090,39.062,27.344,0
12925.670,32.227,271.973,16.113,34.668,20.508,0
12925.674,21.973,457.031,23.926,34.668,-2.930,0
12925.678,16.113,-143.066,31.250,31.738,-15.137,0
12925.682,14.648,-413.086,32.715,36.133,-3.906,0
12925.686,15.137,133.301,30.762,26.855,-3.906,0
12925.690,20.020,469.238,30.762,20.996,-31.738,0
12925.694,24.414,8.789,43.457,33.691,-25.879,0
12925.698,18.555,-368.164,44.922,29.785,53.223,0
12925.702,22.461,41.992,40.527,24.414,44.434,0
12925.705,20.020,417.480,40.527,28.320,-3.906,0
12925.709,12.695,95.703,37.598,30.762,-0.488,0
12925.713,22.949,-518.555,41.016,36.621,29.785,0
12925.717,29.785,-239.258,36.133,28.320,62.500,0
12925.721,37.598,499.512,35.645,35.645,84.961,0
12925.725,31.250,163.574,44.434,40.527,33.203,0
12925.729,9.277,-511.719,39.551,23.438,19.043,0
12925.733,-2.441,-249.023,27.344,11.230,52.246,0
12925.737,6.348,393.555,17.090,14.648,37.598,0
12925.741,14.160,534.180,18.555,19.043,61.523,0
12925.744,6.348,-112.305,29.297,16.602,51.758,0
12925.748,12.695,-442.871,31.738,21.484,-0.488,0
12925.752,24.414,182.617,31.250,22.461,5.859,0
12925.756,25.391,411.133,40.527,20.508,-1.465,0
12925.760,18.066,-41.016,40.527,19.531,-4.883,0
12925.764,15.625,-618.652,35.645,18.066,38.086,0
12925.768,29.785,-298.828,31.738,12.695,59.570,0
12925.772,41.016,457.031,30.273,20.508,51.270,0
12925.776,30.273,277.344,49.316,41.016,31.738,0
12925.780,22.461,-344.727,50.781,36.621,25.391,0
12925.784,14.648,-196.289,29.297,14.160,64.941,0
12925.787,17.090,443.848,32.715,10.254,85.449,0
12925.791,17.578,437.500,36.133,8.301,57.617,0
12925.795,17.090,-249.023,32.715,13.672,4.395,0
12925.799,19.043,-316.895,28.320,12.207,13.672,0
12925.803,14.648,91.309,20.996,12.207,-20.508,0
12925.807,18.555,148.926,22.461,12.695,-18.066,0
12925.811,19.531,-141.602,33.691,6.836,9.277,0
12925.815,19.531,-432.129,44.434,3.906,12.207,0
12925.819,26.367,110.840,48.340,11.230,-3.906,0
12925.823,31.738,394.531,57.129,25.391,-6.348,0
12925.827,34.668,-122.070,58.105,24.902,7.324,0
12925.830,24.902,-568.359,37.598,21.973,-35.645,0
12925.834,21.973,-166.992,17.090,19.043,-13.184,0
12925.838,45.410,470.215,29.297,33.691,25.391,0
12925.842,40.039,233.398,34.180,38.086,21.973,0
12925.846,17.578,-446.289,27.832,27.832,21.973,0
12925.850,16.113,-359.863,27.344,20.020,3.418,0
12925.854,26.367,237.305,26.855,22.461,14.160,0
12925.858,31.250,337.402,31.738,31.738,-8.301,0
12925.862,32.227,-195.312,34.180,25.391,27.832,0
12925.866,39.062,-557.617,43.457,21.973,89.844,0
12925.869,52.246,114.258,48.340,38.574,83.496,0
12925.873,51.270,506.836,47.852,40.039,25.879,0
12925.877,41.504,16.602,44.434,33.691,35.156,0
12925.881,30.273,-374.512,35.645,20.020,86.426,0
12925.885,20.996,-44.922,26.367,10.254,34.180,0
12925.889,42.969,396.973,27.344,34.668,-20.508,0
12925.893,39.551,147.949,37.109,43.457,-1.953,0
12925.897,13.672,-542.480,27.832,26.367,0.000,0
12925.901,17.578,-232.910,18.066,17.090,21.484,0
12925.905,21.484,234.863,29.785,13.184,25.391,0
12925.909,26.855,32.227,35.156,17.090,1.953,0
12925.912,28.809,-315.430,35.156,19.043,36.133,0
12925.916,29.297,-241.211,39.551,23.926,57.129,0
12925.920,46.875,389.160,40.039,43.457,58.594,0
12925.924,46.387,437.988,33.691,48.340,80.566,0
12925.928,34.180,-122.070,31.250,39.551,97.168,0
12925.932,36.133,-367.676,30.273,34.668,55.664,0
12925.936,40.527,222.168,32.715,32.715,68.359,0
12925.940,40.039,494.629,42.480,34.180,44.434,0
12925.944,26.367,-116.211,44.434,25.391,17.090,0
12925.948,11.230,-690.918,35.645,2.441,-5.859,0
12925.952,16.602,-199.219,31.738,1.465,-4.883,0
12925.955,29.297,410.156,35.645,19.043,49.805,0
12925.959,26.855,218.750,43.945,27.832,55.664,0
12925.963,34.180,-607.422,49.805,33.203,-12.207,0
12925.967,46.387,-568.848,40.527,34.668,-57.617,0
12925.971,70.801,303.223,48.828,57.129,-10.254,0
12925.975,66.895,321.777,54.199,57.129,30.762,0
12925.979,39.062,-294.434,34.180,30.762,49.805,0
12925.983,29.785,-382.812,21.973,22.949,71.777,0
12925.987,25.879,205.566,21.973,23.926,44.434,0
12925.991,25.391,291.016,25.391,27.344,0.000,0
12925.994,14.160,-336.914,26.855,21.484,-2.930,0
12925.998,17.578,-523.438,31.738,25.391,19.043,0
12926.002,33.691,-30.273,32.227,33.691,8.789,0
12926.006,33.203,97.656,36.133,27.344,-13.184,0
12926.010,40.039,-146.484,49.805,34.180,1.465,0
12926.014,35.156,-455.566,41.992,36.133,54.199,0
12926.018,25.391,-55.176,25.879,28.809,64.941,0
12926.022,27.832,463.867,16.113,29.785,98.633,0
12926.026,27.344,112.305,17.090,28.809,38.086,0
12926.030,29.785,-490.234,34.668,31.250,-34.668,0
12926.034,22.461,-269.043,34.180,35.156,31.250,0
12926.037,22.461,272.461,21.973,26.367,43.945,0
12926.041,35.645,156.250,20.996,29.297,-13.672,0
12926.045,30.762,-635.254,20.020,37.109,-37.598,0
12926.049,31.738,-627.930,29.297,32.227,33.203,0
12926.053,41.504,249.512,32.715,26.367,52.246,0
12926.057,44.922,447.754,33.691,28.320,39.551,0
12926.061,40.527,-188.477,44.434,31.250,17.090,0
12926.065,34.668,-615.234,36.133,29.785,3.418,0
12926.069,41.016,22.949,21.973,30.273,17.090,0
12926.073,48.340,467.773,30.762,34.668,27.832,0
12926.077,41.992,149.414,41.016,40.527,92.773,0
12926.080,41.016,-421.875,41.504,46.387,65.430,0
12926.084,39.062,-283.203,34.668,33.203,-20.508,0
12926.088,34.180,244.629,23.926,26.367,-3.418,0
12926.092,28.320,172.852,22.461,36.621,0.000,0
12926.096,33.203,-446.289,31.738,44.434,-41.992,0
12926.100,55.176,-320.801,34.668,48.340,-41.992,0
12926.104,54.688,144.043,27.832,48.340,-32.227,0
12926.108,44.434,112.793,31.738,46.875,-3.418,0
12926.112,37.109,-232.422,41.016,41.016,14.648,0
12926.116,38.086,-386.230,36.621,40.527,21.484,0
12926.119,36.133,165.039,26.367,43.457,18.066,0
12926.123,37.109,354.004,26.367,34.180,27.344,0
12926.127,41.504,-144.531,30.273,23.438,-16.602,0
12926.131,38.086,-584.961,38.086,27.832,-34.180,0
12926.135,37.109,-116.699,42.480,29.785,35.645,0
12926.139,33.691,432.129,40.039,16.113,-0.488,0
12926.143,22.461,61.523,39.551,17.090,10.742,0
12926.147,30.762,-663.574,39.551,29.785,49.805,0
12926.151,33.691,-241.699,34.180,31.738,22.949,0
12926.155,29.297,479.004,30.762,26.855,42.480,0
12926.159,26.367,326.660,24.414,16.602,12.207,0
12926.162,20.996,-320.312,23.926,29.297,46.875,0
12926.166,34.668,-354.980,36.133,34.668,41.016,0
12926.170,39.551,327.148,36.621,19.531,-2.441,0
12926.174,31.738,483.398,32.715,26.367,67.871,0
12926.178,40.527,-239.746,42.969,48.340,-11.719,0
12926.182,43.945,-606.934,41.504,44.922,-34.180,0
12926.186,28.320,-71.289,25.391,20.020,64.941,0
12926.190,29.297,327.637,22.461,20.996,12.207,0
12926.194,26.367,86.426,28.809,28.320,44.434,0
12926.198,15.625,-358.398,26.855,27.344,75.195,0
12926.202,10.742,22.461,20.020,11.230,58.105,0
12926.205,17.090,456.055,22.949,12.207,45.898,0
12926.209,31.738,198.730,21.973,19.043,0.488,0
12926.213,36.133,-358.887,28.320,17.090,27.344,0
12926.217,28.809,-124.023,29.785,15.137,65.918,0
12926.221,28.809,458.496,32.715,7.324,24.902,0
12926.225,32.715,257.324,41.992,4.395,13.184,0
12926.229,40.039,-368.164,45.410,21.484,-14.648,0
12926.233,41.504,-323.730,43.457,25.391,-18.066,0
12926.237,34.180,295.898,29.785,13.672,37.598,0
12926.241,31.250,435.059,28.809,33.203,27.832,0
12926.244,19.531,-298.340,31.738,27.832,-26.855,0
12926.248,8.301,-641.602,24.414,4.395,-24.902,0
12926.252,10.742,117.188,24.414,11.719,-9.766,0
12926.256,14.648,452.148,23.926,15.137,-15.137,0
12926.260,23.438,79.102,26.855,21.484,-14.160,0
12926.264,23.926,-447.754,27.344,30.273,8.301,0
12926.268,21.973,-70.312,18.555,20.508,23.926,0
12926.272,16.113,448.730,26.367,10.254,32.227,0
12926.276,17.578,111.328,41.504,24.902,-7.324,0
12926.280,22.461,-386.719,46.875,32.227,-20.996,2
12926.284,24.902,-270.508,40.039,18.555,74.219,0
12926.287,22.461,196.777,29.785,13.672,69.824,0
12926.291,18.066,408.691,28.809,19.531,41.504,0
12926.295,19.531,-189.453,37.109,28.320,30.762,0
12926.299,21.973,-387.695,35.156,25.391,18.555,0
12926.303,21.484,253.418,28.809,18.555,24.414,0
12926.307,21.484,482.910,34.180,20.996,35.156,0
12926.311,12.695,66.406,36.133,20.020,64.941,0
12926.315,10.254,-347.168,31.738,16.113,56.641,0
12926.319,9.766,37.109,25.391,7.812,5.859,0
12926.323,12.695,351.562,33.691,10.254,18.066,0
12926.327,32.227,-88.379,63.477,25.879,40.039,0
12926.330,22.461,-528.320,52.734,21.484,-11.719,0
12926.334,8.789,-120.117,31.738,6.348,-44.922,0
12926.338,20.020,490.234,32.227,7.812,-27.344,0
12926.342,27.832,304.199,28.809,14.648,8.301,0
12926.346,33.203,-365.234,28.320,4.395,16.602,0
12926.350,49.805,-210.938,28.809,-13.672,19.531,0
12926.354,65.918,402.344,29.297,-20.020,52.246,0
12926.358,77.637,395.020,28.809,-13.184,27.832,0
12926.362,73.730,-191.895,28.320,-1.465,-13.672,0
12926.366,51.758,-464.844,30.273,8.301,4.883,0
12926.369,44.434,150.391,36.133,22.461,54.199,0
12926.373,43.945,439.453,42.480,34.180,24.902,0
12926.377,33.691,-7.324,43.945,44.434,-49.316,0
12926.381,32.227,-438.965,34.180,46.387,-33.691,0
12926.385,35.156,-32.227,31.250,44.922,2.441,0
12926.389,48.828,523.438,49.316,45.410,34.668,0
12926.393,37.109,283.691,53.223,39.062,63.477,0
12926.397,11.230,-329.590,37.109,31.250,40.527,0
12926.401,11.719,-123.535,25.391,18.066,3.418,0
12926.405,22.461,409.668,27.344,19.043,9.277,0
12926.409,22.949,321.777,31.738,22.461,10.742,0
12926.412,18.555,-322.266,31.738,20.508,23.438,0
12926.416,25.879,-399.414,28.809,27.344,21.973,0
12926.420,28.320,232.422,29.785,24.414,1.953,0
12926.424,23.438,337.891,35.645,11.719,32.227,0
12926.428,21.484,-177.734,44.922,22.461,65.918,0
12926.432,17.090,-462.891,46.875,36.621,34.668,0
12926.436,21.973,83.008,38.086,29.297,17.578,0
12926.440,19.531,484.863,22.949,27.344,47.852,0
12926.444,6.348,-53.223,30.762,38.574,35.156,0
12926.448,0.488,-807.617,44.434,31.250,36.621,0
12926.452,-1.465,-218.262,35.156,16.113,79.590,0
12926.455,5.859,572.266,20.508,17.578,52.734,0
12926.459,24.902,255.859,27.344,28.320,1.465,0
12926.463,34.668,-496.094,38.086,34.668,21.484,0
12926.467,36.621,-396.973,28.320,30.273,17.090,0
12926.471,45.410,343.262,21.973,28.809,-39.551,0
12926.475,41.016,424.316,22.461,30.273,1.953,0
12926.479,28.320,-68.848,31.738,30.273,79.590,0
12926.483,18.555,-261.719,33.203,14.648,43.945,0
12926.487,21.484,284.668,26.855,0.977,-8.789,0
12926.491,35.645,524.902,31.738,14.648,-16.602,0
12926.494,35.645,-4.395,32.227,24.902,2.441,0
12926.498,27.344,-347.656,29.297,18.555,0.488,0
12926.502,33.203,154.785,31.738,18.066,35.156,0
12926.506,36.621,460.449,34.180,20.020,72.754,0
12926.510,29.785,11.230,38.574,22.949,10.742,0
12926.514,20.508,-475.586,38.086,23.438,-6.836,0
12926.518,20.508,-20.996,30.762,23.926,11.719,0
12926.522,26.855,534.180,34.180,30.762,41.992,0
12926.526,36.621,98.145,45.410,31.250,52.246,0
12926.530,38.574,-495.117,42.969,27.832,60.547,0
12926.534,36.133,-216.797,36.133,14.160,36.621,0
12926.537,47.363,449.219,42.480,28.809,12.695,0
12926.541,58.105,460.938,49.805,45.410,36.621,0
12926.545,41.504,-234.863,31.250,37.109,4.883,0
12926.549,25.879,-335.449,20.996,19.043,26.855,0
12926.553,36.621,228.027,31.250,-3.906,32.715,0
12926.557,48.340,340.820,17.578,7.324,-20.996,0
12926.561,40.039,5.371,5.859,22.461,32.715,0
12926.565,33.691,-565.430,25.879,15.625,53.223,0
12926.569,34.668,-188.965,35.645,13.184,-3.418,0
12926.573,33.203,533.691,41.016,21.973,20.508,0
12926.577,30.762,217.773,47.363,29.297,30.762,0
12926.580,24.902,-367.188,40.527,28.320,24.902,0
12926.584,17.578,-91.797,36.133,29.297,59.082,0
12926.588,19.531,385.742,39.551,26.855,-9.766,0
12926.592,16.113,260.742,38.086,10.742,-28.320,0
12926.596,8.789,-319.336,29.785,7.812,-14.648,0
12926.600,18.066,-369.141,23.438,19.531,-33.203,0
12926.604,27.344,80.566,26.367,21.484,-28.809,0
12926.608,20.996,107.910,25.879,20.508,-44.922,0
12926.612,17.578,-210.938,25.879,27.344,-23.438,0
12926.616,28.320,-354.980,33.691,35.156,5.859,0
12926.619,39.062,252.930,38.086,32.715,21.484,0
12926.623,38.086,523.438,40.039,32.715,61.523,0
12926.627,34.180,60.547,34.180,32.715,83.984,0
12926.631,26.855,-378.906,27.344,21.484,40.039,0
12926.635,22.949,51.270,27.344,5.371,27.832,0
12926.639,27.832,568.359,23.438,3.906,45.898,0
12926.643,24.414,220.703,26.855,19.531,70.312,0
12926.647,18.555,-515.625,36.621,24.414,42.480,0
12926.651,14.160,-259.277,29.297,16.602,59.570,0
12926.655,13.672,334.473,28.809,15.625,43.945,0
12926.659,23.926,299.316,47.363,28.809,13.672,0
12926.662,16.113,-339.844,45.410,27.832,-3.418,0
12926.666,1.953,-577.148,29.785,14.648,8.301,0
12926.670,5.859,256.348,20.508,0.488,57.129,0
12926.674,15.625,504.883,25.879,7.324,19.531,0
12926.678,20.508,-154.297,39.551,22.949,-41.992,0
12926.682,16.113,-475.098,31.738,20.020,-25.391,0
12926.686,20.020,94.727,18.555,17.578,9.766,0
12926.690,37.109,549.316,31.250,26.367,32.715,0
12926.694,27.344,32.227,36.621,33.203,28.809,0
12926.698,13.672,-492.188,26.367,28.320,40.527,0
12926.702,26.367,34.668,22.949,23.438,72.266,0
12926.705,28.320,313.477,28.320,18.066,51.270,0
12926.709,40.039,56.641,30.762,25.391,15.137,0
12926.713,52.734,-337.402,29.785,36.621,-0.977,0
12926.717,54.199,-149.414,34.180,30.273,26.367,0
12926.721,49.316,485.352,38.574,34.668,44.434,0
12926.725,48.828,377.930,41.992,47.363,24.902,0
12926.729,42.480,-236.328,43.457,32.715,-1.953,0
12926.733,29.297,-298.828,32.715,26.855,13.672,0
12926.737,25.879,328.613,20.996,33.203,16.602,0
12926.741,23.926,396.484,32.227,36.621,-4.883,0
12926.744,28.809,-225.586,44.434,42.969,-10.742,0
12926.748,29.785,-452.637,41.016,41.992,28.320,0
12926.752,38.574,204.590,43.457,43.945,83.496,0
12926.756,47.852,602.051,41.504,55.176,88.867,0
12926.760,36.133,235.352,22.461,46.387,59.570,0
12926.764,14.160,-549.316,16.602,26.367,26.855,0
12926.768,5.371,-312.500,16.602,18.066,29.785,0
12926.772,14.160,525.391,19.043,26.367,57.617,0
12926.776,24.414,372.559,20.508,30.273,57.617,0
12926.780,27.832,-286.133,19.043,30.762,27.344,0
12926.784,34.668,-262.695,29.297,33.203,34.668,0
12926.787,41.504,352.539,33.203,26.855,89.844,2
12926.791,42.969,356.445,36.621,28.809,62.012,0
12926.795,38.574,-286.621,45.410,35.156,-8.301,0
12926.799,39.551,-297.852,49.316,39.551,44.922,0
12926.803,51.270,225.098,45.898,33.691,69.336,0
12926.807,53.711,269.043,43.945,26.367,41.992,0
12926.811,44.922,-38.086,47.363,36.621,33.203,0
12926.815,45.410,-382.324,42.480,36.621,15.137,0
12926.819,46.875,54.688,35.156,30.762,-29.785,0
12926.823,41.992,436.523,34.180,38.086,-23.926,0
12926.827,48.828,91.797,35.156,44.922,30.762,0
12926.830,47.852,-385.254,30.762,41.504,30.762,0
12926.834,41.016,-216.309,23.438,40.039,-4.395,0
12926.838,39.062,345.215,24.414,37.598,-5.859,0
12926.842,32.715,246.094,24.902,30.273,-7.812,0
12926.846,22.461,-508.301,22.949,19.043,43.457,0
12926.850,20.508,-364.258,26.367,15.137,78.613,0
12926.854,33.203,413.574,18.555,30.762,28.809,0
12926.858,46.387,506.348,12.207,36.133,20.508,0
12926.862,49.316,-92.285,29.785,43.945,39.551,0
12926.866,39.062,-425.293,37.598,44.434,25.879,0
12926.869,42.969,199.219,34.668,39.062,0.977,0
12926.873,50.293,549.316,35.156,31.738,17.090,0
12926.877,49.316,84.473,45.898,29.785,22.461,0
12926.881,48.828,-497.070,64.941,46.387,-5.859,0
12926.885,53.223,-323.242,58.594,41.016,-26.855,0
12926.889,52.734,237.305,40.039,24.414,-19.043,0
12926.893,39.551,270.020,48.340,25.879,40.039,0
12926.897,25.391,-307.617,49.316,21.484,50.293,0
12926.901,24.902,-135.742,34.668,13.672,30.762,0
12926.905,30.762,468.750,32.715,21.973,65.918,0
12926.909,37.109,428.223,34.668,28.809,66.895,0
12926.912,27.832,-210.449,33.691,33.691,8.301,0
12926.916,15.137,-256.836,17.578,29.785,43.945,0
12926.920,20.996,428.711,3.906,16.602,92.773,0
12926.924,20.508,468.750,7.324,7.812,29.785,0
12926.928,12.695,-216.797,8.789,8.789,-33.691,0
12926.932,10.254,-530.762,4.395,6.348,9.766,0
12926.936,19.531,75.684,3.418,8.301,26.855,0
12926.940,33.691,522.461,18.555,21.973,25.879,0
12926.944,26.367,-103.027,36.621,22.461,-7.324,0
12926.948,15.137,-696.777,40.527,12.207,0.977,0
12926.952,13.184,-82.520,36.133,3.906,3.418,0
12926.955,11.230,510.742,27.832,-2.441,-18.066,0
12926.959,13.184,302.246,23.926,7.812,0.977,0
12926.963,13.184,-343.262,29.297,11.719,42.480,0
12926.967,22.461,-238.281,41.016,19.043,26.855,0
12926.971,21.484,439.453,36.621,25.879,-4.395,0
12926.975,9.766,357.910,26.367,18.066,35.645,0
12926.979,10.254,-241.211,23.926,16.113,46.875,0
12926.983,21.973,-393.066,26.367,9.766,35.156,0
12926.987,24.414,86.914,20.996,6.836,62.988,0
12926.991,29.297,461.914,19.531,19.531,69.824,0
12926.994,25.879,60.547,27.832,26.367,39.551,0
12926.998,10.254,-397.461,24.414,22.949,25.879,0
12927.002,14.648,-30.762,22.461,24.414,-0.977,0
12927.006,23.438,430.664,26.855,22.949,1.953,0
12927.010,24.902,187.500,25.391,22.461,15.625,0
12927.014,34.668,-389.160,35.156,23.438,2.441,0
12927.018,29.297,-36.621,34.668,18.066,43.457,0
12927.022,19.043,437.500,23.438,20.508,29.785,0
12927.026,10.742,38.574,29.785,19.531,20.996,0
12927.030,8.789,-452.637,38.086,16.602,43.945,0
12927.034,17.578,-205.078,34.180,33.203,26.367,0
12927.037,20.508,404.297,37.598,35.156,-8.789,0
12927.041,18.066,446.777,44.922,30.762,-5.859,0
12927.045,20.508,-192.383,44.922,34.668,6.836,0
12927.049,39.062,-383.301,51.758,39.062,-8.789,0
12927.053,30.273,259.766,43.457,33.203,-4.883,0
12927.057,2.930,445.801,18.555,11.719,-40.527,0
12927.061,2.441,-85.938,20.996,-0.488,-35.156,0
12927.065,10.254,-504.395,33.203,1.953,-8.789,0
12927.069,8.301,-14.648,27.344,0.488,50.781,0
12927.073,0.977,427.734,19.531,-2.930,48.828,0
12927.077,5.371,122.559,29.785,1.953,-9.766,0
12927.080,7.324,-353.027,33.691,-6.836,-3.418,0
12927.084,14.648,-311.035,21.484,-15.137,-3.418,0
12927.088,40.039,212.891,28.809,-20.020,19.043,0
12927.092,60.059,339.355,36.133,-12.695,-5.371,0
12927.096,66.895,-225.586,30.273,-8.301,30.273,0
12927.100,62.500,-242.676,30.273,-13.672,77.637,0
12927.104,53.711,305.664,28.809,-1.465,9.277,0
12927.108,49.805,458.496,32.715,17.090,18.555,0
12927.112,38.574,-32.227,34.180,37.109,47.852,0
12927.116,20.020,-465.332,27.344,41.992,20.996,0
12927.119,11.230,88.379,28.320,36.133,43.945,0
12927.123,20.508,434.082,33.203,29.297,89.355,0
12927.127,21.484,-42.480,36.133,28.809,43.945,0
12927.131,12.207,-407.227,32.227,36.133,12.695,0
12927.135,24.902,23.926,29.785,41.016,31.738,0
12927.139,34.180,598.633,40.039,37.598,51.758,0
12927.143,9.766,200.195,37.109,25.391,36.621,0
12927.147,-1.953,-525.391,21.973,10.742,46.387,0
12927.151,8.789,-171.875,15.137,11.230,51.758,0
12927.155,18.066,437.012,14.648,22.949,-8.789,0
12927.159,25.391,414.062,27.832,24.902,4.395,0
12927.162,20.020,-333.496,41.504,30.273,9.277,0
12927.166,23.438,-611.816,33.691,24.902,26.367,0
12927.170,33.691,240.234,28.320,20.996,62.500,0
12927.174,28.320,545.410,32.227,21.973,44.434,0
12927.178,23.438,-63.965,36.621,20.020,28.320,0
12927.182,14.160,-451.172,36.621,18.066,28.320,0
12927.186,20.020,81.055,37.109,27.344,23.926,0
12927.190,35.156,562.988,45.898,38.086,43.945,0
12927.194,28.320,198.242,52.246,36.133,72.754,0
12927.198,22.461,-402.832,50.781,37.109,12.207,0
12927.202,27.832,-101.074,40.039,32.715,-13.184,0
12927.205,40.527,457.031,37.598,43.945,41.992,0
12927.209,37.598,226.562,41.016,53.711,65.918,0
12927.213,30.762,-436.523,43.457,36.133,51.270,0
12927.217,30.273,-243.164,45.410,20.508,39.551,0
12927.221,24.414,467.285,35.156,14.160,32.227,0
12927.225,26.855,244.141,27.832,11.230,38.574,0
12927.229,21.484,-419.922,29.297,10.742,31.738,0
12927.233,20.996,-354.492,33.203,16.602,20.508,0
12927.237,28.809,235.840,31.738,25.879,34.180,0
12927.241,29.297,456.055,25.879,17.578,6.836,0
12927.244,19.531,-78.613,33.203,8.301,-13.672,0
12927.248,20.996,-512.207,38.574,6.348,-33.203,0
12927.252,33.691,83.496,30.273,9.277,16.113,0
12927.256,33.691,449.219,32.227,17.090,42.969,0
12927.260,21.973,45.410,43.457,18.066,8.789,0
12927.264,16.602,-639.160,40.039,16.602,-1.953,0
12927.268,35.645,-437.500,28.320,19.531,-15.137,0
12927.272,41.016,421.875,27.344,30.273,14.648,0
12927.276,26.367,373.535,36.621,36.133,49.316,0
12927.280,22.461,-285.156,41.504,38.086,20.020,0
12927.284,32.715,-328.125,30.762,33.691,0.488,0
12927.287,35.645,315.430,18.066,32.227,6.348,0
12927.291,31.250,426.758,23.926,40.039,-13.184,0
12927.295,30.762,-239.746,38.574,38.574,-18.066,0
12927.299,31.738,-425.781,35.156,30.273,-4.883,0
12927.303,30.762,40.039,30.762,19.531,-16.602,0
12927.307,32.227,174.805,30.273,3.906,3.418,0
12927.311,37.109,-128.418,31.738,14.648,-15.625,0
12927.315,39.551,-489.258,30.762,28.320,-36.133,0
12927.319,29.785,48.340,29.785,29.785,30.273,0
12927.323,24.414,504.395,39.062,32.227,56.641,0
12927.327,19.043,165.039,48.340,11.719,49.805,0
12927.330,13.672,-403.320,37.109,10.254,6.348,0
12927.334,22.949,-230.957,16.113,19.531,-46.387,0
12927.338,29.785,463.379,22.461,22.949,14.160,0
12927.342,19.531,375.977,36.133,35.156,72.754,0
12927.346,23.438,-316.895,38.086,32.715,67.871,0
12927.350,30.273,-349.609,32.715,31.250,80.078,0
12927.354,28.809,193.848,24.902,36.621,37.109,0
12927.358,33.203,409.180,27.832,38.086,49.316,0
12927.362,23.438,-94.238,35.156,36.621,55.176,0
12927.366,22.461,-518.555,35.156,27.832,7.812,0
12927.369,17.090,111.328,26.855,15.625,3.418,1
12927.373,7.324,512.207,23.438,25.391,8.789,0
12927.377,20.508,105.469,22.949,37.109,39.551,0
12927.381,30.273,-375.488,34.180,42.969,45.410,0
12927.385,34.668,-223.633,38.086,33.691,49.316,0
12927.389,35.645,332.031,32.715,24.414,102.539,0
12927.393,37.109,269.043,35.156,25.879,40.039,0
12927.397,23.438,-475.586,22.949,19.043,-30.273,0
12927.401,17.090,-321.777,11.719,25.879,31.250,0
12927.405,24.414,295.898,11.230,25.391,65.430,0
12927.409,25.879,337.402,18.066,31.250,47.363,0
12927.412,24.414,-229.492,28.320,30.762,40.527,0
12927.416,18.555,-326.172,26.367,25.879,49.805,0
12927.420,15.137,374.023,25.879,30.762,34.180,0
12927.424,11.719,352.539,34.668,23.438,-6.836,0
12927.428,22.461,-190.430,42.480,29.785,32.227,0
12927.432,28.809,-360.840,46.875,37.598,53.711,0
12927.436,32.227,146.484,37.109,27.832,23.926,0
12927.440,38.574,617.188,18.066,22.461,65.918,0
12927.444,22.461,20.020,13.672,20.020,58.594,0
12927.448,23.926,-639.648,32.715,30.762,29.297,0
12927.452,38.086,-75.684,38.086,34.668,31.738,0
12927.455,21.973,513.672,21.973,11.719,25.391,0
12927.459,11.230,274.414,14.648,8.789,-51.270,0
12927.463,12.695,-476.562,13.672,19.531,-53.711,0
12927.467,7.324,-393.066,17.090,19.531,20.020,0
12927.471,12.695,333.008,25.879,15.137,6.348,0
12927.475,24.414,402.344,39.062,21.484,14.648,0
12927.479,28.809,-156.250,41.016,34.668,2.930,0
12927.483,37.109,-418.945,31.738,34.668,3.418,0
12927.487,34.668,150.879,23.926,22.461,-12.695,0
12927.491,33.203,437.988,24.902,21.484,26.855,0
12927.494,38.574,-127.930,27.344,26.367,40.039,0
12927.498,38.574,-500.977,27.344,23.438,-19.043,0
12927.502,35.156,10.742,20.020,20.996,7.324,0
12927.506,39.062,270.996,17.090,22.949,53.711,0
12927.510,40.039,44.434,18.555,28.320,52.734,0
12927.514,35.156,-359.375,22.949,31.250,42.480,0
12927.518,29.785,-95.703,29.785,26.367,50.781,0
12927.522,24.902,422.852,29.297,26.855,44.922,0
12927.526,27.832,265.625,33.691,40.039,47.363,0
12927.530,35.156,-345.215,40.527,48.340,27.832,0
12927.534,26.367,-302.246,28.809,35.156,26.367,0
12927.537,16.113,299.805,18.555,24.902,41.504,0
12927.541,23.926,417.480,22.949,27.344,74.707,0
12927.545,17.090,-320.801,32.227,19.531,57.617,0
12927.549,6.836,-628.418,32.715,14.160,1.465,0
12927.553,13.184,221.680,33.203,10.254,22.949,0
12927.557,15.625,565.918,29.785,7.324,46.875,0
12927.561,20.508,76.660,39.062,24.414,27.344,0
12927.565,39.062,-432.129,53.711,47.363,60.059,0
12927.569,41.016,23.438,32.715,39.551,61.035,0
12927.573,28.320,562.500,17.090,8.301,56.641,0
12927.577,19.043,270.020,17.578,4.883,54.688,0
12927.580,7.812,-334.961,17.578,3.418,52.734,0
12927.584,12.695,-256.836,24.902,0.977,49.805,0
12927.588,25.391,277.344,33.691,8.301,25.391,0
12927.592,23.926,287.598,35.645,7.812,-13.184,0
12927.596,21.484,-290.039,44.922,13.672,-20.508,0
12927.600,26.367,-276.367,39.062,26.855,14.648,0
12927.604,27.832,224.121,22.461,30.762,64.453,0
12927.608,29.297,190.430,30.762,38.574,-11.719,0
12927.612,23.438,-177.246,31.738,40.527,-60.547,0
12927.616,30.273,-392.578,35.156,40.039,12.207,0
12927.619,40.527,168.457,38.086,46.875,21.484,0
12927.623,30.273,438.477,34.668,36.133,-12.207,0
12927.627,20.020,39.551,34.180,28.320,20.020,0
12927.631,8.789,-521.973,25.879,21.484,13.184,0
12927.635,23.926,-211.914,24.414,8.789,-14.160,0
12927.639,37.109,488.281,31.250,13.184,1.465,0
12927.643,24.902,188.477,36.133,14.160,22.461,0
12927.647,16.602,-607.422,34.180,3.418,52.246,0
12927.651,17.090,-331.543,25.879,-4.883,14.648,0
12927.655,24.902,428.223,27.344,0.977,11.230,0
12927.659,32.227,407.715,36.133,10.254,-5.371,0
12927.662,29.297,-287.109,42.969,26.367,-22.461,0
12927.666,29.297,-458.496,42.480,23.926,-7.812,0
12927.670,36.621,275.879,32.227,22.461,11.230,0
12927.674,36.621,470.703,25.391,36.133,-8.789,0
12927.678,28.809,-162.109,26.855,38.086,-29.297,0
12927.682,26.367,-625.000,24.902,43.457,-30.762,0
12927.686,35.645,-200.195,35.645,45.410,16.113,0
12927.690,46.875,322.266,45.898,47.363,11.719,0
12927.694,39.062,114.258,39.551,46.387,-29.297,0
12927.698,24.414,-389.648,37.109,31.738,17.090,0
12927.702,18.066,-85.449,35.645,21.484,34.180,0
12927.705,12.695,335.938,35.645,14.160,-8.789,0
12927.709,20.020,248.047,33.203,8.789,20.508,0
12927.713,25.879,-273.926,35.156,20.020,51.270,0
12927.717,24.414,-249.023,29.785,17.090,19.531,0
12927.721,36.621,393.066,27.344,24.414,25.879,0
12927.725,45.410,323.730,41.016,41.016,1.953,0
12927.729,34.180,-337.891,41.992,40.527,-2.930,0
12927.733,24.414,-452.148,33.691,32.715,37.109,0
12927.737,29.785,242.188,31.250,29.297,53.711,0
12927.741,36.621,554.688,36.133,33.691,34.668,0
12927.744,29.785,-153.809,39.551,34.180,31.250,0
12927.748,11.230,-701.172,24.902,18.555,26.855,0
12927.752,4.883,17.578,5.371,-1.953,20.996,0
12927.756,7.324,516.113,8.789,-2.441,11.719,0
12927.760,8.789,158.203,23.438,9.277,-20.020,0
12927.764,12.207,-478.027,34.180,10.742,3.418,0
12927.768,27.832,-234.375,40.039,20.996,0.488,0
12927.772,29.785,366.699,38.086,26.855,-2.930,0
12927.776,10.742,182.617,28.809,9.277,-6.348,0
12927.780,6.836,-318.359,30.273,6.836,-4.883,0
12927.784,7.324,-444.336,29.785,4.883,-26.855,0
12927.787,7.324,62.500,22.949,1.953,1.465,0
12927.791,18.066,447.266,22.949,13.672,60.059,0
12927.795,30.762,-41.016,32.715,29.785,53.223,0
12927.799,43.457,-328.613,32.227,30.273,49.316,0
12927.803,55.664,168.457,23.926,7.324,32.715,0
12927.807,64.453,471.191,14.160,-8.789,26.855,0
12927.811,72.754,56.641,9.277,-4.395,-18.555,0
12927.815,78.125,-421.875,26.855,1.953,14.648,0
12927.819,62.500,-35.156,31.250,5.371,45.898,0
12927.823,38.574,357.422,26.367,10.742,38.574,0
12927.827,17.090,-22.461,25.391,13.184,47.363,0
12927.830,3.906,-499.512,24.902,22.949,3.418,0
12927.834,3.418,-185.547,25.391,39.551,-13.184,0
12927.838,9.766,469.727,22.949,50.781,15.625,0
12927.842,2.441,358.398,31.250,41.504,7.324,0
12927.846,-1.465,-309.082,39.551,35.645,10.742,0
12927.850,8.301,-327.148,34.180,38.086,-0.488,0
12927.854,14.648,335.449,33.203,23.926,22.949,0
12927.858,22.949,554.199,36.621,23.926,74.219,0
12927.862,24.414,-33.203,33.691,24.902,57.129,0
12927.866,18.066,-496.582,32.715,9.766,41.504,0
12927.869,12.207,0.488,21.973,4.883,26.855,0
12927.873,15.137,413.574,8.789,9.277,11.719,0
12927.877,19.531,133.301,21.484,8.301,41.504,0
12927.881,20.020,-389.160,36.133,16.113,59.082,0
12927.885,35.645,-326.172,35.645,17.090,15.137,0
12927.889,45.410,262.695,38.574,23.926,27.832,0
12927.893,27.344,333.984,36.133,20.996,63.477,0
12927.897,7.812,-271.484,26.367,-8.789,68.848,0
12927.901,0.977,-190.430,16.602,-21.484,45.898,0
12927.905,4.883,400.391,18.066,-7.812,43.945,0
12927.909,7.324,475.098,24.414,4.395,89.355,0
12927.912,0.000,-200.195,32.227,8.301,83.984,0
12927.916,-0.488,-465.820,30.273,9.277,23.438,0
12927.920,5.859,328.613,20.996,13.672,53.223,0
12927.924,11.719,361.328,22.949,18.555,30.273,0
12927.928,15.625,-347.168,26.367,10.254,-32.715,0
12927.932,20.508,-496.094,32.715,14.160,-18.066,0
12927.936,28.809,85.938,41.504,21.973,-4.395,0
12927.940,32.715,420.898,37.109,12.207,-39.062,0
12927.944,29.785,4.395,26.855,9.277,-7.324,0
12927.948,19.531,-498.047,25.879,10.742,-2.930,0
12927.952,13.672,-100.098,26.367,0.000,19.531,0
12927.955,20.020,524.414,29.785,4.883,75.684,2
12927.959,18.555,270.508,25.879,20.996,56.152,0
12927.963,19.531,-501.953,27.832,25.391,32.227,0
12927.967,22.949,-400.391,32.227,10.742,24.902,0
12927.971,17.578,371.094,19.531,3.906,19.043,0
12927.975,23.926,435.059,26.367,10.742,32.227,0
12927.979,40.039,-141.113,40.527,20.508,20.020,0
12927.983,40.527,-469.727,39.062,20.020,13.672,0
12927.987,23.438,-93.750,37.109,-3.418,-4.883,0
12927.991,0.488,343.750,29.785,-17.578,3.906,0
12927.994,-7.812,53.223,30.762,-4.883,38.574,0
12927.998,3.418,-455.078,40.527,12.207,49.805,0
12928.002,1.465,-146.484,26.367,-3.418,9.766,0
12928.006,-7.812,325.684,13.672,-20.996,32.227,0
12928.010,-14.648,51.270,23.438,-21.484,25.391,0
12928.014,-17.090,-521.973,30.762,-28.320,-26.855,0
12928.018,-10.742,-203.125,32.715,-39.062,-15.137,0
12928.022,-4.883,458.984,31.738,-32.715,42.969,0
12928.026,-6.348,166.992,36.133,-21.484,84.961,0
12928.030,-6.348,-482.422,30.273,-26.855,20.996,0
12928.034,-0.977,-319.336,12.695,-28.809,3.418,0
12928.037,3.906,351.074,15.137,-13.672,28.809,0
12928.041,3.418,436.523,21.973,-2.441,1.953,0
12928.045,-2.930,-213.379,31.250,6.836,-26.367,0
12928.049,-4.395,-443.848,35.156,9.766,0.977,0
12928.053,3.906,91.797,37.109,1.953,31.738,0
12928.057,-6.348,351.074,42.480,-2.930,46.387,0
12928.061,-13.184,24.414,36.133,-3.906,58.594,0
12928.065,-11.230,-599.609,29.297,-1.953,59.082,0
12928.069,-15.137,-261.230,19.531,-17.090,26.855,0
12928.073,-13.184,512.207,20.996,-28.320,43.945,0
12928.077,-15.625,288.574,35.645,-17.090,62.012,0
12928.080,-16.602,-342.773,31.738,-4.883,35.156,0
12928.084,-2.441,-229.980,25.879,-3.906,47.852,0
12928.088,4.883,395.996,23.438,-3.906,49.805,0
12928.092,-3.906,439.453,15.137,-3.418,59.570,0
12928.096,-4.883,-216.797,26.855,5.859,39.551,0
12928.100,-13.184,-414.551,30.273,4.883,11.230,0
12928.104,-12.695,95.703,29.297,-9.277,75.195,0
12928.108,6.836,206.055,28.320,0.000,41.504,0
12928.112,17.090,-152.832,25.879,19.531,-34.180,0
12928.116,10.254,-493.652,27.344,14.648,-21.484,0
12928.119,8.301,12.207,21.484,11.719,0.977,0
12928.123,17.578,429.199,14.160,15.625,2.441,0
12928.127,16.602,51.758,31.738,21.484,5.371,0
12928.131,1.465,-441.895,39.551,21.484,-6.348,0
12928.135,-2.930,-129.883,31.250,9.766,-25.879,0
12928.139,-3.418,460.938,28.809,8.789,-16.113,0
12928.143,-7.324,172.363,34.180,16.602,-38.574,0
12928.147,-14.648,-568.848,48.828,21.973,-46.875,0
12928.151,-11.230,-422.363,60.059,21.973,-13.672,0
12928.155,-7.324,257.324,57.617,20.020,35.645,0
12928.159,-8.789,426.758,35.645,12.695,70.801,0
12928.162,-6.348,-180.664,26.855,11.719,62.988,0
12928.166,-9.277,-649.414,30.273,1.953,8.789,0
12928.170,14.160,61.523,32.715,16.602,-31.250,0
12928.174,26.855,448.730,36.133,37.109,8.301,0
12928.178,13.184,-125.488,35.645,25.391,-23.926,0
12928.182,6.348,-514.160,28.320,10.742,-25.391,0
12928.186,10.254,-39.062,11.719,11.719,-8.301,0
12928.190,12.207,499.512,14.160,22.461,18.555,0
12928.194,13.184,116.211,33.203,24.902,49.805,0
12928.198,17.578,-551.758,42.480,29.785,17.090,0
12928.202,14.648,-198.730,40.039,27.832,55.176,0
12928.205,12.695,397.949,41.992,18.555,61.523,0
12928.209,5.371,335.449,38.086,14.160,57.617,0
12928.213,-4.883,-235.352,31.738,14.648,68.359,0
12928.217,-1.465,-283.691,28.809,14.160,6.348,0
12928.221,7.324,343.262,27.344,18.066,-36.133,0
12928.225,5.859,289.062,26.367,17.578,35.645,0
12928.229,16.113,-309.570,32.715,27.344,28.809,0
12928.233,13.184,-462.402,30.762,20.996,-19.531,0
12928.237,7.812,155.273,23.926,15.625,64.941,0
12928.241,14.160,506.348,29.785,19.043,92.285,0
12928.244,0.977,-192.383,26.855,14.160,36.621,0
12928.248,2.930,-707.031,21.484,18.066,11.719,0
12928.252,8.301,-15.625,20.508,11.230,6.348,0
12928.256,5.371,541.504,27.832,7.812,19.043,0
12928.260,20.508,232.422,42.969,26.367,-1.465,0
12928.264,22.461,-462.891,40.527,22.461,-44.434,0
12928.268,19.531,-220.215,24.902,12.695,-4.395,0
12928.272,20.996,530.762,9.277,12.695,82.031,0
12928.276,19.531,458.008,12.207,14.160,92.773,0
12928.280,19.531,-229.980,27.344,21.484,13.672,0
12928.284,16.113,-402.344,29.785,17.578,-41.992,0
12928.287,12.207,151.855,28.809,15.625,-29.297,0
12928.291,12.695,348.633,31.738,16.602,18.066,0
12928.295,11.719,-226.074,36.621,16.113,16.602,0
12928.299,9.277,-457.031,31.738,18.555,22.949,0
12928.303,20.020,86.426,23.438,14.648,32.227,0
12928.307,22.461,297.363,25.391,9.766,54.688,0
12928.311,8.301,53.223,25.879,11.719,67.871,0
12928.315,-0.488,-421.387,25.879,11.230,-10.254,0
12928.319,9.277,-39.551,16.602,4.883,-17.578,0
12928.323,18.066,496.094,16.113,13.672,44.434,0
12928.327,14.648,206.543,30.273,32.227,27.832,0
12928.330,12.207,-375.977,38.086,35.645,-14.160,0
12928.334,4.395,-336.426,36.621,33.691,-34.180,0
12928.338,2.441,265.137,33.203,35.645,-33.203,0
12928.342,7.812,326.660,32.715,32.715,4.395,0
12928.346,8.789,-443.848,34.180,22.461,18.555,0
12928.350,12.695,-566.406,43.457,16.602,-2.930,0
12928.354,23.926,186.523,43.945,35.645,-35.156,0
12928.358,31.250,500.000,26.855,41.016,-8.789,0
12928.362,23.926,6.836,20.020,27.832,36.133,0
12928.366,24.414,-519.043,24.414,22.461,-38.086,0
12928.369,30.762,105.469,24.902,16.602,12.695,0
12928.373,37.109,598.633,20.996,20.020,62.012,0
12928.377,36.133,149.902,32.227,28.320,-0.977,0
12928.381,21.973,-503.418,36.133,36.133,-29.785,0
12928.385,12.695,-392.578,30.273,24.414,-20.996,0
12928.389,22.461,257.812,37.598,10.254,13.184,0
12928.393,27.832,364.258,44.434,25.879,47.363,0
12928.397,16.602,-280.273,39.062,43.945,5.371,0
12928.401,19.531,-235.352,23.438,45.410,-19.043,0
12928.405,37.109,402.832,18.555,33.203,17.578,0
12928.409,32.227,494.141,32.715,36.133,63.965,0
12928.412,14.648,-140.137,47.852,39.062,69.824,0
12928.416,17.578,-317.871,50.781,33.691,72.754,0
12928.420,27.832,324.219,38.574,40.527,21.484,0
12928.424,16.113,449.219,22.949,40.527,-20.996,0
12928.428,-0.977,-82.520,24.414,29.297,22.949,0
12928.432,0.977,-475.098,27.832,29.785,54.688,0
12928.436,16.602,43.457,27.832,32.227,61.523,0
12928.440,24.414,642.090,27.832,31.250,60.059,0
12928.444,24.414,148.438,22.949,25.391,35.156,0
12928.448,22.461,-604.004,20.508,16.113,34.668,0
12928.452,28.320,-144.043,24.414,19.043,5.859,0
12928.455,36.133,559.082,34.668,23.438,17.090,0
12928.459,32.715,465.332,37.598,32.715,46.387,0
12928.463,20.508,-230.469,32.227,39.551,42.480,0
12928.467,15.137,-280.273,21.484,38.086,25.879,0
12928.471,24.414,347.656,20.508,46.387,2.930,0
12928.475,27.832,374.512,25.879,45.898,1.465,0
12928.479,31.738,-167.969,28.320,44.922,-10.742,0
12928.483,22.461,-446.289,31.250,40.527,-13.184,0
12928.487,17.578,19.531,32.227,40.527,43.457,0
12928.491,20.996,475.098,31.250,48.828,30.762,0
12928.494,26.855,151.855,38.086,60.547,10.742,0
12928.498,49.316,-322.266,45.410,78.125,25.391,0
12928.502,44.434,64.453,30.762,66.895,44.922,0
12928.506,25.879,497.070,22.949,41.016,23.926,0
12928.510,25.391,245.605,23.438,32.227,-29.785,0
12928.514,27.832,-336.914,31.738,38.086,-12.207,0
12928.518,31.738,-137.207,34.668,24.414,-0.977,0
12928.522,56.641,429.688,30.273,17.578,23.438,0
12928.526,83.984,128.906,40.039,26.855,23.438,0
12928.530,95.215,-465.820,41.504,16.602,-3.418,0
12928.534,94.238,-275.391,30.273,10.742,18.555,0
12928.537,86.914,376.953,26.367,14.648,-3.906,0
12928.541,64.941,524.414,31.738,20.020,3.418,0
12928.545,42.969,-53.223,39.551,45.898,45.410,0
12928.549,40.039,-373.047,46.875,67.871,24.902,0
12928.553,31.250,220.215,41.016,62.988,29.297,0
12928.557,24.414,584.473,29.297,57.617,28.320,0
12928.561,23.438,183.105,30.273,57.129,41.504,0
12928.565,13.184,-439.453,40.039,53.711,25.879,0
12928.569,15.625,-131.348,33.691,49.316,25.879,0
12928.573,19.531,415.039,26.367,40.527,35.645,0
12928.577,25.391,191.895,35.645,44.922,34.668,0
12928.580,25.391,-348.633,42.480,50.293,21.484,0
12928.584,9.766,-281.738,25.391,38.086,20.020,0
12928.588,25.879,329.102,18.066,39.551,38.574,0
12928.592,44.434,433.594,24.902,41.504,12.207,0
12928.596,42.969,-215.820,40.527,41.504,-27.344,0
12928.600,50.293,-296.875,59.570,48.828,2.441,0
12928.604,41.016,211.914,50.781,28.809,64.453,0
12928.608,20.996,280.273,37.598,11.230,63.477,0
12928.612,23.926,1.465,40.527,26.855,71.777,0
12928.616,22.461,-477.051,36.621,35.156,37.109,1
12928.619,29.297,20.508,24.902,34.180,20.020,0
12928.623,35.645,463.867,23.926,32.227,68.848,0
12928.627,35.156,-58.105,30.762,23.438,66.895,0
12928.631,38.574,-450.195,36.621,29.297,46.387,0
12928.635,40.527,-27.344,35.645,31.250,59.570,0
12928.639,41.016,607.422,34.668,26.855,100.586,0
12928.643,30.762,315.918,23.926,29.297,48.340,0
12928.647,22.949,-452.148,21.484,27.344,-15.137,0
12928.651,21.484,-243.652,23.438,22.461,43.457,0
12928.655,28.809,449.707,26.855,20.996,65.918,0
12928.659,31.738,458.008,31.738,27.344,2.930,0
12928.662,27.344,-239.746,38.574,36.133,34.668,0
12928.666,34.180,-709.961,45.410,44.434,3.418,0
12928.670,37.598,20.020,35.645,40.039,-38.086,0
12928.674,32.715,547.852,29.785,27.344,40.527,0
12928.678,44.434,60.059,45.898,25.391,34.180,0
12928.682,52.734,-471.680,55.664,31.738,4.395,0
12928.686,37.109,-53.711,31.738,14.160,14.648,0
12928.690,32.715,516.113,15.137,3.906,34.180,0
12928.694,42.480,241.211,19.043,24.902,58.594,0
12928.698,40.527,-396.484,27.832,33.691,14.648,0
12928.702,38.574,-183.594,27.344,28.809,25.391,0
12928.705,39.551,352.051,27.344,28.320,27.832,0
12928.709,34.180,224.609,25.879,35.645,13.672,0
12928.713,32.227,-428.223,32.227,38.086,21.973,0
12928.717,36.133,-413.574,38.574,21.973,27.344,0
12928.721,40.527,356.934,38.086,22.461,34.668,0
12928.725,32.715,240.723,39.551,25.391,3.906,0
12928.729,37.598,-387.207,41.504,24.902,16.602,0
12928.733,44.922,-410.156,39.551,23.926,33.691,0
12928.737,33.691,171.387,36.133,15.137,9.766,0
12928.741,23.926,495.117,36.621,13.184,4.395,0
12928.744,27.344,33.691,37.109,20.508,43.945,0
12928.748,30.273,-475.098,32.227,24.902,27.832,0
12928.752,23.438,-28.320,29.297,15.625,14.648,0
12928.756,14.648,400.879,28.320,8.301,36.133,0
12928.760,20.020,149.414,34.180,19.531,34.180,0
12928.764,32.715,-533.691,43.945,31.250,57.617,0
12928.768,30.273,-499.023,37.109,16.602,18.555,0
12928.772,36.133,355.957,29.297,21.484,-3.418,0
12928.776,46.387,408.691,40.039,41.992,24.414,0
12928.780,39.062,-221.191,48.828,39.062,23.926,0
12928.784,29.297,-402.832,39.551,30.273,13.184,0
12928.787,19.043,173.340,15.625,18.066,-2.441,0
12928.791,23.438,461.426,10.742,20.020,13.184,0
12928.795,27.344,-115.234,20.508,28.320,-28.809,0
12928.799,16.113,-454.102,21.973,17.090,-29.785,0
12928.803,9.766,-29.785,19.043,1.465,10.742,0
12928.807,15.625,250.977,25.879,0.000,75.684,0
12928.811,21.973,5.859,28.809,13.184,26.855,0
12928.815,24.902,-474.609,31.738,24.414,-30.762,0
12928.819,30.762,-57.129,31.738,26.855,36.621,0
12928.823,31.738,358.887,33.203,32.715,-5.859,0
12928.827,27.832,114.258,45.410,28.320,-26.367,0
12928.830,20.996,-346.191,44.434,17.578,22.949,0
12928.834,23.438,-251.953,29.785,22.461,15.137,0
12928.838,32.715,409.668,29.785,26.855,25.879,0
12928.842,24.902,428.223,34.668,25.391,72.754,0
12928.846,16.113,-284.180,37.598,28.809,29.297,0
12928.850,18.066,-474.121,30.762,27.832,12.207,0
12928.854,29.785,89.844,23.438,26.855,9.766,0
12928.858,33.691,355.957,29.297,27.832,-11.719,0
12928.862,36.621,4.395,45.410,43.945,75.684,0
12928.866,27.344,-573.242,41.504,38.086,62.012,0
12928.869,18.066,-78.613,22.461,16.113,7.324,0
12928.873,17.090,545.410,22.949,21.484,49.316,0
12928.877,20.020,167.969,27.344,35.156,29.297,0
12928.881,24.902,-490.723,36.133,41.016,31.738,0
12928.885,24.902,-257.812,40.039,37.109,48.340,0
12928.889,34.180,446.777,45.410,42.480,51.758,0
12928.893,37.598,371.094,46.387,44.434,64.453,0
12928.897,25.391,-387.695,35.645,30.273,59.082,0
12928.901,21.973,-355.469,23.438,20.996,36.133,0
12928.905,18.555,155.273,23.438,12.695,7.812,0
12928.909,22.461,52.246,31.250,21.973,-23.438,0
12928.912,28.809,-298.828,37.109,32.715,-41.504,0
12928.916,19.043,-333.984,31.250,20.508,58.594,0
12928.920,25.879,268.555,29.297,22.949,69.824,0
12928.924,48.828,467.285,50.293,42.969,13.672,0
12928.928,51.270,-5.371,50.781,51.270,20.508,0
12928.932,38.086,-463.867,33.203,46.875,-18.555,0
12928.936,33.691,-4.883,32.227,43.945,10.254,0
12928.940,36.621,474.121,29.785,43.945,28.320,0
12928.944,35.156,-8.301,37.109,45.410,20.996,0
12928.948,27.832,-677.734,47.852,42.480,-7.812,0
12928.952,15.625,-208.984,33.691,30.273,18.066,0
12928.955,16.602,487.305,25.391,28.809,64.453,0
12928.959,19.043,388.184,28.320,32.227,22.949,0
12928.963,12.207,-348.633,28.320,25.391,32.715,0
12928.967,13.184,-436.035,25.391,18.066,62.012,0
12928.971,24.902,356.934,31.738,22.461,60.547,0
12928.975,33.203,524.902,43.945,26.367,80.566,0
