timestamps,TP9,AF7,AF8,TP10,Right AUX,Marker0
1553809179.340,28.320,-23.926,-14.160,10.742,0.000,0
1553809179.344,21.484,-19.043,-11.719,0.000,0.000,0
1553809179.348,37.598,-17.090,-13.672,5.859,0.000,0
1553809179.352,35.156,-21.973,-20.508,19.043,0.000,0
1553809179.356,33.691,-16.602,-17.090,17.090,0.000,0
1553809179.359,52.734,-18.066,-10.254,16.602,0.000,0
1553809179.363,51.270,-26.367,-9.766,34.180,0.000,0
1553809179.367,44.434,-25.879,-16.113,56.641,0.000,0
1553809179.371,53.711,-24.902,-23.926,60.059,0.000,0
1553809179.375,50.781,-25.391,-25.391,62.988,0.000,0
1553809179.379,68.359,-31.738,-24.902,86.426,0.000,0
1553809179.383,77.148,-43.945,-26.855,103.027,0.000,0
1553809179.387,82.520,-48.828,-30.273,97.656,0.000,0
1553809179.391,98.633,-42.969,-29.785,108.398,0.000,0
1553809179.395,104.004,-40.527,-23.926,115.723,0.000,0
1553809179.399,115.723,-43.457,-20.996,124.512,0.000,0
1553809179.402,114.746,-43.457,-22.949,116.699,0.000,0
1553809179.406,110.840,-43.457,-23.926,104.004,0.000,0
1553809179.410,108.887,-41.016,-26.367,112.305,0.000,0
1553809179.414,104.004,-42.969,-32.227,88.379,0.000,0
1553809179.418,104.492,-46.387,-37.598,76.660,0.000,0
1553809179.422,106.934,-44.434,-37.109,98.145,0.000,0
1553809179.426,111.328,-44.922,-36.133,96.191,0.000,0
1553809179.430,90.820,-39.062,-33.691,91.797,0.000,0
1553809179.434,69.336,-34.668,-30.762,89.844,0.000,0
1553809179.438,81.543,-39.062,-30.273,69.824,0.000,0
1553809179.441,95.703,-44.434,-25.391,90.332,0.000,0
1553809179.445,76.172,-44.922,-26.855,88.867,0.000,0
1553809179.449,62.500,-43.457,-36.621,51.270,0.000,0
1553809179.453,82.031,-41.504,-33.691,56.152,0.000,0
1553809179.457,83.496,-39.551,-34.180,63.477,0.000,0
1553809179.461,53.711,-44.434,-37.598,66.406,0.000,0
1553809179.465,39.551,-42.969,-35.156,67.383,0.000,0
1553809179.469,41.504,-43.457,-35.156,58.594,0.000,0
1553809179.473,35.645,-38.086,-34.180,54.199,0.000,0
1553809179.477,44.922,-28.809,-39.062,52.734,0.000,0
1553809179.481,44.434,-31.250,-44.434,49.805,0.000,0
1553809179.484,43.945,-31.250,-38.574,36.133,0.000,0
1553809179.488,48.340,-30.762,-35.645,33.203,0.000,0
1553809179.492,64.453,-27.832,-35.156,43.457,0.000,0
1553809179.496,64.941,-30.273,-31.738,46.387,0.000,0
1553809179.500,47.363,-37.598,-38.086,37.598,0.000,0
1553809179.504,47.363,-40.039,-39.062,29.785,0.000,0
1553809179.508,40.527,-36.133,-32.715,37.598,0.000,0
1553809179.512,22.949,-34.180,-28.809,36.133,0.000,0
1553809179.516,18.066,-34.668,-28.320,34.668,0.000,0
1553809179.520,16.113,-37.598,-31.250,38.086,0.000,0
1553809179.524,45.898,-32.715,-35.156,34.180,0.000,0
1553809179.527,56.152,-27.832,-36.621,33.203,0.000,0
1553809179.531,36.133,-30.273,-36.621,24.414,0.000,0
1553809179.535,35.645,-28.809,-25.879,26.367,0.000,0
1553809179.539,24.414,-27.344,-21.484,22.949,0.000,0
1553809179.543,30.762,-32.715,-29.785,39.551,0.000,0
1553809179.547,51.270,-35.156,-31.738,59.570,0.000,0
1553809179.551,46.387,-31.738,-28.320,42.969,0.000,0
1553809179.555,31.250,-31.250,-29.297,20.508,0.000,0
1553809179.559,18.555,-30.762,-29.785,34.180,0.000,0
1553809179.563,28.320,-30.273,-30.762,49.316,0.000,0
1553809179.566,21.973,-30.762,-33.203,31.738,0.000,0
1553809179.570,22.949,-38.086,-30.273,27.344,0.000,0
1553809179.574,25.391,-36.133,-29.785,9.766,0.000,0
1553809179.578,22.461,-27.344,-26.855,16.602,0.000,0
1553809179.582,32.227,-23.926,-22.949,37.598,0.000,0
1553809179.586,13.672,-29.297,-23.438,14.648,0.000,0
1553809179.590,0.000,-32.227,-28.320,4.395,0.000,0
1553809179.594,-5.371,-31.738,-37.109,13.184,0.000,0
1553809179.598,2.441,-29.785,-34.180,14.160,0.000,0
1553809179.602,13.184,-26.855,-25.879,19.531,0.000,0
1553809179.606,15.625,-29.297,-28.809,11.230,0.000,0
1553809179.609,19.531,-27.832,-35.156,3.906,0.000,0
1553809179.613,16.113,-24.414,-29.785,21.484,0.000,0
1553809179.617,-4.883,-40.527,-20.020,29.297,0.000,0
1553809179.621,11.230,-43.945,-23.926,1.465,0.000,0
1553809179.625,39.062,-30.273,-29.785,8.301,0.000,0
1553809179.629,35.645,-27.832,-22.949,48.340,0.000,0
1553809179.633,23.438,-24.902,-31.738,25.879,0.000,0
1553809179.637,19.043,-26.367,-34.668,25.879,0.000,0
1553809179.641,27.344,-33.203,-22.461,40.527,0.000,0
1553809179.645,21.484,-31.738,-29.297,39.551,0.000,0
1553809179.649,31.738,-31.250,-36.621,36.621,0.000,0
1553809179.652,27.344,-31.738,-34.180,8.301,0.000,0
1553809179.656,18.555,-30.762,-35.156,10.254,0.000,0
1553809179.660,27.832,-24.414,-29.297,49.316,0.000,0
1553809179.664,25.879,-22.949,-24.902,39.062,0.000,0
1553809179.668,26.367,-31.738,-27.832,22.461,0.000,0
1553809179.672,25.879,-31.738,-28.809,26.367,0.000,0
1553809179.676,22.461,-27.344,-34.180,12.207,0.000,0
1553809179.680,33.203,-28.809,-33.691,17.578,0.000,0
1553809179.684,37.109,-33.691,-28.320,23.926,0.000,0
1553809179.688,36.133,-33.691,-30.273,29.297,0.000,0
1553809179.691,29.297,-31.738,-31.250,33.203,0.000,0
1553809179.695,7.812,-35.156,-32.227,40.527,0.000,0
1553809179.699,3.906,-30.762,-29.297,32.715,0.000,0
1553809179.703,6.348,-25.391,-22.461,16.602,0.000,0
1553809179.707,23.926,-28.320,-23.438,32.715,0.000,0
1553809179.711,36.621,-25.391,-29.297,22.949,0.000,0
1553809179.715,42.969,-25.879,-29.785,20.020,0.000,0
1553809179.719,32.227,-30.762,-31.738,32.715,0.000,0
1553809179.723,29.297,-22.949,-31.250,30.273,0.000,0
1553809179.727,11.719,-19.531,-20.996,12.695,0.000,0
1553809179.731,2.441,-27.832,-23.926,-2.930,0.000,0
1553809179.734,20.020,-34.180,-30.273,30.273,0.000,0
1553809179.738,22.461,-39.551,-29.785,42.480,0.000,0
1553809179.742,36.133,-36.621,-23.438,47.852,0.000,0
1553809179.746,51.270,-28.809,-25.391,52.246,0.000,0
1553809179.750,25.391,-33.203,-33.691,39.062,0.000,0
1553809179.754,15.137,-35.645,-28.809,33.203,0.000,0
1553809179.758,34.180,-28.320,-28.809,32.715,0.000,0
1553809179.762,31.250,-30.762,-34.180,33.203,0.000,0
1553809179.766,39.062,-33.203,-34.180,26.367,0.000,0
1553809179.770,51.270,-33.691,-37.109,33.203,0.000,0
1553809179.774,58.594,-28.320,-33.691,39.551,0.000,0
1553809179.777,37.109,-25.879,-24.902,32.227,0.000,0
1553809179.781,17.090,-34.668,-21.484,40.039,0.000,0
1553809179.785,13.184,-39.062,-20.508,29.785,0.000,0
1553809179.789,32.227,-38.086,-22.949,30.762,0.000,0
1553809179.793,54.199,-36.621,-18.555,67.871,0.000,0
1553809179.797,42.969,-39.062,-14.648,73.730,0.000,0
1553809179.801,37.109,-37.598,-12.695,66.895,0.000,0
1553809179.805,39.551,-38.574,-12.695,52.246,0.000,0
1553809179.809,36.133,-39.551,-21.484,37.109,0.000,0
1553809179.813,33.203,-41.992,-21.973,43.457,0.000,0
1553809179.816,31.250,-43.945,-19.531,34.668,0.000,0
1553809179.820,35.645,-46.387,-25.391,30.762,0.000,0
1553809179.824,38.574,-44.922,-27.832,49.316,0.000,0
1553809179.828,39.551,-42.480,-19.531,56.152,0.000,0
1553809179.832,56.641,-43.457,-26.855,52.734,0.000,0
1553809179.836,49.805,-39.062,-35.645,60.547,0.000,0
1553809179.840,33.691,-39.551,-32.715,54.199,0.000,0
1553809179.844,50.781,-42.969,-31.738,39.551,0.000,0
1553809179.848,56.152,-39.062,-28.809,32.715,0.000,0
1553809179.852,44.434,-36.621,-23.438,52.734,0.000,0
1553809179.856,53.223,-42.480,-23.926,60.059,0.000,0
1553809179.859,54.688,-45.898,-26.367,58.105,0.000,0
1553809179.863,47.852,-38.086,-23.926,70.312,0.000,0
1553809179.867,50.293,-36.621,-22.461,41.016,0.000,0
1553809179.871,60.547,-43.945,-20.020,45.898,0.000,0
1553809179.875,62.988,-39.551,-23.926,47.363,0.000,0
1553809179.879,54.688,-38.086,-26.367,38.574,0.000,0
1553809179.883,66.406,-34.180,-22.949,49.316,0.000,0
1553809179.887,62.012,-30.762,-24.902,64.453,0.000,0
1553809179.891,50.293,-38.574,-24.414,56.641,0.000,0
1553809179.895,54.688,-37.109,-19.531,41.992,0.000,0
1553809179.899,61.035,-32.227,-23.926,61.035,0.000,0
1553809179.902,47.363,-35.645,-29.297,58.594,0.000,0
1553809179.906,43.945,-40.527,-25.391,54.688,0.000,0
1553809179.910,60.059,-41.504,-24.414,56.641,0.000,0
1553809179.914,54.688,-33.691,-23.438,50.781,0.000,0
1553809179.918,71.777,-28.320,-24.902,56.152,0.000,0
1553809179.922,84.473,-31.250,-30.762,60.059,0.000,0
1553809179.926,59.570,-33.691,-30.762,59.082,0.000,0
1553809179.930,46.387,-38.086,-31.738,42.480,0.000,0
1553809179.934,51.758,-42.480,-35.645,29.297,0.000,0
1553809179.938,69.824,-43.457,-33.203,38.574,0.000,0
1553809179.941,67.871,-40.527,-32.227,33.203,0.000,0
1553809179.945,44.434,-36.621,-36.133,23.926,0.000,0
1553809179.949,42.480,-34.180,-33.203,41.016,0.000,0
1553809179.953,50.293,-31.738,-33.691,40.527,0.000,0
1553809179.957,58.594,-29.785,-32.715,32.227,0.000,0
1553809179.961,42.969,-33.691,-25.391,31.738,0.000,0
1553809179.965,31.250,-32.715,-19.043,38.574,0.000,0
1553809179.969,33.203,-27.832,-21.973,34.668,0.000,0
1553809179.973,38.574,-31.738,-20.996,32.715,0.000,0
1553809179.977,35.156,-27.344,-27.344,36.133,0.000,0
1553809179.981,10.742,-8.301,-29.785,-6.348,0.000,0
1553809179.984,-18.066,0.000,-17.578,-33.203,0.000,0
1553809179.988,-48.828,-16.113,-19.043,-64.453,0.000,0
1553809179.992,-45.410,-1.465,-17.578,-78.613,0.000,0
1553809179.996,-46.875,21.973,1.465,-42.969,0.000,0
1553809180.000,-59.570,29.785,10.254,-85.938,0.000,0
1553809180.004,-95.215,37.109,0.000,-151.367,0.000,0
1553809180.008,-99.121,35.156,2.441,-127.441,0.000,0
1553809180.012,-109.863,40.527,2.930,-132.324,0.000,0
1553809180.016,-149.902,49.316,-2.930,-158.203,0.000,0
1553809180.020,-146.484,53.711,-0.488,-149.414,0.000,0
1553809180.024,-135.254,57.617,-5.859,-156.250,0.000,0
1553809180.027,-134.766,59.082,-14.648,-169.922,0.000,0
1553809180.031,-138.184,50.781,-15.625,-165.039,0.000,0
1553809180.035,-121.582,48.828,-11.719,-151.855,0.000,0
1553809180.039,-125.977,45.898,-13.672,-136.230,0.000,0
1553809180.043,-117.676,31.250,-18.555,-111.328,0.000,0
1553809180.047,-96.191,22.949,-26.855,-96.680,0.000,0
1553809180.051,-103.027,19.531,-34.180,-115.723,0.000,0
1553809180.055,-83.008,11.230,-41.016,-93.750,0.000,0
1553809180.059,-46.387,7.324,-41.504,-68.848,0.000,0
1553809180.063,-46.387,-1.953,-40.527,-58.105,0.000,0
1553809180.066,-62.500,-13.672,-47.363,-46.875,0.000,0
1553809180.070,-32.227,-20.508,-45.898,-50.781,0.000,0
1553809180.074,-14.160,-22.461,-48.340,-50.781,0.000,0
1553809180.078,-20.996,-34.180,-52.734,-58.105,0.000,0
1553809180.082,-23.926,-49.805,-48.340,-36.621,0.000,0
1553809180.086,-9.766,-46.387,-48.340,-3.906,0.000,0
1553809180.090,21.973,-36.133,-53.223,14.160,0.000,0
1553809180.094,47.363,-46.387,-54.688,25.391,0.000,0
1553809180.098,43.457,-58.105,-46.875,23.926,0.000,0
1553809180.102,21.973,-48.340,-46.387,38.086,0.000,0
1553809180.106,34.668,-40.039,-51.758,43.457,0.000,0
1553809180.109,37.598,-35.645,-54.688,31.738,0.000,0
1553809180.113,23.438,-42.969,-56.152,26.367,0.000,0
1553809180.117,26.855,-50.293,-54.199,23.926,0.000,0
1553809180.121,44.922,-47.852,-49.805,34.668,0.000,0
1553809180.125,50.781,-49.805,-47.363,42.969,0.000,0
1553809180.129,42.969,-57.129,-47.363,55.664,0.000,0
1553809180.133,49.805,-57.617,-51.758,41.992,0.000,0
1553809180.137,41.992,-57.129,-46.387,17.578,0.000,0
1553809180.141,45.410,-52.246,-40.039,36.621,0.000,0
1553809180.145,81.543,-44.434,-40.039,53.223,0.000,0
1553809180.149,72.266,-48.828,-40.039,67.383,0.000,0
1553809180.152,49.316,-46.875,-44.922,72.754,0.000,0
1553809180.156,38.574,-55.664,-42.969,43.945,0.000,0
1553809180.160,37.598,-66.895,-44.922,26.367,0.000,0
1553809180.164,45.410,-60.547,-50.293,40.527,0.000,0
1553809180.168,59.570,-49.805,-41.504,57.129,0.000,0
1553809180.172,54.688,-46.387,-35.156,69.336,0.000,0
1553809180.176,31.738,-46.387,-38.086,63.477,0.000,0
1553809180.180,40.039,-51.270,-34.668,58.105,0.000,0
1553809180.184,53.711,-57.617,-33.203,62.988,0.000,0
1553809180.188,63.477,-53.223,-35.645,64.941,0.000,0
1553809180.191,61.523,-54.199,-34.668,73.242,0.000,0
1553809180.195,51.270,-56.152,-40.039,60.059,0.000,0
1553809180.199,55.176,-50.781,-45.410,41.992,0.000,0
1553809180.203,59.570,-47.852,-40.039,49.316,0.000,0
1553809180.207,68.359,-52.734,-38.574,48.828,0.000,0
1553809180.211,60.547,-52.734,-39.551,44.922,0.000,0
1553809180.215,51.758,-50.781,-42.969,22.949,0.000,0
1553809180.219,56.152,-50.781,-43.945,23.926,0.000,0
1553809180.223,45.898,-48.828,-31.738,49.316,0.000,0
1553809180.227,37.109,-50.293,-28.809,30.762,0.000,0
1553809180.231,36.621,-46.875,-34.180,23.438,0.000,0
1553809180.234,38.086,-42.480,-40.527,29.785,0.000,0
1553809180.238,42.480,-43.457,-44.434,31.738,0.000,0
1553809180.242,41.504,-41.992,-42.969,35.156,0.000,0
1553809180.246,40.039,-43.945,-40.527,30.762,0.000,0
1553809180.250,46.387,-40.527,-33.203,25.879,0.000,0
1553809180.254,29.785,-36.133,-28.320,33.203,0.000,0
1553809180.258,20.020,-44.434,-32.227,50.293,0.000,0
1553809180.262,33.203,-41.504,-31.250,50.781,0.000,0
1553809180.266,37.598,-32.227,-28.320,46.875,0.000,0
1553809180.270,36.133,-34.180,-28.320,39.551,0.000,0
1553809180.274,38.086,-35.645,-28.320,20.996,0.000,0
1553809180.277,36.621,-32.227,-28.809,29.785,0.000,0
1553809180.281,36.133,-32.227,-32.227,37.598,0.000,0
1553809180.285,31.250,-33.691,-32.715,26.367,0.000,0
1553809180.289,13.184,-29.785,-29.297,37.598,0.000,0
1553809180.293,26.367,-37.598,-24.414,33.691,0.000,0
1553809180.297,34.180,-45.410,-29.785,17.578,0.000,0
1553809180.301,38.574,-36.133,-31.738,27.344,0.000,0
1553809180.305,34.668,-37.598,-25.391,41.504,0.000,0
1553809180.309,34.668,-32.227,-29.785,30.762,0.000,0
1553809180.313,47.852,-27.344,-36.133,25.879,0.000,0
1553809180.316,39.062,-35.645,-37.598,31.250,0.000,0
1553809180.320,27.344,-34.180,-34.180,37.598,0.000,0
1553809180.324,5.859,-33.691,-36.133,32.227,0.000,0
1553809180.328,8.301,-35.645,-39.551,16.602,0.000,0
1553809180.332,25.879,-32.227,-40.039,18.066,0.000,0
1553809180.336,13.672,-36.133,-40.039,16.113,0.000,0
1553809180.340,0.977,-38.086,-37.109,26.855,0.000,0
1553809180.344,-3.906,-36.621,-36.133,30.273,0.000,0
1553809180.348,20.020,-36.621,-36.133,23.926,0.000,0
1553809180.352,33.691,-32.227,-37.598,20.996,0.000,0
1553809180.356,29.785,-29.297,-32.715,25.879,0.000,0
1553809180.359,37.598,-32.715,-33.203,30.762,0.000,0
1553809180.363,39.551,-35.156,-34.668,25.391,0.000,0
1553809180.367,19.531,-34.668,-35.645,21.973,0.000,0
1553809180.371,0.488,-35.645,-35.156,19.043,0.000,0
1553809180.375,3.906,-36.133,-27.344,13.672,0.000,0
1553809180.379,-11.230,-46.875,-20.996,5.371,0.000,0
1553809180.383,-2.930,-42.969,-26.855,-0.488,0.000,0
1553809180.387,3.906,-30.273,-39.551,0.000,0.000,0
1553809180.391,7.812,-33.203,-32.227,12.695,0.000,0
1553809180.395,23.926,-35.156,-24.414,8.789,0.000,0
1553809180.399,19.531,-41.016,-28.809,6.836,0.000,0
1553809180.402,18.066,-39.062,-24.902,33.691,0.000,0
1553809180.406,22.949,-29.785,-25.391,43.945,0.000,0
1553809180.410,21.484,-25.879,-32.715,26.855,0.000,0
1553809180.414,17.090,-27.832,-35.645,29.785,0.000,0
1553809180.418,28.809,-30.762,-29.297,37.109,0.000,0
1553809180.422,23.926,-33.691,-27.344,-6.348,0.000,0
1553809180.426,3.906,-39.062,-26.855,2.441,0.000,0
1553809180.430,-1.465,-40.527,-23.926,36.133,0.000,0
1553809180.434,-10.742,-37.598,-21.973,26.367,0.000,0
1553809180.438,-2.441,-33.203,-26.855,17.090,0.000,0
1553809180.441,7.324,-35.645,-25.391,24.902,0.000,0
1553809180.445,14.160,-43.945,-18.066,21.484,0.000,0
1553809180.449,20.996,-41.992,-22.461,22.461,0.000,0
1553809180.453,14.648,-37.109,-26.367,28.320,0.000,0
1553809180.457,9.277,-35.645,-26.855,9.766,0.000,0
1553809180.461,13.672,-34.180,-25.879,14.160,0.000,0
1553809180.465,6.836,-36.133,-30.762,10.742,0.000,0
1553809180.469,-4.395,-40.039,-28.320,7.324,0.000,0
1553809180.473,-0.977,-40.039,-25.879,6.836,0.000,0
1553809180.477,1.465,-33.691,-26.855,16.602,0.000,0
1553809180.481,4.395,-30.762,-23.926,23.438,0.000,0
1553809180.484,0.000,-29.785,-23.438,2.441,0.000,0
1553809180.488,1.953,-33.203,-27.832,-0.977,0.000,0
1553809180.492,17.090,-35.156,-32.227,12.695,0.000,0
1553809180.496,7.324,-32.227,-24.414,32.227,0.000,0
1553809180.500,3.906,-29.785,-22.949,29.297,0.000,0
1553809180.504,4.395,-31.738,-26.855,11.230,0.000,0
1553809180.508,0.488,-30.762,-26.367,5.371,0.000,0
1553809180.512,0.977,-34.668,-27.344,-1.953,0.000,0
1553809180.516,-4.395,-41.016,-25.391,1.953,0.000,0
1553809180.520,3.906,-28.809,-16.602,32.715,0.000,0
1553809180.524,16.602,-21.484,-16.113,25.391,0.000,0
1553809180.527,16.602,-24.902,-23.438,16.113,0.000,0
1553809180.531,16.602,-31.250,-24.902,19.531,0.000,0
1553809180.535,19.531,-33.203,-28.320,12.695,0.000,0
1553809180.539,15.625,-30.762,-33.691,17.578,0.000,0
1553809180.543,8.789,-24.414,-37.598,7.324,0.000,0
1553809180.547,-16.113,-25.879,-33.203,-10.254,0.000,0
1553809180.551,-29.785,-29.785,-28.809,-4.883,0.000,0
1553809180.555,-3.418,-24.902,-34.180,-5.371,0.000,0
1553809180.559,9.277,-27.832,-30.762,10.254,0.000,0
1553809180.563,0.977,-35.156,-30.273,15.625,0.000,0
1553809180.566,5.371,-33.203,-29.785,24.902,0.000,0
1553809180.570,12.207,-25.879,-27.832,21.484,0.000,0
1553809180.574,9.277,-29.297,-30.273,1.953,0.000,0
1553809180.578,8.301,-35.645,-32.715,6.348,0.000,0
1553809180.582,-4.395,-33.691,-28.809,11.719,0.000,0
1553809180.586,-15.137,-28.809,-25.391,5.859,0.000,0
1553809180.590,-11.719,-37.598,-32.715,-2.441,0.000,0
1553809180.594,-5.371,-46.875,-32.227,-5.859,0.000,0
1553809180.598,-1.465,-30.273,-26.855,4.883,0.000,0
1553809180.602,1.465,-17.578,-26.367,25.391,0.000,0
1553809180.606,6.348,-23.438,-33.203,16.113,0.000,0
1553809180.609,11.719,-30.762,-38.086,12.207,0.000,0
1553809180.613,14.160,-30.762,-30.762,15.625,0.000,0
1553809180.617,1.465,-24.902,-23.438,26.855,0.000,0
1553809180.621,-2.441,-27.344,-18.066,29.297,0.000,0
1553809180.625,16.602,-34.668,-22.461,9.766,0.000,0
1553809180.629,12.695,-34.180,-28.320,7.324,0.000,0
1553809180.633,-6.348,-32.227,-25.391,6.836,0.000,0
1553809180.637,-8.301,-39.551,-26.367,9.277,0.000,0
1553809180.641,-7.812,-42.480,-28.320,29.297,0.000,0
1553809180.645,-1.953,-39.062,-30.762,16.113,0.000,0
1553809180.649,1.465,-37.109,-29.297,8.301,0.000,0
1553809180.652,7.324,-37.598,-21.484,29.297,0.000,0
1553809180.656,6.348,-38.086,-20.020,32.715,0.000,0
1553809180.660,7.812,-33.203,-23.438,24.902,0.000,0
1553809180.664,11.719,-28.320,-27.832,19.531,0.000,0
1553809180.668,3.418,-23.438,-35.645,10.742,0.000,0
1553809180.672,-16.602,-29.785,-35.156,-8.789,0.000,0
1553809180.676,-14.648,-34.668,-30.762,-19.043,0.000,0
1553809180.680,-4.395,-35.156,-35.645,-3.906,0.000,0
1553809180.684,-5.371,-40.527,-35.156,16.602,0.000,0
1553809180.688,9.766,-38.086,-25.879,27.344,0.000,0
1553809180.691,14.160,-35.645,-19.531,35.645,0.000,0
1553809180.695,18.555,-35.156,-18.555,29.297,0.000,0
1553809180.699,33.203,-33.691,-20.996,19.043,0.000,0
1553809180.703,4.883,-32.227,-24.414,14.160,0.000,0
1553809180.707,-7.324,-29.785,-26.855,12.695,0.000,0
1553809180.711,14.648,-30.273,-31.738,10.254,0.000,0
1553809180.715,0.977,-36.133,-36.621,6.836,0.000,0
1553809180.719,-8.301,-41.016,-33.691,12.207,0.000,0
1553809180.723,-5.371,-34.668,-32.715,-0.977,0.000,0
1553809180.727,1.953,-31.250,-35.156,4.883,0.000,0
1553809180.731,6.836,-28.809,-35.156,27.832,0.000,0
1553809180.734,11.719,-29.297,-29.785,21.973,0.000,0
1553809180.738,19.531,-30.273,-28.320,16.602,0.000,0
1553809180.742,14.160,-29.785,-31.250,21.973,0.000,0
1553809180.746,3.906,-26.367,-26.367,24.414,0.000,0
1553809180.750,-1.953,-22.461,-23.438,21.973,0.000,0
1553809180.754,4.395,-25.391,-20.020,19.043,0.000,0
1553809180.758,15.625,-28.320,-25.391,1.465,0.000,0
1553809180.762,-14.160,-24.902,-29.785,-6.836,0.000,0
1553809180.766,-43.945,-28.809,-24.414,11.230,0.000,0
1553809180.770,-31.738,-34.668,-34.668,8.301,0.000,0
1553809180.774,-9.766,-31.738,-34.180,-5.859,0.000,0
1553809180.777,-6.836,-32.227,-24.414,2.930,0.000,0
1553809180.781,-16.113,-38.574,-24.902,-0.488,0.000,0
1553809180.785,-13.184,-42.480,-29.785,-6.348,0.000,0
1553809180.789,0.488,-38.086,-26.367,10.742,0.000,0
1553809180.793,2.930,-35.156,-26.855,2.441,0.000,0
1553809180.797,-0.488,-31.738,-34.668,-4.395,0.000,0
1553809180.801,-16.602,-44.922,-28.809,3.906,0.000,0
1553809180.805,-14.648,-55.664,-30.273,0.000,0.000,0
1553809180.809,7.812,-41.016,-30.273,11.230,0.000,0
1553809180.813,4.883,-28.809,-26.855,6.348,0.000,0
1553809180.816,-8.301,-27.832,-26.367,23.438,0.000,0
1553809180.820,0.977,-32.715,-27.344,21.973,0.000,0
1553809180.824,8.789,-30.762,-24.902,6.836,0.000,0
1553809180.828,-5.859,-26.855,-26.367,16.602,0.000,0
1553809180.832,-13.672,-30.273,-29.297,19.043,0.000,0
1553809180.836,-17.090,-38.086,-29.785,6.836,0.000,0
1553809180.840,-11.719,-39.551,-31.250,16.602,0.000,0
1553809180.844,1.953,-40.039,-34.180,18.555,0.000,0
1553809180.848,6.836,-41.016,-33.203,-3.906,0.000,0
1553809180.852,20.020,-34.180,-26.855,8.301,0.000,0
1553809180.856,19.043,-29.297,-25.879,10.254,0.000,0
1553809180.859,-7.812,-31.250,-26.367,9.277,0.000,0
1553809180.863,-5.859,-38.574,-26.855,26.855,0.000,0
1553809180.867,3.906,-43.457,-22.949,26.855,0.000,0
1553809180.871,-9.766,-35.156,-20.508,2.930,0.000,0
1553809180.875,-20.020,-28.809,-29.297,4.883,0.000,0
1553809180.879,0.000,-36.133,-26.367,19.043,0.000,0
1553809180.883,19.043,-31.738,-22.949,14.160,0.000,0
1553809180.887,22.949,-26.367,-31.250,1.953,0.000,0
1553809180.891,0.977,-33.691,-35.645,-7.324,0.000,0
1553809180.895,-28.809,-37.109,-33.203,4.395,0.000,0
1553809180.899,-10.742,-34.668,-30.762,12.695,0.000,0
1553809180.902,0.000,-34.180,-29.297,9.766,0.000,0
1553809180.906,2.441,-32.227,-27.832,7.324,0.000,0
1553809180.910,-14.160,-39.062,-25.391,9.766,0.000,0
1553809180.914,-21.973,-41.992,-24.414,4.883,0.000,0
1553809180.918,-6.836,-35.645,-28.809,5.859,0.000,0
1553809180.922,-1.465,-31.738,-29.785,9.277,0.000,0
1553809180.926,4.395,-33.691,-28.809,-4.395,0.000,0
1553809180.930,5.371,-31.738,-31.738,-7.812,0.000,0
1553809180.934,-3.418,-31.250,-32.227,2.930,0.000,0
1553809180.938,-11.230,-32.227,-28.809,4.883,0.000,0
1553809180.941,-21.973,-30.273,-25.391,-4.883,0.000,0
1553809180.945,1.465,-32.227,-29.297,0.977,0.000,0
1553809180.949,15.137,-32.227,-31.250,17.578,0.000,0
1553809180.953,-12.695,-35.156,-35.156,3.906,0.000,0
1553809180.957,-8.789,-36.133,-41.504,10.742,0.000,0
1553809180.961,7.812,-25.879,-33.691,20.508,0.000,0
1553809180.965,15.625,-20.996,-29.785,31.738,0.000,0
1553809180.969,19.043,-26.367,-26.367,35.156,0.000,0
1553809180.973,13.672,-26.855,-27.344,17.090,0.000,0
1553809180.977,-22.461,-25.879,-31.250,23.926,0.000,0
1553809180.981,-22.461,-23.438,-31.250,9.766,0.000,0
1553809180.984,0.488,-20.508,-29.785,-5.859,0.000,0
1553809180.988,-7.324,-32.227,-34.180,-4.883,0.000,0
1553809180.992,-4.883,-30.762,-29.297,11.719,0.000,0
1553809180.996,17.090,-25.879,-22.949,33.203,0.000,0
1553809181.000,18.066,-35.156,-24.414,34.180,0.000,0
1553809181.004,5.371,-31.738,-26.367,37.109,0.000,0
1553809181.008,1.953,-28.320,-29.785,31.250,0.000,0
1553809181.012,7.324,-31.738,-31.738,-3.418,0.000,0
1553809181.016,-0.977,-34.668,-36.133,-17.578,0.000,0
1553809181.020,-0.977,-33.203,-32.715,-3.418,0.000,0
1553809181.024,10.742,-25.391,-27.832,4.395,0.000,0
1553809181.027,5.371,-25.391,-27.832,36.621,0.000,0
1553809181.031,6.836,-31.250,-32.227,37.598,0.000,0
1553809181.035,5.371,-35.156,-33.691,22.461,0.000,0
1553809181.039,2.441,-31.250,-29.785,16.602,0.000,0
1553809181.043,5.371,-26.367,-31.738,4.395,0.000,0
1553809181.047,-6.348,-34.180,-29.785,15.137,0.000,0
1553809181.051,-9.766,-36.621,-30.762,4.395,0.000,0
1553809181.055,-13.672,-26.367,-36.133,-6.836,0.000,0
1553809181.059,-2.441,-17.090,-35.156,6.836,0.000,0
1553809181.063,10.254,-19.043,-38.574,2.441,0.000,0
1553809181.066,-7.324,-27.832,-27.832,12.207,0.000,0
1553809181.070,-0.488,-27.344,-18.555,22.461,0.000,0
1553809181.074,-4.883,-31.250,-24.902,15.137,0.000,0
1553809181.078,-17.578,-36.133,-24.414,20.020,0.000,0
1553809181.082,-4.395,-39.551,-20.020,21.484,0.000,0
1553809181.086,-8.301,-41.016,-19.531,4.395,0.000,0
1553809181.090,-5.371,-36.621,-22.949,-2.930,0.000,0
1553809181.094,-29.785,-35.645,-27.344,-2.930,0.000,0
1553809181.098,-46.875,-41.992,-22.461,-3.418,0.000,0
1553809181.102,-26.367,-47.852,-16.113,16.113,0.000,0
1553809181.106,-11.719,-40.039,-20.508,26.367,0.000,0
1553809181.109,-6.836,-36.621,-27.344,14.648,0.000,0
1553809181.113,-4.883,-41.504,-21.484,19.043,0.000,0
1553809181.117,-6.348,-38.086,-14.160,25.879,0.000,0
1553809181.121,-9.277,-33.691,-16.113,28.809,0.000,0
1553809181.125,1.465,-25.391,-20.020,16.602,0.000,0
1553809181.129,7.812,-19.531,-20.508,17.578,0.000,0
1553809181.133,13.672,-21.973,-16.602,27.344,0.000,0
1553809181.137,10.254,-24.902,-20.020,19.043,0.000,0
1553809181.141,-11.230,-32.715,-28.320,4.395,0.000,0
1553809181.145,-13.184,-34.668,-26.367,3.418,0.000,0
1553809181.149,-9.277,-35.156,-26.367,17.578,0.000,0
1553809181.152,-14.648,-40.039,-29.297,21.484,0.000,0
1553809181.156,2.930,-38.086,-23.926,15.137,0.000,0
1553809181.160,2.930,-38.086,-20.508,10.742,0.000,0
1553809181.164,-13.184,-37.598,-28.320,10.254,0.000,0
1553809181.168,-8.301,-35.645,-32.227,8.301,0.000,0
1553809181.172,-2.441,-36.133,-35.156,8.789,0.000,0
1553809181.176,-1.953,-31.738,-24.414,13.184,0.000,0
1553809181.180,-7.812,-35.156,-13.184,13.672,0.000,0
1553809181.184,-1.953,-36.133,-22.461,10.254,0.000,0
1553809181.188,13.672,-30.762,-25.879,24.902,0.000,0
1553809181.191,7.324,-25.391,-28.320,28.320,0.000,0
1553809181.195,-7.812,-29.297,-29.297,-1.953,0.000,0
1553809181.199,2.441,-33.203,-23.438,3.418,0.000,0
1553809181.203,-1.953,-28.809,-21.484,19.043,0.000,0
1553809181.207,-2.930,-27.832,-17.090,23.438,0.000,0
1553809181.211,2.930,-28.320,-16.602,23.926,0.000,0
1553809181.215,1.465,-24.902,-19.043,14.648,0.000,0
1553809181.219,-6.836,-29.297,-25.391,13.184,0.000,0
1553809181.223,-8.301,-36.133,-27.344,7.324,0.000,0
1553809181.227,-7.812,-35.645,-28.809,8.789,0.000,0
1553809181.231,-9.766,-38.086,-33.203,20.508,0.000,0
1553809181.234,-7.324,-35.645,-27.344,17.090,0.000,0
1553809181.238,-12.207,-28.809,-19.043,2.930,0.000,0
1553809181.242,-14.160,-36.133,-24.414,-0.977,0.000,0
1553809181.246,-5.859,-39.062,-35.645,6.348,0.000,0
1553809181.250,-3.418,-27.832,-29.785,7.324,0.000,0
1553809181.254,-11.719,-27.344,-23.926,3.906,0.000,0
1553809181.258,-15.625,-32.715,-24.902,-0.977,0.000,0
1553809181.262,-16.113,-33.691,-29.297,11.230,0.000,0
1553809181.266,-9.277,-32.227,-28.320,15.137,0.000,0
1553809181.270,-5.371,-27.832,-26.367,-0.488,0.000,0
1553809181.274,-4.883,-26.367,-30.273,-12.695,0.000,0
1553809181.277,-3.418,-31.738,-28.809,5.371,0.000,0
1553809181.281,-29.297,-30.762,-28.809,9.277,0.000,0
1553809181.285,-28.320,-28.809,-33.203,-6.348,0.000,0
1553809181.289,5.859,-25.391,-32.227,6.348,0.000,0
1553809181.293,16.113,-30.762,-29.785,14.648,0.000,0
1553809181.297,-5.859,-41.992,-26.367,23.926,0.000,0
1553809181.301,-19.531,-36.621,-25.879,20.508,0.000,0
1553809181.305,-10.742,-35.156,-25.879,-0.977,0.000,0
1553809181.309,-18.066,-33.691,-24.902,-8.301,0.000,0
1553809181.313,-23.926,-30.273,-19.531,5.859,0.000,0
1553809181.316,-15.625,-32.715,-15.137,18.555,0.000,0
1553809181.320,-7.324,-30.273,-15.625,15.625,0.000,0
1553809181.324,4.883,-28.320,-17.578,24.414,0.000,0
1553809181.328,0.488,-33.203,-29.297,20.020,0.000,0
1553809181.332,-5.371,-33.691,-33.203,16.113,0.000,0
1553809181.336,-10.254,-33.203,-29.297,12.207,0.000,0
1553809181.340,-7.812,-29.297,-28.320,16.602,0.000,0
1553809181.344,-3.418,-22.949,-34.668,20.508,0.000,0
1553809181.348,-15.137,-32.715,-37.598,-3.418,0.000,0
1553809181.352,-5.371,-40.527,-21.973,1.465,0.000,0
1553809181.356,-4.395,-32.227,-15.625,6.348,0.000,0
1553809181.359,-15.625,-26.367,-26.855,-7.324,0.000,0
1553809181.363,-22.949,-26.367,-35.156,-11.719,0.000,0
1553809181.367,-5.371,-18.555,-33.203,5.371,0.000,0
1553809181.371,9.766,-16.113,-33.691,17.578,0.000,0
1553809181.375,-2.930,-22.461,-39.062,-0.488,0.000,0
1553809181.379,2.930,-19.531,-42.969,-9.766,0.000,0
1553809181.383,0.488,-19.531,-40.527,-10.742,0.000,0
1553809181.387,-30.273,-16.602,-39.062,-5.859,0.000,0
1553809181.391,-25.879,-15.625,-41.504,0.000,0.000,0
1553809181.395,-10.742,-19.531,-37.598,0.488,0.000,0
1553809181.399,-11.719,-21.973,-30.762,-1.465,0.000,0
1553809181.402,7.324,-22.461,-30.762,0.000,0.000,0
1553809181.406,6.836,-25.391,-37.598,12.207,0.000,0
1553809181.410,2.441,-24.414,-38.574,1.953,0.000,0
1553809181.414,21.973,-21.484,-34.180,0.977,0.000,0
1553809181.418,10.742,-25.879,-35.645,1.953,0.000,0
1553809181.422,-7.324,-24.414,-39.551,-0.977,0.000,0
1553809181.426,-9.277,-27.344,-33.203,10.742,0.000,0
1553809181.430,-6.836,-31.738,-29.297,-1.465,0.000,0
1553809181.434,7.324,-35.156,-30.762,12.207,0.000,0
1553809181.438,1.465,-38.574,-36.133,9.277,0.000,0
1553809181.441,-10.742,-32.715,-40.527,-11.719,0.000,0
1553809181.445,-3.418,-31.738,-36.621,-0.488,0.000,0
1553809181.449,8.301,-32.715,-38.086,5.371,0.000,0
1553809181.453,9.277,-26.367,-36.133,6.836,0.000,0
1553809181.457,-5.371,-28.809,-28.320,17.090,0.000,0
1553809181.461,-8.789,-27.832,-29.297,30.762,0.000,0
1553809181.465,-12.695,-21.484,-34.180,25.391,0.000,0
1553809181.469,-8.301,-28.809,-29.297,19.043,0.000,0
1553809181.473,12.207,-32.715,-27.832,28.320,0.000,0
1553809181.477,20.020,-32.227,-29.297,30.273,0.000,0
1553809181.481,-0.488,-31.250,-26.855,16.113,0.000,0
1553809181.484,-19.043,-26.855,-22.949,19.531,0.000,0
1553809181.488,-4.395,-26.367,-24.414,15.137,0.000,0
1553809181.492,10.742,-29.785,-34.180,-0.488,0.000,0
1553809181.496,3.906,-31.250,-34.668,15.625,0.000,0
1553809181.500,-8.789,-40.527,-32.715,26.367,0.000,0
1553809181.504,-9.277,-41.504,-31.250,7.324,0.000,0
1553809181.508,-3.906,-31.250,-23.438,13.184,0.000,0
1553809181.512,0.977,-26.367,-19.043,28.320,0.000,0
1553809181.516,-10.742,-30.273,-25.391,13.184,0.000,0
1553809181.520,-15.137,-37.598,-26.855,0.000,0.000,0
1553809181.524,-10.742,-38.574,-31.738,-14.160,0.000,0
1553809181.527,-9.277,-27.832,-38.086,-4.883,0.000,0
1553809181.531,-6.836,-26.367,-36.621,0.000,0.000,0
1553809181.535,-7.812,-31.250,-33.691,-0.488,0.000,0
1553809181.539,-19.531,-33.691,-28.809,5.371,0.000,0
1553809181.543,-10.742,-34.180,-29.297,19.043,0.000,0
1553809181.547,-6.836,-30.273,-33.203,11.230,0.000,0
1553809181.551,-11.230,-30.273,-29.297,3.906,0.000,0
1553809181.555,-2.930,-35.156,-30.273,9.766,0.000,0
1553809181.559,-7.324,-32.715,-29.297,11.719,0.000,0
1553809181.563,-4.395,-26.367,-25.879,8.301,0.000,0
1553809181.566,3.418,-22.949,-26.367,21.484,0.000,0
1553809181.570,-2.930,-25.879,-24.414,34.668,0.000,0
1553809181.574,-5.371,-24.902,-24.414,19.043,0.000,0
1553809181.578,-13.184,-22.461,-29.297,1.953,0.000,0
1553809181.582,-17.090,-28.809,-33.203,13.184,0.000,0
1553809181.586,-5.859,-33.691,-28.809,23.926,0.000,0
1553809181.590,-5.371,-36.133,-27.832,7.812,0.000,0
1553809181.594,1.465,-31.738,-28.320,5.859,0.000,0
1553809181.598,-13.672,-26.855,-29.297,13.672,0.000,0
1553809181.602,-10.742,-35.645,-32.227,15.625,0.000,0
1553809181.606,0.488,-37.598,-33.691,6.348,0.000,0
1553809181.609,-10.742,-34.180,-27.344,7.812,0.000,0
1553809181.613,-9.277,-29.785,-29.297,25.391,0.000,0
1553809181.617,-7.324,-26.367,-38.574,20.020,0.000,0
1553809181.621,12.207,-22.461,-39.551,8.301,0.000,0
1553809181.625,0.000,-22.461,-32.227,2.930,0.000,0
1553809181.629,1.465,-28.320,-33.203,1.465,0.000,0
1553809181.633,7.324,-26.855,-28.320,12.207,0.000,0
1553809181.637,-16.113,-24.414,-24.902,23.438,0.000,0
1553809181.641,-14.160,-21.484,-33.203,22.949,0.000,0
1553809181.645,-4.395,-24.414,-30.273,21.484,0.000,0
1553809181.649,3.906,-27.344,-35.156,12.695,0.000,0
1553809181.652,-4.883,-25.391,-34.668,12.207,0.000,0
1553809181.656,-18.555,-32.715,-31.250,10.254,0.000,0
1553809181.660,-23.438,-37.109,-30.273,-3.418,0.000,0
1553809181.664,-22.461,-35.156,-32.715,4.395,0.000,0
1553809181.668,-16.602,-38.574,-36.133,7.812,0.000,0
1553809181.672,-25.879,-39.551,-20.020,3.418,0.000,0
1553809181.676,-26.367,-37.109,-9.766,5.371,0.000,0
1553809181.680,-15.625,-41.504,-14.648,13.184,0.000,0
1553809181.684,-15.137,-41.992,-11.230,20.508,0.000,0
1553809181.688,-14.648,-35.645,-8.301,3.418,0.000,0
1553809181.691,-11.230,-37.598,-17.578,6.348,0.000,0
1553809181.695,1.953,-37.598,-24.902,13.184,0.000,0
1553809181.699,17.578,-32.227,-24.414,18.066,0.000,0
1553809181.703,-13.184,-34.668,-25.391,25.391,0.000,0
1553809181.707,-26.855,-41.504,-26.367,6.836,0.000,0
1553809181.711,-12.207,-44.922,-27.344,1.465,0.000,0
1553809181.715,-10.742,-39.551,-33.203,8.301,0.000,0
1553809181.719,-3.906,-29.297,-32.715,3.418,0.000,0
1553809181.723,3.906,-27.344,-26.367,1.465,0.000,0
1553809181.727,7.812,-25.391,-24.902,14.648,0.000,0
1553809181.731,-7.812,-21.973,-24.414,5.859,0.000,0
1553809181.734,-17.578,-28.809,-29.297,-6.836,0.000,0
1553809181.738,-3.418,-32.715,-36.133,7.324,0.000,0
1553809181.742,-9.277,-24.902,-32.227,0.488,0.000,0
1553809181.746,-22.461,-23.926,-32.715,1.953,0.000,0
1553809181.750,-12.695,-30.273,-36.621,25.391,0.000,0
1553809181.754,7.812,-24.414,-36.133,31.250,0.000,0
1553809181.758,14.648,-17.578,-31.738,16.113,0.000,0
1553809181.762,0.000,-19.043,-22.461,9.277,0.000,0
1553809181.766,-14.648,-20.996,-27.344,19.043,0.000,0
1553809181.770,-14.160,-15.137,-31.738,7.812,0.000,0
1553809181.774,-3.906,-18.066,-29.297,7.324,0.000,0
1553809181.777,4.395,-18.555,-27.832,17.090,0.000,0
1553809181.781,2.930,-11.230,-24.902,19.531,0.000,0
1553809181.785,-1.465,-16.602,-23.438,23.926,0.000,0
1553809181.789,-11.230,-25.391,-26.367,23.438,0.000,0
1553809181.793,-18.066,-24.414,-25.879,13.184,0.000,0
1553809181.797,-5.371,-17.578,-22.949,17.578,0.000,0
1553809181.801,-3.418,-19.043,-27.832,14.160,0.000,0
1553809181.805,-6.836,-23.438,-29.297,-2.441,0.000,0
1553809181.809,-11.230,-26.367,-26.855,-7.812,0.000,0
1553809181.813,-20.996,-27.344,-24.902,-7.324,0.000,0
1553809181.816,-20.020,-21.484,-18.066,9.277,0.000,0
1553809181.820,-6.348,-11.230,-19.043,18.555,0.000,0
1553809181.824,-10.254,-7.812,-29.297,21.484,0.000,0
1553809181.828,-22.461,-15.137,-31.250,7.324,0.000,0
1553809181.832,-15.625,-18.066,-22.949,7.812,0.000,0
1553809181.836,-8.301,-15.625,-20.508,13.672,0.000,0
1553809181.840,-11.719,-14.160,-27.832,6.348,0.000,0
1553809181.844,-16.113,-18.555,-32.227,4.883,0.000,0
1553809181.848,-10.254,-23.438,-34.668,8.789,0.000,0
1553809181.852,0.977,-14.648,-36.133,11.230,0.000,0
1553809181.856,-16.113,-13.184,-33.203,-7.812,0.000,0
1553809181.859,-2.441,-21.973,-32.715,-7.324,0.000,0
1553809181.863,-9.766,-26.367,-35.645,0.488,0.000,0
1553809181.867,-37.109,-31.738,-30.762,-6.348,0.000,0
1553809181.871,-47.852,-36.621,-23.438,-3.418,0.000,0
1553809181.875,-40.527,-35.645,-24.414,-10.254,0.000,0
1553809181.879,-8.789,-32.227,-20.020,-8.301,0.000,0
1553809181.883,-16.602,-25.879,-14.160,21.484,0.000,0
1553809181.887,-24.414,-28.320,-14.160,30.273,0.000,0
1553809181.891,-13.672,-31.250,-12.207,4.883,0.000,0
1553809181.895,-20.020,-32.715,-13.184,5.371,0.000,0
1553809181.899,-13.184,-31.250,-15.625,20.020,0.000,0
1553809181.902,-0.977,-25.879,-13.672,32.227,0.000,0
1553809181.906,0.488,-29.785,-11.719,41.992,0.000,0
1553809181.910,19.531,-27.832,-14.648,42.480,0.000,0
1553809181.914,20.020,-22.949,-16.602,49.805,0.000,0
1553809181.918,18.066,-19.531,-15.137,52.734,0.000,0
1553809181.922,32.227,-23.438,-17.578,47.852,0.000,0
1553809181.926,23.438,-26.367,-19.531,39.551,0.000,0
1553809181.930,6.836,-30.273,-17.090,43.945,0.000,0
1553809181.934,29.785,-19.531,-13.672,52.246,0.000,0
1553809181.938,46.875,-14.160,-19.531,51.270,0.000,0
1553809181.941,28.320,-23.926,-17.090,56.641,0.000,0
1553809181.945,25.391,-20.508,-13.672,51.270,0.000,0
1553809181.949,29.297,-18.555,-14.648,38.574,0.000,0
1553809181.953,6.836,-24.414,-19.043,34.180,0.000,0
1553809181.957,0.000,-35.156,-26.855,28.809,0.000,0
1553809181.961,23.926,-31.738,-23.438,38.086,0.000,0
1553809181.965,30.762,-15.625,-3.418,49.805,0.000,0
1553809181.969,25.879,-3.418,1.465,46.387,0.000,0
1553809181.973,20.996,-18.555,-30.273,24.414,0.000,0
1553809181.977,-1.465,-34.180,-43.945,10.254,0.000,0
1553809181.981,-3.906,-27.344,-35.645,18.066,0.000,0
1553809181.984,-8.789,-32.227,-33.691,20.508,0.000,0
1553809181.988,1.465,-41.992,-22.949,34.180,0.000,0
1553809181.992,13.672,-23.438,-19.531,23.438,0.000,0
1553809181.996,-11.230,-4.883,-24.414,-1.465,0.000,0
1553809182.000,-20.508,-3.418,-20.020,3.418,0.000,0
1553809182.004,-14.160,-16.602,-12.207,9.277,0.000,0
1553809182.008,-6.836,-32.715,-34.668,-1.465,0.000,0
1553809182.012,-8.789,-47.852,-70.801,-24.414,0.000,0
1553809182.016,-41.992,-49.805,-65.430,-27.344,0.000,0
1553809182.020,-61.523,-35.645,-36.133,-15.137,0.000,0
1553809182.024,-26.367,-32.715,-6.836,10.254,0.000,0
1553809182.027,-17.578,-43.457,-26.855,-9.766,0.000,0
1553809182.031,-11.230,-24.902,-38.086,-5.859,0.000,0
1553809182.035,-10.742,-27.832,-36.133,14.160,0.000,0
1553809182.039,-7.812,-35.645,-40.039,8.301,0.000,0
1553809182.043,5.859,-21.973,-25.879,17.090,0.000,0
1553809182.047,6.836,-15.137,-9.766,32.715,0.000,0
1553809182.051,-2.930,-20.508,-19.043,34.180,0.000,0
1553809182.055,2.930,-27.344,-35.645,22.949,0.000,0
1553809182.059,24.414,-10.254,-15.137,29.297,0.000,0
1553809182.063,-3.906,-25.391,-21.973,23.926,0.000,0
1553809182.066,-11.719,-37.598,-22.461,18.066,0.000,0
1553809182.070,-13.672,-29.297,-14.648,13.184,0.000,0
1553809182.074,-13.672,-20.020,-18.066,26.367,0.000,0
1553809182.078,-19.043,-13.672,-12.207,32.227,0.000,0
1553809182.082,-12.695,-8.789,-11.719,24.902,0.000,0
1553809182.086,9.277,-8.789,-13.672,32.715,0.000,0
1553809182.090,7.324,-9.766,-10.742,28.809,0.000,0
1553809182.094,-11.230,-11.230,-11.230,20.508,0.000,0
1553809182.098,-12.207,-17.578,-15.137,18.555,0.000,0
1553809182.102,-4.395,-19.531,-15.625,31.738,0.000,0
1553809182.106,-6.348,-17.090,-14.160,35.645,0.000,0
1553809182.109,12.695,-10.742,-24.902,30.762,0.000,0
1553809182.113,13.184,-3.418,-33.691,5.859,0.000,0
1553809182.117,-15.137,-10.254,-28.320,15.137,0.000,0
1553809182.121,-20.508,-16.602,-29.785,34.180,0.000,0
1553809182.125,-11.230,-10.254,-35.156,19.043,0.000,0
1553809182.129,4.883,-12.695,-38.086,28.320,0.000,0
1553809182.133,19.531,-15.137,-39.062,20.996,0.000,0
1553809182.137,23.438,-8.789,-34.668,8.301,0.000,0
1553809182.141,4.883,-2.441,-32.715,2.930,0.000,0
1553809182.145,-18.555,-12.695,-35.645,21.484,0.000,0
1553809182.149,-23.438,-23.438,-36.133,11.719,0.000,0
1553809182.152,-17.090,-25.879,-41.992,-21.973,0.000,0
1553809182.156,-22.461,-27.832,-45.410,-6.348,0.000,0
1553809182.160,-7.812,-20.996,-47.363,6.836,0.000,0
1553809182.164,4.395,-22.461,-49.805,-13.184,0.000,0
1553809182.168,4.883,-22.461,-41.504,-6.836,0.000,0
1553809182.172,9.766,-20.020,-43.457,-10.742,0.000,0
1553809182.176,-34.180,-23.926,-46.387,-8.301,0.000,0
1553809182.180,-68.848,-25.879,-45.410,-21.973,0.000,0
1553809182.184,-50.781,-28.320,-42.480,-25.391,0.000,0
1553809182.188,-36.621,-30.273,-38.086,-2.930,0.000,0
1553809182.191,-40.039,-30.273,-37.598,-10.254,0.000,0
1553809182.195,-12.207,-27.832,-38.574,-13.184,0.000,0
1553809182.199,-3.418,-28.809,-32.227,1.465,0.000,0
1553809182.203,-36.621,-31.738,-28.809,-15.625,0.000,0
1553809182.207,-57.129,-35.156,-29.785,-29.785,0.000,0
1553809182.211,-44.922,-41.504,-27.344,-11.230,0.000,0
1553809182.215,-35.156,-40.527,-27.344,-4.883,0.000,0
1553809182.219,-41.992,-39.062,-22.461,-4.883,0.000,0
1553809182.223,-25.391,-39.062,-21.973,-11.230,0.000,0
1553809182.227,-20.508,-36.621,-27.832,-16.602,0.000,0
1553809182.231,-14.648,-32.715,-26.367,-7.324,0.000,0
1553809182.234,-10.742,-23.926,-26.855,1.953,0.000,0
1553809182.238,-9.277,-21.484,-29.785,-3.418,0.000,0
1553809182.242,-18.066,-26.855,-24.414,-10.254,0.000,0
1553809182.246,-40.039,-32.715,-20.508,-3.418,0.000,0
1553809182.250,-31.250,-33.691,-23.926,3.418,0.000,0
1553809182.254,-29.785,-34.668,-27.832,-16.113,0.000,0
1553809182.258,-33.691,-33.203,-32.227,-13.672,0.000,0
1553809182.262,-23.926,-34.180,-31.250,-1.953,0.000,0
1553809182.266,-32.227,-33.203,-31.250,-17.090,0.000,0
1553809182.270,-37.598,-30.762,-27.832,-12.695,0.000,0
1553809182.274,-27.832,-35.156,-22.949,-11.230,0.000,0
1553809182.277,-35.645,-34.180,-28.809,-12.207,0.000,0
1553809182.281,-30.762,-29.785,-25.879,-3.418,0.000,0
1553809182.285,-16.602,-29.297,-16.113,1.465,0.000,0
1553809182.289,-29.785,-31.738,-11.719,7.812,0.000,0
1553809182.293,-42.969,-41.016,-20.020,-7.324,0.000,0
1553809182.297,-35.645,-40.039,-26.855,1.465,0.000,0
1553809182.301,-31.738,-32.715,-25.879,-0.488,0.000,0
1553809182.305,-28.809,-27.344,-26.367,-8.789,0.000,0
1553809182.309,-8.301,-19.043,-24.902,12.695,0.000,0
1553809182.313,-5.371,-24.902,-28.320,0.977,0.000,0
1553809182.316,-9.766,-26.855,-26.855,-12.207,0.000,0
1553809182.320,-14.160,-28.320,-20.020,9.277,0.000,0
1553809182.324,-20.508,-34.180,-23.438,16.113,0.000,0
1553809182.328,-11.230,-28.809,-26.367,4.395,0.000,0
1553809182.332,-11.230,-29.785,-22.949,11.230,0.000,0
1553809182.336,-23.926,-32.715,-23.926,23.438,0.000,0
1553809182.340,-38.086,-31.250,-31.738,12.207,0.000,0
1553809182.344,-26.855,-31.738,-41.016,-0.488,0.000,0
1553809182.348,-11.230,-28.320,-39.551,1.465,0.000,0
1553809182.352,-16.602,-28.809,-31.250,14.160,0.000,0
1553809182.356,-11.230,-24.414,-26.855,0.000,0.000,0
1553809182.359,-2.930,-21.484,-23.438,-10.742,0.000,0
1553809182.363,-26.367,-22.461,-34.668,3.418,0.000,0
1553809182.367,-41.992,-26.367,-39.062,3.418,0.000,0
1553809182.371,-40.039,-35.156,-30.273,9.766,0.000,0
1553809182.375,-33.203,-31.250,-30.762,2.930,0.000,0
1553809182.379,-18.555,-31.250,-35.156,1.465,0.000,0
1553809182.383,-20.996,-28.320,-36.621,14.648,0.000,0
1553809182.387,-15.625,-26.855,-34.668,6.836,0.000,0
1553809182.391,-22.461,-34.668,-26.367,-1.953,0.000,0
1553809182.395,-25.879,-37.109,-27.832,0.977,0.000,0
1553809182.399,-18.066,-36.621,-38.574,1.465,0.000,0
1553809182.402,-11.230,-37.109,-36.621,6.348,0.000,0
1553809182.406,-15.137,-33.691,-29.297,5.859,0.000,0
1553809182.410,-24.414,-33.691,-32.227,9.277,0.000,0
1553809182.414,-28.320,-29.785,-35.156,6.348,0.000,0
1553809182.418,-25.879,-24.414,-34.180,-4.883,0.000,0
1553809182.422,-19.043,-26.367,-28.809,-1.465,0.000,0
1553809182.426,-1.953,-21.973,-30.273,-4.883,0.000,0
1553809182.430,-7.812,-21.484,-30.762,0.000,0.000,0
1553809182.434,-14.160,-16.602,-21.973,30.273,0.000,0
1553809182.438,0.488,-13.672,-21.973,15.625,0.000,0
1553809182.441,-12.695,-24.902,-26.855,-18.066,0.000,0
1553809182.445,-25.879,-28.320,-26.367,-15.625,0.000,0
1553809182.449,-11.230,-23.926,-25.879,-7.812,0.000,0
1553809182.453,-5.859,-24.902,-31.250,1.465,0.000,0
1553809182.457,-19.043,-27.832,-32.227,10.254,0.000,0
1553809182.461,-23.438,-27.832,-35.156,11.230,0.000,0
1553809182.465,-11.230,-23.926,-41.016,8.789,0.000,0
1553809182.469,-3.906,-28.809,-36.133,17.578,0.000,0
1553809182.473,-12.695,-31.250,-29.297,7.812,0.000,0
1553809182.477,-30.273,-29.297,-30.762,-1.953,0.000,0
1553809182.481,-35.156,-28.320,-31.738,4.395,0.000,0
1553809182.484,-20.996,-26.855,-30.273,2.441,0.000,0
1553809182.488,-22.461,-24.414,-29.785,-2.930,0.000,0
1553809182.492,-40.527,-26.367,-30.762,-5.371,0.000,0
1553809182.496,-31.738,-29.297,-38.086,-21.484,0.000,0
1553809182.500,-32.227,-31.250,-43.945,-20.996,0.000,0
1553809182.504,-27.832,-29.785,-32.715,13.672,0.000,0
1553809182.508,-23.438,-25.391,-24.414,26.367,0.000,0
1553809182.512,-30.273,-28.809,-26.855,4.883,0.000,0
1553809182.516,-27.832,-30.273,-31.250,-10.254,0.000,0
1553809182.520,-20.996,-30.273,-29.297,14.648,0.000,0
1553809182.524,-21.484,-30.762,-23.926,28.809,0.000,0
1553809182.527,-24.902,-28.320,-23.438,8.789,0.000,0
1553809182.531,-20.508,-28.809,-22.461,17.578,0.000,0
1553809182.535,-17.578,-27.832,-19.043,13.184,0.000,0
1553809182.539,-29.297,-31.738,-18.066,-14.648,0.000,0
1553809182.543,-17.090,-28.320,-23.438,-7.812,0.000,0
1553809182.547,-28.320,-25.391,-33.203,-9.766,0.000,0
1553809182.551,-40.039,-31.250,-36.133,-9.766,0.000,0
1553809182.555,-28.320,-30.762,-32.227,0.977,0.000,0
1553809182.559,-35.645,-28.809,-29.297,8.789,0.000,0
1553809182.563,-21.484,-31.738,-29.297,0.000,0.000,0
1553809182.566,-25.879,-29.297,-30.273,-9.766,0.000,0
1553809182.570,-55.664,-33.691,-32.715,-11.719,0.000,0
1553809182.574,-32.227,-40.039,-25.391,-2.441,0.000,0
1553809182.578,-16.113,-27.832,-27.832,2.930,0.000,0
1553809182.582,-9.766,-17.090,-38.086,0.000,0.000,0
1553809182.586,-2.441,-21.973,-35.645,2.930,0.000,0
1553809182.590,-11.719,-31.738,-29.785,10.742,0.000,0
1553809182.594,-34.668,-28.809,-23.926,14.648,0.000,0
1553809182.598,-51.758,-27.344,-18.555,-8.789,0.000,0
1553809182.602,-56.152,-36.133,-18.555,-13.672,0.000,0
1553809182.606,-51.758,-36.621,-20.508,4.395,0.000,0
1553809182.609,-33.691,-32.227,-24.414,0.488,0.000,0
1553809182.613,-25.391,-37.598,-25.879,-0.977,0.000,0
1553809182.617,-25.879,-37.598,-23.438,11.719,0.000,0
1553809182.621,-35.645,-32.227,-20.020,26.855,0.000,0
1553809182.625,-43.457,-40.527,-20.020,9.766,0.000,0
1553809182.629,-39.062,-47.363,-26.367,-2.441,0.000,0
1553809182.633,-34.180,-45.898,-26.855,9.766,0.000,0
1553809182.637,-28.809,-45.410,-23.438,0.977,0.000,0
1553809182.641,-32.715,-47.363,-23.438,-7.812,0.000,0
1553809182.645,-34.668,-42.480,-26.367,0.977,0.000,0
1553809182.649,-13.672,-32.715,-27.344,-2.930,0.000,0
1553809182.652,-3.418,-27.832,-22.949,-1.465,0.000,0
1553809182.656,-18.066,-25.879,-18.555,26.367,0.000,0
1553809182.660,-23.926,-25.879,-9.277,26.367,0.000,0
1553809182.664,-17.578,-14.648,-5.371,14.160,0.000,0
1553809182.668,-24.414,-9.766,-13.672,13.184,0.000,0
1553809182.672,-19.531,-7.812,-19.043,16.113,0.000,0
1553809182.676,0.977,-11.719,-28.320,4.395,0.000,0
1553809182.680,-15.625,-9.766,-16.602,-1.465,0.000,0
1553809182.684,-39.551,-5.859,-6.836,-3.906,0.000,0
1553809182.688,-47.852,-13.672,-2.930,7.812,0.000,0
1553809182.691,-32.715,7.324,3.418,13.184,0.000,0
1553809182.695,-28.809,27.344,36.133,-10.742,0.000,0
1553809182.699,-60.059,23.926,37.598,-41.504,0.000,0
1553809182.703,-82.031,29.297,-0.977,-56.152,0.000,0
1553809182.707,-97.656,38.086,-0.488,-55.664,0.000,0
1553809182.711,-103.027,45.898,12.207,-83.496,0.000,0
1553809182.715,-88.867,59.570,20.508,-84.473,0.000,0
1553809182.719,-102.539,56.152,25.879,-86.426,0.000,0
1553809182.723,-131.836,45.898,30.762,-102.539,0.000,0
1553809182.727,-138.672,50.781,26.367,-106.934,0.000,0
1553809182.731,-125.977,54.199,24.414,-104.492,0.000,0
1553809182.734,-121.582,46.387,28.809,-98.145,0.000,0
1553809182.738,-133.789,30.273,21.484,-106.445,0.000,0
1553809182.742,-135.742,12.207,9.277,-98.633,0.000,0
1553809182.746,-118.652,-9.277,7.324,-84.961,0.000,0
1553809182.750,-105.469,-18.066,2.441,-82.520,0.000,0
1553809182.754,-115.234,-24.414,-6.836,-64.453,0.000,0
1553809182.758,-102.539,-32.715,-15.625,-40.527,0.000,0
1553809182.762,-76.172,-26.367,-20.020,-58.594,0.000,0
1553809182.766,-66.895,-30.273,-18.555,-59.570,0.000,0
1553809182.770,-68.359,-37.598,-29.785,-42.969,0.000,0
1553809182.774,-67.871,-54.688,-38.086,-22.949,0.000,0
1553809182.777,-30.762,-60.059,-36.133,-9.766,0.000,0
1553809182.781,-12.207,-54.199,-39.551,-9.766,0.000,0
1553809182.785,-41.504,-62.012,-46.387,-2.930,0.000,0
1553809182.789,-51.270,-59.082,-50.781,-11.719,0.000,0
1553809182.793,-40.039,-51.758,-46.875,-6.348,0.000,0
1553809182.797,-20.020,-56.152,-47.852,8.789,0.000,0
1553809182.801,-10.742,-59.570,-54.199,23.926,0.000,0
1553809182.805,-5.859,-53.711,-48.828,31.250,0.000,0
1553809182.809,-18.555,-58.105,-45.410,23.926,0.000,0
1553809182.813,-29.785,-61.523,-52.734,11.719,0.000,0
1553809182.816,-10.254,-63.965,-54.199,5.371,0.000,0
1553809182.820,7.812,-61.523,-56.641,12.695,0.000,0
1553809182.824,4.883,-54.199,-57.617,13.184,0.000,0
1553809182.828,-2.441,-53.711,-47.363,20.508,0.000,0
1553809182.832,-11.719,-57.617,-48.340,31.738,0.000,0
1553809182.836,-4.883,-67.871,-55.176,23.926,0.000,0
1553809182.840,0.977,-62.988,-49.316,26.855,0.000,0
1553809182.844,-9.277,-55.176,-41.504,20.996,0.000,0
1553809182.848,-1.465,-52.246,-42.969,21.973,0.000,0
1553809182.852,10.742,-52.734,-37.598,42.969,0.000,0
1553809182.856,10.254,-57.129,-38.574,39.062,0.000,0
1553809182.859,-4.395,-59.082,-48.828,31.738,0.000,0
1553809182.863,10.742,-61.035,-46.875,21.484,0.000,0
1553809182.867,28.320,-54.688,-47.852,16.602,0.000,0
1553809182.871,9.766,-52.246,-51.758,41.992,0.000,0
1553809182.875,-3.418,-52.246,-44.434,48.340,0.000,0
1553809182.879,-15.137,-52.734,-45.898,36.133,0.000,0
1553809182.883,18.555,-45.410,-42.969,40.039,0.000,0
1553809182.887,12.207,-33.203,-29.785,25.391,0.000,0
1553809182.891,-18.066,-32.715,-28.809,17.090,0.000,0
1553809182.895,-3.418,-37.598,-35.645,23.438,0.000,0
1553809182.899,-12.695,-42.969,-40.527,15.137,0.000,0
1553809182.902,-14.648,-47.852,-39.551,15.625,0.000,0
1553809182.906,-12.207,-46.387,-38.574,26.367,0.000,0
1553809182.910,-19.531,-47.363,-40.527,27.832,0.000,0
1553809182.914,-17.578,-53.711,-39.551,22.949,0.000,0
1553809182.918,-11.719,-50.293,-36.621,17.578,0.000,0
1553809182.922,1.465,-40.527,-36.621,11.230,0.000,0
1553809182.926,9.277,-42.480,-38.574,14.160,0.000,0
1553809182.930,-6.836,-43.457,-36.621,10.742,0.000,0
1553809182.934,-22.949,-37.598,-35.645,21.484,0.000,0
1553809182.938,-13.672,-41.016,-32.715,42.969,0.000,0
1553809182.941,-10.742,-41.992,-30.273,22.461,0.000,0
1553809182.945,-13.672,-29.297,-35.645,-1.465,0.000,0
1553809182.949,-10.742,-26.855,-38.574,4.883,0.000,0
1553809182.953,-15.137,-33.203,-43.945,11.230,0.000,0
1553809182.957,-19.531,-32.715,-47.363,12.695,0.000,0
1553809182.961,-10.742,-36.621,-48.828,16.602,0.000,0
1553809182.965,-5.371,-35.156,-51.270,8.789,0.000,0
1553809182.969,-18.555,-26.855,-49.805,11.230,0.000,0
1553809182.973,4.395,-22.949,-42.480,34.180,0.000,0
1553809182.977,16.113,-25.879,-41.504,34.668,0.000,0
1553809182.981,-5.371,-31.250,-47.852,8.301,0.000,0
1553809182.984,-7.324,-33.203,-49.805,11.719,0.000,0
1553809182.988,-1.465,-32.715,-41.016,43.457,0.000,0
1553809182.992,-6.836,-30.273,-37.109,33.691,0.000,0
1553809182.996,-7.812,-33.203,-38.086,20.020,0.000,0
1553809183.000,2.441,-32.715,-42.480,20.508,0.000,0
1553809183.004,10.742,-25.879,-50.293,15.137,0.000,0
1553809183.008,14.160,-26.367,-50.781,29.297,0.000,0
1553809183.012,1.953,-29.297,-46.875,49.805,0.000,0
1553809183.016,-4.883,-28.320,-42.480,26.855,0.000,0
1553809183.020,-13.184,-35.645,-35.645,-1.465,0.000,0
1553809183.024,-19.043,-40.527,-40.527,-0.488,0.000,0
1553809183.027,2.441,-40.039,-48.828,14.160,0.000,0
1553809183.031,6.836,-38.574,-40.039,38.086,0.000,0
1553809183.035,-20.020,-40.039,-34.668,22.949,0.000,0
1553809183.039,-12.695,-39.551,-38.574,12.695,0.000,0
1553809183.043,0.488,-36.133,-37.598,25.391,0.000,0
1553809183.047,-4.883,-35.156,-35.645,17.578,0.000,0
1553809183.051,-9.766,-31.738,-32.227,22.461,0.000,0
1553809183.055,-20.020,-28.809,-29.297,15.625,0.000,0
1553809183.059,-9.766,-31.250,-31.738,27.832,0.000,0
1553809183.063,-10.742,-38.086,-29.785,35.156,0.000,0
1553809183.066,-10.742,-39.062,-27.344,20.996,0.000,0
1553809183.070,-1.953,-36.133,-25.879,14.160,0.000,0
1553809183.074,-19.531,-33.691,-33.203,-2.441,0.000,0
1553809183.078,-21.484,-37.109,-39.551,11.719,0.000,0
1553809183.082,-12.207,-38.086,-34.180,16.602,0.000,0
1553809183.086,-25.391,-35.645,-35.156,0.488,0.000,0
1553809183.090,-12.695,-35.645,-32.715,2.930,0.000,0
1553809183.094,-1.465,-34.668,-31.250,6.348,0.000,0
1553809183.098,-15.137,-39.062,-31.250,-1.953,0.000,0
1553809183.102,-17.578,-45.898,-30.273,3.906,0.000,0
1553809183.106,-4.395,-46.387,-39.062,-5.859,0.000,0
1553809183.109,5.371,-37.598,-43.457,-2.441,0.000,0
1553809183.113,-28.320,-31.250,-39.551,13.672,0.000,0
1553809183.117,-36.133,-27.832,-37.109,2.930,0.000,0
1553809183.121,-21.973,-27.344,-34.180,-1.953,0.000,0
1553809183.125,-24.414,-36.133,-35.156,-0.977,0.000,0
1553809183.129,-10.742,-34.668,-29.297,5.371,0.000,0
1553809183.133,-9.766,-28.320,-28.809,12.207,0.000,0
1553809183.137,-13.672,-34.668,-29.297,17.578,0.000,0
1553809183.141,-6.836,-28.809,-26.855,8.789,0.000,0
1553809183.145,-18.066,-25.879,-28.809,0.977,0.000,0
1553809183.149,-24.902,-29.785,-26.367,22.461,0.000,0
1553809183.152,-16.602,-19.043,-29.785,30.273,0.000,0
1553809183.156,8.789,-13.672,-28.809,20.020,0.000,0
1553809183.160,-2.930,-19.043,-32.715,-3.418,0.000,0
1553809183.164,-15.625,-21.484,-35.156,-1.953,0.000,0
1553809183.168,-21.484,-27.344,-27.832,3.418,0.000,0
1553809183.172,3.418,-35.156,-26.367,19.531,0.000,0
1553809183.176,15.137,-34.668,-22.461,42.480,0.000,0
1553809183.180,-25.879,-32.227,-29.785,1.953,0.000,0
1553809183.184,-21.484,-28.320,-33.203,-6.836,0.000,0
1553809183.188,-13.672,-27.344,-33.691,5.371,0.000,0
1553809183.191,-7.812,-31.738,-36.133,16.602,0.000,0
1553809183.195,-11.230,-29.785,-32.227,34.668,0.000,0
1553809183.199,-20.996,-30.273,-26.855,14.160,0.000,0
1553809183.203,-8.789,-35.156,-22.461,10.742,0.000,0
1553809183.207,-2.930,-34.180,-25.391,16.113,0.000,0
1553809183.211,-14.648,-31.738,-30.762,2.441,0.000,0
1553809183.215,5.371,-35.156,-30.762,0.977,0.000,0
1553809183.219,14.160,-41.504,-31.250,40.527,0.000,0
1553809183.223,-10.254,-45.898,-33.691,41.504,0.000,0
1553809183.227,-24.902,-42.480,-29.297,19.043,0.000,0
1553809183.231,-20.996,-35.156,-27.344,20.996,0.000,0
1553809183.234,-10.742,-32.715,-29.297,15.625,0.000,0
1553809183.238,-6.348,-32.715,-28.809,3.906,0.000,0
1553809183.242,-9.766,-40.527,-33.203,9.277,0.000,0
1553809183.246,-15.137,-40.527,-34.180,21.484,0.000,0
1553809183.250,-10.254,-38.086,-29.785,11.719,0.000,0
1553809183.254,-6.348,-39.551,-37.598,17.578,0.000,0
1553809183.258,-3.418,-35.156,-35.645,20.996,0.000,0
1553809183.262,-16.113,-40.039,-34.668,-1.953,0.000,0
1553809183.266,-16.602,-38.086,-41.016,7.324,0.000,0
1553809183.270,-13.184,-32.715,-31.738,24.414,0.000,0
1553809183.274,-13.672,-24.902,-32.715,8.789,0.000,0
1553809183.277,-14.648,-24.902,-35.645,-0.488,0.000,0
1553809183.281,-20.020,-30.762,-32.227,7.324,0.000,0
1553809183.285,-9.277,-30.273,-31.250,11.719,0.000,0
1553809183.289,-1.953,-26.367,-33.203,12.207,0.000,0
1553809183.293,-5.371,-30.762,-35.645,8.301,0.000,0
1553809183.297,-2.930,-34.180,-38.086,0.488,0.000,0
1553809183.301,0.488,-32.227,-38.574,-0.488,0.000,0
1553809183.305,-4.883,-38.086,-39.551,7.812,0.000,0
1553809183.309,-31.738,-40.039,-37.109,2.930,0.000,0
1553809183.313,-15.137,-33.691,-36.133,-0.977,0.000,0
1553809183.316,-0.977,-29.785,-35.645,7.812,0.000,0
1553809183.320,-28.809,-29.785,-23.438,5.371,0.000,0
1553809183.324,-40.527,-31.738,-23.438,3.906,0.000,0
1553809183.328,-36.133,-33.691,-20.020,11.230,0.000,0
1553809183.332,-18.066,-31.250,-20.508,10.254,0.000,0
1553809183.336,-3.906,-29.297,-33.203,5.371,0.000,0
1553809183.340,-10.254,-31.250,-29.785,10.254,0.000,0
1553809183.344,-7.324,-33.691,-24.902,17.578,0.000,0
1553809183.348,0.000,-30.762,-27.832,24.414,0.000,0
1553809183.352,-11.230,-28.809,-25.879,28.320,0.000,0
1553809183.356,-14.160,-32.227,-24.414,4.395,0.000,0
1553809183.359,-11.230,-35.645,-29.785,-12.207,0.000,0
1553809183.363,-17.090,-38.574,-33.203,8.301,0.000,0
1553809183.367,-19.531,-36.133,-29.297,19.531,0.000,0
1553809183.371,-14.648,-36.133,-19.531,22.949,0.000,0
1553809183.375,-17.090,-40.039,-19.043,25.391,0.000,0
1553809183.379,-11.719,-27.832,-29.785,12.207,0.000,0
1553809183.383,-9.277,-22.949,-39.062,5.371,0.000,0
1553809183.387,-13.672,-28.320,-35.645,21.484,0.000,0
1553809183.391,-2.930,-24.414,-32.227,10.742,0.000,0
1553809183.395,-7.812,-25.879,-33.203,-0.488,0.000,0
1553809183.399,-23.438,-29.785,-34.180,-0.488,0.000,0
1553809183.402,-32.715,-23.438,-38.086,-13.672,0.000,0
1553809183.406,-27.344,-20.508,-40.527,-20.508,0.000,0
1553809183.410,-11.719,-31.738,-33.203,19.531,0.000,0
1553809183.414,-12.207,-28.320,-27.832,42.480,0.000,0
1553809183.418,-17.578,-29.297,-31.738,11.719,0.000,0
1553809183.422,-0.977,-33.203,-26.855,11.230,0.000,0
1553809183.426,-0.977,-29.785,-24.414,17.090,0.000,0
1553809183.430,-14.648,-34.180,-27.832,16.602,0.000,0
1553809183.434,-13.184,-34.180,-31.738,25.391,0.000,0
1553809183.438,-8.301,-31.250,-37.598,3.906,0.000,0
1553809183.441,-15.137,-34.668,-37.598,-5.859,0.000,0
1553809183.445,-15.137,-40.527,-32.227,15.137,0.000,0
1553809183.449,-7.324,-34.180,-31.250,17.090,0.000,0
1553809183.453,-2.441,-24.414,-28.320,25.879,0.000,0
1553809183.457,-5.371,-30.273,-26.367,24.902,0.000,0
1553809183.461,-22.949,-30.762,-29.297,10.742,0.000,0
1553809183.465,-21.484,-28.809,-38.574,16.602,0.000,0
1553809183.469,-10.742,-33.691,-41.992,12.207,0.000,0
1553809183.473,-3.418,-29.297,-32.715,-6.836,0.000,0
1553809183.477,-8.301,-29.297,-30.273,8.789,0.000,0
1553809183.481,1.465,-34.668,-38.574,0.000,0.000,0
1553809183.484,2.441,-33.203,-39.062,17.578,0.000,0
1553809183.488,-3.906,-33.691,-31.250,37.598,0.000,0
1553809183.492,-0.977,-30.273,-33.691,18.555,0.000,0
1553809183.496,-5.371,-30.762,-31.738,16.602,0.000,0
1553809183.500,-11.719,-31.250,-32.715,8.789,0.000,0
1553809183.504,-11.230,-30.762,-34.668,14.648,0.000,0
1553809183.508,-17.090,-35.645,-35.645,19.531,0.000,0
1553809183.512,-28.320,-30.273,-41.992,12.207,0.000,0
1553809183.516,-19.043,-22.461,-42.969,6.348,0.000,0
1553809183.520,-5.859,-36.621,-39.062,12.695,0.000,0
1553809183.524,-3.906,-43.945,-33.203,7.324,0.000,0
1553809183.527,-7.324,-29.297,-28.809,-8.789,0.000,0
1553809183.531,-23.926,-33.691,-22.461,-6.836,0.000,0
1553809183.535,-25.879,-37.109,-21.973,2.441,0.000,0
1553809183.539,-5.859,-30.273,-24.902,11.230,0.000,0
1553809183.543,-5.859,-29.785,-19.531,29.785,0.000,0
1553809183.547,-16.113,-29.785,-26.855,16.602,0.000,0
1553809183.551,-26.855,-41.504,-30.762,4.395,0.000,0
1553809183.555,-33.691,-38.086,-24.902,5.371,0.000,0
1553809183.559,-18.555,-29.297,-25.391,7.812,0.000,0
1553809183.563,-9.277,-39.062,-24.902,15.625,0.000,0
1553809183.566,-18.555,-36.621,-26.367,11.719,0.000,0
1553809183.570,-17.578,-28.809,-34.180,12.207,0.000,0
1553809183.574,-18.555,-28.809,-38.086,10.254,0.000,0
1553809183.578,-18.066,-30.273,-33.691,3.418,0.000,0
1553809183.582,-19.043,-28.320,-22.461,17.090,0.000,0
1553809183.586,-29.785,-27.832,-22.461,10.742,0.000,0
1553809183.590,-22.949,-36.133,-34.668,3.906,0.000,0
1553809183.594,-16.602,-38.574,-38.574,19.531,0.000,0
1553809183.598,-15.625,-35.645,-34.180,17.578,0.000,0
1553809183.602,-28.320,-41.016,-28.809,-2.441,0.000,0
1553809183.606,-26.855,-41.992,-24.414,0.488,0.000,0
1553809183.609,-16.602,-28.320,-24.414,0.977,0.000,0
1553809183.613,-25.391,-27.832,-33.203,-11.230,0.000,0
1553809183.617,-15.137,-29.785,-31.738,8.789,0.000,0
1553809183.621,-8.301,-31.738,-24.902,18.555,0.000,0
1553809183.625,-15.625,-35.645,-24.902,23.438,0.000,0
1553809183.629,-10.254,-25.879,-25.879,31.250,0.000,0
1553809183.633,-8.789,-23.438,-24.414,5.859,0.000,0
1553809183.637,-27.344,-37.109,-27.344,-4.395,0.000,0
1553809183.641,-24.414,-44.922,-23.926,26.855,0.000,0
1553809183.645,-21.973,-41.992,-22.461,7.812,0.000,0
1553809183.649,-30.762,-39.062,-26.855,-24.902,0.000,0
1553809183.652,-31.250,-44.434,-22.461,9.766,0.000,0
1553809183.656,-45.898,-48.340,-26.855,13.672,0.000,0
1553809183.660,-41.504,-49.316,-28.809,3.906,0.000,0
1553809183.664,-28.809,-50.781,-14.648,11.719,0.000,0
1553809183.668,-40.527,-48.340,-22.461,0.977,0.000,0
1553809183.672,-27.344,-42.480,-35.156,14.648,0.000,0
1553809183.676,-12.207,-39.062,-32.715,26.367,0.000,0
1553809183.680,-20.996,-37.109,-35.156,7.812,0.000,0
1553809183.684,-20.508,-37.598,-32.715,7.812,0.000,0
1553809183.688,-11.230,-41.016,-25.879,38.574,0.000,0
1553809183.691,-6.348,-33.691,-30.762,18.066,0.000,0
1553809183.695,-14.648,-22.461,-25.391,0.000,0.000,0
1553809183.699,-25.391,-28.809,-18.066,4.883,0.000,0
1553809183.703,-23.926,-33.691,-21.973,9.766,0.000,0
1553809183.707,-0.977,-35.156,-24.902,11.230,0.000,0
1553809183.711,-9.766,-40.527,-29.785,12.695,0.000,0
1553809183.715,-27.344,-41.016,-21.484,27.344,0.000,0
1553809183.719,-16.602,-40.039,-22.461,15.625,0.000,0
1553809183.723,-9.277,-38.086,-20.996,12.207,0.000,0
1553809183.727,-5.371,-36.133,-21.973,24.902,0.000,0
1553809183.731,-1.465,-34.180,-29.297,18.066,0.000,0
1553809183.734,-11.230,-34.180,-31.250,13.184,0.000,0
1553809183.738,-26.855,-35.156,-27.832,0.488,0.000,0
1553809183.742,-20.508,-38.086,-25.879,-0.488,0.000,0
1553809183.746,-20.508,-37.598,-31.738,1.465,0.000,0
1553809183.750,-26.855,-32.715,-28.320,2.930,0.000,0
1553809183.754,-31.250,-36.621,-26.855,10.254,0.000,0
1553809183.758,-17.578,-32.227,-35.645,17.090,0.000,0
1553809183.762,-2.930,-28.320,-34.180,23.438,0.000,0
1553809183.766,-10.254,-33.691,-33.203,13.672,0.000,0
1553809183.770,-22.461,-34.668,-37.598,3.906,0.000,0
1553809183.774,-20.996,-37.109,-28.809,2.441,0.000,0
1553809183.777,-15.625,-34.668,-26.367,32.715,0.000,0
1553809183.781,-21.484,-35.645,-30.762,27.344,0.000,0
1553809183.785,-17.090,-34.668,-29.785,-4.883,0.000,0
1553809183.789,-15.137,-35.645,-29.785,-0.488,0.000,0
1553809183.793,-13.672,-41.016,-26.367,2.441,0.000,0
1553809183.797,-8.301,-30.762,-26.855,4.395,0.000,0
1553809183.801,-28.809,-24.414,-25.391,3.418,0.000,0
1553809183.805,-38.574,-29.297,-17.578,-1.953,0.000,0
1553809183.809,-34.668,-25.879,-15.625,1.465,0.000,0
1553809183.813,-25.879,-20.996,-22.461,4.883,0.000,0
1553809183.816,-12.695,-24.414,-28.809,15.137,0.000,0
1553809183.820,-12.695,-29.297,-27.344,32.227,0.000,0
1553809183.824,-13.672,-26.367,-22.461,13.672,0.000,0
1553809183.828,-9.766,-25.879,-25.391,-9.766,0.000,0
1553809183.832,-12.695,-32.715,-29.297,2.441,0.000,0
1553809183.836,-18.066,-33.691,-29.785,19.531,0.000,0
1553809183.840,-16.113,-25.879,-28.809,13.672,0.000,0
1553809183.844,-12.695,-24.414,-29.785,-3.906,0.000,0
1553809183.848,-12.207,-28.809,-35.156,3.906,0.000,0
1553809183.852,-22.461,-38.086,-33.691,17.578,0.000,0
1553809183.856,-20.996,-34.668,-40.527,1.465,0.000,0
1553809183.859,-17.578,-26.855,-33.203,7.324,0.000,0
1553809183.863,-20.508,-34.180,-19.531,6.348,0.000,0
1553809183.867,-22.949,-38.086,-20.508,8.301,0.000,0
1553809183.871,-28.809,-39.551,-23.926,22.461,0.000,0
1553809183.875,-37.109,-46.387,-27.344,6.348,0.000,0
1553809183.879,-40.527,-51.270,-22.949,-9.277,0.000,0
1553809183.883,-19.531,-45.410,-32.715,2.930,0.000,0
1553809183.887,-26.855,-45.898,-26.367,15.625,0.000,0
1553809183.891,-42.480,-45.898,-21.484,-1.953,0.000,0
1553809183.895,-18.555,-41.016,-28.320,5.371,0.000,0
1553809183.899,-13.184,-35.645,-29.297,28.320,0.000,0
1553809183.902,0.977,-36.133,-28.320,21.973,0.000,0
1553809183.906,-4.883,-38.574,-27.832,17.090,0.000,0
1553809183.910,-16.602,-33.203,-30.762,18.555,0.000,0
1553809183.914,-13.184,-32.227,-24.414,7.324,0.000,0
1553809183.918,-22.461,-38.086,-24.902,11.719,0.000,0
1553809183.922,-24.414,-38.574,-25.391,22.461,0.000,0
1553809183.926,-25.391,-37.598,-15.137,22.949,0.000,0
1553809183.930,-15.625,-39.062,-19.043,34.180,0.000,0
1553809183.934,-22.949,-36.621,-26.855,29.785,0.000,0
1553809183.938,-27.344,-35.156,-28.320,-2.930,0.000,0
1553809183.941,-16.602,-37.109,-28.320,-0.488,0.000,0
1553809183.945,-21.973,-35.156,-29.785,-1.953,0.000,0
1553809183.949,-26.855,-39.062,-33.691,-7.812,0.000,0
1553809183.953,-12.207,-37.109,-34.180,9.766,0.000,0
1553809183.957,-21.484,-36.621,-28.320,0.488,0.000,0
1553809183.961,-35.156,-41.504,-22.949,0.977,0.000,0
1553809183.965,-34.668,-39.551,-25.879,13.184,0.000,0
1553809183.969,-30.762,-35.645,-24.902,11.230,0.000,0
1553809183.973,-16.602,-40.039,-27.832,20.996,0.000,0
1553809183.977,-4.395,-37.109,-29.297,23.926,0.000,0
1553809183.981,-18.555,-26.855,-25.879,7.324,0.000,0
1553809183.984,-21.973,-33.691,-24.414,3.418,0.000,0
1553809183.988,-12.207,-37.109,-29.785,14.648,0.000,0
1553809183.992,-12.695,-35.156,-37.598,11.230,0.000,0
1553809183.996,-23.926,-38.574,-32.227,12.695,0.000,0
1553809184.000,-27.344,-38.086,-27.344,9.766,0.000,0
1553809184.004,-20.508,-39.551,-29.297,-2.930,0.000,0
1553809184.008,-7.324,-34.668,-28.320,2.930,0.000,0
1553809184.012,-7.812,-29.785,-25.391,6.836,0.000,0
1553809184.016,-17.578,-29.297,-25.391,6.836,0.000,0
1553809184.020,-19.043,-30.762,-29.297,15.137,0.000,0
1553809184.024,-18.555,-32.227,-33.203,16.113,0.000,0
1553809184.027,-5.859,-29.297,-31.250,17.090,0.000,0
1553809184.031,-1.465,-27.344,-29.297,0.488,0.000,0
1553809184.035,-17.090,-29.297,-31.738,-3.418,0.000,0
1553809184.039,-23.926,-33.691,-31.250,7.812,0.000,0
1553809184.043,-16.602,-29.785,-33.203,12.695,0.000,0
1553809184.047,-21.484,-33.691,-33.691,9.766,0.000,0
1553809184.051,-21.484,-45.410,-33.691,-5.371,0.000,0
1553809184.055,-11.719,-42.480,-29.785,5.371,0.000,0
1553809184.059,-18.066,-31.250,-29.297,7.324,0.000,0
1553809184.063,-6.348,-23.926,-33.691,13.672,0.000,0
1553809184.066,-14.160,-39.551,-33.203,19.531,0.000,0
1553809184.070,-17.578,-41.992,-31.738,8.301,0.000,0
1553809184.074,-17.578,-32.715,-20.996,2.930,0.000,0
1553809184.078,-43.945,-41.504,-24.414,1.465,0.000,0
1553809184.082,-33.691,-37.598,-36.621,3.418,0.000,0
1553809184.086,-20.020,-32.715,-32.715,3.418,0.000,0
1553809184.090,-30.762,-38.086,-31.738,5.371,0.000,0
1553809184.094,-20.996,-36.133,-33.203,-6.836,0.000,0
1553809184.098,-25.391,-31.738,-30.273,-1.953,0.000,0
1553809184.102,-33.203,-28.809,-31.250,7.324,0.000,0
1553809184.106,-32.715,-26.855,-38.086,5.859,0.000,0
1553809184.109,-30.762,-32.715,-37.109,8.789,0.000,0
1553809184.113,-20.508,-33.691,-31.738,0.000,0.000,0
1553809184.117,-20.020,-29.785,-31.738,13.184,0.000,0
1553809184.121,-14.648,-25.391,-30.762,29.785,0.000,0
1553809184.125,-7.324,-15.137,-26.367,19.531,0.000,0
1553809184.129,-15.137,-21.484,-26.855,6.348,0.000,0
1553809184.133,-12.695,-29.297,-28.809,3.418,0.000,0
1553809184.137,-27.344,-35.156,-13.184,13.184,0.000,0
1553809184.141,-41.504,-39.062,-16.602,-0.977,0.000,0
1553809184.145,-32.227,-31.250,-32.227,-10.254,0.000,0
1553809184.149,-36.621,-30.273,-31.738,10.742,0.000,0
1553809184.152,-30.273,-31.738,-34.668,15.625,0.000,0
1553809184.156,-28.320,-27.832,-33.691,3.418,0.000,0
1553809184.160,-16.602,-22.949,-32.227,-3.418,0.000,0
1553809184.164,-6.348,-27.344,-32.227,-0.488,0.000,0
1553809184.168,-31.250,-33.203,-33.203,10.254,0.000,0
1553809184.172,-49.805,-34.180,-32.715,4.883,0.000,0
1553809184.176,-41.504,-39.551,-29.785,-5.371,0.000,0
1553809184.180,-22.461,-34.180,-31.250,12.207,0.000,0
1553809184.184,-16.602,-26.855,-24.414,12.695,0.000,0
1553809184.188,-19.043,-30.762,-26.855,2.930,0.000,0
1553809184.191,-15.625,-39.551,-33.203,-2.441,0.000,0
1553809184.195,-6.348,-35.645,-36.133,12.207,0.000,0
1553809184.199,-18.555,-29.297,-34.180,23.926,0.000,0
1553809184.203,-27.344,-35.156,-32.227,7.812,0.000,0
1553809184.207,-24.414,-26.367,-29.785,-2.441,0.000,0
1553809184.211,-20.508,-25.391,-25.391,13.184,0.000,0
1553809184.215,-16.113,-29.785,-21.973,20.508,0.000,0
1553809184.219,-18.066,-26.367,-23.438,9.766,0.000,0
1553809184.223,-9.277,-34.668,-24.414,2.930,0.000,0
1553809184.227,-6.836,-30.762,-27.344,-8.301,0.000,0
1553809184.231,-10.254,-23.926,-25.879,-2.930,0.000,0
1553809184.234,-17.578,-30.762,-31.250,6.836,0.000,0
1553809184.238,-8.301,-35.645,-25.879,21.973,0.000,0
1553809184.242,-11.719,-34.668,-18.555,19.531,0.000,0
1553809184.246,-28.809,-26.367,-27.832,5.371,0.000,0
1553809184.250,-37.598,-27.832,-24.414,16.113,0.000,0
1553809184.254,-37.598,-33.203,-26.855,15.625,0.000,0
1553809184.258,-33.203,-32.227,-28.320,-0.488,0.000,0
1553809184.262,-20.020,-34.668,-29.785,5.371,0.000,0
1553809184.266,-8.301,-40.039,-32.227,12.207,0.000,0
1553809184.270,-21.973,-34.180,-28.809,12.695,0.000,0
1553809184.274,-28.809,-31.250,-26.367,17.090,0.000,0
1553809184.277,-25.391,-41.992,-23.926,0.977,0.000,0
1553809184.281,-29.785,-41.992,-21.484,-3.906,0.000,0
1553809184.285,-37.598,-32.715,-29.297,-11.719,0.000,0
1553809184.289,-35.156,-31.738,-37.109,-11.230,0.000,0
1553809184.293,-16.113,-32.227,-40.527,2.930,0.000,0
1553809184.297,-22.949,-30.273,-42.969,-7.812,0.000,0
1553809184.301,-42.969,-26.367,-39.551,-16.602,0.000,0
1553809184.305,-48.828,-23.438,-39.062,-9.766,0.000,0
1553809184.309,-26.367,-23.438,-39.551,-12.207,0.000,0
1553809184.313,-8.789,-12.695,-44.922,-13.672,0.000,0
1553809184.316,-32.227,-22.461,-44.922,0.000,0.000,0
1553809184.320,-37.109,-38.086,-39.062,4.395,0.000,0
1553809184.324,-31.250,-31.738,-34.180,-0.488,0.000,0
1553809184.328,-37.109,-30.762,-39.551,-6.348,0.000,0
1553809184.332,-33.691,-38.574,-39.062,-2.930,0.000,0
1553809184.336,-22.949,-36.621,-25.391,13.184,0.000,0
1553809184.340,-18.066,-30.762,-25.879,2.441,0.000,0
1553809184.344,-18.066,-25.391,-31.250,0.977,0.000,0
1553809184.348,-24.902,-22.949,-34.668,2.441,0.000,0
1553809184.352,-27.344,-23.926,-37.109,-9.277,0.000,0
1553809184.356,-25.391,-28.320,-36.133,2.441,0.000,0
1553809184.359,-16.602,-26.855,-36.133,15.625,0.000,0
1553809184.363,-20.508,-30.273,-35.645,9.766,0.000,0
1553809184.367,-24.902,-34.180,-30.762,-2.441,0.000,0
1553809184.371,-34.668,-30.762,-28.320,-5.859,0.000,0
1553809184.375,-46.875,-22.461,-36.133,-9.277,0.000,0
1553809184.379,-22.949,-26.367,-38.574,-0.488,0.000,0
1553809184.383,-8.789,-33.203,-31.738,4.883,0.000,0
1553809184.387,-21.973,-25.391,-25.391,1.465,0.000,0
1553809184.391,-24.414,-18.555,-18.555,8.301,0.000,0
1553809184.395,-25.391,-29.297,-21.484,9.277,0.000,0
1553809184.399,-35.156,-41.016,-28.320,15.625,0.000,0
1553809184.402,-31.250,-37.598,-26.855,12.207,0.000,0
1553809184.406,-15.137,-32.227,-26.367,4.883,0.000,0
1553809184.410,-14.160,-30.273,-30.273,-5.859,0.000,0
1553809184.414,-19.043,-25.391,-30.762,-5.859,0.000,0
1553809184.418,-26.367,-33.691,-27.344,5.371,0.000,0
1553809184.422,-41.504,-41.016,-29.297,-6.348,0.000,0
1553809184.426,-43.945,-32.227,-31.250,-14.648,0.000,0
1553809184.430,-20.996,-31.250,-31.250,11.230,0.000,0
1553809184.434,-18.066,-36.133,-29.785,22.949,0.000,0
1553809184.438,-29.785,-37.598,-28.809,7.324,0.000,0
1553809184.441,-45.410,-34.180,-32.715,-11.230,0.000,0
1553809184.445,-34.180,-29.297,-30.762,7.812,0.000,0
1553809184.449,-16.113,-24.414,-22.461,38.086,0.000,0
1553809184.453,-11.719,-25.391,-20.020,30.762,0.000,0
1553809184.457,-8.789,-27.832,-23.438,9.766,0.000,0
1553809184.461,-27.344,-30.762,-31.738,8.789,0.000,0
1553809184.465,-32.715,-31.738,-31.738,28.320,0.000,0
1553809184.469,-15.137,-31.250,-30.762,10.254,0.000,0
1553809184.473,-15.137,-27.344,-27.832,1.465,0.000,0
1553809184.477,-18.555,-25.391,-25.879,23.926,0.000,0
1553809184.481,-33.691,-28.809,-28.809,0.000,0.000,0
1553809184.484,-37.598,-31.738,-27.344,8.301,0.000,0
1553809184.488,-26.367,-37.109,-30.273,0.977,0.000,0
1553809184.492,-35.645,-32.715,-32.227,-11.230,0.000,0
1553809184.496,-33.691,-26.367,-34.180,1.465,0.000,0
1553809184.500,-30.273,-31.738,-28.320,-9.766,0.000,0
1553809184.504,-36.133,-31.250,-26.367,1.465,0.000,0
1553809184.508,-34.180,-34.668,-36.621,16.602,0.000,0
1553809184.512,-29.785,-38.574,-34.180,-4.883,0.000,0
1553809184.516,-28.809,-33.691,-27.344,-16.602,0.000,0
1553809184.520,-23.926,-30.762,-22.461,1.465,0.000,0
1553809184.524,-27.832,-27.344,-22.949,2.441,0.000,0
1553809184.527,-39.551,-23.926,-31.250,0.488,0.000,0
1553809184.531,-33.691,-22.949,-30.273,14.160,0.000,0
1553809184.535,-20.020,-26.367,-26.367,11.719,0.000,0
1553809184.539,-21.973,-23.926,-29.785,-0.488,0.000,0
1553809184.543,-31.738,-30.762,-35.156,0.977,0.000,0
1553809184.547,-26.367,-39.551,-38.574,-0.488,0.000,0
1553809184.551,-32.715,-35.156,-37.598,-5.371,0.000,0
1553809184.555,-40.527,-35.156,-34.668,1.465,0.000,0
1553809184.559,-13.672,-30.273,-30.273,18.555,0.000,0
1553809184.563,-4.395,-30.273,-29.785,19.531,0.000,0
1553809184.566,-29.297,-30.762,-36.621,-12.207,0.000,0
1553809184.570,-38.574,-25.391,-35.156,-19.043,0.000,0
1553809184.574,-29.297,-28.809,-32.227,6.836,0.000,0
1553809184.578,-24.902,-34.180,-28.320,14.648,0.000,0
1553809184.582,-43.457,-29.785,-24.902,0.977,0.000,0
1553809184.586,-40.039,-26.855,-37.598,-6.348,0.000,0
1553809184.590,-10.742,-19.531,-40.039,8.301,0.000,0
1553809184.594,-24.414,-23.438,-20.996,13.184,0.000,0
1553809184.598,-35.645,-27.832,-10.742,14.648,0.000,0
1553809184.602,-33.691,-31.738,-17.578,21.973,0.000,0
1553809184.606,-37.109,-39.551,-20.996,14.648,0.000,0
1553809184.609,-32.715,-38.574,-19.531,3.906,0.000,0
1553809184.613,-34.668,-35.645,-16.602,7.812,0.000,0
1553809184.617,-36.621,-37.109,-10.254,8.301,0.000,0
1553809184.621,-34.668,-41.992,-16.113,0.000,0.000,0
1553809184.625,-26.855,-37.598,-20.996,4.883,0.000,0
1553809184.629,-31.250,-35.156,-24.902,7.812,0.000,0
1553809184.633,-39.062,-40.039,-27.344,-4.883,0.000,0
1553809184.637,-40.039,-42.969,-27.832,-6.836,0.000,0
1553809184.641,-46.875,-41.504,-32.715,-16.602,0.000,0
1553809184.645,-43.457,-35.645,-31.250,-13.672,0.000,0
1553809184.649,-27.344,-41.504,-29.785,11.719,0.000,0
1553809184.652,-21.484,-46.875,-26.367,32.715,0.000,0
1553809184.656,-23.926,-41.992,-22.461,14.648,0.000,0
1553809184.660,-25.879,-31.738,-30.762,-1.465,0.000,0
1553809184.664,-25.391,-34.668,-25.391,13.672,0.000,0
1553809184.668,-24.414,-42.969,-20.996,4.395,0.000,0
1553809184.672,-24.902,-39.062,-27.344,-5.371,0.000,0
1553809184.676,-37.598,-42.969,-23.438,0.000,0.000,0
1553809184.680,-43.945,-41.016,-30.273,13.184,0.000,0
1553809184.684,-29.785,-42.480,-36.133,5.859,0.000,0
1553809184.688,-29.785,-41.992,-32.715,6.836,0.000,0
1553809184.691,-38.574,-33.203,-29.785,20.508,0.000,0
1553809184.695,-14.160,-25.879,-22.461,12.207,0.000,0
1553809184.699,-13.672,-30.273,-35.645,-9.766,0.000,0
1553809184.703,-25.391,-35.645,-37.598,-20.020,0.000,0
1553809184.707,-15.137,-23.438,-28.320,1.465,0.000,0
1553809184.711,-8.301,-20.020,-29.785,16.602,0.000,0
1553809184.715,-31.738,-31.250,-31.738,-7.324,0.000,0
1553809184.719,-51.758,-33.203,-36.133,-16.113,0.000,0
1553809184.723,-30.273,-35.645,-35.156,8.789,0.000,0
1553809184.727,-30.762,-37.109,-31.738,9.766,0.000,0
1553809184.731,-45.898,-30.273,-32.715,-0.488,0.000,0
1553809184.734,-55.664,-34.180,-41.504,-7.324,0.000,0
1553809184.738,-43.945,-36.621,-35.156,-3.906,0.000,0
1553809184.742,-36.133,-35.645,-32.715,18.066,0.000,0
1553809184.746,-57.129,-39.062,-40.527,-0.488,0.000,0
1553809184.750,-57.617,-34.180,-40.039,-20.508,0.000,0
1553809184.754,-48.828,-33.203,-34.668,-10.254,0.000,0
1553809184.758,-44.434,-32.715,-20.508,-0.977,0.000,0
1553809184.762,-32.227,-35.156,-11.230,20.020,0.000,0
1553809184.766,-20.996,-33.691,-15.625,18.555,0.000,0
1553809184.770,-35.645,-30.273,-26.855,15.137,0.000,0
1553809184.774,-41.504,-30.762,-28.320,18.555,0.000,0
1553809184.777,-37.109,-27.344,-28.320,-2.441,0.000,0
1553809184.781,-46.875,-23.926,-29.297,-13.184,0.000,0
1553809184.785,-37.598,-20.996,-30.762,4.395,0.000,0
1553809184.789,-27.344,-15.137,-29.785,-5.371,0.000,0
1553809184.793,-20.996,-13.184,-28.809,-11.230,0.000,0
1553809184.797,-20.020,-17.090,-34.668,4.883,0.000,0
1553809184.801,-32.715,-25.391,-33.203,0.000,0.000,0
1553809184.805,-35.645,-23.438,-31.250,9.766,0.000,0
1553809184.809,-43.945,-17.090,-27.832,24.902,0.000,0
1553809184.813,-44.434,-19.043,-24.902,6.836,0.000,0
1553809184.816,-33.203,-25.879,-34.180,-0.977,0.000,0
1553809184.820,-23.438,-28.809,-32.715,3.418,0.000,0
1553809184.824,-9.277,-20.020,-29.785,9.277,0.000,0
1553809184.828,-22.461,-15.137,-29.785,14.160,0.000,0
1553809184.832,-32.227,-22.949,-34.180,5.859,0.000,0
1553809184.836,-30.273,-25.391,-46.875,1.465,0.000,0
1553809184.840,-34.180,-29.785,-38.574,-0.488,0.000,0
1553809184.844,-20.020,-30.273,-30.273,3.906,0.000,0
1553809184.848,-28.809,-25.879,-33.203,9.277,0.000,0
1553809184.852,-33.691,-26.855,-35.156,9.277,0.000,0
1553809184.856,-14.160,-27.344,-31.738,7.812,0.000,0
1553809184.859,-16.602,-30.273,-32.227,12.207,0.000,0
1553809184.863,-36.133,-26.367,-35.645,12.695,0.000,0
1553809184.867,-24.414,-22.461,-33.691,-4.395,0.000,0
1553809184.871,-11.230,-36.133,-33.203,-3.906,0.000,0
1553809184.875,-21.973,-39.062,-35.156,22.949,0.000,0
1553809184.879,-27.344,-33.203,-33.203,11.230,0.000,0
1553809184.883,-22.949,-36.133,-29.785,-1.953,0.000,0
1553809184.887,-20.996,-34.180,-33.203,3.418,0.000,0
1553809184.891,-26.855,-35.156,-27.832,12.207,0.000,0
1553809184.895,-36.133,-43.457,-23.438,10.254,0.000,0
1553809184.899,-36.133,-41.992,-30.273,10.254,0.000,0
1553809184.902,-17.090,-39.062,-30.273,21.973,0.000,0
1553809184.906,-17.090,-43.945,-27.344,25.391,0.000,0
1553809184.910,-37.109,-43.945,-31.738,3.418,0.000,0
1553809184.914,-24.902,-38.574,-30.762,-7.324,0.000,0
1553809184.918,-21.484,-41.992,-28.320,11.719,0.000,0
1553809184.922,-27.344,-43.945,-32.715,4.883,0.000,0
1553809184.926,-27.344,-41.016,-38.086,-9.277,0.000,0
1553809184.930,-20.996,-37.598,-38.086,-9.277,0.000,0
1553809184.934,-21.484,-39.062,-27.832,10.254,0.000,0
1553809184.938,-30.762,-43.457,-26.367,10.742,0.000,0
1553809184.941,-31.250,-36.621,-33.691,-6.348,0.000,0
1553809184.945,-18.555,-33.203,-31.738,1.465,0.000,0
1553809184.949,-17.090,-45.898,-30.273,10.742,0.000,0
1553809184.953,-22.949,-47.852,-32.227,-1.953,0.000,0
1553809184.957,-30.762,-35.645,-28.809,5.371,0.000,0
1553809184.961,-36.133,-33.203,-34.668,9.277,0.000,0
1553809184.965,-31.738,-37.109,-38.574,3.906,0.000,0
1553809184.969,-23.438,-37.109,-29.785,10.742,0.000,0
1553809184.973,-22.949,-35.156,-27.832,0.000,0.000,0
1553809184.977,-37.598,-35.156,-32.715,-11.719,0.000,0
1553809184.981,-22.949,-36.621,-34.180,-5.371,0.000,0
1553809184.984,-15.625,-38.086,-35.156,-4.883,0.000,0
1553809184.988,-18.555,-37.109,-27.344,7.812,0.000,0
1553809184.992,-9.277,-39.062,-28.809,2.930,0.000,0
1553809184.996,-7.812,-44.434,-34.180,12.695,0.000,0
1553809185.000,-36.621,-45.898,-22.461,11.719,0.000,0
1553809185.004,-59.570,-44.434,-32.227,-19.531,0.000,0
1553809185.008,-47.852,-43.945,-41.016,-17.090,0.000,0
1553809185.012,-36.621,-39.551,-27.832,-3.906,0.000,0
1553809185.016,-37.109,-39.551,-26.855,20.508,0.000,0
1553809185.020,-38.574,-40.039,-30.762,13.184,0.000,0
1553809185.024,-39.551,-34.668,-31.250,-11.230,0.000,0
1553809185.027,-43.457,-36.621,-24.902,-14.160,0.000,0
1553809185.031,-26.367,-40.527,-23.926,0.000,0.000,0
1553809185.035,-21.484,-39.062,-28.809,6.836,0.000,0
1553809185.039,-21.484,-41.016,-20.508,10.742,0.000,0
1553809185.043,-29.297,-42.480,-26.367,6.348,0.000,0
1553809185.047,-32.715,-35.645,-27.344,20.020,0.000,0
1553809185.051,-39.551,-41.504,-21.973,27.344,0.000,0
1553809185.055,-42.969,-43.945,-21.973,8.789,0.000,0
1553809185.059,-27.344,-38.086,-30.273,11.230,0.000,0
1553809185.063,-18.555,-28.320,-34.668,6.836,0.000,0
1553809185.066,-23.926,-23.926,-25.879,-14.160,0.000,0
1553809185.070,-41.992,-34.668,-26.367,-6.836,0.000,0
1553809185.074,-49.805,-39.551,-15.625,24.414,0.000,0
1553809185.078,-38.574,-42.480,-13.672,19.531,0.000,0
1553809185.082,-35.156,-46.387,-25.391,19.043,0.000,0
1553809185.086,-44.922,-39.551,-30.762,21.484,0.000,0
1553809185.090,-40.039,-37.109,-22.461,9.766,0.000,0
1553809185.094,-22.949,-35.156,-18.555,-3.906,0.000,0
1553809185.098,-27.344,-39.062,-24.414,0.488,0.000,0
1553809185.102,-27.344,-36.621,-25.879,14.160,0.000,0
1553809185.106,-31.250,-28.809,-24.902,26.367,0.000,0
1553809185.109,-31.738,-26.855,-27.832,20.996,0.000,0
1553809185.113,-24.414,-25.879,-30.762,1.465,0.000,0
1553809185.117,-29.297,-29.297,-27.832,16.602,0.000,0
1553809185.121,-33.691,-31.738,-23.438,8.789,0.000,0
1553809185.125,-33.691,-33.691,-25.391,-6.836,0.000,0
1553809185.129,-33.691,-33.203,-30.762,8.301,0.000,0
1553809185.133,-30.273,-28.809,-30.762,6.836,0.000,0
1553809185.137,-22.949,-32.715,-28.809,9.277,0.000,0
1553809185.141,-28.809,-42.480,-30.273,4.883,0.000,0
1553809185.145,-38.086,-44.434,-32.227,-4.395,0.000,0
1553809185.149,-30.762,-37.109,-31.738,6.836,0.000,0
1553809185.152,-37.109,-26.367,-36.133,7.812,0.000,0
1553809185.156,-32.715,-29.785,-29.785,-1.465,0.000,0
1553809185.160,-20.996,-32.227,-28.809,0.488,0.000,0
1553809185.164,-24.414,-31.250,-35.645,5.371,0.000,0
1553809185.168,-20.020,-28.320,-35.156,4.883,0.000,0
1553809185.172,-10.742,-23.926,-37.598,9.766,0.000,0
1553809185.176,-29.785,-30.762,-27.832,8.301,0.000,0
1553809185.180,-55.664,-37.598,-18.066,-2.930,0.000,0
1553809185.184,-49.805,-40.527,-21.484,-0.977,0.000,0
1553809185.188,-51.758,-41.504,-21.484,-7.324,0.000,0
1553809185.191,-35.645,-30.762,-20.508,-22.949,0.000,0
1553809185.195,-24.902,-22.949,-28.320,-26.367,0.000,0
1553809185.199,-33.691,-25.879,-25.879,-4.883,0.000,0
1553809185.203,-20.996,-28.809,-16.602,16.602,0.000,0
1553809185.207,-19.531,-28.809,-22.461,-3.418,0.000,0
1553809185.211,-35.156,-33.203,-27.832,6.836,0.000,0
1553809185.215,-34.180,-29.785,-25.879,21.973,0.000,0
1553809185.219,-38.086,-25.391,-19.043,13.184,0.000,0
1553809185.223,-33.203,-27.344,-21.484,10.254,0.000,0
1553809185.227,-20.020,-27.832,-22.949,22.461,0.000,0
1553809185.231,-24.414,-23.438,-19.043,11.719,0.000,0
1553809185.234,-31.250,-35.156,-25.879,-13.672,0.000,0
1553809185.238,-45.410,-46.387,-30.273,-7.812,0.000,0
1553809185.242,-44.922,-37.109,-26.367,4.883,0.000,0
1553809185.246,-27.832,-35.645,-28.320,20.996,0.000,0
1553809185.250,-26.367,-33.203,-22.949,24.414,0.000,0
1553809185.254,-39.062,-36.133,-20.996,20.996,0.000,0
1553809185.258,-45.410,-42.969,-28.809,17.090,0.000,0
1553809185.262,-41.016,-36.621,-36.133,15.625,0.000,0
1553809185.266,-25.879,-37.109,-29.297,13.184,0.000,0
1553809185.270,-20.508,-38.086,-20.996,-1.465,0.000,0
1553809185.274,-25.391,-37.109,-29.785,5.371,0.000,0
1553809185.277,-30.273,-38.086,-34.180,11.719,0.000,0
1553809185.281,-39.551,-34.668,-32.715,-7.324,0.000,0
1553809185.285,-48.340,-35.156,-27.344,5.859,0.000,0
1553809185.289,-38.086,-33.203,-22.949,13.672,0.000,0
1553809185.293,-26.367,-28.809,-28.320,4.883,0.000,0
1553809185.297,-35.156,-28.320,-31.250,11.230,0.000,0
1553809185.301,-35.156,-28.320,-31.250,-1.953,0.000,0
1553809185.305,-41.992,-30.762,-31.250,-12.695,0.000,0
1553809185.309,-46.387,-35.156,-23.926,-2.930,0.000,0
1553809185.313,-28.809,-32.715,-24.902,5.859,0.000,0
1553809185.316,-29.297,-26.855,-32.715,10.742,0.000,0
1553809185.320,-40.039,-24.414,-30.273,6.348,0.000,0
1553809185.324,-39.062,-22.949,-23.926,12.695,0.000,0
1553809185.328,-23.926,-25.879,-21.973,8.789,0.000,0
1553809185.332,-24.414,-37.109,-23.438,5.859,0.000,0
1553809185.336,-36.621,-40.039,-28.320,0.977,0.000,0
1553809185.340,-38.086,-32.227,-25.391,-5.371,0.000,0
1553809185.344,-41.016,-22.949,-28.320,-2.930,0.000,0
1553809185.348,-35.156,-24.414,-34.668,-0.977,0.000,0
1553809185.352,-26.367,-25.391,-46.387,-17.090,0.000,0
1553809185.356,-18.066,-11.719,-51.270,-0.488,0.000,0
1553809185.359,-23.926,-13.184,-42.969,13.184,0.000,0
1553809185.363,-29.297,-15.137,-52.246,-33.203,0.000,0
1553809185.367,-18.066,-14.160,-51.270,-30.762,0.000,0
1553809185.371,-6.348,-9.766,-31.738,13.184,0.000,0
1553809185.375,-13.184,-17.090,-28.809,12.695,0.000,0
1553809185.379,-25.879,-31.738,-35.156,17.578,0.000,0
1553809185.383,-7.324,-30.273,-37.598,31.738,0.000,0
1553809185.387,-2.930,-32.715,-46.387,2.930,0.000,0
1553809185.391,-32.715,-38.086,-46.875,-16.602,0.000,0
1553809185.395,-42.480,-33.203,-46.875,-5.859,0.000,0
1553809185.399,-38.086,-32.227,-42.969,5.371,0.000,0
1553809185.402,-37.598,-34.668,-35.156,9.766,0.000,0
1553809185.406,-30.762,-28.809,-36.621,-2.930,0.000,0
1553809185.410,-36.133,-26.855,-37.598,0.000,0.000,0
1553809185.414,-41.016,-33.203,-37.109,9.766,0.000,0
1553809185.418,-20.020,-34.668,-37.598,-1.465,0.000,0
1553809185.422,-13.672,-32.227,-37.598,-2.441,0.000,0
1553809185.426,-25.391,-31.250,-28.809,27.832,0.000,0
1553809185.430,-31.738,-31.250,-27.832,27.832,0.000,0
1553809185.434,-29.297,-39.062,-33.203,-0.488,0.000,0
1553809185.438,-43.457,-43.945,-28.320,-3.906,0.000,0
1553809185.441,-23.438,-33.203,-31.250,4.883,0.000,0
1553809185.445,-16.113,-27.344,-35.645,16.113,0.000,0
1553809185.449,-19.531,-25.879,-27.344,27.344,0.000,0
1553809185.453,-19.043,-29.297,-23.438,29.785,0.000,0
1553809185.457,-29.297,-30.273,-25.879,13.672,0.000,0
1553809185.461,-18.066,-33.203,-30.273,13.672,0.000,0
1553809185.465,-10.254,-35.645,-31.738,14.160,0.000,0
1553809185.469,-20.020,-28.320,-31.738,7.812,0.000,0
1553809185.473,-20.020,-34.180,-36.621,10.742,0.000,0
1553809185.477,-26.367,-40.527,-34.668,4.395,0.000,0
1553809185.481,-18.066,-37.109,-23.926,2.930,0.000,0
1553809185.484,-20.020,-32.227,-24.414,3.906,0.000,0
1553809185.488,-40.039,-30.762,-37.109,-13.672,0.000,0
1553809185.492,-35.156,-35.156,-30.273,-13.672,0.000,0
1553809185.496,-24.414,-32.715,-25.879,1.465,0.000,0
1553809185.500,-19.043,-28.320,-32.227,3.418,0.000,0
1553809185.504,-32.227,-31.738,-25.391,14.648,0.000,0
1553809185.508,-34.668,-29.297,-18.066,18.066,0.000,0
1553809185.512,-20.508,-22.949,-24.902,15.625,0.000,0
1553809185.516,-27.344,-22.461,-24.414,11.230,0.000,0
1553809185.520,-39.062,-20.020,-16.113,-9.766,0.000,0
1553809185.524,-25.879,-29.785,-18.555,-9.766,0.000,0
1553809185.527,-15.137,-38.574,-21.484,10.742,0.000,0
1553809185.531,-34.180,-35.645,-22.461,7.812,0.000,0
1553809185.535,-46.875,-32.715,-19.043,3.418,0.000,0
1553809185.539,-45.898,-38.086,-17.578,8.789,0.000,0
1553809185.543,-38.574,-37.598,-19.531,26.855,0.000,0
1553809185.547,-34.180,-29.297,-18.066,23.438,0.000,0
1553809185.551,-43.457,-28.320,-21.973,-0.977,0.000,0
1553809185.555,-25.391,-28.809,-24.902,5.859,0.000,0
1553809185.559,-15.137,-33.691,-19.043,1.465,0.000,0
1553809185.563,-48.828,-38.574,-23.438,-2.441,0.000,0
1553809185.566,-53.223,-36.133,-31.738,10.742,0.000,0
1553809185.570,-34.668,-36.621,-29.785,13.184,0.000,0
1553809185.574,-38.574,-45.410,-25.879,17.578,0.000,0
1553809185.578,-43.945,-45.410,-28.320,16.602,0.000,0
1553809185.582,-28.320,-38.086,-33.691,13.184,0.000,0
1553809185.586,-8.301,-33.203,-31.250,23.926,0.000,0
1553809185.590,-21.973,-30.273,-30.273,22.949,0.000,0
1553809185.594,-34.180,-32.715,-34.668,8.301,0.000,0
1553809185.598,-49.316,-39.062,-33.691,2.930,0.000,0
1553809185.602,-48.828,-47.363,-35.645,1.953,0.000,0
1553809185.606,-36.133,-49.805,-34.180,8.789,0.000,0
1553809185.609,-39.062,-39.551,-33.203,14.648,0.000,0
1553809185.613,-22.461,-34.180,-28.320,17.090,0.000,0
1553809185.617,-32.715,-29.297,-24.414,33.203,0.000,0
1553809185.621,-48.340,-36.133,-31.738,34.180,0.000,0
1553809185.625,-34.180,-41.992,-37.109,0.000,0.000,0
1553809185.629,-34.668,-41.504,-35.156,-3.906,0.000,0
1553809185.633,-30.762,-43.457,-33.691,12.695,0.000,0
1553809185.637,-19.043,-33.691,-38.574,10.742,0.000,0
1553809185.641,-20.508,-27.832,-34.180,29.785,0.000,0
1553809185.645,-36.133,-33.203,-29.785,18.066,0.000,0
1553809185.649,-27.344,-33.203,-35.645,-8.789,0.000,0
1553809185.652,-23.926,-33.691,-27.344,8.789,0.000,0
1553809185.656,-58.594,-32.715,-29.297,18.555,0.000,0
1553809185.660,-62.988,-29.297,-34.180,9.277,0.000,0
1553809185.664,-35.645,-32.227,-27.344,25.391,0.000,0
1553809185.668,-34.668,-32.715,-27.344,16.113,0.000,0
1553809185.672,-45.410,-25.879,-30.273,-9.766,0.000,0
1553809185.676,-31.250,-28.320,-25.391,10.254,0.000,0
1553809185.680,-3.906,-31.738,-18.555,26.855,0.000,0
1553809185.684,-18.555,-25.391,-24.902,13.672,0.000,0
1553809185.688,-50.293,-25.391,-31.250,-10.742,0.000,0
1553809185.691,-40.039,-28.320,-34.668,-4.883,0.000,0
1553809185.695,-24.902,-19.043,-38.574,3.418,0.000,0
1553809185.699,-25.879,-21.484,-39.062,-7.324,0.000,0
1553809185.703,-33.691,-25.391,-43.945,-17.578,0.000,0
1553809185.707,-27.832,-12.207,-45.898,-4.395,0.000,0
1553809185.711,-21.973,-8.301,-36.621,12.695,0.000,0
1553809185.715,-23.926,-23.438,-26.367,20.020,0.000,0
1553809185.719,-16.113,-26.855,-25.391,31.250,0.000,0
1553809185.723,-13.184,-21.484,-23.926,21.484,0.000,0
1553809185.727,-28.320,-22.949,-33.203,1.465,0.000,0
1553809185.731,-22.461,-20.020,-41.016,-2.441,0.000,0
1553809185.734,-14.648,-19.043,-34.668,-2.930,0.000,0
1553809185.738,-30.762,-29.297,-32.715,6.836,0.000,0
1553809185.742,-13.184,-31.250,-41.016,11.719,0.000,0
1553809185.746,-4.883,-33.691,-42.480,23.926,0.000,0
1553809185.750,-12.695,-33.691,-29.785,26.367,0.000,0
1553809185.754,-11.719,-31.250,-29.297,-1.953,0.000,0
1553809185.758,-23.926,-35.156,-29.785,2.441,0.000,0
1553809185.762,-39.551,-30.762,-26.367,7.812,0.000,0
1553809185.766,-39.062,-26.367,-22.461,5.371,0.000,0
1553809185.770,-37.109,-26.855,-21.484,8.789,0.000,0
1553809185.774,-23.438,-32.227,-32.227,7.812,0.000,0
1553809185.777,-19.043,-29.785,-36.621,18.066,0.000,0
1553809185.781,-15.137,-26.367,-30.273,21.973,0.000,0
1553809185.785,-2.441,-28.809,-26.367,12.207,0.000,0
1553809185.789,-29.297,-27.832,-20.508,16.602,0.000,0
1553809185.793,-38.574,-29.297,-25.391,3.906,0.000,0
1553809185.797,-24.414,-30.273,-31.738,-1.953,0.000,0
1553809185.801,-28.809,-29.785,-23.926,5.859,0.000,0
1553809185.805,-28.809,-30.762,-26.855,8.301,0.000,0
1553809185.809,-27.344,-41.992,-30.762,6.348,0.000,0
1553809185.813,-28.320,-35.645,-25.391,9.766,0.000,0
1553809185.816,-28.320,-27.344,-18.555,17.578,0.000,0
1553809185.820,-32.227,-32.227,-24.414,2.441,0.000,0
1553809185.824,-28.809,-30.273,-31.738,15.625,0.000,0
1553809185.828,-36.621,-30.273,-25.879,22.461,0.000,0
1553809185.832,-47.363,-35.645,-25.391,10.742,0.000,0
1553809185.836,-35.645,-32.227,-31.738,9.766,0.000,0
1553809185.840,-30.762,-18.066,-30.762,9.277,0.000,0
1553809185.844,-26.855,-25.879,-27.344,9.766,0.000,0
1553809185.848,-29.785,-42.969,-30.273,2.930,0.000,0
1553809185.852,-33.691,-34.668,-32.227,-1.953,0.000,0
1553809185.856,-28.320,-24.902,-23.926,8.301,0.000,0
1553809185.859,-31.738,-28.809,-26.367,7.812,0.000,0
1553809185.863,-40.039,-35.156,-33.203,8.301,0.000,0
1553809185.867,-47.363,-41.504,-23.926,3.906,0.000,0
1553809185.871,-44.922,-40.527,-27.344,-14.160,0.000,0
1553809185.875,-36.133,-30.762,-35.156,0.488,0.000,0
1553809185.879,-31.250,-30.273,-30.273,14.648,0.000,0
1553809185.883,-29.785,-35.156,-31.738,11.230,0.000,0
1553809185.887,-31.738,-34.668,-34.180,15.137,0.000,0
1553809185.891,-29.785,-41.504,-30.762,15.137,0.000,0
1553809185.895,-30.273,-36.621,-35.645,2.441,0.000,0
1553809185.899,-26.367,-26.855,-34.180,14.648,0.000,0
1553809185.902,-26.855,-30.273,-31.738,19.531,0.000,0
1553809185.906,-20.508,-31.250,-28.809,-0.488,0.000,0
1553809185.910,-22.461,-35.645,-32.227,-17.090,0.000,0
1553809185.914,-45.898,-36.133,-41.504,-15.625,0.000,0
1553809185.918,-45.898,-37.598,-30.762,5.371,0.000,0
1553809185.922,-30.273,-37.598,-27.832,6.348,0.000,0
1553809185.926,-39.551,-35.645,-28.320,5.371,0.000,0
1553809185.930,-44.922,-28.320,-31.738,3.418,0.000,0
1553809185.934,-33.691,-27.832,-32.227,-0.488,0.000,0
1553809185.938,-31.250,-39.062,-40.527,-2.441,0.000,0
1553809185.941,-39.062,-36.133,-49.805,5.859,0.000,0
1553809185.945,-48.340,-32.227,-31.738,9.766,0.000,0
1553809185.949,-39.551,-33.691,-22.461,-1.465,0.000,0
1553809185.953,-25.879,-28.809,-24.902,6.348,0.000,0
1553809185.957,-22.461,-27.344,-32.227,1.465,0.000,0
1553809185.961,-38.086,-30.762,-30.762,-4.883,0.000,0
1553809185.965,-51.270,-37.598,-28.320,-10.254,0.000,0
1553809185.969,-38.574,-39.062,-31.738,-10.742,0.000,0
1553809185.973,-32.715,-34.668,-27.832,-0.488,0.000,0
1553809185.977,-32.227,-37.598,-26.855,4.883,0.000,0
1553809185.981,-40.039,-41.504,-27.832,3.418,0.000,0
1553809185.984,-48.340,-41.504,-24.902,3.418,0.000,0
1553809185.988,-40.039,-40.039,-20.508,3.418,0.000,0
1553809185.992,-58.105,-41.992,-17.578,-9.277,0.000,0
1553809185.996,-61.523,-42.480,-23.438,-7.324,0.000,0
1553809186.000,-38.086,-50.293,-30.273,-7.324,0.000,0
1553809186.004,-42.969,-47.852,-37.598,-23.438,0.000,0
1553809186.008,-63.477,-38.574,-33.203,-0.488,0.000,0
1553809186.012,-57.129,-34.180,-26.855,9.766,0.000,0
1553809186.016,-39.551,-38.574,-29.785,5.371,0.000,0
1553809186.020,-45.410,-46.387,-31.250,-2.441,0.000,0
1553809186.024,-41.992,-38.086,-29.785,-0.488,0.000,0
1553809186.027,-35.645,-36.133,-24.414,10.254,0.000,0
1553809186.031,-42.969,-39.062,-25.391,-3.418,0.000,0
1553809186.035,-42.480,-38.086,-32.715,-4.395,0.000,0
1553809186.039,-35.156,-42.480,-28.320,7.812,0.000,0
1553809186.043,-33.203,-45.410,-26.855,15.137,0.000,0
1553809186.047,-36.133,-39.551,-32.715,-5.371,0.000,0
1553809186.051,-34.180,-35.156,-37.109,-21.484,0.000,0
1553809186.055,-21.973,-34.180,-29.297,1.465,0.000,0
1553809186.059,-21.484,-35.645,-26.367,3.906,0.000,0
1553809186.063,-46.387,-39.062,-34.180,-1.953,0.000,0
1553809186.066,-51.270,-35.156,-32.227,3.906,0.000,0
1553809186.070,-30.273,-27.832,-25.391,15.137,0.000,0
1553809186.074,-26.855,-26.855,-15.137,20.996,0.000,0
1553809186.078,-37.109,-29.297,-13.184,16.113,0.000,0
1553809186.082,-23.926,-27.832,-21.484,18.555,0.000,0
1553809186.086,-34.180,-33.691,-23.926,17.090,0.000,0
1553809186.090,-50.781,-36.621,-24.902,17.578,0.000,0
1553809186.094,-43.457,-37.598,-32.227,24.902,0.000,0
1553809186.098,-35.156,-37.598,-29.785,17.578,0.000,0
1553809186.102,-31.738,-36.621,-23.926,15.137,0.000,0
1553809186.106,-36.133,-38.574,-24.414,4.395,0.000,0
1553809186.109,-42.480,-40.039,-28.809,-5.371,0.000,0
1553809186.113,-40.039,-41.016,-26.855,-2.930,0.000,0
1553809186.117,-39.062,-36.621,-22.949,0.000,0.000,0
1553809186.121,-34.668,-36.133,-24.414,20.508,0.000,0
1553809186.125,-21.484,-33.203,-21.973,25.391,0.000,0
1553809186.129,-22.949,-31.738,-22.949,15.137,0.000,0
1553809186.133,-27.344,-28.320,-22.949,10.254,0.000,0
1553809186.137,-26.367,-26.855,-22.461,10.742,0.000,0
1553809186.141,-22.461,-30.762,-24.414,14.648,0.000,0
1553809186.145,-33.203,-33.203,-26.855,22.461,0.000,0
1553809186.149,-48.340,-33.691,-30.273,18.555,0.000,0
1553809186.152,-39.551,-36.621,-27.344,-5.371,0.000,0
1553809186.156,-40.527,-44.434,-29.297,-4.395,0.000,0
1553809186.160,-43.457,-45.410,-32.227,2.930,0.000,0
1553809186.164,-35.156,-42.480,-23.438,6.836,0.000,0
1553809186.168,-21.973,-32.227,-27.344,5.859,0.000,0
1553809186.172,-14.160,-24.414,-29.785,5.859,0.000,0
1553809186.176,-21.973,-22.461,-27.832,7.324,0.000,0
1553809186.180,-49.316,-20.020,-29.785,9.766,0.000,0
1553809186.184,-54.688,-27.832,-19.531,9.766,0.000,0
1553809186.188,-47.363,-38.086,-16.602,6.348,0.000,0
1553809186.191,-41.016,-39.551,-14.648,12.207,0.000,0
1553809186.195,-39.551,-43.945,-9.766,19.043,0.000,0
1553809186.199,-47.363,-44.434,-15.625,0.977,0.000,0
1553809186.203,-43.457,-39.551,-26.855,-0.488,0.000,0
1553809186.207,-50.293,-37.109,-25.391,6.348,0.000,0
1553809186.211,-47.852,-33.691,-21.484,3.906,0.000,0
1553809186.215,-32.227,-29.297,-26.855,-3.906,0.000,0
1553809186.219,-43.945,-25.879,-25.391,16.113,0.000,0
1553809186.223,-38.086,-32.715,-30.273,20.020,0.000,0
1553809186.227,-26.367,-39.062,-35.645,9.277,0.000,0
1553809186.231,-45.898,-38.574,-30.273,12.695,0.000,0
1553809186.234,-47.363,-42.969,-34.180,-10.742,0.000,0
1553809186.238,-43.457,-43.457,-34.180,-18.066,0.000,0
1553809186.242,-44.434,-41.504,-27.344,-5.371,0.000,0
1553809186.246,-37.109,-44.922,-27.832,6.836,0.000,0
1553809186.250,-39.551,-45.898,-25.879,6.348,0.000,0
1553809186.254,-34.668,-40.039,-23.438,7.812,0.000,0
1553809186.258,-37.598,-39.062,-28.809,12.207,0.000,0
1553809186.262,-39.551,-38.086,-28.320,8.301,0.000,0
1553809186.266,-39.551,-38.574,-29.297,4.883,0.000,0
1553809186.270,-62.500,-42.480,-41.504,-6.348,0.000,0
1553809186.274,-62.012,-43.457,-38.574,-2.441,0.000,0
1553809186.277,-46.875,-40.039,-29.785,5.859,0.000,0
1553809186.281,-41.504,-38.574,-31.738,11.230,0.000,0
1553809186.285,-36.621,-39.062,-32.227,24.414,0.000,0
1553809186.289,-27.832,-41.016,-32.227,21.484,0.000,0
1553809186.293,-25.879,-42.969,-31.250,10.742,0.000,0
1553809186.297,-29.785,-39.551,-29.297,12.207,0.000,0
1553809186.301,-9.277,-39.551,-28.809,11.230,0.000,0
1553809186.305,-18.555,-37.109,-29.785,-4.395,0.000,0
1553809186.309,-40.527,-32.227,-29.785,0.488,0.000,0
1553809186.313,-45.410,-30.273,-31.738,7.812,0.000,0
1553809186.316,-45.410,-31.250,-32.715,9.766,0.000,0
1553809186.320,-25.879,-37.598,-32.227,10.254,0.000,0
1553809186.324,-23.438,-38.086,-32.715,5.371,0.000,0
1553809186.328,-26.367,-35.645,-33.691,1.953,0.000,0
1553809186.332,-20.508,-38.574,-33.203,2.441,0.000,0
1553809186.336,-19.043,-36.621,-26.855,13.184,0.000,0
1553809186.340,-29.297,-35.645,-23.438,13.184,0.000,0
1553809186.344,-42.969,-35.645,-30.762,-13.672,0.000,0
1553809186.348,-41.504,-26.855,-32.227,-0.488,0.000,0
1553809186.352,-27.344,-26.855,-25.879,23.438,0.000,0
1553809186.356,-18.555,-38.086,-32.227,18.066,0.000,0
1553809186.359,-21.484,-35.645,-31.250,21.484,0.000,0
1553809186.363,-13.672,-37.598,-17.578,16.602,0.000,0
1553809186.367,-28.320,-37.598,-18.066,5.859,0.000,0
1553809186.371,-38.574,-28.809,-27.832,15.137,0.000,0
1553809186.375,-33.203,-25.391,-27.344,21.973,0.000,0
1553809186.379,-36.621,-28.320,-21.484,24.902,0.000,0
1553809186.383,-32.227,-33.203,-30.762,20.996,0.000,0
1553809186.387,-37.109,-30.762,-35.156,19.531,0.000,0
1553809186.391,-25.391,-28.320,-26.855,26.367,0.000,0
1553809186.395,-2.930,-34.668,-30.762,10.254,0.000,0
1553809186.399,-28.320,-39.062,-39.551,-7.812,0.000,0
1553809186.402,-39.551,-40.527,-41.016,-3.906,0.000,0
1553809186.406,-24.902,-44.434,-32.227,-0.488,0.000,0
1553809186.410,-38.086,-42.480,-24.414,8.789,0.000,0
1553809186.414,-50.781,-37.109,-21.973,15.625,0.000,0
1553809186.418,-41.992,-35.156,-25.391,16.602,0.000,0
1553809186.422,-27.344,-30.273,-21.973,28.320,0.000,0
1553809186.426,-25.879,-29.297,-24.902,19.043,0.000,0
1553809186.430,-28.809,-36.621,-34.668,-2.441,0.000,0
1553809186.434,-23.926,-45.410,-33.691,-7.324,0.000,0
1553809186.438,-32.715,-39.062,-33.203,8.789,0.000,0
1553809186.441,-41.504,-33.691,-29.297,23.926,0.000,0
1553809186.445,-20.020,-35.156,-25.391,2.441,0.000,0
1553809186.449,-17.578,-36.133,-30.273,-3.906,0.000,0
1553809186.453,-35.156,-42.969,-35.156,7.812,0.000,0
1553809186.457,-36.133,-41.016,-34.668,15.625,0.000,0
1553809186.461,-34.668,-40.527,-24.902,11.230,0.000,0
1553809186.465,-34.180,-37.598,-25.879,-4.395,0.000,0
1553809186.469,-19.531,-33.691,-23.438,-1.465,0.000,0
1553809186.473,-17.090,-29.297,-17.578,6.348,0.000,0
1553809186.477,-37.598,-25.391,-19.043,5.859,0.000,0
1553809186.481,-17.578,-20.020,-19.043,8.789,0.000,0
1553809186.484,-23.438,-22.461,-22.461,6.348,0.000,0
1553809186.488,-52.246,-31.250,-28.809,-10.254,0.000,0
1553809186.492,-38.086,-33.691,-25.879,20.020,0.000,0
1553809186.496,-16.602,-34.180,-19.531,32.715,0.000,0
1553809186.500,-16.113,-30.762,-28.809,1.953,0.000,0
1553809186.504,-24.414,-23.438,-33.691,8.301,0.000,0
1553809186.508,-23.926,-19.531,-36.133,-4.883,0.000,0
1553809186.512,-22.949,-21.484,-38.574,-14.160,0.000,0
1553809186.516,-17.090,-23.438,-36.133,-6.348,0.000,0
1553809186.520,-5.371,-12.695,-36.621,-1.465,0.000,0
1553809186.524,-24.414,-10.742,-37.598,0.000,0.000,0
1553809186.527,-43.457,-18.066,-42.480,6.836,0.000,0
1553809186.531,-22.949,-8.789,-49.316,1.953,0.000,0
1553809186.535,-18.066,-7.812,-41.992,7.812,0.000,0
1553809186.539,-33.203,-20.508,-36.621,21.484,0.000,0
1553809186.543,-29.297,-24.902,-38.574,9.766,0.000,0
1553809186.547,-4.395,-26.855,-35.645,5.859,0.000,0
1553809186.551,-2.441,-23.926,-35.645,1.953,0.000,0
1553809186.555,-14.648,-24.902,-32.227,14.160,0.000,0
1553809186.559,-14.160,-28.809,-35.156,11.719,0.000,0
1553809186.563,-27.832,-22.949,-39.062,6.836,0.000,0
1553809186.566,-27.832,-25.391,-34.180,13.184,0.000,0
1553809186.570,-20.020,-23.926,-29.297,18.555,0.000,0
1553809186.574,-12.207,-14.648,-29.785,12.695,0.000,0
1553809186.578,-8.789,-20.996,-37.598,12.695,0.000,0
1553809186.582,-25.879,-25.879,-31.738,32.227,0.000,0
1553809186.586,-25.391,-22.949,-32.715,29.297,0.000,0
1553809186.590,-12.207,-19.531,-44.922,10.254,0.000,0
1553809186.594,-19.531,-20.508,-48.828,18.066,0.000,0
1553809186.598,-37.109,-29.297,-36.133,1.465,0.000,0
1553809186.602,-43.457,-33.203,-30.273,-16.602,0.000,0
1553809186.606,-31.738,-28.809,-25.391,7.812,0.000,0
1553809186.609,-33.691,-30.273,-28.809,3.418,0.000,0
1553809186.613,-41.992,-31.250,-34.180,4.395,0.000,0
1553809186.617,-24.902,-25.879,-27.832,19.043,0.000,0
1553809186.621,-11.230,-22.461,-26.367,28.809,0.000,0
1553809186.625,-27.344,-25.879,-22.461,35.645,0.000,0
1553809186.629,-20.508,-23.926,-28.320,14.160,0.000,0
1553809186.633,-24.414,-28.809,-33.691,-4.395,0.000,0
1553809186.637,-64.453,-37.598,-32.715,-1.465,0.000,0
1553809186.641,-51.758,-20.508,-28.320,14.648,0.000,0
1553809186.645,-30.762,-16.113,-22.949,17.578,0.000,0
1553809186.649,-36.621,-36.621,-26.367,9.277,0.000,0
1553809186.652,-25.391,-29.785,-31.738,16.113,0.000,0
1553809186.656,-20.996,-20.996,-28.320,29.297,0.000,0
1553809186.660,-37.598,-31.250,-37.109,6.836,0.000,0
1553809186.664,-33.203,-38.086,-37.598,-3.418,0.000,0
1553809186.668,-21.973,-35.645,-28.320,6.836,0.000,0
1553809186.672,-23.438,-32.715,-30.273,18.066,0.000,0
1553809186.676,-35.156,-33.203,-31.738,8.301,0.000,0
1553809186.680,-37.109,-37.109,-32.715,-3.906,0.000,0
1553809186.684,-40.039,-42.480,-37.109,-5.859,0.000,0
1553809186.688,-32.227,-35.645,-33.203,9.766,0.000,0
1553809186.691,-23.926,-32.227,-30.273,8.789,0.000,0
1553809186.695,-33.691,-37.598,-33.203,-8.301,0.000,0
1553809186.699,-42.480,-33.203,-28.809,0.488,0.000,0
1553809186.703,-38.086,-29.785,-18.555,31.250,0.000,0
1553809186.707,-47.363,-31.250,-16.602,25.391,0.000,0
1553809186.711,-36.133,-27.832,-30.273,-9.277,0.000,0
1553809186.715,-12.695,-25.879,-38.574,-8.301,0.000,0
1553809186.719,-39.062,-32.227,-38.574,6.348,0.000,0
1553809186.723,-43.945,-31.738,-34.668,10.254,0.000,0
1553809186.727,-30.273,-32.227,-29.785,9.766,0.000,0
1553809186.731,-24.414,-30.273,-26.367,22.461,0.000,0
1553809186.734,-21.484,-29.785,-25.391,39.551,0.000,0
1553809186.738,-16.113,-32.715,-24.414,18.555,0.000,0
1553809186.742,-27.344,-28.320,-28.809,-0.488,0.000,0
1553809186.746,-26.367,-23.926,-28.320,3.418,0.000,0
1553809186.750,-21.973,-31.250,-25.879,4.883,0.000,0
1553809186.754,-36.133,-36.133,-33.691,17.578,0.000,0
1553809186.758,-29.297,-33.203,-27.832,22.949,0.000,0
1553809186.762,-26.855,-29.297,-20.996,19.043,0.000,0
1553809186.766,-27.344,-30.762,-31.738,3.418,0.000,0
1553809186.770,-12.207,-28.809,-33.691,1.465,0.000,0
1553809186.774,-38.086,-31.738,-23.438,21.973,0.000,0
1553809186.777,-50.293,-31.738,-22.461,18.066,0.000,0
1553809186.781,-23.438,-31.250,-30.273,4.395,0.000,0
1553809186.785,-15.137,-35.645,-40.039,-18.555,0.000,0
1553809186.789,-23.438,-31.738,-31.738,0.977,0.000,0
1553809186.793,-42.480,-32.227,-25.391,21.484,0.000,0
1553809186.797,-42.480,-35.645,-26.855,4.395,0.000,0
1553809186.801,-38.574,-37.598,-29.785,7.324,0.000,0
1553809186.805,-36.621,-36.621,-35.645,11.719,0.000,0
1553809186.809,-35.156,-39.062,-33.203,19.531,0.000,0
1553809186.813,-47.363,-41.016,-32.715,15.625,0.000,0
1553809186.816,-38.086,-31.738,-31.738,-18.066,0.000,0
1553809186.820,-10.742,-26.855,-25.879,-17.578,0.000,0
1553809186.824,-19.531,-23.438,-26.855,3.906,0.000,0
1553809186.828,-45.410,-25.879,-37.598,-5.371,0.000,0
1553809186.832,-47.363,-27.344,-39.062,-8.789,0.000,0
1553809186.836,-35.156,-36.133,-32.715,8.301,0.000,0
1553809186.840,-34.668,-39.062,-37.109,5.859,0.000,0
1553809186.844,-53.711,-23.438,-41.992,4.395,0.000,0
1553809186.848,-53.223,-25.879,-36.621,5.371,0.000,0
1553809186.852,-46.875,-38.086,-20.996,0.488,0.000,0
1553809186.856,-59.082,-33.203,-18.066,-8.789,0.000,0
1553809186.859,-52.246,-32.715,-23.926,3.906,0.000,0
1553809186.863,-55.664,-41.992,-20.508,-0.488,0.000,0
1553809186.867,-56.641,-43.945,-15.625,-17.090,0.000,0
1553809186.871,-49.805,-45.410,-16.113,-26.855,0.000,0
1553809186.875,-63.965,-42.480,-20.020,-29.297,0.000,0
1553809186.879,-67.383,-48.340,-17.578,-10.742,0.000,0
1553809186.883,-43.457,-48.828,-9.766,-2.930,0.000,0
1553809186.887,-31.250,-38.574,-9.766,11.719,0.000,0
1553809186.891,-45.898,-42.480,-16.113,-9.766,0.000,0
1553809186.895,-44.434,-45.410,-22.949,-19.531,0.000,0
1553809186.899,-37.109,-42.480,-22.461,2.441,0.000,0
1553809186.902,-37.109,-40.527,-17.578,23.438,0.000,0
1553809186.906,-33.691,-41.504,-18.555,18.555,0.000,0
1553809186.910,-21.973,-44.434,-16.113,12.695,0.000,0
1553809186.914,-25.391,-46.387,-18.066,18.066,0.000,0
1553809186.918,-31.738,-46.387,-20.996,18.066,0.000,0
1553809186.922,-13.184,-41.504,-13.184,16.113,0.000,0
1553809186.926,-19.043,-43.457,-19.531,12.695,0.000,0
1553809186.930,-41.504,-42.969,-23.926,22.949,0.000,0
1553809186.934,-30.762,-41.016,-26.367,29.785,0.000,0
1553809186.938,-26.367,-35.156,-26.855,17.090,0.000,0
1553809186.941,-16.602,-27.344,-22.949,12.207,0.000,0
1553809186.945,-15.137,-34.668,-27.832,4.883,0.000,0
1553809186.949,-30.273,-40.039,-29.297,4.395,0.000,0
1553809186.953,-27.832,-35.156,-29.785,27.344,0.000,0
1553809186.957,-31.738,-33.691,-26.855,23.438,0.000,0
1553809186.961,-37.598,-38.574,-27.344,5.371,0.000,0
1553809186.965,-43.457,-38.574,-34.180,0.977,0.000,0
1553809186.969,-26.367,-37.109,-32.715,-2.930,0.000,0
1553809186.973,-21.484,-34.180,-25.879,4.395,0.000,0
1553809186.977,-37.598,-32.227,-15.137,1.465,0.000,0
1553809186.981,-28.809,-35.645,-23.926,1.465,0.000,0
1553809186.984,-20.508,-30.273,-36.621,4.883,0.000,0
1553809186.988,-27.832,-26.855,-32.715,3.418,0.000,0
1553809186.992,-16.113,-27.344,-27.344,7.324,0.000,0
1553809186.996,-9.766,-30.762,-25.391,16.602,0.000,0
1553809187.000,-22.949,-31.250,-31.738,15.625,0.000,0
1553809187.004,-35.156,-25.879,-35.645,11.230,0.000,0
1553809187.008,-30.273,-25.879,-37.598,10.742,0.000,0
1553809187.012,-19.043,-30.273,-34.668,10.254,0.000,0
1553809187.016,-24.902,-32.715,-25.391,6.836,0.000,0
1553809187.020,-35.156,-29.297,-25.879,1.953,0.000,0
1553809187.024,-34.180,-21.484,-28.320,-1.953,0.000,0
1553809187.027,-29.785,-30.273,-27.344,9.277,0.000,0
1553809187.031,-28.320,-36.133,-35.156,12.207,0.000,0
1553809187.035,-40.527,-31.250,-32.715,-4.395,0.000,0
1553809187.039,-46.387,-39.551,-22.461,5.859,0.000,0
1553809187.043,-30.762,-41.992,-23.926,0.000,0.000,0
1553809187.047,-18.555,-35.156,-29.785,5.859,0.000,0
1553809187.051,-36.133,-35.156,-30.273,12.695,0.000,0
1553809187.055,-52.734,-38.086,-32.227,9.277,0.000,0
1553809187.059,-41.016,-35.156,-32.715,13.184,0.000,0
1553809187.063,-32.715,-32.715,-34.668,20.508,0.000,0
1553809187.066,-34.180,-37.109,-31.250,12.207,0.000,0
1553809187.070,-25.879,-34.668,-25.879,17.090,0.000,0
1553809187.074,-31.738,-28.809,-24.414,12.695,0.000,0
1553809187.078,-61.035,-28.320,-25.879,-15.137,0.000,0
1553809187.082,-62.500,-25.879,-28.809,-3.906,0.000,0
1553809187.086,-46.875,-29.297,-27.344,2.930,0.000,0
1553809187.090,-44.922,-30.762,-31.250,-5.371,0.000,0
1553809187.094,-45.898,-33.691,-31.250,-9.766,0.000,0
1553809187.098,-46.875,-38.574,-23.926,8.789,0.000,0
1553809187.102,-27.832,-31.250,-25.391,21.973,0.000,0
1553809187.106,-23.438,-24.414,-25.391,11.230,0.000,0
1553809187.109,-36.621,-32.715,-30.762,-1.465,0.000,0
1553809187.113,-37.598,-38.574,-31.738,-3.906,0.000,0
1553809187.117,-36.621,-33.203,-24.414,3.906,0.000,0
1553809187.121,-30.273,-29.297,-31.250,-1.465,0.000,0
1553809187.125,-26.367,-29.297,-36.133,-0.977,0.000,0
1553809187.129,-30.762,-26.367,-25.391,18.555,0.000,0
1553809187.133,-25.879,-18.555,-22.949,2.930,0.000,0
1553809187.137,-24.902,-27.832,-32.227,-13.672,0.000,0
1553809187.141,-31.250,-38.086,-31.250,-1.465,0.000,0
1553809187.145,-34.668,-35.645,-33.691,3.418,0.000,0
1553809187.149,-50.781,-31.738,-35.156,8.301,0.000,0
1553809187.152,-56.641,-38.086,-36.133,9.766,0.000,0
1553809187.156,-53.711,-48.828,-41.992,3.418,0.000,0
1553809187.160,-56.152,-43.945,-35.156,8.301,0.000,0
1553809187.164,-36.621,-36.133,-21.484,14.648,0.000,0
1553809187.168,-36.621,-32.227,-24.902,4.395,0.000,0
1553809187.172,-43.457,-30.273,-22.949,3.418,0.000,0
1553809187.176,-41.504,-33.691,-20.020,11.719,0.000,0
1553809187.180,-47.852,-32.715,-18.066,15.625,0.000,0
1553809187.184,-44.922,-34.668,-19.531,3.906,0.000,0
1553809187.188,-48.828,-36.133,-27.832,-6.836,0.000,0
1553809187.191,-44.922,-22.461,-35.156,-2.441,0.000,0
1553809187.195,-28.809,-27.344,-40.039,15.137,0.000,0
1553809187.199,-45.410,-32.715,-38.574,10.254,0.000,0
1553809187.203,-46.875,-26.367,-28.809,3.418,0.000,0
1553809187.207,-39.551,-30.273,-23.926,9.277,0.000,0
1553809187.211,-43.457,-39.551,-27.344,6.348,0.000,0
1553809187.215,-31.250,-39.062,-25.391,4.395,0.000,0
1553809187.219,-28.320,-28.320,-30.762,13.672,0.000,0
1553809187.223,-20.020,-22.461,-32.715,20.020,0.000,0
1553809187.227,-40.527,-28.320,-28.809,12.695,0.000,0
1553809187.231,-44.434,-27.832,-31.738,18.555,0.000,0
1553809187.234,-20.508,-24.902,-37.598,17.578,0.000,0
1553809187.238,-31.738,-34.180,-32.227,6.836,0.000,0
1553809187.242,-41.504,-33.691,-25.879,10.254,0.000,0
1553809187.246,-44.434,-25.391,-20.020,15.137,0.000,0
1553809187.250,-40.527,-33.203,-17.578,1.465,0.000,0
1553809187.254,-48.340,-42.480,-20.020,-6.836,0.000,0
1553809187.258,-56.152,-40.039,-22.461,-8.301,0.000,0
1553809187.262,-41.504,-35.156,-20.020,1.465,0.000,0
1553809187.266,-36.621,-36.621,-20.020,9.766,0.000,0
1553809187.270,-47.363,-41.504,-29.297,-3.418,0.000,0
1553809187.274,-53.711,-42.480,-24.414,4.883,0.000,0
1553809187.277,-45.410,-36.621,-15.137,8.301,0.000,0
1553809187.281,-37.598,-32.227,-15.625,3.906,0.000,0
1553809187.285,-44.434,-37.109,-19.043,19.531,0.000,0
1553809187.289,-43.945,-36.621,-19.043,16.602,0.000,0
1553809187.293,-39.062,-35.645,-20.020,20.508,0.000,0
1553809187.297,-46.875,-38.574,-23.438,20.996,0.000,0
1553809187.301,-43.945,-37.109,-23.926,3.906,0.000,0
1553809187.305,-27.832,-35.645,-29.785,17.090,0.000,0
1553809187.309,-23.926,-31.250,-29.785,24.414,0.000,0
1553809187.313,-20.996,-31.250,-22.461,11.719,0.000,0
1553809187.316,-26.855,-37.109,-31.250,-1.953,0.000,0
1553809187.320,-41.016,-33.203,-42.480,-4.883,0.000,0
1553809187.324,-40.039,-32.715,-35.156,-5.859,0.000,0
1553809187.328,-10.742,-42.480,-29.785,4.395,0.000,0
1553809187.332,-17.578,-39.551,-31.738,0.488,0.000,0
1553809187.336,-47.363,-30.762,-31.250,-13.184,0.000,0
1553809187.340,-48.340,-34.668,-30.762,-12.207,0.000,0
1553809187.344,-49.316,-41.016,-28.320,0.977,0.000,0
1553809187.348,-50.781,-40.527,-23.926,-2.441,0.000,0
1553809187.352,-46.387,-33.691,-27.344,-7.324,0.000,0
1553809187.356,-44.434,-35.645,-30.762,0.000,0.000,0
1553809187.359,-39.551,-35.156,-29.785,-5.371,0.000,0
1553809187.363,-30.762,-32.715,-29.785,10.742,0.000,0
1553809187.367,-27.832,-36.133,-24.902,12.695,0.000,0
1553809187.371,-23.438,-34.180,-26.367,4.883,0.000,0
1553809187.375,-23.926,-24.414,-32.715,-2.441,0.000,0
1553809187.379,-38.086,-17.090,-37.598,-13.672,0.000,0
1553809187.383,-33.691,-22.949,-37.109,6.348,0.000,0
1553809187.387,-5.859,-34.180,-35.156,21.973,0.000,0
1553809187.391,-28.809,-21.484,-34.668,-0.977,0.000,0
1553809187.395,-54.688,-11.719,-41.504,-27.832,0.000,0
1553809187.399,-44.922,-13.184,-45.410,-16.602,0.000,0
1553809187.402,-38.086,-10.254,-43.945,-10.254,0.000,0
1553809187.406,-29.785,-17.578,-48.828,-15.137,0.000,0
1553809187.410,-29.785,-25.879,-50.293,-11.719,0.000,0
1553809187.414,-32.227,-23.438,-49.316,-13.184,0.000,0
1553809187.418,-28.320,-32.715,-46.875,4.883,0.000,0
1553809187.422,-18.066,-36.621,-51.758,-3.906,0.000,0
1553809187.426,-19.043,-27.344,-52.246,-28.320,0.000,0
1553809187.430,-40.039,-28.809,-40.039,-13.184,0.000,0
1553809187.434,-49.316,-30.762,-40.527,-11.230,0.000,0
1553809187.438,-41.504,-32.715,-44.922,-23.926,0.000,0
1553809187.441,-20.508,-33.691,-31.250,-2.441,0.000,0
1553809187.445,-24.414,-30.762,-21.484,8.301,0.000,0
1553809187.449,-50.293,-32.227,-28.320,3.418,0.000,0
1553809187.453,-54.199,-31.738,-38.574,-6.836,0.000,0
1553809187.457,-40.039,-34.668,-33.203,-7.324,0.000,0
1553809187.461,-34.180,-36.133,-28.809,-6.836,0.000,0
1553809187.465,-48.828,-33.203,-37.598,-17.090,0.000,0
1553809187.469,-27.832,-31.738,-34.668,-7.324,0.000,0
1553809187.473,-20.996,-32.227,-31.250,12.695,0.000,0
1553809187.477,-52.734,-33.691,-36.621,12.207,0.000,0
1553809187.481,-49.316,-33.203,-30.273,4.395,0.000,0
1553809187.484,-30.762,-26.855,-19.531,7.812,0.000,0
1553809187.488,-39.062,-25.391,-17.090,12.695,0.000,0
1553809187.492,-42.480,-26.855,-25.391,4.883,0.000,0
1553809187.496,-40.039,-27.832,-31.738,2.441,0.000,0
1553809187.500,-38.574,-30.762,-28.320,1.953,0.000,0
1553809187.504,-33.203,-26.367,-32.715,11.230,0.000,0
1553809187.508,-32.227,-22.949,-24.902,16.602,0.000,0
1553809187.512,-20.508,-26.855,-22.949,5.859,0.000,0
1553809187.516,-28.320,-30.273,-33.203,-0.977,0.000,0
1553809187.520,-47.363,-23.926,-31.250,14.160,0.000,0
1553809187.524,-33.691,-24.414,-28.809,16.602,0.000,0
1553809187.527,-36.133,-26.367,-28.320,16.602,0.000,0
1553809187.531,-55.176,-23.438,-23.438,21.973,0.000,0
1553809187.535,-39.551,-25.879,-26.367,17.578,0.000,0
1553809187.539,-37.109,-25.391,-22.461,29.297,0.000,0
1553809187.543,-31.250,-20.020,-18.555,19.531,0.000,0
1553809187.547,-30.273,-23.926,-29.785,3.906,0.000,0
1553809187.551,-38.086,-31.738,-28.809,3.418,0.000,0
1553809187.555,-35.156,-24.414,-23.926,3.906,0.000,0
1553809187.559,-33.691,-22.949,-20.020,10.254,0.000,0
1553809187.563,-38.574,-31.250,-19.043,17.090,0.000,0
1553809187.566,-33.203,-30.762,-21.973,6.836,0.000,0
1553809187.570,-35.645,-36.133,-19.043,7.812,0.000,0
1553809187.574,-33.203,-43.945,-17.090,4.395,0.000,0
1553809187.578,-29.785,-42.480,-21.973,-4.395,0.000,0
1553809187.582,-41.504,-36.621,-23.926,6.836,0.000,0
1553809187.586,-45.898,-26.367,-30.273,4.395,0.000,0
1553809187.590,-59.570,-20.996,-31.738,16.602,0.000,0
1553809187.594,-52.734,-27.832,-32.715,7.324,0.000,0
1553809187.598,-39.551,-37.109,-33.203,-10.254,0.000,0
1553809187.602,-39.062,-39.551,-29.297,-0.488,0.000,0
1553809187.606,-35.645,-39.062,-29.785,-8.301,0.000,0
1553809187.609,-37.109,-33.691,-21.973,-4.395,0.000,0
1553809187.613,-51.758,-31.738,-20.020,10.742,0.000,0
1553809187.617,-52.734,-31.738,-30.762,0.977,0.000,0
1553809187.621,-44.434,-26.855,-30.762,2.441,0.000,0
1553809187.625,-32.715,-24.902,-20.020,8.301,0.000,0
1553809187.629,-32.715,-32.227,-18.066,-0.488,0.000,0
1553809187.633,-43.457,-27.344,-32.227,-12.207,0.000,0
1553809187.637,-40.039,-24.414,-29.297,-18.555,0.000,0
1553809187.641,-52.246,-27.344,-29.785,-24.902,0.000,0
1553809187.645,-69.336,-25.391,-41.992,-21.484,0.000,0
1553809187.649,-62.500,-26.367,-35.156,-16.113,0.000,0
1553809187.652,-57.617,-27.832,-37.109,-19.043,0.000,0
1553809187.656,-51.758,-33.691,-43.945,0.488,0.000,0
1553809187.660,-43.457,-34.668,-35.645,-1.465,0.000,0
1553809187.664,-41.016,-27.344,-32.715,-18.066,0.000,0
1553809187.668,-46.875,-20.508,-35.645,0.488,0.000,0
1553809187.672,-55.664,-27.832,-44.434,-7.324,0.000,0
1553809187.676,-49.316,-34.180,-40.527,-30.273,0.000,0
1553809187.680,-48.340,-31.250,-29.297,-19.531,0.000,0
1553809187.684,-52.246,-30.762,-33.691,3.906,0.000,0
1553809187.688,-42.480,-37.109,-37.109,7.324,0.000,0
1553809187.691,-35.156,-34.180,-26.855,6.836,0.000,0
1553809187.695,-40.527,-24.414,-21.484,16.602,0.000,0
1553809187.699,-36.133,-18.555,-26.855,13.672,0.000,0
1553809187.703,-42.969,-22.461,-34.668,0.488,0.000,0
1553809187.707,-49.316,-26.367,-37.598,-0.977,0.000,0
1553809187.711,-39.551,-31.738,-30.273,4.395,0.000,0
1553809187.715,-34.180,-35.645,-29.785,-5.371,0.000,0
1553809187.719,-40.039,-26.367,-31.250,3.906,0.000,0
1553809187.723,-50.293,-20.996,-37.598,6.348,0.000,0
1553809187.727,-39.062,-18.066,-33.203,-0.977,0.000,0
1553809187.731,-29.297,-24.902,-26.855,11.230,0.000,0
1553809187.734,-27.832,-30.762,-31.738,6.836,0.000,0
1553809187.738,-46.387,-32.715,-34.180,-8.301,0.000,0
1553809187.742,-45.410,-31.250,-37.109,-23.926,0.000,0
1553809187.746,-25.879,-28.809,-32.227,-20.508,0.000,0
1553809187.750,-27.344,-34.668,-26.367,-1.465,0.000,0
1553809187.754,-19.043,-34.668,-32.227,8.789,0.000,0
1553809187.758,-30.762,-30.273,-30.273,11.230,0.000,0
1553809187.762,-52.246,-32.227,-26.367,-3.906,0.000,0
1553809187.766,-43.945,-35.156,-27.832,7.324,0.000,0
1553809187.770,-28.809,-30.273,-29.785,28.809,0.000,0
1553809187.774,-17.578,-24.414,-34.180,22.461,0.000,0
1553809187.777,-38.086,-25.391,-33.691,6.348,0.000,0
1553809187.781,-52.734,-30.273,-30.762,4.395,0.000,0
1553809187.785,-40.527,-29.297,-23.926,0.488,0.000,0
1553809187.789,-40.527,-26.855,-24.414,-3.418,0.000,0
1553809187.793,-38.086,-29.297,-24.414,-1.465,0.000,0
1553809187.797,-33.691,-37.109,-23.926,-17.090,0.000,0
1553809187.801,-40.039,-37.598,-28.320,-9.766,0.000,0
1553809187.805,-42.480,-41.992,-27.832,-9.766,0.000,0
1553809187.809,-24.414,-36.133,-24.902,-5.859,0.000,0
1553809187.813,-33.691,-29.297,-21.484,13.672,0.000,0
1553809187.816,-44.434,-27.832,-18.555,13.184,0.000,0
1553809187.820,-31.250,-31.738,-23.926,6.836,0.000,0
1553809187.824,-46.875,-39.062,-25.879,11.719,0.000,0
1553809187.828,-56.152,-35.156,-20.508,1.465,0.000,0
1553809187.832,-43.457,-33.203,-21.484,-5.859,0.000,0
1553809187.836,-36.621,-35.156,-29.297,-3.906,0.000,0
1553809187.840,-31.250,-31.738,-29.297,-4.883,0.000,0
1553809187.844,-20.020,-30.273,-26.367,-3.906,0.000,0
1553809187.848,-21.973,-26.367,-31.250,-8.789,0.000,0
1553809187.852,-24.414,-23.926,-30.762,-5.371,0.000,0
1553809187.856,-25.879,-28.809,-29.785,0.000,0.000,0
1553809187.859,-32.715,-28.809,-31.738,-8.301,0.000,0
1553809187.863,-36.133,-28.809,-33.691,-9.766,0.000,0
1553809187.867,-25.879,-25.391,-30.762,-3.906,0.000,0
1553809187.871,-17.090,-23.438,-25.879,-9.766,0.000,0
1553809187.875,-44.434,-28.320,-30.762,-9.277,0.000,0
1553809187.879,-47.363,-33.203,-28.809,2.930,0.000,0
1553809187.883,-27.344,-32.715,-30.762,5.859,0.000,0
1553809187.887,-23.926,-30.762,-32.715,-11.230,0.000,0
1553809187.891,-38.086,-35.156,-27.344,-12.695,0.000,0
1553809187.895,-53.223,-32.715,-20.020,-5.859,0.000,0
1553809187.899,-51.758,-33.691,-15.625,-2.441,0.000,0
1553809187.902,-47.363,-44.922,-20.508,-2.441,0.000,0
1553809187.906,-49.805,-41.992,-24.414,-22.461,0.000,0
1553809187.910,-56.641,-38.086,-26.855,-23.926,0.000,0
1553809187.914,-50.781,-41.504,-27.832,0.488,0.000,0
1553809187.918,-34.668,-45.898,-23.438,0.977,0.000,0
1553809187.922,-41.504,-42.969,-18.555,-27.344,0.000,0
1553809187.926,-38.574,-31.250,-14.648,-34.668,0.000,0
1553809187.930,-30.273,-30.762,-13.184,-16.602,0.000,0
1553809187.934,-40.527,-31.250,-17.578,-2.441,0.000,0
1553809187.938,-38.086,-30.273,-17.578,-1.953,0.000,0
1553809187.941,-53.223,-34.668,-20.996,-0.977,0.000,0
1553809187.945,-57.129,-29.785,-17.578,-7.324,0.000,0
1553809187.949,-38.574,-16.602,-13.184,-9.766,0.000,0
1553809187.953,-45.898,-20.996,-21.973,-7.324,0.000,0
1553809187.957,-42.480,-37.109,-11.719,0.000,0.000,0
1553809187.961,-38.574,-33.203,-3.906,13.184,0.000,0
1553809187.965,-49.805,-24.414,-15.137,-9.766,0.000,0
1553809187.969,-41.992,-29.297,-19.043,-7.812,0.000,0
1553809187.973,-36.621,-23.926,-14.648,-8.789,0.000,0
1553809187.977,-50.781,-13.672,-22.949,-40.527,0.000,0
1553809187.981,-67.383,-16.113,-26.855,-39.062,0.000,0
1553809187.984,-62.012,-10.742,-11.230,-30.273,0.000,0
1553809187.988,-63.477,75.684,32.715,-30.273,0.000,0
1553809187.992,-84.961,122.559,52.734,-50.293,0.000,0
1553809187.996,-86.426,21.484,24.414,-45.898,0.000,0
1553809188.000,-99.121,-10.254,9.766,-53.223,0.000,0
1553809188.004,-115.723,37.109,16.113,-77.148,0.000,0
1553809188.008,-133.301,50.781,25.879,-101.074,0.000,0
1553809188.012,-160.645,59.570,38.086,-114.746,0.000,0
1553809188.016,-177.734,70.801,49.316,-120.117,0.000,0
1553809188.020,-175.781,71.289,52.734,-137.695,0.000,0
1553809188.024,-179.199,67.383,57.129,-138.184,0.000,0
1553809188.027,-174.316,56.152,44.434,-130.859,0.000,0
1553809188.031,-145.508,49.805,32.715,-114.746,0.000,0
1553809188.035,-133.789,39.062,25.879,-93.262,0.000,0
1553809188.039,-136.719,19.043,14.160,-70.312,0.000,0
1553809188.043,-122.559,9.766,3.418,-67.383,0.000,0
1553809188.047,-108.398,1.465,-7.324,-69.824,0.000,0
1553809188.051,-95.215,-9.277,-11.719,-62.988,0.000,0
1553809188.055,-93.750,-17.090,-20.020,-43.457,0.000,0
1553809188.059,-77.637,-18.066,-29.297,-33.691,0.000,0
1553809188.063,-52.734,-17.090,-35.645,-31.738,0.000,0
1553809188.066,-62.500,-27.344,-40.527,-11.719,0.000,0
1553809188.070,-61.523,-38.086,-37.598,0.488,0.000,0
1553809188.074,-41.992,-45.410,-41.504,-19.043,0.000,0
1553809188.078,-49.805,-47.363,-56.152,-32.715,0.000,0
1553809188.082,-54.688,-47.852,-49.805,-17.090,0.000,0
1553809188.086,-40.039,-58.105,-42.480,-4.395,0.000,0
1553809188.090,-40.039,-56.152,-49.316,9.277,0.000,0
1553809188.094,-25.879,-54.199,-52.246,16.602,0.000,0
1553809188.098,-9.766,-54.688,-57.617,0.977,0.000,0
1553809188.102,-20.508,-53.711,-55.664,2.930,0.000,0
1553809188.106,-28.320,-59.570,-54.688,11.719,0.000,0
1553809188.109,-43.945,-61.523,-58.594,9.766,0.000,0
