timestamps,TP9,AF7,AF8,TP10,Right AUX,Marker0
1542733686.694,15.137,31.738,32.715,44.434,-186.035,0
1542733686.698,16.113,31.738,32.227,62.500,-161.621,0
1542733686.701,26.855,32.715,29.297,65.430,-126.465,0
1542733686.705,51.270,37.109,31.738,51.758,-119.629,0
1542733686.709,50.293,36.621,31.738,41.992,-106.934,0
1542733686.713,24.414,34.180,28.320,34.180,-99.121,0
1542733686.717,20.020,37.598,30.273,63.477,-136.719,0
1542733686.721,22.949,44.434,29.785,58.105,-64.453,0
1542733686.725,23.438,42.969,28.809,48.828,-63.477,0
1542733686.729,36.133,37.598,31.250,68.848,-96.680,0
1542733686.733,47.852,40.527,32.227,59.570,-111.328,0
1542733686.737,37.598,41.992,29.785,61.523,-126.953,0
1542733686.741,21.973,33.691,32.227,53.711,-68.359,0
1542733686.744,25.391,26.855,35.645,64.941,-21.484,0
1542733686.748,46.875,34.668,38.086,104.492,-99.121,0
1542733686.752,48.340,44.434,35.156,79.102,-136.230,0
1542733686.756,13.672,40.039,23.926,41.016,-48.340,0
1542733686.760,4.883,35.645,19.531,44.922,-50.781,0
1542733686.764,41.992,38.574,16.113,63.477,-96.191,0
1542733686.768,35.156,41.016,18.066,73.242,-41.016,0
1542733686.772,32.715,39.062,24.414,64.941,-39.062,0
1542733686.776,56.641,42.480,20.020,57.617,-102.051,0
1542733686.780,40.527,43.457,21.484,45.898,-77.148,0
1542733686.783,14.160,40.039,27.832,37.109,-14.160,0
1542733686.787,9.766,40.527,22.461,48.828,-18.066,0
1542733686.791,21.484,39.062,24.902,74.707,2.441,0
1542733686.795,18.066,41.992,28.320,83.008,12.695,0
1542733686.799,45.410,42.480,25.879,62.500,-1.465,0
1542733686.803,64.941,38.574,26.367,59.082,-34.668,0
1542733686.807,42.969,39.551,23.926,50.293,-41.016,0
1542733686.811,31.250,41.016,22.461,46.387,-13.184,0
1542733686.815,25.391,43.457,24.414,67.871,-2.930,0
1542733686.819,49.316,36.621,26.367,68.848,-56.641,0
1542733686.823,32.227,33.203,29.785,77.637,-43.457,0
1542733686.826,16.602,37.109,30.762,112.305,-13.184,0
1542733686.830,47.852,39.062,33.203,78.613,-83.008,0
1542733686.834,41.504,43.457,29.297,32.715,-52.246,0
1542733686.838,30.273,40.039,21.973,45.410,-20.020,0
1542733686.842,27.832,36.621,24.414,59.570,-8.789,0
1542733686.846,36.621,40.039,26.855,68.359,-25.879,0
1542733686.850,50.781,40.039,24.902,66.406,-62.012,0
1542733686.854,49.805,40.527,29.297,74.707,-72.266,0
1542733686.858,35.156,41.992,31.738,58.594,-38.574,0
1542733686.862,32.227,40.527,28.809,37.109,-37.598,0
1542733686.866,39.551,42.969,28.809,63.477,-64.941,0
1542733686.869,30.762,49.316,22.949,84.473,-2.441,0
1542733686.873,19.531,45.410,24.902,70.801,38.574,0
1542733686.877,6.836,39.551,32.715,49.805,14.160,0
1542733686.881,5.859,35.645,35.645,48.340,19.043,0
1542733686.885,12.695,36.133,34.180,56.152,30.762,0
1542733686.889,30.273,39.551,33.203,44.922,-5.859,0
1542733686.893,72.266,41.016,29.785,40.527,-41.992,0
1542733686.897,51.758,43.945,23.926,55.176,12.207,0
1542733686.901,10.254,40.039,22.461,46.875,24.414,0
1542733686.905,20.020,38.574,19.531,52.734,28.320,0
1542733686.908,16.113,38.574,25.879,86.426,20.996,0
1542733686.912,8.301,37.598,37.598,58.594,-2.441,0
1542733686.916,13.672,40.039,31.738,30.273,19.531,0
1542733686.920,33.203,41.016,23.926,32.715,25.391,0
1542733686.924,46.387,43.457,30.762,45.898,25.391,0
1542733686.928,52.734,38.086,38.086,52.246,61.523,0
1542733686.932,47.363,39.551,38.574,38.086,67.383,0
1542733686.936,4.395,41.016,36.621,67.871,61.523,0
1542733686.940,-14.160,41.992,33.203,119.629,35.645,0
1542733686.944,10.254,48.340,33.691,80.566,13.672,0
1542733686.948,31.738,51.758,39.551,17.090,44.434,0
1542733686.951,26.367,46.875,38.574,24.414,10.254,0
1542733686.955,9.766,49.316,37.598,44.434,-59.082,0
1542733686.959,4.395,57.129,41.992,52.734,-10.742,0
1542733686.963,0.488,53.223,34.668,41.504,47.363,0
1542733686.967,-2.441,57.617,35.156,33.203,58.594,0
1542733686.971,-12.695,55.664,35.645,36.621,6.836,0
1542733686.975,-23.438,59.082,34.668,16.113,-23.438,0
1542733686.979,-23.926,58.105,39.551,-21.973,-39.551,0
1542733686.983,-33.691,56.641,45.410,-4.395,-2.441,0
1542733686.987,-45.410,61.035,31.738,10.254,45.898,0
1542733686.991,-26.367,61.523,22.949,-9.766,3.906,0
1542733686.994,-40.527,60.059,40.039,-27.832,42.969,0
1542733686.998,-94.727,61.523,39.062,-53.223,55.664,0
1542733687.002,-96.191,62.012,35.156,-53.223,87.402,0
1542733687.006,-85.449,60.547,37.598,-33.203,111.328,0
1542733687.010,-81.055,60.059,34.668,-25.391,-9.766,0
1542733687.014,-91.309,50.293,39.551,-66.406,-63.965,0
1542733687.018,-112.793,42.480,37.109,-86.426,-15.137,0
1542733687.022,-80.566,48.828,33.203,-47.852,28.809,0
1542733687.026,-43.945,45.898,45.410,-37.598,36.621,0
1542733687.030,-26.855,31.738,47.363,-22.949,8.789,0
1542733687.033,-39.551,29.297,37.598,-3.418,37.598,0
1542733687.037,-41.504,23.926,40.039,-6.348,89.844,0
1542733687.041,-30.273,19.531,46.387,10.742,104.004,0
1542733687.045,-25.879,21.973,44.434,37.109,110.352,0
1542733687.049,5.371,20.020,41.016,49.316,23.926,0
1542733687.053,12.207,28.320,38.086,31.250,-11.230,0
1542733687.057,-2.441,28.809,35.645,49.805,35.645,0
1542733687.061,31.250,21.973,36.133,76.660,30.762,0
1542733687.065,47.363,26.367,34.668,57.617,38.574,0
1542733687.069,37.598,23.926,30.273,56.641,13.672,0
1542733687.073,38.574,17.090,32.227,64.453,46.387,0
1542733687.076,59.570,19.043,30.273,53.223,86.914,0
1542733687.080,65.918,19.043,28.809,87.402,60.059,0
1542733687.084,63.477,17.090,34.668,113.770,43.457,0
1542733687.088,88.379,20.996,33.203,80.078,51.270,0
1542733687.092,71.289,25.879,30.273,67.383,38.086,0
1542733687.096,30.273,26.855,33.691,87.402,31.738,0
1542733687.100,45.898,25.879,31.250,84.961,54.688,0
1542733687.104,42.969,21.973,27.344,91.309,28.809,0
1542733687.108,54.688,21.973,30.762,94.238,18.555,0
1542733687.112,83.496,24.902,31.738,68.848,41.992,0
1542733687.116,62.012,24.414,31.738,84.961,38.574,0
1542733687.119,34.180,27.344,28.320,86.426,22.949,0
1542733687.123,42.480,33.203,29.785,90.332,79.102,0
1542733687.127,54.199,29.785,27.832,100.098,95.703,0
1542733687.131,65.918,27.832,23.438,83.496,48.828,0
1542733687.135,80.566,30.273,27.344,74.219,33.691,0
1542733687.139,89.844,30.273,31.738,89.355,43.945,0
1542733687.143,80.566,31.738,31.738,111.816,81.543,0
1542733687.147,48.828,29.785,31.738,86.426,70.312,0
1542733687.151,21.973,31.250,33.203,75.684,83.496,0
1542733687.155,33.691,31.738,32.227,84.473,125.000,0
1542733687.158,56.641,30.762,33.203,88.867,119.629,0
1542733687.162,61.523,38.574,32.227,103.027,96.680,0
1542733687.166,59.082,40.039,31.250,100.098,112.305,0
1542733687.170,58.105,38.086,28.809,96.191,144.043,0
1542733687.174,81.055,38.574,29.297,112.305,134.766,0
1542733687.178,80.566,35.156,33.203,79.590,139.648,0
1542733687.182,52.734,35.156,29.297,67.871,166.016,0
1542733687.186,52.734,31.738,32.227,104.004,140.625,0
1542733687.190,48.340,28.809,34.180,112.305,161.133,0
1542733687.194,54.688,32.227,33.691,117.188,213.379,0
1542733687.198,54.199,32.227,33.691,96.680,210.449,0
1542733687.201,41.504,35.645,30.762,61.035,216.309,0
1542733687.205,35.156,34.668,32.227,78.613,229.004,0
1542733687.209,38.574,29.297,30.762,84.961,247.070,0
1542733687.213,51.270,29.297,25.391,78.613,252.930,0
1542733687.217,54.688,29.297,23.926,68.359,243.652,0
1542733687.221,70.312,28.809,23.926,62.988,264.648,0
1542733687.225,54.688,32.227,25.391,79.590,291.992,0
1542733687.229,31.250,32.227,30.273,84.473,259.277,0
1542733687.233,42.480,33.203,29.785,70.312,249.023,0
1542733687.237,55.664,38.574,27.832,82.031,270.020,0
1542733687.241,53.711,37.109,28.809,88.867,267.578,0
1542733687.244,39.551,31.250,28.320,89.355,245.605,0
1542733687.248,63.477,34.180,26.367,97.168,216.797,0
1542733687.252,63.477,35.156,25.391,106.934,243.164,0
1542733687.256,31.738,33.203,27.344,79.590,236.328,0
1542733687.260,26.855,30.273,32.227,53.711,202.148,0
1542733687.264,37.598,28.320,31.250,58.105,208.008,0
1542733687.268,44.922,29.785,28.809,49.316,207.031,0
1542733687.272,29.785,24.414,30.273,59.082,199.707,0
1542733687.276,31.250,24.902,30.273,79.590,205.078,0
1542733687.280,37.598,32.715,31.738,77.148,169.922,0
1542733687.283,43.945,36.133,30.762,77.148,149.902,0
1542733687.287,66.406,41.992,24.414,70.801,134.277,0
1542733687.291,61.523,43.945,23.438,38.086,111.816,0
1542733687.295,38.086,38.086,24.414,49.805,104.980,0
1542733687.299,29.785,39.551,26.367,55.176,110.840,0
1542733687.303,41.504,41.504,25.879,60.059,145.508,0
1542733687.307,41.016,43.945,30.273,74.707,129.395,0
1542733687.311,63.965,39.551,24.902,96.680,116.699,0
1542733687.315,93.750,35.156,17.090,124.512,115.723,0
1542733687.319,58.105,41.504,29.785,80.566,87.891,0
1542733687.323,-5.859,35.645,26.855,4.883,93.750,0
1542733687.326,-34.668,32.715,17.090,-16.602,103.027,0
1542733687.330,-18.555,34.180,14.160,17.578,111.328,0
1542733687.334,13.184,29.785,17.090,35.645,115.234,0
1542733687.338,31.250,34.180,20.996,16.602,111.328,0
1542733687.342,-11.230,33.203,17.090,1.465,145.508,0
1542733687.346,-41.504,33.691,19.531,23.926,141.602,0
1542733687.350,-22.949,36.133,21.973,31.250,146.484,0
1542733687.354,-9.277,32.715,24.414,26.367,173.340,0
1542733687.358,4.395,33.691,24.414,39.551,160.645,0
1542733687.362,16.113,35.156,20.020,34.668,158.691,0
1542733687.366,16.602,38.086,21.973,35.156,185.059,0
1542733687.369,22.949,41.992,23.926,42.480,207.520,0
1542733687.373,22.461,35.156,21.973,33.203,195.801,0
1542733687.377,22.949,33.203,20.996,32.227,169.434,0
1542733687.381,35.645,34.668,24.414,44.434,184.570,0
1542733687.385,55.664,31.250,28.320,59.082,186.035,0
1542733687.389,23.926,35.645,23.926,60.059,194.336,0
1542733687.393,-7.812,35.156,20.020,48.340,198.242,0
1542733687.397,3.906,34.180,24.902,40.527,149.902,0
1542733687.401,40.527,36.133,27.832,37.109,156.250,0
1542733687.405,79.590,37.109,24.414,49.805,198.242,0
1542733687.408,38.574,38.086,23.926,56.152,184.570,0
1542733687.412,-4.395,35.156,26.855,52.246,153.320,0
1542733687.416,3.418,38.086,28.809,49.316,170.410,0
1542733687.420,5.371,40.039,32.227,52.246,182.129,0
1542733687.424,16.113,36.133,31.250,55.664,151.855,0
1542733687.428,20.020,34.180,28.809,68.359,142.578,0
1542733687.432,37.598,37.109,30.273,94.727,170.410,0
1542733687.436,21.484,41.016,28.320,98.145,177.246,0
1542733687.440,8.789,39.062,24.902,57.129,178.711,0
1542733687.444,32.227,37.598,24.902,39.062,163.086,0
1542733687.448,30.762,38.086,25.879,62.500,145.020,0
1542733687.451,31.738,39.062,29.785,63.477,185.547,0
1542733687.455,36.133,39.062,29.297,41.504,209.473,0
1542733687.459,50.781,36.133,27.344,66.406,193.848,0
1542733687.463,35.645,37.598,28.809,64.453,167.969,0
1542733687.467,10.254,38.086,22.949,46.387,160.645,0
1542733687.471,11.719,36.621,25.879,56.641,123.047,0
1542733687.475,13.672,37.598,31.250,51.758,113.281,0
1542733687.479,22.949,33.203,28.809,65.918,127.930,0
1542733687.483,48.340,30.762,30.762,62.500,119.141,0
1542733687.487,47.363,31.738,31.738,70.801,126.465,0
1542733687.491,42.969,32.227,30.273,72.754,119.141,0
1542733687.494,45.898,31.738,28.320,75.684,112.793,0
1542733687.498,16.602,31.738,27.832,83.008,96.191,0
1542733687.502,25.391,32.715,26.367,83.984,102.051,0
1542733687.506,47.363,34.180,20.996,82.520,92.773,0
1542733687.510,37.598,34.668,22.949,41.992,86.914,0
1542733687.514,5.371,33.691,30.762,34.668,98.145,0
1542733687.518,0.000,36.621,31.250,46.875,109.863,0
1542733687.522,22.461,38.574,32.227,55.664,153.809,0
1542733687.526,26.367,39.551,34.668,73.730,151.855,0
1542733687.530,41.504,39.062,34.668,78.125,118.652,0
1542733687.533,62.500,36.621,32.227,76.660,105.957,0
1542733687.537,63.477,34.180,28.809,80.566,111.816,0
1542733687.541,60.059,35.156,26.855,60.547,142.090,0
1542733687.545,44.434,36.133,28.809,51.270,137.695,0
1542733687.549,16.113,34.668,33.691,70.312,119.141,0
1542733687.553,2.441,36.133,33.203,60.547,115.723,0
1542733687.557,-3.906,31.738,33.203,58.594,101.074,0
1542733687.561,10.742,28.809,37.598,63.965,86.914,0
1542733687.565,41.992,29.297,37.109,65.918,92.285,0
1542733687.569,42.969,26.367,32.715,61.523,94.727,0
1542733687.573,18.555,25.879,33.203,66.895,115.723,0
1542733687.576,40.527,29.297,35.156,83.984,112.305,0
1542733687.580,50.293,37.109,35.156,64.453,126.953,0
1542733687.584,9.766,35.156,33.203,69.824,137.695,0
1542733687.588,25.879,33.691,27.344,67.871,118.164,0
1542733687.592,46.875,35.645,27.344,44.434,114.258,0
1542733687.596,34.180,29.785,33.203,62.012,100.098,0
1542733687.600,31.250,24.414,34.668,68.848,97.656,0
1542733687.604,21.973,30.273,32.715,54.199,80.566,0
1542733687.608,19.043,34.668,27.832,47.363,68.848,0
1542733687.612,17.090,28.320,29.297,45.898,77.148,0
1542733687.616,37.598,28.320,34.668,78.125,78.125,0
1542733687.619,56.152,34.668,35.156,70.801,96.191,0
1542733687.623,41.504,34.668,35.156,48.828,113.770,0
1542733687.627,40.039,37.109,33.691,65.918,120.117,0
1542733687.631,47.852,43.457,30.762,51.270,125.977,0
1542733687.635,28.320,37.109,33.203,66.406,143.066,0
1542733687.639,7.812,34.668,30.762,61.035,146.484,0
1542733687.643,10.254,36.621,26.367,45.410,131.836,0
1542733687.647,10.742,31.738,30.762,64.453,126.465,0
1542733687.651,10.742,27.832,34.668,69.336,113.770,0
1542733687.655,67.871,31.738,32.227,85.938,93.750,0
1542733687.658,58.105,40.527,32.227,103.027,99.609,0
1542733687.662,-4.395,38.574,32.227,62.988,112.793,0
1542733687.666,3.906,35.156,25.879,70.312,104.004,0
1542733687.670,37.598,34.180,30.273,70.801,96.680,0
1542733687.674,41.016,29.785,36.133,33.203,104.492,0
1542733687.678,27.832,26.367,42.480,52.246,111.816,0
1542733687.682,28.320,27.344,38.086,67.871,139.648,0
1542733687.686,46.387,29.297,33.203,60.059,142.578,0
1542733687.690,50.293,34.180,33.203,68.848,128.906,0
1542733687.694,-3.906,32.715,28.809,79.590,122.070,0
1542733687.698,-12.695,27.832,31.738,68.848,97.168,0
1542733687.701,-4.883,30.273,34.180,36.621,106.934,0
1542733687.705,16.602,33.691,36.133,51.270,110.840,0
1542733687.709,54.199,38.574,21.973,73.242,88.867,0
1542733687.713,57.129,45.410,19.043,54.688,58.105,0
1542733687.717,43.457,49.316,41.016,77.148,52.734,0
1542733687.721,18.066,44.434,34.668,49.316,69.336,0
1542733687.725,23.926,37.598,24.414,23.438,73.242,0
1542733687.729,49.805,33.691,28.320,53.711,71.777,0
1542733687.733,15.625,30.762,30.762,42.969,93.750,0
1542733687.737,-29.297,27.832,35.156,10.254,89.355,0
1542733687.741,-14.648,25.879,32.227,9.766,69.824,0
1542733687.744,22.949,28.809,26.855,56.641,54.688,0
1542733687.748,20.020,31.738,27.832,76.172,36.621,0
1542733687.752,7.812,35.156,26.367,76.660,8.789,0
1542733687.756,46.875,39.062,29.785,44.434,-12.695,0
1542733687.760,30.762,36.133,32.715,30.273,-11.719,0
1542733687.764,-1.465,34.668,32.227,60.059,-8.301,0
1542733687.768,12.207,29.785,31.250,69.336,-25.391,0
1542733687.772,41.504,31.250,35.156,63.477,-33.691,0
1542733687.776,45.898,41.992,33.691,46.387,-20.996,0
1542733687.780,12.695,43.457,25.391,18.555,13.672,0
1542733687.783,8.789,38.574,25.879,42.480,43.457,0
1542733687.787,11.230,38.574,31.738,62.500,37.109,0
1542733687.791,39.062,45.410,33.691,60.547,54.199,0
1542733687.795,22.949,40.039,31.738,71.289,69.824,0
1542733687.799,-16.113,38.574,31.738,88.379,85.449,0
1542733687.803,-15.137,42.480,28.809,86.914,133.301,0
1542733687.807,-21.973,43.945,25.879,89.844,183.594,0
1542733687.811,-54.199,41.016,27.832,100.586,201.172,0
1542733687.815,-51.758,38.574,31.738,83.984,209.961,0
1542733687.819,-20.508,46.875,25.391,83.984,263.672,0
1542733687.823,-41.016,46.875,24.902,70.801,320.801,0
1542733687.826,-58.105,42.480,27.344,48.340,339.355,0
1542733687.830,-45.410,42.480,23.926,53.223,371.094,0
1542733687.834,-51.758,39.062,30.273,59.082,412.598,0
1542733687.838,-64.941,35.156,30.762,104.004,433.594,0
1542733687.842,-75.195,35.645,21.484,79.590,465.820,0
1542733687.846,-72.754,34.180,25.879,39.062,472.168,0
1542733687.850,-55.176,32.715,26.367,49.316,527.344,0
1542733687.854,-36.133,35.156,16.602,51.758,580.078,0
1542733687.858,-62.012,31.250,18.555,62.500,554.688,0
1542733687.862,-76.172,35.645,25.879,57.129,569.824,0
1542733687.866,-51.758,40.527,25.879,56.152,592.773,0
1542733687.869,-38.086,39.551,26.855,83.008,593.750,0
1542733687.873,-36.133,40.527,27.832,71.777,602.051,0
1542733687.877,-46.387,37.109,26.855,53.711,623.047,0
1542733687.881,-30.273,35.645,26.367,68.359,641.602,0
1542733687.885,-20.996,34.180,28.320,54.199,601.074,0
1542733687.889,-41.504,29.785,30.762,42.480,561.523,0
1542733687.893,-45.410,30.762,26.367,50.781,562.012,0
1542733687.897,-32.715,35.645,18.066,41.504,546.875,0
1542733687.901,-26.855,38.574,20.508,40.039,528.320,0
1542733687.905,-21.484,36.133,27.344,56.641,495.117,0
1542733687.908,1.953,36.621,32.715,52.734,432.617,0
1542733687.912,-29.785,35.156,33.203,32.227,407.227,0
1542733687.916,-46.875,26.855,29.785,36.133,372.070,0
1542733687.920,-21.973,33.203,29.297,30.273,316.895,0
1542733687.924,2.441,40.039,29.297,23.926,260.254,0
1542733687.928,2.930,34.180,23.926,42.480,214.844,0
1542733687.932,0.000,36.621,21.973,59.082,145.996,0
1542733687.936,18.555,36.133,31.738,35.645,62.012,0
1542733687.940,31.738,35.156,32.227,37.598,-10.742,0
1542733687.944,10.742,42.969,25.391,63.477,-61.523,0
1542733687.948,0.977,40.527,26.855,36.133,-125.000,0
1542733687.951,20.996,34.668,22.949,16.113,-225.098,0
1542733687.955,8.789,32.227,24.902,25.391,-297.363,0
1542733687.959,28.320,29.297,29.297,58.105,-352.539,0
1542733687.963,75.684,34.180,30.762,99.121,-407.715,0
1542733687.967,-6.348,35.645,25.879,63.965,-467.773,0
1542733687.971,-67.383,36.133,23.438,-5.371,-528.809,0
1542733687.975,-37.109,34.668,34.668,-9.766,-590.332,0
1542733687.979,-27.832,31.738,26.367,-0.488,-662.598,0
1542733687.983,-48.828,30.273,14.160,-26.367,-708.984,0
1542733687.987,-29.785,24.414,12.695,-37.598,-744.141,0
1542733687.991,23.926,21.484,21.973,-42.480,-787.109,0
1542733687.994,-2.930,15.137,36.621,-7.324,-833.008,0
1542733687.998,-36.621,17.578,44.434,-2.930,-873.047,0
1542733688.002,-41.016,30.273,45.410,-18.555,-866.211,0
1542733688.006,-45.410,31.738,34.180,11.230,-852.051,0
1542733688.010,-28.320,29.297,27.832,23.926,-883.789,0
1542733688.014,-10.254,27.832,32.715,29.785,-896.973,0
1542733688.018,-6.348,29.785,34.668,13.672,-899.414,0
1542733688.022,-3.906,30.273,32.715,5.859,-893.555,0
1542733688.026,9.766,24.902,32.715,24.902,-881.348,0
1542733688.030,16.602,35.156,30.273,19.531,-870.605,0
1542733688.033,10.254,44.922,29.785,22.461,-823.730,0
1542733688.037,24.414,41.992,27.344,46.387,-768.066,0
1542733688.041,32.715,41.504,33.203,35.645,-732.910,0
1542733688.045,20.996,40.527,47.852,58.594,-710.449,0
1542733688.049,13.672,37.109,55.664,87.402,-647.461,0
1542733688.053,31.250,39.551,56.641,64.941,-570.312,0
1542733688.057,44.922,33.691,52.246,62.988,-520.996,0
1542733688.061,18.555,36.133,45.898,56.641,-483.398,0
1542733688.065,39.551,46.875,39.551,55.664,-425.293,0
1542733688.069,46.875,38.574,38.086,63.965,-353.027,0
1542733688.073,36.621,21.973,51.758,71.289,-288.086,0
1542733688.076,19.043,26.855,58.594,79.102,-222.656,0
1542733688.080,4.883,36.621,46.387,83.496,-140.625,0
1542733688.084,33.203,40.527,43.945,82.520,-91.309,0
1542733688.088,56.152,40.039,41.992,65.430,-37.598,0
1542733688.092,56.152,43.457,40.039,90.332,62.988,0
1542733688.096,60.059,41.992,42.969,102.539,111.816,0
1542733688.100,28.320,27.344,42.480,90.332,166.992,0
1542733688.104,17.090,24.414,48.340,111.816,244.629,0
1542733688.108,35.156,34.668,45.410,99.609,316.895,0
1542733688.112,29.297,41.504,33.203,84.473,358.398,0
1542733688.116,35.156,40.527,33.203,83.984,382.324,0
1542733688.119,38.086,36.133,40.039,87.402,437.500,0
1542733688.123,36.133,42.480,39.551,97.168,507.324,0
1542733688.127,43.457,42.969,39.062,109.375,562.988,0
1542733688.131,48.340,33.691,38.574,111.816,593.262,0
1542733688.135,67.383,37.598,35.645,122.070,635.742,0
1542733688.139,34.180,41.992,36.133,113.281,676.758,0
1542733688.143,-5.371,39.551,38.086,108.887,681.641,0
1542733688.147,6.348,44.922,34.668,122.070,699.707,0
1542733688.151,33.691,46.875,32.715,103.516,705.566,0
1542733688.155,33.203,41.504,36.133,73.242,724.609,0
1542733688.158,30.273,36.621,37.598,67.383,754.395,0
1542733688.162,76.660,37.109,40.527,89.844,759.277,0
1542733688.166,55.664,39.551,43.945,101.562,724.609,0
1542733688.170,13.184,40.039,42.969,92.285,691.406,0
1542733688.174,16.113,39.551,40.527,92.773,675.293,0
1542733688.178,16.113,35.645,33.203,89.844,669.922,0
1542733688.182,29.297,37.598,28.320,116.211,684.082,0
1542733688.186,28.809,39.062,29.785,119.141,673.340,0
1542733688.190,33.691,37.109,39.062,101.074,655.762,0
1542733688.194,62.988,39.062,42.480,71.777,615.723,0
1542733688.198,42.480,37.598,47.852,64.941,571.777,0
1542733688.201,-15.625,31.738,52.734,99.121,524.414,0
1542733688.205,4.395,36.133,41.016,95.703,487.305,0
1542733688.209,33.691,44.922,33.691,77.148,477.051,0
1542733688.213,54.688,48.340,31.738,77.637,424.805,0
1542733688.217,35.156,41.504,36.133,64.941,376.465,0
1542733688.221,9.766,36.133,40.527,56.641,318.848,0
1542733688.225,36.621,38.086,25.879,73.730,267.090,0
1542733688.229,27.832,39.551,21.484,57.129,226.074,0
1542733688.233,-0.977,41.992,31.738,40.039,192.383,0
1542733688.237,41.016,46.387,30.762,36.621,182.129,0
1542733688.241,63.477,42.969,34.180,56.641,157.715,0
1542733688.244,45.410,34.668,42.969,52.734,104.004,0
1542733688.248,53.223,33.203,36.621,45.410,53.711,0
1542733688.252,81.055,31.738,35.645,69.824,24.902,0
1542733688.256,114.746,34.180,44.922,63.965,-3.906,0
1542733688.260,109.375,38.574,44.922,90.332,-8.301,0
1542733688.264,90.332,35.645,35.156,87.891,-46.387,0
1542733688.268,109.375,39.551,27.832,36.133,-97.168,0
1542733688.272,111.816,43.945,30.762,34.180,-96.680,0
1542733688.276,91.797,39.062,35.645,54.688,-107.910,0
1542733688.280,89.355,36.133,32.227,64.941,-156.738,0
1542733688.283,95.703,34.180,34.180,55.176,-172.852,0
1542733688.287,101.562,36.133,34.180,62.500,-147.949,0
1542733688.291,129.395,35.645,29.297,62.988,-146.484,0
1542733688.295,111.816,30.762,35.645,50.293,-167.969,0
1542733688.299,76.660,36.133,41.992,68.848,-148.438,0
1542733688.303,80.566,43.945,42.480,65.918,-159.180,0
1542733688.307,71.777,33.203,32.227,59.570,-188.477,0
1542733688.311,85.449,30.762,28.809,61.035,-205.566,0
1542733688.315,108.887,31.250,40.527,43.945,-203.125,0
1542733688.319,89.355,28.809,38.086,61.035,-157.227,0
1542733688.323,67.383,36.133,33.691,70.801,-141.113,0
1542733688.326,74.707,41.992,38.086,74.219,-141.602,0
1542733688.330,58.105,41.016,44.434,56.152,-145.996,0
1542733688.334,41.016,41.992,42.969,55.176,-151.367,0
1542733688.338,53.223,43.457,36.621,64.453,-139.648,0
1542733688.342,72.266,33.203,36.133,58.105,-154.785,0
1542733688.346,82.520,30.762,35.645,47.852,-163.574,0
1542733688.350,70.801,40.527,33.691,52.734,-148.438,0
1542733688.354,51.758,46.875,37.598,54.199,-152.344,0
1542733688.358,34.668,41.992,40.039,36.621,-145.020,0
1542733688.362,36.621,41.504,41.016,65.430,-147.949,0
1542733688.366,63.477,45.898,37.598,73.730,-151.855,0
1542733688.369,77.637,46.387,34.668,48.340,-135.254,0
1542733688.373,56.152,42.969,34.668,53.711,-151.367,0
1542733688.377,51.758,42.969,35.645,55.176,-144.531,0
1542733688.381,48.828,44.434,38.086,58.105,-142.090,0
1542733688.385,46.875,38.086,42.969,76.172,-176.270,0
1542733688.389,49.316,38.086,48.828,75.684,-183.594,0
1542733688.393,63.965,35.645,37.598,68.359,-168.945,0
1542733688.397,106.934,31.738,28.809,82.031,-187.012,0
1542733688.401,85.449,34.180,29.785,57.617,-206.055,0
1542733688.405,10.254,33.203,29.785,21.973,-210.938,0
1542733688.408,17.090,35.645,31.738,32.227,-202.637,0
1542733688.412,55.664,38.574,30.762,40.039,-204.102,0
1542733688.416,61.035,44.922,31.738,17.090,-264.160,0
1542733688.420,40.527,44.922,41.504,58.594,-272.949,0
1542733688.424,41.992,37.109,45.898,107.422,-249.512,0
1542733688.428,74.219,36.621,40.527,66.895,-256.348,0
1542733688.432,68.359,36.133,42.480,71.777,-253.418,0
1542733688.436,38.086,39.551,42.480,79.590,-246.582,0
1542733688.440,32.715,40.527,34.180,46.875,-242.676,0
1542733688.444,47.363,36.133,28.320,57.617,-255.371,0
1542733688.448,63.477,41.016,32.227,87.402,-271.484,0
1542733688.451,63.965,45.898,39.062,93.262,-276.855,0
1542733688.455,62.988,43.457,37.598,67.383,-241.211,0
1542733688.459,62.988,34.668,38.086,67.383,-243.164,0
1542733688.463,44.922,29.785,40.039,101.074,-271.973,0
1542733688.467,49.316,40.527,38.574,88.379,-241.211,0
1542733688.471,51.758,40.039,40.527,78.125,-216.309,0
1542733688.475,40.039,38.086,37.109,82.031,-219.727,0
1542733688.479,60.547,46.875,28.320,69.824,-177.734,0
1542733688.483,46.875,44.922,32.227,86.426,-130.371,0
1542733688.487,23.926,38.086,42.969,155.762,-137.695,0
1542733688.491,45.410,42.480,41.992,137.207,-123.047,0
1542733688.494,51.758,48.340,32.227,55.176,-110.840,0
1542733688.498,50.781,41.992,33.203,84.961,-87.891,0
1542733688.502,47.363,41.016,33.203,102.051,-52.734,0
1542733688.506,63.477,46.387,31.250,78.125,-42.969,0
1542733688.510,83.984,46.875,36.133,76.172,-23.926,0
1542733688.514,64.941,45.410,35.156,83.496,22.461,0
1542733688.518,52.734,43.945,31.738,75.684,26.855,0
1542733688.522,14.648,41.016,34.668,79.102,11.230,0
1542733688.526,-2.441,36.133,37.109,88.867,32.715,0
1542733688.530,27.832,38.086,32.227,112.305,74.707,0
1542733688.533,40.039,40.039,33.691,102.051,85.449,0
1542733688.537,31.250,33.203,36.133,86.426,69.336,0
1542733688.541,10.254,34.668,28.809,98.633,74.219,0
1542733688.545,37.109,42.969,24.902,68.848,103.516,0
1542733688.549,65.430,43.945,27.344,67.383,99.121,0
1542733688.553,41.016,41.504,32.715,83.496,78.125,0
1542733688.557,28.320,40.527,31.250,100.098,105.469,0
1542733688.561,35.156,43.457,31.250,79.102,125.000,0
1542733688.565,43.945,42.480,30.762,105.469,131.348,0
1542733688.569,15.137,35.645,26.367,118.652,118.652,0
1542733688.573,3.906,36.621,30.762,62.500,129.883,0
1542733688.576,2.441,35.645,36.133,48.828,139.648,0
1542733688.580,20.508,32.227,29.785,106.934,138.672,0
1542733688.584,63.965,33.691,29.297,118.164,166.504,0
1542733688.588,49.316,35.645,30.273,57.617,193.848,0
1542733688.592,37.598,34.668,28.809,78.125,184.570,0
1542733688.596,63.965,34.180,34.180,124.023,172.363,0
1542733688.600,83.008,38.574,27.344,100.098,185.547,0
1542733688.604,57.129,42.480,17.090,63.477,187.012,0
1542733688.608,29.785,43.457,24.902,102.051,215.332,0
1542733688.612,31.738,47.363,26.855,107.910,219.238,0
1542733688.616,9.766,46.875,25.391,75.684,200.195,0
1542733688.619,5.371,38.574,26.367,54.199,224.609,0
1542733688.623,30.273,32.227,31.250,89.844,236.328,0
1542733688.627,33.691,34.180,29.297,102.051,239.258,0
1542733688.631,45.898,39.062,22.461,82.520,240.723,0
1542733688.635,80.078,41.016,23.926,75.684,235.840,0
1542733688.639,61.035,34.668,28.320,75.195,239.746,0
1542733688.643,29.785,32.715,30.762,106.445,214.355,0
1542733688.647,13.184,40.039,24.414,111.328,229.004,0
1542733688.651,8.789,39.551,23.438,84.473,267.578,0
1542733688.655,31.250,37.109,26.855,49.805,237.793,0
1542733688.658,53.711,41.992,23.926,57.617,224.609,0
1542733688.662,53.711,41.504,21.973,95.703,222.656,0
1542733688.666,33.691,34.668,27.832,104.004,184.570,0
1542733688.670,46.875,33.691,32.715,87.891,157.715,0
1542733688.674,45.898,36.621,31.738,81.543,141.602,0
1542733688.678,23.438,34.668,30.762,94.727,133.789,0
1542733688.682,19.043,32.715,31.250,53.711,118.164,0
1542733688.686,38.574,35.645,27.344,36.621,74.219,0
1542733688.690,34.180,36.133,24.414,83.984,74.707,0
1542733688.694,34.668,35.645,24.902,98.633,80.566,0
1542733688.698,51.270,38.086,24.902,100.586,63.477,0
1542733688.701,44.922,42.969,24.414,102.051,83.496,0
1542733688.705,18.555,41.504,25.879,63.477,63.477,0
1542733688.709,23.926,36.133,26.855,56.641,58.594,0
1542733688.713,34.180,39.551,29.785,86.914,59.570,0
1542733688.717,32.227,39.551,27.344,83.496,44.434,0
1542733688.721,56.152,37.598,27.344,87.891,80.078,0
1542733688.725,36.133,36.621,27.832,86.426,72.266,0
1542733688.729,25.391,38.574,25.391,95.215,28.809,0
1542733688.733,48.828,41.504,29.297,112.305,12.207,0
1542733688.737,61.523,41.992,28.320,119.141,58.105,0
1542733688.741,63.477,41.504,27.832,125.488,97.656,0
1542733688.744,42.480,38.574,26.855,97.168,79.102,0
1542733688.748,16.113,30.273,30.273,113.770,89.355,0
1542733688.752,5.371,32.715,33.203,82.031,92.285,0
1542733688.756,19.531,33.691,26.855,65.918,100.586,0
1542733688.760,56.641,30.273,20.996,133.301,87.891,0
1542733688.764,78.125,34.180,26.855,155.762,96.680,0
1542733688.768,67.871,35.156,41.016,120.605,118.164,0
1542733688.772,35.156,32.715,34.668,53.711,122.559,0
1542733688.776,52.246,32.715,33.691,90.332,159.180,0
1542733688.780,73.242,38.574,33.691,98.145,148.438,0
1542733688.783,66.895,36.133,35.156,122.070,130.859,0
1542733688.787,63.477,30.273,42.969,169.434,138.672,0
1542733688.791,32.227,34.180,32.715,118.164,118.652,0
1542733688.795,29.297,35.156,29.785,101.074,133.789,0
1542733688.799,53.711,40.039,37.598,98.145,150.391,0
1542733688.803,55.664,42.969,36.621,102.539,149.902,0
1542733688.807,62.500,39.551,34.668,120.605,165.039,0
1542733688.811,72.266,40.039,33.691,123.047,157.715,0
1542733688.815,78.613,37.598,35.156,125.488,180.664,0
1542733688.819,85.938,38.574,39.062,108.887,216.309,0
1542733688.823,82.031,37.598,33.203,131.836,209.961,0
1542733688.826,63.965,36.133,29.297,163.086,227.051,0
1542733688.830,69.824,38.086,33.203,145.996,250.977,0
1542733688.834,75.195,33.691,33.203,103.516,269.531,0
1542733688.838,58.105,35.156,31.738,87.402,289.062,0
1542733688.842,53.711,38.574,29.785,97.168,299.316,0
1542733688.846,79.102,35.645,28.320,121.094,283.691,0
1542733688.850,78.125,35.645,28.320,124.512,304.688,0
1542733688.854,35.645,40.527,29.297,103.516,329.102,0
1542733688.858,40.039,43.457,31.738,102.539,329.102,0
1542733688.862,56.641,38.574,29.785,96.680,317.871,0
1542733688.866,41.992,38.086,20.996,106.934,294.922,0
1542733688.869,56.152,40.527,21.484,115.723,283.691,0
1542733688.873,69.336,39.551,29.297,100.586,297.363,0
1542733688.877,47.852,36.133,32.227,125.488,313.477,0
1542733688.881,47.852,33.203,30.273,119.629,301.270,0
1542733688.885,71.289,32.715,25.879,73.730,293.457,0
1542733688.889,60.059,32.227,29.297,87.891,311.523,0
1542733688.893,40.039,37.598,30.273,82.031,337.891,0
1542733688.897,38.086,37.598,28.809,90.332,334.961,0
1542733688.901,32.715,34.180,29.297,86.914,308.594,0
1542733688.905,27.832,35.645,24.902,64.941,318.848,0
1542733688.908,37.598,38.086,26.855,93.750,302.734,0
1542733688.912,59.082,36.133,24.414,89.355,280.762,0
1542733688.916,70.312,33.203,22.949,80.566,314.453,0
1542733688.920,50.293,33.691,28.809,73.242,313.477,0
1542733688.924,41.504,39.551,30.273,90.820,275.879,0
1542733688.928,27.344,38.574,28.320,84.473,247.070,0
1542733688.932,3.906,36.133,23.438,72.266,224.121,0
1542733688.936,5.859,39.551,26.367,75.684,230.957,0
1542733688.940,35.156,41.504,26.367,61.035,216.797,0
1542733688.944,38.086,43.457,18.555,75.195,203.613,0
1542733688.948,36.133,45.410,14.160,70.312,207.520,0
1542733688.951,62.988,39.062,20.508,66.406,196.289,0
1542733688.955,53.223,34.668,30.273,64.453,196.289,0
1542733688.959,18.555,39.062,29.785,59.082,156.250,0
1542733688.963,20.996,40.527,28.320,59.570,125.488,0
1542733688.967,45.410,41.016,28.809,79.590,134.277,0
1542733688.971,41.992,44.434,25.879,113.281,113.770,0
1542733688.975,15.137,42.969,27.832,75.195,107.910,0
1542733688.979,38.086,42.969,31.250,44.922,127.930,0
1542733688.983,62.012,47.852,26.855,50.293,109.375,0
1542733688.987,61.523,46.387,22.461,49.805,84.473,0
1542733688.991,54.199,39.062,22.949,71.777,80.566,0
1542733688.994,34.180,34.668,27.344,84.473,82.520,0
1542733688.998,19.043,37.598,27.832,76.660,76.660,0
1542733689.002,3.906,36.133,29.297,77.637,58.105,0
1542733689.006,26.855,39.062,32.715,77.148,52.246,0
1542733689.010,39.062,46.387,25.879,79.102,77.637,0
1542733689.014,45.898,45.410,23.438,82.520,62.988,0
1542733689.018,74.707,42.969,26.855,61.035,21.484,0
1542733689.022,49.316,41.504,27.832,69.824,24.902,0
1542733689.026,17.578,41.016,26.367,72.754,46.875,0
1542733689.030,20.508,40.039,25.391,61.523,44.434,0
1542733689.033,21.484,37.109,24.414,50.293,15.137,0
1542733689.037,41.016,40.527,27.832,68.848,33.691,0
1542733689.041,58.594,41.504,32.227,94.238,20.508,0
1542733689.045,40.527,33.691,31.250,83.984,26.367,0
1542733689.049,11.719,31.738,28.809,76.172,72.754,0
1542733689.053,26.855,37.598,30.762,58.594,46.387,0
1542733689.057,47.363,40.039,30.273,54.199,45.898,0
1542733689.061,26.855,39.062,29.297,62.500,40.039,0
1542733689.065,31.250,38.574,31.250,57.617,33.691,0
1542733689.069,48.340,38.086,26.367,81.543,38.086,0
1542733689.073,46.875,38.086,23.926,80.566,27.344,0
1542733689.076,51.270,37.598,31.738,77.148,23.438,0
1542733689.080,39.551,38.574,32.715,76.660,48.340,0
1542733689.084,43.457,37.598,30.762,83.008,71.777,0
1542733689.088,50.781,35.645,34.668,87.891,48.340,0
1542733689.092,28.320,35.156,30.273,73.242,47.363,0
1542733689.096,30.762,29.785,33.691,54.688,51.270,0
1542733689.100,36.133,30.273,39.551,69.824,58.105,0
1542733689.104,9.277,36.621,37.109,82.520,61.523,0
1542733689.108,16.602,39.062,38.086,69.824,40.527,0
1542733689.112,29.297,41.016,35.645,82.031,53.223,0
1542733689.116,38.086,44.434,36.621,79.102,44.434,0
1542733689.119,34.668,44.922,42.969,67.383,30.762,0
1542733689.123,32.227,45.898,41.504,49.805,9.766,0
1542733689.127,25.391,39.062,25.391,35.156,6.348,0
1542733689.131,20.508,36.133,23.926,49.805,49.805,0
1542733689.135,14.648,47.363,37.109,36.133,46.387,0
1542733689.139,-10.742,47.852,29.785,22.949,31.738,0
1542733689.143,-18.066,46.387,23.926,31.250,32.227,0
1542733689.147,-10.742,57.129,31.250,10.254,15.137,0
1542733689.151,-18.555,60.547,32.715,-14.160,-35.645,0
1542733689.155,-51.758,51.270,25.879,-30.762,-30.762,0
1542733689.158,-60.547,61.035,27.832,-20.508,-0.488,0
1542733689.162,-93.262,72.266,28.809,-28.809,-45.410,0
1542733689.166,-147.949,68.848,12.207,-103.027,-84.961,0
1542733689.170,-162.598,66.895,3.906,-125.488,-69.336,0
1542733689.174,-159.180,63.965,0.000,-94.238,-45.898,0
1542733689.178,-121.582,61.035,0.000,-86.914,-56.641,0
1542733689.182,-77.148,61.523,3.906,-82.031,-66.895,0
1542733689.186,-59.570,62.012,-0.977,-57.129,-75.684,0
1542733689.190,-52.734,55.664,-1.953,-31.250,-58.105,0
1542733689.194,-80.566,46.387,0.000,-31.250,-58.105,0
1542733689.198,-85.938,38.086,-0.977,-15.625,-87.891,0
1542733689.201,-53.223,35.645,5.371,13.184,-105.957,0
1542733689.205,-39.062,36.133,7.324,-1.953,-110.840,0
1542733689.209,-8.301,34.668,6.836,12.207,-111.328,0
1542733689.213,5.371,38.574,12.207,24.902,-145.508,0
1542733689.217,9.277,37.109,14.160,47.852,-118.652,0
1542733689.221,42.969,34.180,14.648,84.473,-96.191,0
1542733689.225,47.852,33.691,14.160,74.707,-107.910,0
1542733689.229,29.785,27.344,13.672,90.332,-120.605,0
1542733689.233,30.762,23.926,17.090,84.961,-116.699,0
1542733689.237,26.367,20.996,17.090,75.684,-117.676,0
1542733689.241,24.902,18.555,17.090,86.914,-165.527,0
1542733689.244,55.664,20.508,19.043,76.172,-151.367,0
1542733689.248,56.152,24.902,19.043,84.473,-98.145,0
1542733689.252,48.828,27.832,15.625,125.488,-85.449,0
1542733689.256,60.059,28.320,9.766,132.812,-129.395,0
1542733689.260,53.223,28.320,19.043,90.332,-142.090,0
1542733689.264,54.199,28.809,25.391,79.590,-98.145,0
1542733689.268,46.387,28.320,25.391,89.355,-68.359,0
1542733689.272,62.500,28.320,23.926,72.754,-59.570,0
1542733689.276,82.520,29.785,24.414,104.004,-62.012,0
1542733689.280,51.270,24.902,27.344,131.836,-60.059,0
1542733689.283,30.273,24.414,25.879,80.078,-23.438,0
1542733689.287,56.641,33.203,28.320,71.777,-41.016,0
1542733689.291,65.918,33.691,31.250,91.797,-77.148,0
1542733689.295,65.918,35.645,28.809,92.285,-79.102,0
1542733689.299,77.637,36.133,29.785,104.004,-69.336,0
1542733689.303,65.918,33.691,34.180,134.766,-105.957,0
1542733689.307,45.898,34.668,35.156,109.375,-88.379,0
1542733689.311,55.176,33.203,31.250,74.219,-48.340,0
1542733689.315,65.430,36.621,28.809,98.633,-81.543,0
1542733689.319,44.922,39.062,34.180,107.422,-91.797,0
1542733689.323,31.738,34.668,38.574,114.746,-90.820,0
1542733689.326,43.945,32.227,38.574,95.215,-89.844,0
1542733689.330,44.922,33.691,35.156,93.262,-77.148,0
1542733689.334,44.434,36.133,36.133,112.793,-59.570,0
1542733689.338,35.645,38.574,36.621,104.004,-92.773,0
1542733689.342,38.086,41.016,39.551,105.957,-115.234,0
1542733689.346,57.617,36.621,38.086,95.215,-116.699,0
1542733689.350,56.152,34.180,29.297,88.379,-116.211,0
1542733689.354,51.758,36.621,32.715,91.309,-73.730,0
1542733689.358,64.941,33.691,38.574,102.539,-78.613,0
1542733689.362,61.035,29.785,36.621,83.984,-61.035,0
1542733689.366,58.594,32.227,29.297,67.383,-45.898,0
1542733689.369,44.922,28.809,28.320,85.449,-72.266,0
1542733689.373,30.762,30.762,33.691,83.496,-75.684,0
1542733689.377,30.273,33.203,32.715,67.871,-62.500,0
1542733689.381,45.898,30.762,34.180,116.699,-57.129,0
1542733689.385,64.453,29.297,35.156,147.461,-46.875,0
1542733689.389,58.105,26.855,34.668,96.191,-50.293,0
1542733689.393,44.922,30.273,32.715,50.781,-47.852,0
1542733689.397,39.062,28.320,26.367,75.195,-47.363,0
1542733689.401,51.270,26.855,26.367,77.148,-53.223,0
1542733689.405,54.199,35.156,32.227,62.012,-55.664,0
1542733689.408,33.691,35.645,31.250,83.496,-85.449,0
1542733689.412,22.949,33.691,30.762,83.496,-81.543,0
1542733689.416,28.320,35.156,29.297,70.801,-57.129,0
1542733689.420,39.062,32.715,30.762,77.148,-48.828,0
1542733689.424,46.875,29.785,36.133,105.469,-76.660,0
1542733689.428,41.504,20.020,35.645,111.816,-75.684,0
1542733689.432,23.926,16.602,32.227,86.914,-63.477,0
1542733689.436,22.461,23.926,26.367,50.293,-79.102,0
1542733689.440,68.359,30.273,24.414,59.570,-73.730,0
1542733689.444,80.078,33.203,25.879,96.191,-49.805,0
1542733689.448,32.715,32.715,20.508,90.332,-18.066,0
1542733689.451,22.949,31.738,19.531,78.125,-21.484,0
1542733689.455,30.762,28.809,26.855,55.664,-57.617,0
1542733689.459,11.230,27.344,28.320,38.574,-36.621,0
1542733689.463,15.625,26.367,24.902,80.078,-13.672,0
1542733689.467,42.480,34.668,26.367,83.984,-24.414,0
1542733689.471,44.434,41.016,26.855,59.570,5.371,0
1542733689.475,16.113,37.598,27.344,61.035,7.324,0
1542733689.479,31.738,37.598,28.809,73.242,-27.344,0
1542733689.483,33.691,38.086,30.273,67.383,-30.762,0
1542733689.487,16.602,37.109,25.391,35.156,14.160,0
1542733689.491,39.551,35.645,26.367,65.430,20.020,0
1542733689.494,52.734,35.156,29.297,91.309,-4.883,0
1542733689.498,38.574,33.203,26.367,67.871,27.832,0
1542733689.502,43.457,30.762,27.832,62.988,56.152,0
1542733689.506,40.039,32.715,31.250,61.035,41.504,0
1542733689.510,27.832,34.668,31.738,44.922,50.293,0
1542733689.514,36.133,31.250,33.691,48.828,44.434,0
1542733689.518,31.738,35.645,32.715,51.758,36.621,0
1542733689.522,36.621,38.086,30.273,74.707,55.664,0
1542733689.526,48.828,38.574,29.785,80.566,75.684,0
1542733689.530,64.453,40.039,23.438,60.547,62.012,0
1542733689.533,99.121,37.109,22.949,104.980,68.359,0
1542733689.537,67.871,31.738,46.387,113.770,70.801,0
1542733689.541,5.859,28.320,56.641,42.969,40.039,0
1542733689.545,-14.648,31.738,45.410,16.113,57.129,0
1542733689.549,12.695,32.715,43.945,58.594,117.188,0
1542733689.553,43.945,30.273,47.852,60.059,101.074,0
1542733689.557,24.902,35.645,44.434,50.293,71.289,0
1542733689.561,8.789,42.969,41.016,70.801,62.988,0
1542733689.565,13.184,37.598,37.109,40.527,59.082,0
1542733689.569,17.578,31.250,39.551,27.344,94.727,0
1542733689.573,15.137,31.250,40.039,48.828,119.629,0
1542733689.576,28.809,34.668,35.645,58.594,123.047,0
1542733689.580,41.504,40.039,37.598,69.336,131.348,0
1542733689.584,46.875,38.086,41.016,70.801,138.184,0
1542733689.588,52.246,34.668,36.621,67.383,130.859,0
1542733689.592,50.781,36.621,32.227,87.891,133.789,0
1542733689.596,35.645,39.062,38.574,82.520,143.066,0
1542733689.600,2.930,39.062,37.598,46.875,146.484,0
1542733689.604,19.043,34.668,36.133,59.082,139.160,0
1542733689.608,33.203,33.203,37.109,68.359,116.211,0
1542733689.612,38.574,33.203,31.250,49.316,101.562,0
1542733689.616,52.734,32.715,30.273,43.945,119.629,0
1542733689.619,41.016,35.645,35.645,56.152,111.328,0
1542733689.623,40.039,37.109,33.203,69.336,106.445,0
1542733689.627,59.082,36.621,29.785,93.262,108.887,0
1542733689.631,64.453,41.504,31.738,71.289,113.281,0
1542733689.635,40.527,41.504,33.203,52.246,118.652,0
1542733689.639,16.602,40.527,29.297,63.477,122.070,0
1542733689.643,32.227,45.410,22.949,67.871,116.699,0
1542733689.647,47.363,41.504,27.344,87.402,90.332,0
1542733689.651,29.785,35.156,37.109,66.895,104.492,0
1542733689.655,20.020,37.109,37.109,55.664,131.348,0
1542733689.658,29.297,39.062,27.344,66.406,103.516,0
1542733689.662,30.273,35.645,24.414,61.035,108.887,0
1542733689.666,39.062,37.598,26.367,65.430,127.441,0
1542733689.670,67.383,40.527,27.344,81.543,126.953,0
1542733689.674,63.965,36.621,30.273,67.871,104.004,0
1542733689.678,31.738,32.715,29.785,54.199,84.961,0
1542733689.682,21.973,31.738,31.250,42.969,119.141,0
1542733689.686,11.719,31.250,33.691,59.082,119.141,0
1542733689.690,8.789,30.762,31.250,68.359,100.098,0
1542733689.694,15.137,34.668,25.879,58.594,106.445,0
1542733689.698,21.973,35.156,24.902,64.941,105.957,0
1542733689.701,23.926,28.809,29.785,50.781,98.633,0
1542733689.705,33.203,33.203,30.762,48.340,91.797,0
1542733689.709,57.129,40.527,29.297,89.844,107.910,0
1542733689.713,67.871,41.016,29.297,89.355,116.699,0
1542733689.717,57.617,38.574,29.785,58.594,98.633,0
1542733689.721,46.875,40.039,33.691,45.898,82.520,0
1542733689.725,19.531,40.039,32.227,45.410,57.129,0
1542733689.729,-2.441,34.180,26.855,57.129,75.195,0
1542733689.733,14.648,33.203,29.785,61.035,87.891,0
1542733689.737,18.555,31.738,31.738,57.129,82.031,0
1542733689.741,20.996,29.785,30.762,83.008,80.566,0
1542733689.744,37.109,30.273,27.344,84.961,83.984,0
1542733689.748,26.367,28.320,25.391,22.461,83.984,0
1542733689.752,31.738,33.691,30.273,14.160,67.383,0
1542733689.756,24.414,37.109,30.762,59.570,67.871,0
1542733689.760,28.320,33.691,22.461,59.082,74.707,0
1542733689.764,28.809,34.180,27.344,41.016,80.078,0
1542733689.768,20.020,35.645,32.715,51.758,60.547,0
1542733689.772,51.270,35.645,19.531,54.688,68.848,0
1542733689.776,102.539,32.227,23.926,112.305,92.285,0
1542733689.780,85.449,28.809,38.086,112.305,86.914,0
1542733689.783,-1.953,25.879,40.527,37.109,91.797,0
1542733689.787,-10.254,18.555,45.898,27.832,110.840,0
1542733689.791,17.090,16.113,51.270,54.199,88.867,0
1542733689.795,37.598,17.578,54.688,61.523,69.336,0
1542733689.799,60.547,13.184,55.176,56.152,79.590,0
1542733689.803,32.715,15.137,56.152,67.383,81.055,0
1542733689.807,14.160,16.113,62.500,84.473,81.543,0
1542733689.811,0.000,7.812,66.895,64.941,84.961,0
1542733689.815,-15.137,4.395,73.242,50.781,86.914,0
1542733689.819,-16.602,-0.488,77.148,51.758,89.844,0
1542733689.823,0.000,-4.883,77.637,54.199,65.430,0
1542733689.826,22.461,-2.930,75.684,66.406,58.594,0
1542733689.830,22.949,-0.488,74.707,104.492,89.844,0
1542733689.834,47.363,5.371,69.336,104.492,108.887,0
1542733689.838,41.992,11.230,68.848,74.219,106.445,0
1542733689.842,15.137,16.113,70.312,83.008,117.676,0
1542733689.846,26.855,19.043,66.895,68.359,107.910,0
1542733689.850,40.039,14.160,64.453,79.102,61.035,0
1542733689.854,50.781,12.207,62.988,95.703,41.504,0
1542733689.858,49.805,19.043,63.477,86.426,25.391,0
1542733689.862,30.273,17.578,61.523,90.820,47.363,0
1542733689.866,42.969,13.184,61.035,86.426,71.289,0
1542733689.869,69.824,13.672,63.965,77.637,52.246,0
1542733689.873,68.359,16.113,59.082,86.914,8.301,0
1542733689.877,52.246,19.531,50.293,73.730,-6.836,0
1542733689.881,43.457,26.367,42.480,80.078,16.602,0
1542733689.885,19.043,25.391,43.457,73.242,25.879,0
1542733689.889,6.836,20.508,44.922,64.941,5.371,0
1542733689.893,33.691,23.438,38.574,55.664,4.883,0
1542733689.897,47.852,23.926,41.992,64.941,9.766,0
1542733689.901,46.387,20.020,50.293,73.242,4.395,0
1542733689.905,33.203,19.043,47.363,86.914,8.301,0
1542733689.908,51.758,22.461,47.363,80.078,47.852,0
1542733689.912,58.105,22.461,45.898,84.473,55.664,0
1542733689.916,38.574,28.809,39.551,85.449,20.508,0
1542733689.920,29.785,35.156,20.508,57.617,31.250,0
1542733689.924,33.691,33.691,20.508,80.566,69.336,0
1542733689.928,51.758,29.297,42.480,66.895,68.848,0
1542733689.932,63.477,27.344,47.363,35.156,78.125,0
1542733689.936,61.035,27.832,46.875,43.457,111.816,0
1542733689.940,40.527,24.414,46.875,72.754,115.234,0
1542733689.944,21.484,28.320,40.527,77.148,106.934,0
1542733689.948,30.273,31.250,37.109,75.195,92.773,0
1542733689.951,55.664,28.320,40.039,92.773,119.629,0
1542733689.955,69.336,28.320,36.133,72.754,121.094,0
1542733689.959,72.754,30.762,36.133,52.246,72.266,0
1542733689.963,57.617,32.227,40.039,59.082,56.152,0
1542733689.967,18.555,31.738,34.668,64.453,90.332,0
1542733689.971,22.461,30.762,33.691,45.898,107.910,0
1542733689.975,37.109,27.832,33.203,49.316,96.680,0
1542733689.979,29.297,28.809,31.250,70.312,88.379,0
1542733689.983,22.949,28.320,31.250,61.523,94.238,0
1542733689.987,29.785,25.879,28.809,52.734,83.496,0
1542733689.991,54.688,29.785,29.785,56.641,70.312,0
1542733689.994,77.637,31.738,27.344,66.895,53.711,0
1542733689.998,77.637,27.832,20.996,58.105,41.992,0
1542733690.002,65.430,24.414,19.043,72.754,40.527,0
1542733690.006,46.875,24.902,21.973,81.543,28.809,0
1542733690.010,-0.977,31.250,31.738,53.711,38.574,0
1542733690.014,4.883,31.738,37.598,41.992,43.945,0
1542733690.018,37.109,28.320,41.992,36.133,40.039,0
1542733690.022,26.367,24.414,46.387,44.434,32.227,0
1542733690.026,53.223,20.508,47.363,73.242,17.578,0
1542733690.030,46.875,20.508,51.270,72.754,66.406,0
1542733690.033,50.781,22.949,53.223,93.750,67.871,0
1542733690.037,59.082,23.438,48.340,108.398,17.578,0
1542733690.041,62.988,28.809,44.922,62.988,9.766,0
1542733690.045,71.289,31.250,44.922,57.617,38.574,0
1542733690.049,58.105,27.832,42.969,58.105,27.344,0
1542733690.053,66.406,26.855,41.992,66.406,8.789,0
1542733690.057,70.312,27.344,36.133,83.496,28.320,0
1542733690.061,61.035,31.250,36.133,59.570,30.762,0
1542733690.065,84.473,35.645,35.156,74.707,7.324,0
1542733690.069,101.074,36.621,29.297,93.262,7.324,0
1542733690.073,70.312,35.156,33.203,67.383,20.020,0
1542733690.076,47.852,37.598,34.668,50.781,-0.977,0
1542733690.080,53.711,37.109,35.156,81.055,16.113,0
1542733690.084,62.988,30.762,36.621,90.820,28.320,0
1542733690.088,93.750,33.691,31.250,70.312,-29.785,0
1542733690.092,68.359,34.668,30.762,71.289,-24.414,0
1542733690.096,12.695,31.738,36.133,42.480,-24.414,0
1542733690.100,34.668,31.738,37.109,37.598,-30.762,0
1542733690.104,56.152,31.250,36.621,77.637,-2.441,0
1542733690.108,55.664,29.785,34.668,94.727,0.000,0
1542733690.112,76.172,32.715,20.996,76.660,-15.137,0
1542733690.116,64.453,31.738,23.438,91.309,-29.297,0
1542733690.119,26.855,28.320,40.039,93.262,-5.859,0
1542733690.123,30.273,32.227,41.504,52.246,1.953,0
1542733690.127,40.039,35.156,35.645,43.457,-28.320,0
1542733690.131,65.918,35.645,26.855,67.871,-38.574,0
1542733690.135,87.402,34.180,25.879,70.801,-40.039,0
1542733690.139,68.848,33.203,34.668,58.105,-49.805,0
1542733690.143,52.734,28.320,37.109,51.270,-52.246,0
1542733690.147,50.293,31.738,33.691,54.688,-62.988,0
1542733690.151,55.176,35.645,30.273,65.430,-56.152,0
1542733690.155,72.266,35.645,25.879,63.965,-61.523,0
1542733690.158,73.242,36.133,28.809,72.266,-76.172,0
1542733690.162,61.523,34.180,29.785,47.363,-74.219,0
1542733690.166,71.777,30.762,29.785,51.270,-81.543,0
1542733690.170,71.777,30.762,25.391,74.219,-75.195,0
1542733690.174,47.363,32.715,29.297,45.898,-99.609,0
1542733690.178,44.922,35.156,35.645,25.879,-97.168,0
1542733690.182,55.176,37.109,26.855,50.781,-98.633,0
1542733690.186,52.734,34.668,24.414,95.215,-122.070,0
1542733690.190,66.406,35.645,19.043,70.312,-116.211,0
1542733690.194,65.918,37.598,23.438,41.992,-91.309,0
1542733690.198,50.781,37.598,32.715,56.641,-64.941,0
1542733690.201,59.082,36.621,31.250,58.105,-73.242,0
1542733690.205,67.871,33.203,29.297,42.969,-100.098,0
1542733690.209,51.270,32.715,20.996,48.340,-87.402,0
1542733690.213,58.594,38.086,1.465,36.621,-65.430,0
1542733690.217,53.223,37.109,9.766,49.316,-51.270,0
1542733690.221,25.391,32.715,24.902,74.707,-37.109,0
1542733690.225,38.086,35.645,24.414,58.594,-19.531,0
1542733690.229,28.809,35.156,30.273,40.527,-28.320,0
1542733690.233,31.738,36.133,40.527,34.180,-38.574,0
1542733690.237,58.594,35.645,39.551,25.391,-19.531,0
1542733690.241,83.984,29.785,37.109,31.250,-13.672,0
1542733690.244,87.402,32.227,24.902,56.152,2.441,0
1542733690.248,53.223,30.273,21.484,41.016,22.949,0
1542733690.252,20.996,31.250,26.855,74.219,30.273,0
1542733690.256,18.066,38.086,19.531,84.961,35.156,0
1542733690.260,12.207,35.645,26.855,44.922,52.246,0
1542733690.264,21.484,31.738,30.273,24.902,24.414,0
1542733690.268,47.363,30.273,26.855,26.367,4.395,0
1542733690.272,71.289,23.438,34.668,58.105,12.695,0
1542733690.276,84.961,24.902,38.574,53.711,13.184,0
1542733690.280,55.176,24.902,32.715,33.691,17.090,0
1542733690.283,31.250,20.996,23.438,60.059,6.348,0
1542733690.287,20.508,22.949,26.367,50.781,-17.090,0
1542733690.291,37.109,23.926,35.645,15.137,-20.996,0
1542733690.295,34.180,28.809,30.762,34.180,-32.227,0
1542733690.299,24.414,29.297,28.320,67.871,-35.645,0
1542733690.303,42.480,26.367,36.621,43.945,-57.129,0
1542733690.307,36.133,28.320,29.297,15.625,-79.590,0
1542733690.311,21.973,27.832,22.949,47.852,-75.195,0
1542733690.315,42.480,22.949,29.297,66.895,-89.844,0
1542733690.319,55.176,25.391,24.414,52.246,-107.910,0
1542733690.323,46.387,29.297,23.438,43.457,-114.258,0
1542733690.326,54.199,29.785,31.738,35.156,-109.863,0
1542733690.330,48.828,30.273,30.762,44.922,-116.211,0
1542733690.334,43.457,30.273,30.273,61.035,-160.645,0
1542733690.338,51.270,39.551,34.180,49.316,-189.941,0
1542733690.342,32.715,41.992,30.273,41.504,-165.527,0
1542733690.346,20.996,35.156,31.738,43.945,-194.824,0
1542733690.350,36.621,34.180,39.551,27.344,-233.398,0
1542733690.354,42.480,33.203,37.109,58.594,-225.586,0
1542733690.358,41.016,30.762,30.273,68.848,-244.141,0
1542733690.362,59.082,32.715,32.227,57.617,-268.555,0
1542733690.366,65.430,35.645,32.715,62.500,-287.598,0
1542733690.369,53.223,36.621,22.461,46.875,-297.852,0
1542733690.373,47.852,32.715,29.297,42.480,-301.758,0
1542733690.377,57.617,28.809,45.410,55.176,-301.758,0
1542733690.381,46.875,28.809,40.527,29.297,-327.148,0
1542733690.385,28.320,33.203,31.738,43.945,-361.816,0
1542733690.389,26.855,30.273,36.133,55.664,-355.469,0
1542733690.393,33.203,13.672,41.016,68.848,-342.773,0
1542733690.397,72.754,22.949,37.598,133.301,-329.590,0
1542733690.401,97.168,47.363,25.879,111.816,-355.469,0
1542733690.405,45.410,38.086,21.484,22.461,-375.488,0
1542733690.408,0.977,28.320,21.973,-6.348,-364.746,0
1542733690.412,21.973,39.062,14.648,17.090,-381.348,0
1542733690.416,43.457,41.504,10.742,22.461,-382.324,0
1542733690.420,31.250,39.062,12.695,18.066,-353.027,0
1542733690.424,17.578,40.039,12.207,19.531,-357.422,0
1542733690.428,9.766,40.527,9.766,14.648,-389.648,0
1542733690.432,10.742,39.551,9.766,11.230,-369.141,0
1542733690.436,24.902,41.504,9.766,29.785,-344.727,0
1542733690.440,55.176,43.945,8.301,45.410,-327.637,0
1542733690.444,74.707,41.504,13.672,74.219,-312.012,0
1542733690.448,62.988,39.551,15.625,65.430,-260.254,0
1542733690.451,56.641,35.156,12.695,22.949,-228.516,0
1542733690.455,60.547,32.227,14.160,43.457,-236.328,0
1542733690.459,59.570,34.668,16.602,58.105,-208.496,0
1542733690.463,57.129,38.086,18.555,62.012,-187.012,0
1542733690.467,50.293,40.527,16.113,35.156,-195.312,0
1542733690.471,86.426,37.109,20.020,21.484,-183.105,0
1542733690.475,102.051,36.621,19.043,26.367,-172.363,0
1542733690.479,57.617,37.598,13.184,41.016,-162.109,0
1542733690.483,49.316,35.645,20.020,69.336,-152.344,0
1542733690.487,52.246,35.645,25.879,53.711,-176.270,0
1542733690.491,65.918,36.621,26.855,43.457,-196.777,0
1542733690.494,87.891,36.133,21.973,51.270,-203.125,0
1542733690.498,67.383,32.227,28.809,52.734,-240.234,0
1542733690.502,55.176,32.227,32.715,48.340,-248.047,0
1542733690.506,61.523,34.668,25.879,48.828,-255.859,0
1542733690.510,57.617,33.203,24.414,60.547,-291.992,0
1542733690.514,51.758,25.879,23.926,38.574,-286.133,0
1542733690.518,48.340,26.855,20.020,28.320,-327.637,0
1542733690.522,73.242,33.691,20.020,42.480,-351.562,0
1542733690.526,79.590,32.227,21.484,37.598,-315.918,0
1542733690.530,50.781,28.320,17.090,36.621,-311.523,0
1542733690.533,38.574,31.250,18.555,34.668,-318.359,0
1542733690.537,62.012,31.250,18.066,37.598,-346.680,0
1542733690.541,71.777,27.832,16.602,28.809,-372.559,0
1542733690.545,78.613,25.391,20.508,30.273,-380.859,0
1542733690.549,87.891,24.902,16.602,49.316,-388.184,0
1542733690.553,46.387,25.879,18.555,50.293,-373.047,0
1542733690.557,52.246,23.926,28.809,47.852,-397.461,0
1542733690.561,55.176,21.484,31.250,40.527,-459.473,0
1542733690.565,31.250,20.020,32.715,43.945,-484.863,0
1542733690.569,30.273,20.020,28.320,40.039,-473.633,0
1542733690.573,50.293,22.949,21.484,19.531,-454.102,0
1542733690.576,56.641,20.020,23.926,16.602,-454.590,0
1542733690.580,60.547,11.719,29.297,20.996,-439.941,0
1542733690.584,75.684,7.324,33.203,58.105,-426.758,0
1542733690.588,50.781,4.883,32.227,58.594,-457.031,0
1542733690.592,33.691,1.465,23.926,28.320,-442.383,0
1542733690.596,25.879,-4.395,18.066,39.551,-413.086,0
1542733690.600,57.617,-10.742,15.137,38.574,-396.484,0
1542733690.604,77.148,-11.230,27.344,40.527,-344.238,0
1542733690.608,7.812,-9.766,41.504,40.039,-326.172,0
1542733690.612,-12.207,-6.836,42.480,26.855,-254.883,0
1542733690.616,3.418,-15.137,36.621,12.695,-205.078,0
1542733690.619,29.785,-16.113,40.039,11.719,-221.680,0
1542733690.623,40.527,-7.324,42.480,11.230,-242.676,0
1542733690.627,20.508,-7.324,28.320,3.418,-257.324,0
1542733690.631,18.066,-17.578,28.320,26.855,-259.766,0
1542733690.635,42.480,-19.531,46.875,46.387,-178.223,0
1542733690.639,60.059,5.371,50.781,55.176,-214.355,0
1542733690.643,20.996,30.273,28.320,19.531,-256.348,0
1542733690.647,-64.941,26.367,23.438,-54.688,-179.688,0
1542733690.651,-107.910,25.391,18.066,-121.094,-171.387,0
1542733690.655,-69.336,40.039,7.324,-118.164,-120.605,0
1542733690.658,-88.379,41.504,0.488,-121.094,-60.547,0
1542733690.662,-142.090,43.945,-10.742,-142.090,-117.188,0
1542733690.666,-150.879,58.105,-19.043,-157.715,-159.668,0
1542733690.670,-149.414,57.129,-25.391,-191.895,-98.633,0
1542733690.674,-130.371,62.500,-27.344,-172.363,-122.559,0
1542733690.678,-171.387,63.477,-34.180,-196.777,-134.766,0
1542733690.682,-151.855,57.129,-40.527,-187.500,-115.723,0
1542733690.686,-92.773,65.430,-41.016,-136.719,-87.891,0
1542733690.690,-100.586,59.570,-39.062,-134.277,-55.664,0
1542733690.694,-106.934,57.129,-39.551,-125.977,-51.270,0
1542733690.698,-115.723,52.246,-44.922,-106.934,-48.828,0
1542733690.701,-51.758,47.852,-41.504,-94.727,-95.215,0
1542733690.705,-24.902,55.176,-36.133,-89.844,-84.961,0
1542733690.709,-17.090,50.293,-28.809,-54.199,-88.379,0
1542733690.713,5.371,43.945,-19.531,-12.207,-91.309,0
1542733690.717,9.766,39.062,-17.578,-19.531,-28.809,0
1542733690.721,20.996,32.227,-17.090,-13.672,-14.160,0
1542733690.725,0.000,28.320,-18.555,6.836,-34.668,0
1542733690.729,4.395,21.973,-17.090,38.574,-26.855,0
1542733690.733,38.086,22.949,-7.324,46.387,-25.391,0
1542733690.737,42.969,26.367,-4.395,11.719,-41.016,0
1542733690.741,37.598,24.414,-4.883,42.969,-40.039,0
1542733690.744,42.480,22.949,1.465,45.898,-18.066,0
1542733690.748,50.293,23.926,2.441,55.664,-4.883,0
1542733690.752,85.449,26.855,-4.395,51.270,-1.465,0
1542733690.756,103.027,24.414,-2.441,59.082,32.227,0
1542733690.760,90.332,22.949,5.859,110.352,-33.203,0
1542733690.764,66.895,26.367,9.277,86.914,-68.848,0
1542733690.768,60.547,25.391,8.789,71.777,10.742,0
1542733690.772,60.059,21.973,9.766,67.871,41.992,0
1542733690.776,54.199,21.973,11.230,72.266,0.000,0
1542733690.780,75.684,23.926,6.836,87.402,-33.203,0
1542733690.783,79.590,25.879,7.812,88.867,-25.879,0
1542733690.787,95.215,28.320,13.672,101.562,-8.301,0
1542733690.791,105.469,32.227,10.254,99.121,-14.648,0
1542733690.795,69.824,29.785,12.695,98.633,-20.508,0
1542733690.799,58.594,23.926,14.160,83.008,-13.184,0
1542733690.803,52.246,29.297,12.207,80.566,10.742,0
1542733690.807,49.805,28.809,15.625,79.102,15.625,0
1542733690.811,66.895,23.438,15.137,51.758,30.273,0
1542733690.815,85.449,26.367,15.625,54.199,56.641,0
1542733690.819,88.867,26.367,13.184,71.777,2.930,0
1542733690.823,67.383,23.438,15.137,77.148,-8.301,0
1542733690.826,43.457,23.438,25.879,67.871,-3.418,0
1542733690.830,52.734,28.809,22.949,84.473,23.926,0
1542733690.834,53.223,33.691,20.020,82.520,21.973,0
1542733690.838,51.270,32.227,22.949,60.059,-2.441,0
1542733690.842,56.152,35.645,19.531,78.613,20.020,0
1542733690.846,80.566,37.598,20.508,89.844,47.852,0
1542733690.850,71.289,33.203,25.879,77.148,86.426,0
1542733690.854,52.246,28.809,25.391,74.219,62.500,0
1542733690.858,39.551,27.832,21.484,95.703,19.531,0
1542733690.862,42.480,31.738,25.391,62.988,17.090,0
1542733690.866,61.523,33.203,27.344,48.828,13.672,0
1542733690.869,74.219,28.809,26.855,86.914,28.809,0
1542733690.873,61.523,27.832,24.414,65.918,63.477,0
1542733690.877,67.871,30.273,18.066,74.707,80.078,0
1542733690.881,89.844,35.156,26.855,128.906,49.805,0
1542733690.885,52.246,36.133,42.969,94.238,-11.230,0
1542733690.889,19.531,29.297,40.039,62.500,6.836,0
1542733690.893,46.387,35.156,39.062,96.191,18.555,0
1542733690.897,39.551,38.086,38.086,63.965,-18.066,0
1542733690.901,41.504,30.273,36.133,48.828,9.766,0
1542733690.905,68.359,35.645,36.133,74.707,-0.488,0
1542733690.908,59.082,40.039,31.250,73.242,-7.812,0
1542733690.912,68.359,40.039,33.203,102.051,66.406,0
1542733690.916,60.059,40.039,33.691,88.867,83.984,0
1542733690.920,31.250,37.109,32.227,54.688,52.246,0
1542733690.924,18.066,38.574,33.203,85.938,55.176,0
1542733690.928,40.039,39.062,32.715,81.543,22.461,0
1542733690.932,68.848,37.109,29.785,66.406,4.883,0
1542733690.936,71.289,35.645,28.809,73.730,5.371,0
1542733690.940,54.199,37.598,29.785,71.777,1.465,0
1542733690.944,40.039,36.133,31.738,70.312,10.254,0
1542733690.948,43.457,33.203,27.344,80.566,-9.766,0
1542733690.951,44.922,35.645,18.555,74.219,25.879,0
1542733690.955,52.734,38.086,23.438,75.684,75.195,0
1542733690.959,59.570,39.062,31.738,88.379,41.504,0
1542733690.963,55.176,37.598,33.691,90.332,-16.113,0
1542733690.967,49.805,36.621,37.598,66.895,22.461,0
1542733690.971,65.430,38.574,37.109,51.270,52.246,0
1542733690.975,108.887,41.504,28.809,77.637,16.113,0
1542733690.979,70.801,39.062,29.297,88.867,0.000,0
1542733690.983,6.836,38.086,35.156,86.914,16.602,0
1542733690.987,5.859,34.180,33.691,60.059,81.543,0
1542733690.991,14.648,30.762,31.738,29.785,72.266,0
1542733690.994,34.180,35.645,29.785,26.855,17.578,0
1542733690.998,41.992,39.062,28.809,43.945,29.785,0
1542733691.002,43.945,34.668,28.320,62.012,1.465,0
1542733691.006,44.922,34.668,28.809,62.500,24.902,0
1542733691.010,35.156,34.180,26.855,68.359,93.750,0
1542733691.014,53.711,35.645,19.531,62.988,63.477,0
1542733691.018,52.246,37.109,22.461,79.102,20.996,0
1542733691.022,34.180,33.203,25.879,69.336,40.039,0
1542733691.026,19.043,35.156,21.973,31.738,76.172,0
1542733691.030,-2.930,32.715,23.926,32.715,43.457,0
1542733691.033,-3.906,31.738,26.855,42.969,35.156,0
1542733691.037,19.043,30.273,21.484,37.598,23.926,0
1542733691.041,39.062,29.785,18.555,22.949,42.480,0
1542733691.045,22.461,32.227,20.508,38.086,76.172,0
1542733691.049,15.137,31.738,14.648,48.340,12.207,0
1542733691.053,22.461,34.180,13.184,51.270,-18.066,0
1542733691.057,19.531,37.109,23.438,40.527,-3.906,0
1542733691.061,20.020,34.668,23.926,41.016,-26.367,0
1542733691.065,22.949,39.062,22.461,41.504,-73.730,0
1542733691.069,19.043,39.551,23.438,22.461,-50.781,0
1542733691.073,63.965,30.762,19.531,20.020,-3.418,0
1542733691.076,31.250,26.367,19.043,73.242,54.199,0
1542733691.080,-34.180,29.785,21.973,88.867,29.297,0
1542733691.084,-7.812,36.133,25.879,36.133,-21.484,0
1542733691.088,12.207,35.156,29.297,18.066,50.293,0
1542733691.092,29.785,33.203,30.762,28.320,24.414,0
1542733691.096,31.738,36.133,31.250,63.965,-40.527,0
1542733691.100,35.645,37.598,31.250,81.055,10.742,0
1542733691.104,50.293,36.133,30.273,51.758,37.109,0
1542733691.108,59.570,36.621,19.531,25.879,57.129,0
1542733691.112,108.398,41.992,18.555,63.965,74.219,0
1542733691.116,102.051,41.016,33.203,84.961,31.250,0
1542733691.119,12.695,32.227,38.574,76.172,20.996,0
1542733691.123,-3.906,29.297,40.527,44.922,62.500,0
1542733691.127,10.742,32.715,31.738,36.133,47.852,0
1542733691.131,24.902,30.762,31.738,58.105,0.977,0
1542733691.135,26.855,27.832,38.086,51.758,6.836,0
1542733691.139,32.715,31.250,33.691,60.547,9.766,0
1542733691.143,58.594,30.273,35.156,90.332,-10.742,0
1542733691.147,72.266,29.297,39.551,99.609,20.996,0
1542733691.151,48.828,28.320,49.805,71.289,48.340,0
1542733691.155,32.715,29.785,56.152,61.523,66.406,0
1542733691.158,53.711,23.438,56.641,76.172,57.129,0
1542733691.162,63.477,20.508,57.617,60.547,41.504,0
1542733691.166,56.152,22.461,65.430,74.219,41.992,0
1542733691.170,46.387,13.672,72.266,85.449,60.547,0
1542733691.174,42.480,6.348,75.684,87.402,40.527,0
1542733691.178,12.207,9.277,82.031,91.309,21.484,0
1542733691.182,8.789,11.230,83.008,80.078,59.082,0
1542733691.186,15.625,7.812,79.102,94.238,51.270,0
1542733691.190,50.781,4.883,83.008,114.746,57.129,0
1542733691.194,62.012,8.301,88.379,116.211,44.434,0
1542733691.198,50.293,14.160,78.613,114.258,-9.277,0
1542733691.201,56.641,17.578,70.312,104.492,36.133,0
1542733691.205,62.500,20.508,67.871,86.426,90.332,0
1542733691.209,69.336,22.461,69.824,104.980,46.387,0
1542733691.213,59.570,23.926,68.848,122.559,40.527,0
1542733691.217,45.898,25.879,62.500,97.656,38.574,0
1542733691.221,51.270,22.461,62.500,74.219,27.344,0
1542733691.225,63.965,25.879,65.430,81.055,13.184,0
1542733691.229,52.734,32.715,57.129,86.914,42.969,0
1542733691.233,51.270,29.785,52.246,70.312,25.391,0
1542733691.237,62.012,27.344,57.129,79.590,-38.086,0
1542733691.241,62.012,27.832,58.105,96.680,0.977,0
1542733691.244,79.590,25.879,53.711,82.520,35.156,0
1542733691.248,83.984,36.133,48.340,46.875,47.363,0
1542733691.252,31.250,38.086,49.805,60.547,52.734,0
1542733691.256,6.836,31.738,46.875,114.258,52.734,0
1542733691.260,17.578,34.180,42.480,104.004,40.039,0
1542733691.264,28.320,33.691,46.387,68.359,17.090,0
1542733691.268,32.227,34.180,45.898,63.477,24.414,0
1542733691.272,63.965,38.574,44.434,76.660,44.922,0
1542733691.276,63.965,35.645,39.062,63.965,26.855,0
1542733691.280,48.828,36.621,36.133,57.129,55.664,0
1542733691.283,41.504,36.621,42.480,86.914,82.031,0
1542733691.287,24.414,35.156,29.785,95.215,114.258,0
1542733691.291,42.480,41.992,12.695,57.129,163.574,0
1542733691.295,53.711,41.016,30.273,49.805,205.078,0
1542733691.299,35.156,35.645,48.828,59.570,306.641,0
1542733691.303,11.719,35.645,47.363,47.852,366.211,0
1542733691.307,20.020,34.180,44.922,65.918,388.184,0
1542733691.311,37.109,34.180,47.852,77.637,397.949,0
1542733691.315,28.320,38.086,44.922,57.617,415.039,0
1542733691.319,44.922,39.551,39.551,62.012,475.098,0
1542733691.323,66.406,37.598,38.086,86.914,495.605,0
1542733691.326,43.945,38.574,38.574,74.707,515.137,0
1542733691.330,22.461,40.527,36.621,61.523,548.340,0
1542733691.334,15.137,40.039,31.250,62.500,553.223,0
1542733691.338,23.926,40.527,31.250,62.988,563.965,0
1542733691.342,26.367,40.039,31.738,57.617,606.934,0
1542733691.346,5.859,40.039,27.832,77.637,674.805,0
1542733691.350,10.742,37.598,21.973,74.219,740.234,0
1542733691.354,22.949,38.574,5.859,45.410,763.184,0
1542733691.358,23.926,37.598,20.996,75.684,810.547,0
1542733691.362,24.902,39.062,47.363,77.637,927.734,0
1542733691.366,61.523,40.527,46.387,78.613,996.094,0
1542733691.369,79.590,43.457,35.156,90.332,998.047,0
1542733691.373,38.574,42.969,37.109,71.289,998.047,0
1542733691.377,15.137,39.062,35.156,61.035,-1000.000,0
1542733691.381,61.035,46.387,16.602,91.797,999.512,0
1542733691.385,103.027,41.504,20.020,99.121,999.512,0
1542733691.389,66.406,33.203,43.457,83.496,999.512,0
1542733691.393,19.531,33.203,52.246,53.223,999.512,0
1542733691.397,-2.930,26.367,51.758,48.340,999.512,0
1542733691.401,7.324,25.391,53.711,76.172,999.512,0
1542733691.405,-2.930,25.391,62.012,75.195,999.512,0
1542733691.408,17.090,19.531,65.430,76.172,999.512,0
1542733691.412,36.621,14.160,71.289,64.941,999.512,0
1542733691.416,22.461,9.766,79.590,53.223,999.512,0
1542733691.420,-1.465,8.789,77.148,60.059,999.512,0
1542733691.424,-19.043,9.277,78.613,69.824,999.512,0
1542733691.428,5.371,5.859,76.660,78.125,999.512,0
1542733691.432,41.504,3.906,73.730,113.281,999.512,0
1542733691.436,47.363,11.230,72.754,134.277,999.512,0
1542733691.440,32.715,14.160,69.336,90.820,999.512,0
1542733691.444,20.020,12.695,62.500,88.379,999.512,0
1542733691.448,13.672,14.648,51.270,92.773,999.512,0
1542733691.451,57.129,21.484,51.270,74.219,999.512,0
1542733691.455,53.711,26.855,57.617,91.797,999.512,0
1542733691.459,2.930,22.949,57.129,65.918,999.512,0
1542733691.463,7.812,20.996,46.875,37.598,999.512,0
1542733691.467,21.484,18.555,45.410,54.199,999.512,0
1542733691.471,30.273,20.020,50.293,53.223,999.512,0
1542733691.475,45.410,21.484,40.039,54.199,999.512,0
1542733691.479,39.062,20.508,36.621,61.035,999.512,0
1542733691.483,26.367,21.484,29.785,61.035,999.512,0
1542733691.487,27.344,23.438,21.973,67.871,999.512,0
1542733691.491,31.738,24.902,26.855,60.547,999.512,0
1542733691.494,18.555,22.461,29.785,51.758,999.512,0
1542733691.498,25.879,20.508,36.621,59.082,999.512,0
1542733691.502,49.805,22.461,42.480,76.172,999.512,0
1542733691.506,41.504,24.902,41.504,58.594,999.512,0
1542733691.510,38.086,26.367,40.039,68.848,999.512,0
1542733691.514,41.504,26.855,37.109,82.520,999.512,0
1542733691.518,41.992,26.855,30.762,54.688,997.070,0
1542733691.522,51.270,30.762,28.320,43.457,-998.535,0
1542733691.526,50.293,34.668,23.438,39.062,985.840,0
1542733691.530,54.199,36.621,19.531,33.691,922.363,0
1542733691.533,55.664,37.598,28.320,38.086,850.586,0
1542733691.537,55.176,38.086,20.508,41.016,785.156,0
1542733691.541,66.406,35.645,17.578,42.480,707.520,0
1542733691.545,45.410,35.645,24.414,52.246,651.855,0
1542733691.549,25.879,36.133,26.367,66.406,595.215,0
1542733691.553,35.156,40.039,22.949,64.453,523.438,0
1542733691.557,51.758,41.016,17.578,48.828,507.812,0
1542733691.561,53.223,38.574,20.996,26.855,475.098,0
1542733691.565,49.805,37.109,24.414,12.207,437.012,0
1542733691.569,62.012,37.109,24.414,22.949,383.789,0
1542733691.573,66.406,43.457,25.879,49.316,319.824,0
1542733691.576,65.918,44.922,21.484,55.176,263.672,0
1542733691.580,53.223,43.457,14.648,19.043,207.520,0
1542733691.584,61.035,41.992,11.719,13.672,164.551,0
1542733691.588,79.102,44.434,14.648,49.805,155.273,0
1542733691.592,70.801,45.898,20.020,83.984,147.461,0
1542733691.596,66.895,49.316,21.484,60.059,75.684,0
1542733691.600,72.754,46.875,28.320,8.301,26.855,0
1542733691.604,74.219,45.898,27.832,24.902,7.812,0
1542733691.608,89.355,45.410,28.320,51.758,-21.484,0
1542733691.612,81.055,45.898,26.367,44.434,-76.172,0
1542733691.616,53.711,49.805,21.484,43.457,-121.094,0
1542733691.619,68.848,42.480,26.855,23.926,-157.715,0
1542733691.623,76.172,35.645,30.273,26.855,-203.125,0
1542733691.627,98.145,39.062,22.949,63.965,-249.023,0
1542733691.631,124.023,39.551,10.742,44.922,-310.547,0
1542733691.635,96.680,29.297,16.602,66.895,-331.055,0
1542733691.639,111.816,32.715,40.039,95.215,-375.977,0
1542733691.643,114.746,55.664,37.109,56.641,-422.852,0
1542733691.647,49.316,52.246,24.902,3.906,-455.078,0
1542733691.651,31.250,44.434,17.578,-12.207,-504.395,0
1542733691.655,82.031,49.805,15.137,34.668,-560.547,0
1542733691.658,85.449,42.969,23.438,56.641,-604.980,0
1542733691.662,78.613,46.387,19.531,38.086,-605.469,0
1542733691.666,114.258,46.387,17.578,23.926,-591.797,0
1542733691.670,115.234,41.992,12.695,21.484,-605.469,0
1542733691.674,81.055,39.062,7.812,68.848,-594.727,0
1542733691.678,96.191,34.180,13.184,60.547,-563.965,0
1542733691.682,93.750,33.691,7.812,28.320,-560.059,0
1542733691.686,74.219,40.527,-2.930,19.043,-574.219,0
1542733691.690,98.633,40.527,10.254,25.879,-559.082,0
1542733691.694,61.523,37.598,29.297,24.902,-579.590,0
1542733691.698,37.598,40.527,25.879,27.832,-627.441,0
1542733691.701,75.195,41.016,17.578,43.945,-650.879,0
1542733691.705,107.422,41.504,8.789,58.594,-691.895,0
1542733691.709,108.887,44.922,9.766,64.453,-710.449,0
1542733691.713,99.121,43.945,24.414,71.777,-763.184,0
1542733691.717,109.375,42.480,25.391,61.035,-761.719,0
1542733691.721,117.676,44.434,16.602,66.406,-742.676,0
1542733691.725,65.430,41.016,-7.812,50.781,-764.648,0
1542733691.729,28.809,43.457,-17.578,41.504,-773.438,0
1542733691.733,63.965,45.898,13.184,49.805,-795.898,0
1542733691.737,115.234,47.363,30.273,12.695,-777.832,0
1542733691.741,103.027,45.410,33.691,8.301,-723.633,0
1542733691.744,77.148,43.457,28.320,51.270,-726.562,0
1542733691.748,79.590,46.875,22.461,84.961,-722.168,0
1542733691.752,80.566,45.898,25.391,62.500,-682.129,0
1542733691.756,83.496,45.898,25.391,29.297,-653.809,0
1542733691.760,95.703,46.875,23.926,27.344,-634.277,0
1542733691.764,111.816,46.387,14.648,32.715,-611.816,0
1542733691.768,82.520,42.480,18.555,53.223,-570.312,0
1542733691.772,61.035,43.457,28.809,61.523,-552.246,0
1542733691.776,63.477,47.363,18.066,80.566,-585.449,0
1542733691.780,78.613,42.480,3.906,83.496,-605.957,0
1542733691.783,84.961,32.227,12.207,55.664,-565.918,0
1542733691.787,121.582,32.715,15.625,18.066,-531.738,0
1542733691.791,127.441,37.109,15.625,19.531,-575.684,0
1542733691.795,33.203,34.180,26.855,32.227,-551.270,0
1542733691.799,37.598,36.133,22.949,26.367,-529.785,0
1542733691.803,50.781,35.645,9.277,24.414,-540.039,0
1542733691.807,104.004,29.297,7.324,72.754,-520.996,0
1542733691.811,152.344,27.344,28.320,123.047,-531.250,0
1542733691.815,64.941,25.879,40.039,54.199,-550.781,0
1542733691.819,-10.742,25.391,30.762,-22.949,-580.078,0
1542733691.823,15.625,20.996,22.949,-38.086,-606.445,0
1542733691.826,29.785,21.973,19.531,-66.895,-631.836,0
1542733691.830,-49.316,22.949,20.020,-72.754,-664.551,0
1542733691.834,-123.047,15.625,9.277,-116.211,-713.379,0
1542733691.838,-99.609,11.230,-3.906,-142.578,-754.395,0
1542733691.842,-122.559,13.672,8.789,-104.004,-756.348,0
1542733691.846,-165.527,20.508,27.832,-113.770,-783.203,0
1542733691.850,-152.832,13.672,15.625,-186.523,-845.703,0
1542733691.854,-165.039,7.812,-5.859,-151.367,-883.301,0
1542733691.858,-160.645,29.785,10.254,-90.820,-939.941,0
1542733691.862,-166.016,31.738,8.301,-139.160,-976.562,0
1542733691.866,-85.938,23.438,10.254,-152.344,-970.703,0
1542733691.869,-63.477,25.879,21.484,-133.789,-972.656,0
1542733691.873,-167.969,25.879,-1.465,-164.551,-973.145,0
1542733691.877,-160.645,28.320,-9.766,-156.738,-972.656,0
1542733691.881,-130.371,33.203,6.836,-144.531,-973.145,0
1542733691.885,-81.543,39.551,20.508,-114.258,-972.656,0
1542733691.889,-79.590,33.203,12.695,-104.004,-972.656,0
1542733691.893,-89.844,18.555,29.297,-118.164,-972.656,0
1542733691.897,-62.988,15.625,37.598,-58.594,-972.656,0
1542733691.901,-40.039,26.855,27.832,-53.711,-972.656,0
1542733691.905,2.930,33.691,24.902,-72.754,-972.656,0
1542733691.908,-36.621,46.387,29.297,-61.035,-972.656,0
1542733691.912,-40.527,59.570,13.672,-38.086,-972.656,0
1542733691.916,-38.086,48.340,14.648,-45.898,-972.656,0
1542733691.920,-69.824,24.902,40.527,-101.562,-973.145,0
1542733691.924,-42.480,19.531,59.570,-41.016,-972.168,0
1542733691.928,-39.062,25.879,56.152,-19.043,-971.191,0
1542733691.932,13.184,24.414,38.086,-9.277,-975.098,0
1542733691.936,49.805,38.086,45.898,6.836,-933.105,0
1542733691.940,68.848,52.246,39.062,3.418,-859.863,0
1542733691.944,57.617,41.504,21.484,5.859,-805.664,0
1542733691.948,20.020,40.527,26.855,13.672,-742.676,0
1542733691.951,33.203,35.645,54.688,16.113,-692.871,0
1542733691.955,37.598,38.086,64.453,-19.043,-672.852,0
1542733691.959,45.898,41.992,68.359,16.602,-648.438,0
1542733691.963,43.945,35.645,70.801,42.480,-629.883,0
1542733691.967,64.453,40.527,72.754,34.180,-584.961,0
1542733691.971,67.871,43.457,59.082,79.102,-499.512,0
1542733691.975,63.965,35.645,43.457,73.242,-501.465,0
1542733691.979,84.961,29.785,52.246,16.113,-442.871,0
1542733691.983,53.711,21.484,62.500,-3.418,-395.020,0
1542733691.987,35.156,16.602,57.129,21.484,-377.441,0
1542733691.991,54.199,21.973,50.781,43.945,-326.172,0
1542733691.994,53.223,28.809,53.223,55.664,-290.039,0
1542733691.998,56.152,26.855,64.941,97.168,-278.809,0
1542733692.002,78.613,34.668,61.035,63.965,-291.504,0
1542733692.006,66.406,39.551,59.082,22.461,-296.875,0
1542733692.010,83.984,40.527,58.594,40.039,-315.918,0
1542733692.014,107.910,48.828,46.875,44.434,-294.922,0
1542733692.018,97.656,43.457,57.617,66.895,-318.359,0
1542733692.022,90.332,40.039,49.805,61.035,-325.195,0
1542733692.026,65.918,40.039,33.203,32.715,-267.578,0
1542733692.030,43.945,40.527,38.086,38.574,-248.047,0
1542733692.033,66.895,43.457,66.895,57.129,-199.707,0
1542733692.037,86.914,33.691,65.918,89.355,-214.355,0
1542733692.041,73.730,25.879,45.410,64.941,-242.188,0
1542733692.045,48.340,39.551,50.293,39.551,-189.453,0
1542733692.049,53.223,44.434,65.918,70.801,-158.203,0
1542733692.053,76.660,42.969,54.688,108.887,-155.273,0
1542733692.057,61.035,42.480,27.832,88.867,-201.172,0
1542733692.061,63.965,33.203,30.273,48.340,-236.816,0
1542733692.065,80.078,25.391,33.203,65.918,-177.246,0
1542733692.069,96.191,26.855,41.504,153.320,-161.621,0
1542733692.073,86.426,24.414,70.312,139.160,-202.148,0
1542733692.076,49.805,17.578,59.082,56.641,-131.836,0
1542733692.080,35.645,28.809,32.715,65.430,-129.883,0
1542733692.084,40.039,34.180,42.969,46.875,-139.160,0
1542733692.088,37.109,21.484,56.152,11.230,-95.215,0
1542733692.092,9.766,26.855,71.289,13.184,-116.211,0
1542733692.096,11.719,47.852,63.477,24.902,-88.379,0
1542733692.100,1.953,51.758,52.734,5.859,-66.895,0
1542733692.104,-28.809,46.387,46.387,-20.020,-52.246,0
1542733692.108,-54.199,43.945,39.551,-2.441,-51.758,0
1542733692.112,-70.312,32.227,54.688,15.137,-92.773,0
1542733692.116,-63.477,24.414,54.688,11.719,-88.867,0
1542733692.119,-52.246,21.973,55.176,20.508,-65.430,0
1542733692.123,-21.484,24.414,61.523,69.824,-55.176,0
1542733692.127,-16.602,31.738,66.406,86.914,-67.871,0
1542733692.131,-14.648,35.156,65.918,49.805,-77.148,0
1542733692.135,0.977,32.227,52.246,74.219,-83.984,0
1542733692.139,9.766,27.832,48.828,98.145,-47.852,0
1542733692.143,-2.441,31.738,39.551,70.801,-10.742,0
1542733692.147,6.348,32.227,49.805,61.035,-27.832,0
1542733692.151,23.438,35.645,54.199,41.016,-62.500,0
1542733692.155,23.926,24.902,42.969,18.555,-91.309,0
1542733692.158,7.324,25.879,50.781,25.879,-72.754,0
1542733692.162,14.160,38.574,47.852,30.273,-45.410,0
1542733692.166,8.789,22.949,48.340,52.246,-13.672,0
1542733692.170,12.207,15.137,68.848,84.961,-4.395,0
1542733692.174,33.691,34.180,60.059,58.594,-45.410,0
1542733692.178,30.762,40.527,50.781,42.480,-57.617,0
1542733692.182,22.949,27.832,62.988,72.754,-62.012,0
1542733692.186,15.137,27.832,68.359,90.332,-67.871,0
1542733692.190,24.902,34.180,67.383,63.477,-59.570,0
1542733692.194,14.648,27.832,68.848,34.668,3.418,0
1542733692.198,16.113,27.832,61.035,81.055,43.945,0
1542733692.201,41.504,32.715,20.996,117.676,-6.348,0
1542733692.205,39.062,29.297,29.297,77.637,37.109,0
1542733692.209,41.504,22.461,81.055,38.086,41.992,0
1542733692.213,21.973,27.344,87.402,42.480,-8.789,0
1542733692.217,7.812,44.922,76.660,69.336,-6.836,0
1542733692.221,24.414,41.504,56.152,82.520,-13.184,0
1542733692.225,38.574,34.180,51.270,58.105,-8.301,0
1542733692.229,37.109,32.715,63.477,65.430,-37.109,0
1542733692.233,23.926,25.879,62.012,62.500,-61.523,0
1542733692.237,18.555,22.949,54.688,40.039,-29.785,0
1542733692.241,24.902,26.855,58.594,66.406,-10.254,0
1542733692.244,2.930,29.297,59.570,93.262,-1.465,0
1542733692.248,-5.371,22.949,48.340,46.875,5.371,0
1542733692.252,17.090,21.484,49.805,0.977,-11.719,0
1542733692.256,5.859,31.250,56.641,5.371,-15.137,0
1542733692.260,-24.902,26.367,59.082,-3.418,4.395,0
1542733692.264,-8.301,19.531,60.547,-4.395,24.414,0
1542733692.268,-13.672,21.484,60.059,5.859,-1.465,0
1542733692.272,-25.879,18.066,61.523,10.742,48.340,0
1542733692.276,-35.156,18.555,64.941,0.000,78.613,0
1542733692.280,-66.895,5.859,65.918,-23.438,16.113,0
1542733692.283,-82.031,11.230,63.477,-21.484,27.344,0
1542733692.287,-83.984,23.438,57.617,0.488,24.414,0
1542733692.291,-79.590,20.508,57.129,-24.902,-10.254,0
1542733692.295,-65.918,17.578,64.941,-48.340,-22.461,0
1542733692.299,-61.523,23.438,62.012,-15.137,-0.977,0
1542733692.303,-79.590,20.508,59.082,-6.348,50.781,0
1542733692.307,-92.285,11.719,67.871,-12.207,40.039,0
1542733692.311,-62.988,1.953,66.895,6.348,-2.441,0
1542733692.315,-18.066,2.930,62.500,20.508,13.184,0
1542733692.319,16.602,17.578,61.035,41.992,24.414,0
1542733692.323,4.395,28.320,56.152,42.969,26.367,0
1542733692.326,-7.812,31.250,41.504,20.020,52.734,0
1542733692.330,36.133,24.414,45.898,49.316,25.879,0
1542733692.334,25.879,16.602,45.898,52.246,54.199,0
1542733692.338,5.859,18.555,46.875,52.734,81.055,0
1542733692.342,20.508,27.344,55.176,62.500,52.734,0
1542733692.346,31.250,29.785,42.969,61.035,27.344,0
1542733692.350,42.480,29.785,44.434,52.246,-3.906,0
1542733692.354,44.434,31.250,51.758,47.363,10.254,0
1542733692.358,46.387,33.203,44.434,93.262,65.430,0
1542733692.362,58.594,31.738,37.598,122.070,62.500,0
1542733692.366,47.363,32.715,36.621,102.539,19.043,0
1542733692.369,32.227,38.086,33.691,76.660,-1.953,0
1542733692.373,51.758,36.133,30.762,88.867,10.742,0
1542733692.377,66.895,36.133,24.902,94.727,79.102,0
1542733692.381,43.457,33.691,28.320,91.797,83.984,0
1542733692.385,28.809,30.273,35.156,94.727,43.457,0
1542733692.389,37.109,35.156,45.410,109.375,17.090,0
1542733692.393,55.664,33.203,45.898,107.910,71.289,0
1542733692.397,70.801,35.156,35.156,83.008,92.773,0
1542733692.401,66.895,42.480,27.832,78.125,42.969,0
1542733692.405,54.688,37.109,31.738,92.285,4.883,0
1542733692.408,39.062,26.855,33.691,78.613,50.293,0
1542733692.412,39.551,27.344,41.992,91.797,92.285,0
1542733692.416,40.039,31.738,51.758,126.465,43.945,0
1542733692.420,38.086,30.273,48.340,108.887,-4.883,0
1542733692.424,46.387,34.668,39.062,56.152,12.207,0
1542733692.428,52.734,39.551,34.668,62.500,26.855,0
1542733692.432,57.617,35.156,36.133,76.172,-14.648,0
1542733692.436,57.129,29.785,37.109,58.105,12.695,0
1542733692.440,55.176,30.762,43.945,82.520,48.340,0
1542733692.444,59.570,31.738,57.617,104.980,46.387,0
1542733692.448,67.383,33.691,60.059,91.797,22.461,0
1542733692.451,66.895,32.227,46.387,77.148,-25.879,0
1542733692.455,69.336,34.180,32.715,68.359,5.859,0
1542733692.459,76.172,40.039,29.785,86.426,37.598,0
1542733692.463,60.059,41.016,34.180,94.238,32.715,0
1542733692.467,62.012,34.180,38.086,95.215,26.367,0
1542733692.471,35.156,32.227,38.086,95.215,10.742,0
1542733692.475,22.461,32.715,39.551,71.777,51.270,0
1542733692.479,51.270,33.203,47.852,102.539,53.223,0
1542733692.483,56.641,30.273,35.156,98.633,37.598,0
1542733692.487,82.520,33.203,28.809,45.898,27.344,0
1542733692.491,97.168,38.574,38.086,61.035,13.672,0
1542733692.494,64.453,38.574,34.180,83.984,116.699,0
1542733692.498,58.594,41.992,43.945,76.660,145.996,0
1542733692.502,53.223,43.945,39.062,87.891,37.598,0
1542733692.506,61.523,40.527,17.090,63.965,35.156,0
1542733692.510,72.266,34.668,29.785,53.223,44.922,0
1542733692.514,71.777,30.762,38.086,83.496,38.574,0
1542733692.518,62.988,37.109,42.480,69.336,11.719,0
1542733692.522,36.621,39.551,57.617,62.988,47.852,0
1542733692.526,51.758,34.180,53.711,55.664,27.344,0
1542733692.530,52.734,34.180,52.734,61.035,10.742,0
1542733692.533,43.457,38.086,51.758,99.121,32.227,0
1542733692.537,64.453,39.551,41.992,108.887,9.277,0
1542733692.541,82.031,40.527,41.504,86.914,20.020,0
1542733692.545,69.824,42.480,32.227,48.340,50.781,0
1542733692.549,47.363,44.434,29.785,83.984,46.387,0
1542733692.553,43.945,32.715,40.039,106.445,49.316,0
1542733692.557,57.129,26.855,44.434,56.152,40.527,0
1542733692.561,63.477,36.621,26.367,56.641,25.879,0
1542733692.565,49.316,39.551,25.879,66.406,41.992,0
1542733692.569,52.734,38.574,53.223,62.012,31.250,0
1542733692.573,73.242,39.062,58.105,70.801,57.129,0
1542733692.576,61.035,39.062,42.480,65.430,48.828,0
1542733692.580,53.711,48.340,22.949,66.406,39.062,0
1542733692.584,62.012,46.387,27.832,74.707,45.898,0
1542733692.588,51.758,36.621,45.410,47.852,4.883,0
1542733692.592,60.059,47.363,41.504,19.531,76.172,0
1542733692.596,57.129,40.039,41.016,37.109,116.211,0
1542733692.600,51.758,26.367,44.434,60.059,47.852,0
1542733692.604,67.871,32.227,45.410,61.035,73.242,0
1542733692.608,62.500,37.598,48.828,77.637,83.496,0
1542733692.612,44.434,40.527,43.945,67.871,58.594,0
1542733692.616,51.758,41.504,32.227,35.645,12.207,0
1542733692.619,77.148,43.945,35.156,55.176,8.789,0
1542733692.623,83.496,43.457,43.457,82.520,61.523,0
1542733692.627,62.012,38.574,41.504,57.129,23.926,0
1542733692.631,51.758,42.969,33.203,49.316,32.227,0
1542733692.635,57.617,42.480,33.203,72.266,49.316,0
1542733692.639,77.637,34.180,32.227,53.711,45.410,0
1542733692.643,72.754,33.691,30.762,54.199,50.781,0
1542733692.647,37.109,33.203,41.992,87.402,44.434,0
1542733692.651,54.199,34.180,43.945,57.617,78.613,0
1542733692.655,71.289,39.062,37.109,20.020,35.645,0
1542733692.658,60.059,34.668,44.922,32.227,-41.992,0
1542733692.662,64.453,26.367,48.340,59.082,-56.641,0
1542733692.666,38.086,30.762,40.527,57.617,-2.930,0
1542733692.670,19.043,36.621,38.086,53.711,37.598,0
1542733692.674,30.762,34.180,39.062,79.590,30.762,0
1542733692.678,31.738,30.762,37.598,43.945,10.742,0
1542733692.682,39.551,31.250,30.762,35.156,99.609,0
1542733692.686,43.945,38.086,23.926,50.293,121.094,0
1542733692.690,39.551,44.434,20.996,48.340,23.926,0
1542733692.694,37.109,37.109,18.555,68.359,-12.207,0
1542733692.698,40.527,37.109,30.273,50.293,40.527,0
1542733692.701,48.828,37.109,40.527,33.203,52.734,0
1542733692.705,52.246,38.574,39.551,35.156,28.809,0
1542733692.709,51.270,45.898,38.574,35.156,22.949,0
1542733692.713,66.406,44.922,35.645,40.039,-68.848,0
1542733692.717,41.992,40.527,36.133,36.621,-57.129,0
1542733692.721,3.906,45.410,40.527,59.570,30.762,0
1542733692.725,24.902,42.969,41.016,61.035,65.430,0
1542733692.729,41.016,34.668,38.574,33.691,20.020,0
1542733692.733,35.645,32.227,31.250,34.180,-14.648,0
1542733692.737,31.250,28.320,23.926,54.688,65.430,0
1542733692.741,25.879,25.391,30.762,74.707,60.059,0
1542733692.744,18.066,26.367,32.715,38.086,16.113,0
1542733692.748,21.973,33.691,29.785,44.434,27.832,0
1542733692.752,38.086,37.109,36.621,55.176,25.879,0
1542733692.756,38.574,38.086,34.180,43.945,57.617,0
1542733692.760,17.090,32.715,30.762,36.621,75.684,0
1542733692.764,10.254,20.020,26.367,67.383,14.648,0
1542733692.768,42.969,21.973,23.438,73.730,34.668,0
1542733692.772,57.129,26.367,14.648,12.207,86.426,0
1542733692.776,39.062,22.461,17.578,42.480,63.965,0
1542733692.780,10.254,27.832,27.344,77.148,22.949,0
1542733692.783,-9.277,30.273,41.992,45.410,4.883,0
1542733692.787,3.418,27.344,52.246,44.922,51.270,0
1542733692.791,8.789,23.438,51.758,46.387,69.336,0
1542733692.795,24.414,29.297,46.875,75.195,74.219,0
1542733692.799,32.227,41.504,36.621,65.918,82.031,0
1542733692.803,40.527,42.969,34.668,21.484,39.062,0
1542733692.807,35.156,31.250,34.668,26.855,4.395,0
1542733692.811,19.531,30.273,16.113,44.434,6.348,0
1542733692.815,9.277,30.762,22.461,58.594,20.020,0
1542733692.819,23.926,30.273,32.715,89.355,73.242,0
1542733692.823,23.438,33.203,31.738,77.637,78.613,0
1542733692.826,15.137,23.438,45.898,37.109,86.914,0
1542733692.830,17.090,21.484,48.828,25.391,56.152,0
1542733692.834,30.273,26.855,39.062,53.711,75.684,0
1542733692.838,45.898,31.250,33.691,62.988,74.707,0
1542733692.842,25.879,36.133,38.574,54.199,29.297,0
1542733692.846,26.367,34.668,30.762,78.613,73.730,0
1542733692.850,25.391,34.668,19.043,75.684,56.641,0
1542733692.854,35.156,30.762,25.391,57.617,19.043,0
1542733692.858,42.969,35.156,38.086,50.293,65.430,0
1542733692.862,25.879,44.434,30.762,21.973,52.246,0
1542733692.866,16.113,33.691,22.949,30.762,20.508,0
1542733692.869,15.137,28.809,26.367,55.176,90.332,0
1542733692.873,22.461,26.855,28.809,73.730,110.352,0
1542733692.877,23.438,20.020,40.039,48.828,81.055,0
1542733692.881,20.020,20.508,40.039,24.414,23.926,0
1542733692.885,22.461,25.391,36.621,40.039,0.977,0
1542733692.889,30.762,27.832,38.574,27.344,110.352,0
1542733692.893,31.738,24.902,38.574,25.879,111.816,0
1542733692.897,41.504,23.438,27.344,55.664,37.598,0
1542733692.901,48.828,27.832,27.832,67.383,-19.531,0
1542733692.905,31.250,40.527,40.527,62.988,-47.852,0
1542733692.908,18.066,42.969,43.457,25.879,12.695,0
1542733692.912,24.902,31.250,41.504,35.645,71.289,0
1542733692.916,20.020,26.855,39.551,59.082,77.148,0
1542733692.920,14.160,35.645,38.574,57.617,94.727,0
1542733692.924,36.133,37.109,36.133,55.176,23.926,0
1542733692.928,41.992,32.227,31.738,39.551,36.621,0
1542733692.932,24.414,34.180,19.531,42.480,33.203,0
1542733692.936,8.789,37.109,26.367,67.871,6.348,0
1542733692.940,39.062,38.574,35.645,63.477,44.922,0
1542733692.944,71.777,41.016,28.809,35.645,71.289,0
1542733692.948,57.617,38.086,32.715,33.203,70.312,0
1542733692.951,45.898,25.879,31.250,43.945,10.254,0
1542733692.955,67.871,29.297,33.203,56.152,35.645,0
1542733692.959,57.617,32.715,40.039,69.336,68.848,0
1542733692.963,23.926,34.668,35.156,52.246,41.016,0
1542733692.967,24.902,39.551,33.203,63.477,49.805,0
1542733692.971,52.246,34.180,29.297,50.293,87.402,0
1542733692.975,56.152,34.180,34.180,33.203,66.895,0
1542733692.979,30.762,31.738,42.480,36.621,64.453,0
1542733692.983,35.645,29.297,35.645,33.691,40.527,0
1542733692.987,49.316,33.203,33.691,47.363,45.898,0
1542733692.991,40.527,32.715,29.297,44.922,58.594,0
1542733692.994,12.695,31.250,23.438,21.973,80.078,0
1542733692.998,4.395,31.738,30.273,1.953,56.641,0
1542733693.002,21.973,31.738,37.598,25.879,22.949,0
1542733693.006,41.016,34.668,36.621,43.945,20.020,0
1542733693.010,51.270,41.016,37.598,49.805,23.438,0
1542733693.014,44.434,38.086,33.203,39.551,65.430,0
1542733693.018,40.527,31.738,21.484,50.293,60.547,0
1542733693.022,41.992,29.297,29.297,79.590,40.039,0
1542733693.026,36.621,19.043,38.086,69.336,48.828,0
1542733693.030,45.898,20.020,30.762,49.805,5.371,0
1542733693.033,60.547,31.738,38.086,25.391,-1.953,0
1542733693.037,55.176,33.691,35.645,-9.277,38.574,0
1542733693.041,44.922,31.738,18.555,12.695,43.945,0
1542733693.045,33.203,32.227,25.391,33.691,46.387,0
1542733693.049,11.719,33.203,30.273,30.273,39.062,0
1542733693.053,46.875,36.621,28.809,49.316,57.617,0
1542733693.057,69.824,36.621,33.203,52.246,21.973,0
1542733693.061,46.387,30.762,40.039,34.668,19.531,0
1542733693.065,35.645,29.297,40.039,44.922,66.406,0
1542733693.069,32.715,33.203,28.809,23.926,45.410,0
1542733693.073,28.320,35.156,25.391,12.695,68.359,0
1542733693.076,29.785,29.297,31.738,31.738,85.449,0
1542733693.080,50.293,23.926,32.227,34.180,9.766,0
1542733693.084,73.730,27.344,31.250,49.316,-6.348,0
1542733693.088,50.781,25.391,38.574,41.016,10.254,0
1542733693.092,7.812,20.020,36.133,37.598,9.766,0
1542733693.096,18.555,18.555,27.344,59.082,-18.066,0
1542733693.100,49.316,26.367,30.762,53.223,-30.762,0
1542733693.104,56.152,36.133,30.273,60.059,64.453,0
1542733693.108,49.805,37.109,24.902,49.316,42.480,0
1542733693.112,48.828,26.367,21.484,33.203,18.066,0
1542733693.116,48.828,18.066,29.785,47.852,43.945,0
1542733693.119,50.293,20.020,49.316,54.688,44.434,0
1542733693.123,32.227,33.691,41.016,50.781,40.527,0
1542733693.127,21.973,35.645,24.414,49.805,11.719,0
1542733693.131,42.969,27.344,10.254,14.648,24.414,0
1542733693.135,62.988,22.461,20.996,34.180,41.992,0
1542733693.139,63.965,22.949,46.875,65.430,71.289,0
1542733693.143,47.363,24.414,44.434,25.391,85.449,0
1542733693.147,38.086,19.531,36.133,30.762,58.105,0
1542733693.151,31.738,25.391,34.180,60.059,2.930,0
1542733693.155,16.602,35.645,35.156,45.410,-12.695,0
1542733693.158,62.988,32.715,31.738,37.598,17.090,0
1542733693.162,95.215,27.832,39.062,58.594,23.926,0
1542733693.166,60.059,27.344,50.293,52.246,2.441,0
1542733693.170,28.320,24.902,32.227,25.391,-26.367,0
1542733693.174,49.316,27.344,-3.906,32.715,-37.598,0
1542733693.178,56.152,23.926,0.488,54.199,13.184,0
1542733693.182,20.508,31.738,42.969,57.129,43.457,0
1542733693.186,41.504,38.086,60.547,46.875,23.438,0
1542733693.190,61.035,30.273,45.898,60.547,55.664,0
1542733693.194,32.715,24.902,41.016,53.223,25.391,0
1542733693.198,27.344,20.508,49.316,53.223,6.348,0
1542733693.201,44.434,26.367,48.828,65.918,51.270,0
1542733693.205,49.805,33.203,34.180,33.203,81.055,0
1542733693.209,41.016,32.227,26.855,21.484,72.754,0
1542733693.213,52.246,31.738,33.691,28.809,18.066,0
1542733693.217,62.500,33.691,35.645,48.828,27.344,0
1542733693.221,36.621,34.668,37.598,67.871,69.824,0
1542733693.225,43.457,32.715,38.086,69.824,75.684,0
1542733693.229,69.336,32.715,32.715,80.566,91.797,0
1542733693.233,65.918,33.203,26.367,50.293,45.898,0
1542733693.237,53.223,23.926,24.902,18.066,38.086,0
1542733693.241,31.738,18.066,34.668,30.273,64.453,0
1542733693.244,20.020,26.855,29.785,67.383,73.242,0
1542733693.248,36.133,32.715,13.672,90.820,69.824,0
1542733693.252,62.500,39.551,25.879,81.055,16.602,0
1542733693.256,77.148,42.480,43.945,49.805,-38.574,0
1542733693.260,66.406,31.738,43.457,35.645,-29.785,0
1542733693.264,69.336,30.273,47.363,28.320,-4.883,0
1542733693.268,76.172,41.992,48.340,28.320,22.949,0
1542733693.272,33.203,39.551,41.504,15.625,38.574,0
1542733693.276,18.555,30.273,34.668,21.484,18.555,0
1542733693.280,24.414,34.180,30.762,44.434,55.176,0
1542733693.283,24.902,30.762,27.344,10.254,62.988,0
1542733693.287,36.133,24.414,23.926,34.668,50.781,0
1542733693.291,62.988,25.879,20.508,54.199,53.223,0
1542733693.295,63.477,30.762,28.809,37.598,34.180,0
1542733693.299,39.062,29.297,31.250,82.520,7.324,0
1542733693.303,38.574,28.320,31.738,74.707,3.418,0
1542733693.307,43.945,31.250,35.645,40.039,28.320,0
1542733693.311,45.410,30.273,26.367,31.738,29.785,0
1542733693.315,55.664,31.250,27.344,25.391,-30.273,0
1542733693.319,59.570,32.715,30.762,25.879,26.855,0
1542733693.323,45.898,30.762,39.062,19.531,122.559,0
1542733693.326,44.922,29.297,42.480,45.410,55.176,0
1542733693.330,77.148,25.391,39.551,54.688,2.930,0
1542733693.334,57.617,27.832,33.691,29.785,8.301,0
1542733693.338,29.297,33.691,31.738,42.969,37.598,0
1542733693.342,71.289,32.715,22.461,60.059,64.941,0
1542733693.346,80.566,33.203,14.648,53.223,44.922,0
1542733693.350,42.480,29.297,26.855,39.062,34.668,0
1542733693.354,34.180,27.832,32.715,28.809,61.035,0
1542733693.358,62.500,34.180,35.645,54.199,62.988,0
1542733693.362,59.082,37.598,40.527,50.293,133.789,0
1542733693.366,48.340,34.668,42.969,44.922,130.371,0
1542733693.369,36.621,29.785,39.062,64.941,5.859,0
1542733693.373,52.734,29.785,34.668,62.988,4.395,0
1542733693.377,90.332,31.250,31.738,60.059,42.480,0
1542733693.381,99.609,34.180,26.855,35.156,20.508,0
1542733693.385,91.309,30.273,25.879,37.598,7.324,0
1542733693.389,76.172,26.855,29.785,60.547,58.594,0
1542733693.393,59.570,34.180,33.691,32.715,22.949,0
1542733693.397,83.008,35.645,30.273,26.367,-22.949,0
1542733693.401,107.422,33.203,18.555,49.805,-20.996,0
1542733693.405,102.539,34.180,24.902,93.262,-20.508,0
1542733693.408,104.492,36.621,32.715,63.477,-17.090,0
1542733693.412,74.219,39.062,36.133,16.113,-2.930,0
1542733693.416,61.035,32.227,42.480,36.133,9.766,0
1542733693.420,79.590,31.738,41.992,39.062,27.344,0
1542733693.424,83.496,38.086,35.156,48.340,86.426,0
1542733693.428,77.637,40.039,14.160,45.410,106.445,0
1542733693.432,67.871,42.480,14.160,54.688,52.734,0
1542733693.436,71.777,43.945,5.371,70.801,18.066,0
1542733693.440,78.613,20.996,8.789,47.363,44.922,0
1542733693.444,66.406,9.277,37.598,2.930,79.590,0
1542733693.448,36.621,29.297,34.668,9.766,62.500,0
1542733693.451,45.898,34.180,35.156,28.809,19.531,0
1542733693.455,70.312,28.809,25.391,54.199,13.184,0
1542733693.459,41.992,35.645,26.855,39.062,39.551,0
1542733693.463,41.016,36.621,17.090,5.859,39.551,0
1542733693.467,78.613,19.531,7.324,46.875,30.762,0
1542733693.471,81.543,18.066,34.668,47.852,-7.812,0
1542733693.475,59.082,33.691,46.387,31.738,-13.672,0
1542733693.479,42.969,33.691,33.203,60.547,10.254,0
1542733693.483,39.062,37.109,18.066,75.684,17.090,0
1542733693.487,45.898,40.039,27.344,59.570,8.789,0
1542733693.491,48.828,33.691,41.016,27.344,26.855,0
1542733693.494,51.758,32.227,34.668,24.414,51.270,0
1542733693.498,64.941,35.645,31.250,32.227,8.301,0
1542733693.502,64.941,33.203,30.273,25.879,55.176,0
1542733693.506,67.871,29.785,20.508,41.992,94.727,0
1542733693.510,67.383,31.250,22.461,61.523,20.020,0
1542733693.514,34.180,32.227,28.320,55.664,24.902,0
1542733693.518,19.043,23.438,28.809,59.570,25.391,0
1542733693.522,38.086,18.555,17.090,63.477,17.090,0
1542733693.526,76.660,27.832,6.836,23.438,67.871,0
1542733693.530,70.801,29.785,21.484,23.438,46.875,0
1542733693.533,28.320,26.855,41.504,40.527,-10.742,0
1542733693.537,30.762,26.855,38.574,31.738,44.922,0
1542733693.541,37.109,26.367,29.297,35.156,79.590,0
1542733693.545,57.129,30.273,24.414,24.902,14.160,0
1542733693.549,75.684,32.715,18.555,39.062,-12.207,0
1542733693.553,63.477,26.855,27.344,68.848,36.133,0
1542733693.557,39.062,11.230,35.156,51.270,17.578,0
1542733693.561,53.711,-7.812,45.410,90.820,-13.672,0
1542733693.565,94.238,10.254,52.246,142.578,16.113,0
1542733693.569,79.590,40.039,29.297,92.285,44.434,0
1542733693.573,68.848,39.551,20.020,37.598,26.367,0
1542733693.576,94.238,30.273,21.484,42.480,-2.441,0
1542733693.580,89.844,20.020,17.090,58.105,38.086,0
1542733693.584,65.918,14.160,20.508,74.219,30.273,0
1542733693.588,82.520,20.020,14.160,83.984,15.625,0
1542733693.592,120.117,15.625,13.672,94.238,95.215,0
1542733693.596,122.559,20.020,15.625,93.750,25.391,0
1542733693.600,127.441,24.902,16.602,118.164,5.371,0
1542733693.604,106.445,20.020,19.531,102.051,73.242,0
1542733693.608,102.539,20.020,18.066,71.289,49.316,0
1542733693.612,120.605,22.949,21.973,93.262,8.301,0
1542733693.616,120.605,21.973,22.949,90.820,70.801,0
1542733693.619,129.395,14.648,23.926,91.797,107.910,0
1542733693.623,158.691,18.066,23.438,100.586,94.727,0
1542733693.627,167.480,26.367,23.438,120.605,27.344,0
1542733693.631,150.391,24.414,23.438,132.812,-13.184,0
1542733693.635,144.531,20.996,22.461,107.910,43.457,0
1542733693.639,114.746,21.973,23.926,91.797,42.480,0
1542733693.643,87.891,22.949,26.855,91.309,14.160,0
1542733693.647,129.883,28.320,24.414,99.121,-17.578,0
1542733693.651,144.043,32.227,23.438,114.258,-13.184,0
1542733693.655,117.676,26.367,24.902,97.656,27.344,0
1542733693.658,111.816,25.879,25.391,96.680,69.824,0
1542733693.662,130.371,33.203,23.438,106.445,73.242,0
1542733693.666,131.836,32.227,27.832,88.379,32.227,0
1542733693.670,121.582,29.297,28.320,81.543,17.090,0
1542733693.674,114.258,28.809,27.832,79.102,38.086,0
1542733693.678,86.426,29.297,30.273,78.613,52.734,0
1542733693.682,81.055,34.668,23.926,86.914,61.035,0
1542733693.686,112.305,32.715,23.926,85.449,65.430,0
1542733693.690,119.629,27.832,21.973,77.637,41.992,0
1542733693.694,114.258,29.297,10.254,58.594,56.152,0
1542733693.698,107.422,26.367,16.602,76.172,31.738,0
1542733693.701,93.750,22.461,26.855,93.262,4.395,0
1542733693.705,103.027,23.926,31.250,73.730,41.504,0
1542733693.709,98.633,28.320,26.367,71.777,51.270,0
1542733693.713,88.379,20.996,30.762,76.172,26.855,0
1542733693.717,83.008,25.391,34.180,60.059,7.324,0
1542733693.721,110.352,31.738,22.461,54.688,14.160,0
1542733693.725,123.047,30.273,20.508,77.637,32.227,0
1542733693.729,73.242,32.227,22.461,48.340,57.129,0
1542733693.733,48.340,30.273,20.996,39.551,39.062,0
1542733693.737,59.570,29.785,18.555,76.172,6.348,0
1542733693.741,65.430,28.809,20.020,68.359,21.484,0
1542733693.744,64.453,32.715,26.855,75.684,36.621,0
1542733693.748,50.293,33.691,21.484,94.727,37.109,0
1542733693.752,18.555,29.297,15.137,43.457,14.160,0
1542733693.756,2.930,35.645,25.879,40.039,37.109,0
1542733693.760,21.973,37.109,31.250,49.805,30.273,0
1542733693.764,44.434,33.203,28.320,25.879,-9.766,0
1542733693.768,44.922,34.668,25.391,38.574,1.953,0
1542733693.772,21.973,37.109,21.973,36.133,6.348,0
1542733693.776,16.602,41.016,16.602,22.949,28.809,0
1542733693.780,34.668,37.598,23.926,26.855,12.695,0
1542733693.783,24.902,30.273,22.461,27.344,-9.766,0
1542733693.787,26.855,33.203,22.461,51.758,25.879,0
1542733693.791,71.289,31.738,23.438,97.656,68.359,0
1542733693.795,104.980,22.461,28.320,136.719,28.320,0
1542733693.799,58.594,31.250,36.133,109.863,33.691,0
1542733693.803,-18.066,38.574,26.855,31.250,30.273,0
1542733693.807,2.930,24.902,26.367,1.465,58.105,0
1542733693.811,8.789,18.066,29.785,36.621,118.164,0
1542733693.815,-0.488,23.438,31.250,79.590,72.266,0
1542733693.819,0.000,28.809,33.203,64.941,75.195,0
1542733693.823,28.320,29.297,29.297,49.316,110.840,0
1542733693.826,62.500,27.344,30.273,52.734,60.547,0
1542733693.830,58.105,25.391,29.785,56.641,20.996,0
1542733693.834,59.082,26.367,28.809,94.238,33.691,0
1542733693.838,65.918,26.855,34.180,102.539,39.062,0
1542733693.842,62.012,27.344,31.738,83.008,7.324,0
1542733693.846,43.457,30.273,30.762,77.637,23.438,0
1542733693.850,41.016,29.297,32.227,78.613,50.293,0
1542733693.854,53.711,22.461,27.832,92.773,23.926,0
1542733693.858,60.547,26.855,25.391,74.219,57.617,0
1542733693.862,69.336,29.785,22.461,55.664,82.520,0
1542733693.866,64.941,22.461,20.020,67.383,24.902,0
1542733693.869,85.449,24.902,23.438,93.750,3.906,0
1542733693.873,66.406,25.879,18.066,80.078,71.289,0
1542733693.877,22.949,24.902,9.277,60.547,119.629,0
1542733693.881,6.348,26.855,6.836,70.801,69.824,0
1542733693.885,7.812,25.391,10.742,58.594,-0.977,0
1542733693.889,33.203,25.391,22.949,59.570,21.973,0
1542733693.893,54.199,28.320,27.832,57.129,62.500,0
1542733693.897,73.242,31.250,23.926,46.875,42.480,0
1542733693.901,40.039,28.809,23.926,42.969,92.285,0
1542733693.905,24.902,35.156,23.926,24.414,101.562,0
1542733693.908,41.016,40.527,13.184,50.293,47.852,0
1542733693.912,28.809,35.645,14.648,66.895,63.477,0
1542733693.916,36.621,34.668,21.484,59.082,63.477,0
1542733693.920,49.805,36.133,15.625,79.102,76.172,0
1542733693.924,89.355,38.086,2.930,65.430,104.004,0
1542733693.928,70.312,37.109,-4.883,24.414,121.094,0
1542733693.932,-2.930,33.691,9.766,42.969,135.254,0
1542733693.936,-17.090,29.297,23.926,92.285,172.852,0
1542733693.940,7.324,26.855,23.926,62.500,170.898,0
1542733693.944,41.504,34.180,26.855,41.992,147.461,0
1542733693.948,62.500,33.691,28.320,34.180,156.738,0
1542733693.951,71.777,31.738,24.414,11.719,160.645,0
1542733693.955,27.344,35.645,16.113,28.809,176.270,0
1542733693.959,-20.996,25.879,19.043,66.895,220.703,0
1542733693.963,2.441,22.949,24.414,36.621,220.703,0
1542733693.967,41.992,30.762,19.531,0.488,205.078,0
1542733693.971,19.043,32.227,10.742,15.625,226.562,0
1542733693.975,-5.859,37.598,8.301,44.434,239.258,0
1542733693.979,21.484,38.086,14.160,75.684,235.840,0
1542733693.983,31.250,35.156,13.184,52.734,197.266,0
1542733693.987,5.859,32.715,6.348,17.578,178.223,0
1542733693.991,-10.742,32.227,7.324,45.410,195.312,0
1542733693.994,53.223,40.039,13.184,61.523,175.293,0
1542733693.998,70.312,41.992,9.766,22.461,168.945,0
1542733694.002,14.160,38.086,6.836,34.180,173.828,0
1542733694.006,-2.930,37.109,18.555,28.320,167.480,0
1542733694.010,-12.695,37.109,21.484,8.301,151.367,0
1542733694.014,6.348,34.180,17.090,34.668,126.953,0
1542733694.018,20.020,33.203,19.043,16.113,130.859,0
1542733694.022,17.578,39.551,16.113,20.996,132.812,0
1542733694.026,14.160,45.410,15.137,28.320,113.770,0
1542733694.030,-3.418,41.504,18.555,41.016,121.094,0
1542733694.033,-9.766,38.574,21.484,40.527,122.559,0
1542733694.037,27.344,37.109,19.043,46.875,113.281,0
1542733694.041,36.133,37.109,10.742,67.871,113.281,0
1542733694.045,10.254,38.574,13.672,41.504,110.352,0
1542733694.049,6.348,38.574,19.043,49.316,89.844,0
1542733694.053,-0.488,38.086,14.648,15.625,76.660,0
1542733694.057,-16.113,36.621,14.648,45.898,95.703,0
1542733694.061,0.977,38.086,18.555,88.867,126.465,0
1542733694.065,24.414,38.086,15.137,33.203,122.070,0
1542733694.069,24.902,39.062,4.883,14.160,104.004,0
1542733694.073,25.391,30.762,12.695,16.602,105.957,0
1542733694.076,33.691,29.785,24.414,29.297,113.770,0
1542733694.080,35.645,32.227,15.625,38.574,157.227,0
1542733694.084,19.043,33.203,2.930,29.785,175.781,0
1542733694.088,26.855,37.109,4.883,40.039,144.531,0
1542733694.092,47.852,34.668,11.719,54.199,157.227,0
1542733694.096,18.555,32.715,8.789,19.531,178.711,0
1542733694.100,4.883,34.180,10.254,9.766,147.461,0
1542733694.104,-6.836,38.086,20.020,40.039,162.109,0
1542733694.108,-22.949,39.551,20.020,39.551,200.684,0
1542733694.112,-9.277,33.691,20.508,49.805,215.332,0
1542733694.116,-2.441,32.715,24.414,47.852,235.840,0
1542733694.119,5.371,31.738,24.414,40.039,244.141,0
1542733694.123,-9.277,30.762,19.043,33.203,248.535,0
1542733694.127,-20.020,36.133,15.625,40.039,228.027,0
1542733694.131,-19.043,41.016,16.113,47.852,190.918,0
1542733694.135,-1.953,40.527,15.625,42.969,219.238,0
1542733694.139,-0.977,38.574,12.695,19.531,258.789,0
1542733694.143,17.090,38.574,13.672,10.742,243.164,0
1542733694.147,45.898,39.062,12.207,35.645,259.277,0
1542733694.151,18.066,40.039,0.488,20.508,276.367,0
1542733694.155,2.930,37.598,0.000,14.160,259.277,0
1542733694.158,-17.090,29.297,17.090,43.457,250.000,0
1542733694.162,-20.020,28.320,23.438,36.621,272.461,0
1542733694.166,19.043,32.227,11.230,9.277,299.805,0
1542733694.170,-1.465,33.691,14.648,43.945,317.383,0
1542733694.174,-5.371,34.180,25.391,65.430,296.387,0
1542733694.178,0.488,36.621,17.578,59.082,268.066,0
1542733694.182,-18.066,34.668,14.160,24.902,280.273,0
1542733694.186,-2.930,30.273,18.555,14.648,302.246,0
1542733694.190,-1.953,26.855,20.020,20.020,302.734,0
1542733694.194,6.836,28.320,14.648,32.715,292.480,0
1542733694.198,13.184,37.109,18.555,27.344,312.988,0
1542733694.201,3.418,34.668,32.715,26.367,308.594,0
1542733694.205,14.160,37.598,33.691,54.199,351.074,0
1542733694.209,23.926,40.527,24.414,46.875,356.934,0
1542733694.213,-16.113,21.973,24.902,29.297,325.195,0
1542733694.217,-10.742,6.836,28.320,46.875,357.422,0
1542733694.221,45.898,26.367,39.062,114.746,340.820,0
1542733694.225,31.250,59.570,38.574,62.500,320.312,0
1542733694.229,-42.969,43.457,13.672,-64.453,347.168,0
1542733694.233,-41.016,20.996,-0.488,-17.090,335.449,0
1542733694.237,5.859,29.297,30.762,30.762,332.520,0
1542733694.241,-19.043,35.156,45.898,-24.414,343.262,0
1542733694.244,-57.129,35.645,38.086,-53.711,357.422,0
1542733694.248,-52.734,30.273,44.434,-22.949,348.633,0
1542733694.252,4.395,33.691,40.527,-19.043,341.797,0
1542733694.256,16.113,36.621,39.551,-11.719,365.234,0
1542733694.260,-38.574,38.574,39.062,0.977,384.766,0
1542733694.264,-29.297,40.039,33.203,-10.254,387.207,0
1542733694.268,24.414,35.156,32.715,-12.695,371.582,0
1542733694.272,32.227,39.551,25.879,-19.531,401.855,0
1542733694.276,20.020,43.457,15.625,2.441,441.895,0
1542733694.280,41.016,36.621,16.113,50.293,438.477,0
1542733694.283,85.449,38.574,20.508,56.152,422.852,0
1542733694.287,113.281,52.246,1.465,74.707,437.012,0
1542733694.291,100.098,43.945,-1.465,92.773,489.258,0
1542733694.295,104.004,35.645,15.137,104.492,507.812,0
1542733694.299,107.910,41.504,11.230,122.070,499.023,0
1542733694.303,78.125,50.781,5.371,101.562,555.176,0
1542733694.307,106.934,48.340,4.395,92.773,565.430,0
1542733694.311,145.508,43.945,-7.324,106.934,565.430,0
1542733694.315,125.977,41.016,-1.465,133.789,585.449,0
1542733694.319,110.352,36.133,17.578,114.746,608.398,0
1542733694.323,115.234,34.180,12.695,127.441,634.766,0
1542733694.326,105.469,38.574,7.324,129.395,652.344,0
1542733694.330,103.516,36.133,4.883,117.676,691.406,0
1542733694.334,124.512,33.203,6.348,103.027,701.172,0
1542733694.338,133.789,37.109,0.488,79.590,682.129,0
1542733694.342,114.746,40.527,-11.230,115.723,690.918,0
1542733694.346,94.238,38.086,6.836,113.770,725.098,0
1542733694.350,105.469,41.504,-0.977,103.516,720.703,0
1542733694.354,93.750,40.527,-12.695,96.191,697.754,0
1542733694.358,72.754,32.715,14.160,90.332,727.539,0
1542733694.362,65.430,36.621,23.438,96.191,737.305,0
1542733694.366,82.520,40.039,19.531,82.031,692.383,0
1542733694.369,82.031,38.574,21.484,82.031,700.195,0
1542733694.373,87.402,37.598,17.578,71.777,689.941,0
1542733694.377,115.723,38.086,11.230,77.637,691.406,0
1542733694.381,124.512,36.621,13.184,110.840,728.027,0
1542733694.385,81.543,34.180,11.230,76.660,708.008,0
1542733694.389,26.367,32.227,10.254,54.199,690.430,0
1542733694.393,56.152,29.785,13.184,70.312,697.754,0
1542733694.397,66.895,23.926,12.695,70.801,702.637,0
1542733694.401,29.785,21.973,7.812,76.172,661.621,0
1542733694.405,79.590,28.809,8.789,66.406,637.207,0
1542733694.408,115.723,34.180,8.789,41.504,671.387,0
1542733694.412,49.805,32.227,1.953,67.871,668.945,0
1542733694.416,12.207,26.855,-0.977,86.426,640.137,0
1542733694.420,41.992,33.203,10.742,63.965,654.297,0
1542733694.424,70.801,33.203,21.484,71.777,634.277,0
1542733694.428,62.988,24.902,21.973,67.871,606.934,0
1542733694.432,42.969,27.344,19.531,39.062,611.816,0
1542733694.436,2.441,25.391,13.672,43.945,600.098,0
1542733694.440,-18.066,21.973,12.695,43.945,592.773,0
1542733694.444,4.883,20.996,15.137,93.750,556.641,0
1542733694.448,90.820,29.785,13.184,73.242,516.113,0
1542733694.451,114.258,38.574,11.719,-3.906,519.043,0
1542733694.455,28.809,25.879,10.254,30.762,537.109,0
1542733694.459,0.000,19.043,9.766,73.730,522.461,0
1542733694.463,9.766,21.973,6.836,54.199,486.328,0
1542733694.467,20.508,23.926,3.906,41.992,481.445,0
1542733694.471,38.574,22.461,18.066,55.176,472.656,0
1542733694.475,45.898,22.461,23.438,58.105,420.898,0
1542733694.479,56.152,27.832,20.996,51.270,395.508,0
1542733694.483,111.328,29.785,14.160,88.867,396.973,0
1542733694.487,133.789,19.531,19.043,92.285,360.352,0
1542733694.491,99.121,21.973,29.297,89.355,365.234,0
1542733694.494,21.484,26.367,30.273,68.848,373.047,0
1542733694.498,-6.348,16.113,38.086,79.590,346.680,0
1542733694.502,41.992,15.625,43.945,109.375,333.984,0
1542733694.506,68.848,21.484,44.434,83.496,296.387,0
1542733694.510,94.238,20.020,47.363,94.727,246.094,0
1542733694.514,113.770,21.973,52.734,112.305,250.488,0
1542733694.518,116.211,22.949,49.805,111.328,275.391,0
1542733694.522,140.625,23.926,48.340,156.738,245.117,0
1542733694.526,107.422,25.391,50.781,144.531,208.008,0
1542733694.530,41.992,20.020,49.805,122.559,214.844,0
1542733694.533,82.520,18.066,45.410,124.512,205.566,0
1542733694.537,99.121,22.949,38.574,108.887,199.219,0
1542733694.541,62.500,25.879,39.062,111.328,208.984,0
1542733694.545,71.289,27.832,40.039,115.234,197.266,0
1542733694.549,78.613,30.273,35.156,98.145,185.059,0
1542733694.553,69.824,33.691,36.621,80.566,162.109,0
1542733694.557,61.035,33.691,29.297,83.008,208.496,0
1542733694.561,66.895,30.762,27.344,96.191,234.863,0
1542733694.565,96.680,31.250,32.227,98.633,232.910,0
1542733694.569,64.941,34.668,26.367,98.633,245.605,0
1542733694.573,56.152,29.785,41.016,95.703,255.371,0
1542733694.576,62.988,27.832,42.969,73.242,268.066,0
1542733694.580,44.922,33.203,29.297,80.566,272.949,0
1542733694.584,54.688,31.738,35.645,79.590,268.066,0
1542733694.588,39.062,28.809,39.062,62.500,257.812,0
1542733694.592,41.016,27.832,33.203,51.758,267.578,0
1542733694.596,40.039,23.926,32.227,63.477,224.121,0
1542733694.600,34.180,25.391,33.203,79.102,226.074,0
1542733694.604,49.316,26.367,32.715,67.871,263.184,0
1542733694.608,46.875,25.391,29.297,90.820,278.809,0
1542733694.612,38.086,26.855,23.926,85.449,269.531,0
1542733694.616,35.156,24.414,21.973,64.941,257.812,0
1542733694.619,42.480,17.578,19.043,49.805,289.062,0
1542733694.623,49.316,17.090,23.926,51.758,303.711,0
1542733694.627,40.039,20.020,25.391,62.500,311.035,0
1542733694.631,38.574,18.066,26.855,80.566,302.734,0
1542733694.635,41.016,16.602,33.203,76.172,291.504,0
1542733694.639,42.969,19.043,31.738,51.758,283.203,0
1542733694.643,17.578,19.043,24.902,83.008,273.438,0
1542733694.647,-5.371,16.113,19.531,93.750,308.105,0
1542733694.651,24.414,18.555,22.461,75.195,298.828,0
1542733694.655,38.574,20.508,25.879,44.922,266.113,0
1542733694.658,51.270,24.414,23.438,28.320,279.785,0
1542733694.662,53.711,30.762,17.090,28.809,297.852,0
1542733694.666,16.602,24.414,20.020,40.527,331.055,0
1542733694.670,23.926,18.066,23.438,47.852,319.336,0
1542733694.674,51.270,22.461,16.602,72.266,293.457,0
1542733694.678,15.625,21.484,4.883,58.594,296.875,0
1542733694.682,5.371,15.137,15.137,38.086,288.574,0
1542733694.686,65.430,19.531,25.391,55.176,277.832,0
1542733694.690,70.312,28.320,0.977,45.410,268.555,0
1542733694.694,65.918,30.273,8.301,62.500,291.992,0
1542733694.698,66.895,23.926,34.668,63.965,310.547,0
1542733694.701,46.387,20.996,34.180,67.383,285.645,0
1542733694.705,35.645,24.414,35.645,40.527,279.785,0
1542733694.709,29.785,23.926,28.320,63.477,303.223,0
1542733694.713,81.055,20.020,23.438,124.023,283.203,0
1542733694.717,80.566,19.043,35.645,71.777,273.926,0
1542733694.721,75.195,30.273,31.738,19.043,279.785,0
1542733694.725,80.566,32.227,27.344,17.090,237.793,0
1542733694.729,11.230,23.438,31.738,30.273,230.469,0
1542733694.733,38.574,21.484,33.691,34.668,244.141,0
1542733694.737,83.496,19.531,34.668,63.965,256.348,0
1542733694.741,84.961,23.438,35.156,83.008,282.227,0
1542733694.744,63.965,25.879,32.227,58.594,248.047,0
1542733694.748,93.750,21.484,32.227,69.824,247.559,0
1542733694.752,151.855,24.902,28.320,83.984,270.996,0
1542733694.756,62.988,24.414,20.020,52.734,257.812,0
1542733694.760,-28.809,20.508,15.625,58.594,245.117,0
1542733694.764,10.254,26.855,14.160,58.594,217.285,0
1542733694.768,76.660,31.738,20.508,33.691,207.031,0
1542733694.772,125.000,33.691,29.297,19.043,210.938,0
1542733694.776,91.309,36.621,33.691,18.066,158.203,0
1542733694.780,104.004,37.598,32.715,42.969,157.715,0
1542733694.783,136.230,31.250,26.367,61.523,169.922,0
1542733694.787,66.406,28.320,23.926,57.129,130.371,0
1542733694.791,19.531,28.320,25.391,46.875,125.000,0
1542733694.795,75.684,28.809,26.367,55.176,119.141,0
1542733694.799,146.484,33.203,23.438,77.637,111.328,0
1542733694.803,68.848,27.344,22.461,50.781,95.703,0
1542733694.807,40.039,29.297,20.508,5.859,69.824,0
1542733694.811,144.531,37.109,20.508,13.672,37.109,0
1542733694.815,128.906,37.598,23.926,48.828,36.621,0
1542733694.819,34.668,38.574,19.043,43.945,36.133,0
1542733694.823,50.781,34.668,4.395,65.918,-17.578,0
1542733694.826,87.402,30.273,18.066,62.012,-21.484,0
1542733694.830,92.773,32.715,37.598,21.484,-17.578,0
1542733694.834,117.188,36.133,35.156,28.809,-41.504,0
1542733694.838,152.344,37.598,28.809,41.992,-65.430,0
1542733694.842,95.215,33.203,26.855,45.410,-87.891,0
1542733694.846,69.336,31.250,28.809,56.152,-99.121,0
1542733694.850,101.562,29.785,25.879,39.551,-92.285,0
1542733694.854,121.582,25.879,21.973,31.250,-107.422,0
1542733694.858,146.973,27.344,21.973,41.992,-153.320,0
1542733694.862,137.695,30.273,20.020,36.621,-161.621,0
1542733694.866,104.980,30.762,18.066,33.203,-190.430,0
1542733694.869,97.656,26.367,22.461,35.156,-204.102,0
1542733694.873,105.469,12.695,15.625,73.730,-209.473,0
1542733694.877,146.484,20.020,14.160,140.137,-257.812,0
1542733694.881,184.570,49.805,16.113,88.379,-324.707,0
1542733694.885,147.949,61.523,11.230,18.066,-374.023,0
1542733694.889,76.660,49.805,17.090,38.574,-367.676,0
1542733694.893,68.848,42.969,9.277,27.344,-415.039,0
1542733694.897,103.027,47.852,-5.371,-5.859,-456.055,0
1542733694.901,70.312,50.293,-9.766,-7.812,-452.637,0
1542733694.905,65.918,47.363,-14.648,2.441,-486.328,0
1542733694.908,103.027,49.805,-22.949,7.812,-534.668,0
1542733694.912,72.754,54.199,-31.738,-2.441,-562.988,0
1542733694.916,67.871,55.176,-36.133,-0.977,-582.520,0
1542733694.920,76.660,50.781,-28.320,8.789,-581.543,0
1542733694.924,58.594,48.340,-25.391,10.254,-574.707,0
1542733694.928,53.223,50.781,-25.391,2.930,-583.984,0
1542733694.932,65.918,50.781,-21.973,2.441,-511.719,0
1542733694.936,83.496,52.734,-22.949,17.090,-478.516,0
1542733694.940,86.914,54.199,-23.438,25.391,-524.902,0
1542733694.944,64.941,53.223,-20.020,21.973,-527.344,0
1542733694.948,14.160,50.781,-19.043,30.273,-451.172,0
1542733694.951,12.695,46.387,-15.137,38.574,-397.949,0
1542733694.955,64.453,47.363,-5.371,35.156,-384.277,0
1542733694.959,70.312,49.316,-2.441,17.090,-377.441,0
1542733694.963,54.199,47.852,-3.418,17.090,-340.820,0
1542733694.967,70.801,51.270,-7.324,32.715,-291.504,0
1542733694.971,54.688,48.340,-2.930,47.363,-284.180,0
1542733694.975,22.461,40.527,-0.977,53.711,-267.090,0
1542733694.979,29.297,39.551,-6.348,-10.742,-183.594,0
1542733694.983,57.129,43.457,2.930,0.488,-163.574,0
1542733694.987,23.438,43.945,9.766,59.082,-141.113,0
1542733694.991,1.953,35.645,10.742,32.227,-62.988,0
1542733694.994,20.508,36.133,7.324,-3.418,-62.012,0
1542733694.998,44.922,34.668,10.254,27.832,-49.805,0
1542733695.002,57.617,28.320,13.672,63.477,-4.883,0
1542733695.006,36.621,27.832,5.371,62.500,41.504,0
1542733695.010,10.254,33.203,1.465,43.457,57.129,0
1542733695.014,28.809,35.156,5.371,5.859,27.344,0
1542733695.018,54.199,35.645,9.277,12.207,40.527,0
1542733695.022,29.785,35.645,14.648,41.504,95.215,0
1542733695.026,30.273,34.180,18.066,55.176,131.348,0
1542733695.030,52.246,36.621,15.137,41.992,136.719,0
1542733695.033,42.480,36.133,13.672,37.109,124.512,0
1542733695.037,27.344,33.691,8.789,47.363,139.648,0
1542733695.041,37.109,27.344,10.254,51.758,168.945,0
1542733695.045,47.852,23.438,17.578,41.016,185.059,0
1542733695.049,91.309,27.344,15.137,30.762,181.152,0
1542733695.053,78.125,29.297,9.766,55.664,196.289,0
1542733695.057,-20.508,27.344,13.184,71.777,198.242,0
1542733695.061,-40.527,27.344,17.578,38.086,197.266,0
1542733695.065,-11.230,26.367,11.230,29.297,209.473,0
1542733695.069,-3.418,23.926,21.973,55.176,227.051,0
1542733695.073,30.762,27.344,27.344,33.203,242.188,0
1542733695.076,79.590,30.273,19.043,41.992,244.141,0
1542733695.080,92.285,28.320,16.113,49.805,252.441,0
1542733695.084,45.410,26.855,22.461,34.668,250.488,0
1542733695.088,-18.555,25.391,23.438,47.852,233.398,0
1542733695.092,-24.414,26.367,16.602,22.949,241.211,0
1542733695.096,3.418,27.832,9.766,32.715,270.996,0
1542733695.100,-0.977,23.926,19.531,39.062,274.902,0
1542733695.104,39.062,25.391,26.855,25.879,296.875,0
1542733695.108,85.938,27.344,19.043,34.180,310.547,0
1542733695.112,49.805,28.320,17.578,48.340,319.824,0
1542733695.116,0.488,28.320,24.414,70.801,326.172,0
1542733695.119,8.789,30.762,28.320,87.891,305.176,0
1542733695.123,-0.488,27.832,28.320,64.453,303.223,0
1542733695.127,-0.977,24.902,17.578,2.441,306.152,0
1542733695.131,19.043,20.996,15.137,15.625,286.133,0
1542733695.135,58.594,13.184,20.020,73.242,310.059,0
1542733695.139,120.605,32.227,20.020,94.238,335.938,0
1542733695.143,103.027,53.223,19.043,57.129,304.688,0
1542733695.147,7.812,43.945,15.625,36.621,297.363,0
1542733695.151,-27.344,38.086,5.859,44.922,313.477,0
1542733695.155,32.227,41.992,0.977,41.504,313.477,0
1542733695.158,47.852,46.875,-6.348,42.969,347.656,0
1542733695.162,-3.418,43.945,-14.160,19.043,385.254,0
1542733695.166,-21.484,41.016,-8.301,18.555,380.859,0
1542733695.170,-6.348,39.551,-1.465,1.953,368.652,0
1542733695.174,5.859,36.133,-1.465,-9.766,391.113,0
1542733695.178,30.762,40.527,-5.859,38.086,392.578,0
1542733695.182,47.852,39.062,-3.418,27.832,369.629,0
1542733695.186,59.570,36.133,2.930,2.930,393.555,0
1542733695.190,39.062,38.574,3.418,9.277,387.695,0
1542733695.194,27.832,41.992,4.395,41.016,378.906,0
1542733695.198,33.691,41.992,7.812,45.410,383.301,0
1542733695.201,25.879,41.992,8.789,28.320,369.141,0
1542733695.205,30.273,41.016,7.812,60.547,386.230,0
1542733695.209,30.762,43.945,8.789,51.270,364.258,0
1542733695.213,38.086,45.410,5.371,21.973,312.988,0
1542733695.217,15.625,41.992,-1.953,19.531,353.516,0
1542733695.221,-17.578,41.016,0.977,29.785,370.117,0
1542733695.225,5.859,41.016,8.301,53.711,333.984,0
1542733695.229,23.926,40.527,7.812,40.527,333.496,0
1542733695.233,42.969,41.016,3.418,3.418,331.055,0
1542733695.237,58.105,38.574,7.324,29.785,336.914,0
1542733695.241,56.152,36.621,13.672,58.105,320.801,0
1542733695.244,36.621,37.109,13.184,30.273,270.508,0
1542733695.248,17.578,39.062,11.230,14.648,304.199,0
1542733695.252,20.508,39.062,12.207,33.203,338.867,0
1542733695.256,2.441,33.203,12.695,39.062,308.594,0
1542733695.260,-5.859,27.344,17.090,25.391,285.156,0
1542733695.264,22.949,30.273,13.184,38.574,302.246,0
1542733695.268,34.668,33.203,3.418,54.199,330.078,0
1542733695.272,29.297,33.203,13.672,35.156,305.176,0
1542733695.276,57.617,36.133,23.438,17.578,271.484,0
1542733695.280,60.547,34.180,12.207,65.918,276.367,0
1542733695.283,46.875,29.297,7.812,68.848,278.809,0
1542733695.287,12.207,31.738,18.066,27.344,270.996,0
1542733695.291,-13.672,28.809,19.531,30.762,247.559,0
1542733695.295,24.414,26.367,8.301,32.227,257.324,0
1542733695.299,27.832,31.250,15.625,39.551,270.020,0
1542733695.303,54.688,27.832,24.414,43.457,265.625,0
1542733695.307,37.109,22.949,19.043,41.992,272.461,0
1542733695.311,-32.715,23.926,20.508,23.438,283.691,0
1542733695.315,11.719,24.902,19.043,20.996,298.828,0
1542733695.319,38.574,27.344,19.043,49.805,311.523,0
1542733695.323,-4.883,28.809,17.578,47.852,322.266,0
1542733695.326,15.137,25.879,13.672,37.598,308.594,0
1542733695.330,46.875,29.785,11.719,19.043,304.199,0
1542733695.334,-1.465,34.668,16.113,20.508,305.664,0
1542733695.338,-16.113,35.156,22.949,29.785,266.113,0
1542733695.342,-3.906,30.273,22.461,55.176,274.414,0
1542733695.346,-4.395,21.484,26.367,80.078,291.504,0
1542733695.350,8.301,26.367,34.180,64.453,288.086,0
1542733695.354,1.953,28.320,29.297,32.227,310.547,0
1542733695.358,7.812,29.785,26.367,42.969,314.453,0
1542733695.362,-9.766,32.715,28.320,80.566,289.551,0
1542733695.366,-9.277,26.855,24.902,103.027,280.762,0
1542733695.369,40.039,25.879,26.367,71.777,289.551,0
1542733695.373,28.320,26.855,25.391,31.250,289.062,0
1542733695.377,-22.461,29.785,14.648,33.691,296.875,0
1542733695.381,-6.836,31.738,12.695,36.133,304.688,0
1542733695.385,30.762,27.832,21.973,74.707,303.223,0
1542733695.389,-7.324,24.902,25.879,67.871,294.434,0
1542733695.393,-29.297,27.344,22.949,40.527,281.250,0
1542733695.397,-13.184,27.832,22.949,52.246,312.012,0
1542733695.401,11.230,28.320,20.020,45.410,355.957,0
1542733695.405,35.645,30.273,20.508,58.105,340.332,0
1542733695.408,25.391,33.203,23.926,59.082,345.703,0
1542733695.412,1.465,32.715,20.020,55.664,359.375,0
1542733695.416,-14.160,31.250,18.066,59.570,358.887,0
1542733695.420,-6.348,32.715,19.043,66.895,352.539,0
1542733695.424,8.301,28.809,16.113,49.805,352.051,0
1542733695.428,11.719,29.785,22.949,36.621,365.234,0
1542733695.432,24.902,31.250,27.832,49.805,354.980,0
1542733695.436,4.883,29.785,24.902,47.363,357.910,0
1542733695.440,-18.066,20.996,25.879,51.758,355.469,0
1542733695.444,-2.441,16.113,20.996,45.898,368.652,0
1542733695.448,-3.418,22.949,21.484,11.719,377.441,0
1542733695.451,5.859,30.762,26.855,18.066,377.930,0
1542733695.455,-11.230,26.367,22.461,48.340,387.207,0
1542733695.459,10.742,21.484,18.555,68.359,389.648,0
1542733695.463,45.898,21.484,23.926,56.641,367.676,0
1542733695.467,38.574,18.555,25.879,44.922,369.141,0
1542733695.471,24.902,21.973,19.043,79.102,382.812,0
1542733695.475,-25.391,22.949,16.602,65.430,370.605,0
1542733695.479,-28.809,18.066,27.344,17.578,342.285,0
1542733695.483,-20.996,17.090,20.508,-6.348,323.730,0
1542733695.487,-25.391,20.020,2.930,4.395,349.609,0
1542733695.491,-25.391,18.066,19.531,21.973,353.516,0
1542733695.494,13.184,12.207,36.133,38.086,328.613,0
1542733695.498,18.066,17.090,32.715,52.734,294.434,0
1542733695.502,-29.297,25.391,27.832,77.148,300.293,0
1542733695.506,-32.715,29.297,23.438,68.359,332.520,0
1542733695.510,-3.418,29.297,21.973,15.625,314.941,0
1542733695.514,50.293,29.785,19.043,7.812,303.711,0
1542733695.518,98.145,29.785,18.066,10.742,292.969,0
1542733695.522,50.293,31.250,20.508,48.340,300.293,0
1542733695.526,-35.645,27.832,22.949,86.426,269.043,0
1542733695.530,-41.992,27.832,25.879,45.898,265.137,0
1542733695.533,-10.254,29.785,33.691,28.809,313.965,0
1542733695.537,19.043,23.438,43.945,46.387,283.203,0
1542733695.541,23.438,24.902,47.363,66.406,250.488,0
